%OpenBCI Raw EXG Data
%Number of channels = 16
%Sample Rate = 125 Hz
%Board = OpenBCI_GUI$BoardCytonSerialDaisy
Sample Index, EXG Channel 0, EXG Channel 1, EXG Channel 2, EXG Channel 3, EXG Channel 4, EXG Channel 5, EXG Channel 6, EXG Channel 7, EXG Channel 8, EXG Channel 9, EXG Channel 10, EXG Channel 11, EXG Channel 12, EXG Channel 13, EXG Channel 14, EXG Channel 15, Accel Channel 0, Accel Channel 1, Accel Channel 2, Not Used, Digital Channel 0 (D11), Digital Channel 1 (D12), Digital Channel 2 (D13), Digital Channel 3 (D17), Not Used, Digital Channel 4 (D18), Analog Channel 0, Analog Channel 1, Analog Channel 2, Timestamp, Marker Channel, Timestamp (Formatted)
0.0, -47378.38922481409, -31624.298587357833, 102159.78797194816, -51056.39112667932, -55404.34186510347, -52631.33974448917, -65278.962585802394, -54859.36163179417, 0.0, 0.0, 0.0, 0.0, 0.0, 0.0, 0.0, 0.0, 0.0, 0.0, 0.0, 192.0, 0.0, 0.0, 0.0, 0.0, 0.0, 0.0, 0.0, 0.0, 0.0, 1.740776577704881E9, 0.0, 2025-02-28 15:02:57.704
116.0, -47364.26292231833, -31608.92058717258, 102161.59846324903, -51035.156969446776, -55380.24668458065, -52607.87041281109, -65256.20850994689, -54833.09833205919, 15811.132289306199, -38009.454370672036, -57383.03004300953, -48647.09659184177, -53035.52633947448, -55354.00573659012, -36527.153733629435, -44600.67088611971, 0.0, 0.0, 0.0, 192.0, 0.0, 0.0, 0.0, 0.0, 0.0, 0.0, 0.0, 0.0, 0.0, 1.740776577705186E9, 0.0, 2025-02-28 15:02:57.705
118.0, -47371.01314914384, -31619.40355532212, 102132.09416056803, -51038.643841581805, -55382.92889391529, -52612.49722391334, -65254.777998301746, -54835.46761697145, 15689.963482613979, -38005.07342875879, -57386.38280467782, -48639.20642604905, -53020.77418813398, -55343.6121754184, -36505.629003718976, -44584.264705689515, 0.048, 0.984, 0.07, 192.0, 0.5, 64.0, 15.0, 96.0, 1.0, 24.0, 0.0, 0.0, 0.0, 1.740776577705463E9, 0.0, 2025-02-28 15:02:57.705
120.0, -47385.117099895135, -31634.714500274004, 102147.85214040901, -51039.67202182675, -55387.06396663952, -52615.62646813709, -65260.83532104914, -54838.75332340638, 15794.882571087192, -38019.46795218801, -57384.34879593239, -48651.030498865905, -53036.19689180814, -55359.884245381865, -36520.0682306371, -44597.60869712933, 0.048, 0.984, 0.07, 192.0, 0.0, 0.0, 0.0, 0.0, 0.0, 0.0, 0.0, 0.0, 0.0, 1.740776577705723E9, 0.0, 2025-02-28 15:02:57.705
122.0, -47388.04517841878, -31645.80096552384, 102169.60038776403, -51041.929548016735, -55390.59554226346, -52616.297020470745, -65264.79157981773, -54839.535634462314, 15668.729325381439, -38025.56997842431, -57394.4964879151, -48651.589292477285, -53032.75472316203, -55356.68794592476, -36515.39671604594, -44588.64564760276, 0.048, 0.984, 0.07, 192.0, 0.0, 0.0, 0.0, 0.0, 0.0, 0.0, 0.0, 0.0, 0.0, 1.740776577705979E9, 0.0, 2025-02-28 15:02:57.705
124.0, -47395.44360583348, -31651.098328959746, 102144.54408222964, -51037.325088658945, -55388.85210619594, -52607.80335757773, -65264.67982109545, -54835.40056173808, 15752.883643255669, -38029.14625753716, -57398.94448506171, -48659.635920481196, -53041.98599362207, -55360.71125992671, -36524.58328301708, -44595.68644710618, 0.048, 0.984, 0.07, 192.0, 0.0, 0.0, 0.0, 0.0, 0.0, 0.0, 0.0, 0.0, 0.0, 1.740776577706231E9, 0.0, 2025-02-28 15:02:57.706
126.0, -47398.99753320188, -31664.30820993283, 102113.94454407031, -51040.58844334942, -55386.61693175041, -52605.590534876654, -65267.563196130184, -54834.08180881522, 15653.016049029357, -38022.21721675601, -57397.82689783894, -48649.1306005872, -53029.536071960465, -55345.10974229691, -36512.02160263319, -44579.9731707541, 0.048, 0.984, 0.07, 192.0, 0.0, 0.0, 0.0, 0.0, 0.0, 0.0, 0.0, 0.0, 0.0, 1.740776577706471E9, 0.0, 2025-02-28 15:02:57.706
128.0, -47412.72150429744, -31686.212919499034, 102131.06598032308, -51053.68656560023, -55392.96482717572, -52617.86164258262, -65277.420315434974, -54846.01764035436, 15716.62911374916, -38032.05198431635, -57402.58781940792, -48660.95467340406, -53035.28047028548, -55356.77735290258, -36520.0682306371, -44592.33368543789, 0.048, 0.98, 0.074, 192.0, 0.5, 64.0, 15.0, 80.0, 1.0, 40.0, 0.0, 0.0, 0.0, 1.740776577706761E9, 0.0, 2025-02-28 15:02:57.706
130.0, -47439.521245899356, -31721.84160016079, 102160.68204172637, -51065.1530105058, -55399.58094353449, -52627.31643048721, -65276.39213519003, -54845.92823337654, 15618.28143814581, -38050.71569093653, -57424.89486037432, -48675.639769511195, -53042.678897700185, -55369.316681542005, -36523.733916727775, -44598.63687737428, 0.048, 0.98, 0.074, 192.0, 0.0, 0.0, 0.0, 0.0, 0.0, 0.0, 0.0, 0.0, 0.0, 1.740776577707011E9, 0.0, 2025-02-28 15:02:57.707
132.0, -47442.71754535646, -31739.76769921395, 102161.33024231557, -51060.92853080375, -55392.96482717572, -52622.82372985169, -65265.260966451286, -54841.502587974384, 15625.255182415865, -38072.86626969174, -57439.691715203735, -48693.14118541971, -53053.49714201655, -55388.31566432901, -36532.31698659861, -44611.1315025248, 0.048, 0.98, 0.074, 192.0, 0.0, 0.0, 0.0, 0.0, 0.0, 0.0, 0.0, 0.0, 0.0, 1.74077657770725E9, 0.0, 2025-02-28 15:02:57.707
134.0, -47443.45515292349, -31751.41295807516, 102132.36238150149, -51056.03349876803, -55386.08048988348, -52612.74309310235, -65252.67693432295, -54827.37628547863, 15586.98899590838, -38066.96540915554, -57428.851119142906, -48682.12177540324, -53035.34752551884, -55372.401222276836, -36511.30634681063, -44589.31619993642, 0.048, 0.98, 0.074, 192.0, 0.0, 0.0, 0.0, 0.0, 0.0, 0.0, 0.0, 0.0, 0.0, 1.740776577707479E9, 0.0, 2025-02-28 15:02:57.707
136.0, -47471.08190907024, -31772.468301352063, 102148.52269274267, -51063.253112227096, -55399.647998767854, -52618.46513968291, -65265.9538705294, -54839.893262373604, 15586.005519152346, -38072.083958635805, -57433.23206105615, -48686.905048716675, -53040.846054654845, -55374.18936183326, -36510.92636715488, -44588.53388888048, 0.047, 0.98, 0.079, 192.0, 0.5, 56.0, 15.0, 80.0, 1.0, 80.0, 0.0, 0.0, 0.0, 1.740776577707735E9, 0.0, 2025-02-28 15:02:57.707
138.0, -47492.78545293635, -31805.01244127899, 102169.39922206393, -51072.618493153874, -55410.846222739965, -52629.68571539947, -65277.68853636844, -54850.57739622324, 15550.466245468408, -38095.150958913684, -57461.97640442567, -48708.563889093864, -53062.5719502654, -55387.33218757298, -36526.55023652914, -44601.81082508693, 0.047, 0.98, 0.079, 192.0, 0.0, 0.0, 0.0, 0.0, 0.0, 0.0, 0.0, 0.0, 0.0, 1.740776577707994E9, 0.0, 2025-02-28 15:02:57.707
140.0, -47496.09351111574, -31809.415734936683, 102145.41580026339, -51067.0529087845, -55406.17470814881, -52625.97532581989, -65272.63704212154, -54848.83396015572, 15503.505230367808, -38102.75055202848, -57468.95014869573, -48717.795159553905, -53064.49420028856, -55393.32245508701, -36531.53467554267, -44607.264650734025, 0.047, 0.98, 0.079, 192.0, 0.0, 0.0, 0.0, 0.0, 0.0, 0.0, 0.0, 0.0, 0.0, 1.74077657770824E9, 0.0, 2025-02-28 15:02:57.708
142.0, -47499.22275533948, -31820.658662397705, 102115.33035222655, -51059.43096392524, -55400.229144123696, -52618.06280828272, -65264.836283306635, -54842.17314030804, 15525.45464342292, -38094.30159262438, -57468.25724461761, -48708.83211002733, -53049.31736580341, -55377.18449559027, -36519.44238179235, -44594.79237732797, 0.047, 0.98, 0.079, 192.0, 0.0, 0.0, 0.0, 0.0, 0.0, 0.0, 0.0, 0.0, 0.0, 1.74077657770848E9, 0.0, 2025-02-28 15:02:57.708
144.0, -47509.839833955746, -31836.30488351642, 102131.60242219002, -51063.96836804967, -55407.76168200513, -52625.84121535316, -65273.866388066584, -54850.66680320106, 15458.935851923927, -38098.95075547109, -57463.51867479309, -48712.698961818096, -53051.30667105993, -55377.87739966839, -36517.14015211346, -44596.89344130677, 0.047, 0.98, 0.079, 192.0, 0.0, 0.0, 0.0, 0.0, 0.0, 0.0, 0.0, 0.0, 0.0, 1.740776577708714E9, 0.0, 2025-02-28 15:02:57.708
146.0, -47520.322802105286, -31849.470061000597, 102163.96774816129, -51066.78468785104, -55417.283525143095, -52630.57978517769, -65281.33187071465, -54857.95347189349, 15503.728747812362, -38111.49008411051, -57485.333977381466, -48728.34518293681, -53067.46698230112, -55390.640245752365, -36535.46858256681, -44612.29379323647, 0.0445, 0.981, 0.0805, 192.0, 0.5, 40.0, 15.0, 88.0, 1.0, 72.0, 0.0, 0.0, 0.0, 1.74077657770895E9, 0.0, 2025-02-28 15:02:57.708
148.0, -47517.59588928174, -31845.312636531908, 102162.06784988259, -51058.04515576901, -55406.82290873801, -52619.56037516122, -65268.72548684186, -54845.95058512099, 15415.707578147361, -38105.25394740748, -57481.44477384625, -48719.35978166578, -53059.085078130374, -55386.39341430586, -36522.526922527184, -44597.6757523627, 0.0445, 0.981, 0.0805, 192.0, 0.0, 0.0, 0.0, 0.0, 0.0, 0.0, 0.0, 0.0, 0.0, 1.740776577709195E9, 0.0, 2025-02-28 15:02:57.709
150.0, -47522.60268003973, -31851.59347672385, 102130.90951811189, -51065.555341905994, -55409.795690750565, -52619.873299583596, -65272.86055956609, -54843.64835544209, 15505.092204224135, -38103.51051133997, -57478.80726800052, -48716.744627564505, -53057.58751125187, -55387.6227602509, -36520.04587889265, -44593.51832789402, 0.0445, 0.981, 0.0805, 192.0, 0.0, 0.0, 0.0, 0.0, 0.0, 0.0, 0.0, 0.0, 0.0, 1.740776577709435E9, 0.0, 2025-02-28 15:02:57.709
152.0, -47526.0672004303, -31855.348569792342, 102146.98042237526, -51078.80992636799, -55418.19994666576, -52630.4233229665, -65284.17054226048, -54858.355803293685, 15391.657101113451, -38106.86327300826, -57484.28344539207, -48718.085732231826, -53059.04037464147, -55391.131984130385, -36521.29757658215, -44594.770025583515, 0.0445, 0.981, 0.0805, 192.0, 0.0, 0.0, 0.0, 0.0, 0.0, 0.0, 0.0, 0.0, 0.0, 1.740776577709665E9, 0.0, 2025-02-28 15:02:57.709
154.0, -47537.95832848053, -31863.797529196447, 102168.39339356344, -51085.18017353775, -55420.45747285575, -52636.7265149029, -65293.714737142895, -54863.56375975177, 15498.029052976259, -38114.865197523264, -57494.05115771904, -48729.14984573721, -53073.47960155959, -55402.64313252487, -36537.41318433442, -44611.958517069645, 0.0445, 0.981, 0.0805, 192.0, 0.0, 0.0, 0.0, 0.0, 0.0, 0.0, 0.0, 0.0, 0.0, 1.740776577709888E9, 0.0, 2025-02-28 15:02:57.709
156.0, -47529.82229349879, -31856.533212248472, 102144.11939908499, -51085.94013284924, -55415.741254775676, -52636.30183175825, -65289.84788535212, -54866.96122490898, 15371.629938081496, -38116.72039231305, -57491.92774199579, -48726.22176721356, -53067.84696195686, -55402.86664996942, -36528.628948763486, -44608.58340365689, 0.04725, 0.9775, 0.07925, 192.0, 0.5, 72.0, 15.0, 56.0, 1.0, 56.0, 0.0, 0.0, 0.0, 1.740776577710204E9, 0.0, 2025-02-28 15:02:57.710
158.0, -47498.61925823918, -31839.076499828876, 102115.73268362675, -51064.21423723868, -55391.31079808603, -52614.061846025215, -65266.311498440686, -54843.0448583418, 15511.59656186063, -38103.30934563987, -57478.58375055597, -48716.92344152015, -53050.50200825954, -55390.43908005227, -36521.342280071054, -44600.46972041961, 0.04725, 0.9775, 0.07925, 192.0, 0.0, 0.0, 0.0, 0.0, 0.0, 0.0, 0.0, 0.0, 0.0, 1.740776577710451E9, 0.0, 2025-02-28 15:02:57.710
160.0, -47530.89517723265, -31860.869450672802, 102130.73070415625, -51085.47074621567, -55414.66837104182, -52633.70902940143, -65279.74489685833, -54864.636643485625, 15389.198409223369, -38102.48233109502, -57474.001642942625, -48713.23540368502, -53046.54574949095, -55379.86670492491, -36511.50751251072, -44592.646609860254, 0.04725, 0.9775, 0.07925, 192.0, 0.0, 0.0, 0.0, 0.0, 0.0, 0.0, 0.0, 0.0, 0.0, 1.740776577710699E9, 0.0, 2025-02-28 15:02:57.710
162.0, -47517.84175847075, -31848.531287733473, 102161.28553882666, -51086.72244390517, -55412.70141752976, -52626.33295373118, -65267.74201008583, -54851.38205902363, 15505.11455596859, -38104.449284607086, -57487.59150357146, -48726.98172652504, -53066.729374734095, -55384.64997823835, -36534.99919593325, -44608.87397633481, 0.04725, 0.9775, 0.07925, 192.0, 0.0, 0.0, 0.0, 0.0, 0.0, 0.0, 0.0, 0.0, 0.0, 1.740776577710948E9, 0.0, 2025-02-28 15:02:57.710
164.0, -47505.503595531416, -31847.30194178843, 102165.48766678425, -51096.1101765764, -55408.76751050562, -52628.99281132136, -65259.09188498162, -54848.40927701107, 15377.03906023968, -38110.57366258784, -57491.16778268431, -48731.921462049664, -53064.024813655, -55385.56639976101, -36535.4238790779, -44608.471644934616, 0.04725, 0.9775, 0.07925, 192.0, 0.0, 0.0, 0.0, 0.0, 0.0, 0.0, 0.0, 0.0, 0.0, 1.740776577711278E9, 0.0, 2025-02-28 15:02:57.711
166.0, -47494.21596458149, -31825.2631217555, 102136.4080472479, -51079.189906023734, -55391.37785331939, -52614.821805336695, -65245.9490592419, -54831.37724773613, 15520.35844568711, -38096.51441532546, -57472.07939291947, -48721.41614215567, -53057.25223508504, -55373.83173392198, -36531.84759996505, -44604.761255355035, 0.048625, 0.97875, 0.077625, 192.0, 0.5, 72.0, 15.0, 80.0, 1.0, 48.0, 0.0, 0.0, 0.0, 1.740776577711518E9, 0.0, 2025-02-28 15:02:57.711
168.0, -47494.819461681785, -31816.098906528823, 102153.0600968671, -51074.808964110496, -55387.39924280635, -52615.738226859365, -65240.942268483916, -54830.103198302175, 15405.358720464556, -38075.19085111509, -57461.059982903, -48699.86906050075, -53049.0714966144, -55351.30117551103, -36521.27522483769, -44585.38229291228, 0.048625, 0.97875, 0.077625, 192.0, 0.0, 0.0, 0.0, 0.0, 0.0, 0.0, 0.0, 0.0, 0.0, 1.740776577711759E9, 0.0, 2025-02-28 15:02:57.711
170.0, -47488.13629008964, -31808.476961669563, 102174.49541979974, -51078.29583624552, -55385.16406836082, -52621.43792169546, -65244.67500980795, -54836.00405883838, 15531.757835359316, -38075.14614762618, -57462.80341897052, -48707.28983965991, -53063.778944465994, -55361.29240528255, -36536.943797700864, -44599.59800238586, 0.048625, 0.97875, 0.077625, 192.0, 0.0, 0.0, 0.0, 0.0, 0.0, 0.0, 0.0, 0.0, 0.0, 1.740776577711996E9, 0.0, 2025-02-28 15:02:57.711
172.0, -47479.88849638564, -31801.43616216614, 102149.95320438781, -51073.57961816545, -55369.875475153385, -52618.26397398281, -65229.22995438933, -54824.55996567726, 15428.224555042334, -38075.30260983737, -57466.670270761286, -48705.21112742557, -53059.442706041664, -55356.598538946935, -36536.36265234502, -44593.18305172719, 0.048625, 0.97875, 0.077625, 192.0, 0.0, 0.0, 0.0, 0.0, 0.0, 0.0, 0.0, 0.0, 0.0, 1.740776577712229E9, 0.0, 2025-02-28 15:02:57.712
174.0, -47467.90796135759, -31786.639307336725, 102120.06892205107, -51071.32209197547, -55354.922158112786, -52612.251354724336, -65216.467108305354, -54813.80877659426, 15540.78794011926, -38061.64569397517, -57447.42541878527, -48690.883659229716, -53043.34945003384, -55347.72489639818, -36522.70573648283, -44582.90124927774, 0.048625, 0.97875, 0.077625, 192.0, 0.0, 0.0, 0.0, 0.0, 0.0, 0.0, 0.0, 0.0, 0.0, 1.740776577712457E9, 0.0, 2025-02-28 15:02:57.712
176.0, -47485.45408075501, -31806.822932579867, 102134.91048036939, -51094.18792655324, -55364.064021595004, -52630.51272994432, -65230.61576254556, -54826.10223604468, 15458.24294784581, -38074.20737435906, -57455.963785167194, -48697.3433133773, -53051.64194722676, -55354.74334415714, -36528.40543131893, -44587.416301657715, 0.045312500000000006, 0.979375, 0.0768125, 192.0, 0.5, 40.0, 15.0, 80.0, 1.0, 48.0, 0.0, 0.0, 0.0, 1.740776577712683E9, 0.0, 2025-02-28 15:02:57.712
178.0, -47482.72716793146, -31795.132970229744, 102156.45756202431, -51092.198621296724, -55361.09123958245, -52630.57978517769, -65236.248402148296, -54830.37141923564, 15519.93376254246, -38086.612592531754, -57467.83256147296, -48709.70382806109, -53069.232770113085, -55368.35555653043, -36542.03999543667, -44603.151929754255, 0.045312500000000006, 0.979375, 0.0768125, 192.0, 0.0, 0.0, 0.0, 0.0, 0.0, 0.0, 0.0, 0.0, 0.0, 1.74077657771293E9, 0.0, 2025-02-28 15:02:57.712
180.0, -47467.55033344631, -31777.00570547649, 102137.2574135372, -51078.80992636799, -55347.45667546472, -52619.448616438945, -65226.48068982133, -54820.20137550848, 15476.325509110155, -38067.92653416712, -57451.73930546514, -48689.81077549586, -53060.31442407542, -55350.34005049945, -36535.49093431127, -44592.71366509362, 0.045312500000000006, 0.979375, 0.0768125, 192.0, 0.0, 0.0, 0.0, 0.0, 0.0, 0.0, 0.0, 0.0, 0.0, 1.74077657771318E9, 0.0, 2025-02-28 15:02:57.713
182.0, -47447.72433611445, -31756.3973970887, 102138.66557343789, -51068.17049600727, -55335.833768347955, -52608.384502933564, -65216.98119842783, -54813.1382242606, 15535.803501105727, -38051.319188036825, -57431.37686626636, -48671.81762120934, -53047.05983961342, -55336.30315498151, -36521.99048066026, -44580.01787424301, 0.045312500000000006, 0.979375, 0.0768125, 192.0, 0.0, 0.0, 0.0, 0.0, 0.0, 0.0, 0.0, 0.0, 0.0, 1.740776577713434E9, 0.0, 2025-02-28 15:02:57.713
184.0, -47450.205379748986, -31759.146661656698, 102157.64220448043, -51071.7020716312, -55340.34882072793, -52613.637162880565, -65218.992855428805, -54813.07116902724, 15529.388550447055, -38043.16080131064, -57424.67134292977, -48663.56982750534, -53036.934499375166, -55328.010657788596, -36510.25581482123, -44568.886705504265, 0.045312500000000006, 0.979375, 0.0768125, 192.0, 0.0, 0.0, 0.0, 0.0, 0.0, 0.0, 0.0, 0.0, 0.0, 1.740776577713679E9, 0.0, 2025-02-28 15:02:57.713
186.0, -47455.27922574034, -31761.828870991336, 102178.3175681016, -51091.81864164098, -55355.32448951298, -52634.8713201131, -65231.33101836813, -54833.411256481566, 15534.976486560881, -38062.11508060874, -57439.401142525814, -48684.11108065976, -53061.87904618729, -55353.13401855636, -36528.09250689656, -44593.58538312738, 0.047656250000000004, 0.9776875, 0.07540625000000001, 192.0, 0.5, 72.0, 15.0, 64.0, 1.0, 40.0, 0.0, 0.0, 0.0, 1.740776577713924E9, 0.0, 2025-02-28 15:02:57.713
188.0, -47437.64369936511, -31744.819193460848, 102154.44590502333, -51082.94499909222, -55343.23219576266, -52627.338782231665, -65225.0948816651, -54822.79417786529, 15549.21454777891, -38054.5825427273, -57434.372000023366, -48677.87494395673, -53051.55254024894, -55350.518864455094, -36524.4715242948, -44592.40074067125, 0.047656250000000004, 0.9776875, 0.07540625000000001, 192.0, 0.0, 0.0, 0.0, 0.0, 0.0, 0.0, 0.0, 0.0, 0.0, 1.740776577714181E9, 0.0, 2025-02-28 15:02:57.714
190.0, -47438.69423135451, -31736.90667592367, 102123.51109069718, -51088.73410090615, -55344.68505915226, -52633.977250334894, -65228.38058810003, -54831.2431372694, 15539.73740812986, -38048.61462695773, -57422.25735452859, -48672.51052528746, -53045.20464482363, -55348.30604175402, -36519.46473353681, -44593.51832789402, 0.047656250000000004, 0.9776875, 0.07540625000000001, 192.0, 0.0, 0.0, 0.0, 0.0, 0.0, 0.0, 0.0, 0.0, 0.0, 1.740776577714405E9, 0.0, 2025-02-28 15:02:57.714
192.0, -47442.69519361201, -31741.734652726016, 102139.58199496055, -51088.845859628425, -55343.96980332969, -52632.434979967475, -65234.10263468059, -54830.68434365802, 15586.653719741551, -38052.59323747078, -57425.74422666362, -48675.75152823348, -53043.8188366674, -55351.971727844684, -36523.39864056095, -44596.96049654013, 0.047656250000000004, 0.9776875, 0.07540625000000001, 192.0, 0.0, 0.0, 0.0, 0.0, 0.0, 0.0, 0.0, 0.0, 0.0, 1.740776577714642E9, 0.0, 2025-02-28 15:02:57.714
194.0, -47441.599958133695, -31735.342053811797, 102161.50905627121, -51091.52806896306, -55346.98728883115, -52636.346535247154, -65240.56228882817, -54840.02737284033, 15530.349675458632, -38060.52810675241, -57434.55081397901, -48684.46870857105, -53049.652641970235, -55358.94547211474, -36530.305329597635, -44603.911889065734, 0.047656250000000004, 0.9776875, 0.07540625000000001, 192.0, 0.0, 0.0, 0.0, 0.0, 0.0, 0.0, 0.0, 0.0, 0.0, 1.740776577714875E9, 0.0, 2025-02-28 15:02:57.714
196.0, -47430.424085906045, -31719.76288792645, 102137.2574135372, -51076.5076966891, -55338.560681171504, -52620.74501761735, -65229.34171311161, -54822.347142976185, 15612.402929354064, -38048.05583334635, -57424.716046418675, -48673.404595065665, -53041.56131047742, -55347.68019290927, -36526.70669874033, -44595.664095361724, 0.049828125, 0.97684375, 0.07770312500000001, 192.0, 0.5, 80.0, 15.0, 64.0, 1.0, 64.0, 0.0, 0.0, 0.0, 1.740776577715111E9, 0.0, 2025-02-28 15:02:57.715
198.0, -47426.75839981537, -31709.70460292156, 102106.92609631135, -51079.122850790365, -55347.83665512045, -52621.23675599537, -65227.68768402192, -54828.27035525684, 15539.893870341048, -38039.293949519866, -57421.20682253919, -48665.89440892868, -53038.45441799813, -55336.63843114835, -36521.81166670462, -44586.27636269049, 0.049828125, 0.97684375, 0.07770312500000001, 192.0, 0.0, 0.0, 0.0, 0.0, 0.0, 0.0, 0.0, 0.0, 0.0, 1.740776577715359E9, 0.0, 2025-02-28 15:02:57.715
200.0, -47412.1403589416, -31691.733800379494, 102148.34387878704, -51063.54368490502, -55340.460579450206, -52606.52930814378, -65216.42240481644, -54814.50168067237, 15651.876110062136, -38027.80515286984, -57409.270991000056, -48658.98771989199, -53037.292127286455, -55324.635544375844, -36524.784448717175, -44582.56597311091, 0.049828125, 0.97684375, 0.07770312500000001, 192.0, 0.0, 0.0, 0.0, 0.0, 0.0, 0.0, 0.0, 0.0, 0.0, 1.740776577715606E9, 0.0, 2025-02-28 15:02:57.715
202.0, -47427.00426900438, -31700.22746327251, 102178.74225124625, -51081.559190935994, -55362.05236459403, -52629.68571539947, -65234.88494573653, -54837.76984665035, 15555.450684481943, -38024.56414992382, -57405.6500083983, -48655.34438554578, -53043.997650623045, -55319.91932629578, -36525.87968419548, -44584.130595222785, 0.049828125, 0.97684375, 0.07770312500000001, 192.0, 0.0, 0.0, 0.0, 0.0, 0.0, 0.0, 0.0, 0.0, 0.0, 1.740776577715845E9, 0.0, 2025-02-28 15:02:57.715
204.0, -47406.08303619421, -31684.625945642707, 102154.3117945566, -51070.51742917507, -55350.34005049945, -52619.0686367832, -65226.72655901034, -54824.69407614399, 15664.080162534734, -38031.49319070497, -57417.04939807051, -48665.91676067314, -53058.749801963546, -55330.64816363432, -36544.699853026854, -44601.81082508693, 0.049828125, 0.97684375, 0.07770312500000001, 192.0, 0.0, 0.0, 0.0, 0.0, 0.0, 0.0, 0.0, 0.0, 0.0, 1.740776577716097E9, 0.0, 2025-02-28 15:02:57.716
206.0, -47393.8342802327, -31669.247945457453, 102125.83567212053, -51062.18022849324, -55335.58789915895, -52609.14446224504, -65216.35534958308, -54815.4404539395, 15563.810236908226, -38011.28721371737, -57398.788022850524, -48645.46491449654, -53033.33586851786, -55312.0068087586, -36520.98465215977, -44581.35897891033, 0.0489140625, 0.977421875, 0.0788515625, 192.0, 0.5, 64.0, 15.0, 72.0, 1.0, 64.0, 0.0, 0.0, 0.0, 1.740776577716339E9, 0.0, 2025-02-28 15:02:57.716
208.0, -47412.05095196378, -31689.096294533767, 102140.90074788341, -51082.78853688104, -55352.50816971161, -52628.27755549879, -65233.00739920228, -54829.38794247961, 15697.384261773142, -38015.13171376368, -57396.53049666053, -48651.589292477285, -53031.50302547253, -55317.99707627262, -36522.79514346065, -44587.43865340217, 0.0489140625, 0.977421875, 0.0788515625, 192.0, 0.0, 0.0, 0.0, 0.0, 0.0, 0.0, 0.0, 0.0, 0.0, 1.740776577716592E9, 0.0, 2025-02-28 15:02:57.716
210.0, -47415.2919549098, -31691.711448635037, 102162.26901558269, -51087.035368327546, -55356.41972499129, -52635.31835500221, -65235.73431202583, -54836.38403849412, 15553.394323992054, -38040.05390883135, -57418.88224111584, -48673.96338867705, -53052.111333860325, -55343.20984401821, -36542.531733814685, -44609.96921181312, 0.0489140625, 0.977421875, 0.0788515625, 192.0, 0.0, 0.0, 0.0, 0.0, 0.0, 0.0, 0.0, 0.0, 0.0, 1.740776577716823E9, 0.0, 2025-02-28 15:02:57.716
212.0, -47397.835242490204, -31677.942774050567, 102137.9056141264, -51073.669025143274, -55346.316736497494, -52624.58951766366, -65227.28535262172, -54826.549270933785, 15695.707880938993, -38028.83333311479, -57400.196182751206, -48662.94397866059, -53040.77899942148, -55334.67147763628, -36537.41318433442, -44603.19663324316, 0.0489140625, 0.977421875, 0.0788515625, 192.0, 0.0, 0.0, 0.0, 0.0, 0.0, 0.0, 0.0, 0.0, 0.0, 1.74077657771705E9, 0.0, 2025-02-28 15:02:57.717
214.0, -47396.24826863388, -31672.533651892383, 102122.92994534136, -51074.63015015485, -55346.09321905294, -52629.10457004364, -65235.15316666999, -54835.199396037984, 15580.328176060699, -38023.53596967888, -57390.00378727959, -48651.96927213303, -53031.52537721698, -55331.56458515699, -36529.90299819744, -44597.78751108498, 0.0489140625, 0.977421875, 0.0788515625, 192.0, 0.0, 0.0, 0.0, 0.0, 0.0, 0.0, 0.0, 0.0, 0.0, 1.740776577717284E9, 0.0, 2025-02-28 15:02:57.717
216.0, -47390.66033252005, -31664.419968655107, 102158.96095740331, -51070.53978091953, -55346.04851556403, -52630.8703578556, -65236.114291681566, -54836.89812861659, 15715.1091951262, -38018.14919926515, -57381.241903453105, -48646.33663253029, -53027.993801593046, -55335.09616078093, -36534.79803023315, -44605.07417977741, 0.05145703125, 0.9757109374999999, 0.07542578125, 192.0, 0.5, 88.0, 15.0, 56.0, 1.0, 32.0, 0.0, 0.0, 0.0, 1.740776577717518E9, 0.0, 2025-02-28 15:02:57.717
218.0, -47391.934381954, -31663.727064576993, 102181.53621930316, -51070.4056704528, -55350.18358828826, -52634.15606429053, -65239.86938475006, -54840.36264900716, 15599.438917569985, -38020.00439405494, -57388.61797912336, -48645.75548717445, -53028.753760904525, -55339.47710269417, -36533.3228150991, -44606.45998793364, 0.05145703125, 0.9757109374999999, 0.07542578125, 192.0, 0.0, 0.0, 0.0, 0.0, 0.0, 0.0, 0.0, 0.0, 0.0, 1.740776577717756E9, 0.0, 2025-02-28 15:02:57.717
220.0, -47393.25313487687, -31664.487023888472, 102156.4128585354, -51070.36096696389, -55359.884245381865, -52637.5758811922, -65249.123006954556, -54845.7941229098, 15717.366721316186, -38017.85862658723, -57397.62573213885, -48649.44352500958, -53029.64783068274, -55342.829864362466, -36540.63183553598, -44615.110113037845, 0.05145703125, 0.9757109374999999, 0.07542578125, 192.0, 0.0, 0.0, 0.0, 0.0, 0.0, 0.0, 0.0, 0.0, 0.0, 1.740776577717991E9, 0.0, 2025-02-28 15:02:57.717
222.0, -47387.24051561839, -31658.206183696533, 102126.19330003182, -51067.56699890697, -55361.94060587175, -52634.15606429053, -65245.07734120815, -54843.78246590882, 15618.527307334818, -38010.88488231717, -57388.863848312365, -48643.073277839816, -53026.78680739246, -55333.464483435695, -36536.876742467495, -44609.030438546, 0.05145703125, 0.9757109374999999, 0.07542578125, 192.0, 0.0, 0.0, 0.0, 0.0, 0.0, 0.0, 0.0, 0.0, 0.0, 1.740776577718236E9, 0.0, 2025-02-28 15:02:57.718
224.0, -47403.937268726506, -31670.87962280269, 102140.99015486124, -51087.19183053873, -55387.3768910619, -52653.89265464457, -65268.45726590839, -54865.061326630275, 15713.54457301433, -38023.02187955641, -57400.26323798457, -48660.57469374832, -53036.241595297055, -55347.72489639818, -36553.90877174244, -44627.71649691064, 0.05145703125, 0.9757109374999999, 0.07542578125, 192.0, 0.0, 0.0, 0.0, 0.0, 0.0, 0.0, 0.0, 0.0, 0.0, 1.740776577718481E9, 0.0, 2025-02-28 15:02:57.718
226.0, -47401.52328032533, -31675.1264542492, 102162.42547779388, -51089.06937707298, -55394.216524865216, -52655.591387223176, -65267.13851298553, -54863.98844289642, 15627.445653372486, -38030.80028662685, -57411.9532003347, -48669.58244676381, -53049.40677278123, -55353.7151639122, -36566.62691433751, -44636.94776737068, 0.051728515625, 0.97785546875, 0.073712890625, 192.0, 0.5, 80.0, 15.0, 80.0, 1.0, 32.0, 0.0, 0.0, 0.0, 1.74077657771873E9, 0.0, 2025-02-28 15:02:57.718
228.0, -47397.5893733012, -31662.922401776603, 102137.95031761531, -51082.38620548084, -55389.90263818534, -52649.712878431426, -65263.67399259496, -54860.47921901694, 15690.29875878081, -38033.16957153912, -57415.7529968921, -48675.05862415536, -53056.11229611782, -55359.70543142622, -36574.76294931924, -44647.11781109784, 0.051728515625, 0.97785546875, 0.073712890625, 192.0, 0.0, 0.0, 0.0, 0.0, 0.0, 0.0, 0.0, 0.0, 0.0, 1.740776577718979E9, 0.0, 2025-02-28 15:02:57.718
230.0, -47375.41644280153, -31641.576485821784, 102121.14180578492, -51057.39695517981, -55363.28171053907, -52623.31546822971, -65229.92285846745, -54830.103198302175, 15654.96065079697, -38003.508806646925, -57391.993092536104, -48644.593196462774, -53027.63617368176, -55328.502396166616, -36544.141059415466, -44617.2335287611, 0.051728515625, 0.97785546875, 0.073712890625, 192.0, 0.0, 0.0, 0.0, 0.0, 0.0, 0.0, 0.0, 0.0, 0.0, 1.74077657771922E9, 0.0, 2025-02-28 15:02:57.719
232.0, -47394.39307384409, -31653.042930727355, 102156.63637597996, -51078.25113275661, -55382.90654217083, -52642.023878338805, -65248.273640665255, -54848.96807062245, 15703.553343242807, -38003.17353048009, -57387.3439296894, -48646.80601916385, -53032.039467339455, -55331.83280609045, -36543.24698963726, -44621.480360207606, 0.051728515625, 0.97785546875, 0.073712890625, 192.0, 0.0, 0.0, 0.0, 0.0, 0.0, 0.0, 0.0, 0.0, 0.0, 1.740776577719452E9, 0.0, 2025-02-28 15:02:57.719
234.0, -47390.68268426451, -31654.004055738937, 102178.78695473516, -51075.54657167752, -55380.69371946975, -52638.380543992585, -65244.697361552404, -54842.70958217497, 15677.133581296634, -38013.67885037409, -57403.23601999712, -48659.367699547736, -53043.03652561147, -55342.36047772891, -36554.02053046472, -44630.51046496755, 0.051728515625, 0.97785546875, 0.073712890625, 192.0, 0.0, 0.0, 0.0, 0.0, 0.0, 0.0, 0.0, 0.0, 0.0, 1.740776577719672E9, 0.0, 2025-02-28 15:02:57.719
236.0, -47387.084053407205, -31649.533706847873, 102153.77535268967, -51076.48534494464, -55381.61014099242, -52643.72261091741, -65248.899489510004, -54849.839788656216, 15682.587406943729, -38014.684678874575, -57400.08442402893, -48659.45710652556, -53040.24255755456, -55344.55094868552, -36550.645417051965, -44628.677621922216, 0.0508642578125, 0.9799277343749999, 0.0698564453125, 192.0, 0.5, 72.0, 15.0, 88.0, 1.0, 8.0, 0.0, 0.0, 0.0, 1.740776577719908E9, 0.0, 2025-02-28 15:02:57.719
238.0, -47385.98881792889, -31632.792250250848, 102122.52761394116, -51076.73121413365, -55386.661635239325, -52647.74592491936, -65252.00638198929, -54853.19255032451, 15702.882790909147, -38007.17449273759, -57398.8997815728, -48653.980929134006, -53039.75081917654, -55341.01937306159, -36551.338321130075, -44628.230587033104, 0.0508642578125, 0.9799277343749999, 0.0698564453125, 192.0, 0.0, 0.0, 0.0, 0.0, 0.0, 0.0, 0.0, 0.0, 0.0, 1.740776577720233E9, 0.0, 2025-02-28 15:02:57.720
240.0, -47396.158861656055, -31657.155651707133, 102137.8609106375, -51094.232630042156, -55397.703397000245, -52670.58940775268, -65272.592338632625, -54877.220675613964, 15690.052889591801, -38006.48158865948, -57405.292380487015, -48660.70880421506, -53051.86546467131, -55356.84440813594, -36567.61039109354, -44648.68243320971, 0.0508642578125, 0.9799277343749999, 0.0698564453125, 192.0, 0.0, 0.0, 0.0, 0.0, 0.0, 0.0, 0.0, 0.0, 0.0, 1.740776577720468E9, 0.0, 2025-02-28 15:02:57.720
242.0, -47396.49413782288, -31676.489910660974, 102160.01148939271, -51089.3599497509, -55389.23208585168, -52665.94024490598, -65264.85863505109, -54866.603596997695, 15698.457145506996, -38046.60296995675, -57409.31569448897, -48674.70099624408, -53054.905301917235, -55371.48480075417, -36566.29163817068, -44648.74948844308, 0.0508642578125, 0.9799277343749999, 0.0698564453125, 192.0, 0.0, 0.0, 0.0, 0.0, 0.0, 0.0, 0.0, 0.0, 0.0, 1.740776577720706E9, 0.0, 2025-02-28 15:02:57.720
244.0, -47384.3347888392, -31666.856308800736, 102136.96684085928, -51082.07328105847, -55379.08439386897, -52656.68662270148, -65259.24834719281, -54861.9991376399, 15641.840176801703, -38032.655481416645, -57400.15147926229, -48663.68158622761, -53040.75664767702, -55361.44886749374, -36558.3791206335, -44639.96525287214, 0.0508642578125, 0.9799277343749999, 0.0698564453125, 192.0, 0.0, 0.0, 0.0, 0.0, 0.0, 0.0, 0.0, 0.0, 0.0, 1.740776577720946E9, 0.0, 2025-02-28 15:02:57.720
246.0, -47372.28719857779, -31675.79700658286, 102130.70835241179, -51074.76426062158, -55364.39929776184, -52643.633203939586, -65245.65848656398, -54847.0458205993, 15709.655369479106, -38034.84595237326, -57395.0999850154, -48660.93232165961, -53024.59633643584, -55357.33614651396, -36546.62210305001, -44628.58821494439, 0.04843212890625, 0.9849638671875, 0.06592822265625001, 192.0, 0.5, 56.0, 15.0, 120.0, 0.5, 120.0, 0.0, 0.0, 0.0, 1.740776577721201E9, 0.0, 2025-02-28 15:02:57.721
248.0, -47389.90037320857, -31716.52188498043, 102156.25639632421, -51103.530955735565, -55387.19807710625, -52669.069489129724, -65270.29010895373, -54874.71728023497, 15607.262028129344, -38054.5825427273, -57408.53338343304, -48678.43373756811, -53022.808196879414, -55368.53437048607, -36547.292655383666, -44632.34330801288, 0.04843212890625, 0.9849638671875, 0.06592822265625001, 192.0, 0.0, 0.0, 0.0, 0.0, 0.0, 0.0, 0.0, 0.0, 0.0, 1.740776577721463E9, 0.0, 2025-02-28 15:02:57.721
250.0, -47398.57285005723, -31750.18361213012, 102177.33409134556, -51118.99836289864, -55400.63147552389, -52682.972274180924, -65287.29978648422, -54885.6025797847, 15675.747773140405, -38090.36768560025, -57434.34964827891, -48710.55319435039, -53039.393191265255, -55395.334112087985, -36574.7853010637, -44660.03711939301, 0.04843212890625, 0.9849638671875, 0.06592822265625001, 192.0, 0.0, 0.0, 0.0, 0.0, 0.0, 0.0, 0.0, 0.0, 0.0, 1.740776577721704E9, 0.0, 2025-02-28 15:02:57.721
252.0, -47385.94411443998, -31752.53054529793, 102153.48478001176, -51118.73014196517, -55398.01632142262, -52682.86051545865, -65288.57383591817, -54888.843582730726, 15543.112521542613, -38114.664031823166, -57447.53717750755, -48726.93702303613, -53040.711944188115, -55411.22620239571, -36581.84845231157, -44670.65419800928, 0.04843212890625, 0.9849638671875, 0.06592822265625001, 192.0, 0.0, 0.0, 0.0, 0.0, 0.0, 0.0, 0.0, 0.0, 0.0, 1.740776577721942E9, 0.0, 2025-02-28 15:02:57.721
254.0, -47378.36687306963, -31760.42071109065, 102123.15346278591, -51114.72917970767, -55395.57998127699, -52677.96548342294, -65282.248292237324, -54880.28286460434, 15666.0471160468, -38109.768999787455, -57430.818072654976, -48719.35978166578, -53027.010324837014, -55402.9784086917, -36573.69006558538, -44661.534686271516, 0.04843212890625, 0.9849638671875, 0.06592822265625001, 192.0, 0.0, 0.0, 0.0, 0.0, 0.0, 0.0, 0.0, 0.0, 0.0, 1.740776577722176E9, 0.0, 2025-02-28 15:02:57.722
0.0, -47393.99074244389, -31768.735560028024, 102138.86673913799, -51137.30444160753, -55416.12123443142, -52695.86923073164, -65296.48635345535, -54899.706530536, 15528.405073691021, -38128.83503780783, -57452.052229887515, -48732.23438647204, -53036.62157495279, -55413.66254254134, -36577.31104818715, -44667.256732852074, 0.046216064453125, 0.9874819335937499, 0.062964111328125, 192.0, 0.5, 48.0, 15.0, 120.0, 0.5, 112.0, 0.0, 0.0, 0.0, 1.740776577722406E9, 0.0, 2025-02-28 15:02:57.722
2.0, -47390.19094588649, -31773.876461252745, 102160.59263474854, -51135.9186334513, -55415.20481290875, -52692.27059987433, -65297.80510637821, -54895.39264385613, 15650.400894928087, -38140.21207573558, -57449.30296531951, -48745.757191867495, -53051.41842978221, -55431.70040031677, -36591.95144080537, -44681.383035347826, 0.046216064453125, 0.9874819335937499, 0.062964111328125, 192.0, 0.0, 0.0, 0.0, 0.0, 0.0, 0.0, 0.0, 0.0, 0.0, 1.740776577722652E9, 0.0, 2025-02-28 15:02:57.722
4.0, -47384.04421616128, -31766.43333034913, 102135.98336410325, -51133.75051423914, -55414.86953674192, -52690.817736484736, -65299.83911512365, -54895.59380955622, 15519.799652075728, -38142.469601925564, -57447.80539844101, -48742.69500287712, -53053.18421759418, -55429.644039826875, -36583.88246105701, -44672.75526198808, 0.046216064453125, 0.9874819335937499, 0.062964111328125, 192.0, 0.0, 0.0, 0.0, 0.0, 0.0, 0.0, 0.0, 0.0, 0.0, 1.740776577722876E9, 0.0, 2025-02-28 15:02:57.722
6.0, -47364.75466069635, -31742.56166727086, 102124.47221570877, -51109.90120290533, -55396.83167896649, -52674.724480476914, -65281.890664326034, -54875.410184313085, 15659.38629619912, -38133.10422099879, -57434.34964827891, -48733.28491846144, -53050.3231943039, -55425.956001991755, -36579.99325752178, -44666.80969796297, 0.046216064453125, 0.9874819335937499, 0.062964111328125, 192.0, 0.0, 0.0, 0.0, 0.0, 0.0, 0.0, 0.0, 0.0, 0.0, 1.740776577723103E9, 0.0, 2025-02-28 15:02:57.723
8.0, -47375.0811666347, -31741.689949237105, 102157.55279750262, -51115.95852565271, -55403.827774981, -52687.397919583076, -65292.932426086954, -54891.48108857645, 15556.635326938072, -38116.00513649049, -57417.76465389308, -48711.4472641286, -53032.48650222856, -55410.04155993957, -36555.540449087675, -44646.06727910844, 0.046216064453125, 0.9874819335937499, 0.062964111328125, 192.0, 0.0, 0.0, 0.0, 0.0, 0.0, 0.0, 0.0, 0.0, 0.0, 1.74077657772333E9, 0.0, 2025-02-28 15:02:57.723
10.0, -47376.7798992133, -31741.645245748194, 102178.83165822407, -51118.93130766527, -55407.44875758276, -52687.62143702763, -65300.576722690676, -54892.57632405476, 15672.976156827946, -38133.59595937681, -57430.19222381023, -48730.75917133799, -53050.54671174845, -55430.31459216054, -36575.90288828646, -44668.240209608106, 0.0471080322265625, 0.986740966796875, 0.06448205566406251, 192.0, 0.5, 64.0, 15.0, 104.0, 1.0, 8.0, 0.0, 0.0, 0.0, 1.740776577723576E9, 0.0, 2025-02-28 15:02:57.723
12.0, -47368.53210550929, -31731.56460899885, 102154.78118119016, -51111.33171455046, -55400.564420290524, -52676.28910258879, -65291.054879552714, -54883.702681506, 15559.2728327838, -38123.82824704984, -57423.30788651799, -48717.68340083163, -53038.56617672041, -55415.71890303122, -36565.28580967019, -44654.06920362344, 0.0471080322265625, 0.986740966796875, 0.06448205566406251, 192.0, 0.0, 0.0, 0.0, 0.0, 0.0, 0.0, 0.0, 0.0, 0.0, 1.740776577723836E9, 0.0, 2025-02-28 15:02:57.723
14.0, -47365.60402698565, -31718.354728025763, 102124.31575349758, -51105.92259239228, -55397.59163827797, -52671.97521590891, -65289.91494058549, -54882.31687334977, 15676.463028962975, -38112.272395166445, -57415.73064514764, -48710.374380394744, -53032.26298478401, -55408.92397271681, -36564.19057419188, -44653.24218907859, 0.0471080322265625, 0.986740966796875, 0.06448205566406251, 192.0, 0.0, 0.0, 0.0, 0.0, 0.0, 0.0, 0.0, 0.0, 0.0, 1.740776577724083E9, 0.0, 2025-02-28 15:02:57.724
16.0, -47386.90523945156, -31736.05730963437, 102139.04555309363, -51129.01194441461, -55418.602278065955, -52692.829393485714, -65309.83034489517, -54907.01555097289, 15576.573082992207, -38116.25100567949, -57422.74909290661, -48711.78254029543, -53034.699324929636, -55412.4779000852, -36562.78241429119, -44657.73488971411, 0.0471080322265625, 0.986740966796875, 0.06448205566406251, 192.0, 0.0, 0.0, 0.0, 0.0, 0.0, 0.0, 0.0, 0.0, 0.0, 1.740776577724329E9, 0.0, 2025-02-28 15:02:57.724
18.0, -47382.47959404941, -31727.965978141547, 102160.61498649299, -51133.41523807231, -55425.06193221354, -52692.44941382998, -65321.14032758956, -54913.92224000958, 15650.110322250168, -38138.24512222351, -57440.56343323749, -48735.07305801786, -53058.01219439652, -55435.12021721843, -36589.783321593204, -44682.79119524851, 0.0471080322265625, 0.986740966796875, 0.06448205566406251, 192.0, 0.0, 0.0, 0.0, 0.0, 0.0, 0.0, 0.0, 0.0, 0.0, 1.740776577724647E9, 0.0, 2025-02-28 15:02:57.724
20.0, -47372.17543985551, -31711.269225033433, 102136.94448911483, -51119.98183965467, -55417.574097821016, -52676.80319271126, -65308.24337103884, -54899.55006832482, 15587.03369939729, -38117.12272371325, -57429.2534505431, -48712.766017051465, -53043.55061573394, -55412.790824507574, -36576.171109219926, -44662.7416804721, 0.04655401611328125, 0.9813704833984375, 0.06724102783203126, 192.0, 0.5, 56.0, 15.0, 64.0, 1.0, 24.0, 0.0, 0.0, 0.0, 1.74077657772487E9, 0.0, 2025-02-28 15:02:57.724
24.0, -47377.8304312027, -31711.55979771135, 102155.27291956817, -51131.761208982614, -55425.55367059156, -52680.84885845767, -65317.25112405433, -54905.96501898349, 15613.766385765837, -38108.47259860904, -57418.12228180436, -48703.333580891325, -53044.19881632314, -55406.68879827128, -36574.7853010637, -44657.24315133609, 0.04655401611328125, 0.9813704833984375, 0.06724102783203126, 192.0, 0.0, 0.0, 0.0, 0.0, 0.0, 0.0, 0.0, 0.0, 0.0, 1.740776577725134E9, 0.0, 2025-02-28 15:02:57.725
26.0, -47387.30757085176, -31718.33237628131, 102178.89871345744, -51142.15477015433, -55436.30485967456, -52692.85174523017, -65326.46004276992, -54916.023303988375, 15637.593345355195, -38120.676651081645, -57428.96287786518, -48718.10808397628, -53057.54280776296, -55422.938516490285, -36587.92812680342, -44674.29753235549, 0.04655401611328125, 0.9813704833984375, 0.06724102783203126, 192.0, 0.0, 0.0, 0.0, 0.0, 0.0, 0.0, 0.0, 0.0, 0.0, 1.740776577725364E9, 0.0, 2025-02-28 15:02:57.725
28.0, -47374.27650383431, -31710.486913977496, 102155.00469863472, -51125.01098215711, -55422.804406023555, -52678.25605610086, -65312.69136818545, -54896.71139677899, 15622.483566103409, -38110.77482828794, -57426.07950283045, -48709.59206933881, -53048.758572192026, -55415.025998953104, -36579.2332982103, -44661.71350022715, 0.04655401611328125, 0.9813704833984375, 0.06724102783203126, 192.0, 0.0, 0.0, 0.0, 0.0, 0.0, 0.0, 0.0, 0.0, 0.0, 1.740776577725587E9, 0.0, 2025-02-28 15:02:57.725
30.0, -47374.41061430104, -31706.016565086433, 102125.05336106461, -51118.32781056497, -55420.05514145555, -52675.23857059939, -65314.323045530684, -54896.57728631226, 15626.596287083185, -38108.20437767558, -57419.39633123831, -48707.043970470906, -53047.283357057975, -55414.02017045262, -36567.05159748216, -44652.92926465622, 0.046277008056640624, 0.9796852416992188, 0.07162051391601562, 192.0, 0.5, 56.0, 15.0, 72.0, 1.0, 48.0, 0.0, 0.0, 0.0, 1.74077657772582E9, 0.0, 2025-02-28 15:02:57.725
32.0, -47382.27842834931, -31723.361518783753, 102140.69958218331, -51121.23353734417, -55430.18048169381, -52678.25605610086, -65318.12284208809, -54899.39360611363, 15643.002467513379, -38109.411371876166, -57426.9065173753, -48711.82724378434, -53049.2726623145, -55415.78595826459, -36570.985504506294, -44651.31993905544, 0.046277008056640624, 0.9796852416992188, 0.07162051391601562, 192.0, 0.0, 0.0, 0.0, 0.0, 0.0, 0.0, 0.0, 0.0, 0.0, 1.740776577726075E9, 0.0, 2025-02-28 15:02:57.726
34.0, -47384.915934195036, -31721.886303649702, 102162.76075396071, -51118.283107076066, -55431.29806891657, -52680.602989268664, -65314.07717634168, -54903.32751313776, 15597.829591969205, -38118.26266268047, -57438.26120355859, -48721.3490869223, -53055.55350250644, -55426.67125781432, -36576.41697840893, -44658.11486936985, 0.046277008056640624, 0.9796852416992188, 0.07162051391601562, 192.0, 0.0, 0.0, 0.0, 0.0, 0.0, 0.0, 0.0, 0.0, 0.0, 1.740776577726318E9, 0.0, 2025-02-28 15:02:57.726
36.0, -47376.019939901824, -31719.651129204172, 102138.79968390461, -51103.061569102, -55421.84328101198, -52670.47764903041, -65304.39887099253, -54890.497611820414, 15651.920813551047, -38110.26073816547, -57434.148482578814, -48713.01188624047, -53049.04914486995, -55419.11636818843, -36572.326609173615, -44652.92926465622, 0.046277008056640624, 0.9796852416992188, 0.07162051391601562, 192.0, 0.0, 0.0, 0.0, 0.0, 0.0, 0.0, 0.0, 0.0, 0.0, 1.740776577726567E9, 0.0, 2025-02-28 15:02:57.726
38.0, -47434.84973130819, -31730.04469037589, 102162.80545744962, -51057.39695517981, -55365.3157192845, -52586.39038638955, -65365.21796765542, -54829.61145992416, 15579.523513260308, -38103.264642150956, -57423.062017328986, -48701.992476224004, -53033.62644119578, -55408.07460642751, -36554.10993744254, -44639.07118309393, 0.046277008056640624, 0.9796852416992188, 0.07162051391601562, 192.0, 0.0, 0.0, 0.0, 0.0, 0.0, 0.0, 0.0, 0.0, 0.0, 1.740776577772605E9, 0.0, 2025-02-28 15:02:57.772
92.0, -47435.520283641854, -31722.310986794353, 102136.855082137, -51056.36877493486, -55369.98723387566, -52590.81603179169, -65370.962365980435, -54838.26158502836, 19445.101254594476, -38025.27940574639, -57375.9445400172, -48644.123809829216, -53042.85771165582, -55340.34882072793, -36523.35393707203, -44595.82055757291, 0.046277008056640624, 0.9796852416992188, 0.07162051391601562, 192.0, 0.0, 0.0, 0.0, 0.0, 0.0, 0.0, 0.0, 0.0, 0.0, 1.740776577772885E9, 0.0, 2025-02-28 15:02:57.772
94.0, -47431.20639696198, -31718.75705942596, 102106.18848874433, -51046.64576609681, -55362.58880646096, -52581.897685754026, -65356.74665650686, -54829.700866901985, 19403.772879096614, -38017.076315531296, -57367.92026375774, -48630.1763212891, -53035.325173774385, -55324.859061820396, -36514.32383231209, -44582.54362136646, 0.046277008056640624, 0.9796852416992188, 0.07162051391601562, 192.0, 0.0, 0.0, 0.0, 0.0, 0.0, 0.0, 0.0, 0.0, 0.0, 1.740776577773134E9, 0.0, 2025-02-28 15:02:57.773
96.0, -47431.273452195346, -31715.02431810192, 102124.62867791996, -51049.86441729837, -55363.035841350065, -52586.74801430083, -65363.139255421076, -54839.46857922895, 19401.560056395538, -38027.35811798074, -57369.61899633634, -48636.54656845886, -53039.08026684288, -55329.7093903672, -36512.78156194467, -44584.57763011189, 0.046277008056640624, 0.9796852416992188, 0.07162051391601562, 192.0, 0.0, 0.0, 0.0, 0.0, 0.0, 0.0, 0.0, 0.0, 0.0, 1.740776577773369E9, 0.0, 2025-02-28 15:02:57.773
98.0, -47426.28901318181, -31711.537445966896, 102176.68589075636, -51044.0976672289, -55354.7656959016, -52579.61780781959, -65355.874938473105, -54830.95256459148, 19436.56288821255, -38022.26192024493, -57360.83476076541, -48625.70597239804, -53029.69253417165, -55321.349837940914, -36501.65039320593, -44572.70885380612, 0.062, 0.986, 0.024, 192.0, 0.5, 120.0, 15.0, 104.0, 0.0, 96.0, 0.0, 0.0, 0.0, 1.740776577773593E9, 0.0, 2025-02-28 15:02:57.773
100.0, -47433.218053962955, -31715.09137333529, 102156.47991376877, -51059.81094358098, -55364.421649506294, -52592.76063355931, -65370.828255513705, -54846.91171013257, 19375.810846783024, -38036.29881576286, -57363.02523172203, -48635.29487076937, -53037.560348219915, -55330.446997934225, -36504.89139615195, -44581.4260341437, 0.062, 0.986, 0.024, 192.0, 0.0, 0.0, 0.0, 0.0, 0.0, 0.0, 0.0, 0.0, 0.0, 1.740776577773849E9, 0.0, 2025-02-28 15:02:57.773
102.0, -47423.651507336086, -31707.692945920582, 102126.50622445419, -51052.16664697727, -55351.45763772221, -52583.37290088808, -65355.20438613944, -54832.42777972553, 19481.04285967861, -38028.83333311479, -57355.91737698524, -48626.5776904318, -53028.262022526505, -55322.93681179724, -36495.79423615864, -44572.99942648404, 0.062, 0.986, 0.024, 192.0, 0.0, 0.0, 0.0, 0.0, 0.0, 0.0, 0.0, 0.0, 0.0, 1.740776577810308E9, 0.0, 2025-02-28 15:02:57.810
104.0, -47435.162655730564, -31717.550065225372, 102142.5547769731, -51062.04611802651, -55361.44886749374, -52595.08521498266, -65367.341383378676, -54846.86700664366, 19361.55043382054, -38032.74488839447, -57357.481999097115, -48630.66805966712, -53030.47484522758, -55327.8094920885, -36493.49200647974, -44576.70981606362, 0.062, 0.986, 0.024, 192.0, 0.0, 0.0, 0.0, 0.0, 0.0, 0.0, 0.0, 0.0, 0.0, 1.740776577810603E9, 0.0, 2025-02-28 15:02:57.810
106.0, -47438.96245228797, -31729.061213619854, 102164.23596909476, -51065.085955272436, -55364.93573962877, -52594.99580800484, -65366.8272932562, -54843.80481765328, 19511.351825160007, -38046.424156001114, -57371.29537717049, -48646.76131567494, -53042.43302851117, -55337.35368697091, -36505.472541507785, -44587.125728979794, 0.062, 0.986, 0.024, 192.0, 0.0, 0.0, 0.0, 0.0, 0.0, 0.0, 0.0, 0.0, 0.0, 1.740776577810868E9, 0.0, 2025-02-28 15:02:57.810
108.0, -47440.46001916647, -31732.391623543695, 102138.84438739353, -51072.46203094268, -55373.74232694416, -52597.767424317295, -65372.147008436565, -54849.70567818948, 19323.463061268696, -38050.827449658806, -57371.943577759695, -48651.20931282155, -53042.522435488994, -55339.052419549516, -36505.338431041055, -44585.941086523664, 0.066, 0.978, 0.026000000000000002, 192.0, 1.0, 8.0, 15.0, 72.0, 0.0, 104.0, 0.0, 0.0, 0.0, 1.740776577811159E9, 0.0, 2025-02-28 15:02:57.811
110.0, -47425.35023991469, -31723.294463550388, 102109.4965469237, -51050.02087950956, -55356.19620754674, -52574.52161008378, -65352.231604126886, -54824.33644823271, 19522.30417994311, -38042.19967629906, -57362.62290032183, -48643.02857435091, -53032.73237141757, -55328.90472756681, -36496.75536117022, -44572.038301472465, 0.066, 0.978, 0.026000000000000002, 192.0, 0.0, 0.0, 0.0, 0.0, 0.0, 0.0, 0.0, 0.0, 0.0, 1.740776577862101E9, 0.0, 2025-02-28 15:02:57.862
112.0, -47432.68161209603, -31734.917370667146, 102126.50622445419, -51059.2521499696, -55364.68987043975, -52587.03858697875, -65359.920604219515, -54836.87577687213, 19307.48156398315, -38038.71280416403, -57358.510179342054, -48638.84879813776, -53027.59147019285, -55324.166157742286, -36485.64654417593, -44565.600999069335, 0.066, 0.978, 0.026000000000000002, 192.0, 0.0, 0.0, 0.0, 0.0, 0.0, 0.0, 0.0, 0.0, 0.0, 1.740776577862414E9, 0.0, 2025-02-28 15:02:57.862
114.0, -47451.52413267185, -31755.9950656885, 102158.96095740331, -51073.26669374308, -55381.118402614404, -52601.187241218955, -65372.303470647756, -54852.700811946495, 19537.39160745044, -38062.87503992022, -57381.82304880894, -48664.486249028, -53047.775095435994, -55350.7647336441, -36509.473503765286, -44591.618429615315, 0.066, 0.978, 0.026000000000000002, 192.0, 0.0, 0.0, 0.0, 0.0, 0.0, 0.0, 0.0, 0.0, 0.0, 1.740776577862667E9, 0.0, 2025-02-28 15:02:57.862
116.0, -47438.62717612114, -31742.04757714839, 102158.02218413618, -51060.749716848106, -55370.031937364576, -52587.82089803468, -65356.45608382894, -54834.37238149314, 19279.608938647383, -38060.14812709667, -57385.30992094397, -48661.22289433752, -53045.517569246, -55346.13792254185, -36502.38800077295, -44585.51640337901, 0.066, 0.978, 0.026000000000000002, 192.0, 0.0, 0.0, 0.0, 0.0, 0.0, 0.0, 0.0, 0.0, 0.0, 1.740776577862911E9, 0.0, 2025-02-28 15:02:57.862
118.0, -47425.797274803794, -31728.23419907501, 102128.2049570328, -51049.17151322026, -55359.459562237214, -52574.92394148397, -65346.844833713156, -54821.05074179778, 19542.510156930704, -38043.54078096638, -57367.83085677992, -48645.1296383297, -53030.094865571846, -55330.84932933442, -36491.16742505639, -44569.803127026935, 0.076, 0.982, 0.04, 192.0, 1.0, 48.0, 15.0, 88.0, 0.5, 32.0, 0.0, 0.0, 0.0, 1.740776577863152E9, 0.0, 2025-02-28 15:02:57.863
120.0, -47445.71267911347, -31742.494612037495, 102143.22532930676, -51068.081089029445, -55380.91723691431, -52597.05216849472, -65366.67083104502, -54844.90005313159, 19294.91988359927, -38043.94311236657, -57365.88625501231, -48641.598062705765, -53030.430141738674, -55332.257489235104, -36484.4619017198, -44564.99750196904, 0.076, 0.982, 0.04, 192.0, 0.0, 0.0, 0.0, 0.0, 0.0, 0.0, 0.0, 0.0, 0.0, 1.740776577863407E9, 0.0, 2025-02-28 15:02:57.863
122.0, -47446.71850761396, -31741.309969581365, 102164.12421037248, -51066.896446573315, -55380.89488516985, -52594.12408997108, -65375.61152882714, -54846.956413621476, 19547.62870641097, -38061.42217653062, -57382.18067672023, -48658.40657453616, -53057.006365896035, -55352.329355755974, -36509.78642818766, -44585.15877546773, 0.076, 0.982, 0.04, 192.0, 0.0, 0.0, 0.0, 0.0, 0.0, 0.0, 0.0, 0.0, 0.0, 1.740776577863647E9, 0.0, 2025-02-28 15:02:57.863
124.0, -47434.402696419085, -31732.99512064399, 102140.05138159411, -51062.135525004334, -55370.61308272041, -52590.011368991305, -65372.12465669211, -54847.20228281049, 19286.135648028332, -38050.06749034733, -57365.75214454558, -48640.88280688319, -53037.73916217556, -55336.97370731518, -36489.15576805541, -44564.081080446376, 0.076, 0.982, 0.04, 192.0, 0.0, 0.0, 0.0, 0.0, 0.0, 0.0, 0.0, 0.0, 0.0, 1.740776577919541E9, 0.0, 2025-02-28 15:02:57.919
126.0, -47427.60776610467, -31718.71235593705, 102109.51889866816, -51044.455295140186, -55356.95616685822, -52570.2077234039, -65365.26267114433, -54833.03127682582, 19542.130177274965, -38043.630187944196, -57354.956251973665, -48634.5796149468, -53031.79359815045, -55331.76575085709, -36486.74177965424, -44558.135516421265, 0.076, 0.982, 0.04, 192.0, 0.0, 0.0, 0.0, 0.0, 0.0, 0.0, 0.0, 0.0, 0.0, 1.740776577919853E9, 0.0, 2025-02-28 15:02:57.919
128.0, -47438.33660344322, -31730.46937352054, 102125.76861688717, -51051.8984260438, -55363.08054483897, -52574.476906594864, -65371.722325291914, -54841.52493971884, 19316.98105537666, -38038.55634195284, -57358.6889932977, -48628.164664288124, -53026.04919982544, -55320.43341641825, -36474.22480275927, -44543.450420314126, 0.076, 0.976, 0.038, 192.0, 1.0, 48.0, 15.0, 64.0, 0.5, 24.0, 0.0, 0.0, 0.0, 1.740776577920116E9, 0.0, 2025-02-28 15:02:57.920
130.0, -47442.11404825617, -31735.61027474526, 102148.79091367614, -51057.01697552407, -55368.28850129706, -52578.83549676365, -65380.79713354077, -54846.73289617692, 19529.05440676861, -38053.9343421381, -57369.216664936146, -48646.24722555247, -53037.426237753185, -55338.02423930458, -36488.32875351057, -44559.789545510954, 0.076, 0.976, 0.038, 192.0, 0.0, 0.0, 0.0, 0.0, 0.0, 0.0, 0.0, 0.0, 0.0, 1.740776577920387E9, 0.0, 2025-02-28 15:02:57.920
132.0, -47426.087847481715, -31720.053460604366, 102153.0600968671, -51040.610795093875, -55352.888149367354, -52560.79763898822, -65361.5746333092, -54826.95160233398, 19326.122918858877, -38044.94894086706, -57367.808505035464, -48636.90419637015, -53028.37378124879, -55330.82697758997, -36478.51633769469, -44548.278397116475, 0.076, 0.976, 0.038, 192.0, 0.0, 0.0, 0.0, 0.0, 0.0, 0.0, 0.0, 0.0, 0.0, 1.740776577920647E9, 0.0, 2025-02-28 15:02:57.920
134.0, -47416.25307992138, -31707.84940813177, 102129.68017216685, -51033.81586477946, -55344.55094868552, -52550.649947005506, -65347.627144769096, -54815.39575045058, 19504.44513612332, -38027.80515286984, -57348.89892922628, -48623.560204930334, -53015.610935164805, -55322.02039027458, -36466.84872708902, -44539.69532724564, 0.076, 0.976, 0.038, 192.0, 0.0, 0.0, 0.0, 0.0, 0.0, 0.0, 0.0, 0.0, 0.0, 1.740776577920897E9, 0.0, 2025-02-28 15:02:57.920
136.0, -47428.90416728308, -31727.60835023026, 102146.24281480824, -51047.025745752544, -55354.497474968135, -52564.23980763434, -65355.025572183804, -54825.02935231082, 19365.88667224487, -38029.973272082, -57352.94459497269, -48626.644745665166, -53012.034656051954, -55323.56266064199, -36462.04310203113, -44538.66714700069, 0.076, 0.976, 0.038, 192.0, 0.0, 0.0, 0.0, 0.0, 0.0, 0.0, 0.0, 0.0, 0.0, 1.740776577921144E9, 0.0, 2025-02-28 15:02:57.921
138.0, -47440.214149977466, -31737.62193174624, 102167.38756506295, -51053.328937688944, -55368.04263210805, -52574.767479272785, -65366.8272932562, -54836.4957972164, 19476.348993342996, -38050.02278685842, -57370.893045770295, -48649.46587675403, -53031.92770861718, -55345.89205335284, -36481.33265749606, -44562.0694234454, 0.07200000000000001, 0.986, 0.04, 192.0, 1.0, 32.0, 15.0, 104.0, 0.5, 32.0, 0.0, 0.0, 0.0, 1.740776577975183E9, 0.0, 2025-02-28 15:02:57.975
140.0, -47421.37162940164, -31723.875608906226, 102144.43232350735, -51032.05007696749, -55352.06113482251, -52555.343813341125, -65348.61062152513, -54816.7368551179, 19384.706841076237, -38038.466934975026, -57368.32259515794, -48637.731210915, -53021.60120267883, -55332.972745057676, -36471.34142772453, -44547.71960350509, 0.07200000000000001, 0.986, 0.04, 192.0, 0.0, 0.0, 0.0, 0.0, 0.0, 0.0, 0.0, 0.0, 0.0, 1.740776577975454E9, 0.0, 2025-02-28 15:02:57.975
142.0, -47425.3949434036, -31724.970844384534, 102113.72102662576, -51034.307603157475, -55359.124286070386, -52559.68005176545, -65350.80109248175, -54822.01186680936, 19442.70961793776, -38035.53885645138, -57360.00774622056, -48634.66902192462, -53014.15807177521, -55331.58693690145, -36468.502756178714, -44543.67393775868, 0.07200000000000001, 0.986, 0.04, 192.0, 0.0, 0.0, 0.0, 0.0, 0.0, 0.0, 0.0, 0.0, 0.0, 1.740776577975709E9, 0.0, 2025-02-28 15:02:57.975
144.0, -47439.40948717707, -31741.37702481473, 102129.72487565577, -51042.421286394754, -55371.88713215436, -52568.44193559193, -65359.495921074864, -54830.37141923564, 19427.018693330134, -38037.86343787473, -57368.5908160914, -48637.03830683688, -53019.54484218894, -55331.6092886459, -36467.6086864005, -44541.706984246615, 0.07200000000000001, 0.986, 0.04, 192.0, 0.0, 0.0, 0.0, 0.0, 0.0, 0.0, 0.0, 0.0, 0.0, 1.740776577975946E9, 0.0, 2025-02-28 15:02:57.975
146.0, -47440.39296393311, -31735.81144044536, 102151.33901254405, -51044.23177769563, -55378.39148979086, -52568.55369431421, -65366.89434848957, -54833.545366948296, 19409.807850099547, -38051.27448454792, -57384.34879593239, -48655.81377217934, -53039.88492964327, -55348.73072489867, -36488.440512232846, -44561.24240890055, 0.07200000000000001, 0.986, 0.04, 192.0, 0.0, 0.0, 0.0, 0.0, 0.0, 0.0, 0.0, 0.0, 0.0, 1.740776577976178E9, 0.0, 2025-02-28 15:02:57.976
148.0, -47433.73214408543, -31735.073832878334, 102143.38179151795, -51042.64480383931, -55369.875475153385, -52561.04350817722, -65362.80397925425, -54822.79417786529, 19456.65710647787, -38038.33282450829, -57376.12335397284, -48645.643728452174, -53031.21245279461, -55336.16904451478, -36479.70098015082, -44550.89355121774, 0.064, 0.984, 0.038, 192.0, 1.0, 0.0, 15.0, 96.0, 0.5, 24.0, 0.0, 0.0, 0.0, 1.740776577976422E9, 0.0, 2025-02-28 15:02:57.976
150.0, -47432.01105976237, -31734.0903561223, 102127.64616342142, -51048.18803646422, -55368.37790827488, -52566.36322335759, -65367.56490082323, -54829.834977368715, 19378.26953867311, -38041.395013498666, -57373.754069060575, -48649.845856409775, -53026.49623471454, -55339.47710269417, -36475.58825917104, -44555.743879764545, 0.064, 0.984, 0.038, 192.0, 0.0, 0.0, 0.0, 0.0, 0.0, 0.0, 0.0, 0.0, 0.0, 1.740776577976675E9, 0.0, 2025-02-28 15:02:57.976
152.0, -47427.02662074884, -31730.201152587077, 102144.52173048518, -51039.67202182675, -55363.661690194815, -52557.93661569794, -65355.584365795185, -54818.1897185075, 19492.598711562005, -38035.516504706924, -57369.998975992086, -48643.699126684565, -53020.863595111805, -55335.58789915895, -36471.96727656928, -44552.70404251862, 0.064, 0.984, 0.038, 192.0, 0.0, 0.0, 0.0, 0.0, 0.0, 0.0, 0.0, 0.0, 0.0, 1.740776578030402E9, 0.0, 2025-02-28 15:02:58.030
154.0, -47437.35312668719, -31735.699681723083, 102165.2641493397, -51047.38337366383, -55382.07952762599, -52569.13483967005, -65373.93514799299, -54834.88647161561, 19360.186977408765, -38044.14427806667, -57378.26912144055, -48653.10921110025, -53032.57590920638, -55345.46737020819, -36481.913802851894, -44564.975150224585, 0.064, 0.984, 0.038, 192.0, 0.0, 0.0, 0.0, 0.0, 0.0, 0.0, 0.0, 0.0, 0.0, 1.740776578030695E9, 0.0, 2025-02-28 15:02:58.030
156.0, -47416.72246655494, -31715.18078031311, 102141.28072753915, -51022.081198940425, -55366.38860301836, -52545.50904578079, -65359.80884549724, -54812.87000332714, 19529.970828291276, -38030.86734186022, -57373.86582778285, -48645.040231351886, -53030.54190046095, -55329.195300244726, -36482.02556157417, -44557.95670246562, 0.064, 0.984, 0.038, 192.0, 0.0, 0.0, 0.0, 0.0, 0.0, 0.0, 0.0, 0.0, 0.0, 1.740776578030948E9, 0.0, 2025-02-28 15:02:58.030
158.0, -47411.78273103032, -31707.983518598503, 102111.41879694686, -51026.32803038693, -55371.216579820706, -52555.52262729676, -65363.72040077692, -54824.96229707746, 19346.39595107984, -38010.52725440589, -57355.20212116267, -48626.04124856487, -53015.25330725352, -55313.549079126016, -36467.56398291159, -44545.43972557065, 0.068, 0.982, 0.044, 192.0, 1.0, 16.0, 15.0, 88.0, 0.5, 48.0, 0.0, 0.0, 0.0, 1.7407765780312E9, 0.0, 2025-02-28 15:02:58.031
160.0, -47428.21126320497, -31734.00094914448, 102127.55675644359, -51045.639937596316, -55384.828792193985, -52573.67224379448, -65374.739810793384, -54837.27810827233, 19560.52566296168, -38026.75462088044, -57367.674394568734, -48642.156856317146, -53026.36212424781, -55334.313849725, -36485.08775056455, -44566.7185862921, 0.068, 0.982, 0.044, 192.0, 0.0, 0.0, 0.0, 0.0, 0.0, 0.0, 0.0, 0.0, 0.0, 1.740776578031446E9, 0.0, 2025-02-28 15:02:58.031
162.0, -47453.04405129481, -31765.494557082005, 102152.72482070027, -51078.362891478886, -55406.62174303791, -52604.763520331806, -65393.1352964801, -54863.6978702185, 19313.605941963906, -38054.24726656047, -57389.4449936682, -48667.123754873726, -53038.476769742585, -55363.2146553057, -36500.0634193496, -44593.026589516, 0.068, 0.982, 0.044, 192.0, 0.0, 0.0, 0.0, 0.0, 0.0, 0.0, 0.0, 0.0, 0.0, 1.740776578031687E9, 0.0, 2025-02-28 15:02:58.031
164.0, -47446.226769235946, -31771.484824596027, 102159.22917833677, -51072.976121065156, -55394.99883592115, -52591.620694592086, -65380.2830434183, -54845.86117814317, 19537.10103477252, -38070.049949890374, -57408.8016043665, -48686.279199871926, -53051.26196757102, -55377.67623396829, -36513.586224745064, -44610.550357168955, 0.068, 0.982, 0.044, 192.0, 0.0, 0.0, 0.0, 0.0, 0.0, 0.0, 0.0, 0.0, 0.0, 1.740776578031927E9, 0.0, 2025-02-28 15:02:58.031
166.0, -47447.38905994762, -31765.963943715567, 102131.96005010129, -51074.92072283277, -55400.34090284597, -52592.380653903565, -65378.07022071722, -54848.565739222264, 19276.502046168094, -38063.76910969843, -57399.86090658438, -48677.62907476772, -53031.39126675025, -55363.95226287273, -36494.90016638043, -44593.58538312738, 0.068, 0.982, 0.044, 192.0, 0.0, 0.0, 0.0, 0.0, 0.0, 0.0, 0.0, 0.0, 0.0, 1.740776578032161E9, 0.0, 2025-02-28 15:02:58.032
168.0, -47443.633966879126, -31760.308952368374, 102148.67915495386, -51059.408612180785, -55396.25053361065, -52581.8082787762, -65374.046906715266, -54838.59686119519, 19544.96884882079, -38072.6874557361, -57403.79481360851, -48685.9439237051, -53040.93546163267, -55373.29529205505, -36510.658146221416, -44602.43667393168, 0.076, 0.982, 0.042, 192.0, 1.0, 48.0, 15.0, 88.0, 0.5, 40.0, 0.0, 0.0, 0.0, 1.74077657809122E9, 0.0, 2025-02-28 15:02:58.091
170.0, -47448.12666751465, -31752.351731342285, 102170.06977439759, -51044.07531548444, -55395.71409174372, -52573.26991239428, -65374.89627300457, -54837.41221873906, 19292.371784731364, -38058.42704277361, -57398.0504152835, -48671.86232469825, -53045.182293079175, -55356.19620754674, -36499.83990190505, -44587.03632200198, 0.076, 0.982, 0.042, 192.0, 0.0, 0.0, 0.0, 0.0, 0.0, 0.0, 0.0, 0.0, 0.0, 1.740776578091521E9, 0.0, 2025-02-28 15:02:58.091
172.0, -47423.02565849134, -31731.22933283202, 102146.62279446397, -51017.63320179382, -55373.13882984386, -52548.191255115424, -65353.88563321658, -54812.624134138125, 19550.467377956793, -38039.092783819775, -57372.83764753791, -48648.6835656981, -53030.65365918323, -55334.26914623608, -36482.137320296446, -44563.924618235185, 0.076, 0.982, 0.042, 192.0, 0.0, 0.0, 0.0, 0.0, 0.0, 0.0, 0.0, 0.0, 0.0, 1.740776578091777E9, 0.0, 2025-02-28 15:02:58.091
174.0, -47421.57279510174, -31729.999986886978, 102116.8055673606, -51027.13269318733, -55379.19615259125, -52562.22815063336, -65367.184921167485, -54831.13137854712, 19302.184200547243, -38025.458219702035, -57360.07480145393, -48633.81965563532, -53012.30287698542, -55325.52961415406, -36470.045026546126, -44552.41346984071, 0.076, 0.982, 0.042, 192.0, 0.0, 0.0, 0.0, 0.0, 0.0, 0.0, 0.0, 0.0, 0.0, 1.740776578092039E9, 0.0, 2025-02-28 15:02:58.092
176.0, -47429.41825740555, -31732.436327032607, 102132.16121580139, -51033.48058861263, -55385.94637941675, -52564.99976694582, -65373.488113103886, -54834.28297451532, 19558.648116427437, -38030.71087964903, -57360.54418808749, -48639.09466732677, -53025.51275795851, -55338.38186721586, -36486.00417208722, -44570.60778982732, 0.076, 0.982, 0.042, 192.0, 0.0, 0.0, 0.0, 0.0, 0.0, 0.0, 0.0, 0.0, 0.0, 1.740776578092292E9, 0.0, 2025-02-28 15:02:58.092
178.0, -47444.326870957244, -31748.484879551517, 102152.97068988928, -51046.31048992998, -55398.66452201182, -52582.34472064313, -65391.77184006832, -54855.00304162539, 19331.97907590617, -38036.85760937424, -57380.86192379736, -48651.54458898838, -53035.54869121894, -55350.87649236638, -36493.49200647974, -44579.950819009646, 0.074, 0.98, 0.038, 192.0, 1.0, 40.0, 15.0, 80.0, 0.5, 24.0, 0.0, 0.0, 0.0, 1.740776578092546E9, 0.0, 2025-02-28 15:02:58.092
180.0, -47428.121856227146, -31729.016510130947, 102135.4022187474, -51024.36107687486, -55382.81713519301, -52563.792772745226, -65383.412287642044, -54837.47927397243, 19530.7084358583, -38038.22106578601, -57384.25938895457, -48654.115039600736, -53042.41067676672, -55353.69281216775, -36499.45992224931, -44582.61067659983, 0.074, 0.98, 0.038, 192.0, 0.0, 0.0, 0.0, 0.0, 0.0, 0.0, 0.0, 0.0, 0.0, 1.740776578092803E9, 0.0, 2025-02-28 15:02:58.092
182.0, -47396.62824828962, -31695.958280081548, 102132.76471290168, -51007.35139934438, -55361.31475702701, -52544.19029285792, -65363.25101414335, -54816.0886545287, 19353.280288372076, -38009.47672241649, -57352.989298461594, -48619.022800805906, -53014.44864445313, -55324.52378565357, -36468.18983175634, -44550.49121981755, 0.074, 0.98, 0.038, 192.0, 0.0, 0.0, 0.0, 0.0, 0.0, 0.0, 0.0, 0.0, 0.0, 1.740776578158133E9, 0.0, 2025-02-28 15:02:58.158
184.0, -47409.301687395775, -31706.776524397916, 102149.84144566554, -51026.842120509406, -55377.698585712744, -52558.271891864766, -65377.06439221674, -54831.73487564742, 19539.023284795676, -38002.458274657525, -57337.544243042976, -48612.026704791395, -53010.5594409179, -55319.76286408459, -36469.9556195683, -44553.665167530206, 0.074, 0.98, 0.038, 192.0, 0.0, 0.0, 0.0, 0.0, 0.0, 0.0, 0.0, 0.0, 0.0, 1.7407765781584E9, 0.0, 2025-02-28 15:02:58.158
186.0, -47420.61167009016, -31717.46065824755, 102171.8132104651, -51035.55930084697, -55385.544048016556, -52560.88704596604, -65372.504636347854, -54828.53857619031, 19396.106230748443, -38024.251225501444, -57363.695784055686, -48631.69623991207, -53025.87038586979, -55333.442131691234, -36483.053741819116, -44566.74093803656, 0.074, 0.98, 0.038, 192.0, 0.0, 0.0, 0.0, 0.0, 0.0, 0.0, 0.0, 0.0, 0.0, 1.740776578158643E9, 0.0, 2025-02-28 15:02:58.158
188.0, -47420.45520787898, -31719.293501292887, 102146.84631190852, -51038.95676600418, -55390.39437656336, -52567.74903151382, -65373.59987182616, -54837.725143161435, 19494.632720307436, -38030.93439709359, -57370.133086458816, -48643.74383017347, -53035.325173774385, -55344.28272775206, -36494.98957335825, -44582.47656613309, 0.064, 0.976, 0.038, 192.0, 1.0, 0.0, 15.0, 64.0, 0.5, 24.0, 0.0, 0.0, 0.0, 1.740776578158888E9, 0.0, 2025-02-28 15:02:58.158
190.0, -47406.306553638766, -31707.692945920582, 102117.83374760555, -51017.47673958263, -55377.922103157296, -52552.482790050846, -65345.90606044604, -54812.55707890476, 19422.704806650258, -38010.281385216884, -57358.55488283097, -48623.64961190816, -53020.14833928923, -55322.42272167477, -36485.87006162048, -44568.462022359614, 0.064, 0.976, 0.038, 192.0, 0.0, 0.0, 0.0, 0.0, 0.0, 0.0, 0.0, 0.0, 0.0, 1.740776578159165E9, 0.0, 2025-02-28 15:02:58.159
192.0, -47427.2948416823, -31725.976672885023, 102133.88230012445, -51032.430056623234, -55397.1222516444, -52573.02404320527, -65352.589232038175, -54826.683381400515, 19465.910728682367, -38007.219196226506, -57360.16420843175, -48629.371658488715, -53021.71296140111, -55319.38288442885, -36489.73691341125, -44573.647627073246, 0.064, 0.976, 0.038, 192.0, 0.0, 0.0, 0.0, 0.0, 0.0, 0.0, 0.0, 0.0, 0.0, 1.740776578159421E9, 0.0, 2025-02-28 15:02:58.159
194.0, -47432.88277779613, -31731.72107121004, 102154.98234689026, -51031.871263011846, -55399.89386795687, -52576.13093568456, -65347.671848258, -54815.82043359524, 19455.606574488473, -38019.646766143655, -57387.20981922267, -48653.131562844705, -53042.54478723345, -55327.653029877314, -36512.02160263319, -44589.226792958594, 0.064, 0.976, 0.038, 192.0, 0.0, 0.0, 0.0, 0.0, 0.0, 0.0, 0.0, 0.0, 0.0, 1.740776578159668E9, 0.0, 2025-02-28 15:02:58.159
196.0, -47429.12768472763, -31727.1389635967, 102130.90951811189, -51031.40187637829, -55394.7753184766, -52581.09302295364, -65351.516348304314, -54822.54830867628, 19419.396748470874, -38023.223045256505, -57388.17094423425, -48657.49015301349, -53049.652641970235, -55332.413951446295, -36516.04491663515, -44591.68548484868, 0.064, 0.976, 0.038, 192.0, 0.0, 0.0, 0.0, 0.0, 0.0, 0.0, 0.0, 0.0, 0.0, 1.740776578159926E9, 0.0, 2025-02-28 15:02:58.159
198.0, -47406.88769899461, -31708.251739531966, 102126.32741049856, -51008.71485575615, -55362.38764076086, -52559.34477559862, -65311.57378096268, -54795.70386358546, 19480.305252111586, -38006.302774703836, -57371.96592950415, -48638.513521970934, -53033.96171736261, -55311.4033116583, -36501.5162827392, -44570.093699704856, 0.064, 0.996, 0.05, 192.0, 1.0, 0.0, 15.5, 16.0, 0.5, 72.0, 0.0, 0.0, 0.0, 1.740776578218247E9, 0.0, 2025-02-28 15:02:58.218
200.0, -47414.80021653178, -31722.445097261087, 102148.14271308694, -51030.66426881126, -55374.03289962208, -52581.048319464724, -65334.23844984036, -54816.2898202288, 19401.537704651084, -38004.201710725036, -57363.204045677674, -48636.77008590342, -53023.27758351297, -55309.16813721277, -36496.50949198121, -44566.42801361418, 0.064, 0.996, 0.05, 192.0, 0.0, 0.0, 0.0, 0.0, 0.0, 0.0, 0.0, 0.0, 0.0, 1.740776578218544E9, 0.0, 2025-02-28 15:02:58.218
202.0, -47405.188966416, -31707.89411162068, 102170.85208545353, -51013.52048081404, -55347.99311733164, -52561.468191321874, -65300.59907443513, -54796.12854673011, 19533.25653472621, -38009.09674276075, -57362.53349334401, -48637.418286492626, -53025.64686842524, -55303.49079412113, -36494.788407658154, -44560.68361528917, 0.064, 0.996, 0.05, 192.0, 0.0, 0.0, 0.0, 0.0, 0.0, 0.0, 0.0, 0.0, 0.0, 1.740776578218791E9, 0.0, 2025-02-28 15:02:58.218
204.0, -47396.5388413118, -31693.343125980275, 102145.95224213031, -51017.119111671345, -55341.10878003941, -52562.8539994781, -65318.72633918838, -54810.79129109279, 19381.93522476378, -37997.60794611072, -57343.534510557, -48619.156911272636, -53017.2649642545, -55287.41988985776, -36485.5124337092, -44550.17829539518, 0.064, 0.996, 0.05, 192.0, 0.0, 0.0, 0.0, 0.0, 0.0, 0.0, 0.0, 0.0, 0.0, 1.740776578219021E9, 0.0, 2025-02-28 15:02:58.219
206.0, -47394.482480821905, -31689.252756744954, 102115.352703971, -51011.75469300207, -55321.84157631893, -52541.485731778834, -65304.912961115006, -54778.00128197686, 19568.080552587577, -37999.95487927853, -57336.44900756467, -48612.652553636144, -53011.006475807015, -55276.22166588565, -36474.91770683738, -44530.173484107676, 0.064, 0.996, 0.05, 192.0, 0.0, 0.0, 0.0, 0.0, 0.0, 0.0, 0.0, 0.0, 0.0, 1.740776578219255E9, 0.0, 2025-02-28 15:02:58.219
208.0, -47411.71567579695, -31701.009774328446, 102130.82011113407, -51045.17055096276, -55340.88526259486, -52568.41958384748, -65334.35020856264, -54813.18292774951, 19362.243337898653, -37998.14438797765, -57335.376123830814, -48610.66324837962, -53012.749911874525, -55273.58416003992, -36468.726273623266, -44524.652603227216, 0.066, 0.988, 0.052000000000000005, 192.0, 1.0, 8.0, 15.0, 112.0, 0.5, 80.0, 0.0, 0.0, 0.0, 1.740776578219492E9, 0.0, 2025-02-28 15:02:58.219
210.0, -47423.40563814707, -31710.88924537769, 102151.24960556622, -51061.75554534859, -55347.4119719758, -52578.52257234127, -65351.40458958204, -54822.81652960975, 19576.21658756931, -38031.13556279368, -57362.06410671045, -48642.91681562863, -53043.8188366674, -55304.69778832171, -36501.09159959455, -44555.453307086624, 0.066, 0.988, 0.052000000000000005, 192.0, 0.0, 0.0, 0.0, 0.0, 0.0, 0.0, 0.0, 0.0, 0.0, 1.740776578219729E9, 0.0, 2025-02-28 15:02:58.219
212.0, -47420.32109741224, -31707.961166854046, 102133.68113442435, -51071.523257675566, -55350.563567944, -52589.00554049081, -65362.33459262069, -54837.05459082778, 19331.82261369498, -38025.033536557385, -57358.6889932977, -48636.077181825305, -53038.767342420506, -55301.68030282025, -36494.60959370251, -44551.85467622932, 0.066, 0.988, 0.052000000000000005, 192.0, 0.0, 0.0, 0.0, 0.0, 0.0, 0.0, 0.0, 0.0, 0.0, 1.740776578269632E9, 0.0, 2025-02-28 15:02:58.269
214.0, -47408.83230076222, -31692.8290358578, 102127.66851516587, -51050.28910044302, -55334.20209100272, -52566.89966522452, -65343.08974064467, -54811.08186377071, 19576.95419513633, -38021.65842314463, -57352.721077528135, -48630.15396954465, -53036.57687146388, -55298.52870685205, -36492.59793670153, -44547.02669942698, 0.066, 0.988, 0.052000000000000005, 192.0, 0.0, 0.0, 0.0, 0.0, 0.0, 0.0, 0.0, 0.0, 0.0, 1.740776578269931E9, 0.0, 2025-02-28 15:02:58.269
216.0, -47422.57862360223, -31710.46456223304, 102144.94641362983, -51070.8527053419, -55351.18941678875, -52589.81020329121, -65359.51827281932, -54829.49970120189, 19324.603000235915, -38015.869321330705, -57348.943632715185, -48623.78372237489, -53036.42040925269, -55293.410157371785, -36484.148977297424, -44540.90232144622, 0.066, 0.988, 0.052000000000000005, 192.0, 0.0, 0.0, 0.0, 0.0, 0.0, 0.0, 0.0, 0.0, 0.0, 1.740776578270201E9, 0.0, 2025-02-28 15:02:58.270
218.0, -47441.756420344886, -31733.57626599983, 102165.66648073989, -51083.593199681425, -55365.33807102896, -52608.20568897793, -65377.265557916835, -54850.108009589676, 19578.96585213731, -38049.016958357926, -57369.48488586961, -48652.796286677876, -53059.55446476394, -55324.99317228713, -36511.84278867755, -44570.20545842713, 0.076, 0.968, 0.052000000000000005, 192.0, 1.0, 48.0, 15.0, 32.0, 0.5, 80.0, 0.0, 0.0, 0.0, 1.740776578270455E9, 0.0, 2025-02-28 15:02:58.270
220.0, -47445.53386515783, -31738.42659454663, 102141.23602405025, -51081.91681884728, -55359.951300615234, -52603.2659534533, -65364.9273949775, -54835.914651860556, 19299.457287723697, -38058.62820847371, -57377.956197018175, -48657.02076637993, -53058.99567115256, -55325.909593809796, -36507.32773629758, -44566.49506884755, 0.076, 0.968, 0.052000000000000005, 192.0, 0.0, 0.0, 0.0, 0.0, 0.0, 0.0, 0.0, 0.0, 0.0, 1.740776578270714E9, 0.0, 2025-02-28 15:02:58.270
222.0, -47418.84588227819, -31720.835771660302, 102111.7987766026, -51065.89061807282, -55342.561643429, -52592.49241262584, -65350.93520294848, -54823.93411683251, 19555.474168714783, -38052.19090607058, -57371.98828124861, -48654.51737100093, -53050.94904314865, -55325.060227520495, -36504.019678118195, -44567.18797292566, 0.076, 0.968, 0.052000000000000005, 192.0, 0.0, 0.0, 0.0, 0.0, 0.0, 0.0, 0.0, 0.0, 0.0, 1.740776578270978E9, 0.0, 2025-02-28 15:02:58.270
224.0, -47428.83711204972, -31733.598617744283, 102128.80845413309, -51075.85949609989, -55346.94258534224, -52592.738281814854, -65351.114016904125, -54822.68241914301, 19325.00533163611, -38037.86343787473, -57356.87850199682, -48638.62528069321, -53035.056952840925, -55311.87269829187, -36486.78648314315, -44551.42999308467, 0.076, 0.968, 0.052000000000000005, 192.0, 0.0, 0.0, 0.0, 0.0, 0.0, 0.0, 0.0, 0.0, 0.0, 1.740776578271214E9, 0.0, 2025-02-28 15:02:58.271
226.0, -47443.45515292349, -31746.2944085949, 102150.24377706574, -51091.72923466316, -55352.97755634518, -52604.27178195379, -65355.18203439499, -54832.42777972553, 19549.39449422294, -38065.26667657694, -57374.91635977225, -48664.530952516914, -53052.536017004975, -55334.090332280444, -36501.56098622811, -44567.92558049269, 0.076, 0.968, 0.052000000000000005, 192.0, 0.0, 0.0, 0.0, 0.0, 0.0, 0.0, 0.0, 0.0, 0.0, 1.740776578271446E9, 0.0, 2025-02-28 15:02:58.271
228.0, -47434.62621386364, -31733.62096948874, 102128.09319831053, -51087.59416193893, -55348.37309698738, -52603.51182264231, -65365.79911301126, -54843.55894846427, 19321.272590312077, -38060.01401662994, -57376.07865048393, -48662.072260626825, -53052.33485130488, -55335.49849218113, -36502.72327693979, -44571.63597007227, 0.076, 0.968, 0.054, 192.0, 1.0, 48.0, 15.0, 32.0, 0.5, 88.0, 0.0, 0.0, 0.0, 1.740776578330391E9, 0.0, 2025-02-28 15:02:58.330
230.0, -47424.65733583657, -31722.914483894645, 102125.41098897588, -51073.62432165436, -55340.460579450206, -52585.965703244896, -65350.5775750372, -54822.078922042725, 19534.24001148224, -38047.69820543507, -57358.35371713087, -48648.34828953127, -53043.03652561147, -55321.84157631893, -36491.994439601236, -44554.9168652197, 0.076, 0.968, 0.054, 192.0, 0.0, 0.0, 0.0, 0.0, 0.0, 0.0, 0.0, 0.0, 0.0, 1.740776578330687E9, 0.0, 2025-02-28 15:02:58.330
232.0, -47442.60578663419, -31740.415899803153, 102146.24281480824, -51081.82741186946, -55350.80943713301, -52592.40300564802, -65358.870072230115, -54831.22078552494, 19355.761332006616, -38055.14133633868, -57367.182656190715, -48648.8847313982, -53043.84118841186, -55321.930983296756, -36490.22865178927, -44548.121934905284, 0.076, 0.968, 0.054, 192.0, 0.0, 0.0, 0.0, 0.0, 0.0, 0.0, 0.0, 0.0, 0.0, 1.740776578330923E9, 0.0, 2025-02-28 15:02:58.330
234.0, -47442.2481587229, -31736.459641034562, 102167.70048948533, -51082.565019436486, -55353.49164646765, -52596.26985743879, -65360.680563530994, -54834.50649195987, 19510.793031548623, -38054.33667353829, -57369.03785098051, -48652.19278957758, -53053.60890073883, -55326.669553121275, -36499.482273993766, -44557.15203966523, 0.076, 0.968, 0.054, 192.0, 0.0, 0.0, 0.0, 0.0, 0.0, 0.0, 0.0, 0.0, 0.0, 1.740776578331168E9, 0.0, 2025-02-28 15:02:58.331
236.0, -47448.3501849592, -31749.33424584082, 102143.33708802905, -51087.035368327546, -55353.603405189926, -52598.661494095504, -65355.249089628356, -54835.17704429353, 19373.88859675987, -38062.3833015422, -57383.477077898635, -48662.40753679366, -53054.83824668387, -55339.79002711654, -36505.74076244125, -44565.176315924684, 0.076, 0.968, 0.054, 192.0, 0.0, 0.0, 0.0, 0.0, 0.0, 0.0, 0.0, 0.0, 0.0, 1.740776578331416E9, 0.0, 2025-02-28 15:02:58.331
238.0, -47446.00325179139, -31744.170992871645, 102112.2011080028, -51082.96735083668, -55355.816227891, -52597.70036908393, -65356.478435573394, -54833.00892508137, 19460.814530946558, -38046.46885949002, -57371.027156237025, -48652.237493066496, -53043.88589190077, -55330.71521886769, -36498.208224559814, -44558.18021991017, 0.066, 0.98, 0.06, 192.0, 1.0, 8.0, 15.0, 80.0, 0.5, 112.0, 0.0, 0.0, 0.0, 1.740776578331684E9, 0.0, 2025-02-28 15:02:58.331
240.0, -47460.95656883199, -31764.980466959536, 102128.18260528834, -51089.605818939905, -55362.58880646096, -52606.59636337714, -65360.94878446446, -54839.557986206775, 19401.068318017522, -38061.98097014201, -57387.76861283406, -48660.77585944842, -53051.97722339359, -55341.60051841742, -36506.61248047501, -44567.500897348036, 0.066, 0.98, 0.06, 192.0, 0.0, 0.0, 0.0, 0.0, 0.0, 0.0, 0.0, 0.0, 0.0, 1.740776578331954E9, 0.0, 2025-02-28 15:02:58.331
242.0, -47455.18981876252, -31759.996027946, 102149.9085008989, -51094.90318237581, -55364.10872508392, -52622.13082577358, -65376.840874772184, -54865.57541675275, 19421.922495594325, -38066.33956031079, -57389.10971750137, -48668.82248745233, -53060.09090663087, -55355.63741393536, -36511.68632646636, -44584.30940917843, 0.066, 0.98, 0.06, 192.0, 0.0, 0.0, 0.0, 0.0, 0.0, 0.0, 0.0, 0.0, 0.0, 1.74077657839026E9, 0.0, 2025-02-28 15:02:58.390
244.0, -47447.0984872697, -31755.033940676924, 102137.57033795958, -51066.42705993975, -55337.510149182104, -52584.468136366384, -65336.25010684134, -54812.60178239367, 19435.333542267508, -38067.16657485564, -57391.47900241364, -48667.50373452947, -53050.010269881524, -55351.971727844684, -36501.67274495039, -44573.26764741751, 0.066, 0.98, 0.06, 192.0, 0.0, 0.0, 0.0, 0.0, 0.0, 0.0, 0.0, 0.0, 0.0, 1.740776578390529E9, 0.0, 2025-02-28 15:02:58.390
246.0, -47420.72342881244, -31733.308045066366, 102130.39542798942, -51053.619510366865, -55326.37898044336, -52575.16981067298, -65338.55233652024, -54814.34521846119, 19395.569788881516, -38042.020862343416, -57364.83572302291, -48643.87794064021, -53020.48361545606, -55319.49464315113, -36465.46291893279, -44534.979109165564, 0.066, 0.98, 0.06, 192.0, 0.0, 0.0, 0.0, 0.0, 0.0, 0.0, 0.0, 0.0, 0.0, 1.740776578390765E9, 0.0, 2025-02-28 15:02:58.390
248.0, -47433.46392315196, -31742.539315526406, 102146.7569049307, -51059.0509842695, -55333.93387006925, -52578.92490374147, -65336.11599637461, -54813.27233472733, 19500.265359910176, -38036.008243084936, -57364.27692941153, -48640.56988246082, -53017.846109610335, -55321.059265263, -36471.721407380275, -44541.81874296889, 0.07, 0.982, 0.06, 192.0, 1.0, 24.0, 15.0, 88.0, 0.5, 112.0, 0.0, 0.0, 0.0, 1.740776578391004E9, 0.0, 2025-02-28 15:02:58.391
250.0, -47442.0469930228, -31745.825021961336, 102168.63926275245, -51064.34834770541, -55347.97076558719, -52584.66930206648, -65349.68350525898, -54825.67755290003, 19385.064468987523, -38046.357100767746, -57374.20110394968, -48649.3317662873, -53031.3689150058, -55331.38577120135, -36475.45414870431, -44550.9159029622, 0.07, 0.982, 0.06, 192.0, 0.0, 0.0, 0.0, 0.0, 0.0, 0.0, 0.0, 0.0, 0.0, 1.740776578391257E9, 0.0, 2025-02-28 15:02:58.391
252.0, -47435.54263538631, -31737.33135906832, 102144.56643397409, -51050.043231254014, -55343.65687890731, -52573.94046472794, -65341.323952832696, -54814.14405276109, 19518.37027291897, -38048.63697870219, -57374.91635977225, -48647.94595813107, -53036.26394704151, -55333.28566948005, -36485.288916264646, -44554.93921696416, 0.07, 0.982, 0.06, 192.0, 0.0, 0.0, 0.0, 0.0, 0.0, 0.0, 0.0, 0.0, 0.0, 1.740776578391487E9, 0.0, 2025-02-28 15:02:58.391
254.0, -47431.36285917317, -31731.22933283202, 102113.4528056923, -51050.08793474292, -55345.22150101919, -52577.94142698544, -65353.79622623876, -54822.41419820955, 19359.94110821976, -38032.99075758347, -57359.20308342017, -48633.9314143576, -53027.25619402602, -55318.68998035073, -36475.275334748665, -44544.92563544818, 0.07, 0.982, 0.06, 192.0, 0.0, 0.0, 0.0, 0.0, 0.0, 0.0, 0.0, 0.0, 0.0, 1.740776578391724E9, 0.0, 2025-02-28 15:02:58.391
0.0, -47452.217036749964, -31753.782242987425, 102128.80845413309, -51064.19188549422, -55354.40806799031, -52588.044415479235, -65362.021668198315, -54830.885509358115, 19549.036866311653, -38039.24924603096, -57365.32746140093, -48640.21225454954, -53031.50302547253, -55321.03691351854, -36476.348218482526, -44546.7137750046, 0.07, 0.98, 0.059, 192.0, 1.0, 24.0, 15.0, 72.0, 0.5, 104.0, 0.0, 0.0, 0.0, 1.740776578391983E9, 0.0, 2025-02-28 15:02:58.391
2.0, -47458.16260077508, -31759.48193782353, 102149.55087298762, -51079.30166474601, -55361.985309360665, -52599.577915618174, -65379.344270151174, -54847.939890377515, 19320.82555542297, -38067.07716787782, -57395.18939199322, -48670.56592351985, -53054.16769435021, -55347.47902720917, -36496.330678025566, -44571.81478402791, 0.07, 0.98, 0.059, 192.0, 0.0, 0.0, 0.0, 0.0, 0.0, 0.0, 0.0, 0.0, 0.0, 1.7407765784547E9, 0.0, 2025-02-28 15:02:58.454
4.0, -47434.827379563736, -31733.352748555273, 102128.42847447736, -51052.52427488855, -55334.06798053598, -52560.39530758802, -65343.0226854113, -54806.678570113014, 19542.2642877417, -38053.24143805998, -57382.20302846468, -48658.27246406943, -53039.19202556516, -55332.14573051283, -36479.43275921736, -44552.23465588506, 0.07, 0.98, 0.059, 192.0, 0.0, 0.0, 0.0, 0.0, 0.0, 0.0, 0.0, 0.0, 0.0, 1.740776578454981E9, 0.0, 2025-02-28 15:02:58.454
6.0, -47431.36285917317, -31731.810478187857, 102128.11555005498, -51057.06167901298, -55339.253585249615, -52564.01629018978, -65348.36475233612, -54816.200413250976, 19308.643854694827, -38027.15695228064, -57363.22639742213, -48635.40662949165, -53017.287315998954, -55308.162308712286, -36458.91385780738, -44530.19583585213, 0.07, 0.98, 0.059, 192.0, 0.0, 0.0, 0.0, 0.0, 0.0, 0.0, 0.0, 0.0, 0.0, 1.740776578455222E9, 0.0, 2025-02-28 15:02:58.455
8.0, -47437.01785052036, -31738.9406846691, 102149.19324507634, -51055.11707724537, -55348.52955919857, -52564.82095299017, -65348.230641869384, -54811.0371602818, 19569.555767721627, -38040.63505418719, -57371.42948763722, -48647.0295366084, -53028.93257486017, -55320.63458211835, -36475.923535337875, -44543.38336508076, 0.07, 0.98, 0.059, 192.0, 0.0, 0.0, 0.0, 0.0, 0.0, 0.0, 0.0, 0.0, 0.0, 1.740776578455468E9, 0.0, 2025-02-28 15:02:58.455
10.0, -47449.91480707107, -31753.983408687523, 102170.85208545353, -51065.220065739166, -55362.16412331631, -52580.33306364215, -65360.680563530994, -54826.77278837834, 19310.431994251252, -38046.31239727884, -57378.42558365173, -48650.829333165806, -53038.00738310902, -55325.73077985416, -36481.37736098497, -44548.3678040943, 0.07, 0.982, 0.057499999999999996, 192.0, 1.0, 24.0, 15.0, 96.0, 0.5, 96.0, 0.0, 0.0, 0.0, 1.740776578455713E9, 0.0, 2025-02-28 15:02:58.455
12.0, -47433.508626640876, -31742.85223994878, 102146.86866365299, -51045.68464108523, -55346.741419642145, -52566.989072202334, -65337.36769406411, -54809.11491025864, 19563.20787229632, -38055.90129565016, -57382.11362148686, -48659.90414141466, -53043.95294713414, -55331.11755026788, -36489.044009333134, -44554.693347775145, 0.07, 0.982, 0.057499999999999996, 192.0, 0.0, 0.0, 0.0, 0.0, 0.0, 0.0, 0.0, 0.0, 0.0, 1.740776578455962E9, 0.0, 2025-02-28 15:02:58.455
14.0, -47422.08688522421, -31728.055385119365, 102117.94550632781, -51032.54181534551, -55333.84446309143, -52557.66839476447, -65328.60581023763, -54800.934171788, 19314.72352918667, -38027.51458019192, -57359.15837993126, -48632.45619922355, -53015.38741772025, -55303.44609063221, -36457.93038105135, -44526.9101294172, 0.07, 0.982, 0.057499999999999996, 192.0, 0.0, 0.0, 0.0, 0.0, 0.0, 0.0, 0.0, 0.0, 0.0, 1.740776578456205E9, 0.0, 2025-02-28 15:02:58.456
16.0, -47419.73995205641, -31726.42370777413, 102134.86577688048, -51034.57582409094, -55334.9620503142, -52556.48375230834, -65335.378388807585, -54800.37537817662, 19577.0212503697, -38029.973272082, -57355.31387988495, -48635.54073995838, -53016.035618309455, -55305.770672055565, -36461.48430841974, -44531.26871958598, 0.07, 0.982, 0.057499999999999996, 192.0, 0.0, 0.0, 0.0, 0.0, 0.0, 0.0, 0.0, 0.0, 0.0, 1.740776578510526E9, 0.0, 2025-02-28 15:02:58.510
18.0, -47440.05768776628, -31745.08741439431, 102154.53531200116, -51066.15883900629, -55359.10193432593, -52585.85394452262, -65364.949746721955, -54833.120683803645, 19336.717645730692, -38042.84787688826, -57371.29537717049, -48650.22583606552, -53032.039467339455, -55321.439244918736, -36478.04695106113, -44550.17829539518, 0.07, 0.982, 0.057499999999999996, 192.0, 0.0, 0.0, 0.0, 0.0, 0.0, 0.0, 0.0, 0.0, 0.0, 1.740776578510779E9, 0.0, 2025-02-28 15:02:58.510
20.0, -47438.76128658787, -31740.840582947803, 102130.70835241179, -51059.60977788088, -55354.74334415714, -52580.422470619975, -65360.188825152974, -54828.71739014595, 19551.04852331263, -38054.76135668294, -57376.16805746175, -48660.28412107041, -53041.29308954395, -55340.21471026119, -36493.35789601301, -44567.23267641458, 0.069, 0.979, 0.05475, 192.0, 1.0, 16.0, 15.0, 64.0, 0.5, 80.0, 0.0, 0.0, 0.0, 1.740776578511018E9, 0.0, 2025-02-28 15:02:58.511
22.0, -47427.31719342675, -31731.072870620832, 102124.76278838668, -51045.48347538513, -55345.62383241938, -52564.128048912055, -65348.40945582503, -54811.64065738209, 19333.40958755131, -38034.7788971399, -57371.16126670376, -48641.44160049458, -53026.42917948117, -55319.38288442885, -36479.16453828389, -44547.89841746073, 0.069, 0.979, 0.05475, 192.0, 0.0, 0.0, 0.0, 0.0, 0.0, 0.0, 0.0, 0.0, 0.0, 1.740776578511291E9, 0.0, 2025-02-28 15:02:58.511
24.0, -47445.08683026872, -31749.602466774282, 102145.59461421904, -51062.33669070443, -55362.05236459403, -52581.5624095872, -65353.88563321658, -54827.46569245645, 19527.266267212184, -38044.323092022314, -57380.97368251964, -48656.26080706845, -53033.00059235103, -55334.291497980535, -36485.08775056455, -44559.878952488776, 0.069, 0.979, 0.05475, 192.0, 0.0, 0.0, 0.0, 0.0, 0.0, 0.0, 0.0, 0.0, 0.0, 1.740776578511548E9, 0.0, 2025-02-28 15:02:58.511
26.0, -47443.7457256014, -31747.970789429044, 102168.16987611889, -51058.46983891366, -55356.91146336931, -52574.74512752833, -65347.0236476688, -54817.94384931849, 19352.095645915942, -38045.865362389726, -57392.283665214025, -48661.20054259307, -53033.11235107331, -55333.15155901332, -36484.48425346425, -44559.67778678868, 0.069, 0.979, 0.05475, 192.0, 0.0, 0.0, 0.0, 0.0, 0.0, 0.0, 0.0, 0.0, 0.0, 1.740776578511811E9, 0.0, 2025-02-28 15:02:58.511
28.0, -47432.525149884845, -31735.118536367245, 102143.85117815151, -51050.28910044302, -55349.55773944352, -52572.5099530828, -65344.49790054535, -54816.7368551179, 19489.268301638163, -38050.91685663663, -57388.34975818989, -48665.26856008394, -53035.83926389686, -55340.929966083764, -36488.4628639773, -44566.13744093626, 0.069, 0.979, 0.05475, 192.0, 0.0, 0.0, 0.0, 0.0, 0.0, 0.0, 0.0, 0.0, 0.0, 1.740776578512056E9, 0.0, 2025-02-28 15:02:58.512
30.0, -47429.46296089447, -31731.296388065388, 102113.27399173666, -51044.656460840284, -55349.02129757658, -52568.24076989183, -65346.151929635045, -54814.36757020564, 19394.27338770311, -38035.20358028455, -57373.8434760384, -48644.97317611852, -53019.34367648884, -55322.22155597468, -36474.53772718164, -44550.58062679537, 0.0665, 0.9784999999999999, 0.052375000000000005, 192.0, 1.0, 0.0, 15.0, 72.0, 0.5, 72.0, 0.0, 0.0, 0.0, 1.740776578512304E9, 0.0, 2025-02-28 15:02:58.512
32.0, -47440.75059184439, -31739.052443391378, 102128.74139889973, -51052.79249582202, -55363.01348960561, -52582.18825843195, -65362.66986878752, -54829.38794247961, 19476.95249044329, -38038.5786936973, -57373.93288301622, -48645.82254240782, -53027.703228915125, -55328.32358221097, -36481.39971272942, -44558.98488271057, 0.0665, 0.9784999999999999, 0.052375000000000005, 192.0, 0.0, 0.0, 0.0, 0.0, 0.0, 0.0, 0.0, 0.0, 0.0, 1.740776578571083E9, 0.0, 2025-02-28 15:02:58.571
34.0, -47448.037260536825, -31751.725882497536, 102150.28848055465, -51057.01697552407, -55368.35555653043, -52590.50310736932, -65365.64265080007, -54833.97005009295, 19430.0361788316, -38052.235609559495, -57393.490659414616, -48658.160705347145, -53042.656545955724, -55344.349782985424, -36494.63194544696, -44571.546563094445, 0.0665, 0.9784999999999999, 0.052375000000000005, 192.0, 0.0, 0.0, 0.0, 0.0, 0.0, 0.0, 0.0, 0.0, 0.0, 1.74077657857134E9, 0.0, 2025-02-28 15:02:58.571
36.0, -47437.263719709365, -31739.879457936226, 102132.63060243495, -51049.126809731344, -55361.9182541273, -52586.47979336736, -65363.921566477016, -54831.310192502766, 19426.348140996473, -38053.77787992691, -57390.808450079974, -48660.93232165961, -53039.169673820696, -55348.6636696653, -36492.754398912715, -44574.698159062646, 0.0665, 0.9784999999999999, 0.052375000000000005, 192.0, 0.0, 0.0, 0.0, 0.0, 0.0, 0.0, 0.0, 0.0, 0.0, 1.740776578571576E9, 0.0, 2025-02-28 15:02:58.571
38.0, -47425.01496374786, -31729.821172931337, 102133.39056174643, -51031.647745567294, -55349.82596037698, -52569.671281536976, -65343.98381042288, -54809.964276547944, 19463.608499003472, -38037.48345821899, -57377.330348173426, -48645.84489415227, -53020.55067068943, -55329.15059675582, -36474.60478241501, -44555.274493130986, 0.0665, 0.9784999999999999, 0.052375000000000005, 192.0, 0.0, 0.0, 0.0, 0.0, 0.0, 0.0, 0.0, 0.0, 0.0, 1.740776578571817E9, 0.0, 2025-02-28 15:02:58.571
40.0, -47429.15003647209, -31729.530600253416, 102151.5625299886, -51037.68271657023, -55363.34876577244, -52574.4098513615, -65356.701953017946, -54819.977858063925, 19418.770899626124, -38034.19775178406, -57368.68022306922, -48641.5310074724, -53021.422388723186, -55327.67538162177, -36475.498852193225, -44557.17439140969, 0.06525, 0.98025, 0.0531875, 192.0, 1.0, 0.0, 15.0, 88.0, 0.5, 88.0, 0.0, 0.0, 0.0, 1.74077657857206E9, 0.0, 2025-02-28 15:02:58.572
42.0, -47439.83417032172, -31747.501402795486, 102172.6625767544, -51047.316318430465, -55373.63056822188, -52585.675130566975, -65361.26170888683, -54831.98074483642, 19511.9553222603, -38050.00043511396, -57380.97368251964, -48652.0363273664, -53036.57687146388, -55342.24871900663, -36491.145073311935, -44573.15588869523, 0.06525, 0.98025, 0.0531875, 192.0, 0.0, 0.0, 0.0, 0.0, 0.0, 0.0, 0.0, 0.0, 0.0, 1.740776578572311E9, 0.0, 2025-02-28 15:02:58.572
44.0, -47424.702039325486, -31729.955283398067, 102148.52269274267, -51027.08798969841, -55359.54896921504, -52570.297130381725, -65349.19176688097, -54815.485157428404, 19385.824428299, -38046.60296995675, -57371.518894615045, -48645.88959764119, -53029.58077544937, -55335.67730613677, -36479.4104074729, -44564.05872870192, 0.06525, 0.98025, 0.0531875, 192.0, 0.0, 0.0, 0.0, 0.0, 0.0, 0.0, 0.0, 0.0, 0.0, 1.740776578572571E9, 0.0, 2025-02-28 15:02:58.572
46.0, -47426.981917259924, -31738.985388158013, 102117.81139586108, -51024.78576001951, -55359.884245381865, -52567.23494139135, -65339.75933072082, -54808.53376490281, 19544.141834275943, -38038.15401055265, -57363.71813580014, -48636.8818446257, -53019.70130440013, -55323.27208796407, -36470.20148875732, -44550.021833183986, 0.06525, 0.98025, 0.0531875, 192.0, 0.0, 0.0, 0.0, 0.0, 0.0, 0.0, 0.0, 0.0, 0.0, 1.740776578633005E9, 0.0, 2025-02-28 15:02:58.633
48.0, -47452.39585070561, -31766.209812904577, 102132.0047535902, -51063.34251920492, -55390.59554226346, -52601.41075866351, -65375.49977010486, -54843.76011416437, 19363.964422221714, -38057.42121427313, -57378.82791505193, -48654.91970240113, -53031.45832198362, -55340.10295153892, -36483.03139007466, -44566.20449616963, 0.06525, 0.98025, 0.0531875, 192.0, 0.0, 0.0, 0.0, 0.0, 0.0, 0.0, 0.0, 0.0, 0.0, 1.740776578633318E9, 0.0, 2025-02-28 15:02:58.633
50.0, -47442.82930407874, -31760.66658027966, 102154.46825676778, -51058.648652869306, -55379.01733863561, -52590.4137003915, -65365.21796765542, -54832.964221592454, 19554.378933236472, -38073.425063303126, -57395.9493513047, -48674.49983054398, -53043.6176709673, -55356.732649413665, -36501.69509669484, -44585.71756907911, 0.064625, 0.9841249999999999, 0.054593749999999996, 192.0, 1.0, 0.0, 15.0, 112.0, 0.5, 96.0, 0.0, 0.0, 0.0, 1.740776578633577E9, 0.0, 2025-02-28 15:02:58.633
52.0, -47434.603862119184, -31745.936780683613, 102130.26131752269, -51054.82650456745, -55375.128135100385, -52586.16686894499, -65368.70483979045, -54834.95352684898, 19329.185107849255, -38057.98000788451, -57381.46542089766, -48659.85943792575, -53028.194967293144, -55342.38282947336, -36487.591145943545, -44572.12770845029, 0.064625, 0.9841249999999999, 0.054593749999999996, 192.0, 0.0, 0.0, 0.0, 0.0, 0.0, 0.0, 0.0, 0.0, 0.0, 1.740776578633841E9, 0.0, 2025-02-28 15:02:58.633
54.0, -47428.121856227146, -31738.203077102076, 102118.72781738375, -51044.83527479593, -55366.63447220737, -52578.23199966336, -65355.07027567271, -54823.50943368786, 19573.847302657046, -38047.966426368526, -57372.54707485999, -48651.8351616663, -53025.98214459207, -55340.81820736149, -36487.63584943245, -44568.01498747051, 0.064625, 0.9841249999999999, 0.054593749999999996, 192.0, 0.0, 0.0, 0.0, 0.0, 0.0, 0.0, 0.0, 0.0, 0.0, 1.740776578634082E9, 0.0, 2025-02-28 15:02:58.634
56.0, -47440.839998822215, -31750.80946097487, 102151.09314335504, -51055.60881562338, -55380.850181680944, -52590.83838353615, -65367.36373512313, -54839.17800655103, 19327.01698863709, -38049.9333798806, -57375.1398772168, -48650.561112232346, -53026.49623471454, -55346.67436440878, -36479.052779561614, -44563.656397301726, 0.064625, 0.9841249999999999, 0.054593749999999996, 192.0, 0.0, 0.0, 0.0, 0.0, 0.0, 0.0, 0.0, 0.0, 0.0, 1.740776578634344E9, 0.0, 2025-02-28 15:02:58.634
58.0, -47435.92261504205, -31743.56749577135, 102173.7131087438, -51040.610795093875, -55375.93279790077, -52575.61684556209, -65362.6251652986, -54823.91176508806, 19589.29235807566, -38057.62237997322, -57382.02421450904, -48658.96536814754, -53040.287261043464, -55355.34684125744, -36488.23934653275, -44566.96445548111, 0.064625, 0.9841249999999999, 0.054593749999999996, 192.0, 0.0, 0.0, 0.0, 0.0, 0.0, 0.0, 0.0, 0.0, 0.0, 1.7407765786346E9, 0.0, 2025-02-28 15:02:58.634
60.0, -47424.85850153667, -31731.966940399045, 102149.75203868771, -51033.43588512372, -55370.94835888724, -52566.92201696897, -65359.160644908035, -54820.871927842134, 19328.67101772678, -38047.78761241289, -57372.74824056009, -48647.38716451969, -53032.55355746193, -55340.88526259486, -36477.19758477183, -44549.97712969508, 0.0663125, 0.9810625, 0.054296874999999994, 192.0, 1.0, 16.0, 15.0, 72.0, 0.5, 88.0, 0.0, 0.0, 0.0, 1.740776578634836E9, 0.0, 2025-02-28 15:02:58.634
62.0, -47429.95469927248, -31735.029129389422, 102118.21372726127, -51034.106437457376, -55373.89878915534, -52568.9113222255, -65362.446351342965, -54823.48708194341, 19597.227227357296, -38044.30074027786, -57364.321632900435, -48644.70495518505, -53028.463188226604, -55336.727838126164, -36474.18009927036, -44545.08209765937, 0.0663125, 0.9810625, 0.054296874999999994, 192.0, 0.0, 0.0, 0.0, 0.0, 0.0, 0.0, 0.0, 0.0, 0.0, 1.740776578693857E9, 0.0, 2025-02-28 15:02:58.693
64.0, -47432.90512954058, -31737.2419520905, 102134.39639024693, -51037.41449563677, -55377.11744035691, -52572.08526993815, -65360.88172923109, -54825.90107034458, 19342.350285333432, -38050.00043511396, -57368.43435388021, -48642.31331852834, -53028.53024345997, -55338.359515471406, -36466.84872708902, -44542.77986798047, 0.0663125, 0.9810625, 0.054296874999999994, 192.0, 0.0, 0.0, 0.0, 0.0, 0.0, 0.0, 0.0, 0.0, 0.0, 1.740776578694141E9, 0.0, 2025-02-28 15:02:58.694
66.0, -47421.818664290746, -31724.210885073055, 102156.65872772441, -51017.63320179382, -55367.4167832633, -52553.95800518489, -65358.55714780774, -54813.45114868297, 19592.063974388122, -38051.229781059, -57372.010632993064, -48646.3813360192, -53036.39805750824, -55339.32064048298, -36477.666971405386, -44549.954777950625, 0.0663125, 0.9810625, 0.054296874999999994, 192.0, 0.0, 0.0, 0.0, 0.0, 0.0, 0.0, 0.0, 0.0, 0.0, 1.740776578694395E9, 0.0, 2025-02-28 15:02:58.694
68.0, -47426.60193760419, -31734.9397224116, 102130.99892508972, -51023.891690241304, -55375.99985313414, -52563.47984832285, -65369.55420607975, -54828.9409075905, 19363.740904777158, -38032.297853505355, -57364.321632900435, -48634.31139401333, -53023.05406606842, -55315.38192217135, -36461.77488109766, -44532.76628646449, 0.0663125, 0.9810625, 0.054296874999999994, 192.0, 0.0, 0.0, 0.0, 0.0, 0.0, 0.0, 0.0, 0.0, 0.0, 1.740776578694663E9, 0.0, 2025-02-28 15:02:58.694
70.0, -47419.04704797829, -31730.67053922064, 102103.7521485987, -51015.643896537294, -55367.4167832633, -52555.768496485776, -65361.820502498216, -54818.569698163235, 19575.814256169113, -38040.23272278699, -57369.32842365842, -48648.19182732008, -53026.384475992265, -55327.094236265926, -36475.23063125976, -44545.17150463718, 0.06615625, 0.97853125, 0.055148437499999994, 192.0, 1.0, 8.0, 15.0, 64.0, 0.5, 96.0, 0.0, 0.0, 0.0, 1.740776578694917E9, 0.0, 2025-02-28 15:02:58.694
72.0, -47419.22586193393, -31734.76090845596, 102149.93085264336, -51019.778969261526, -55364.10872508392, -52555.88025520805, -65348.40945582503, -54815.0381225393, 19371.675774058793, -38035.874132618206, -57365.6403858233, -48642.11215282824, -53013.62162990828, -55322.266259463584, -36462.93717180934, -44535.560254521406, 0.06615625, 0.97853125, 0.055148437499999994, 192.0, 0.0, 0.0, 0.0, 0.0, 0.0, 0.0, 0.0, 0.0, 0.0, 1.740776578695175E9, 0.0, 2025-02-28 15:02:58.695
74.0, -47439.18596973252, -31751.27884760843, 102175.1659721334, -51044.54470211801, -55378.23502757967, -52575.326272884166, -65366.760238022835, -54830.6396401691, 19551.339095990552, -38045.26186528944, -57369.50723761407, -48653.846818667276, -53019.030752066465, -55335.63260264786, -36470.872041090974, -44550.357109350814, 0.06615625, 0.97853125, 0.055148437499999994, 192.0, 0.0, 0.0, 0.0, 0.0, 0.0, 0.0, 0.0, 0.0, 0.0, 1.740776578695422E9, 0.0, 2025-02-28 15:02:58.695
76.0, -47433.3968679186, -31749.42365281864, 102150.33318404356, -51046.95869051918, -55368.44496350825, -52571.16884841548, -65357.57367105171, -54824.64937265508, 19386.27146318811, -38057.66708346213, -57384.5946651214, -48665.42502229512, -53025.87038586979, -55347.926062098275, -36475.275334748665, -44558.336682121364, 0.06615625, 0.97853125, 0.055148437499999994, 192.0, 0.0, 0.0, 0.0, 0.0, 0.0, 0.0, 0.0, 0.0, 0.0, 1.740776578750181E9, 0.0, 2025-02-28 15:02:58.750
78.0, -47432.86042605167, -31746.160298128165, 102119.21955576177, -51050.37850742084, -55372.98236763268, -52572.35349087161, -65372.281118903295, -54830.17025353554, 19512.983502505245, -38055.76718518343, -57378.62674935183, -48667.97312116303, -53022.45056896813, -55349.80360863252, -36475.78942487114, -44560.77302226699, 0.06615625, 0.97853125, 0.055148437499999994, 192.0, 0.0, 0.0, 0.0, 0.0, 0.0, 0.0, 0.0, 0.0, 0.0, 1.74077657875044E9, 0.0, 2025-02-28 15:02:58.750
80.0, -47435.944966786505, -31753.782242987425, 102135.89395712543, -51054.58063537844, -55377.31860605701, -52574.78983101724, -65369.37539212411, -54829.9914395799, 19569.44400899935, -38051.028615358904, -57381.26425519756, -48665.00033915047, -53023.165824790696, -55348.44015222075, -36476.6611429049, -44557.91199897671, 0.068078125, 0.977265625, 0.05657421875, 192.0, 1.0, 24.0, 15.0, 64.0, 0.5, 104.0, 0.0, 0.0, 0.0, 1.740776578750691E9, 0.0, 2025-02-28 15:02:58.750
82.0, -47443.075173267745, -31757.85026047829, 102157.39633529143, -51055.96644353467, -55389.25443759614, -52578.947255485924, -65375.857398016145, -54833.813587881756, 19721.681740484448, -38062.02567363092, -57390.42847042424, -48678.657255012666, -53039.035563353966, -55365.94156812925, -36487.524090710176, -44570.071347960395, 0.068078125, 0.977265625, 0.05657421875, 192.0, 0.0, 0.0, 0.0, 0.0, 0.0, 0.0, 0.0, 0.0, 0.0, 1.74077657875094E9, 0.0, 2025-02-28 15:02:58.750
84.0, -47424.50087362539, -31738.22542884653, 102134.06111408009, -51032.67592581224, -55374.12230659989, -52561.04350817722, -65357.484264073886, -54816.826262095725, 19709.76826068977, -38051.65446420365, -57386.762784333565, -48666.05087113987, -53034.632269696274, -55355.95033835773, -36484.97599184227, -44561.264760645005, 0.068078125, 0.977265625, 0.05657421875, 192.0, 0.0, 0.0, 0.0, 0.0, 0.0, 0.0, 0.0, 0.0, 0.0, 1.740776578751173E9, 0.0, 2025-02-28 15:02:58.751
86.0, -47413.012076975356, -31724.792030428893, 102104.31094221008, -51019.19782390569, -55363.75109717264, -52555.4555720634, -65353.84092972767, -54814.92636381702, 19712.56222874668, -38032.163743038625, -57366.08742071241, -48643.967347618025, -53018.762531133005, -55343.96980332969, -36468.0557212896, -44548.79248723895, 0.068078125, 0.977265625, 0.05657421875, 192.0, 0.0, 0.0, 0.0, 0.0, 0.0, 0.0, 0.0, 0.0, 0.0, 1.74077657875141E9, 0.0, 2025-02-28 15:02:58.751
88.0, -47425.797274803794, -31745.780318472425, 102129.09902681102, -51030.30664089997, -55372.49062925466, -52567.36905185808, -65363.921566477016, -54823.2412127544, 19763.099522960132, -38026.508751691435, -57363.5393218445, -48636.4795132255, -53010.760606618, -55340.862910850396, -36459.897334563415, -44540.87996970177, 0.068078125, 0.977265625, 0.05657421875, 192.0, 0.0, 0.0, 0.0, 0.0, 0.0, 0.0, 0.0, 0.0, 0.0, 1.740776578751664E9, 0.0, 2025-02-28 15:02:58.751
90.0, -47435.14030398611, -31755.19040288811, 102176.4176698229, -51041.48251312763, -55383.15241135984, -52578.65668280801, -65379.12075270662, -54842.821340897244, 19677.380582974027, -38061.89156316419, -57391.16607799126, -48670.610627008755, -53038.27560404249, -55370.5683792315, -36484.864233119995, -44569.19962992664, 0.0660390625, 0.9736328125, 0.057287109375000006, 192.0, 1.0, 0.0, 15.0, 40.0, 0.5, 104.0, 0.0, 0.0, 0.0, 1.740776578751918E9, 0.0, 2025-02-28 15:02:58.751
92.0, -47408.18410017301, -31732.726899710528, 102153.97651838977, -51011.82174823544, -55357.04557383604, -52542.80448470169, -65346.24133661287, -54799.81658456523, 19776.33175567767, -38044.21133330004, -57373.418792893746, -48650.51640874343, -53019.1648625332, -55348.216634776196, -36467.6086864005, -44545.327966848374, 0.0660390625, 0.9736328125, 0.057287109375000006, 192.0, 0.0, 0.0, 0.0, 0.0, 0.0, 0.0, 0.0, 0.0, 0.0, 1.740776578811514E9, 0.0, 2025-02-28 15:02:58.811
94.0, -47405.34542862719, -31724.300292050877, 102123.48873895273, -51017.02970469352, -55366.07567859598, -52546.55957777019, -65349.03530466978, -54806.03036952381, 19658.35924844256, -38025.83819935777, -57351.469379838636, -48630.73511490049, -53000.523507657475, -55331.497529923625, -36450.48725014773, -44527.46892302858, 0.0660390625, 0.9736328125, 0.057287109375000006, 192.0, 0.0, 0.0, 0.0, 0.0, 0.0, 0.0, 0.0, 0.0, 0.0, 1.740776578811802E9, 0.0, 2025-02-28 15:02:58.811
96.0, -47424.3444114142, -31745.2438766055, 102138.5091112267, -51037.52625435904, -55383.95707416023, -52567.10083092462, -65363.65334554355, -54821.83305285371, 19823.762157411835, -38037.751679152454, -57366.489752112604, -48643.22974005101, -53018.561365432906, -55347.97076558719, -36472.36960796948, -44548.278397116475, 0.0660390625, 0.9736328125, 0.057287109375000006, 192.0, 0.0, 0.0, 0.0, 0.0, 0.0, 0.0, 0.0, 0.0, 0.0, 1.740776578812052E9, 0.0, 2025-02-28 15:02:58.812
98.0, -47432.41339116256, -31749.267190607454, 102159.81032369261, -51051.58550162143, -55394.64120800987, -52580.69069155344, -65376.57265383872, -54833.97005009295, 19623.870506748022, -38056.01305437244, -57383.767650576556, -48659.54651350338, -53035.54869121894, -55370.300158298036, -36487.993477343734, -44568.73024329308, 0.0660390625, 0.9736328125, 0.057287109375000006, 192.0, 0.0, 0.0, 0.0, 0.0, 0.0, 0.0, 0.0, 0.0, 0.0, 1.740776578812287E9, 0.0, 2025-02-28 15:02:58.812
100.0, -47419.449379378486, -31735.319702067343, 102136.05041933662, -51032.34064964541, -55373.40705077733, -52557.80250523121, -65351.65045877105, -54810.880698070614, 19824.20919230094, -38048.793440913374, -57379.85609529688, -48657.55720824686, -53032.97824060658, -55360.24187329315, -36487.613497688, -44564.841039757855, 0.06401953125, 0.97281640625, 0.054643554687500005, 192.0, 0.5, 120.0, 15.0, 48.0, 0.5, 80.0, 0.0, 0.0, 0.0, 1.740776578812526E9, 0.0, 2025-02-28 15:02:58.812
102.0, -47419.00234448938, -31726.893094407693, 102105.40617768839, -51038.934414259726, -55374.12230659989, -52560.93174945495, -65346.46485405742, -54813.406445194065, 19599.618864014014, -38026.39699296916, -57360.052449709474, -48634.87018762472, -53012.79461536343, -55332.92804156877, -36463.00422704271, -44540.924673190675, 0.06401953125, 0.97281640625, 0.054643554687500005, 192.0, 0.0, 0.0, 0.0, 0.0, 0.0, 0.0, 0.0, 0.0, 0.0, 1.740776578812773E9, 0.0, 2025-02-28 15:02:58.812
104.0, -47416.52130085484, -31723.070946105832, 102122.68407615233, -51041.61662359436, -55367.75205943013, -52558.56246454269, -65339.26759234281, -54805.73979684589, 19846.158605356053, -38030.01797557092, -57363.36050788886, -48639.854626638255, -53022.741141646045, -55336.593727659434, -36472.59312541403, -44551.11706866229, 0.06401953125, 0.97281640625, 0.054643554687500005, 192.0, 0.0, 0.0, 0.0, 0.0, 0.0, 0.0, 0.0, 0.0, 0.0, 1.740776578813003E9, 0.0, 2025-02-28 15:02:58.813
106.0, -47397.47761457892, -31711.716259922538, 102171.99202442075, -51065.555341905994, -55375.08343161147, -52575.527438584264, -65351.538700048775, -54822.838881354204, 19586.856017930033, -38031.6273011717, -57367.40617363527, -48647.65538545315, -53022.27175501249, -55338.38186721586, -36473.77776787016, -44556.83911524285, 0.06401953125, 0.97281640625, 0.054643554687500005, 192.0, 0.0, 0.0, 0.0, 0.0, 0.0, 0.0, 0.0, 0.0, 0.0, 1.740776578870403E9, 0.0, 2025-02-28 15:02:58.870
108.0, -47401.5903355587, -31706.731820909004, 102156.36815504648, -51030.73132404463, -55342.695753895736, -52543.69855447991, -65321.63206596757, -54787.76899430383, 19853.78055021531, -38025.56997842431, -57358.82310376443, -48646.001356363464, -53017.287315998954, -55329.44116943374, -36479.4104074729, -44559.029586199475, 0.06401953125, 0.97281640625, 0.054643554687500005, 192.0, 0.0, 0.0, 0.0, 0.0, 0.0, 0.0, 0.0, 0.0, 0.0, 1.740776578870681E9, 0.0, 2025-02-28 15:02:58.870
110.0, -47397.991704701395, -31698.55108243836, 102125.94743084282, -51035.58165259143, -55341.68992539524, -52551.74518248382, -65319.30748454422, -54792.37345366162, 19580.86575041601, -38007.17449273759, -57338.661830265744, -48615.4241699486, -52997.930705300656, -55297.14289869582, -36446.77686056815, -44523.62442298227, 0.062009765625, 0.976408203125, 0.05232177734375, 192.0, 0.5, 112.0, 15.0, 80.0, 0.5, 72.0, 0.0, 0.0, 0.0, 1.740776578870938E9, 0.0, 2025-02-28 15:02:58.870
112.0, -47392.247306376375, -31698.75224813846, 102141.79481766163, -51041.3484026609, -55341.66757365079, -52563.301034367214, -65321.83323166767, -54797.871982797624, 19859.994335173888, -38008.85087357174, -57346.44023733619, -48632.61266143473, -53009.955943817615, -55310.48689013564, -36473.531898681154, -44551.564103551405, 0.062009765625, 0.976408203125, 0.05232177734375, 192.0, 0.0, 0.0, 0.0, 0.0, 0.0, 0.0, 0.0, 0.0, 0.0, 1.740776578871216E9, 0.0, 2025-02-28 15:02:58.871
114.0, -47396.583544800706, -31693.8795678472, 102164.19126560584, -51030.08312345542, -55333.48683518015, -52555.58968253013, -65310.74676641784, -54787.65723558155, 19610.012425185734, -38010.840178828264, -57351.51408332754, -48631.2268532785, -53009.28539148395, -55307.312942422985, -36471.095558535526, -44545.08209765937, 0.062009765625, 0.976408203125, 0.05232177734375, 192.0, 0.0, 0.0, 0.0, 0.0, 0.0, 0.0, 0.0, 0.0, 0.0, 1.740776578871468E9, 0.0, 2025-02-28 15:02:58.871
116.0, -47384.223030116926, -31669.47146290201, 102138.77733216016, -51018.88489948332, -55325.79783508752, -52547.6548132485, -65318.41341476601, -54784.30447391325, 19863.995297431386, -37999.53019613388, -57347.602528047864, -48624.476626453004, -53014.3145339864, -55301.2556196756, -36479.23159351726, -44544.23273137006, 0.062009765625, 0.976408203125, 0.05232177734375, 192.0, 0.0, 0.0, 0.0, 0.0, 0.0, 0.0, 0.0, 0.0, 0.0, 1.740776578871721E9, 0.0, 2025-02-28 15:02:58.871
118.0, -47364.86641941863, -31649.779576036883, 102109.0495120346, -51007.73137900011, -55302.88729702083, -52535.02607763125, -65290.719603385885, -54767.78653476078, 19647.049265748177, -37983.95103024853, -57327.91064118274, -48600.29203895236, -52992.23101046455, -55277.540418808516, -36455.24817171671, -44515.08605660034, 0.062009765625, 0.976408203125, 0.05232177734375, 192.0, 0.0, 0.0, 0.0, 0.0, 0.0, 0.0, 0.0, 0.0, 0.0, 1.740776578871971E9, 0.0, 2025-02-28 15:02:58.871
120.0, -47361.93834089498, -31642.671721300096, 102125.47804420926, -51015.73330351512, -55299.1545556968, -52534.713153208875, -65319.2180775664, -54775.60964532014, 19875.03705919231, -37979.27951565737, -57315.61718173232, -48596.55929762832, -52991.33694068634, -55272.31011060597, -36455.561096139085, -44512.18032982115, 0.0590048828125, 0.9732041015624999, 0.050160888671875, 192.0, 0.5, 96.0, 15.0, 40.0, 0.5, 64.0, 0.0, 0.0, 0.0, 1.740776578872205E9, 0.0, 2025-02-28 15:02:58.872
122.0, -47366.00635838585, -31645.510392845918, 102162.49253302724, -51033.03355372352, -55295.3994626283, -52543.96677541337, -65317.698158943436, -54783.85743902415, 19680.50982719777, -37991.72943731897, -57322.233298091094, -48604.04713202085, -52994.48853665454, -55284.29064563401, -36448.49794489121, -44511.3086117874, 0.0590048828125, 0.9732041015624999, 0.050160888671875, 192.0, 0.0, 0.0, 0.0, 0.0, 0.0, 0.0, 0.0, 0.0, 0.0, 1.740776578930826E9, 0.0, 2025-02-28 15:02:58.930
124.0, -47355.99277686987, -31641.330616632775, 102157.17281784688, -51032.988850234615, -55283.08365143343, -52543.16211261298, -65324.470737513395, -54787.545476859275, 19847.946744912475, -37990.142463462646, -57309.49280375157, -48596.00050401694, -52993.63917036524, -55288.60453231389, -36445.16753496737, -44511.93446063215, 0.0590048828125, 0.9732041015624999, 0.050160888671875, 192.0, 0.0, 0.0, 0.0, 0.0, 0.0, 0.0, 0.0, 0.0, 0.0, 1.740776578931107E9, 0.0, 2025-02-28 15:02:58.931
126.0, -47353.04234660177, -31641.531782332873, 102126.05918956509, -51035.60400433588, -55283.061299688976, -52542.37980155704, -65336.987714408366, -54788.84187803768, 19707.13075484404, -37982.29700115883, -57298.13811756827, -48575.526306095875, -52981.256303937, -55272.75714549508, -36427.50965684768, -44495.23770752403, 0.0590048828125, 0.9732041015624999, 0.050160888671875, 192.0, 0.0, 0.0, 0.0, 0.0, 0.0, 0.0, 0.0, 0.0, 0.0, 1.740776578931345E9, 0.0, 2025-02-28 15:02:58.931
128.0, -47370.52141076582, -31655.099291217244, 102141.07956183905, -51057.82163832446, -55305.81537554448, -52566.34087161313, -65367.810770012235, -54814.6357911391, 19823.24806728936, -37999.15021647814, -57310.94566714116, -48591.93248652607, -52999.87530706827, -55291.06322420397, -36446.463936145774, -44515.33192578935, 0.0590048828125, 0.9732041015624999, 0.050160888671875, 192.0, 0.0, 0.0, 0.0, 0.0, 0.0, 0.0, 0.0, 0.0, 0.0, 1.740776578931586E9, 0.0, 2025-02-28 15:02:58.931
130.0, -47374.99175965688, -31664.531727377384, 102163.45365803882, -51058.49219065812, -55315.1584047268, -52569.671281536976, -65366.8272932562, -54815.216936494944, 19746.358066363104, -38014.01412654092, -57327.84358594938, -48606.48347216648, -53010.850013595824, -55300.69682606421, -36459.897334563415, -44529.68174572966, 0.05850244140625, 0.96860205078125, 0.0510804443359375, 192.0, 0.5, 104.0, 15.0, 16.0, 0.5, 80.0, 0.0, 0.0, 0.0, 1.740776578931845E9, 0.0, 2025-02-28 15:02:58.931
132.0, -47369.51558226533, -31660.284895930876, 102139.62669844946, -51050.467914398665, -55320.589878629435, -52568.330176869655, -65356.500787317855, -54812.288857971296, 19785.473619159893, -38008.42619042709, -57328.178862116205, -48608.80805358983, -53014.87332759778, -55306.79885230051, -36470.872041090974, -44540.27647260147, 0.05850244140625, 0.96860205078125, 0.0510804443359375, 192.0, 0.0, 0.0, 0.0, 0.0, 0.0, 0.0, 0.0, 0.0, 0.0, 1.740776578932108E9, 0.0, 2025-02-28 15:02:58.932
134.0, -47366.319282808225, -31664.64348609966, 102109.94358181281, -51046.64576609681, -55320.54517514053, -52569.58187455915, -65339.40170280954, -54808.10908175816, 19773.984822509865, -37997.138559477164, -57323.9320306697, -48603.28717270937, -53006.20085074912, -55304.094291221416, -36473.040160303135, -44542.466943558094, 0.05850244140625, 0.96860205078125, 0.0510804443359375, 192.0, 0.0, 0.0, 0.0, 0.0, 0.0, 0.0, 0.0, 0.0, 0.0, 1.740776578932372E9, 0.0, 2025-02-28 15:02:58.932
136.0, -47373.650654989564, -31675.59584088276, 102127.82497737707, -51051.652556854795, -55329.5082246671, -52583.23879042135, -65340.56399352122, -54822.3918464651, 19747.20743265241, -37985.38154189367, -57316.377141043806, -48602.7730825869, -52994.46618491008, -55304.876602277356, -36471.67670389136, -44550.53592330646, 0.05850244140625, 0.96860205078125, 0.0510804443359375, 192.0, 0.0, 0.0, 0.0, 0.0, 0.0, 0.0, 0.0, 0.0, 0.0, 1.740776578992675E9, 0.0, 2025-02-28 15:02:58.992
138.0, -47390.0344836753, -31692.292593990875, 102149.28265205416, -51056.63699586833, -55342.02520156207, -52597.72272082839, -65344.65436275654, -54830.527881446826, 19795.710718120423, -38008.91792880511, -57350.21768214914, -48630.265728266924, -53020.573022433884, -55330.178777000765, -36500.108122838516, -44584.53292662298, 0.05850244140625, 0.96860205078125, 0.0510804443359375, 192.0, 0.0, 0.0, 0.0, 0.0, 0.0, 0.0, 0.0, 0.0, 0.0, 1.740776578992981E9, 0.0, 2025-02-28 15:02:58.992
140.0, -47377.60691375815, -31673.762997837428, 102146.7122014418, -51034.53112060203, -55335.02910554756, -52586.300979411724, -65324.9177724025, -54816.78155860682, 19694.546722715702, -37991.64003034116, -57343.132179156804, -48620.65447815114, -53014.80627236441, -55321.12632049636, -36496.01775360319, -44581.71660682161, 0.058251220703125, 0.9813010253906249, 0.04954022216796875, 192.0, 0.5, 104.0, 15.5, 8.0, 0.5, 64.0, 0.0, 0.0, 0.0, 1.740776578993233E9, 0.0, 2025-02-28 15:02:58.993
142.0, -47368.129774109104, -31665.55990762233, 102126.90855585439, -51010.57005054594, -55326.37898044336, -52570.54299957073, -65301.42608897998, -54793.826317051215, 19814.15090729605, -37976.84317551174, -57330.16816737273, -48601.3202191973, -53005.48559492655, -55297.76874754057, -36484.014866830694, -44562.739975779055, 0.058251220703125, 0.9813010253906249, 0.04954022216796875, 192.0, 0.0, 0.0, 0.0, 0.0, 0.0, 0.0, 0.0, 0.0, 0.0, 1.740776578993478E9, 0.0, 2025-02-28 15:02:58.993
144.0, -47374.58942825669, -31669.739683835473, 102142.68888743984, -51018.34845761639, -55340.99702131713, -52578.8578485081, -65310.635007695564, -54803.348160189176, 19671.9938125603, -37977.156099934116, -57327.262440593535, -48603.220117476005, -53010.224164751075, -55300.808584786486, -36483.679590663865, -44559.43191759967, 0.058251220703125, 0.9813010253906249, 0.04954022216796875, 192.0, 0.0, 0.0, 0.0, 0.0, 0.0, 0.0, 0.0, 0.0, 0.0, 1.740776578993712E9, 0.0, 2025-02-28 15:02:58.993
146.0, -47374.835297445694, -31670.946678036056, 102163.92304467238, -51023.77993151903, -55339.85708234991, -52581.69652005393, -65308.28807452775, -54802.27527645532, 19847.767930956834, -37984.12984420417, -57332.582155773904, -48608.71864661201, -53020.66242941171, -55307.26823893407, -36494.07315183558, -44567.38913862576, 0.058251220703125, 0.9813010253906249, 0.04954022216796875, 192.0, 0.0, 0.0, 0.0, 0.0, 0.0, 0.0, 0.0, 0.0, 0.0, 1.740776578993946E9, 0.0, 2025-02-28 15:02:58.993
148.0, -47364.50879150734, -31655.903954017635, 102139.04555309363, -51022.796454762996, -55333.19626250223, -52578.72373804137, -65321.050920611735, -54805.292761956785, 19645.66345759195, -37980.084178457764, -57322.099187624364, -48599.35326568523, -53013.57692641937, -55304.317808665975, -36484.97599184227, -44563.94696997965, 0.058251220703125, 0.9813010253906249, 0.04954022216796875, 192.0, 0.0, 0.0, 0.0, 0.0, 0.0, 0.0, 0.0, 0.0, 0.0, 1.740776578994183E9, 0.0, 2025-02-28 15:02:58.994
150.0, -47363.301797306754, -31654.540497605863, 102107.50724166719, -51017.3426291159, -55323.47325366417, -52565.960891957395, -65304.93531285946, -54793.46868913993, 19872.6901260245, -37978.89953600163, -57320.847489934866, -48598.727416840484, -53013.28635374145, -55299.57923884145, -36486.74177965424, -44563.097603690345, 0.0621256103515625, 0.9886505126953125, 0.04877011108398438, 192.0, 1.0, 8.0, 15.5, 16.0, 0.5, 64.0, 0.0, 0.0, 0.0, 1.740776578994423E9, 0.0, 2025-02-28 15:02:58.994
152.0, -47362.6312449731, -31650.9195150041, 102125.88037560946, -51018.862547738856, -55326.893070565835, -52568.35252861411, -65314.1665833195, -54805.851555568166, 19646.736341325803, -37967.67896028506, -57311.7279781971, -48585.38342540067, -52999.316513456884, -55282.39074735532, -36468.03336954515, -44546.42320232668, 0.0621256103515625, 0.9886505126953125, 0.04877011108398438, 192.0, 0.0, 0.0, 0.0, 0.0, 0.0, 0.0, 0.0, 0.0, 0.0, 1.740776579051375E9, 0.0, 2025-02-28 15:02:59.051
154.0, -47367.86155317564, -31658.56381160782, 102176.28355935616, -51012.514652313555, -55331.653992134816, -52565.78207800175, -65324.31427530221, -54803.0352357668, 19893.901931512588, -37983.638105826154, -57323.44029229168, -48599.576783129785, -53012.36993221878, -55295.846497517414, -36486.58531744305, -44559.610731555316, 0.0621256103515625, 0.9886505126953125, 0.04877011108398438, 192.0, 0.0, 0.0, 0.0, 0.0, 0.0, 0.0, 0.0, 0.0, 0.0, 1.740776579051671E9, 0.0, 2025-02-28 15:02:59.051
156.0, -47366.69926246396, -31657.0215412404, 102157.91042541391, -51012.492300569094, -55334.917346825285, -52572.35349087161, -65334.30550507373, -54815.55221266177, 19636.16396619844, -37988.19786169504, -57324.44612079217, -48599.26385870742, -53012.258173496506, -55296.695863806715, -36484.28308776415, -44557.554371065424, 0.0621256103515625, 0.9886505126953125, 0.04877011108398438, 192.0, 0.0, 0.0, 0.0, 0.0, 0.0, 0.0, 0.0, 0.0, 0.0, 1.740776579051936E9, 0.0, 2025-02-28 15:02:59.051
158.0, -47358.80909667124, -31648.1702504361, 102127.80262563261, -51000.7352829856, -55326.22251823217, -52563.16692390048, -65316.17824032048, -54803.057587511255, 19899.825143793245, -37977.46902435649, -57310.81155667443, -48589.56320161381, -52999.22710647906, -55289.54330558101, -36479.611573172995, -44552.70404251862, 0.0621256103515625, 0.9886505126953125, 0.04877011108398438, 192.0, 0.0, 0.0, 0.0, 0.0, 0.0, 0.0, 0.0, 0.0, 0.0, 1.740776579052196E9, 0.0, 2025-02-28 15:02:59.052
160.0, -47377.96454166944, -31667.660971601126, 102143.42649500686, -51022.10355068488, -55345.24385276364, -52583.97639798837, -65339.46875804291, -54826.34810523369, 19645.08231223611, -37986.3650186497, -57320.33339981239, -48595.441710405554, -53004.144490259234, -55299.266314419074, -36482.87492786347, -44558.895475732745, 0.06606280517578125, 0.9933252563476562, 0.04738505554199219, 192.0, 1.0, 24.0, 15.5, 24.0, 0.5, 56.0, 0.0, 0.0, 0.0, 1.740776579052442E9, 0.0, 2025-02-28 15:02:59.052
162.0, -47375.95288466846, -31666.16340472262, 102165.75588771772, -51023.53406233002, -55342.22636726217, -52581.40594737601, -65345.41432206802, -54825.83401511121, 19892.694937312, -37996.937393777065, -57328.49178653858, -48607.198727989045, -53014.7615688755, -55314.778425071054, -36495.03427684716, -44572.12770845029, 0.06606280517578125, 0.9933252563476562, 0.04738505554199219, 192.0, 0.0, 0.0, 0.0, 0.0, 0.0, 0.0, 0.0, 0.0, 0.0, 1.740776579052686E9, 0.0, 2025-02-28 15:02:59.052
