%OpenBCI Raw EXG Data
%Number of channels = 16
%Sample Rate = 125 Hz
%Board = OpenBCI_GUI$BoardCytonSerialDaisy
Sample Index, EXG Channel 0, EXG Channel 1, EXG Channel 2, EXG Channel 3, EXG Channel 4, EXG Channel 5, EXG Channel 6, EXG Channel 7, EXG Channel 8, EXG Channel 9, EXG Channel 10, EXG Channel 11, EXG Channel 12, EXG Channel 13, EXG Channel 14, EXG Channel 15, Accel Channel 0, Accel Channel 1, Accel Channel 2, Not Used, Digital Channel 0 (D11), Digital Channel 1 (D12), Digital Channel 2 (D13), Digital Channel 3 (D17), Not Used, Digital Channel 4 (D18), Analog Channel 0, Analog Channel 1, Analog Channel 2, Timestamp, Marker Channel, Timestamp (Formatted)
250.0, 103427.66832443098, 9885.327206293012, -26529.97839808207, -20419.65966459032, -11457.593614768222, 7778.317663469036, -42670.15071751484, 3266.9533213321356, 13916.12904264081, 1325.7937223665385, -15272.790524100128, 22065.910347212597, -26513.54986590742, 1740.530340734761, 53756.1912842025, 23336.875240430265, -0.14, 0.9560000000000001, -0.194, 192.0, 125.5, 80.0, 14.5, 112.0, 124.5, 120.0, 0.0, 0.0, 0.0, 1.741714404591414E9, 0.0, 2025-03-11 12:33:24.591
250.0, 103429.72468492088, 9878.822848656519, -26538.78498539746, -20412.976492998183, -11451.156312365094, 7760.480971393701, -42696.88340388339, 3244.132190243267, 13916.12904264081, 1325.7937223665385, -15272.790524100128, 22065.910347212597, -26513.54986590742, 1740.530340734761, 53756.1912842025, 23336.875240430265, -0.14, 0.9560000000000001, -0.194, 192.0, 62.75, 40.0, 7.25, 56.0, 62.25, 60.0, 0.0, 0.0, 0.0, 1.74171440459157E9, 0.0, 2025-03-11 12:33:24.591
242.0, 103446.98023164038, 9881.19213356878, -26524.81514511289, -20428.600362372443, -11443.780236694842, 7756.323546925015, -42697.59865970596, 3237.516073884496, 13928.355446857864, 1340.0541353290243, -15265.727372852252, 22082.048306709326, -26505.592644881326, 1745.9394628929454, 53775.14556350059, 23344.653647500712, -0.14, 0.9560000000000001, -0.194, 192.0, 0.0, 0.0, 0.0, 0.0, 0.0, 0.0, 0.0, 0.0, 0.0, 1.741714404591704E9, 0.0, 2025-03-11 12:33:24.591
244.0, 103436.02787685728, 9893.574999997021, -26524.122241034776, -20397.4643823462, -11479.6100830567, 7777.49064892419, -42667.37910120239, 3265.209885264622, 13918.654789764261, 1325.2349287551558, -15273.25991073369, 22065.351553601213, -26512.946368807123, 1727.3428115061297, 53796.73734864442, 23340.071539887376, -0.14, 0.9560000000000001, -0.194, 192.0, 0.0, 0.0, 0.0, 0.0, 0.0, 0.0, 0.0, 0.0, 0.0, 1.741714404591826E9, 0.0, 2025-03-11 12:33:24.591
10.0, 103436.07258034618, 9874.263092787634, -26525.48569744655, -20406.583894083964, -11442.282669816335, 7778.719994869232, -42681.32658974249, 3255.3751177042864, 13907.61302800334, 1324.8102456105048, -15281.641814904431, 22067.899652469117, -26532.77236613898, 1734.4506662429174, 53765.13198198462, 23330.348531049316, -0.14, 0.9560000000000001, -0.194, 192.0, 0.0, 0.0, 0.0, 0.0, 0.0, 0.0, 0.0, 0.0, 0.0, 1.741714404591948E9, 0.0, 2025-03-11 12:33:24.591
10.0, 103425.54490870773, 9866.66349967283, -26532.750014394525, -20417.491545378154, -11486.449716860023, 7767.164142985838, -42686.579249689494, 3247.5743588893843, 13907.61302800334, 1324.8102456105048, -15281.641814904431, 22067.899652469117, -26532.77236613898, 1734.4506662429174, 53765.13198198462, 23330.348531049316, -0.14, 0.9560000000000001, -0.194, 192.0, 0.0, 0.0, 0.0, 0.0, 0.0, 0.0, 0.0, 0.0, 0.0, 1.741714404592073E9, 0.0, 2025-03-11 12:33:24.592
10.0, 103444.63329847256, 9880.298063790568, -26533.62173242828, -20413.267065676104, -11455.26903334487, 7767.432363919302, -42694.31295327103, 3245.0486117659348, 13907.61302800334, 1324.8102456105048, -15281.641814904431, 22067.899652469117, -26532.77236613898, 1734.4506662429174, 53765.13198198462, 23330.348531049316, -0.14, 0.9560000000000001, -0.194, 192.0, 0.0, 0.0, 0.0, 0.0, 0.0, 0.0, 0.0, 0.0, 0.0, 1.741714404592187E9, 0.0, 2025-03-11 12:33:24.592
10.0, 103435.29026929024, 9863.981290338194, -26536.885087118757, -20425.582876870976, -11461.549873536811, 7764.325471440015, -42688.121520056906, 3244.6015768768284, 13907.61302800334, 1324.8102456105048, -15281.641814904431, 22067.899652469117, -26532.77236613898, 1734.4506662429174, 53765.13198198462, 23330.348531049316, -0.14, 0.9560000000000001, -0.194, 192.0, 0.0, 0.0, 0.0, 0.0, 0.0, 0.0, 0.0, 0.0, 0.0, 1.741714404592307E9, 0.0, 2025-03-11 12:33:24.592
58.0, 103448.3660397966, 9880.543932979577, -26518.06491828739, -20406.963873739707, -11467.808361984296, 7787.705396140265, -42668.45198493624, 3270.037862066968, 13892.36913828482, 1313.5896698939407, -15287.83324811855, 22074.024030449873, -26546.094005834344, 1728.7733231512696, 53835.74114271893, 23338.819842197878, -0.14, 0.9560000000000001, -0.194, 192.0, 0.0, 0.0, 0.0, 0.0, 0.0, 0.0, 0.0, 0.0, 0.0, 1.741714404592421E9, 0.0, 2025-03-11 12:33:24.592
58.0, 103436.05022860173, 9887.070642360526, -26520.34479622183, -20406.60624582842, -11475.251492887914, 7777.513000668646, -42676.811537362526, 3256.69387062715, 13892.36913828482, 1313.5896698939407, -15287.83324811855, 22074.024030449873, -26546.094005834344, 1728.7733231512696, 53835.74114271893, 23338.819842197878, -0.14, 0.9560000000000001, -0.194, 192.0, 0.0, 0.0, 0.0, 0.0, 0.0, 0.0, 0.0, 0.0, 0.0, 1.741714404592536E9, 0.0, 2025-03-11 12:33:24.592
56.0, 103442.6663449605, 9876.252398044158, -26527.743223636535, -20413.870562776396, -11464.276786360359, 7777.602407646466, -42675.26926699511, 3256.939739816158, 13926.209679390155, 1354.292196547055, -15255.043239002614, 22111.57496113479, -26509.593607138828, 1763.820858457191, 53755.63249059111, 23370.849892002334, -0.14, 0.9560000000000001, -0.194, 192.0, 0.0, 0.0, 0.0, 0.0, 0.0, 0.0, 0.0, 0.0, 0.0, 1.741714404592655E9, 0.0, 2025-03-11 12:33:24.592
56.0, 103436.72078093539, 9857.588691423976, -26530.671302160183, -20406.583894083964, -11428.6481056986, 7771.9027128103635, -42684.67935141079, 3246.9261583001803, 13926.209679390155, 1354.292196547055, -15255.043239002614, 22111.57496113479, -26509.593607138828, 1763.820858457191, 53755.63249059111, 23370.849892002334, -0.14, 0.9560000000000001, -0.194, 192.0, 0.0, 0.0, 0.0, 0.0, 0.0, 0.0, 0.0, 0.0, 0.0, 1.741714404592767E9, 0.0, 2025-03-11 12:33:24.592
56.0, 103434.75382742332, 9850.883168087385, -26533.040587072443, -20405.51101035011, -11493.356405896713, 7770.293387209581, -42692.2789445256, 3243.2381204650546, 13926.209679390155, 1354.292196547055, -15255.043239002614, 22111.57496113479, -26509.593607138828, 1763.820858457191, 53755.63249059111, 23370.849892002334, -0.14, 0.9560000000000001, -0.194, 192.0, 0.0, 0.0, 0.0, 0.0, 0.0, 0.0, 0.0, 0.0, 0.0, 1.741714404592888E9, 0.0, 2025-03-11 12:33:24.592
106.0, 103443.33689729415, 9860.293252503068, -26520.568313666383, -20395.31861487849, -11448.116475119172, 7778.697643124777, -42688.769720646116, 3250.3906786907532, 13911.725748983115, 1329.1688357792898, -15259.267718704668, 22100.80142030733, -26532.72766265007, 1745.045393114733, 53801.20769753548, 23357.8635284738, -0.14, 0.9560000000000001, -0.194, 192.0, 0.0, 0.0, 0.0, 0.0, 0.0, 0.0, 0.0, 0.0, 0.0, 1.741714404593006E9, 0.0, 2025-03-11 12:33:24.593
108.0, 103436.09493209064, 9841.383676693878, -26538.360302252808, -20411.501277864132, -11501.470089133989, 7758.20109345926, -42704.617107464925, 3235.7055825836164, 13890.960978384135, 1311.2203849816783, -15280.792448615128, 22082.22712066497, -26552.486604748563, 1732.528416219761, 53864.306672132814, 23342.351417821817, -0.14, 0.9560000000000001, -0.194, 192.0, 0.0, 0.0, 0.0, 0.0, 0.0, 0.0, 0.0, 0.0, 0.0, 1.741714404593121E9, 0.0, 2025-03-11 12:33:24.593
110.0, 103428.9647256094, 9855.018240811616, -26526.91620909169, -20399.163114924802, -11460.924024692062, 7768.371137186425, -42691.72015091421, 3248.870760067792, 13898.091184865378, 1326.6877921447508, -15269.750686854208, 22095.235835937958, -26540.617828442795, 1741.3573552796074, 53796.17855503304, 23361.14923490873, -0.14, 0.9560000000000001, -0.194, 192.0, 0.0, 0.0, 0.0, 0.0, 0.0, 0.0, 0.0, 0.0, 0.0, 1.741714404593244E9, 0.0, 2025-03-11 12:33:24.593
112.0, 103431.62458319958, 9832.46533065621, -26538.650874930725, -20415.703405821732, -11493.736385552453, 7753.306061423548, -42702.47133999722, 3236.1079139838116, 13887.809382415937, 1318.1270740183681, -15284.50283819471, 22081.690678798044, -26554.520613493994, 1738.2281110558642, 53856.617672040185, 23348.94518243613, -0.14, 0.9560000000000001, -0.194, 192.0, 0.0, 0.0, 0.0, 0.0, 0.0, 0.0, 0.0, 0.0, 0.0, 1.741714404593369E9, 0.0, 2025-03-11 12:33:24.593
112.0, 103436.07258034618, 9886.3330347935, -26527.206781769608, -20416.262199433113, -11456.140751378627, 7774.160239000349, -42681.81832812051, 3275.1117080583226, 13887.809382415937, 1318.1270740183681, -15284.50283819471, 22081.690678798044, -26554.520613493994, 1738.2281110558642, 53856.617672040185, 23348.94518243613, -0.14, 0.9560000000000001, -0.194, 192.0, 0.0, 0.0, 0.0, 0.0, 0.0, 0.0, 0.0, 0.0, 0.0, 1.74171440459348E9, 0.0, 2025-03-11 12:33:24.593
112.0, 103442.59928972714, 9844.669383128808, -26521.0600520444, -20403.432298115767, -11469.93177770755, 7770.181628487305, -42690.80372939155, 3252.2458734805437, 13887.809382415937, 1318.1270740183681, -15284.50283819471, 22081.690678798044, -26554.520613493994, 1738.2281110558642, 53856.617672040185, 23348.94518243613, -0.14, 0.9560000000000001, -0.194, 192.0, 0.0, 0.0, 0.0, 0.0, 0.0, 0.0, 0.0, 0.0, 0.0, 1.74171440459359E9, 0.0, 2025-03-11 12:33:24.593
112.0, 103447.13669385156, 9901.53222102311, -26517.975511309567, -20403.812277771507, -11488.483725605456, 7785.179649016816, -42666.373272701894, 3287.382815764286, 13887.809382415937, 1318.1270740183681, -15284.50283819471, 22081.690678798044, -26554.520613493994, 1738.2281110558642, 53856.617672040185, 23348.94518243613, -0.14, 0.9560000000000001, -0.194, 192.0, 0.0, 0.0, 0.0, 0.0, 0.0, 0.0, 0.0, 0.0, 0.0, 1.741714404593698E9, 0.0, 2025-03-11 12:33:24.593
112.0, 103428.47298723138, 9884.947226637272, -26525.463345702094, -20412.015367986605, -11423.909535874074, 7771.209808732249, -42674.1740315168, 3271.6695394122053, 13887.809382415937, 1318.1270740183681, -15284.50283819471, 22081.690678798044, -26554.520613493994, 1738.2281110558642, 53856.617672040185, 23348.94518243613, -0.14, 0.9560000000000001, -0.194, 192.0, 0.0, 0.0, 0.0, 0.0, 0.0, 0.0, 0.0, 0.0, 0.0, 1.741714404593808E9, 0.0, 2025-03-11 12:33:24.593
192.0, 103436.09493209064, 9872.162028808836, -26531.520668449484, -20422.5206878806, -11497.022091987383, 7761.777372572109, -42685.99810433365, 3262.527675929985, 13907.076586136413, 1335.2038067822227, -15278.669032891874, 22073.7111060275, -26527.29618874743, 1731.2096632968978, 53852.929634205066, 23366.44659834464, -0.14, 0.9560000000000001, -0.194, 192.0, 0.0, 0.0, 0.0, 0.0, 0.0, 0.0, 0.0, 0.0, 0.0, 1.741714404593923E9, 0.0, 2025-03-11 12:33:24.593
194.0, 103444.14156009455, 9879.873380645917, -26530.067805059887, -20412.28358892007, -11447.334164063235, 7761.956186527752, -42684.29937175505, 3260.1583910177224, 13912.84333620588, 1336.3660974938987, -15277.037355546638, 22083.344707887736, -26522.311749733897, 1737.1999308109203, 53807.53324121633, 23362.49033957605, -0.14, 0.9560000000000001, -0.18, 192.0, 125.5, 80.0, 14.5, 112.0, 125.0, 48.0, 0.0, 0.0, 0.0, 1.741714404594033E9, 0.0, 2025-03-11 12:33:24.594
196.0, 103437.30192629123, 9879.225180056714, -26532.839421372348, -20407.56737084, -11496.150373953626, 7767.722936597221, -42676.47626119569, 3265.500457942541, 13911.725748983115, 1331.5604724360076, -15281.328890482057, 22077.153274673616, -26528.257313759008, 1734.8082941542023, 53862.47382908748, 23354.7119325056, -0.14, 0.9560000000000001, -0.18, 192.0, 0.0, 0.0, 0.0, 0.0, 0.0, 0.0, 0.0, 0.0, 0.0, 1.74171440459416E9, 0.0, 2025-03-11 12:33:24.594
198.0, 103427.93654536446, 9884.187267325791, -26531.87829636077, -20406.405080128323, -11435.130111590637, 7768.482895908702, -42674.79988036155, 3266.7298038875824, 13923.952153200169, 1339.674155673284, -15272.075268277558, 22090.027879479872, -26517.48377293155, 1747.1464570935318, 53791.84231660871, 23365.418418099693, -0.14, 0.9560000000000001, -0.18, 192.0, 0.0, 0.0, 0.0, 0.0, 0.0, 0.0, 0.0, 0.0, 0.0, 1.741714404594274E9, 0.0, 2025-03-11 12:33:24.594
200.0, 103434.30679253422, 9872.85493288695, -26537.086252818855, -20416.508068622123, -11478.492495833934, 7767.29825345257, -42679.58315367498, 3262.9523590746358, 13913.84916470637, 1333.4156672257982, -15279.630157903453, 22080.349574130723, -26526.089194546843, 1740.2844715457527, 53853.04139292734, 23360.90336571972, -0.14, 0.9560000000000001, -0.18, 192.0, 0.0, 0.0, 0.0, 0.0, 0.0, 0.0, 0.0, 0.0, 0.0, 1.741714404594389E9, 0.0, 2025-03-11 12:33:24.594
202.0, 103443.78393218326, 9863.824828127006, -26534.3146365064, -20414.474059876688, -11475.631472543655, 7764.169009228827, -42673.1234995274, 3264.561684675418, 13914.095033895379, 1326.3078124890105, -15277.059707291093, 22074.113437427695, -26526.983264325056, 1736.305861032708, 53802.571153947254, 23364.859624488312, -0.14, 0.9560000000000001, -0.18, 192.0, 0.0, 0.0, 0.0, 0.0, 0.0, 0.0, 0.0, 0.0, 0.0, 1.741714404594514E9, 0.0, 2025-03-11 12:33:24.594
4.0, 103434.15033032303, 9876.230046299703, -26520.992996811034, -20397.4643823462, -11450.396353053613, 7775.0096052896515, -42662.99815928914, 3272.1612777902224, 13911.032844905001, 1338.64597542834, -15273.014041544682, 22080.438981108546, -26526.67033990268, 1730.784980152247, 53804.62751443715, 23368.43590360116, -0.14, 0.9560000000000001, -0.18, 192.0, 0.0, 0.0, 0.0, 0.0, 0.0, 0.0, 0.0, 0.0, 0.0, 1.741714404594632E9, 0.0, 2025-03-11 12:33:24.594
6.0, 103426.26016453031, 9874.419554998822, -26528.994921326033, -20399.94542598074, -11465.21555962748, 7769.175799986816, -42673.7717001166, 3267.199190521144, 13905.154336113255, 1334.779123637572, -15281.68651839334, 22078.203806663016, -26538.40500574172, 1736.015288354789, 53853.44372432753, 23361.886842475757, -0.14200000000000002, 0.958, -0.182, 192.0, 125.5, 64.0, 15.0, 0.0, 125.0, 32.0, 0.0, 0.0, 0.0, 1.741714404594744E9, 0.0, 2025-03-11 12:33:24.594
8.0, 103434.64206870104, 9878.19699981177, -26524.882200346256, -20391.630577043365, -11452.69858273251, 7774.875494822919, -42669.23429599217, 3272.8541818683366, 13918.207754875155, 1365.2445513301554, -15265.012117029682, 22099.147391217637, -26532.571200438884, 1749.180465838965, 53804.94043885952, 23379.38825838426, -0.14200000000000002, 0.958, -0.182, 192.0, 0.0, 0.0, 0.0, 0.0, 0.0, 0.0, 0.0, 0.0, 0.0, 1.741714404594862E9, 0.0, 2025-03-11 12:33:24.594
10.0, 103443.9627461389, 9853.811246611029, -26545.088177333855, -20414.18348719877, -11477.598426055722, 7752.411991645336, -42692.234241036684, 3251.3965071912417, 13882.310853279932, 1334.8238271264825, -15296.349262756023, 22070.51480657039, -26565.562375254915, 1732.7966371532248, 53868.0617652013, 23348.76636848049, -0.14200000000000002, 0.958, -0.182, 192.0, 0.0, 0.0, 0.0, 0.0, 0.0, 0.0, 0.0, 0.0, 0.0, 1.741714404594971E9, 0.0, 2025-03-11 12:33:24.594
12.0, 103434.73147567887, 9884.38843302589, -26517.036738042443, -20388.926015964273, -11471.138771908138, 7782.609198404455, -42662.52877265558, 3277.391585992764, 13897.532391253995, 1358.3378622934656, -15278.512570680687, 22083.85879801021, -26550.631409958773, 1742.0279076132665, 53840.256195098904, 23365.463121588604, -0.14200000000000002, 0.958, -0.182, 192.0, 0.0, 0.0, 0.0, 0.0, 0.0, 0.0, 0.0, 0.0, 0.0, 1.741714404595081E9, 0.0, 2025-03-11 12:33:24.595
14.0, 103425.43314998546, 9894.849049430974, -26511.29233971743, -20381.393478082835, -11443.31085006128, 7793.695663654288, -42652.67165335079, 3288.388644264775, 13910.205830360155, 1373.3358828229766, -15268.655451375897, 22093.782972548364, -26535.856906873814, 1764.11143113511, 53859.076363930275, 23375.364944382305, -0.14200000000000002, 0.958, -0.182, 192.0, 0.0, 0.0, 0.0, 0.0, 0.0, 0.0, 0.0, 0.0, 0.0, 1.741714404595199E9, 0.0, 2025-03-11 12:33:24.595
16.0, 103432.94333612244, 9878.71108993424, -26532.88412486126, -20402.784097526564, -11480.347690623725, 7768.996986031174, -42677.079758295986, 3260.35955671782, 13906.60719950285, 1365.1327926078789, -15274.243387489723, 22093.13477195916, -26538.24854353053, 1755.4166025419954, 53828.029790881854, 23372.19099666965, -0.14400000000000002, 0.9570000000000001, -0.186, 192.0, 125.5, 56.0, 14.5, 112.0, 125.0, 8.0, 0.0, 0.0, 0.0, 1.741714404595312E9, 0.0, 2025-03-11 12:33:24.595
18.0, 103443.3145455497, 9875.403031754855, -26539.8131656424, -20404.795754527542, -11457.437152557035, 7766.605349374456, -42681.43834846477, 3255.6656903822054, 13893.374966785308, 1355.1192110919012, -15287.945006840828, 22082.964728231997, -26556.48756700606, 1747.9958233828336, 53860.14924766413, 23353.19201388264, -0.14400000000000002, 0.9570000000000001, -0.186, 192.0, 0.0, 0.0, 0.0, 0.0, 0.0, 0.0, 0.0, 0.0, 0.0, 1.741714404595436E9, 0.0, 2025-03-11 12:33:24.595
20.0, 103434.17268206748, 9888.568209239033, -26529.844287615335, -20392.010556699104, -11492.104708207216, 7782.58684666, -42666.529734913085, 3268.5626469329177, 13902.159202356244, 1366.3397868084655, -15278.199646258314, 22091.883074269663, -26550.16202332521, 1750.365108295096, 53851.43206732656, 23365.351362866328, -0.14400000000000002, 0.9570000000000001, -0.186, 192.0, 0.0, 0.0, 0.0, 0.0, 0.0, 0.0, 0.0, 0.0, 0.0, 1.741714404595551E9, 0.0, 2025-03-11 12:33:24.595
82.0, 103424.33791450715, 9873.681947431796, -26542.62948544377, -20404.12520219388, -11458.822960713263, 7771.142753498883, -42680.9242583423, 3257.7667543610046, 13892.615007473829, 1352.3252430349878, -15285.128687039458, 22096.33107141627, -26566.1211688663, 1740.5973959681269, 53881.293997918845, 23344.09485388933, -0.14400000000000002, 0.9570000000000001, -0.186, 192.0, 0.0, 0.0, 0.0, 0.0, 0.0, 0.0, 0.0, 0.0, 0.0, 1.741714404595665E9, 0.0, 2025-03-11 12:33:24.595
24.0, 103433.30096403373, 9876.162991066336, -26540.371959253785, -20401.152420181326, -11503.101766479227, 7770.002814531662, -42683.94174384377, 3252.8940740697476, 13890.782164428492, 1353.3087197910213, -15292.705928409807, 22076.639184551143, -26561.248488575042, 1736.5517302217163, 53858.584625552256, 23348.229926613563, -0.14400000000000002, 0.9570000000000001, -0.186, 192.0, 0.0, 0.0, 0.0, 0.0, 0.0, 0.0, 0.0, 0.0, 0.0, 1.741714404595784E9, 0.0, 2025-03-11 12:33:24.595
80.0, 103432.02691459977, 9896.570133754032, -26550.385540769763, -20396.480905590168, -11456.587786267733, 7788.666521151844, -42673.59288616096, 3292.5684204779177, 13900.929856411203, 1363.478763518186, -15277.417335202377, 22105.18236222057, -26553.20186057113, 1758.1882188544535, 53826.44281702553, 23357.930583707166, -0.14400000000000002, 0.9570000000000001, -0.186, 192.0, 0.0, 0.0, 0.0, 0.0, 0.0, 0.0, 0.0, 0.0, 0.0, 1.741714404595902E9, 0.0, 2025-03-11 12:33:24.595
186.0, 103441.54875773774, 9898.000645399172, -26547.546869223937, -20396.88323699036, -11501.93947576755, 7794.477974710224, -42667.26734248011, 3299.5868682368837, 13910.1834786157, 1367.390318797865, -15285.68748065084, 22090.13963820215, -26548.575049468884, 1754.9919193973446, 53941.24137654798, 23384.596214842346, -0.138, 0.9565000000000001, -0.191, 192.0, 125.5, 112.0, 14.5, 112.0, 124.5, 112.0, 0.0, 0.0, 0.0, 1.741714404596015E9, 0.0, 2025-03-11 12:33:24.596
186.0, 103432.07161808868, 9906.04727340308, -26521.328272977862, -20398.17963816877, -11498.005568743416, 7785.4031664613685, -42672.85527859393, 3290.579115221395, 13910.1834786157, 1367.390318797865, -15285.68748065084, 22090.13963820215, -26548.575049468884, 1754.9919193973446, 53941.24137654798, 23384.596214842346, -0.138, 0.9565000000000001, -0.191, 192.0, 62.75, 56.0, 7.25, 56.0, 62.25, 56.0, 0.0, 0.0, 0.0, 1.741714404596135E9, 0.0, 2025-03-11 12:33:24.596
234.0, 103443.33689729415, 9892.971502896728, -26532.77236613898, -20406.963873739707, -11455.380792067146, 7773.757907600154, -42686.60160143395, 3277.235123781577, 13928.623667791328, 1375.4592985462307, -15270.175369998859, 22099.639129595653, -26546.362226767807, 1747.9287681494677, 53895.777928325886, 23371.52044433599, -0.138, 0.9565000000000001, -0.191, 192.0, 0.0, 0.0, 0.0, 0.0, 0.0, 0.0, 0.0, 0.0, 0.0, 1.741714404596254E9, 0.0, 2025-03-11 12:33:24.596
240.0, 103444.83446417266, 9906.918991436838, -26528.123203292278, -20386.959062452206, -11503.794670557341, 7804.871535881942, -42662.48406916667, 3291.607295466339, 13929.338923613897, 1380.577848026496, -15265.615614129974, 22101.784897063364, -26540.908401120712, 1745.783000681758, 53952.461952264544, 23375.834331015867, -0.138, 0.9565000000000001, -0.191, 192.0, 0.0, 0.0, 0.0, 0.0, 0.0, 0.0, 0.0, 0.0, 0.0, 1.74171440459637E9, 0.0, 2025-03-11 12:33:24.596
16.0, 103445.52736825078, 9888.232933072202, -26540.751938909525, -20403.789926027053, -11466.087277661238, 7779.211733247249, -42685.953400844744, 3275.625798180795, 13899.834620932892, 1368.6643682318174, -15272.276433977657, 22108.84804831124, -26566.16587235521, 1739.5021604898168, 53921.23656526048, 23363.876147732277, -0.138, 0.9565000000000001, -0.191, 192.0, 0.0, 0.0, 0.0, 0.0, 0.0, 0.0, 0.0, 0.0, 0.0, 1.741714404596487E9, 0.0, 2025-03-11 12:33:24.596
14.0, 103431.40106575502, 9886.824773171518, -26552.30779079292, -20415.144612210348, -11503.727615323975, 7776.663634379343, -42682.28771475407, 3274.1282313022894, 13916.218449618633, 1381.5836765269848, -15256.898433792405, 22120.359196705725, -26551.1678518257, 1743.3466605361295, 53932.09951306576, 23383.366868897305, -0.138, 0.9565000000000001, -0.191, 192.0, 0.0, 0.0, 0.0, 0.0, 0.0, 0.0, 0.0, 0.0, 0.0, 1.741714404596596E9, 0.0, 2025-03-11 12:33:24.596
248.0, 103426.64014418605, 9899.34175006649, -26529.77723238197, -20386.55673105201, -11435.73360869093, 7806.302047527081, -42659.0195487761, 3296.0552926129453, 13918.095996152879, 1370.5866182549737, -15276.053878790604, 22104.04242325335, -26557.024008872988, 1743.9278058919676, 53960.59798724628, 23371.565147824902, -0.139, 0.9572500000000002, -0.1875, 192.0, 125.5, 80.0, 14.5, 120.0, 125.0, 32.0, 0.0, 0.0, 0.0, 1.741714404596712E9, 0.0, 2025-03-11 12:33:24.596
248.0, 103422.34860925062, 9883.963749881239, -26543.031816843966, -20387.003765941117, -11473.84333298723, 7786.319587984037, -42665.99329304616, 3276.8551441258364, 13918.095996152879, 1370.5866182549737, -15276.053878790604, 22104.04242325335, -26557.024008872988, 1743.9278058919676, 53960.59798724628, 23371.565147824902, -0.139, 0.9572500000000002, -0.1875, 192.0, 62.75, 40.0, 7.25, 60.0, 62.5, 16.0, 0.0, 0.0, 0.0, 1.741714404596833E9, 0.0, 2025-03-11 12:33:24.596
248.0, 103434.32914427867, 9900.615799500441, -26517.036738042443, -20370.061143643994, -11482.26994064688, 7821.411826778869, -42651.24114170565, 3305.6665427287276, 13918.095996152879, 1370.5866182549737, -15276.053878790604, 22104.04242325335, -26557.024008872988, 1743.9278058919676, 53960.59798724628, 23371.565147824902, -0.139, 0.9572500000000002, -0.1875, 192.0, 31.375, 20.0, 3.625, 30.0, 31.25, 8.0, 0.0, 0.0, 0.0, 1.741714404596953E9, 0.0, 2025-03-11 12:33:24.596
34.0, 103443.04632461624, 9894.558476753054, -26514.73450836355, -20369.36823956588, -11438.21465232547, 7819.646038966899, -42655.64443536335, 3302.5149467605293, 13895.028995875002, 1368.6196647429067, -15280.278358492656, 22118.682815871576, -26575.508901537527, 1741.9608523799006, 53985.20725789157, 23357.37179009578, -0.139, 0.9572500000000002, -0.1875, 192.0, 0.0, 0.0, 0.0, 0.0, 0.0, 0.0, 0.0, 0.0, 0.0, 1.741714404597078E9, 0.0, 2025-03-11 12:33:24.597
34.0, 103443.7168769499, 9955.757553071684, -26540.8636976318, -20383.65100427282, -11495.390414642146, 7809.2301260507265, -42650.90586553882, 3323.8832144598027, 13895.028995875002, 1368.6196647429067, -15280.278358492656, 22118.682815871576, -26575.508901537527, 1741.9608523799006, 53985.20725789157, 23357.37179009578, -0.139, 0.9572500000000002, -0.1875, 192.0, 0.0, 0.0, 0.0, 0.0, 0.0, 0.0, 0.0, 0.0, 0.0, 1.741714404597197E9, 0.0, 2025-03-11 12:33:24.597
34.0, 103424.87435637407, 9898.067700632537, -26533.129994050265, -20378.688917003743, -11459.091181646727, 7785.738442628199, -42682.51123219862, 3273.8153068799147, 13895.028995875002, 1368.6196647429067, -15280.278358492656, 22118.682815871576, -26575.508901537527, 1741.9608523799006, 53985.20725789157, 23357.37179009578, -0.139, 0.9572500000000002, -0.1875, 192.0, 0.0, 0.0, 0.0, 0.0, 0.0, 0.0, 0.0, 0.0, 0.0, 1.741714404597311E9, 0.0, 2025-03-11 12:33:24.597
34.0, 103430.97638261037, 9935.819797017552, -26557.024008872988, -20390.736507265152, -11458.420629313068, 7792.198096775783, -42673.659941394326, 3305.219507839621, 13895.028995875002, 1368.6196647429067, -15280.278358492656, 22118.682815871576, -26575.508901537527, 1741.9608523799006, 53985.20725789157, 23357.37179009578, -0.139, 0.9572500000000002, -0.1875, 192.0, 0.0, 0.0, 0.0, 0.0, 0.0, 0.0, 0.0, 0.0, 0.0, 1.741714404597423E9, 0.0, 2025-03-11 12:33:24.597
34.0, 103433.63624020056, 9913.19983162878, -26522.892895089735, -20368.74239072113, -11474.98327195445, 7798.9036201123745, -42659.958322043225, 3286.1534698192445, 13895.028995875002, 1368.6196647429067, -15280.278358492656, 22118.682815871576, -26575.508901537527, 1741.9608523799006, 53985.20725789157, 23357.37179009578, -0.139, 0.9572500000000002, -0.1875, 192.0, 0.0, 0.0, 0.0, 0.0, 0.0, 0.0, 0.0, 0.0, 0.0, 1.741714404597533E9, 0.0, 2025-03-11 12:33:24.597
26.0, 103427.04247558623, 9966.218169476768, -26533.666435917192, -20360.472245272667, -11493.602275085721, 7815.30980054257, -42649.34124342695, 3325.090208660389, 13906.338978569387, 1371.3018740775435, -15275.02569854566, 22117.207600737525, -26563.08133162038, 1740.7315064348588, 53952.39489703118, 23350.263935358995, -0.139, 0.9572500000000002, -0.1875, 192.0, 0.0, 0.0, 0.0, 0.0, 0.0, 0.0, 0.0, 0.0, 0.0, 1.741714404597645E9, 0.0, 2025-03-11 12:33:24.597
26.0, 103438.33010653617, 9936.423294117843, -26548.30682853542, -20386.60143454092, -11494.98808324195, 7798.300123012081, -42661.411185432815, 3311.388589309286, 13906.338978569387, 1371.3018740775435, -15275.02569854566, 22117.207600737525, -26563.08133162038, 1740.7315064348588, 53952.39489703118, 23350.263935358995, -0.139, 0.9572500000000002, -0.1875, 192.0, 0.0, 0.0, 0.0, 0.0, 0.0, 0.0, 0.0, 0.0, 0.0, 1.74171440459776E9, 0.0, 2025-03-11 12:33:24.597
48.0, 103442.10755134912, 9902.269828590135, -26531.20774402711, -20376.856073958406, -11460.70050724751, 7779.6364163919, -42695.63170619389, 3264.852257353337, 13900.102841866355, 1371.5030397776413, -15277.551445669109, 22110.99381577895, -26561.02497113049, 1750.5215705062833, 53936.77102765692, 23365.261955888505, -0.139, 0.9572500000000002, -0.1875, 192.0, 0.0, 0.0, 0.0, 0.0, 0.0, 0.0, 0.0, 0.0, 0.0, 1.74171440459787E9, 0.0, 2025-03-11 12:33:24.597
48.0, 103444.00744962782, 9922.699323022285, -26557.426340273185, -20391.80939099901, -11454.352611822202, 7787.548933929078, -42675.537487928574, 3297.441100769174, 13900.102841866355, 1371.5030397776413, -15277.551445669109, 22110.99381577895, -26561.02497113049, 1750.5215705062833, 53936.77102765692, 23365.261955888505, -0.139, 0.9572500000000002, -0.1875, 192.0, 0.0, 0.0, 0.0, 0.0, 0.0, 0.0, 0.0, 0.0, 0.0, 1.741714404597984E9, 0.0, 2025-03-11 12:33:24.597
4.0, 103436.87724314658, 9875.894770132873, -26535.141651051243, -20376.632556513854, -11486.69558604903, 7777.401241946369, -42673.83875534997, 3299.810385681437, 13908.261228592542, 1360.7294989501834, -15272.276433977657, 22099.348556917736, -26554.855889660823, 1725.241747527331, 54014.37628440575, 23363.205595398616, -0.134, 0.9580000000000001, -0.178, 192.0, 125.5, 104.0, 14.5, 120.0, 125.0, 56.0, 0.0, 0.0, 0.0, 1.741714404598094E9, 0.0, 2025-03-11 12:33:24.598
6.0, 103424.18145229596, 9884.544895237077, -26533.129994050265, -20360.36048655039, -11435.688905202021, 7786.453698450769, -42668.65315063634, 3306.4712055291184, 13916.263153107544, 1380.3319788374877, -15266.912015308382, 22114.65950186962, -26551.614886714804, 1747.9958233828336, 53987.26361838146, 23376.996621727543, -0.134, 0.9580000000000001, -0.178, 192.0, 0.0, 0.0, 0.0, 0.0, 0.0, 0.0, 0.0, 0.0, 0.0, 1.741714404598221E9, 0.0, 2025-03-11 12:33:24.598
8.0, 103434.28444078976, 9880.588636468487, -26562.857814175823, -20399.453687602723, -11454.93375717804, 7782.385680959903, -42666.68619712427, 3319.278755102009, 13921.694627010183, 1386.7469294961609, -15261.458189661289, 22122.214391495516, -26551.816052414903, 1753.20377984092, 54020.634772853235, 23391.502903879038, -0.134, 0.9580000000000001, -0.178, 192.0, 0.0, 0.0, 0.0, 0.0, 0.0, 0.0, 0.0, 0.0, 0.0, 1.741714404598336E9, 0.0, 2025-03-11 12:33:24.598
8.0, 103439.5147489923, 9871.156200308347, -26572.73728522507, -20408.550847596034, -11508.935571782062, 7780.932817570308, -42675.0233978061, 3315.5460137779733, 13921.694627010183, 1386.7469294961609, -15261.458189661289, 22122.214391495516, -26551.816052414903, 1753.20377984092, 54020.634772853235, 23391.502903879038, -0.134, 0.9580000000000001, -0.178, 192.0, 0.0, 0.0, 0.0, 0.0, 0.0, 0.0, 0.0, 0.0, 0.0, 1.741714404598452E9, 0.0, 2025-03-11 12:33:24.598
8.0, 103444.3650775391, 9876.67708118881, -26552.508956493017, -20372.45278030071, -11444.4507890285, 7780.798707103576, -42677.839717607465, 3295.3847402792862, 13921.694627010183, 1386.7469294961609, -15261.458189661289, 22122.214391495516, -26551.816052414903, 1753.20377984092, 54020.634772853235, 23391.502903879038, -0.134, 0.9580000000000001, -0.178, 192.0, 0.0, 0.0, 0.0, 0.0, 0.0, 0.0, 0.0, 0.0, 0.0, 1.741714404598561E9, 0.0, 2025-03-11 12:33:24.598
8.0, 103431.17754831047, 9874.218389298725, -26565.137692110264, -20398.023175957584, -11448.27293733036, 7790.9240473418295, -42669.189592503266, 3323.235013870599, 13921.694627010183, 1386.7469294961609, -15261.458189661289, 22122.214391495516, -26551.816052414903, 1753.20377984092, 54020.634772853235, 23391.502903879038, -0.134, 0.9580000000000001, -0.178, 192.0, 0.0, 0.0, 0.0, 0.0, 0.0, 0.0, 0.0, 0.0, 0.0, 1.741714404598674E9, 0.0, 2025-03-11 12:33:24.598
8.0, 103433.83740590066, 9881.840334157985, -26572.223195102597, -20395.877408489872, -11459.962899680484, 7779.524657669624, -42686.73571190068, 3312.841452698881, 13921.694627010183, 1386.7469294961609, -15261.458189661289, 22122.214391495516, -26551.816052414903, 1753.20377984092, 54020.634772853235, 23391.502903879038, -0.134, 0.9580000000000001, -0.178, 192.0, 0.0, 0.0, 0.0, 0.0, 0.0, 0.0, 0.0, 0.0, 0.0, 1.741714404598781E9, 0.0, 2025-03-11 12:33:24.598
8.0, 103422.415664484, 9868.85397062945, -26571.64204974676, -20400.75008878113, -11515.46228116301, 7787.414823462346, -42673.861107094424, 3320.128121391311, 13921.694627010183, 1386.7469294961609, -15261.458189661289, 22122.214391495516, -26551.816052414903, 1753.20377984092, 54020.634772853235, 23391.502903879038, -0.134, 0.9580000000000001, -0.178, 192.0, 0.0, 0.0, 0.0, 0.0, 0.0, 0.0, 0.0, 0.0, 0.0, 1.741714404598888E9, 0.0, 2025-03-11 12:33:24.598
8.0, 103426.64014418605, 9900.10170937797, -26551.52547973698, -20368.92120467677, -11500.218391444492, 7793.91918109884, -42663.82517383399, 3330.8122552409477, 13921.694627010183, 1386.7469294961609, -15261.458189661289, 22122.214391495516, -26551.816052414903, 1753.20377984092, 54020.634772853235, 23391.502903879038, -0.134, 0.9580000000000001, -0.178, 192.0, 0.0, 0.0, 0.0, 0.0, 0.0, 0.0, 0.0, 0.0, 0.0, 1.741714404599005E9, 0.0, 2025-03-11 12:33:24.599
8.0, 103433.63624020056, 9894.737290708696, -26557.001657128534, -20371.581062266956, -11471.965786452984, 7787.057195551061, -42675.29161873956, 3322.3632958368416, 13921.694627010183, 1386.7469294961609, -15261.458189661289, 22122.214391495516, -26551.816052414903, 1753.20377984092, 54020.634772853235, 23391.502903879038, -0.134, 0.9580000000000001, -0.178, 192.0, 0.0, 0.0, 0.0, 0.0, 0.0, 0.0, 0.0, 0.0, 0.0, 1.741714404599112E9, 0.0, 2025-03-11 12:33:24.599
8.0, 103434.93264137897, 9916.194965385792, -26551.033741358966, -20382.46636181669, -11494.004606485916, 7807.598448705488, -42662.595827888945, 3328.8453017288807, 13921.694627010183, 1386.7469294961609, -15261.458189661289, 22122.214391495516, -26551.816052414903, 1753.20377984092, 54020.634772853235, 23391.502903879038, -0.134, 0.9580000000000001, -0.178, 192.0, 0.0, 0.0, 0.0, 0.0, 0.0, 0.0, 0.0, 0.0, 0.0, 1.74171440459928E9, 0.0, 2025-03-11 12:33:24.599
8.0, 103441.4593507599, 9891.943322651783, -26561.337895552864, -20373.816236712486, -11494.652807075121, 7782.788012360098, -42676.364502473414, 3322.1174266478333, 13921.694627010183, 1386.7469294961609, -15261.458189661289, 22122.214391495516, -26551.816052414903, 1753.20377984092, 54020.634772853235, 23391.502903879038, -0.134, 0.9580000000000001, -0.178, 192.0, 0.0, 0.0, 0.0, 0.0, 0.0, 0.0, 0.0, 0.0, 0.0, 1.741714404599384E9, 0.0, 2025-03-11 12:33:24.599
144.0, 103432.92098437798, 9916.172613641336, -26534.91813360669, -20371.491655289134, -11488.774298283375, 7818.617858721956, -42653.18574347327, 3340.6023193123724, 13893.911408652237, 1379.6614265038284, -15297.511553467699, 22072.213539148994, -26556.286401305962, 1747.0346983712552, 54028.86021481278, 23384.90913926472, -0.136, 0.96, -0.184, 192.0, 125.5, 96.0, 15.0, 0.0, 125.0, 32.0, 0.0, 0.0, 0.0, 1.741714404599557E9, 0.0, 2025-03-11 12:33:24.599
144.0, 103431.40106575502, 9891.608046484953, -26560.77910194148, -20373.27979484556, -11456.610138012187, 7786.610160661956, -42676.14098502886, 3322.966792937135, 13893.911408652237, 1379.6614265038284, -15297.511553467699, 22072.213539148994, -26556.286401305962, 1747.0346983712552, 54028.86021481278, 23384.90913926472, -0.136, 0.96, -0.184, 192.0, 62.75, 48.0, 7.5, 0.0, 62.5, 16.0, 0.0, 0.0, 0.0, 1.741714404599641E9, 0.0, 2025-03-11 12:33:24.599
142.0, 103423.37678949557, 9914.898564207384, -26542.696540677138, -20357.253594071102, -11488.75194653892, 7806.793785905098, -42651.33054868347, 3343.5974530693834, 13917.581906030406, 1401.5214325811187, -15272.276433977657, 22100.443792396047, -26532.25827601651, 1757.6070734986156, 54014.890374528215, 23399.638938860768, -0.136, 0.96, -0.184, 192.0, 0.0, 0.0, 0.0, 0.0, 0.0, 0.0, 0.0, 0.0, 0.0, 1.741714404599725E9, 0.0, 2025-03-11 12:33:24.599
140.0, 103434.93264137897, 9893.463241274743, -26561.248488575042, -20382.667527516787, -11463.136847393138, 7785.4031664613685, -42675.91746758431, 3319.524624291018, 13900.661635477738, 1382.544801538563, -15288.347338241023, 22090.94430100254, -26552.128976837277, 1746.1853320819537, 54047.32275573287, 23372.59332806985, -0.136, 0.96, -0.184, 192.0, 0.0, 0.0, 0.0, 0.0, 0.0, 0.0, 0.0, 0.0, 0.0, 1.741714404600042E9, 0.0, 2025-03-11 12:33:24.600
140.0, 103432.56335646671, 9904.661465246852, -26549.73734018056, -20380.857036215908, -11441.053323871294, 7789.046500807584, -42667.848487835945, 3324.106731904356, 13900.661635477738, 1382.544801538563, -15288.347338241023, 22090.94430100254, -26552.128976837277, 1746.1853320819537, 54047.32275573287, 23372.59332806985, -0.136, 0.96, -0.184, 192.0, 0.0, 0.0, 0.0, 0.0, 0.0, 0.0, 0.0, 0.0, 0.0, 1.741714404600122E9, 0.0, 2025-03-11 12:33:24.600
138.0, 103424.62848718507, 9908.662427504352, -26548.530345979972, -20374.822065212975, -11495.122193708683, 7788.375948473925, -42667.714377369215, 3323.0561999149563, 13915.637304262795, 1397.6322290458954, -15272.611710144487, 22103.550684875332, -26541.377787754274, 1745.9394628929454, 54019.718351330564, 23376.05784846042, -0.136, 0.96, -0.184, 192.0, 0.0, 0.0, 0.0, 0.0, 0.0, 0.0, 0.0, 0.0, 0.0, 1.741714404600193E9, 0.0, 2025-03-11 12:33:24.600
138.0, 103430.64110644354, 9909.511793793654, -26545.82578490088, -20385.573254295978, -11502.051234489827, 7770.405145931858, -42674.24108675016, 3313.8919846882804, 13915.637304262795, 1397.6322290458954, -15272.611710144487, 22103.550684875332, -26541.377787754274, 1745.9394628929454, 54019.718351330564, 23376.05784846042, -0.136, 0.96, -0.184, 192.0, 0.0, 0.0, 0.0, 0.0, 0.0, 0.0, 0.0, 0.0, 0.0, 1.741714404600271E9, 0.0, 2025-03-11 12:33:24.600
138.0, 103431.19990005493, 9876.364156766434, -26539.8131656424, -20359.958155150194, -11478.850123745218, 7791.236971764204, -42659.801859832034, 3323.4361795706964, 13915.637304262795, 1397.6322290458954, -15272.611710144487, 22103.550684875332, -26541.377787754274, 1745.9394628929454, 54019.718351330564, 23376.05784846042, -0.136, 0.96, -0.184, 192.0, 0.0, 0.0, 0.0, 0.0, 0.0, 0.0, 0.0, 0.0, 0.0, 1.74171440460035E9, 0.0, 2025-03-11 12:33:24.600
138.0, 103424.27085927378, 9876.744136422174, -26541.556601709915, -20364.249690085613, -11464.74617299392, 7783.8161926050425, -42670.642455892856, 3314.94251667768, 13915.637304262795, 1397.6322290458954, -15272.611710144487, 22103.550684875332, -26541.377787754274, 1745.9394628929454, 54019.718351330564, 23376.05784846042, -0.136, 0.96, -0.184, 192.0, 0.0, 0.0, 0.0, 0.0, 0.0, 0.0, 0.0, 0.0, 0.0, 1.741714404600423E9, 0.0, 2025-03-11 12:33:24.600
138.0, 103444.3650775391, 9894.938456408794, -26569.183357856677, -20395.564484067498, -11528.627458647188, 7765.487762151691, -42688.09916831245, 3308.2146415966326, 13915.637304262795, 1397.6322290458954, -15272.611710144487, 22103.550684875332, -26541.377787754274, 1745.9394628929454, 54019.718351330564, 23376.05784846042, -0.136, 0.96, -0.184, 192.0, 0.0, 0.0, 0.0, 0.0, 0.0, 0.0, 0.0, 0.0, 0.0, 1.7417144046005E9, 0.0, 2025-03-11 12:33:24.600
90.0, 103444.94622289494, 9889.596389483975, -26547.658627946214, -20365.054352886003, -11462.846274715219, 7785.8725530949305, -42669.88249658138, 3320.195176624677, 13896.70537670915, 1386.9257434518033, -15289.710794652796, 22096.822809794285, -26546.58574421236, 1750.655680973015, 54040.058438784894, 23396.19677021465, -0.136, 0.96, -0.184, 192.0, 0.0, 0.0, 0.0, 0.0, 0.0, 0.0, 0.0, 0.0, 0.0, 1.741714404600575E9, 0.0, 2025-03-11 12:33:24.600
90.0, 103425.34374300763, 9874.62072069892, -26543.992941855544, -20360.51694876158, -11489.713071550497, 7787.951265329274, -42669.30135122554, 3317.870595201325, 13896.70537670915, 1386.9257434518033, -15289.710794652796, 22096.822809794285, -26546.58574421236, 1750.655680973015, 54040.058438784894, 23396.19677021465, -0.136, 0.96, -0.184, 192.0, 0.0, 0.0, 0.0, 0.0, 0.0, 0.0, 0.0, 0.0, 0.0, 1.741714404600655E9, 0.0, 2025-03-11 12:33:24.600
90.0, 103431.33401052166, 9902.314532079046, -26535.521630706982, -20352.403265524303, -11479.252455145413, 7799.283599768115, -42659.98067378768, 3328.688839517694, 13896.70537670915, 1386.9257434518033, -15289.710794652796, 22096.822809794285, -26546.58574421236, 1750.655680973015, 54040.058438784894, 23396.19677021465, -0.136, 0.96, -0.184, 192.0, 0.0, 0.0, 0.0, 0.0, 0.0, 0.0, 0.0, 0.0, 0.0, 1.741714404600732E9, 0.0, 2025-03-11 12:33:24.600
236.0, 103427.02012384178, 9941.720657553751, -26537.622694685782, -20321.89313434281, -11323.48314803638, 7765.845390062976, -42613.15376915381, 3354.2145316856545, 13872.051402574945, 1365.9821588971806, -15300.17141105788, 22080.95307123102, -26577.00646841603, 1734.696535431926, 54063.43836348515, 23371.252223402527, -0.136, 0.96, -0.184, 192.0, 0.0, 0.0, 0.0, 0.0, 0.0, 0.0, 0.0, 0.0, 0.0, 1.741714404637669E9, 0.0, 2025-03-11 12:33:24.637
236.0, 103441.43699901545, 9935.35041038399, -26540.64018018725, -20325.581172177932, -11309.71447345191, 7751.361459655936, -42625.827208259965, 3337.6295372998165, 13872.051402574945, 1365.9821588971806, -15300.17141105788, 22080.95307123102, -26577.00646841603, 1734.696535431926, 54063.43836348515, 23371.252223402527, -0.136, 0.96, -0.184, 192.0, 0.0, 0.0, 0.0, 0.0, 0.0, 0.0, 0.0, 0.0, 0.0, 1.74171440463778E9, 0.0, 2025-03-11 12:33:24.637
236.0, 103445.6614787175, 9931.684724293318, -26539.88022087577, -20333.337227503926, -11310.228563574383, 7754.982442257696, -42629.64935656182, 3336.7354675216043, 13872.051402574945, 1365.9821588971806, -15300.17141105788, 22080.95307123102, -26577.00646841603, 1734.696535431926, 54063.43836348515, 23371.252223402527, -0.136, 0.96, -0.184, 192.0, 0.0, 0.0, 0.0, 0.0, 0.0, 0.0, 0.0, 0.0, 0.0, 1.74171440463786E9, 0.0, 2025-03-11 12:33:24.637
202.0, 103435.75965592382, 9937.853805762983, -26532.794717883437, -20314.45000343919, -11337.117712154117, 7761.44209640528, -42617.86998723388, 3347.129028693322, 13907.590676258884, 1411.3785518859092, -15282.111201537991, 22102.09782148574, -26517.930807820656, 1733.2883755312414, 54750.70980199693, 23391.34644166785, -0.136, 0.96, -0.184, 192.0, 0.0, 0.0, 0.0, 0.0, 0.0, 0.0, 0.0, 0.0, 0.0, 1.741714404637932E9, 0.0, 2025-03-11 12:33:24.637
208.0, 103430.10466457662, 9933.741084783207, -26537.309770263408, -20326.050558811494, -11354.328555384704, 7764.124305739917, -42623.457923347705, 3342.770438524537, 13915.682007751706, 1427.4047526603642, -15273.97516655626, 22115.508868158922, -26518.757822365504, 1739.7480296788253, 54684.2580657313, 23401.71765109511, -0.136, 0.96, -0.184, 192.0, 0.0, 0.0, 0.0, 0.0, 0.0, 0.0, 0.0, 0.0, 0.0, 1.741714404638007E9, 0.0, 2025-03-11 12:33:24.638
208.0, 103427.80243489772, 9950.281375680135, -26523.58579916785, -20309.420860936745, -11292.302464521226, 7775.031957034106, -42609.890414463334, 3358.9531015101793, 13915.682007751706, 1427.4047526603642, -15273.97516655626, 22115.508868158922, -26518.757822365504, 1739.7480296788253, 54684.2580657313, 23401.71765109511, -0.136, 0.96, -0.184, 192.0, 0.0, 0.0, 0.0, 0.0, 0.0, 0.0, 0.0, 0.0, 0.0, 1.741714404664728E9, 0.0, 2025-03-11 12:33:24.664
220.0, 103437.99483036934, 9959.467942651265, -26518.958988065602, -20306.157506246273, -11343.86793897962, 7774.853143078464, -42605.59887952791, 3359.958930010668, 13923.482766566607, 1423.5826043585068, -15267.78373334214, 22114.90537105863, -26512.96872055158, 1729.2874132737415, 54721.00433361583, 23385.691450320657, -0.136, 0.96, -0.196, 192.0, 125.5, 96.0, 15.0, 0.0, 124.5, 112.0, 0.0, 0.0, 0.0, 1.741714404680724E9, 0.0, 2025-03-11 12:33:24.680
232.0, 103436.51961523529, 9948.850864034996, -26522.222342756075, -20317.512192429567, -11354.887348996086, 7778.049442535573, -42609.48808306314, 3358.1484387097885, 13910.250533849066, 1404.6953802937724, -15280.2560067482, 22101.69549008554, -26523.63050265676, 1721.9113376034902, 54728.98390638637, 23386.362002654318, -0.136, 0.96, -0.196, 192.0, 0.0, 0.0, 0.0, 0.0, 0.0, 0.0, 0.0, 0.0, 0.0, 1.741714404738803E9, 0.0, 2025-03-11 12:33:24.738
230.0, 103432.18337681096, 9938.323192396545, -26520.791831110935, -20318.093337785405, -11305.691159449954, 7765.934797040796, -42614.56192905449, 3350.861770017358, 13933.876327738326, 1431.2492527066772, -15258.597166371008, 22124.76249036342, -26500.787019823438, 1748.82283792768, 54679.98888254033, 23408.73609885408, -0.14200000000000002, 0.9540000000000001, -0.198, 192.0, 125.5, 72.0, 14.5, 104.0, 124.5, 104.0, 0.0, 0.0, 0.0, 1.741714404738904E9, 0.0, 2025-03-11 12:33:24.738
244.0, 103425.23198428536, 9934.277526650134, -26523.1611160232, -20323.524811688043, -11327.014723660317, 7761.889131294386, -42616.57358605547, 3345.095019947889, 13909.37881581531, 1412.4290838753086, -15283.564064927587, 22104.33299593127, -26528.570238181383, 1728.4827504733505, 54746.842950206155, 23380.10351420683, -0.14200000000000002, 0.9540000000000001, -0.198, 192.0, 0.0, 0.0, 0.0, 0.0, 0.0, 0.0, 0.0, 0.0, 0.0, 1.741714404738999E9, 0.0, 2025-03-11 12:33:24.738
244.0, 103432.33983902214, 9937.697343551796, -26532.481793461062, -20329.895058857808, -11358.284814153292, 7760.637433604888, -42613.57845229846, 3347.7548775380706, 13909.37881581531, 1412.4290838753086, -15283.564064927587, 22104.33299593127, -26528.570238181383, 1728.4827504733505, 54746.842950206155, 23380.10351420683, -0.14200000000000002, 0.9540000000000001, -0.198, 192.0, 0.0, 0.0, 0.0, 0.0, 0.0, 0.0, 0.0, 0.0, 0.0, 1.741714404739079E9, 0.0, 2025-03-11 12:33:24.739
248.0, 103436.54196697974, 9929.695419036796, -26534.91813360669, -20335.237125782627, -11348.382991359591, 7747.449904376257, -42632.063344963, 3335.4167145987412, 13928.444853835685, 1424.1413979698896, -15268.007250786693, 22114.86066756972, -26518.377842709764, 1741.044430857233, 54736.136464612064, 23394.25216844704, -0.14200000000000002, 0.9540000000000001, -0.198, 192.0, 0.0, 0.0, 0.0, 0.0, 0.0, 0.0, 0.0, 0.0, 0.0, 1.741714404779967E9, 0.0, 2025-03-11 12:33:24.779
248.0, 103444.20861532791, 9936.333887140023, -26531.610075427303, -20331.638494925322, -11329.808691717231, 7751.093238722473, -42626.69892629373, 3338.3447931223864, 13928.444853835685, 1424.1413979698896, -15268.007250786693, 22114.86066756972, -26518.377842709764, 1741.044430857233, 54736.136464612064, 23394.25216844704, -0.14200000000000002, 0.9540000000000001, -0.198, 192.0, 0.0, 0.0, 0.0, 0.0, 0.0, 0.0, 0.0, 0.0, 0.0, 1.741714404780065E9, 0.0, 2025-03-11 12:33:24.780
248.0, 103433.05509484472, 9939.217262174758, -26531.520668449484, -20326.16231753377, -11334.167281886015, 7759.318680682026, -42618.87581573437, 3344.4021158697747, 13928.444853835685, 1424.1413979698896, -15268.007250786693, 22114.86066756972, -26518.377842709764, 1741.044430857233, 54736.136464612064, 23394.25216844704, -0.14200000000000002, 0.9540000000000001, -0.198, 192.0, 0.0, 0.0, 0.0, 0.0, 0.0, 0.0, 0.0, 0.0, 0.0, 1.741714404780143E9, 0.0, 2025-03-11 12:33:24.780
248.0, 103435.22321405688, 9928.667238791853, -26523.518743934485, -20317.579247662932, -11315.458871776924, 7757.307023681048, -42622.94383322523, 3340.356450123364, 13928.444853835685, 1424.1413979698896, -15268.007250786693, 22114.86066756972, -26518.377842709764, 1741.044430857233, 54736.136464612064, 23394.25216844704, -0.14200000000000002, 0.9540000000000001, -0.198, 192.0, 0.0, 0.0, 0.0, 0.0, 0.0, 0.0, 0.0, 0.0, 0.0, 1.741714404780217E9, 0.0, 2025-03-11 12:33:24.780
248.0, 103445.03562987276, 9930.790654515107, -26522.870543345278, -20317.31102672947, -11324.824252703698, 7768.862875564441, -42619.0099262011, 3348.850113016381, 13928.444853835685, 1424.1413979698896, -15268.007250786693, 22114.86066756972, -26518.377842709764, 1741.044430857233, 54736.136464612064, 23394.25216844704, -0.14200000000000002, 0.9540000000000001, -0.198, 192.0, 0.0, 0.0, 0.0, 0.0, 0.0, 0.0, 0.0, 0.0, 0.0, 1.741714404780289E9, 0.0, 2025-03-11 12:33:24.780
6.0, 103427.22128954188, 9939.418427874854, -26510.845304828323, -20306.604541135377, -11333.943764441463, 7767.789991830587, -42613.37728659836, 3350.772363039537, 13937.497310340084, 1432.5903573739956, -15251.712829078775, 22123.801365351843, -26501.926958790656, 1744.4865995033504, 54704.37463574108, 23407.082069764387, -0.14200000000000002, 0.9540000000000001, -0.198, 192.0, 0.0, 0.0, 0.0, 0.0, 0.0, 0.0, 0.0, 0.0, 0.0, 1.741714404803977E9, 0.0, 2025-03-11 12:33:24.803
8.0, 103434.10562683412, 9936.736218540218, -26510.219455983577, -20307.20803823567, -11306.182897827972, 7766.650052863366, -42614.226652887664, 3348.157208938266, 13930.992952703591, 1426.153054970867, -15258.887739048927, 22122.214391495516, -26506.509066403996, 1748.2863960607526, 54718.813862659204, 23400.309491194428, -0.14200000000000002, 0.9540000000000001, -0.198, 192.0, 0.0, 0.0, 0.0, 0.0, 0.0, 0.0, 0.0, 0.0, 0.0, 1.741714404819935E9, 0.0, 2025-03-11 12:33:24.819
16.0, 103447.62843222958, 9915.166785140847, -26521.417679955684, -20330.140928046814, -11347.846549492664, 7760.078639993506, -42613.62315578737, 3343.485694347107, 13928.42250209123, 1425.3036886815655, -15262.888701306429, 22114.301873958335, -26511.91818856218, 1738.1163523335879, 54706.58745844215, 23397.336709181873, -0.14200000000000002, 0.9540000000000001, -0.198, 192.0, 0.0, 0.0, 0.0, 0.0, 0.0, 0.0, 0.0, 0.0, 0.0, 1.741714404869017E9, 0.0, 2025-03-11 12:33:24.869
16.0, 103434.68677218996, 9883.315549292034, -26541.288380776452, -20342.970829364163, -11320.800938701743, 7732.6754012913, -42640.512304367105, 3314.160205621744, 13928.42250209123, 1425.3036886815655, -15262.888701306429, 22114.301873958335, -26511.91818856218, 1738.1163523335879, 54706.58745844215, 23397.336709181873, -0.14200000000000002, 0.9540000000000001, -0.198, 192.0, 0.0, 0.0, 0.0, 0.0, 0.0, 0.0, 0.0, 0.0, 0.0, 1.741714404869132E9, 0.0, 2025-03-11 12:33:24.869
16.0, 103436.94429837994, 9915.949096196782, -26535.834555129357, -20335.304181015992, -11319.28102007878, 7750.936776511286, -42640.221731689184, 3325.4701883161297, 13928.42250209123, 1425.3036886815655, -15262.888701306429, 22114.301873958335, -26511.91818856218, 1738.1163523335879, 54706.58745844215, 23397.336709181873, -0.14200000000000002, 0.9540000000000001, -0.198, 192.0, 0.0, 0.0, 0.0, 0.0, 0.0, 0.0, 0.0, 0.0, 0.0, 1.741714404869215E9, 0.0, 2025-03-11 12:33:24.869
16.0, 103427.35540000862, 9908.170689126337, -26520.836534599846, -20326.475241956145, -11353.38978211758, 7756.301195180559, -42613.64550753182, 3341.675203046227, 13928.42250209123, 1425.3036886815655, -15262.888701306429, 22114.301873958335, -26511.91818856218, 1738.1163523335879, 54706.58745844215, 23397.336709181873, -0.14200000000000002, 0.9540000000000001, -0.198, 192.0, 0.0, 0.0, 0.0, 0.0, 0.0, 0.0, 0.0, 0.0, 0.0, 1.741714404869297E9, 0.0, 2025-03-11 12:33:24.869
16.0, 103432.47394948888, 9906.203735614268, -26533.48762196155, -20343.395512508814, -11308.418072273502, 7749.43920963278, -42633.3597461414, 3329.9181854627354, 13928.42250209123, 1425.3036886815655, -15262.888701306429, 22114.301873958335, -26511.91818856218, 1738.1163523335879, 54706.58745844215, 23397.336709181873, -0.14200000000000002, 0.9540000000000001, -0.198, 192.0, 0.0, 0.0, 0.0, 0.0, 0.0, 0.0, 0.0, 0.0, 0.0, 1.741714404907205E9, 0.0, 2025-03-11 12:33:24.907
16.0, 103423.9132313625, 9915.34559909649, -26515.069784530377, -20309.711433614666, -11334.346095841658, 7755.496532380168, -42622.09446693593, 3332.0416011859897, 13928.42250209123, 1425.3036886815655, -15262.888701306429, 22114.301873958335, -26511.91818856218, 1738.1163523335879, 54706.58745844215, 23397.336709181873, -0.14200000000000002, 0.9540000000000001, -0.198, 192.0, 0.0, 0.0, 0.0, 0.0, 0.0, 0.0, 0.0, 0.0, 0.0, 1.741714404907336E9, 0.0, 2025-03-11 12:33:24.907
16.0, 103435.84906290163, 9906.628418758919, -26522.088232289345, -20317.802765107484, -11295.096432578139, 7756.323546925015, -42625.38017337086, 3332.4662843306405, 13928.42250209123, 1425.3036886815655, -15262.888701306429, 22114.301873958335, -26511.91818856218, 1738.1163523335879, 54706.58745844215, 23397.336709181873, -0.14200000000000002, 0.9540000000000001, -0.198, 192.0, 0.0, 0.0, 0.0, 0.0, 0.0, 0.0, 0.0, 0.0, 0.0, 1.741714404907413E9, 0.0, 2025-03-11 12:33:24.907
26.0, 103443.18043508298, 9908.505965293165, -26519.182505510154, -20314.27118948355, -11349.500578582356, 7760.235102204693, -42618.562891311994, 3340.0882291899, 13896.995949387068, 1402.5943163149734, -15282.848809105017, 22093.715917315, -26531.25244751602, 1717.1280642900545, 54754.28608110978, 23364.94903146613, -0.14200000000000002, 0.9540000000000001, -0.198, 192.0, 0.0, 0.0, 0.0, 0.0, 0.0, 0.0, 0.0, 0.0, 0.0, 1.741714404907487E9, 0.0, 2025-03-11 12:33:24.907
32.0, 103431.02108609928, 9901.085186134003, -26526.82680211387, -20319.00975930807, -11302.830136159675, 7741.2584711621375, -42640.087621222454, 3317.8482434568696, 13918.52067929753, 1420.8556915349593, -15268.54369265362, 22114.883019314173, -26526.62563641377, 1732.6848784309482, 54695.83626935915, 23376.68369730517, -0.14200000000000002, 0.9540000000000001, -0.198, 192.0, 0.0, 0.0, 0.0, 0.0, 0.0, 0.0, 0.0, 0.0, 0.0, 1.741714404963716E9, 0.0, 2025-03-11 12:33:24.963
34.0, 103437.90542339152, 9919.592430542998, -26507.939578049136, -20315.478183684136, -11324.176052114493, 7759.564549871034, -42620.35103086842, 3339.440028600696, 13905.154336113255, 1408.0481419620685, -15282.245312004723, 22103.237760452957, -26537.33212200786, 1721.5090062032946, 54766.490133582374, 23362.602098298325, -0.134, 0.9560000000000001, -0.2, 192.0, 125.5, 104.0, 14.5, 112.0, 124.5, 96.0, 0.0, 0.0, 0.0, 1.741714404963825E9, 0.0, 2025-03-11 12:33:24.963
36.0, 103435.7149524349, 9917.401959586377, -26511.605264139806, -20317.02045405155, -11312.731958953376, 7743.046610718562, -42631.61631007389, 3322.586813281395, 13918.811251975449, 1417.8158542890376, -15266.733201352741, 22121.968522306506, -26524.59162766834, 1724.3923812380292, 54700.75365313931, 23371.788665269454, -0.134, 0.9560000000000001, -0.2, 192.0, 0.0, 0.0, 0.0, 0.0, 0.0, 0.0, 0.0, 0.0, 0.0, 1.741714404963914E9, 0.0, 2025-03-11 12:33:24.963
58.0, 103431.78104541077, 9893.172668596824, -26532.481793461062, -20330.16327979127, -11349.120598926616, 7749.081581721495, -42632.95741474121, 3323.033848170501, 13909.55762977095, 1406.1482436833674, -15270.935329310338, 22124.2707519854, -26532.72766265007, 1724.9064713605014, 54721.764292927306, 23373.91208099271, -0.134, 0.9560000000000001, -0.2, 192.0, 0.0, 0.0, 0.0, 0.0, 0.0, 0.0, 0.0, 0.0, 0.0, 1.741714404963997E9, 0.0, 2025-03-11 12:33:24.963
58.0, 103435.84906290163, 9892.949151152272, -26523.40698521221, -20310.471392926145, -11330.836871962176, 7758.849294048464, -42618.31702212298, 3331.5722145524282, 13909.55762977095, 1406.1482436833674, -15270.935329310338, 22124.2707519854, -26532.72766265007, 1724.9064713605014, 54721.764292927306, 23373.91208099271, -0.134, 0.9560000000000001, -0.2, 192.0, 0.0, 0.0, 0.0, 0.0, 0.0, 0.0, 0.0, 0.0, 0.0, 1.741714404964069E9, 0.0, 2025-03-11 12:33:24.964
54.0, 103437.52544373578, 9909.310628093557, -26520.747127622024, -20318.227448252135, -11336.15658714254, 7758.446962648269, -42617.9593942117, 3333.9862029536016, 13903.835583190392, 1404.4271593603087, -15275.293919479123, 22110.61383612321, -26534.426395228675, 1728.952137106912, 54731.55435699873, 23379.43296187317, -0.138, 0.9540000000000001, -0.198, 192.0, 125.5, 88.0, 14.5, 104.0, 124.5, 104.0, 0.0, 0.0, 0.0, 1.741714405014334E9, 0.0, 2025-03-11 12:33:25.014
66.0, 103436.45256000193, 9897.24068608769, -26534.06876731739, -20322.02724480954, -11354.06033445124, 7750.445038133269, -42632.04099321854, 3324.4420080711852, 13900.393414544274, 1393.0501214325573, -15281.306538737601, 22112.916065802106, -26542.20480229912, 1716.3234014896634, 54704.10641480761, 23371.58749956936, -0.138, 0.9540000000000001, -0.198, 192.0, 0.0, 0.0, 0.0, 0.0, 0.0, 0.0, 0.0, 0.0, 0.0, 1.741714405014461E9, 0.0, 2025-03-11 12:33:25.014
66.0, 103442.64399321604, 9891.786860440596, -26530.246619015532, -20307.364500446856, -11293.107127321617, 7750.2438724331705, -42632.890359507845, 3320.3516388358644, 13900.393414544274, 1393.0501214325573, -15281.306538737601, 22112.916065802106, -26542.20480229912, 1716.3234014896634, 54704.10641480761, 23371.58749956936, -0.138, 0.9540000000000001, -0.198, 192.0, 0.0, 0.0, 0.0, 0.0, 0.0, 0.0, 0.0, 0.0, 0.0, 1.741714405014544E9, 0.0, 2025-03-11 12:33:25.014
66.0, 103424.87435637407, 9889.551685995066, -26541.601305198827, -20324.038901810516, -11311.435557774968, 7743.337183396481, -42643.08275497946, 3314.4731300441185, 13900.393414544274, 1393.0501214325573, -15281.306538737601, 22112.916065802106, -26542.20480229912, 1716.3234014896634, 54704.10641480761, 23371.58749956936, -0.138, 0.9540000000000001, -0.198, 192.0, 0.0, 0.0, 0.0, 0.0, 0.0, 0.0, 0.0, 0.0, 0.0, 1.74171440501463E9, 0.0, 2025-03-11 12:33:25.014
76.0, 103431.35636226612, 9900.4369855448, -26534.091119061843, -20327.235201267624, -11359.067125209229, 7736.966936226719, -42646.54727537004, 3305.353618306353, 13905.780184958005, 1408.673990806817, -15267.582567642043, 22120.716824617008, -26534.471098717582, 1723.0959800596215, 54745.524197283296, 23377.801284527934, -0.138, 0.9540000000000001, -0.198, 192.0, 0.0, 0.0, 0.0, 0.0, 0.0, 0.0, 0.0, 0.0, 0.0, 1.74171440506813E9, 0.0, 2025-03-11 12:33:25.068
76.0, 103437.65955420252, 9916.284372363612, -26506.754935593002, -20304.369366689847, -11335.709552253433, 7757.575244614512, -42626.58716757145, 3326.028981927512, 13905.780184958005, 1408.673990806817, -15267.582567642043, 22120.716824617008, -26534.471098717582, 1723.0959800596215, 54745.524197283296, 23377.801284527934, -0.138, 0.9540000000000001, -0.198, 192.0, 0.0, 0.0, 0.0, 0.0, 0.0, 0.0, 0.0, 0.0, 0.0, 1.741714405068269E9, 0.0, 2025-03-11 12:33:25.068
76.0, 103427.33304826416, 9898.58179075501, -26532.794717883437, -20316.841640095907, -11303.768909426799, 7742.778389785099, -42641.004042745124, 3309.064007885934, 13905.780184958005, 1408.673990806817, -15267.582567642043, 22120.716824617008, -26534.471098717582, 1723.0959800596215, 54745.524197283296, 23377.801284527934, -0.138, 0.9540000000000001, -0.198, 192.0, 0.0, 0.0, 0.0, 0.0, 0.0, 0.0, 0.0, 0.0, 0.0, 1.741714405068344E9, 0.0, 2025-03-11 12:33:25.068
86.0, 103428.60709769811, 9907.05310190357, -26505.123258247764, -20305.330491701425, -11298.069214590694, 7754.311889924037, -42628.30825189451, 3323.614993526339, 13931.618801548339, 1435.607842875462, -15238.815872528063, 22149.19294705307, -26515.226246741564, 1736.4399714994397, 54680.368862196075, 23386.876092776787, -0.138, 0.9540000000000001, -0.198, 192.0, 0.0, 0.0, 0.0, 0.0, 0.0, 0.0, 0.0, 0.0, 0.0, 1.741714405068421E9, 0.0, 2025-03-11 12:33:25.068
88.0, 103435.20086231243, 9889.574037739521, -26518.69076713214, -20321.133175031326, -11340.224604633404, 7743.873625263408, -42640.24408343364, 3313.735522477093, 13907.143641369777, 1414.641906576384, -15264.788599585128, 22122.393205451157, -26537.712101663605, 1720.883157358546, 54745.07716239419, 23368.637069301258, -0.138, 0.9540000000000001, -0.198, 192.0, 0.0, 0.0, 0.0, 0.0, 0.0, 0.0, 0.0, 0.0, 0.0, 1.7417144050685E9, 0.0, 2025-03-11 12:33:25.068
90.0, 103445.37090603959, 9884.790764426085, -26514.689804874637, -20318.249799996593, -11321.560898013222, 7742.063133962529, -42640.69111832275, 3313.5120050325404, 13916.397263574276, 1422.9567555137583, -15252.361029667978, 22132.026807311395, -26526.87150560278, 1726.1134655610879, 54692.461155946396, 23389.558302111425, -0.138, 0.9540000000000001, -0.198, 192.0, 0.0, 0.0, 0.0, 0.0, 0.0, 0.0, 0.0, 0.0, 0.0, 1.741714405068581E9, 0.0, 2025-03-11 12:33:25.068
92.0, 103436.13963557954, 9881.147430079869, -26518.042566542932, -20320.3955674643, -11337.832967976687, 7740.878491506397, -42636.310176409504, 3317.1329876342998, 13887.876437649304, 1394.9276679668033, -15280.725393381763, 22104.355347675722, -26549.200898313633, 1709.439064197429, 54763.83027599219, 23365.23960414405, -0.138, 0.9540000000000001, -0.198, 192.0, 0.0, 0.0, 0.0, 0.0, 0.0, 0.0, 0.0, 0.0, 0.0, 1.741714405068658E9, 0.0, 2025-03-11 12:33:25.068
94.0, 103427.69067617545, 9889.797555184074, -26512.76755485148, -20313.86885808335, -11320.219793345905, 7753.797799801565, -42623.748496025626, 3328.778246495515, 13902.941513412181, 1417.2347089331997, -15265.526207152154, 22116.917028059608, -26529.620770170783, 1720.9949160808226, 54706.94508635344, 23386.00437474303, -0.136, 0.9560000000000001, -0.192, 192.0, 125.5, 96.0, 14.5, 112.0, 125.0, 0.0, 0.0, 0.0, 0.0, 1.741714405068739E9, 0.0, 2025-03-11 12:33:25.068
96.0, 103432.56335646671, 9877.727613178207, -26530.44778471563, -20326.810518122973, -11333.139101641073, 7747.874587520909, -42640.10997296691, 3320.7539702360596, 13897.644149976273, 1412.3843803863979, -15272.678765377852, 22116.559400148322, -26530.58189518236, 1729.3991719960181, 54748.65344150704, 23386.496113121048, -0.136, 0.9560000000000001, -0.192, 192.0, 0.0, 0.0, 0.0, 0.0, 0.0, 0.0, 0.0, 0.0, 0.0, 1.741714405113447E9, 0.0, 2025-03-11 12:33:25.113
98.0, 103444.32037405019, 9880.342767279479, -26525.664511402192, -20315.768756362053, -11334.167281886015, 7755.094200979973, -42631.32573739597, 3327.906528461758, 13883.629606202794, 1399.643886046873, -15283.653471905409, 22108.08808899976, -26537.667398174694, 1711.5177764317723, 54719.73028418187, 23375.789627526956, -0.136, 0.9560000000000001, -0.192, 192.0, 0.0, 0.0, 0.0, 0.0, 0.0, 0.0, 0.0, 0.0, 0.0, 1.741714405113563E9, 0.0, 2025-03-11 12:33:25.113
100.0, 103433.83740590066, 9901.062834389548, -26517.68493863165, -20307.655073124777, -11314.833022932175, 7767.208846474749, -42619.43460934575, 3342.323403635431, 13891.072737106411, 1415.1336449544008, -15275.11510552348, 22123.823717096297, -26526.580932924862, 1735.076515087666, 54760.410459090526, 23389.558302111425, -0.136, 0.9560000000000001, -0.192, 192.0, 0.0, 0.0, 0.0, 0.0, 0.0, 0.0, 0.0, 0.0, 0.0, 1.741714405113646E9, 0.0, 2025-03-11 12:33:25.113
102.0, 103422.661533673, 9917.67018051984, -26511.582912395348, -20308.750308603085, -11324.645438748055, 7772.059175021551, -42617.82528374497, 3344.960909481157, 13904.41672854623, 1430.6234038619286, -15261.771114083662, 22139.022903325906, -26512.812258340393, 1740.2621198012973, 54719.931449881966, 23398.767220827012, -0.136, 0.9560000000000001, -0.192, 192.0, 0.0, 0.0, 0.0, 0.0, 0.0, 0.0, 0.0, 0.0, 0.0, 1.741714405113724E9, 0.0, 2025-03-11 12:33:25.113
112.0, 103429.65762968751, 9908.01422691515, -26527.899685847722, -20329.35861699088, -11309.468604262902, 7755.183607957793, -42633.180932185765, 3329.9181854627354, 13913.759757728549, 1414.5301478541076, -15265.146227496414, 22113.98894953596, -26500.474095401063, 1735.0988668321213, 54736.04705763425, 23391.793476556955, -0.136, 0.9560000000000001, -0.192, 192.0, 0.0, 0.0, 0.0, 0.0, 0.0, 0.0, 0.0, 0.0, 0.0, 1.741714405176013E9, 0.0, 2025-03-11 12:33:25.176
108.0, 103435.40202801253, 9928.242555647203, -26523.63050265676, -20332.912544359275, -11287.116859807595, 7756.949395769763, -42614.025487187566, 3345.8102757704587, 13903.142679112278, 1415.3571623989537, -15271.82939908855, 22115.531219903376, -26511.269987972973, 1732.1484365640208, 54743.758409471324, 23381.19874968514, -0.136, 0.9560000000000001, -0.192, 192.0, 0.0, 0.0, 0.0, 0.0, 0.0, 0.0, 0.0, 0.0, 0.0, 1.741714405176115E9, 0.0, 2025-03-11 12:33:25.176
114.0, 103446.2649758178, 9957.121009483459, -26499.401211667206, -20305.106974256872, -11325.070121892706, 7787.638340906899, -42585.772882196055, 3377.8850290638247, 13924.533298556007, 1420.252194434666, -15252.15986396788, 22119.37571994969, -26487.688897572625, 1740.82091341268, 54749.703973496435, 23407.327938953393, -0.14, 0.9560000000000001, -0.196, 192.0, 125.5, 80.0, 14.5, 112.0, 124.5, 112.0, 0.0, 0.0, 0.0, 1.741714405176199E9, 0.0, 2025-03-11 12:33:25.176
116.0, 103436.58667046865, 9932.042352204604, -26521.10475553331, -20320.797898864497, -11285.596941184634, 7766.158314485349, -42607.87875746236, 3356.740278809104, 13930.970600959135, 1433.350316685476, -15246.929555765339, 22128.98697006547, -26479.66462131317, 1759.4846200328614, 54718.43388300346, 23424.047043805964, -0.14, 0.9560000000000001, -0.196, 192.0, 0.0, 0.0, 0.0, 0.0, 0.0, 0.0, 0.0, 0.0, 0.0, 1.741714405176288E9, 0.0, 2025-03-11 12:33:25.176
118.0, 103422.97445809537, 9922.900488722384, -26533.934656850655, -20325.424709966745, -11348.718267526421, 7761.173875471816, -42616.30536512201, 3350.0124037280566, 13905.869591935825, 1405.9470779832695, -15274.645718889918, 22098.901522028627, -26508.520723404974, 1732.4166574974845, 54762.60093004715, 23400.220084216606, -0.14, 0.9560000000000001, -0.196, 192.0, 0.0, 0.0, 0.0, 0.0, 0.0, 0.0, 0.0, 0.0, 0.0, 1.741714405176363E9, 0.0, 2025-03-11 12:33:25.176
120.0, 103432.33983902214, 9911.143471138892, -26547.88214539077, -20333.851317626395, -11310.094453107651, 7754.043668990573, -42625.71544953769, 3341.965775724146, 13903.366196556832, 1401.5884878144848, -15277.774963113663, 22095.28053942687, -26511.24763622852, 1737.982241866856, 54736.717609967905, 23403.751659840545, -0.14, 0.9560000000000001, -0.196, 192.0, 0.0, 0.0, 0.0, 0.0, 0.0, 0.0, 0.0, 0.0, 0.0, 1.741714405176442E9, 0.0, 2025-03-11 12:33:25.176
122.0, 103443.53806299425, 9939.887814508416, -26524.25635150151, -20313.6453406388, -11341.4763023229, 7776.931855312808, -42599.116873635874, 3368.072613247945, 13903.94734191267, 1403.644848304373, -15275.673899134863, 22098.923873773085, -26507.33608094884, 1735.1659220654872, 54776.19079067597, 23403.952825540644, -0.14, 0.9560000000000001, -0.196, 192.0, 0.0, 0.0, 0.0, 0.0, 0.0, 0.0, 0.0, 0.0, 0.0, 1.741714405176522E9, 0.0, 2025-03-11 12:33:25.176
124.0, 103437.48074024687, 9942.793541287607, -26530.850116115824, -20322.161355276272, -11283.473525461379, 7768.996986031174, -42605.64358301683, 3361.8588282893693, 13927.148452657279, 1424.0072875031576, -15257.859558803984, 22125.90242933064, -26493.58975810883, 1754.880160675068, 54717.18218531396, 23418.235590247583, -0.134, 0.9520000000000001, -0.196, 192.0, 125.5, 104.0, 14.5, 96.0, 124.5, 112.0, 0.0, 0.0, 0.0, 1.741714405203593E9, 0.0, 2025-03-11 12:33:25.203
126.0, 103424.47202497387, 9937.429122618332, -26531.87829636077, -20327.01168382307, -11336.536566798279, 7770.114573253939, -42610.96329819719, 3357.5225898650397, 13925.360313100853, 1415.2901071655879, -15261.614651872474, 22117.76639434891, -26497.255444199498, 1745.268910559286, 54766.46778183792, 23414.10051752335, -0.134, 0.9520000000000001, -0.196, 192.0, 0.0, 0.0, 0.0, 0.0, 0.0, 0.0, 0.0, 0.0, 0.0, 1.741714405203711E9, 0.0, 2025-03-11 12:33:25.203
128.0, 103434.44090300094, 9907.790709470595, -26549.938505880655, -20346.36829452137, -11300.818479158697, 7748.38867764338, -42627.57064432748, 3339.462380345152, 13908.03771114799, 1391.9548859542474, -15280.814800359583, 22099.259149939913, -26512.275816473462, 1731.7684569082805, 54709.58259219916, 23397.8731510488, -0.134, 0.9520000000000001, -0.196, 192.0, 0.0, 0.0, 0.0, 0.0, 0.0, 0.0, 0.0, 0.0, 0.0, 1.741714405277743E9, 0.0, 2025-03-11 12:33:25.277
130.0, 103445.77323743979, 9905.600238513976, -26544.998770356033, -20338.92516361775, -11343.443255834969, 7760.436267904791, -42613.33258310945, 3350.9735287396347, 13898.649978476762, 1387.3057231075434, -15284.100506794513, 22086.51865560039, -26516.544999664427, 1727.8345498841466, 54776.637825565085, 23398.163723726717, -0.134, 0.9520000000000001, -0.196, 192.0, 0.0, 0.0, 0.0, 0.0, 0.0, 0.0, 0.0, 0.0, 0.0, 1.741714405277874E9, 0.0, 2025-03-11 12:33:25.277
130.0, 103431.37871401057, 9854.593557666965, -26550.34083728085, -20346.88238464384, -11311.502613008335, 7750.377982899903, -42608.43755107374, 3348.358374638364, 13898.649978476762, 1387.3057231075434, -15284.100506794513, 22086.51865560039, -26516.544999664427, 1727.8345498841466, 54776.637825565085, 23398.163723726717, -0.134, 0.9520000000000001, -0.196, 192.0, 0.0, 0.0, 0.0, 0.0, 0.0, 0.0, 0.0, 0.0, 0.0, 1.741714405323872E9, 0.0, 2025-03-11 12:33:25.323
130.0, 103435.53613847926, 9880.521581235122, -26558.409817029216, -20354.705495203198, -11309.602714729634, 7745.77352354211, -42620.55219656852, 3338.5683105669395, 13898.649978476762, 1387.3057231075434, -15284.100506794513, 22086.51865560039, -26516.544999664427, 1727.8345498841466, 54776.637825565085, 23398.163723726717, -0.134, 0.9520000000000001, -0.196, 192.0, 0.0, 0.0, 0.0, 0.0, 0.0, 0.0, 0.0, 0.0, 0.0, 1.74171440532398E9, 0.0, 2025-03-11 12:33:25.323
134.0, 103428.24946978682, 9885.550723737566, -26540.461366231608, -20335.97473334965, -11345.164340158028, 7761.889131294386, -42599.407446313795, 3358.5284183655285, 13865.435286216174, 1370.3407490659654, -15302.160716314402, 22070.246585636927, -26526.53622943595, 1716.9045468455015, 54770.826372006704, 23389.62535734479, -0.134, 0.9520000000000001, -0.194, 192.0, 125.5, 104.0, 14.5, 96.0, 124.5, 120.0, 0.0, 0.0, 0.0, 1.741714405324069E9, 0.0, 2025-03-11 12:33:25.324
138.0, 103445.34855429514, 9845.675211629297, -26548.932677380166, -20340.132157818338, -11332.24503186286, 7755.585939357989, -42605.62123127237, 3350.0124037280566, 13833.248774200532, 1357.4437925152533, -15314.230658320268, 22061.507053554902, -26528.77140388148, 1714.0882270441327, 54766.11015392663, 23393.53691262447, -0.134, 0.9520000000000001, -0.194, 192.0, 0.0, 0.0, 0.0, 0.0, 0.0, 0.0, 0.0, 0.0, 0.0, 1.741714405324157E9, 0.0, 2025-03-11 12:33:25.324
140.0, 103433.43507450046, 9825.89391778635, -26558.49922400704, -20342.389684008325, -11314.721264209898, 7752.836674789986, -42615.92538546627, 3345.944386237191, 13819.949486249625, 1365.6021792414404, -15318.321027555588, 22063.362248344692, -26529.01727307049, 1719.1173695465768, 54703.94995259643, 23402.67877610669, -0.134, 0.9520000000000001, -0.194, 192.0, 0.0, 0.0, 0.0, 0.0, 0.0, 0.0, 0.0, 0.0, 0.0, 1.741714405324234E9, 0.0, 2025-03-11 12:33:25.324
142.0, 103421.5662981947, 9838.746170848151, -26552.754825682026, -20333.15841354828, -11325.450101548446, 7763.118477239428, -42608.996344685125, 3352.582854340417, 13818.273105415477, 1370.9889496551693, -15319.215097333801, 22068.704315269508, -26527.229133514065, 1727.5663289506829, 54755.06839216571, 23411.887694822275, -0.134, 0.9520000000000001, -0.194, 192.0, 0.0, 0.0, 0.0, 0.0, 0.0, 0.0, 0.0, 0.0, 0.0, 1.741714405422053E9, 0.0, 2025-03-11 12:33:25.422
170.0, 103432.51865297779, 9824.932792774773, -26567.01523864451, -20356.761855693087, -11328.422883561003, 7747.807532287542, -42622.58620531395, 3340.0882291899, 13815.836765269849, 1355.7897634255605, -15338.996391176748, 22054.108626140194, -26554.475910005083, 1697.8161570806692, 54726.12288309609, 23357.461197073604, -0.134, 0.9520000000000001, -0.194, 192.0, 0.0, 0.0, 0.0, 0.0, 0.0, 0.0, 0.0, 0.0, 0.0, 1.74171440542216E9, 0.0, 2025-03-11 12:33:25.422
168.0, 103439.33593503665, 9818.98722874966, -26576.514730038016, -20374.75500997961, -11348.360639615135, 7737.6821920492885, -42631.504551351616, 3329.068819173434, 13809.310055888898, 1360.058946616524, -15339.75635048823, 22055.427379063058, -26557.024008872988, 1691.4235581664514, 54757.52708405579, 23350.733321992557, -0.134, 0.9520000000000001, -0.194, 192.0, 0.0, 0.0, 0.0, 0.0, 0.0, 0.0, 0.0, 0.0, 0.0, 1.741714405422247E9, 0.0, 2025-03-11 12:33:25.422
168.0, 103431.42341749948, 9818.786063049563, -26576.2241573601, -20373.90564369031, -11368.052526480262, 7724.226441887194, -42639.50647586662, 3316.5071387895514, 13809.310055888898, 1360.058946616524, -15339.75635048823, 22055.427379063058, -26557.024008872988, 1691.4235581664514, 54757.52708405579, 23350.733321992557, -0.134, 0.9520000000000001, -0.194, 192.0, 0.0, 0.0, 0.0, 0.0, 0.0, 0.0, 0.0, 0.0, 0.0, 1.741714405422335E9, 0.0, 2025-03-11 12:33:25.422
168.0, 103431.98221111087, 9818.294324671546, -26570.792683457457, -20370.84345469993, -11349.545282071267, 7746.578186342501, -42617.802932000515, 3337.6742407887273, 13809.310055888898, 1360.058946616524, -15339.75635048823, 22055.427379063058, -26557.024008872988, 1691.4235581664514, 54757.52708405579, 23350.733321992557, -0.134, 0.9520000000000001, -0.194, 192.0, 0.0, 0.0, 0.0, 0.0, 0.0, 0.0, 0.0, 0.0, 0.0, 1.741714405422417E9, 0.0, 2025-03-11 12:33:25.422
168.0, 103443.78393218326, 9811.857022268417, -26571.619698002305, -20367.244823842626, -11319.772758456798, 7729.38969485637, -42636.936025254254, 3321.1115981473445, 13809.310055888898, 1360.058946616524, -15339.75635048823, 22055.427379063058, -26557.024008872988, 1691.4235581664514, 54757.52708405579, 23350.733321992557, -0.134, 0.9520000000000001, -0.194, 192.0, 0.0, 0.0, 0.0, 0.0, 0.0, 0.0, 0.0, 0.0, 0.0, 1.741714405422494E9, 0.0, 2025-03-11 12:33:25.422
168.0, 103419.39817898252, 9802.066958196994, -26573.631355003283, -20371.625765755864, -11329.428712061492, 7746.466427620224, -42618.94287096773, 3335.930804721213, 13809.310055888898, 1360.058946616524, -15339.75635048823, 22055.427379063058, -26557.024008872988, 1691.4235581664514, 54757.52708405579, 23350.733321992557, -0.134, 0.9520000000000001, -0.194, 192.0, 0.0, 0.0, 0.0, 0.0, 0.0, 0.0, 0.0, 0.0, 0.0, 1.741714405422569E9, 0.0, 2025-03-11 12:33:25.422
168.0, 103431.40106575502, 9835.616926624409, -26543.1659273107, -20338.07579732845, -11345.76783725832, 7761.10682023845, -42607.0070394286, 3348.4254298717296, 13809.310055888898, 1360.058946616524, -15339.75635048823, 22055.427379063058, -26557.024008872988, 1691.4235581664514, 54757.52708405579, 23350.733321992557, -0.134, 0.9520000000000001, -0.194, 192.0, 0.0, 0.0, 0.0, 0.0, 0.0, 0.0, 0.0, 0.0, 0.0, 1.741714405422644E9, 0.0, 2025-03-11 12:33:25.422
168.0, 103428.36122850911, 9811.477042612678, -26565.718837466102, -20366.574271508965, -11341.789226745275, 7749.1262852104055, -42618.831112245454, 3336.7354675216043, 13809.310055888898, 1360.058946616524, -15339.75635048823, 22055.427379063058, -26557.024008872988, 1691.4235581664514, 54757.52708405579, 23350.733321992557, -0.134, 0.9520000000000001, -0.194, 192.0, 0.0, 0.0, 0.0, 0.0, 0.0, 0.0, 0.0, 0.0, 0.0, 1.741714405446099E9, 0.0, 2025-03-11 12:33:25.446
154.0, 103430.75286516582, 9852.693659388264, -26565.54002351046, -20360.49459701712, -11349.411171604535, 7738.106875193939, -42627.32477513848, 3325.805464482959, 13784.410212565686, 1341.4175917407981, -15342.550318545142, 22047.090178381226, -26543.34474126634, 1700.654828626493, 54733.09662736615, 23379.43296187317, -0.136, 0.9540000000000001, -0.186, 192.0, 125.5, 96.0, 14.5, 104.0, 125.0, 24.0, 0.0, 0.0, 0.0, 1.741714405446222E9, 0.0, 2025-03-11 12:33:25.446
156.0, 103432.98803961136, 9811.812318779506, -26566.1211688663, -20366.194291853226, -11342.81740699022, 7739.760904283632, -42627.81651351649, 3324.5761185379174, 13796.077823171358, 1354.1357343358677, -15335.017780663704, 22046.3525708142, -26538.472060975084, 1699.6713518704596, 54719.70793243741, 23384.43975263116, -0.136, 0.9540000000000001, -0.186, 192.0, 0.0, 0.0, 0.0, 0.0, 0.0, 0.0, 0.0, 0.0, 0.0, 1.741714405510117E9, 0.0, 2025-03-11 12:33:25.510
156.0, 103422.79564413973, 9852.581900665988, -26563.908346165223, -20360.248727828115, -11294.671749433488, 7741.481988606691, -42628.46471410569, 3329.314688362442, 13796.077823171358, 1354.1357343358677, -15335.017780663704, 22046.3525708142, -26538.472060975084, 1699.6713518704596, 54719.70793243741, 23384.43975263116, -0.136, 0.9540000000000001, -0.186, 192.0, 0.0, 0.0, 0.0, 0.0, 0.0, 0.0, 0.0, 0.0, 0.0, 1.741714405526147E9, 0.0, 2025-03-11 12:33:25.526
156.0, 103435.7149524349, 9898.425328543823, -26546.473985490084, -20344.35663752039, -11330.970982428908, 7733.658878047333, -42637.58422584346, 3325.6266505273165, 13796.077823171358, 1354.1357343358677, -15335.017780663704, 22046.3525708142, -26538.472060975084, 1699.6713518704596, 54719.70793243741, 23384.43975263116, -0.136, 0.9540000000000001, -0.186, 192.0, 0.0, 0.0, 0.0, 0.0, 0.0, 0.0, 0.0, 0.0, 0.0, 1.741714405526287E9, 0.0, 2025-03-11 12:33:25.526
156.0, 103441.2134815709, 9904.72852048022, -26543.478851733074, -20341.272096785557, -11330.948630684452, 7737.503378093646, -42632.756249041115, 3328.5100255620514, 13796.077823171358, 1354.1357343358677, -15335.017780663704, 22046.3525708142, -26538.472060975084, 1699.6713518704596, 54719.70793243741, 23384.43975263116, -0.136, 0.9540000000000001, -0.186, 192.0, 0.0, 0.0, 0.0, 0.0, 0.0, 0.0, 0.0, 0.0, 0.0, 1.74171440556616E9, 0.0, 2025-03-11 12:33:25.566
156.0, 103435.58084196817, 9911.09876764998, -26550.609058214315, -20346.010666610084, -11344.76200875783, 7737.481026349191, -42638.992385744146, 3324.9560981936575, 13796.077823171358, 1354.1357343358677, -15335.017780663704, 22046.3525708142, -26538.472060975084, 1699.6713518704596, 54719.70793243741, 23384.43975263116, -0.136, 0.9540000000000001, -0.186, 192.0, 0.0, 0.0, 0.0, 0.0, 0.0, 0.0, 0.0, 0.0, 0.0, 1.741714405566315E9, 0.0, 2025-03-11 12:33:25.566
156.0, 103424.27085927378, 9894.58082849751, -26555.727607694582, -20353.722018447163, -11323.304334080736, 7735.737590281677, -42643.26156893511, 3321.223356869621, 13796.077823171358, 1354.1357343358677, -15335.017780663704, 22046.3525708142, -26538.472060975084, 1699.6713518704596, 54719.70793243741, 23384.43975263116, -0.136, 0.9540000000000001, -0.186, 192.0, 0.0, 0.0, 0.0, 0.0, 0.0, 0.0, 0.0, 0.0, 0.0, 1.741714405593235E9, 0.0, 2025-03-11 12:33:25.593
180.0, 103435.78200766827, 9882.265017302636, -26547.25629654602, -20336.958210105684, -11334.927241197496, 7741.303174651048, -42623.90495823681, 3333.5391680644952, 13855.958146567125, 1388.9821039416915, -15313.537754242154, 22074.001678705416, -26528.54788643693, 1715.2281660113533, 54767.56301731623, 23379.34355489535, -0.136, 0.9540000000000001, -0.186, 192.0, 0.0, 0.0, 0.0, 0.0, 0.0, 0.0, 0.0, 0.0, 0.0, 1.741714405593376E9, 0.0, 2025-03-11 12:33:25.593
180.0, 103435.35732452362, 9899.699377977775, -26557.046360617445, -20358.03590512704, -11341.409247089536, 7734.172968169805, -42647.15077247033, 3319.278755102009, 13855.958146567125, 1388.9821039416915, -15313.537754242154, 22074.001678705416, -26528.54788643693, 1715.2281660113533, 54767.56301731623, 23379.34355489535, -0.136, 0.9540000000000001, -0.186, 192.0, 0.0, 0.0, 0.0, 0.0, 0.0, 0.0, 0.0, 0.0, 0.0, 1.741714405623263E9, 0.0, 2025-03-11 12:33:25.623
180.0, 103426.52838546377, 9883.092031847482, -26555.995828628045, -20344.87072764286, -11304.28299954927, 7725.276973876593, -42647.12842072587, 3318.8540719573584, 13855.958146567125, 1388.9821039416915, -15313.537754242154, 22074.001678705416, -26528.54788643693, 1715.2281660113533, 54767.56301731623, 23379.34355489535, -0.136, 0.9540000000000001, -0.186, 192.0, 0.0, 0.0, 0.0, 0.0, 0.0, 0.0, 0.0, 0.0, 0.0, 1.741714405623349E9, 0.0, 2025-03-11 12:33:25.623
180.0, 103441.90638564902, 9903.67798849082, -26539.45553773112, -20328.82217512395, -11340.693991266966, 7740.297346150559, -42637.40541188782, 3326.096037160878, 13855.958146567125, 1388.9821039416915, -15313.537754242154, 22074.001678705416, -26528.54788643693, 1715.2281660113533, 54767.56301731623, 23379.34355489535, -0.136, 0.9540000000000001, -0.186, 192.0, 0.0, 0.0, 0.0, 0.0, 0.0, 0.0, 0.0, 0.0, 0.0, 1.741714405647283E9, 0.0, 2025-03-11 12:33:25.647
180.0, 103432.54100472224, 9900.325226822522, -26550.78787216996, -20339.5510124625, -11339.19642438846, 7733.189491413772, -42642.680423579266, 3325.1349121493, 13855.958146567125, 1388.9821039416915, -15313.537754242154, 22074.001678705416, -26528.54788643693, 1715.2281660113533, 54767.56301731623, 23379.34355489535, -0.136, 0.9540000000000001, -0.186, 192.0, 0.0, 0.0, 0.0, 0.0, 0.0, 0.0, 0.0, 0.0, 0.0, 1.741714405647433E9, 0.0, 2025-03-11 12:33:25.647
198.0, 103422.84034762865, 9916.15026189688, -26531.1630405382, -20322.228410509637, -11319.705703223432, 7754.960090513241, -42621.423914602274, 3345.296185647987, 13909.624685004317, 1414.284278665099, -15276.769134613174, 22098.00745225042, -26513.14753450722, 1728.9968405958225, 54717.1151300806, 23398.67781384919, -0.136, 0.9540000000000001, -0.186, 192.0, 0.0, 0.0, 0.0, 0.0, 0.0, 0.0, 0.0, 0.0, 0.0, 1.741714405685354E9, 0.0, 2025-03-11 12:33:25.685
200.0, 103431.04343784373, 9889.395223783878, -26557.29222980645, -20347.038846855026, -11329.898098695052, 7722.527709308591, -42651.129382983374, 3311.5897550093837, 13886.155353326245, 1387.059853918535, -15302.317178525589, 22082.13771368715, -26539.611999942306, 1715.7199043893702, 54766.26661613782, 23374.38146762627, -0.136, 0.9540000000000001, -0.186, 192.0, 0.0, 0.0, 0.0, 0.0, 0.0, 0.0, 0.0, 0.0, 0.0, 1.741714405772905E9, 0.0, 2025-03-11 12:33:25.772
204.0, 103442.21931007139, 9918.452491575777, -26551.39136927025, -20344.826024153954, -11348.986488459885, 7727.780369255587, -42636.936025254254, 3316.5741940229173, 13897.912370909737, 1399.5097755801412, -15294.851695877516, 22083.948204988028, -26529.464307959595, 1721.665468414482, 54761.19277014647, 23373.15212168123, -0.13, 0.96, -0.198, 192.0, 125.5, 120.0, 15.0, 0.0, 124.5, 104.0, 0.0, 0.0, 0.0, 1.741714405772995E9, 0.0, 2025-03-11 12:33:25.772
244.0, 103433.90446113402, 9900.258171589157, -26564.198918843143, -20352.090341101928, -11295.632874445066, 7722.90768896433, -42647.82132480399, 3309.6228014973167, 13903.746176212571, 1409.0539704625571, -15283.564064927587, 22092.128943458672, -26524.233999757053, 1714.2670409997752, 54713.561202712204, 23374.023839714988, -0.14, 0.96, -0.196, 192.0, 125.5, 80.0, 15.0, 0.0, 124.5, 112.0, 0.0, 0.0, 0.0, 1.741714405773084E9, 0.0, 2025-03-11 12:33:25.773
244.0, 103432.29513553323, 9902.76156696815, -26543.277686032976, -20347.97762012215, -11298.650359946532, 7724.517014565113, -42642.97099625719, 3311.2544788425544, 13903.746176212571, 1409.0539704625571, -15283.564064927587, 22092.128943458672, -26524.233999757053, 1714.2670409997752, 54713.561202712204, 23374.023839714988, -0.14, 0.96, -0.196, 192.0, 62.75, 40.0, 7.5, 0.0, 62.25, 56.0, 0.0, 0.0, 0.0, 1.741714405773172E9, 0.0, 2025-03-11 12:33:25.773
244.0, 103433.54683322273, 9912.641038017397, -26547.45746224612, -20342.970829364163, -11306.160546083516, 7725.008752943129, -42637.986557243654, 3312.349714320864, 13903.746176212571, 1409.0539704625571, -15283.564064927587, 22092.128943458672, -26524.233999757053, 1714.2670409997752, 54713.561202712204, 23374.023839714988, -0.14, 0.96, -0.196, 192.0, 31.375, 20.0, 3.75, 0.0, 31.125, 28.0, 0.0, 0.0, 0.0, 1.741714405773259E9, 0.0, 2025-03-11 12:33:25.773
248.0, 103433.85975764511, 9906.829584459017, -26528.860810859303, -20335.862974627373, -11332.647363263055, 7726.86394773292, -42635.259644420104, 3311.477996287107, 13896.235990075587, 1393.743025510672, -15291.677748164862, 22081.198940420025, -26528.92786609267, 1701.14656700451, 54714.410569001506, 23364.77021751049, -0.14, 0.96, -0.196, 192.0, 0.0, 0.0, 0.0, 0.0, 0.0, 0.0, 0.0, 0.0, 0.0, 1.74171440577334E9, 0.0, 2025-03-11 12:33:25.773
248.0, 103433.43507450046, 9894.983159897705, -26546.809261656912, -20340.55684096299, -11312.441386275457, 7731.0437239460625, -42634.499685108625, 3312.5061765320515, 13896.235990075587, 1393.743025510672, -15291.677748164862, 22081.198940420025, -26528.92786609267, 1701.14656700451, 54714.410569001506, 23364.77021751049, -0.14, 0.96, -0.196, 192.0, 0.0, 0.0, 0.0, 0.0, 0.0, 0.0, 0.0, 0.0, 0.0, 1.741714405788517E9, 0.0, 2025-03-11 12:33:25.788
252.0, 103433.05509484472, 9905.041444902594, -26521.618845655783, -20327.704587901186, -11345.879595980598, 7741.124360695406, -42628.10708619441, 3324.553766793462, 13902.740347712082, 1398.5933540574736, -15284.771059128174, 22090.966652746996, -26531.319502749386, 1699.0678547701664, 54733.23073783288, 23362.512691320502, -0.14, 0.96, -0.196, 192.0, 0.0, 0.0, 0.0, 0.0, 0.0, 0.0, 0.0, 0.0, 0.0, 1.741714405830599E9, 0.0, 2025-03-11 12:33:25.830
22.0, 103431.89280413304, 9893.507944763654, -26530.58189518236, -20328.93393384623, -11345.186691902481, 7747.382849142891, -42627.45888560521, 3327.5936040393835, 13908.551801270462, 1407.0423134615796, -15272.723468866763, 22104.735327331466, -26528.078499803367, 1714.1999857664093, 54718.41153125901, 23386.227892187584, -0.14, 0.96, -0.196, 192.0, 0.0, 0.0, 0.0, 0.0, 0.0, 0.0, 0.0, 0.0, 0.0, 1.741714405830688E9, 0.0, 2025-03-11 12:33:25.830
22.0, 103444.23096707238, 9890.490459262188, -26527.989092825545, -20324.061253554974, -11297.37631051258, 7746.757000298143, -42624.32964138146, 3323.7267522486154, 13908.551801270462, 1407.0423134615796, -15272.723468866763, 22104.735327331466, -26528.078499803367, 1714.1999857664093, 54718.41153125901, 23386.227892187584, -0.14, 0.956, -0.197, 192.0, 125.5, 80.0, 14.5, 96.0, 124.5, 104.0, 0.0, 0.0, 0.0, 1.741714405846626E9, 0.0, 2025-03-11 12:33:25.846
18.0, 103437.19016756894, 9887.115345849437, -26532.906476605713, -20325.581172177932, -11316.040017132762, 7735.223500159204, -42628.554121083514, 3313.3108393324424, 13907.94830417017, 1417.7935025445822, -15275.249215990212, 22103.19305696405, -26534.15817429521, 1719.5197009467722, 54732.73899945486, 23380.19292118465, -0.14, 0.9550000000000001, -0.1945, 192.0, 125.5, 80.0, 14.5, 104.0, 125.0, 0.0, 0.0, 0.0, 0.0, 1.741714405940809E9, 0.0, 2025-03-11 12:33:25.940
28.0, 103427.28834477525, 9891.183363340302, -26534.20287778412, -20323.88243959933, -11303.299522793237, 7741.481988606691, -42629.09056295044, 3318.4740923016184, 13891.832696417892, 1398.4368918462865, -15287.54267544063, 22088.41855387909, -26544.618790700293, 1705.7957298512138, 54791.63584609459, 23372.056886202918, -0.14, 0.9550000000000001, -0.1945, 192.0, 0.0, 0.0, 0.0, 0.0, 0.0, 0.0, 0.0, 0.0, 0.0, 1.741714405940953E9, 0.0, 2025-03-11 12:33:25.940
32.0, 103434.08327508967, 9902.716863479242, -26519.741299121535, -20314.964093561663, -11305.020607116296, 7747.941642754275, -42615.18777789924, 3327.615955783839, 13908.37298731482, 1404.1812901713004, -15271.672936877363, 22109.47389715599, -26535.879258618268, 1712.7694741212697, 54790.16063096054, 23365.91015647771, -0.14, 0.9550000000000001, -0.1945, 192.0, 0.0, 0.0, 0.0, 0.0, 0.0, 0.0, 0.0, 0.0, 0.0, 1.741714405941037E9, 0.0, 2025-03-11 12:33:25.941
34.0, 103445.88499616206, 9896.413671542845, -26522.267046244986, -20320.037939553018, -11301.243162303348, 7736.832825759987, -42623.659089047804, 3317.8929469457803, 13916.866650207836, 1413.7031333092611, -15262.218148972768, 22111.038519267862, -26525.664511402192, 1711.7859973652362, 54733.23073783288, 23366.58070881137, -0.14, 0.9550000000000001, -0.1945, 192.0, 0.0, 0.0, 0.0, 0.0, 0.0, 0.0, 0.0, 0.0, 0.0, 1.741714405941118E9, 0.0, 2025-03-11 12:33:25.941
38.0, 103426.17075755248, 9889.842258672985, -26528.10085154782, -20318.83094535243, -11313.871897920597, 7749.796837544065, -42620.2616238906, 3323.9726214376237, 13916.37491182982, 1408.249307662166, -15265.079172263047, 22107.66340585511, -26527.96674108109, 1717.3962852235181, 54738.662211735515, 23377.06367696091, -0.14, 0.9550000000000001, -0.1945, 192.0, 0.0, 0.0, 0.0, 0.0, 0.0, 0.0, 0.0, 0.0, 0.0, 1.741714405941198E9, 0.0, 2025-03-11 12:33:25.941
40.0, 103435.06675184569, 9881.929741135806, -26532.34768299433, -20323.569515176954, -11311.86024091962, 7752.032011989595, -42621.87094949138, 3328.778246495515, 13905.37785355781, 1399.643886046873, -15274.265739234179, 22098.700356328533, -26538.24854353053, 1720.9725643363672, 54777.9789302324, 23374.82850251538, -0.14, 0.9550000000000001, -0.1945, 192.0, 0.0, 0.0, 0.0, 0.0, 0.0, 0.0, 0.0, 0.0, 0.0, 1.741714405941286E9, 0.0, 2025-03-11 12:33:25.941
42.0, 103444.78976068375, 9884.14256383688, -26529.419604470684, -20324.865916355364, -11321.04680789075, 7749.260395677137, -42625.08960069294, 3325.581947038406, 13907.165993114233, 1406.9082029948477, -15270.890625821428, 22097.694527828044, -26535.432223729164, 1715.786959622736, 54744.764237971816, 23380.99758398504, -0.14, 0.9550000000000001, -0.1945, 192.0, 0.0, 0.0, 0.0, 0.0, 0.0, 0.0, 0.0, 0.0, 0.0, 1.741714406004886E9, 0.0, 2025-03-11 12:33:26.004
72.0, 103436.85489140212, 9879.113421334438, -26536.572162696382, -20332.77843389254, -11299.23150530237, 7739.738552539176, -42635.34905139793, 3314.361371321842, 13921.202888632166, 1409.6574675628506, -15257.345468681511, 22108.691586100053, -26494.707345331593, 1732.9754511088672, 54740.271537336295, 23390.742944567555, -0.14, 0.9550000000000001, -0.1945, 192.0, 0.0, 0.0, 0.0, 0.0, 0.0, 0.0, 0.0, 0.0, 0.0, 1.741714406045916E9, 0.0, 2025-03-11 12:33:26.045
70.0, 103424.44967322942, 9877.14646782237, -26525.753918380015, -20319.97088431965, -11314.47539502089, 7750.288575922082, -42625.38017337086, 3324.5761185379174, 13907.993007659079, 1400.7167697807276, -15270.3541839545, 22096.71105107201, -26506.263197214987, 1717.105712545599, 54801.18004097701, 23385.892616020756, -0.14100000000000001, 0.9555, -0.19225, 192.0, 125.5, 72.0, 14.5, 112.0, 125.0, 8.0, 0.0, 0.0, 0.0, 1.741714406046044E9, 0.0, 2025-03-11 12:33:26.046
58.0, 103423.82382438467, 9894.87140117543, -26517.215551998088, -20324.016550066062, -11317.515232266813, 7752.903730023352, -42615.6571645328, 3333.4497610866742, 13876.477047977096, 1390.613781286929, -15296.237504033747, 22079.164931674593, -26533.219401028087, 1698.754930347792, 54764.947863214955, 23354.86839471679, -0.14100000000000001, 0.9555, -0.19225, 192.0, 0.0, 0.0, 0.0, 0.0, 0.0, 0.0, 0.0, 0.0, 0.0, 1.741714406164178E9, 0.0, 2025-03-11 12:33:26.164
62.0, 103443.53806299425, 9875.470086988222, -26537.801508641423, -20350.972753879163, -11340.33636335568, 7744.566529341523, -42623.81555125899, 3326.7889412389927, 13907.747138470071, 1415.2901071655879, -15274.69042237883, 22100.64495809614, -26506.889046059736, 1716.7480846343142, 54768.233569649885, 23387.59134859936, -0.14100000000000001, 0.9555, -0.19225, 192.0, 0.0, 0.0, 0.0, 0.0, 0.0, 0.0, 0.0, 0.0, 0.0, 1.741714406164318E9, 0.0, 2025-03-11 12:33:26.164
62.0, 103434.37384776758, 9954.863483293473, -26527.273837002977, -20329.157451290783, -11312.262572319814, 7761.464448149735, -42597.37343756836, 3356.4720578756405, 13907.747138470071, 1415.2901071655879, -15274.69042237883, 22100.64495809614, -26506.889046059736, 1716.7480846343142, 54768.233569649885, 23387.59134859936, -0.1375, 0.95475, -0.193125, 192.0, 125.5, 104.0, 14.5, 104.0, 124.5, 120.0, 0.0, 0.0, 0.0, 1.741714406164396E9, 0.0, 2025-03-11 12:33:26.164
62.0, 103425.58961219665, 9946.280413422635, -26536.281590018465, -20332.621971681354, -11290.268455775793, 7758.089334736984, -42602.38022832635, 3354.192179941199, 13907.747138470071, 1415.2901071655879, -15274.69042237883, 22100.64495809614, -26506.889046059736, 1716.7480846343142, 54768.233569649885, 23387.59134859936, -0.1375, 0.95475, -0.193125, 192.0, 62.75, 52.0, 7.25, 52.0, 62.25, 60.0, 0.0, 0.0, 0.0, 1.741714406164484E9, 0.0, 2025-03-11 12:33:26.164
74.0, 103434.88793789005, 9930.500081837188, -26543.92588662218, -20338.209907795183, -11316.062368877218, 7750.042706733073, -42609.06339991849, 3347.8889880048023, 13915.167917629233, 1413.7254850537165, -15264.185102484835, 22099.728536573475, -26500.608205867793, 1728.6168609400822, 54810.63482888161, 23381.221101429594, -0.1375, 0.95475, -0.193125, 192.0, 0.0, 0.0, 0.0, 0.0, 0.0, 0.0, 0.0, 0.0, 0.0, 1.741714406164564E9, 0.0, 2025-03-11 12:33:26.164
76.0, 103447.78489444076, 9936.378590628934, -26546.429282001172, -20342.769663664065, -11300.170278569494, 7750.86972127792, -42610.47155981917, 3350.23592117261, 13910.295237337976, 1409.8586332629484, -15266.375573441455, 22097.493362127945, -26495.310842431885, 1729.309765018197, 54752.14031364206, 23380.57290084039, -0.1375, 0.95475, -0.193125, 192.0, 0.0, 0.0, 0.0, 0.0, 0.0, 0.0, 0.0, 0.0, 0.0, 1.741714406164644E9, 0.0, 2025-03-11 12:33:26.164
78.0, 103423.60030694012, 9931.662372548864, -26539.88022087577, -20330.78912863602, -11324.265459092316, 7754.982442257696, -42614.31605986549, 3349.3418513943975, 13911.457528049652, 1401.2755633921104, -15274.891588078928, 22088.016222478895, -26502.15047623521, 1729.2874132737415, 54811.70771261546, 23376.504883349524, -0.1375, 0.95475, -0.193125, 192.0, 0.0, 0.0, 0.0, 0.0, 0.0, 0.0, 0.0, 0.0, 0.0, 1.741714406164727E9, 0.0, 2025-03-11 12:33:26.164
104.0, 103435.35732452362, 9929.784826014618, -26552.30779079292, -20339.93099211824, -11293.688272677455, 7746.466427620224, -42622.04976344702, 3340.6246710568275, 13930.14358641429, 1411.8926420083812, -15264.92271005186, 22093.85002778173, -26496.897816288212, 1709.7519886198031, 54791.41232865004, 23391.90523527923, -0.1375, 0.95475, -0.193125, 192.0, 0.0, 0.0, 0.0, 0.0, 0.0, 0.0, 0.0, 0.0, 0.0, 1.74171440616481E9, 0.0, 2025-03-11 12:33:26.164
98.0, 103433.32331577818, 9945.185177944324, -26530.87246786028, -20345.295410787512, -11330.345133584158, 7746.332317153492, -42610.56096679699, 3334.0532581869675, 13928.37779860232, 1420.833339790504, -15267.806085086595, 22100.354385418224, -26503.133952991244, 1728.0580673286997, 54776.72723254291, 23389.938281767165, -0.1375, 0.95475, -0.193125, 192.0, 0.0, 0.0, 0.0, 0.0, 0.0, 0.0, 0.0, 0.0, 0.0, 1.741714406300415E9, 0.0, 2025-03-11 12:33:26.300
108.0, 103436.34080127964, 9945.676916322342, -26521.261217744497, -20326.58700067842, -11322.43261604698, 7764.72780284021, -42594.28889683353, 3348.80540952747, 13931.909374226258, 1423.962584014247, -15266.666146119374, 22094.185303948558, -26491.08636272983, 1719.8102736246913, 54798.162555475545, 23402.16468598422, -0.1375, 0.95475, -0.193125, 192.0, 0.0, 0.0, 0.0, 0.0, 0.0, 0.0, 0.0, 0.0, 0.0, 1.741714406300534E9, 0.0, 2025-03-11 12:33:26.300
110.0, 103435.06675184569, 9936.959735984772, -26540.19314529814, -20333.35957924838, -11331.61918301811, 7746.511131109135, -42612.01383018659, 3332.913319219747, 13939.553670829973, 1432.9479852852805, -15261.480541405743, 22107.641054110652, -26485.76664754947, 1736.9987651108224, 54750.86626420811, 23407.953787798142, -0.1375, 0.95475, -0.193125, 192.0, 0.0, 0.0, 0.0, 0.0, 0.0, 0.0, 0.0, 0.0, 0.0, 1.741714406300619E9, 0.0, 2025-03-11 12:33:26.300
122.0, 103444.18626358346, 9923.168709655847, -26554.185337327166, -20351.240974812627, -11298.650359946532, 7731.110779179428, -42628.352955383416, 3319.0552376574565, 13923.460414822152, 1418.6875723227945, -15279.11606778098, 22095.12407721568, -26509.68301411665, 1717.5080439457947, 54740.04801989174, 23383.523331108492, -0.1375, 0.95475, -0.193125, 192.0, 0.0, 0.0, 0.0, 0.0, 0.0, 0.0, 0.0, 0.0, 0.0, 1.74171440630069E9, 0.0, 2025-03-11 12:33:26.300
126.0, 103434.6644204455, 9937.742047040707, -26539.857869131312, -20327.346959989904, -11298.717415179899, 7737.257508904638, -42628.062382705495, 3319.3681620798307, 13922.991028188591, 1424.6331363479062, -15278.981957314249, 22092.955958003517, -26513.795735096424, 1720.212605024887, 54740.94208966996, 23388.418363144203, -0.1375, 0.95475, -0.193125, 192.0, 0.0, 0.0, 0.0, 0.0, 0.0, 0.0, 0.0, 0.0, 0.0, 1.741714406300776E9, 0.0, 2025-03-11 12:33:26.300
128.0, 103431.53517622176, 9916.016151430149, -26547.59157271285, -20326.497593700602, -11325.38304631508, 7746.511131109135, -42621.33450762445, 3327.6606592727494, 13912.865687950336, 1403.80131051556, -15288.235579518747, 22086.5633590893, -26528.033796314456, 1719.4749974578617, 54803.616381122636, 23381.735191552067, -0.1375, 0.95475, -0.193125, 192.0, 0.0, 0.0, 0.0, 0.0, 0.0, 0.0, 0.0, 0.0, 0.0, 1.741714406300849E9, 0.0, 2025-03-11 12:33:26.300
128.0, 103444.09685660564, 9946.794503545107, -26530.20191552662, -20318.182744763228, -11330.591002773166, 7752.791971301076, -42614.98661219914, 3334.030906442512, 13912.865687950336, 1403.80131051556, -15288.235579518747, 22086.5633590893, -26528.033796314456, 1719.4749974578617, 54803.616381122636, 23381.735191552067, -0.13575, 0.9553750000000001, -0.1975625, 192.0, 125.5, 104.0, 14.5, 112.0, 124.5, 88.0, 0.0, 0.0, 0.0, 1.741714406300931E9, 0.0, 2025-03-11 12:33:26.300
128.0, 103445.05798161721, 9909.645904260386, -26546.58574421236, -20327.995160579107, -11311.703778708432, 7742.957203740741, -42626.184836171255, 3324.7325807491043, 13912.865687950336, 1403.80131051556, -15288.235579518747, 22086.5633590893, -26528.033796314456, 1719.4749974578617, 54803.616381122636, 23381.735191552067, -0.13575, 0.9553750000000001, -0.1975625, 192.0, 62.75, 52.0, 7.25, 56.0, 62.25, 44.0, 0.0, 0.0, 0.0, 1.741714406316442E9, 0.0, 2025-03-11 12:33:26.316
132.0, 103439.06771410319, 9917.066683419549, -26541.73541566556, -20325.514116944567, -11326.724150982398, 7745.460599119735, -42624.4637518482, 3326.4983685610737, 13901.667463978227, 1399.5097755801412, -15290.82838187556, 22077.66736479609, -26531.20774402711, 1713.4176747104734, 54809.15961374756, 23371.274575146985, -0.13575, 0.9553750000000001, -0.1975625, 192.0, 0.0, 0.0, 0.0, 0.0, 0.0, 0.0, 0.0, 0.0, 0.0, 1.741714406379566E9, 0.0, 2025-03-11 12:33:26.379
132.0, 103431.31165877721, 9930.63419230392, -26540.26020053151, -20331.92906760324, -11298.00215935733, 7740.900843250853, -42627.14596118283, 3325.1125604048448, 13901.667463978227, 1399.5097755801412, -15290.82838187556, 22077.66736479609, -26531.20774402711, 1713.4176747104734, 54809.15961374756, 23371.274575146985, -0.13575, 0.9553750000000001, -0.1975625, 192.0, 0.0, 0.0, 0.0, 0.0, 0.0, 0.0, 0.0, 0.0, 0.0, 1.741714406379696E9, 0.0, 2025-03-11 12:33:26.379
132.0, 103428.42828374247, 9952.91888152586, -26516.500296175516, -20307.25274172458, -11310.317970552203, 7762.91731153933, -42599.8544812029, 3348.961871738657, 13901.667463978227, 1399.5097755801412, -15290.82838187556, 22077.66736479609, -26531.20774402711, 1713.4176747104734, 54809.15961374756, 23371.274575146985, -0.13575, 0.9553750000000001, -0.1975625, 192.0, 0.0, 0.0, 0.0, 0.0, 0.0, 0.0, 0.0, 0.0, 0.0, 1.741714406379779E9, 0.0, 2025-03-11 12:33:26.379
136.0, 103435.26791754579, 9924.129834667425, -26541.467194732097, -20332.756082148087, -11310.04974961874, 7742.152540940349, -42620.10516167941, 3330.4322755852077, 13916.151394385266, 1406.8187960170264, -15279.518399181175, 22083.076486954273, -26519.137802021243, 1718.2903550017304, 54787.120793714625, 23373.062714703407, -0.13687500000000002, 0.9546875000000001, -0.19978125000000002, 192.0, 125.5, 88.0, 14.5, 104.0, 124.5, 88.0, 0.0, 0.0, 0.0, 1.741714406379854E9, 0.0, 2025-03-11 12:33:26.379
136.0, 103424.13674880705, 9931.550613826586, -26532.750014394525, -20330.431500724735, -11342.929165712496, 7748.679250321299, -42611.96912669768, 3334.299127375976, 13916.151394385266, 1406.8187960170264, -15279.518399181175, 22083.076486954273, -26519.137802021243, 1718.2903550017304, 54787.120793714625, 23373.062714703407, -0.13687500000000002, 0.9546875000000001, -0.19978125000000002, 192.0, 62.75, 44.0, 7.25, 52.0, 62.25, 44.0, 0.0, 0.0, 0.0, 1.741714406379941E9, 0.0, 2025-03-11 12:33:26.379
136.0, 103440.98996412635, 9913.177479884325, -26551.10079659233, -20340.22156479616, -11318.364598556114, 7736.475197848702, -42628.688231550244, 3320.865728958336, 13916.151394385266, 1406.8187960170264, -15279.518399181175, 22083.076486954273, -26519.137802021243, 1718.2903550017304, 54787.120793714625, 23373.062714703407, -0.13687500000000002, 0.9546875000000001, -0.19978125000000002, 192.0, 31.375, 22.0, 3.625, 26.0, 31.125, 22.0, 0.0, 0.0, 0.0, 1.741714406380017E9, 0.0, 2025-03-11 12:33:26.380
136.0, 103435.93846987945, 9914.607991529465, -26552.464253004106, -20346.480053243646, -11311.726130452887, 7724.494662820657, -42635.37140314238, 3311.6121067538393, 13916.151394385266, 1406.8187960170264, -15279.518399181175, 22083.076486954273, -26519.137802021243, 1718.2903550017304, 54787.120793714625, 23373.062714703407, -0.13743750000000002, 0.9553437500000002, -0.19889062500000002, 192.0, 141.1875, 99.0, 16.3125, 125.0, 140.0625, 115.0, 0.0, 0.0, 0.0, 1.741714406416522E9, 0.0, 2025-03-11 12:33:26.416
136.0, 103426.48368197486, 9959.356183928989, -26520.009520055, -20305.06227076796, -11332.24503186286, 7760.302157438059, -42606.135321394846, 3345.989089726101, 13916.151394385266, 1406.8187960170264, -15279.518399181175, 22083.076486954273, -26519.137802021243, 1718.2903550017304, 54787.120793714625, 23373.062714703407, -0.13743750000000002, 0.9553437500000002, -0.19889062500000002, 192.0, 70.59375, 49.5, 8.15625, 62.5, 70.03125, 57.5, 0.0, 0.0, 0.0, 1.741714406416718E9, 0.0, 2025-03-11 12:33:26.416
154.0, 103442.48753100485, 9934.277526650134, -26532.705310905614, -20320.194401764205, -11338.347058099158, 7753.48487537919, -42612.77378949807, 3337.51777857754, 13930.32240036993, 1428.6340986054063, -15268.767210098173, 22104.109478486716, -26513.169886251675, 1720.5478811917164, 54766.06545043772, 23398.7225173381, -0.13743750000000002, 0.9553437500000002, -0.19889062500000002, 192.0, 0.0, 0.0, 0.0, 0.0, 0.0, 0.0, 0.0, 0.0, 0.0, 1.741714406416844E9, 0.0, 2025-03-11 12:33:26.416
162.0, 103445.50501650633, 9935.842148762005, -26522.62467415627, -20324.418881466256, -11323.326685825192, 7752.277881178604, -42604.794216727525, 3337.227205899621, 13920.666446765239, 1421.1686159573337, -15274.042221789627, 22099.99675750694, -26506.35260419281, 1710.1990235089092, 54781.01876747832, 23388.373659655295, -0.13743750000000002, 0.9553437500000002, -0.19889062500000002, 192.0, 0.0, 0.0, 0.0, 0.0, 0.0, 0.0, 0.0, 0.0, 0.0, 1.741714406463655E9, 0.0, 2025-03-11 12:33:26.463
164.0, 103437.8160164137, 9926.119139923947, -26527.72087189208, -20330.856183869386, -11271.247121244327, 7743.337183396481, -42615.50070232162, 3327.8171214839367, 13927.57313580193, 1428.120008482934, -15266.129704252447, 22108.490420399958, -26500.049412256412, 1719.1620730354873, 54727.0169528743, 23392.508732379527, -0.13743750000000002, 0.9553437500000002, -0.19889062500000002, 192.0, 0.0, 0.0, 0.0, 0.0, 0.0, 0.0, 0.0, 0.0, 0.0, 1.741714406463809E9, 0.0, 2025-03-11 12:33:26.463
166.0, 103433.03274310027, 9920.799424743584, -26540.68488367616, -20337.204079294694, -11292.056595332217, 7727.065113433017, -42627.637699560844, 3314.584888766395, 13928.176632902221, 1421.906223524359, -15270.510646165687, 22099.527370873377, -26509.280682716453, 1710.6013549091049, 54790.09357572718, 23384.66327007571, -0.13743750000000002, 0.9553437500000002, -0.19889062500000002, 192.0, 0.0, 0.0, 0.0, 0.0, 0.0, 0.0, 0.0, 0.0, 0.0, 1.741714406532828E9, 0.0, 2025-03-11 12:33:26.532
170.0, 103442.75575193833, 9927.951982969284, -26536.862735374303, -20329.82800362444, -11333.675543508, 7735.6258315594005, -42616.953565711214, 3324.509063304551, 13915.100862395868, 1411.6914763082834, -15280.837152104039, 22096.442830138545, -26516.522647919974, 1703.4711484278619, 54797.961389775446, 23373.487397848057, -0.13743750000000002, 0.9553437500000002, -0.19889062500000002, 192.0, 0.0, 0.0, 0.0, 0.0, 0.0, 0.0, 0.0, 0.0, 0.0, 1.741714406532995E9, 0.0, 2025-03-11 12:33:26.532
172.0, 103435.17851056797, 9929.874232992439, -26536.30394176292, -20327.83869836792, -11284.032319072761, 7746.91346250933, -42614.8077982435, 3330.968717452135, 13923.929801455713, 1428.8352643055039, -15272.611710144487, 22107.059908754818, -26509.928883305656, 1713.4176747104734, 54725.7652551848, 23385.08795322036, -0.13743750000000002, 0.9553437500000002, -0.19889062500000002, 192.0, 0.0, 0.0, 0.0, 0.0, 0.0, 0.0, 0.0, 0.0, 0.0, 1.74171440653313E9, 0.0, 2025-03-11 12:33:26.533
172.0, 103426.17075755248, 9920.084168921014, -26537.220363285585, -20326.87757335634, -11312.754310697832, 7735.737590281677, -42618.31702212298, 3319.815196968937, 13923.929801455713, 1428.8352643055039, -15272.611710144487, 22107.059908754818, -26509.928883305656, 1713.4176747104734, 54725.7652551848, 23385.08795322036, -0.13743750000000002, 0.9553437500000002, -0.19889062500000002, 192.0, 0.0, 0.0, 0.0, 0.0, 0.0, 0.0, 0.0, 0.0, 0.0, 1.741714406533256E9, 0.0, 2025-03-11 12:33:26.533
172.0, 103436.63137395757, 9918.027808431127, -26539.187316797656, -20323.368349476856, -11297.219848301393, 7742.152540940349, -42616.21595814419, 3323.123255148322, 13923.929801455713, 1428.8352643055039, -15272.611710144487, 22107.059908754818, -26509.928883305656, 1713.4176747104734, 54725.7652551848, 23385.08795322036, -0.13743750000000002, 0.9553437500000002, -0.19889062500000002, 192.0, 0.0, 0.0, 0.0, 0.0, 0.0, 0.0, 0.0, 0.0, 0.0, 1.741714406533383E9, 0.0, 2025-03-11 12:33:26.533
172.0, 103423.5108999623, 9902.895677434883, -26539.38848249775, -20318.316855229958, -11289.508496464312, 7743.918328752319, -42625.33546988195, 3316.5071387895514, 13923.929801455713, 1428.8352643055039, -15272.611710144487, 22107.059908754818, -26509.928883305656, 1713.4176747104734, 54725.7652551848, 23385.08795322036, -0.13743750000000002, 0.9553437500000002, -0.19889062500000002, 192.0, 0.0, 0.0, 0.0, 0.0, 0.0, 0.0, 0.0, 0.0, 0.0, 1.741714406533509E9, 0.0, 2025-03-11 12:33:26.533
172.0, 103445.34855429514, 9929.516605081155, -26529.129031792767, -20313.77945110553, -11310.161508341016, 7748.075753221006, -42610.382152841354, 3334.187368653699, 13923.929801455713, 1428.8352643055039, -15272.611710144487, 22107.059908754818, -26509.928883305656, 1713.4176747104734, 54725.7652551848, 23385.08795322036, -0.13743750000000002, 0.9553437500000002, -0.19889062500000002, 192.0, 0.0, 0.0, 0.0, 0.0, 0.0, 0.0, 0.0, 0.0, 0.0, 1.741714406533629E9, 0.0, 2025-03-11 12:33:26.533
192.0, 103435.53613847926, 9927.34848586899, -26524.502220690516, -20317.02045405155, -11302.76308092631, 7744.655936319344, -42613.22082438717, 3325.6042987828614, 13918.364217086342, 1418.5981653449733, -15269.191893242823, 22103.863609297707, -26519.67424388817, 1712.858881099091, 54755.40366833254, 23388.597177099848, -0.13743750000000002, 0.9553437500000002, -0.19889062500000002, 192.0, 0.0, 0.0, 0.0, 0.0, 0.0, 0.0, 0.0, 0.0, 0.0, 1.741714406533765E9, 0.0, 2025-03-11 12:33:26.533
186.0, 103435.33497277916, 9905.019093158138, -26527.67616840317, -20313.82415459444, -11313.380159542581, 7750.91442476683, -42609.97982144116, 3329.4040953402637, 13913.37977807281, 1411.669124563828, -15275.204512501303, 22100.823772051786, -26515.919150819678, 1711.8977560875126, 54783.94684600197, 23373.330935636874, -0.13771875, 0.9556718750000002, -0.19744531250000003, 192.0, 125.5, 88.0, 14.5, 112.0, 124.5, 112.0, 0.0, 0.0, 0.0, 1.741714406533888E9, 0.0, 2025-03-11 12:33:26.533
188.0, 103432.65276344452, 9912.641038017397, -26532.61590392779, -20318.629779652332, -11308.887458907064, 7744.566529341523, -42609.19751038522, 3328.5323773065065, 13927.237859635099, 1427.9411945272916, -15259.223015215757, 22115.687682114563, -26505.458534414596, 1721.687820158937, 54746.23945310587, 23392.35227016834, -0.13771875, 0.9556718750000002, -0.19744531250000003, 192.0, 0.0, 0.0, 0.0, 0.0, 0.0, 0.0, 0.0, 0.0, 0.0, 1.741714406556816E9, 0.0, 2025-03-11 12:33:26.556
216.0, 103438.665382703, 9903.923857679827, -26523.697557890126, -20318.696834885697, -11313.402511287035, 7749.573320099512, -42615.277184877064, 3319.390513824286, 13904.32732156841, 1407.2434791616774, -15275.942120068326, 22102.09782148574, -26530.850116115824, 1707.2262414963534, 54790.78647980529, 23371.431037358172, -0.13771875, 0.9556718750000002, -0.19744531250000003, 192.0, 0.0, 0.0, 0.0, 0.0, 0.0, 0.0, 0.0, 0.0, 0.0, 1.741714406604895E9, 0.0, 2025-03-11 12:33:26.604
204.0, 103446.37673454008, 9911.255229861168, -26521.77530786697, -20313.287712727513, -11278.109106792106, 7750.221520688716, -42613.109065664896, 3322.743275492582, 13901.622760489317, 1415.513624610141, -15279.585454414542, 22099.884998784662, -26525.418642213186, 1708.9249740749567, 54773.24036040788, 23367.988868712055, -0.13771875, 0.9556718750000002, -0.19744531250000003, 192.0, 0.0, 0.0, 0.0, 0.0, 0.0, 0.0, 0.0, 0.0, 0.0, 1.741714406605061E9, 0.0, 2025-03-11 12:33:26.605
212.0, 103433.23390880036, 9907.343674581489, -26522.803488111913, -20320.127346530837, -11322.522023024801, 7741.77256128461, -42612.974955198166, 3322.9220894482246, 13908.551801270462, 1412.9208222533252, -15274.869236334473, 22108.378661677678, -26521.82001135588, 1708.7238083748591, 54771.385165618085, 23364.47964483257, -0.13771875, 0.9556718750000002, -0.19744531250000003, 192.0, 0.0, 0.0, 0.0, 0.0, 0.0, 0.0, 0.0, 0.0, 0.0, 1.741714406605198E9, 0.0, 2025-03-11 12:33:26.605
214.0, 103431.89280413304, 9907.075453648025, -26522.669377645183, -20314.092375527904, -11322.074988135695, 7748.34397415447, -42611.52209180857, 3325.3360778493975, 13908.03771114799, 1411.8926420083812, -15272.902282822406, 22109.09391750025, -26523.496392190027, 1710.1319682755434, 54722.01016211631, 23368.145330923242, -0.137859375, 0.9548359375000002, -0.19672265625000002, 192.0, 125.5, 88.0, 14.5, 104.0, 124.5, 112.0, 0.0, 0.0, 0.0, 1.741714406697021E9, 0.0, 2025-03-11 12:33:26.697
222.0, 103425.47785347437, 9908.595372270987, -26518.06491828739, -20314.20413425018, -11274.28695849025, 7755.29536668007, -42610.40450458581, 3326.118388905333, 13926.366141601342, 1430.0199067616352, -15259.357125682489, 22120.940342061564, -26502.843380313323, 1732.3496022641186, 54718.72445568138, 23398.096668493352, -0.137859375, 0.9548359375000002, -0.19672265625000002, 192.0, 0.0, 0.0, 0.0, 0.0, 0.0, 0.0, 0.0, 0.0, 0.0, 1.741714406697151E9, 0.0, 2025-03-11 12:33:26.697
222.0, 103441.66051646, 9858.058078057538, -26550.989037870055, -20346.54710847701, -11335.486034808879, 7734.8658722479195, -42630.230501917664, 3304.7948246949704, 13926.366141601342, 1430.0199067616352, -15259.357125682489, 22120.940342061564, -26502.843380313323, 1732.3496022641186, 54718.72445568138, 23398.096668493352, -0.1399296875, 0.9594179687500001, -0.193361328125, 192.0, 125.5, 72.0, 15.0, 16.0, 125.0, 8.0, 0.0, 0.0, 0.0, 1.741714406743216E9, 0.0, 2025-03-11 12:33:26.743
222.0, 103434.32914427867, 9890.378700539912, -26539.25437203102, -20333.02430308155, -11319.951572412441, 7737.369267626914, -42631.079868206965, 3307.231164840599, 13926.366141601342, 1430.0199067616352, -15259.357125682489, 22120.940342061564, -26502.843380313323, 1732.3496022641186, 54718.72445568138, 23398.096668493352, -0.1399296875, 0.9594179687500001, -0.193361328125, 192.0, 62.75, 36.0, 7.5, 8.0, 62.5, 4.0, 0.0, 0.0, 0.0, 1.741714406743327E9, 0.0, 2025-03-11 12:33:26.743
226.0, 103434.68677218996, 9870.396240996866, -26539.924924364677, -20330.11857630236, -11282.132420794062, 7741.347878139959, -42624.24023440364, 3309.801615452959, 13894.917237152726, 1408.5845838289958, -15287.766192885185, 22091.503094613923, -26526.49152594704, 1708.8802705860462, 54736.38233380108, 23366.938336722655, -0.1399296875, 0.9594179687500001, -0.193361328125, 192.0, 0.0, 0.0, 0.0, 0.0, 0.0, 0.0, 0.0, 0.0, 0.0, 1.741714406790186E9, 0.0, 2025-03-11 12:33:26.790
228.0, 103435.44673150143, 9902.403939056867, -26524.8598486018, -20309.55497140348, -11307.14402283955, 7757.731706825699, -42614.00313544311, 3323.9949731820793, 13899.029958132502, 1418.128778711412, -15283.385250971944, 22097.18043770557, -26523.40698521221, 1717.3515817346076, 54788.26073268184, 23372.973307725588, -0.1399296875, 0.9594179687500001, -0.193361328125, 192.0, 0.0, 0.0, 0.0, 0.0, 0.0, 0.0, 0.0, 0.0, 0.0, 1.741714406815232E9, 0.0, 2025-03-11 12:33:26.815
228.0, 103422.0133330838, 9890.333997051, -26533.666435917192, -20317.445137196202, -11339.732866255388, 7751.294404422571, -42618.45113258972, 3316.7306562341046, 13899.029958132502, 1418.128778711412, -15283.385250971944, 22097.18043770557, -26523.40698521221, 1717.3515817346076, 54788.26073268184, 23372.973307725588, -0.1399296875, 0.9594179687500001, -0.193361328125, 192.0, 0.0, 0.0, 0.0, 0.0, 0.0, 0.0, 0.0, 0.0, 0.0, 1.741714406815325E9, 0.0, 2025-03-11 12:33:26.815
228.0, 103435.60319371262, 9862.461371715233, -26563.036628131467, -20342.322628774957, -11301.757252425821, 7729.300287878548, -42646.748441070136, 3291.607295466339, 13899.029958132502, 1418.128778711412, -15283.385250971944, 22097.18043770557, -26523.40698521221, 1717.3515817346076, 54788.26073268184, 23372.973307725588, -0.1399296875, 0.9594179687500001, -0.193361328125, 192.0, 0.0, 0.0, 0.0, 0.0, 0.0, 0.0, 0.0, 0.0, 0.0, 1.741714406831279E9, 0.0, 2025-03-11 12:33:26.831
232.0, 103440.58763272615, 9880.298063790568, -26546.92102037919, -20325.35765473338, -11339.822273233209, 7741.4372851177795, -42632.80095253002, 3305.1301008618, 13884.054289347445, 1401.8790604924036, -15299.16558255739, 22088.150332945628, -26539.76846215349, 1710.757817120292, 54779.25297966635, 23358.75759825201, -0.1399296875, 0.9594179687500001, -0.193361328125, 192.0, 0.0, 0.0, 0.0, 0.0, 0.0, 0.0, 0.0, 0.0, 0.0, 1.741714406861316E9, 0.0, 2025-03-11 12:33:26.861
234.0, 103446.24262407335, 9873.234912542692, -26556.73343619507, -20336.08649207193, -11327.327648082692, 7732.742456524666, -42643.798010802035, 3294.2448013120656, 13888.524638238507, 1407.42229311732, -15297.64566393443, 22091.32428065828, -26539.544944708938, 1710.0425612977222, 54736.87407217909, 23362.937374465153, -0.1399296875, 0.9594179687500001, -0.193361328125, 192.0, 0.0, 0.0, 0.0, 0.0, 0.0, 0.0, 0.0, 0.0, 0.0, 1.741714406926398E9, 0.0, 2025-03-11 12:33:26.926
234.0, 103432.65276344452, 9882.063851602537, -26547.949200624134, -20327.45871871218, -11283.764098139298, 7742.152540940349, -42630.72224029568, 3308.125234618811, 13888.524638238507, 1407.42229311732, -15297.64566393443, 22091.32428065828, -26539.544944708938, 1710.0425612977222, 54736.87407217909, 23362.937374465153, -0.13896484375, 0.9577089843750001, -0.1906806640625, 192.0, 125.5, 88.0, 14.5, 112.0, 125.0, 16.0, 0.0, 0.0, 0.0, 1.741714406926589E9, 0.0, 2025-03-11 12:33:26.926
234.0, 103435.26791754579, 9879.582807967998, -26554.118282093797, -20329.045692568507, -11319.772758456798, 7738.9115379943305, -42634.45498161972, 3305.1077491173446, 13888.524638238507, 1407.42229311732, -15297.64566393443, 22091.32428065828, -26539.544944708938, 1710.0425612977222, 54736.87407217909, 23362.937374465153, -0.138482421875, 0.9548544921875001, -0.19034033203125, 192.0, 188.25, 132.0, 21.75, 152.0, 187.5, 16.0, 0.0, 0.0, 0.0, 1.741714406926735E9, 0.0, 2025-03-11 12:33:26.926
238.0, 103422.84034762865, 9892.81504068554, -26527.63146491426, -20308.951474303183, -11328.109959138628, 7765.82303831852, -42603.8554434604, 3333.0474296864786, 13880.053327089945, 1404.2036419157555, -15304.50764948221, 22086.116324200193, -26544.30586627792, 1710.9589828203898, 54744.49601703835, 23361.797435497934, -0.138482421875, 0.9548544921875001, -0.19034033203125, 192.0, 0.0, 0.0, 0.0, 0.0, 0.0, 0.0, 0.0, 0.0, 0.0, 1.741714406958461E9, 0.0, 2025-03-11 12:33:26.958
26.0, 103433.07744658917, 9867.401107239855, -26553.62654371578, -20330.900887358297, -11288.256798774815, 7742.0854857069835, -42626.96714722719, 3307.3652753073306, 13864.541216437963, 1393.7653772551273, -15314.923562398382, 22063.630469278156, -26537.15330805222, 1708.7685118637696, 54802.67760785551, 23341.70321723261, -0.138482421875, 0.9548544921875001, -0.19034033203125, 192.0, 0.0, 0.0, 0.0, 0.0, 0.0, 0.0, 0.0, 0.0, 0.0, 1.741714406985482E9, 0.0, 2025-03-11 12:33:26.985
244.0, 103437.05605710222, 9869.412764240833, -26552.017218115, -20326.609352422878, -11304.886496649564, 7741.81726477352, -42626.20718791571, 3305.331266561898, 13874.957129354136, 1397.3640081124317, -15300.350225013523, 22079.813132263796, -26544.39527325574, 1714.6470206555155, 54775.94492148697, 23356.09774066183, -0.138482421875, 0.9548544921875001, -0.19034033203125, 192.0, 0.0, 0.0, 0.0, 0.0, 0.0, 0.0, 0.0, 0.0, 0.0, 1.741714407021585E9, 0.0, 2025-03-11 12:33:27.021
24.0, 103438.15129258053, 9864.607139182943, -26547.077482590375, -20344.714265431674, -11293.352996510625, 7737.078694948995, -42628.30825189451, 3310.516871275529, 13892.391490029275, 1420.1627874568449, -15285.866294606483, 22095.235835937958, -26508.319557704875, 1729.8909103740348, 54730.72734245388, 23374.29206064845, -0.138482421875, 0.9548544921875001, -0.19034033203125, 192.0, 0.0, 0.0, 0.0, 0.0, 0.0, 0.0, 0.0, 0.0, 0.0, 1.74171440702172E9, 0.0, 2025-03-11 12:33:27.021
32.0, 103445.23679557286, 9898.805308199562, -26585.388372586774, -20358.371181293867, -11295.7669849118, 7732.183662913283, -42631.75042054062, 3313.936688177191, 13901.443946533675, 1430.802217817571, -15272.92463456686, 22099.057984239815, -26499.043583755923, 1743.2125500693978, 54740.38329605857, 23388.932453266676, -0.138482421875, 0.9548544921875001, -0.19034033203125, 192.0, 0.0, 0.0, 0.0, 0.0, 0.0, 0.0, 0.0, 0.0, 0.0, 1.741714407037531E9, 0.0, 2025-03-11 12:33:27.037
32.0, 103435.15615882352, 9911.501099050176, -26583.01908767451, -20355.107826603395, -11354.06033445124, 7739.447979861257, -42623.79319951453, 3324.553766793462, 13901.443946533675, 1430.802217817571, -15272.92463456686, 22099.057984239815, -26499.043583755923, 1743.2125500693978, 54740.38329605857, 23388.932453266676, -0.138482421875, 0.9548544921875001, -0.19034033203125, 192.0, 0.0, 0.0, 0.0, 0.0, 0.0, 0.0, 0.0, 0.0, 0.0, 1.741714407053542E9, 0.0, 2025-03-11 12:33:27.053
28.0, 103434.86558614559, 9924.688628278807, -26544.372921511283, -20323.055425054485, -11300.706720436421, 7764.9736720292185, -42599.74272248062, 3345.989089726101, 13894.336091796888, 1425.8848340374034, -15281.842980604528, 22091.056059724815, -26507.1572669932, 1733.109561575599, 54750.754505485835, 23374.090894948353, -0.138482421875, 0.9548544921875001, -0.19034033203125, 192.0, 0.0, 0.0, 0.0, 0.0, 0.0, 0.0, 0.0, 0.0, 0.0, 1.741714407142774E9, 0.0, 2025-03-11 12:33:27.142
28.0, 103447.04728687374, 9919.681837520819, -26573.810168958924, -20344.51309973158, -11283.674691161477, 7749.81918928852, -42612.46086507569, 3335.7072872766603, 13894.336091796888, 1425.8848340374034, -15281.842980604528, 22091.056059724815, -26507.1572669932, 1733.109561575599, 54750.754505485835, 23374.090894948353, -0.13824121093750003, 0.9514272460937501, -0.189170166015625, 192.0, 125.5, 88.0, 14.5, 80.0, 125.0, 16.0, 0.0, 0.0, 0.0, 1.741714407142914E9, 0.0, 2025-03-11 12:33:27.142
28.0, 103433.45742624492, 9929.449549847788, -26564.78006419898, -20338.16520430627, -11329.607526017133, 7751.786142800587, -42611.499740064115, 3333.89679597578, 13894.336091796888, 1425.8848340374034, -15281.842980604528, 22091.056059724815, -26507.1572669932, 1733.109561575599, 54750.754505485835, 23374.090894948353, -0.13824121093750003, 0.9514272460937501, -0.189170166015625, 192.0, 62.75, 44.0, 7.25, 40.0, 62.5, 8.0, 0.0, 0.0, 0.0, 1.741714407143079E9, 0.0, 2025-03-11 12:33:27.143
28.0, 103445.88499616206, 9931.595317315498, -26561.53906125296, -20338.25461128409, -11300.550258225234, 7754.982442257696, -42608.504606307106, 3336.6907640326936, 13894.336091796888, 1425.8848340374034, -15281.842980604528, 22091.056059724815, -26507.1572669932, 1733.109561575599, 54750.754505485835, 23374.090894948353, -0.13824121093750003, 0.9514272460937501, -0.189170166015625, 192.0, 31.375, 22.0, 3.625, 20.0, 31.25, 4.0, 0.0, 0.0, 0.0, 1.741714407143206E9, 0.0, 2025-03-11 12:33:27.143
28.0, 103432.42924599997, 9926.812044002061, -26554.766482683004, -20337.204079294694, -11306.875801906086, 7742.510168851634, -42619.23344364565, 3328.1971011396768, 13894.336091796888, 1425.8848340374034, -15281.842980604528, 22091.056059724815, -26507.1572669932, 1733.109561575599, 54750.754505485835, 23374.090894948353, -0.14012060546875002, 0.9527136230468751, -0.19058508300781252, 192.0, 141.1875, 83.0, 16.3125, 114.0, 140.625, 2.0, 0.0, 0.0, 0.0, 1.741714407143384E9, 0.0, 2025-03-11 12:33:27.143
28.0, 103444.6109467281, 9916.86551771945, -26562.58959324236, -20342.702608430696, -11288.592074941645, 7750.176817199805, -42616.260661633096, 3330.1417029072886, 13894.336091796888, 1425.8848340374034, -15281.842980604528, 22091.056059724815, -26507.1572669932, 1733.109561575599, 54750.754505485835, 23374.090894948353, -0.14012060546875002, 0.9527136230468751, -0.19058508300781252, 192.0, 70.59375, 41.5, 8.15625, 57.0, 70.3125, 1.0, 0.0, 0.0, 0.0, 1.741714407143469E9, 0.0, 2025-03-11 12:33:27.143
28.0, 103433.68094368947, 9929.874232992439, -26561.49435776405, -20338.567535706465, -11338.682334265988, 7757.619948103422, -42604.7048097497, 3339.2612146450538, 13894.336091796888, 1425.8848340374034, -15281.842980604528, 22091.056059724815, -26507.1572669932, 1733.109561575599, 54750.754505485835, 23374.090894948353, -0.14012060546875002, 0.9527136230468751, -0.19058508300781252, 192.0, 35.296875, 20.75, 4.078125, 28.5, 35.15625, 0.5, 0.0, 0.0, 0.0, 1.741714407143553E9, 0.0, 2025-03-11 12:33:27.143
28.0, 103428.31652502019, 9937.429122618332, -26543.814127899903, -20325.491765200113, -11313.402511287035, 7760.145695226872, -42603.184891126744, 3343.619804813839, 13894.336091796888, 1425.8848340374034, -15281.842980604528, 22091.056059724815, -26507.1572669932, 1733.109561575599, 54750.754505485835, 23374.090894948353, -0.14012060546875002, 0.9527136230468751, -0.19058508300781252, 192.0, 17.6484375, 10.375, 2.0390625, 14.25, 17.578125, 0.25, 0.0, 0.0, 0.0, 1.741714407143629E9, 0.0, 2025-03-11 12:33:27.143
28.0, 103433.52448147828, 9917.603125286476, -26564.243622332055, -20344.155471820293, -11311.14498509705, 7737.704543793744, -42619.6581267903, 3322.184481881199, 13894.336091796888, 1425.8848340374034, -15281.842980604528, 22091.056059724815, -26507.1572669932, 1733.109561575599, 54750.754505485835, 23374.090894948353, -0.14012060546875002, 0.9527136230468751, -0.19058508300781252, 192.0, 8.82421875, 5.1875, 1.01953125, 7.125, 8.7890625, 0.125, 0.0, 0.0, 0.0, 1.741714407143714E9, 0.0, 2025-03-11 12:33:27.143
72.0, 103434.77617916778, 9929.695419036796, -26558.834500173867, -20332.085529814427, -11312.799014186743, 7752.233177689694, -42607.67759176226, 3337.9648134666463, 13904.975522157612, 1409.836281518493, -15293.175315043369, 22075.6110043062, -26521.77530786697, 1724.1688637934762, 54774.29089239728, 23384.998546242543, -0.14012060546875002, 0.9527136230468751, -0.19058508300781252, 192.0, 0.0, 0.0, 0.0, 0.0, 0.0, 0.0, 0.0, 0.0, 0.0, 1.741714407217895E9, 0.0, 2025-03-11 12:33:27.217
