%OpenBCI Raw EXG Data
%Number of channels = 8
%Sample Rate = 250 Hz
%Board = OpenBCI_GUI$BoardCytonSerial
Sample Index, EXG Channel 0, EXG Channel 1, EXG Channel 2, EXG Channel 3, EXG Channel 4, EXG Channel 5, EXG Channel 6, EXG Channel 7, Accel Channel 0, Accel Channel 1, Accel Channel 2, Not Used, Digital Channel 0 (D11), Digital Channel 1 (D12), Digital Channel 2 (D13), Digital Channel 3 (D17), Not Used, Digital Channel 4 (D18), Analog Channel 0, Analog Channel 1, Analog Channel 2, Timestamp, Marker Channel, Timestamp (Formatted)
103.0, -41170.259257585916, -43978.42067222842, -51939.73206755306, -50757.43654458959, -28662.938316218653, -28257.16474737701, -58301.35146395582, -45398.67286666309, 0.0, 0.0, 0.0, 192.0, 0.0, 0.0, 0.0, 0.0, 0.0, 0.0, 0.0, 0.0, 0.0, 1.741279872335305E9, 0.0, 2025-03-06 10:51:12.335
104.0, -41179.98226642398, -43987.20490779936, -51953.8136665599, -50773.46274536404, -28612.021042349465, -28267.06657017071, -58314.78486237346, -45407.54650921184, 0.0, 0.0, 0.0, 192.0, 0.0, 0.0, 0.0, 0.0, 0.0, 0.0, 0.0, 0.0, 0.0, 1.741279872335359E9, 0.0, 2025-03-06 10:51:12.335
105.0, -41164.447804027535, -43960.49457317527, -51943.28599492145, -50758.82235274582, -28623.509838999493, -28264.317305602708, -58310.56038267141, -45435.24032059197, 0.0, 0.0, 0.0, 192.0, 0.0, 0.0, 0.0, 0.0, 0.0, 0.0, 0.0, 0.0, 0.0, 1.741279872335419E9, 0.0, 2025-03-06 10:51:12.335
106.0, -41175.62367625519, -43977.03486407219, -51950.4609048916, -50773.261579663944, -28657.61860103829, -28265.814872481213, -58300.278580221966, -45436.71553572602, 0.0, 0.0, 0.0, 192.0, 0.0, 0.0, 0.0, 0.0, 0.0, 0.0, 0.0, 0.0, 0.0, 1.741279872335458E9, 0.0, 2025-03-06 10:51:12.335
107.0, -41176.405987311126, -43977.884230361495, -51959.73687884056, -50780.056509978356, -28661.776025506977, -28282.869253500612, -58316.95298158562, -45449.59014053227, 0.0, 0.0, 0.0, 192.0, 0.0, 0.0, 0.0, 0.0, 0.0, 0.0, 0.0, 0.0, 0.0, 1.741279872335511E9, 0.0, 2025-03-06 10:51:12.335
108.0, -41171.19803085304, -43972.83273611459, -51966.62121613279, -50774.42387037562, -28619.888856397734, -28293.75455305035, -58318.13762404175, -45455.08866966828, 0.0, 0.0, 0.0, 192.0, 0.0, 0.0, 0.0, 0.0, 0.0, 0.0, 0.0, 0.0, 0.0, 1.74127987233555E9, 0.0, 2025-03-06 10:51:12.335
109.0, -41175.6683797441, -43974.21854427082, -51966.487105666056, -50766.37724237171, -28582.51673966846, -28284.36682037912, -58314.27077225099, -45453.65815802314, 0.0, 0.0, 0.0, 192.0, 0.0, 0.0, 0.0, 0.0, 0.0, 0.0, 0.0, 0.0, 0.0, 1.741279872335605E9, 0.0, 2025-03-06 10:51:12.335
110.0, -41186.86660371621, -43985.506175220755, -51979.58522791687, -50777.62016983273, -28620.20178082011, -28286.80316052475, -58314.27077225099, -45440.67179449461, 0.07, 0.914, -0.368, 192.0, 2.0, 48.0, 28.0, 144.0, 244.0, 128.0, 0.0, 0.0, 0.0, 1.74127987233565E9, 0.0, 2025-03-06 10:51:12.335
111.0, -41187.35834209422, -43989.976524111815, -51982.73682388507, -50789.77951881642, -28658.490319072047, -28283.27158490081, -58300.613856388794, -45392.637895660155, 0.07, 0.914, -0.368, 192.0, 0.0, 0.0, 0.0, 0.0, 0.0, 0.0, 0.0, 0.0, 0.0, 1.741279872335707E9, 0.0, 2025-03-06 10:51:12.335
112.0, -41180.83163271328, -43992.30110553517, -51978.80291686093, -50798.25082996498, -28608.735335914535, -28281.01405871082, -58301.30676046691, -45424.26561406441, 0.07, 0.914, -0.368, 192.0, 0.0, 0.0, 0.0, 0.0, 0.0, 0.0, 0.0, 0.0, 0.0, 1.741279872335746E9, 0.0, 2025-03-06 10:51:12.335
113.0, -41183.8714699592, -43999.87834690551, -51972.34326271335, -50766.71251853854, -28560.07558823533, -28258.885831700067, -58300.23387673305, -45461.637730793685, 0.07, 0.914, -0.368, 192.0, 0.0, 0.0, 0.0, 0.0, 0.0, 0.0, 0.0, 0.0, 0.0, 1.741279872335785E9, 0.0, 2025-03-06 10:51:12.335
114.0, -41188.11830140571, -43998.31372479364, -51972.81264934691, -50760.409326602145, -28578.47107392205, -28269.949945205444, -58310.24745824903, -45451.44533532207, 0.07, 0.914, -0.368, 192.0, 0.0, 0.0, 0.0, 0.0, 0.0, 0.0, 0.0, 0.0, 0.0, 1.741279872335824E9, 0.0, 2025-03-06 10:51:12.335
115.0, -41183.22326936999, -43991.585849712596, -51972.499724924535, -50761.035175446894, -28594.497274696503, -28273.21329989592, -58307.98993205905, -45447.22085562001, 0.07, 0.914, -0.368, 192.0, 0.0, 0.0, 0.0, 0.0, 0.0, 0.0, 0.0, 0.0, 0.0, 1.741279872335863E9, 0.0, 2025-03-06 10:51:12.335
116.0, -41174.97547566599, -43991.69760843487, -51964.81072483191, -50750.060468919335, -28572.547861641393, -28252.82850895268, -58302.60316164532, -45478.28978041289, 0.07, 0.914, -0.368, 192.0, 0.0, 0.0, 0.0, 0.0, 0.0, 0.0, 0.0, 0.0, 0.0, 1.741279872335909E9, 0.0, 2025-03-06 10:51:12.335
117.0, -41174.88606868817, -43993.105768335554, -51966.24123647705, -50745.18778862808, -28520.423593571617, -28238.67985471247, -58303.94426631263, -45446.125620141705, 0.07, 0.914, -0.368, 192.0, 0.0, 0.0, 0.0, 0.0, 0.0, 0.0, 0.0, 0.0, 0.0, 1.741279872335948E9, 0.0, 2025-03-06 10:51:12.335
118.0, -41189.548813050846, -44000.884175406005, -51980.85927735082, -50748.16057064063, -28521.40707032765, -28252.917915930502, -58315.27660075147, -45433.76510545792, 0.07, 0.914, -0.368, 192.0, 0.0, 0.0, 0.0, 0.0, 0.0, 0.0, 0.0, 0.0, 0.0, 1.741279872335987E9, 0.0, 2025-03-06 10:51:12.335
119.0, -41194.6226590422, -44013.401152300976, -51994.53854495747, -50768.657120306154, -28535.55572456786, -28270.441683583464, -58338.298897540444, -45462.30828312734, 0.07, 0.914, -0.368, 192.0, 0.0, 0.0, 0.0, 0.0, 0.0, 0.0, 0.0, 0.0, 0.0, 1.741279872336034E9, 0.0, 2025-03-06 10:51:12.336
120.0, -41203.33983937977, -44025.71696349585, -52003.03220785048, -50772.45691686356, -28488.192378067062, -28287.40665762504, -58338.88004289628, -45496.52880388842, 0.08, 0.918, -0.374, 192.0, 2.0, 128.0, 28.0, 176.0, 244.0, 80.0, 0.0, 0.0, 0.0, 1.741279872336079E9, 0.0, 2025-03-06 10:51:12.336
0.0, 0.0, 0.0, 0.0, 0.0, 0.0, 0.0, 0.0, 0.0, 0.088, 0.918, -0.368, 192.0, 2.0, 192.0, 28.0, 176.0, 244.0, 128.0, 0.0, 0.0, 0.0, 1.741279872422587E9, 0.0, 2025-03-06 10:51:12.422
1.0, -37784.551117962736, -40744.88320885697, -48341.481189904356, -47156.41405062843, -25278.303060329326, -24657.148081916344, -54794.094537984674, -41886.543260400686, 0.088, 0.918, -0.368, 192.0, 0.0, 0.0, 0.0, 0.0, 0.0, 0.0, 0.0, 0.0, 0.0, 1.741279872488515E9, 0.0, 2025-03-06 10:51:12.488
2.0, -37777.622077181586, -40739.541141932146, -48339.04484975873, -47149.21678891382, -25314.78110728039, -24645.74869224414, -54793.93807577349, -41890.52187091373, 0.088, 0.918, -0.368, 192.0, 0.0, 0.0, 0.0, 0.0, 0.0, 0.0, 0.0, 0.0, 0.0, 1.74127987248856E9, 0.0, 2025-03-06 10:51:12.488
3.0, -37754.08569027015, -40729.616967393995, -48320.26938441627, -47145.28288188969, -25353.561383910346, -24642.59709627594, -54793.625151351116, -41885.11274875555, 0.088, 0.918, -0.368, 192.0, 0.0, 0.0, 0.0, 0.0, 0.0, 0.0, 0.0, 0.0, 0.0, 1.741279872488588E9, 0.0, 2025-03-06 10:51:12.488
4.0, -37759.517164172794, -40730.734554616756, -48325.186768196436, -47137.504474819245, -25332.126060977705, -24634.88574443886, -54799.86128805415, -41880.173013230924, 0.088, 0.918, -0.368, 192.0, 0.0, 0.0, 0.0, 0.0, 0.0, 0.0, 0.0, 0.0, 0.0, 1.741279872488644E9, 0.0, 2025-03-06 10:51:12.488
5.0, -37768.07788229917, -40728.58878714905, -48328.74069556483, -47122.61821301201, -25284.606252265723, -24616.199686074222, -54787.70193907046, -41891.438292436396, 0.088, 0.918, -0.368, 192.0, 0.0, 0.0, 0.0, 0.0, 0.0, 0.0, 0.0, 0.0, 0.0, 1.741279872488678E9, 0.0, 2025-03-06 10:51:12.488
6.0, -37788.99911510934, -40745.754926890724, -48347.58321614066, -47145.752268523254, -25302.800572252345, -24622.48052626616, -54797.64846535307, -41904.514062942755, 0.088, 0.918, -0.368, 192.0, 0.0, 0.0, 0.0, 0.0, 0.0, 0.0, 0.0, 0.0, 0.0, 1.74127987248871E9, 0.0, 2025-03-06 10:51:12.488
7.0, -37773.37524573508, -40742.826848367076, -48342.37525968257, -47152.9271784934, -25353.561383910346, -24595.993709086622, -54786.3831861476, -41865.644379334975, 0.088, 0.918, -0.368, 192.0, 0.0, 0.0, 0.0, 0.0, 0.0, 0.0, 0.0, 0.0, 0.0, 1.741279872488738E9, 0.0, 2025-03-06 10:51:12.488
8.0, -37773.19643177944, -40735.24960699673, -48346.39857368453, -47150.021451714216, -25322.268941672915, -24601.73810741164, -54788.41719489303, -41834.19547488636, 0.1, 0.918, -0.374, 192.0, 3.0, 32.0, 28.0, 176.0, 244.0, 80.0, 0.0, 0.0, 0.0, 1.741279872488764E9, 0.0, 2025-03-06 10:51:12.488
9.0, -37767.00499856532, -40723.85021732452, -48336.07206774617, -47128.16144563693, -25222.244885235417, -24600.665223677785, -54793.04400599528, -41887.99612379028, 0.1, 0.918, -0.374, 192.0, 0.0, 0.0, 0.0, 0.0, 0.0, 0.0, 0.0, 0.0, 0.0, 1.741279872488792E9, 0.0, 2025-03-06 10:51:12.488
10.0, -37761.37235896258, -40725.68306036986, -48326.95255600841, -47123.78050372368, -25228.61513240518, -24578.805217600493, -54789.53478211579, -41900.177824518425, 0.1, 0.918, -0.374, 192.0, 0.0, 0.0, 0.0, 0.0, 0.0, 0.0, 0.0, 0.0, 0.0, 1.741279872488823E9, 0.0, 2025-03-06 10:51:12.488
11.0, -37768.43551021046, -40734.0649645406, -48344.18575098345, -47137.90680621944, -25263.103874099717, -24598.608863187896, -54795.12271822962, -41884.017513277235, 0.1, 0.918, -0.374, 192.0, 0.0, 0.0, 0.0, 0.0, 0.0, 0.0, 0.0, 0.0, 0.0, 1.741279872488849E9, 0.0, 2025-03-06 10:51:12.488
12.0, -37776.59389693665, -40743.47504895629, -48354.33344296616, -47150.513190092235, -25249.60342044871, -24617.11610759689, -54808.80198583627, -41915.77934214823, 0.1, 0.918, -0.374, 192.0, 0.0, 0.0, 0.0, 0.0, 0.0, 0.0, 0.0, 0.0, 0.0, 1.741279872488875E9, 0.0, 2025-03-06 10:51:12.488
13.0, -37778.605553937625, -40743.36329023401, -48353.014690043296, -47155.78820178368, -25190.326594153237, -24603.39213650133, -54805.27041021233, -41917.18750204891, 0.1, 0.918, -0.374, 192.0, 0.0, 0.0, 0.0, 0.0, 0.0, 0.0, 0.0, 0.0, 0.0, 1.741279872488908E9, 0.0, 2025-03-06 10:51:12.488
14.0, -37785.802815652234, -40747.83363912507, -48352.65706213201, -47153.10599244905, -25202.530646625837, -24608.331872025952, -54806.767977090836, -41906.77158913274, 0.1, 0.918, -0.374, 192.0, 0.0, 0.0, 0.0, 0.0, 0.0, 0.0, 0.0, 0.0, 0.0, 1.74127987248894E9, 0.0, 2025-03-06 10:51:12.488
15.0, -37767.92142008799, -40739.71995588779, -48337.61433811359, -47145.17112316741, -25256.264240296394, -24609.1588865708, -54803.83989856719, -41917.790999149205, 0.1, 0.918, -0.374, 192.0, 0.0, 0.0, 0.0, 0.0, 0.0, 0.0, 0.0, 0.0, 0.0, 1.741279872488971E9, 0.0, 2025-03-06 10:51:12.488
16.0, -37755.80677459321, -40734.646109896436, -48333.81454155619, -47153.9777104828, -25280.24766209694, -24603.97328185717, -54797.15672697505, -41899.19434776239, 0.1, 0.918, -0.374, 192.0, 0.0, 0.0, 0.0, 0.0, 0.0, 0.0, 0.0, 0.0, 0.0, 1.74127987254801E9, 0.0, 2025-03-06 10:51:12.548
17.0, -37767.22851600987, -40739.474086698785, -48350.44423943094, -47157.19636168437, -25237.779347631855, -24614.67976745126, -54808.73493060291, -41904.62582166503, 0.1, 0.918, -0.374, 192.0, 0.0, 0.0, 0.0, 0.0, 0.0, 0.0, 0.0, 0.0, 0.0, 1.741279872548053E9, 0.0, 2025-03-06 10:51:12.548
18.0, -37770.24600151134, -40739.42938320987, -48337.54728288022, -47156.168181439425, -25207.828010061745, -24637.63500900686, -54815.17223300603, -41903.61999316454, 0.10400000000000001, 0.91, -0.366, 192.0, 3.0, 64.0, 28.0, 112.0, 244.0, 144.0, 0.0, 0.0, 0.0, 1.74127987254808E9, 0.0, 2025-03-06 10:51:12.548
19.0, -37764.702768886425, -40726.197150492335, -48325.969079252376, -47143.60650105554, -25263.19328107754, -24631.868258937393, -54809.38313119211, -41889.98542904681, 0.10400000000000001, 0.91, -0.366, 192.0, 0.0, 0.0, 0.0, 0.0, 0.0, 0.0, 0.0, 0.0, 0.0, 1.741279872548122E9, 0.0, 2025-03-06 10:51:12.548
20.0, -37784.08173132917, -40740.21169426581, -48347.78438184076, -47160.347957652564, -25296.631490782678, -24644.87697421038, -54824.42585521053, -41911.57721419063, 0.10400000000000001, 0.91, -0.366, 192.0, 0.0, 0.0, 0.0, 0.0, 0.0, 0.0, 0.0, 0.0, 0.0, 1.741279872548156E9, 0.0, 2025-03-06 10:51:12.548
21.0, -37766.98264682086, -40743.25153151173, -48335.84855030162, -47169.75804206825, -25248.37407450367, -24648.386198089862, -54837.38986699461, -41910.169054289945, 0.10400000000000001, 0.91, -0.366, 192.0, 0.0, 0.0, 0.0, 0.0, 0.0, 0.0, 0.0, 0.0, 0.0, 1.741279872548186E9, 0.0, 2025-03-06 10:51:12.548
22.0, -37759.293646728234, -40744.88320885697, -48323.04100072873, -47169.19924845687, -25223.18365850254, -24642.172413131288, -54822.190680765, -41884.91158305545, 0.10400000000000001, 0.91, -0.366, 192.0, 0.0, 0.0, 0.0, 0.0, 0.0, 0.0, 0.0, 0.0, 0.0, 1.741279872548212E9, 0.0, 2025-03-06 10:51:12.548
23.0, -37768.16728927699, -40743.74326988975, -48327.69016357543, -47158.91744600743, -25262.00863862141, -24640.1160526414, -54825.85636685567, -41882.274077209724, 0.10400000000000001, 0.91, -0.366, 192.0, 0.0, 0.0, 0.0, 0.0, 0.0, 0.0, 0.0, 0.0, 0.0, 1.741279872548238E9, 0.0, 2025-03-06 10:51:12.548
24.0, -37767.60849566561, -40729.95224356082, -48328.31601242018, -47135.15754165144, -25304.67811878659, -24637.903229940326, -54826.32575348923, -41885.068045266635, 0.10400000000000001, 0.91, -0.366, 192.0, 0.0, 0.0, 0.0, 0.0, 0.0, 0.0, 0.0, 0.0, 0.0, 1.741279872548264E9, 0.0, 2025-03-06 10:51:12.548
25.0, -37763.629885152564, -40724.073734769074, -48325.544396107725, -47122.551157778646, -25289.188359879063, -24635.668055494792, -54833.70182915948, -41914.25942352527, 0.10400000000000001, 0.91, -0.366, 192.0, 0.0, 0.0, 0.0, 0.0, 0.0, 0.0, 0.0, 0.0, 0.0, 1.741279872548291E9, 0.0, 2025-03-06 10:51:12.548
26.0, -37785.042856340755, -40743.67621465638, -48336.76497182429, -47140.34314636507, -25263.8638334112, -24640.607791019418, -54846.50937873237, -41915.60052819258, 0.10400000000000001, 0.91, -0.366, 192.0, 0.0, 0.0, 0.0, 0.0, 0.0, 0.0, 0.0, 0.0, 0.0, 1.741279872548321E9, 0.0, 2025-03-06 10:51:12.548
27.0, -37792.2177663109, -40742.42451696689, -48335.5579776237, -47136.00690794074, -25291.937624447066, -24618.72543319767, -54823.28591624331, -41865.39851014597, 0.10400000000000001, 0.91, -0.366, 192.0, 0.0, 0.0, 0.0, 0.0, 0.0, 0.0, 0.0, 0.0, 0.0, 1.741279872548347E9, 0.0, 2025-03-06 10:51:12.548
28.0, -37787.09921683064, -40735.45077269683, -48333.725134578366, -47120.53950077767, -25324.079432973795, -24593.378554985353, -54823.28591624331, -41858.67063506492, 0.098, 0.91, -0.364, 192.0, 3.0, 16.0, 28.0, 112.0, 244.0, 160.0, 0.0, 0.0, 0.0, 1.741279872548377E9, 0.0, 2025-03-06 10:51:12.548
29.0, -37777.063283570205, -40725.347784203026, -48338.37429742507, -47107.06139887111, -25301.079487929284, -24586.15894152629, -54828.9409075905, -41887.325571456626, 0.098, 0.91, -0.364, 192.0, 0.0, 0.0, 0.0, 0.0, 0.0, 0.0, 0.0, 0.0, 0.0, 1.741279872548406E9, 0.0, 2025-03-06 10:51:12.548
30.0, -37773.53170794627, -40718.374039932976, -48315.64257331402, -47090.9681428633, -25246.742397158432, -24584.571967669963, -54823.956468576966, -41888.89019356849, 0.098, 0.91, -0.364, 192.0, 0.0, 0.0, 0.0, 0.0, 0.0, 0.0, 0.0, 0.0, 0.0, 1.741279872548436E9, 0.0, 2025-03-06 10:51:12.548
31.0, -37781.533632461265, -40726.040688281144, -48309.76406452228, -47096.33256153257, -25278.303060329326, -24576.458284432687, -54823.57648892123, -41870.3829491595, 0.098, 0.91, -0.364, 192.0, 0.0, 0.0, 0.0, 0.0, 0.0, 0.0, 0.0, 0.0, 0.0, 1.741279872608239E9, 0.0, 2025-03-06 10:51:12.608
32.0, -37779.61138243811, -40739.98817682126, -48320.06821871617, -47112.44816928484, -25302.778220507887, -24586.67303164876, -54835.40056173808, -41876.395568417975, 0.098, 0.91, -0.364, 192.0, 0.0, 0.0, 0.0, 0.0, 0.0, 0.0, 0.0, 0.0, 0.0, 1.741279872608286E9, 0.0, 2025-03-06 10:51:12.608
33.0, -37764.63571365306, -40722.44205742384, -48315.955497736395, -47104.60270698103, -25266.389580534647, -24587.790618871524, -54831.46665471395, -41871.925219526915, 0.098, 0.91, -0.364, 192.0, 0.0, 0.0, 0.0, 0.0, 0.0, 0.0, 0.0, 0.0, 0.0, 1.741279872608313E9, 0.0, 2025-03-06 10:51:12.608
34.0, -37767.764957876796, -40715.40125792042, -48315.86609075857, -47108.89424191645, -25218.780364844843, -24595.658432919794, -54832.67364891454, -41863.967998500826, 0.098, 0.91, -0.364, 192.0, 0.0, 0.0, 0.0, 0.0, 0.0, 0.0, 0.0, 0.0, 0.0, 1.74127987260835E9, 0.0, 2025-03-06 10:51:12.608
35.0, -37770.916553844996, -40716.183568976354, -48315.66492505848, -47120.89712868895, -25251.749187916423, -24590.62929041735, -54825.16346277756, -41852.501553595255, 0.098, 0.91, -0.364, 192.0, 0.0, 0.0, 0.0, 0.0, 0.0, 0.0, 0.0, 0.0, 0.0, 1.741279872608393E9, 0.0, 2025-03-06 10:51:12.608
36.0, -37794.98938262336, -40731.67332788388, -48343.82812307216, -47141.23721614328, -25280.47117954149, -24600.48640972214, -54837.881605372626, -41875.09916723957, 0.098, 0.91, -0.364, 192.0, 0.0, 0.0, 0.0, 0.0, 0.0, 0.0, 0.0, 0.0, 0.0, 1.741279872608423E9, 0.0, 2025-03-06 10:51:12.608
37.0, -37802.20899608243, -40728.65584238242, -48355.94276856694, -47138.84557948656, -25268.401237535625, -24600.709927166692, -54836.47344547194, -41872.841641049585, 0.092, 0.91, -0.362, 192.0, 2.0, 224.0, 28.0, 112.0, 244.0, 176.0, 0.0, 0.0, 0.0, 1.74127987260845E9, 0.0, 2025-03-06 10:51:12.608
38.0, -37782.315943517206, -40713.613118363995, -48340.72123059288, -47125.814512469115, -25237.220554020474, -24620.468869265183, -54838.99919259539, -41867.65603633595, 0.092, 0.91, -0.362, 192.0, 0.0, 0.0, 0.0, 0.0, 0.0, 0.0, 0.0, 0.0, 0.0, 1.741279872608479E9, 0.0, 2025-03-06 10:51:12.608
39.0, -37755.09151877064, -40695.91053675539, -48316.00020122531, -47115.756227464226, -25231.453803951004, -24601.939273111737, -54820.111968530655, -41834.75426849774, 0.092, 0.91, -0.362, 192.0, 0.0, 0.0, 0.0, 0.0, 0.0, 0.0, 0.0, 0.0, 0.0, 1.741279872608509E9, 0.0, 2025-03-06 10:51:12.608
40.0, -37756.2091059934, -40699.553871101605, -48323.39862864002, -47131.4248003274, -25256.17483331857, -24615.48443025165, -54824.939945333004, -41833.23434987478, 0.092, 0.91, -0.362, 192.0, 0.0, 0.0, 0.0, 0.0, 0.0, 0.0, 0.0, 0.0, 0.0, 1.741279872608535E9, 0.0, 2025-03-06 10:51:12.608
41.0, -37757.52785891627, -40696.62579257796, -48332.16051246649, -47135.04578292916, -25258.05237985282, -24607.30369178101, -54824.314096488255, -41847.65122504845, 0.092, 0.91, -0.362, 192.0, 0.0, 0.0, 0.0, 0.0, 0.0, 0.0, 0.0, 0.0, 0.0, 1.741279872608565E9, 0.0, 2025-03-06 10:51:12.608
42.0, -37774.64929516903, -40710.305060184604, -48343.448143416426, -47140.74547776526, -25189.70074530849, -24614.54565698453, -54841.07790482973, -41901.87655709703, 0.092, 0.91, -0.362, 192.0, 0.0, 0.0, 0.0, 0.0, 0.0, 0.0, 0.0, 0.0, 0.0, 1.741279872608592E9, 0.0, 2025-03-06 10:51:12.608
43.0, -37773.68817015745, -40712.51788288568, -48344.073992261176, -47142.91359697743, -25158.16243388205, -24630.72831997017, -54842.59782345269, -41879.32364694162, 0.092, 0.91, -0.362, 192.0, 0.0, 0.0, 0.0, 0.0, 0.0, 0.0, 0.0, 0.0, 0.0, 1.741279872608626E9, 0.0, 2025-03-06 10:51:12.608
44.0, -37763.227553752375, -40691.08255995304, -48334.775666567766, -47127.580300281086, -25195.534550611326, -24642.485337553662, -54829.343238990696, -41857.77656528671, 0.092, 0.91, -0.362, 192.0, 0.0, 0.0, 0.0, 0.0, 0.0, 0.0, 0.0, 0.0, 0.0, 1.741279872608653E9, 0.0, 2025-03-06 10:51:12.608
45.0, -37752.454012924914, -40685.13699592793, -48323.33157340665, -47126.61917526951, -25194.685184322025, -24650.330799857475, -54840.876739129635, -41903.731751886815, 0.092, 0.91, -0.362, 192.0, 0.0, 0.0, 0.0, 0.0, 0.0, 0.0, 0.0, 0.0, 0.0, 1.741279872608684E9, 0.0, 2025-03-06 10:51:12.608
46.0, -37737.59010286214, -40685.87460349496, -48309.741712777824, -47126.06038165813, -25135.900096404566, -24638.417320062796, -54839.2450617844, -41878.47428065232, 0.092, 0.91, -0.362, 192.0, 0.0, 0.0, 0.0, 0.0, 0.0, 0.0, 0.0, 0.0, 0.0, 1.741279872668527E9, 0.0, 2025-03-06 10:51:12.668
47.0, -37755.739719359844, -40697.2069379338, -48321.52108210577, -47140.298442876156, -25098.48327618638, -24642.083006153465, -54835.355858249175, -41856.36840538602, 0.08600000000000001, 0.918, -0.36, 192.0, 2.0, 176.0, 28.0, 176.0, 244.0, 192.0, 0.0, 0.0, 0.0, 1.741279872668605E9, 0.0, 2025-03-06 10:51:12.668
48.0, -37773.82228062419, -40701.498472869214, -48333.97100376737, -47134.1740648954, -25112.74368914887, -24647.53683180056, -54838.149826306086, -41887.638495879, 0.08600000000000001, 0.918, -0.36, 192.0, 0.0, 0.0, 0.0, 0.0, 0.0, 0.0, 0.0, 0.0, 0.0, 1.741279872668634E9, 0.0, 2025-03-06 10:51:12.668
49.0, -37759.91949557298, -40704.381847903955, -48333.05458224471, -47142.868893488514, -25093.521188917304, -24644.45229106573, -54837.85925362817, -41894.20990874886, 0.08600000000000001, 0.918, -0.36, 192.0, 0.0, 0.0, 0.0, 0.0, 0.0, 0.0, 0.0, 0.0, 0.0, 1.741279872668668E9, 0.0, 2025-03-06 10:51:12.668
50.0, -37764.90393458652, -40722.687926612845, -48348.812562085695, -47153.95535873835, -25033.551458543716, -24654.242355137154, -54860.81449518377, -41928.273967298745, 0.08600000000000001, 0.918, -0.36, 192.0, 0.0, 0.0, 0.0, 0.0, 0.0, 0.0, 0.0, 0.0, 0.0, 1.741279872668701E9, 0.0, 2025-03-06 10:51:12.668
51.0, -37761.975856062876, -40727.40414469292, -48340.65417535951, -47139.69494577586, -24958.762521596258, -24648.02857017858, -54848.61044271117, -41875.45679515086, 0.08600000000000001, 0.918, -0.36, 192.0, 0.0, 0.0, 0.0, 0.0, 0.0, 0.0, 0.0, 0.0, 0.0, 1.741279872668732E9, 0.0, 2025-03-06 10:51:12.668
52.0, -37770.067187555695, -40724.43136268036, -48330.86411128809, -47116.739704220265, -24969.29019323471, -24627.084985623955, -54833.21009078147, -41886.81148133415, 0.08600000000000001, 0.918, -0.36, 192.0, 0.0, 0.0, 0.0, 0.0, 0.0, 0.0, 0.0, 0.0, 0.0, 1.741279872668758E9, 0.0, 2025-03-06 10:51:12.668
53.0, -37776.370379492095, -40718.93283354436, -48328.13719846454, -47108.73777970526, -24977.113303794064, -24606.454325491708, -54824.157634277064, -41876.03794050669, 0.08600000000000001, 0.918, -0.36, 192.0, 0.0, 0.0, 0.0, 0.0, 0.0, 0.0, 0.0, 0.0, 0.0, 1.741279872668785E9, 0.0, 2025-03-06 10:51:12.668
54.0, -37773.73287364637, -40725.37013594749, -48329.523006620766, -47118.684305987874, -24931.940428249887, -24594.987880586134, -54827.46569245645, -41864.0797572231, 0.08600000000000001, 0.918, -0.36, 192.0, 0.0, 0.0, 0.0, 0.0, 0.0, 0.0, 0.0, 0.0, 0.0, 1.741279872668817E9, 0.0, 2025-03-06 10:51:12.668
55.0, -37775.99039983635, -40733.461467440306, -48337.10024799112, -47114.32571581909, -24854.603392434525, -24611.14819182732, -54833.56771869275, -41862.44807987787, 0.08600000000000001, 0.918, -0.36, 192.0, 0.0, 0.0, 0.0, 0.0, 0.0, 0.0, 0.0, 0.0, 0.0, 1.741279872668844E9, 0.0, 2025-03-06 10:51:12.668
56.0, -37778.5161469598, -40742.44686871134, -48339.49188464783, -47140.72312602081, -24858.157319802922, -24622.189953588244, -54838.97684085093, -41846.1760099144, 0.08600000000000001, 0.918, -0.36, 192.0, 0.0, 0.0, 0.0, 0.0, 0.0, 0.0, 0.0, 0.0, 0.0, 1.741279872668873E9, 0.0, 2025-03-06 10:51:12.668
57.0, -37778.78436789326, -40737.88711284246, -48339.26836720328, -47134.777561995696, -24872.01540136521, -24618.14428784183, -54848.789256666816, -41877.446100407375, 0.082, 0.92, -0.36, 192.0, 2.0, 144.0, 28.0, 192.0, 244.0, 192.0, 0.0, 0.0, 0.0, 1.7412798726689E9, 0.0, 2025-03-06 10:51:12.668
58.0, -37771.18477477846, -40736.70247038633, -48333.94865202292, -47130.26250961572, -24827.691892110335, -24618.054880864012, -54853.41606776906, -41881.91644929844, 0.082, 0.92, -0.36, 192.0, 0.0, 0.0, 0.0, 0.0, 0.0, 0.0, 0.0, 0.0, 0.0, 1.741279872668928E9, 0.0, 2025-03-06 10:51:12.668
59.0, -37772.12354804559, -40733.0144325512, -48344.968062039385, -47130.95541369384, -24748.879641160926, -24618.367805286387, -54852.700811946495, -41890.164243002444, 0.082, 0.92, -0.36, 192.0, 0.0, 0.0, 0.0, 0.0, 0.0, 0.0, 0.0, 0.0, 0.0, 1.741279872668958E9, 0.0, 2025-03-06 10:51:12.668
60.0, -37781.131301061076, -40732.67915638437, -48361.32953898067, -47137.54917830815, -24728.785422895602, -24620.82649717647, -54841.81551239676, -41873.08751023859, 0.082, 0.92, -0.36, 192.0, 0.0, 0.0, 0.0, 0.0, 0.0, 0.0, 0.0, 0.0, 0.0, 1.741279872668989E9, 0.0, 2025-03-06 10:51:12.668
61.0, -37767.22851600987, -40725.68306036986, -48341.816466071185, -47128.697887503855, -24737.770824166637, -24620.982959387657, -54802.208221221954, -41873.75806257225, 0.082, 0.92, -0.36, 192.0, 0.0, 0.0, 0.0, 0.0, 0.0, 0.0, 0.0, 0.0, 0.0, 1.741279872728687E9, 0.0, 2025-03-06 10:51:12.728
62.0, -37736.740736572836, -40702.81722579208, -48327.287832175236, -47118.3713815655, -24721.163478036342, -24609.516514482086, -54781.68931981198, -41866.51609736873, 0.082, 0.92, -0.36, 192.0, 0.0, 0.0, 0.0, 0.0, 0.0, 0.0, 0.0, 0.0, 0.0, 1.741279872728731E9, 0.0, 2025-03-06 10:51:12.728
63.0, -37728.29177716873, -40694.77059778817, -48330.48413163234, -47127.155617136435, -24669.195672177753, -24619.083061108955, -54777.64365406557, -41864.795013045674, 0.082, 0.92, -0.36, 192.0, 0.0, 0.0, 0.0, 0.0, 0.0, 0.0, 0.0, 0.0, 0.0, 1.741279872728766E9, 0.0, 2025-03-06 10:51:12.728
64.0, -37740.227608707864, -40702.52665311416, -48343.00110852732, -47143.450038844356, -24665.172358175798, -24622.25700882161, -54780.5270291003, -41860.2799606657, 0.082, 0.92, -0.36, 192.0, 0.0, 0.0, 0.0, 0.0, 0.0, 0.0, 0.0, 0.0, 0.0, 1.7412798727288E9, 0.0, 2025-03-06 10:51:12.728
65.0, -37747.15664948901, -40721.235063223256, -48346.644442873534, -47176.46356540485, -24693.69318410077, -24627.308503068507, -54790.69707282747, -41859.81057403214, 0.082, 0.92, -0.36, 192.0, 0.0, 0.0, 0.0, 0.0, 0.0, 0.0, 0.0, 0.0, 0.0, 1.741279872728831E9, 0.0, 2025-03-06 10:51:12.728
66.0, -37754.28685597025, -40730.734554616756, -48354.33344296616, -47195.26138249176, -24725.94675134978, -24618.121936097377, -54793.71455832894, -41848.031204704195, 0.082, 0.92, -0.36, 192.0, 0.0, 0.0, 0.0, 0.0, 0.0, 0.0, 0.0, 0.0, 0.0, 1.741279872728866E9, 0.0, 2025-03-06 10:51:12.728
67.0, -37762.98168456336, -40707.466388638786, -48354.02051854379, -47154.26828316072, -24674.44833212475, -24623.821630933482, -54766.3783748601, -41828.65224226144, 0.08600000000000001, 0.91, -0.362, 192.0, 2.0, 176.0, 28.0, 112.0, 244.0, 176.0, 0.0, 0.0, 0.0, 1.741279872728892E9, 0.0, 2025-03-06 10:51:12.728
68.0, -37767.92142008799, -40703.130150214456, -48344.02928877226, -47134.62109978451, -24646.620410277894, -24630.795375203536, -54771.116944684625, -41825.18772187087, 0.08600000000000001, 0.91, -0.362, 192.0, 0.0, 0.0, 0.0, 0.0, 0.0, 0.0, 0.0, 0.0, 0.0, 1.741279872728922E9, 0.0, 2025-03-06 10:51:12.728
69.0, -37756.454975182416, -40702.01256299169, -48332.33932642214, -47138.51030331973, -24682.31614617302, -24637.74676772914, -54787.389014648084, -41862.89511476697, 0.08600000000000001, 0.91, -0.362, 192.0, 0.0, 0.0, 0.0, 0.0, 0.0, 0.0, 0.0, 0.0, 0.0, 1.741279872728949E9, 0.0, 2025-03-06 10:51:12.728
70.0, -37758.62309439458, -40705.81235954909, -48343.62695737207, -47142.04187894367, -24694.520198645616, -24630.415395547796, -54785.712633813935, -41884.75512084426, 0.08600000000000001, 0.91, -0.362, 192.0, 0.0, 0.0, 0.0, 0.0, 0.0, 0.0, 0.0, 0.0, 0.0, 1.74127987272898E9, 0.0, 2025-03-06 10:51:12.728
71.0, -37763.45107119693, -40705.365324659986, -48338.888387547544, -47138.689117275375, -24641.25599160862, -24627.509668768605, -54794.16159321804, -41902.48005419732, 0.08600000000000001, 0.91, -0.362, 192.0, 0.0, 0.0, 0.0, 0.0, 0.0, 0.0, 0.0, 0.0, 0.0, 1.74127987272901E9, 0.0, 2025-03-06 10:51:12.729
72.0, -37780.058417327215, -40715.5130166427, -48342.442314915934, -47151.340204637076, -24621.11706985439, -24644.899325954837, -54803.549325889275, -41899.4402169514, 0.08600000000000001, 0.91, -0.362, 192.0, 0.0, 0.0, 0.0, 0.0, 0.0, 0.0, 0.0, 0.0, 0.0, 1.741279872729037E9, 0.0, 2025-03-06 10:51:12.729
73.0, -37783.03119933978, -40725.52659815867, -48353.32761446567, -47166.29352167768, -24662.244279652154, -24649.436730079262, -54802.1858694775, -41886.85618482306, 0.08600000000000001, 0.91, -0.362, 192.0, 0.0, 0.0, 0.0, 0.0, 0.0, 0.0, 0.0, 0.0, 0.0, 1.741279872729064E9, 0.0, 2025-03-06 10:51:12.729
74.0, -37764.59101016414, -40718.0611155106, -48340.02832651477, -47150.915521492425, -24665.26176515362, -24638.77494797408, -54800.107157243154, -41888.57726914612, 0.08600000000000001, 0.91, -0.362, 192.0, 0.0, 0.0, 0.0, 0.0, 0.0, 0.0, 0.0, 0.0, 0.0, 1.741279872729095E9, 0.0, 2025-03-06 10:51:12.729
75.0, -37756.99141704934, -40702.906632769904, -48343.291681205235, -47135.4257625849, -24628.783718202558, -24632.91879092679, -54772.23453190739, -41873.04280674968, 0.08600000000000001, 0.91, -0.362, 192.0, 0.0, 0.0, 0.0, 0.0, 0.0, 0.0, 0.0, 0.0, 0.0, 1.741279872729124E9, 0.0, 2025-03-06 10:51:12.729
76.0, -37774.44812946894, -40717.70348759931, -48352.65706213201, -47150.60259707005, -24583.543787425016, -24646.55335504453, -54773.10624994114, -41864.303274667654, 0.08600000000000001, 0.91, -0.362, 192.0, 0.0, 0.0, 0.0, 0.0, 0.0, 0.0, 0.0, 0.0, 0.0, 1.741279872788284E9, 0.0, 2025-03-06 10:51:12.788
77.0, -37764.79217586424, -40719.04459226663, -48331.825236299665, -47145.551102823156, -24613.517476739584, -24632.941142671247, -54774.93909298648, -41855.87666700801, 0.092, 0.912, -0.362, 192.0, 2.0, 224.0, 28.0, 128.0, 244.0, 176.0, 0.0, 0.0, 0.0, 1.741279872788328E9, 0.0, 2025-03-06 10:51:12.788
78.0, -37762.91462933, -40711.109722985, -48322.5045588618, -47122.50645428973, -24653.840023736957, -24626.615598990393, -54767.0265754493, -41840.43161158939, 0.092, 0.912, -0.362, 192.0, 0.0, 0.0, 0.0, 0.0, 0.0, 0.0, 0.0, 0.0, 0.0, 1.741279872788358E9, 0.0, 2025-03-06 10:51:12.788
79.0, -37768.256696254815, -40712.33906893004, -48326.013782741284, -47118.08080888758, -24647.02274167809, -24611.662281949793, -54770.066412695225, -41870.13707997049, 0.092, 0.912, -0.362, 192.0, 0.0, 0.0, 0.0, 0.0, 0.0, 0.0, 0.0, 0.0, 0.0, 1.741279872788386E9, 0.0, 2025-03-06 10:51:12.788
80.0, -37804.57828099469, -40749.84529612605, -48366.06810880519, -47148.56858832462, -24609.471810993175, -24642.105357897923, -54798.8331078092, -41896.24391749429, 0.092, 0.912, -0.362, 192.0, 0.0, 0.0, 0.0, 0.0, 0.0, 0.0, 0.0, 0.0, 0.0, 1.741279872788424E9, 0.0, 2025-03-06 10:51:12.788
81.0, -37797.06809485771, -40754.53916246166, -48361.03896630275, -47151.630777315, -24620.49122100964, -24648.520308556595, -54792.82048855072, -41875.47914689531, 0.092, 0.912, -0.362, 192.0, 0.0, 0.0, 0.0, 0.0, 0.0, 0.0, 0.0, 0.0, 0.0, 1.741279872788455E9, 0.0, 2025-03-06 10:51:12.788
82.0, -37787.836824397666, -40738.87058959849, -48347.73967835184, -47131.31304160512, -24671.095570456455, -24616.06557560749, -54782.493982612374, -41896.91446982795, 0.092, 0.912, -0.362, 192.0, 0.0, 0.0, 0.0, 0.0, 0.0, 0.0, 0.0, 0.0, 0.0, 1.741279872788486E9, 0.0, 2025-03-06 10:51:12.788
83.0, -37797.112798346614, -40743.9667873343, -48350.086611519655, -47134.486989317775, -24670.045038467055, -24609.695328437727, -54768.01005220533, -41869.399472403464, 0.092, 0.912, -0.362, 192.0, 0.0, 0.0, 0.0, 0.0, 0.0, 0.0, 0.0, 0.0, 0.0, 1.741279872788515E9, 0.0, 2025-03-06 10:51:12.788
84.0, -37802.96895539391, -40762.58579046557, -48355.02634704427, -47152.390736626476, -24611.21524706069, -24612.1093168389, -54772.81567726323, -41860.458774621344, 0.092, 0.912, -0.362, 192.0, 0.0, 0.0, 0.0, 0.0, 0.0, 0.0, 0.0, 0.0, 0.0, 1.741279872788543E9, 0.0, 2025-03-06 10:51:12.788
85.0, -37792.53069073328, -40757.511944474216, -48348.29847196323, -47141.66189928793, -24619.35128204242, -24626.83911643495, -54787.16549720353, -41889.02430403523, 0.092, 0.912, -0.362, 192.0, 0.0, 0.0, 0.0, 0.0, 0.0, 0.0, 0.0, 0.0, 0.0, 1.74127987278857E9, 0.0, 2025-03-06 10:51:12.788
86.0, -37775.85628936962, -40745.03967106815, -48336.63086135755, -47139.65024228695, -24665.395875620354, -24640.607791019418, -54792.75343331736, -41890.65598138046, 0.092, 0.912, -0.362, 192.0, 0.0, 0.0, 0.0, 0.0, 0.0, 0.0, 0.0, 0.0, 0.0, 1.741279872788601E9, 0.0, 2025-03-06 10:51:12.788
87.0, -37772.70469340142, -40745.24083676825, -48341.79411432673, -47151.697832548365, -24681.153855461343, -24642.619448020396, -54782.60574133465, -41877.9825422743, 0.08600000000000001, 0.906, -0.364, 192.0, 2.0, 176.0, 28.0, 80.0, 244.0, 160.0, 0.0, 0.0, 0.0, 1.741279872788629E9, 0.0, 2025-03-06 10:51:12.788
88.0, -37776.25862076982, -40744.25736001222, -48350.66775687549, -47157.5316378512, -24637.612657262405, -24643.290000354053, -54785.287950669284, -41880.37417893102, 0.08600000000000001, 0.906, -0.364, 192.0, 0.0, 0.0, 0.0, 0.0, 0.0, 0.0, 0.0, 0.0, 0.0, 1.741279872788658E9, 0.0, 2025-03-06 10:51:12.788
89.0, -37788.105045331125, -40746.69370015785, -48354.981643555366, -47159.69975706336, -24646.642762022348, -24654.10824467042, -54788.573657104214, -41883.86105106605, 0.08600000000000001, 0.906, -0.364, 192.0, 0.0, 0.0, 0.0, 0.0, 0.0, 0.0, 0.0, 0.0, 0.0, 1.741279872788687E9, 0.0, 2025-03-06 10:51:12.788
90.0, -37810.702658975446, -40757.646054940946, -48379.61326594511, -47174.67542584842, -24685.065410741023, -24659.427959850786, -54792.216991450434, -41879.81538531964, 0.08600000000000001, 0.906, -0.364, 192.0, 0.0, 0.0, 0.0, 0.0, 0.0, 0.0, 0.0, 0.0, 0.0, 1.741279872788717E9, 0.0, 2025-03-06 10:51:12.788
91.0, -37811.08263863118, -40771.32532254759, -48393.404292274034, -47206.370199486046, -24707.305396474054, -24652.990657447655, -54788.46189838194, -41876.686141095895, 0.08600000000000001, 0.906, -0.364, 192.0, 0.0, 0.0, 0.0, 0.0, 0.0, 0.0, 0.0, 0.0, 0.0, 1.741279872848568E9, 0.0, 2025-03-06 10:51:12.848
92.0, -37799.68324895898, -40766.20677306733, -48372.6171699306, -47195.730769125315, -24669.106265199935, -24646.53100330007, -54799.45895665395, -41893.00291454827, 0.08600000000000001, 0.906, -0.364, 192.0, 0.0, 0.0, 0.0, 0.0, 0.0, 0.0, 0.0, 0.0, 0.0, 1.741279872848651E9, 0.0, 2025-03-06 10:51:12.848
93.0, -37807.95339440744, -40763.59161896606, -48374.49471646485, -47183.72788235282, -24656.142253415856, -24678.69516357126, -54808.69022711399, -41866.42669039091, 0.08600000000000001, 0.906, -0.364, 192.0, 0.0, 0.0, 0.0, 0.0, 0.0, 0.0, 0.0, 0.0, 0.0, 1.741279872848679E9, 0.0, 2025-03-06 10:51:12.848
94.0, -37798.63271696958, -40753.533333961175, -48370.829030374174, -47171.72499558032, -24689.871035798915, -24672.682544312782, -54802.69995959997, -41882.76581558774, 0.08600000000000001, 0.906, -0.364, 192.0, 0.0, 0.0, 0.0, 0.0, 0.0, 0.0, 0.0, 0.0, 0.0, 1.741279872848705E9, 0.0, 2025-03-06 10:51:12.848
95.0, -37790.36257152112, -40740.524618688185, -48363.363547726105, -47157.75515529575, -24714.12267853292, -24658.198613905744, -54792.775785061815, -41898.94847857338, 0.08600000000000001, 0.906, -0.364, 192.0, 0.0, 0.0, 0.0, 0.0, 0.0, 0.0, 0.0, 0.0, 0.0, 1.741279872848741E9, 0.0, 2025-03-06 10:51:12.848
96.0, -37802.030182126786, -40750.515848459705, -48381.49081247936, -47175.27892294871, -24678.78457054908, -24670.447369867252, -54797.06731999723, -41912.44893222439, 0.08600000000000001, 0.906, -0.364, 192.0, 0.0, 0.0, 0.0, 0.0, 0.0, 0.0, 0.0, 0.0, 0.0, 1.741279872848775E9, 0.0, 2025-03-06 10:51:12.848
97.0, -37810.81441769772, -40761.848182898546, -48386.363492770615, -47192.735635368306, -24647.223907378186, -24674.26951816911, -54804.2869334563, -41912.98537409132, 0.08600000000000001, 0.914, -0.362, 192.0, 2.0, 176.0, 28.0, 144.0, 244.0, 176.0, 0.0, 0.0, 0.0, 1.741279872848805E9, 0.0, 2025-03-06 10:51:12.848
98.0, -37800.30909780373, -40766.944380634355, -48374.405309487025, -47192.95915281286, -24691.949748033257, -24657.93039297228, -54801.872945055125, -41903.41882746444, 0.08600000000000001, 0.914, -0.362, 192.0, 0.0, 0.0, 0.0, 0.0, 0.0, 0.0, 0.0, 0.0, 0.0, 1.741279872848835E9, 0.0, 2025-03-06 10:51:12.848
99.0, -37798.23038556938, -40764.709206188825, -48375.947579854444, -47190.94749581188, -24707.59596915197, -24654.39881734834, -54794.85449729616, -41900.06606579615, 0.08600000000000001, 0.914, -0.362, 192.0, 0.0, 0.0, 0.0, 0.0, 0.0, 0.0, 0.0, 0.0, 0.0, 1.741279872848862E9, 0.0, 2025-03-06 10:51:12.848
100.0, -37821.610310269636, -40767.25730505673, -48401.83089993369, -47187.19240274339, -24643.602924776427, -24662.512500585617, -54808.444357924986, -41904.98344957631, 0.08600000000000001, 0.914, -0.362, 192.0, 0.0, 0.0, 0.0, 0.0, 0.0, 0.0, 0.0, 0.0, 0.0, 1.741279872848887E9, 0.0, 2025-03-06 10:51:12.848
101.0, -37817.25172010085, -40767.3243602901, -48396.48883300887, -47189.27111497773, -24604.554427213006, -24674.180111191286, -54814.27816322782, -41899.19434776239, 0.08600000000000001, 0.914, -0.362, 192.0, 0.0, 0.0, 0.0, 0.0, 0.0, 0.0, 0.0, 0.0, 0.0, 1.741279872848918E9, 0.0, 2025-03-06 10:51:12.848
102.0, -37825.521865549315, -40777.49440401726, -48392.420815518, -47199.441158704896, -24660.187919162265, -24693.000280022658, -54815.84278533969, -41906.97275483284, 0.08600000000000001, 0.914, -0.362, 192.0, 0.0, 0.0, 0.0, 0.0, 0.0, 0.0, 0.0, 0.0, 0.0, 1.741279872848945E9, 0.0, 2025-03-06 10:51:12.848
103.0, -37849.50528734986, -40795.062875159136, -48407.64235349207, -47204.42559771843, -24673.196634435255, -24705.249035984165, -54836.13816930511, -41949.12814487555, 0.08600000000000001, 0.914, -0.362, 192.0, 0.0, 0.0, 0.0, 0.0, 0.0, 0.0, 0.0, 0.0, 0.0, 1.741279872848972E9, 0.0, 2025-03-06 10:51:12.848
104.0, -37819.03985965727, -40777.76262495072, -48383.278952035784, -47184.71135910885, -24632.44940429323, -24690.206311965743, -54832.13720704761, -41940.857999427084, 0.08600000000000001, 0.914, -0.362, 192.0, 0.0, 0.0, 0.0, 0.0, 0.0, 0.0, 0.0, 0.0, 0.0, 1.741279872849002E9, 0.0, 2025-03-06 10:51:12.849
105.0, -37803.50539726084, -40773.806366182136, -48372.28189376377, -47185.49367016479, -24579.118142022868, -24688.239358453677, -54819.79904410828, -41920.00382185028, 0.08600000000000001, 0.914, -0.362, 192.0, 0.0, 0.0, 0.0, 0.0, 0.0, 0.0, 0.0, 0.0, 0.0, 1.741279872849029E9, 0.0, 2025-03-06 10:51:12.849
106.0, -37814.36834506611, -40776.48857551677, -48370.42669897398, -47177.692911349885, -24602.363956256388, -24677.622279837404, -54819.77669236383, -41929.7938859217, 0.08600000000000001, 0.914, -0.362, 192.0, 0.0, 0.0, 0.0, 0.0, 0.0, 0.0, 0.0, 0.0, 0.0, 1.74127987290874E9, 0.0, 2025-03-06 10:51:12.908
107.0, -37819.93392943549, -40784.22227909831, -48377.04281533275, -47187.0359405322, -24617.227866319165, -24680.25978568313, -54823.554137176776, -41930.55384523319, 0.088, 0.914, -0.358, 192.0, 2.0, 192.0, 28.0, 144.0, 244.0, 208.0, 0.0, 0.0, 0.0, 1.741279872908777E9, 0.0, 2025-03-06 10:51:12.908
108.0, -37823.51020854834, -40787.1280058775, -48389.42568176099, -47192.06508303465, -24598.541807954527, -24698.61056788094, -54825.923422089036, -41927.73752543182, 0.088, 0.914, -0.358, 192.0, 0.0, 0.0, 0.0, 0.0, 0.0, 0.0, 0.0, 0.0, 0.0, 1.741279872908826E9, 0.0, 2025-03-06 10:51:12.908
109.0, -37843.559723324746, -40793.90058444746, -48407.7764639588, -47199.88819359401, -24544.04825497249, -24699.99637603717, -54825.29757324429, -41923.98243236333, 0.088, 0.914, -0.358, 192.0, 0.0, 0.0, 0.0, 0.0, 0.0, 0.0, 0.0, 0.0, 0.0, 1.741279872908852E9, 0.0, 2025-03-06 10:51:12.908
110.0, -37840.184609911994, -40795.17463388141, -48400.690960966465, -47209.45474022088, -24560.00740051358, -24704.75729760615, -54819.687285386004, -41920.24969103929, 0.088, 0.914, -0.358, 192.0, 0.0, 0.0, 0.0, 0.0, 0.0, 0.0, 0.0, 0.0, 0.0, 1.741279872908888E9, 0.0, 2025-03-06 10:51:12.908
111.0, -37802.924251904995, -40768.129023090485, -48362.89416109254, -47184.130213753015, -24605.984938858146, -24687.188826464277, -54818.88262258561, -41959.521706047264, 0.088, 0.914, -0.358, 192.0, 0.0, 0.0, 0.0, 0.0, 0.0, 0.0, 0.0, 0.0, 0.0, 1.741279872908922E9, 0.0, 2025-03-06 10:51:12.908
112.0, -37784.30524877373, -40759.948284619844, -48355.33927146665, -47182.27501896322, -24574.536034409528, -24669.79916927805, -54816.535689417804, -41945.194237851414, 0.088, 0.914, -0.358, 192.0, 0.0, 0.0, 0.0, 0.0, 0.0, 0.0, 0.0, 0.0, 0.0, 1.741279872908952E9, 0.0, 2025-03-06 10:51:12.908
113.0, -37797.51512974681, -40760.12709857549, -48381.401405501536, -47190.634571389506, -24500.46235328464, -24674.425980380296, -54815.10517777267, -41939.181618592935, 0.088, 0.914, -0.358, 192.0, 0.0, 0.0, 0.0, 0.0, 0.0, 0.0, 0.0, 0.0, 0.0, 1.741279872908982E9, 0.0, 2025-03-06 10:51:12.908
114.0, -37815.21771135541, -40765.4244620114, -48382.451937490936, -47181.44800441838, -24516.66736801474, -24684.394858407362, -54804.376340434115, -41925.18942656391, 0.088, 0.914, -0.358, 192.0, 0.0, 0.0, 0.0, 0.0, 0.0, 0.0, 0.0, 0.0, 0.0, 1.741279872909009E9, 0.0, 2025-03-06 10:51:12.909
115.0, -37818.034031156785, -40764.75390967773, -48392.53257424028, -47186.52185040973, -24593.378554985353, -24684.908948529835, -54797.69316884198, -41913.96885084735, 0.088, 0.914, -0.358, 192.0, 0.0, 0.0, 0.0, 0.0, 0.0, 0.0, 0.0, 0.0, 0.0, 1.741279872909035E9, 0.0, 2025-03-06 10:51:12.909
116.0, -37826.1253626496, -40787.55268902215, -48401.98736214487, -47213.18748154491, -24636.562125273005, -24687.568806120016, -54800.15186073207, -41916.02521133723, 0.088, 0.914, -0.358, 192.0, 0.0, 0.0, 0.0, 0.0, 0.0, 0.0, 0.0, 0.0, 0.0, 1.741279872909062E9, 0.0, 2025-03-06 10:51:12.909
117.0, -37812.75901946533, -40790.77134022371, -48383.86009739162, -47225.726810184344, -24576.1006565214, -24695.79424807957, -54808.22084048043, -41908.96206008936, 0.084, 0.92, -0.358, 192.0, 2.0, 160.0, 28.0, 192.0, 244.0, 208.0, 0.0, 0.0, 0.0, 1.741279872909093E9, 0.0, 2025-03-06 10:51:12.909
118.0, -37837.72591802191, -40798.79561648317, -48404.64721973506, -47225.97267937335, -24570.311554707474, -24710.90402733136, -54826.52691918933, -41953.82201121116, 0.084, 0.92, -0.358, 192.0, 0.0, 0.0, 0.0, 0.0, 0.0, 0.0, 0.0, 0.0, 0.0, 1.741279872909123E9, 0.0, 2025-03-06 10:51:12.909
119.0, -37838.307063377746, -40799.06383741663, -48411.956240171945, -47219.0436385922, -24611.2599505496, -24724.69505366028, -54831.37724773613, -41956.75008973481, 0.084, 0.92, -0.358, 192.0, 0.0, 0.0, 0.0, 0.0, 0.0, 0.0, 0.0, 0.0, 0.0, 1.741279872909154E9, 0.0, 2025-03-06 10:51:12.909
120.0, -37819.643356757566, -40780.06485462962, -48398.23226907638, -47196.87070809254, -24626.101508867923, -24712.491001187685, -54814.18875625, -41943.093173872614, 0.084, 0.92, -0.358, 192.0, 0.0, 0.0, 0.0, 0.0, 0.0, 0.0, 0.0, 0.0, 0.0, 1.741279872909181E9, 0.0, 2025-03-06 10:51:12.909
121.0, -37797.403371024535, -40767.369063779006, -48390.00682711683, -47193.24972549078, -24601.402831244806, -24691.882692799893, -54798.11785198663, -41931.224397566846, 0.084, 0.92, -0.358, 192.0, 0.0, 0.0, 0.0, 0.0, 0.0, 0.0, 0.0, 0.0, 0.0, 1.74127987296891E9, 0.0, 2025-03-06 10:51:12.968
122.0, -37809.2721473303, -40784.53520352068, -48390.63267596158, -47209.38768498751, -24593.311499751988, -24695.21310272373, -54806.16447999054, -41931.38085977803, 0.084, 0.92, -0.358, 192.0, 0.0, 0.0, 0.0, 0.0, 0.0, 0.0, 0.0, 0.0, 0.0, 1.741279872968941E9, 0.0, 2025-03-06 10:51:12.968
123.0, -37824.896016704566, -40797.38745658248, -48400.825071433195, -47212.807501889176, -24650.64372427985, -24699.728155103705, -54808.17613699152, -41926.99991786479, 0.084, 0.92, -0.358, 192.0, 0.0, 0.0, 0.0, 0.0, 0.0, 0.0, 0.0, 0.0, 0.0, 1.741279872968981E9, 0.0, 2025-03-06 10:51:12.968
124.0, -37816.15648462254, -40776.68974121687, -48393.73956844087, -47190.701626622875, -24716.46961170073, -24701.426887682308, -54791.300569927764, -41897.42855995042, 0.084, 0.92, -0.358, 192.0, 0.0, 0.0, 0.0, 0.0, 0.0, 0.0, 0.0, 0.0, 0.0, 1.741279872969009E9, 0.0, 2025-03-06 10:51:12.969
125.0, -37817.38583056758, -40781.74123546377, -48395.505356252834, -47193.853222591075, -24716.290797745085, -24711.440469198285, -54799.50366014286, -41899.48492044031, 0.084, 0.92, -0.358, 192.0, 0.0, 0.0, 0.0, 0.0, 0.0, 0.0, 0.0, 0.0, 0.0, 1.741279872969044E9, 0.0, 2025-03-06 10:51:12.969
126.0, -37821.029164913794, -40796.98512518229, -48400.51214701082, -47209.67825766543, -24682.91964327331, -24714.99439656668, -54810.053683525766, -41940.27685407124, 0.084, 0.92, -0.358, 192.0, 0.0, 0.0, 0.0, 0.0, 0.0, 0.0, 0.0, 0.0, 0.0, 1.741279872969077E9, 0.0, 2025-03-06 10:51:12.969
127.0, -37819.01750791282, -40806.17169215342, -48386.207030559424, -47210.50527221028, -24730.707672918757, -24695.146047490365, -54806.58916313519, -41955.58779902313, 0.088, 0.92, -0.354, 192.0, 2.0, 192.0, 28.0, 192.0, 244.0, 240.0, 0.0, 0.0, 0.0, 1.741279872969109E9, 0.0, 2025-03-06 10:51:12.969
128.0, -37812.84842644315, -40790.05608440114, -48385.69294043696, -47195.95428656987, -24767.543347781106, -24693.447314911762, -54799.81658456523, -41936.9017406585, 0.088, 0.92, -0.354, 192.0, 0.0, 0.0, 0.0, 0.0, 0.0, 0.0, 0.0, 0.0, 0.0, 1.741279872969139E9, 0.0, 2025-03-06 10:51:12.969
129.0, -37816.67057474501, -40780.40013079645, -48386.13997532606, -47186.231277731815, -24754.22170808574, -24696.26363471313, -54799.30249444277, -41931.358508033576, 0.088, 0.92, -0.354, 192.0, 0.0, 0.0, 0.0, 0.0, 0.0, 0.0, 0.0, 0.0, 0.0, 1.741279872969165E9, 0.0, 2025-03-06 10:51:12.969
130.0, -37836.071888932216, -40797.566270538126, -48405.8765656801, -47200.37993197202, -24723.309245504053, -24702.2315504827, -54808.04202652479, -41932.83372316763, 0.088, 0.92, -0.354, 192.0, 0.0, 0.0, 0.0, 0.0, 0.0, 0.0, 0.0, 0.0, 0.0, 1.741279872969193E9, 0.0, 2025-03-06 10:51:12.969
131.0, -37830.126324907105, -40801.053142673154, -48399.7745394438, -47201.318705239144, -24742.196469568786, -24693.84964631196, -54806.410349179554, -41931.80554292268, 0.088, 0.92, -0.354, 192.0, 0.0, 0.0, 0.0, 0.0, 0.0, 0.0, 0.0, 0.0, 0.0, 1.74127987296922E9, 0.0, 2025-03-06 10:51:12.969
132.0, -37820.693888746966, -40792.29125884667, -48394.7230451969, -47199.41880696044, -24772.75130423919, -24695.79424807957, -54801.69413109948, -41882.67640860992, 0.088, 0.92, -0.354, 192.0, 0.0, 0.0, 0.0, 0.0, 0.0, 0.0, 0.0, 0.0, 0.0, 1.741279872969249E9, 0.0, 2025-03-06 10:51:12.969
133.0, -37813.09429563216, -40776.89090691697, -48388.68807419397, -47183.52671665272, -24772.416028072363, -24691.435657910784, -54791.41232865004, -41902.52475768623, 0.088, 0.92, -0.354, 192.0, 0.0, 0.0, 0.0, 0.0, 0.0, 0.0, 0.0, 0.0, 0.0, 1.741279872969276E9, 0.0, 2025-03-06 10:51:12.969
134.0, -37824.49368530437, -40786.390398310476, -48396.287667308774, -47202.68216165092, -24720.55998093605, -24705.249035984165, -54808.04202652479, -41973.69271203193, 0.088, 0.92, -0.354, 192.0, 0.0, 0.0, 0.0, 0.0, 0.0, 0.0, 0.0, 0.0, 0.0, 1.741279872969307E9, 0.0, 2025-03-06 10:51:12.969
135.0, -37838.3294151222, -40800.67316301741, -48413.61026926163, -47204.112673296055, -24713.675643643815, -24684.484265385185, -54809.24902072537, -41965.53432530574, 0.088, 0.92, -0.354, 192.0, 0.0, 0.0, 0.0, 0.0, 0.0, 0.0, 0.0, 0.0, 0.0, 1.741279872969333E9, 0.0, 2025-03-06 10:51:12.969
136.0, -37827.91350220603, -40799.06383741663, -48405.80951044673, -47207.063103564156, -24748.589068483005, -24704.198503994765, -54812.95941030496, -41927.223435309344, 0.088, 0.92, -0.354, 192.0, 0.0, 0.0, 0.0, 0.0, 0.0, 0.0, 0.0, 0.0, 0.0, 1.74127987302834E9, 0.0, 2025-03-06 10:51:13.028
137.0, -37830.30513886275, -40800.76256999523, -48411.956240171945, -47214.90856586797, -24754.64639123039, -24711.596931409473, -54824.738779632906, -41946.937673918925, 0.094, 0.92, -0.354, 192.0, 2.0, 240.0, 28.0, 192.0, 244.0, 240.0, 0.0, 0.0, 0.0, 1.741279873028379E9, 0.0, 2025-03-06 10:51:13.028
138.0, -37826.840618472175, -40793.54295653617, -48400.51214701082, -47207.19721403089, -24668.815692522014, -24702.27625397161, -54816.535689417804, -41947.429412296944, 0.094, 0.92, -0.354, 192.0, 0.0, 0.0, 0.0, 0.0, 0.0, 0.0, 0.0, 0.0, 0.0, 1.741279873028427E9, 0.0, 2025-03-06 10:51:13.028
139.0, -37838.97761571141, -40799.22029962782, -48412.023295405306, -47218.84247289211, -24638.55143052953, -24693.64848061186, -54817.16153826255, -41924.63063295253, 0.094, 0.92, -0.354, 192.0, 0.0, 0.0, 0.0, 0.0, 0.0, 0.0, 0.0, 0.0, 0.0, 1.741279873028454E9, 0.0, 2025-03-06 10:51:13.028
140.0, -37851.025205972815, -40799.89085196148, -48427.893033968576, -47221.167054315454, -24684.35015491845, -24720.247056513675, -54818.70380862997, -41908.559728689164, 0.094, 0.92, -0.354, 192.0, 0.0, 0.0, 0.0, 0.0, 0.0, 0.0, 0.0, 0.0, 0.0, 1.741279873028489E9, 0.0, 2025-03-06 10:51:13.028
141.0, -37850.51111585034, -40790.16784312342, -48436.94549047297, -47212.24870827779, -24694.45314341225, -24712.26748374313, -54816.37922720662, -41928.34102253211, 0.094, 0.92, -0.354, 192.0, 0.0, 0.0, 0.0, 0.0, 0.0, 0.0, 0.0, 0.0, 0.0, 1.74127987302853E9, 0.0, 2025-03-06 10:51:13.028
142.0, -37844.14086868058, -40790.34665707906, -48435.02324044982, -47216.18261530192, -24667.340477387963, -24712.334538976498, -54820.80487260877, -41950.62571175405, 0.094, 0.92, -0.354, 192.0, 0.0, 0.0, 0.0, 0.0, 0.0, 0.0, 0.0, 0.0, 0.0, 1.741279873028563E9, 0.0, 2025-03-06 10:51:13.028
143.0, -37842.10685993515, -40795.42050307042, -48434.19622590497, -47234.01930737726, -24652.1189394139, -24714.480306444206, -54829.49970120189, -41954.425508311455, 0.094, 0.92, -0.354, 192.0, 0.0, 0.0, 0.0, 0.0, 0.0, 0.0, 0.0, 0.0, 0.0, 1.74127987302859E9, 0.0, 2025-03-06 10:51:13.028
144.0, -37860.77056655533, -40823.159017939455, -48453.86576102564, -47258.29330185572, -24678.44929438225, -24710.83697209799, -54838.10512281718, -41957.39829032401, 0.094, 0.92, -0.354, 192.0, 0.0, 0.0, 0.0, 0.0, 0.0, 0.0, 0.0, 0.0, 0.0, 1.741279873028617E9, 0.0, 2025-03-06 10:51:13.028
145.0, -37827.466467316925, -40803.26596537423, -48424.808493233744, -47217.97075485835, -24678.181073448788, -24705.98664355119, -54824.291744743794, -41933.07959235663, 0.094, 0.92, -0.354, 192.0, 0.0, 0.0, 0.0, 0.0, 0.0, 0.0, 0.0, 0.0, 0.0, 1.741279873028643E9, 0.0, 2025-03-06 10:51:13.028
146.0, -37818.726935234896, -40786.77037796621, -48415.241946606875, -47203.352713984576, -24602.654528934305, -24704.399669694863, -54825.87871860012, -41945.127182618045, 0.094, 0.92, -0.354, 192.0, 0.0, 0.0, 0.0, 0.0, 0.0, 0.0, 0.0, 0.0, 0.0, 1.74127987302867E9, 0.0, 2025-03-06 10:51:13.028
147.0, -37834.82019124272, -40795.1299303925, -48414.90667044004, -47211.309935010664, -24564.76832208256, -24711.84280059848, -54827.242175011896, -41945.10483087359, 0.096, 0.916, -0.356, 192.0, 3.0, 0.0, 28.0, 160.0, 244.0, 224.0, 0.0, 0.0, 0.0, 1.7412798730287E9, 0.0, 2025-03-06 10:51:13.028
148.0, -37853.14862169607, -40813.59247131258, -48431.08933342568, -47240.56836850267, -24603.705060923705, -24723.063376315044, -54836.80872163877, -41950.69276698742, 0.096, 0.916, -0.356, 192.0, 0.0, 0.0, 0.0, 0.0, 0.0, 0.0, 0.0, 0.0, 0.0, 1.741279873028729E9, 0.0, 2025-03-06 10:51:13.028
149.0, -37863.542182867786, -40826.06474471864, -48441.46054285295, -47247.09507788361, -24630.214229847697, -24731.780556652615, -54839.35682050668, -41958.605284524594, 0.096, 0.916, -0.356, 192.0, 0.0, 0.0, 0.0, 0.0, 0.0, 0.0, 0.0, 0.0, 0.0, 1.74127987302876E9, 0.0, 2025-03-06 10:51:13.028
150.0, -37849.572342583226, -40833.217302944344, -48437.28076663981, -47241.238920836324, -24602.095735322924, -24729.903010118367, -54836.22757628293, -41949.12814487555, 0.096, 0.916, -0.356, 192.0, 0.0, 0.0, 0.0, 0.0, 0.0, 0.0, 0.0, 0.0, 0.0, 1.741279873028787E9, 0.0, 2025-03-06 10:51:13.028
151.0, -37864.12332822363, -40851.07634676413, -48455.89976977107, -47260.193200134425, -24554.28535393302, -24736.22855379922, -54842.73193391943, -41951.98916816583, 0.096, 0.916, -0.356, 192.0, 0.0, 0.0, 0.0, 0.0, 0.0, 0.0, 0.0, 0.0, 0.0, 1.741279873088006E9, 0.0, 2025-03-06 10:51:13.088
152.0, -37867.945476525485, -40859.301788723686, -48446.71320279995, -47267.56927580467, -24606.275511536063, -24727.55607695056, -54840.27324202934, -41944.0990023731, 0.096, 0.916, -0.356, 192.0, 0.0, 0.0, 0.0, 0.0, 0.0, 0.0, 0.0, 0.0, 0.0, 1.74127987308804E9, 0.0, 2025-03-06 10:51:13.088
153.0, -37858.7365578099, -40858.877105579035, -48430.888167725585, -47263.14363040253, -24639.132575885367, -24725.23149552721, -54838.52980596183, -41951.29626408771, 0.096, 0.916, -0.356, 192.0, 0.0, 0.0, 0.0, 0.0, 0.0, 0.0, 0.0, 0.0, 0.0, 1.741279873088078E9, 0.0, 2025-03-06 10:51:13.088
154.0, -37859.29535142128, -40849.42231767444, -48436.81138000624, -47260.43906932343, -24621.653511721317, -24743.80579516957, -54838.68626817301, -41935.22535982435, 0.096, 0.916, -0.356, 192.0, 0.0, 0.0, 0.0, 0.0, 0.0, 0.0, 0.0, 0.0, 0.0, 1.741279873088104E9, 0.0, 2025-03-06 10:51:13.088
155.0, -37868.48191839241, -40848.30473045167, -48442.17579867552, -47261.243732123825, -24587.410639215785, -24741.74943467968, -54832.60659368117, -41952.123278632556, 0.096, 0.916, -0.356, 192.0, 0.0, 0.0, 0.0, 0.0, 0.0, 0.0, 0.0, 0.0, 0.0, 1.741279873088138E9, 0.0, 2025-03-06 10:51:13.088
156.0, -37889.64902039159, -40859.167678256956, -48456.88324652711, -47254.62761576505, -24630.527154270072, -24737.65906544436, -54838.41804723955, -41981.02408421327, 0.096, 0.916, -0.356, 192.0, 0.0, 0.0, 0.0, 0.0, 0.0, 0.0, 0.0, 0.0, 0.0, 1.741279873088172E9, 0.0, 2025-03-06 10:51:13.088
157.0, -37885.558651156265, -40848.818820574146, -48439.96297597444, -47233.572272488156, -24690.832160810492, -24734.351007264973, -54828.24800351239, -41954.2019908669, 0.09, 0.916, -0.358, 192.0, 2.0, 208.0, 28.0, 160.0, 244.0, 208.0, 0.0, 0.0, 0.0, 1.741279873088202E9, 0.0, 2025-03-06 10:51:13.088
158.0, -37912.961889858474, -40869.11420453957, -48478.9444183045, -47259.992034434326, -24687.367640419918, -24744.81162367006, -54843.76011416437, -41980.46529060189, 0.09, 0.916, -0.358, 192.0, 0.0, 0.0, 0.0, 0.0, 0.0, 0.0, 0.0, 0.0, 0.0, 1.741279873088232E9, 0.0, 2025-03-06 10:51:13.088
159.0, -37899.617898418655, -40880.6477046785, -48471.16601123405, -47271.74905201782, -24622.30171231052, -24755.071074375042, -54856.90293990409, -41991.01531398479, 0.09, 0.916, -0.358, 192.0, 0.0, 0.0, 0.0, 0.0, 0.0, 0.0, 0.0, 0.0, 0.0, 1.741279873088258E9, 0.0, 2025-03-06 10:51:13.088
160.0, -37877.35556094117, -40869.918867339955, -48440.65588005255, -47257.91332219998, -24614.612712217895, -24742.911725391357, -54851.627928212634, -41986.164985437994, 0.09, 0.916, -0.358, 192.0, 0.0, 0.0, 0.0, 0.0, 0.0, 0.0, 0.0, 0.0, 0.0, 1.741279873088286E9, 0.0, 2025-03-06 10:51:13.088
161.0, -37876.14856674058, -40862.788660858714, -48436.409048606045, -47245.73162147184, -24650.82253823549, -24746.622114970938, -54846.554082221286, -41978.38657836754, 0.09, 0.916, -0.358, 192.0, 0.0, 0.0, 0.0, 0.0, 0.0, 0.0, 0.0, 0.0, 0.0, 1.741279873088312E9, 0.0, 2025-03-06 10:51:13.088
162.0, -37865.66559859105, -40845.600169372585, -48433.95035671596, -47240.277795824746, -24671.073218712, -24736.74264392169, -54834.61825068215, -41977.850136500616, 0.09, 0.916, -0.358, 192.0, 0.0, 0.0, 0.0, 0.0, 0.0, 0.0, 0.0, 0.0, 0.0, 1.741279873088344E9, 0.0, 2025-03-06 10:51:13.088
163.0, -37889.201985502485, -40857.87127707854, -48459.02901399482, -47264.35062460311, -24620.312407053996, -24754.154652852376, -54851.359707279174, -41955.72190948986, 0.09, 0.916, -0.358, 192.0, 0.0, 0.0, 0.0, 0.0, 0.0, 0.0, 0.0, 0.0, 0.0, 1.741279873088371E9, 0.0, 2025-03-06 10:51:13.088
164.0, -37883.97167729994, -40859.81587884616, -48453.53048485881, -47278.45457535441, -24632.82938394897, -24757.75328370968, -54852.79021892431, -41983.102796447616, 0.09, 0.916, -0.358, 192.0, 0.0, 0.0, 0.0, 0.0, 0.0, 0.0, 0.0, 0.0, 0.0, 1.741279873088398E9, 0.0, 2025-03-06 10:51:13.088
165.0, -37869.15247072607, -40842.56033212666, -48446.0873539552, -47251.87835119705, -24675.70002981425, -24730.99824559668, -54835.624079182635, -41989.18247093946, 0.09, 0.916, -0.358, 192.0, 0.0, 0.0, 0.0, 0.0, 0.0, 0.0, 0.0, 0.0, 0.0, 1.741279873088427E9, 0.0, 2025-03-06 10:51:13.088
166.0, -37876.01445627385, -40835.7877535567, -48456.21269419345, -47244.748144715806, -24673.12957920189, -24730.439451985294, -54839.84855888469, -42003.442883901946, 0.09, 0.916, -0.358, 192.0, 0.0, 0.0, 0.0, 0.0, 0.0, 0.0, 0.0, 0.0, 0.0, 1.741279873148255E9, 0.0, 2025-03-06 10:51:13.148
167.0, -37876.79676732979, -40827.338794152594, -48455.05040348177, -47235.40511553349, -24646.285134111065, -24730.908838618856, -54844.296556031295, -41982.58870632514, 0.094, 0.918, -0.354, 192.0, 2.0, 240.0, 28.0, 176.0, 244.0, 240.0, 0.0, 0.0, 0.0, 1.741279873148291E9, 0.0, 2025-03-06 10:51:13.148
168.0, -37881.66944762105, -40836.79358205719, -48475.278732213825, -47254.35939483159, -24643.334703842964, -24748.924344649833, -54851.71733519046, -41978.09600568962, 0.094, 0.918, -0.354, 192.0, 0.0, 0.0, 0.0, 0.0, 0.0, 0.0, 0.0, 0.0, 0.0, 1.741279873148333E9, 0.0, 2025-03-06 10:51:13.148
169.0, -37877.42261617454, -40838.06763149114, -48463.745232074885, -47263.63536878054, -24669.93327974478, -24745.459824259262, -54849.63862295612, -42001.49828213433, 0.094, 0.918, -0.354, 192.0, 0.0, 0.0, 0.0, 0.0, 0.0, 0.0, 0.0, 0.0, 0.0, 1.741279873148359E9, 0.0, 2025-03-06 10:51:13.148
170.0, -37875.29920045128, -40828.322270908626, -48454.513961614844, -47254.13587738704, -24665.68644829827, -24757.440359287306, -54856.70177420399, -41981.24760165782, 0.094, 0.918, -0.354, 192.0, 0.0, 0.0, 0.0, 0.0, 0.0, 0.0, 0.0, 0.0, 0.0, 1.741279873148396E9, 0.0, 2025-03-06 10:51:13.148
171.0, -37864.05627299026, -40820.74502953828, -48458.82784829472, -47261.243732123825, -24638.216154362697, -24758.535594765617, -54854.645413714105, -41988.55662209471, 0.094, 0.918, -0.354, 192.0, 0.0, 0.0, 0.0, 0.0, 0.0, 0.0, 0.0, 0.0, 0.0, 1.741279873148429E9, 0.0, 2025-03-06 10:51:13.148
172.0, -37862.0893194782, -40820.141532437985, -48460.68304308451, -47253.08534539764, -24626.727357712673, -24731.914667119345, -54862.17795159554, -42002.034724001256, 0.094, 0.918, -0.354, 192.0, 0.0, 0.0, 0.0, 0.0, 0.0, 0.0, 0.0, 0.0, 0.0, 1.741279873148459E9, 0.0, 2025-03-06 10:51:13.148
173.0, -37863.899810779076, -40828.322270908626, -48454.71512731494, -47258.44976406691, -24680.59506184996, -24728.874829873424, -54867.56472200927, -41997.09498847664, 0.094, 0.918, -0.354, 192.0, 0.0, 0.0, 0.0, 0.0, 0.0, 0.0, 0.0, 0.0, 0.0, 1.741279873148486E9, 0.0, 2025-03-06 10:51:13.148
174.0, -37881.40122668758, -40838.402907657975, -48473.37883393512, -47267.77044150477, -24692.35207943345, -24742.50939399116, -54876.304254091294, -41997.72083732139, 0.094, 0.918, -0.354, 192.0, 0.0, 0.0, 0.0, 0.0, 0.0, 0.0, 0.0, 0.0, 0.0, 1.74127987314852E9, 0.0, 2025-03-06 10:51:13.148
175.0, -37885.581002900726, -40838.17939021342, -48472.6412263681, -47267.055185682206, -24646.910982955815, -24762.871833189947, -54876.41601281357, -42004.40400891352, 0.094, 0.918, -0.354, 192.0, 0.0, 0.0, 0.0, 0.0, 0.0, 0.0, 0.0, 0.0, 0.0, 1.741279873148548E9, 0.0, 2025-03-06 10:51:13.148
176.0, -37894.70051463849, -40857.960684056365, -48479.63732238261, -47283.08138645666, -24591.411601473286, -24774.42768507334, -54888.37419609716, -42024.00648880083, 0.094, 0.918, -0.354, 192.0, 0.0, 0.0, 0.0, 0.0, 0.0, 0.0, 0.0, 0.0, 0.0, 1.741279873148574E9, 0.0, 2025-03-06 10:51:13.148
177.0, -37901.27192750835, -40866.72256788285, -48486.65577014158, -47289.65279932652, -24629.856601936415, -24756.300420320087, -54870.202227855, -42001.43122690097, 0.096, 0.924, -0.35000000000000003, 192.0, 3.0, 0.0, 28.0, 224.0, 245.0, 16.0, 0.0, 0.0, 0.0, 1.741279873148604E9, 0.0, 2025-03-06 10:51:13.148
178.0, -37901.11546529716, -40874.72449239784, -48482.85597358418, -47295.2630871848, -24667.653401810338, -24766.13518788042, -54867.67648073155, -41993.65281983052, 0.096, 0.924, -0.35000000000000003, 192.0, 0.0, 0.0, 0.0, 0.0, 0.0, 0.0, 0.0, 0.0, 0.0, 1.741279873148632E9, 0.0, 2025-03-06 10:51:13.148
179.0, -37894.164072771564, -40878.18901278842, -48477.379796192625, -47301.38746516556, -24654.53292781507, -24771.745475738702, -54868.72701272095, -41994.99392449784, 0.096, 0.924, -0.35000000000000003, 192.0, 0.0, 0.0, 0.0, 0.0, 0.0, 0.0, 0.0, 0.0, 0.0, 1.741279873148659E9, 0.0, 2025-03-06 10:51:13.148
180.0, -37890.92306982554, -40868.175431272444, -48473.35648219067, -47276.37586312007, -24598.81002888799, -24757.015676142655, -54854.8465794142, -41986.790834282736, 0.096, 0.924, -0.35000000000000003, 192.0, 0.0, 0.0, 0.0, 0.0, 0.0, 0.0, 0.0, 0.0, 0.0, 1.741279873148689E9, 0.0, 2025-03-06 10:51:13.148
181.0, -37909.609128190175, -40880.02185583375, -48475.435194425016, -47269.40211885001, -24629.92365716978, -24749.550193494582, -54840.69792517399, -41981.42641561347, 0.096, 0.924, -0.35000000000000003, 192.0, 0.0, 0.0, 0.0, 0.0, 0.0, 0.0, 0.0, 0.0, 0.0, 1.741279873208501E9, 0.0, 2025-03-06 10:51:13.208
182.0, -37924.07070685276, -40892.80705366219, -48485.09114802971, -47279.21453466589, -24679.388067649375, -24772.863062961467, -54860.34510855021, -41975.01146495479, 0.096, 0.924, -0.35000000000000003, 192.0, 0.0, 0.0, 0.0, 0.0, 0.0, 0.0, 0.0, 0.0, 0.0, 1.741279873208569E9, 0.0, 2025-03-06 10:51:13.208
183.0, -37925.45651500899, -40894.84106240762, -48489.38268296512, -47284.668360312986, -24682.94199501777, -24781.222615387753, -54864.010794640875, -41959.27583685826, 0.096, 0.924, -0.35000000000000003, 192.0, 0.0, 0.0, 0.0, 0.0, 0.0, 0.0, 0.0, 0.0, 0.0, 1.741279873208603E9, 0.0, 2025-03-06 10:51:13.208
184.0, -37907.97745084494, -40890.124844327554, -48481.02313053884, -47277.98518872085, -24623.374596044374, -24767.275126847642, -54853.103143346685, -42004.761636824805, 0.096, 0.924, -0.35000000000000003, 192.0, 0.0, 0.0, 0.0, 0.0, 0.0, 0.0, 0.0, 0.0, 0.0, 1.74127987320863E9, 0.0, 2025-03-06 10:51:13.208
185.0, -37886.340962212205, -40872.8469458636, -48451.787048791295, -47247.87738893955, -24642.753558487126, -24736.764995666148, -54851.13618983462, -42024.69939287894, 0.096, 0.924, -0.35000000000000003, 192.0, 0.0, 0.0, 0.0, 0.0, 0.0, 0.0, 0.0, 0.0, 0.0, 1.741279873208656E9, 0.0, 2025-03-06 10:51:13.208
186.0, -37899.41673271856, -40878.56899244416, -48470.607217622666, -47264.14945890301, -24679.83510253848, -24755.316943564052, -54867.81059119828, -42001.5653373677, 0.096, 0.924, -0.35000000000000003, 192.0, 0.0, 0.0, 0.0, 0.0, 0.0, 0.0, 0.0, 0.0, 0.0, 1.741279873208692E9, 0.0, 2025-03-06 10:51:13.208
187.0, -37891.727732625935, -40865.448518448895, -48463.27584544133, -47261.73547050184, -24705.494905173175, -24750.779539439623, -54852.52199799085, -41982.70046504742, 0.098, 0.916, -0.352, 192.0, 3.0, 16.0, 28.0, 160.0, 245.0, 0.0, 0.0, 0.0, 0.0, 1.741279873208721E9, 0.0, 2025-03-06 10:51:13.208
188.0, -37897.00274431738, -40873.0481115637, -48471.21071472296, -47263.07657516916, -24674.627146080395, -24754.311115063563, -54851.0467828568, -41994.613944842094, 0.098, 0.916, -0.352, 192.0, 0.0, 0.0, 0.0, 0.0, 0.0, 0.0, 0.0, 0.0, 0.0, 1.741279873208753E9, 0.0, 2025-03-06 10:51:13.208
189.0, -37898.12033154015, -40882.70406516839, -48474.45171766898, -47272.39725260702, -24672.615489079417, -24757.93209766532, -54857.19351258201, -42024.27470973429, 0.098, 0.916, -0.352, 192.0, 0.0, 0.0, 0.0, 0.0, 0.0, 0.0, 0.0, 0.0, 0.0, 1.74127987320878E9, 0.0, 2025-03-06 10:51:13.208
190.0, -37895.97456407244, -40882.59230644612, -48479.45850842697, -47286.70236905842, -24705.31609121753, -24754.132301107922, -54858.73578294943, -42013.54587239574, 0.098, 0.916, -0.352, 192.0, 0.0, 0.0, 0.0, 0.0, 0.0, 0.0, 0.0, 0.0, 0.0, 1.741279873208806E9, 0.0, 2025-03-06 10:51:13.208
191.0, -37910.30203226829, -40878.23371627733, -48483.63828464011, -47281.44970911142, -24729.545382207085, -24756.546289509093, -54849.70567818948, -42003.37582866858, 0.098, 0.916, -0.352, 192.0, 0.0, 0.0, 0.0, 0.0, 0.0, 0.0, 0.0, 0.0, 0.0, 1.741279873208833E9, 0.0, 2025-03-06 10:51:13.208
192.0, -37940.56629426078, -40898.931431642945, -48509.63336344163, -47311.4681019149, -24692.620300366914, -24778.562757797572, -54859.31692830526, -42008.09204674864, 0.098, 0.916, -0.352, 192.0, 0.0, 0.0, 0.0, 0.0, 0.0, 0.0, 0.0, 0.0, 0.0, 1.741279873208863E9, 0.0, 2025-03-06 10:51:13.208
193.0, -37930.88798891163, -40908.028591636255, -48515.98125886694, -47333.41751497001, -24658.846814494947, -24779.9485659538, -54870.62691099965, -42002.54881412373, 0.098, 0.916, -0.352, 192.0, 0.0, 0.0, 0.0, 0.0, 0.0, 0.0, 0.0, 0.0, 0.0, 1.741279873208891E9, 0.0, 2025-03-06 10:51:13.208
194.0, -37906.03284907733, -40894.103454840595, -48484.241781740406, -47315.67022987249, -24695.973062035213, -24767.208071614277, -54852.58905322422, -41974.38561611004, 0.098, 0.916, -0.352, 192.0, 0.0, 0.0, 0.0, 0.0, 0.0, 0.0, 0.0, 0.0, 0.0, 1.741279873208918E9, 0.0, 2025-03-06 10:51:13.208
195.0, -37901.02605831934, -40879.84304187811, -48479.413804938056, -47288.06582547019, -24729.679492673815, -24757.50741452067, -54854.55600673628, -42010.05900026071, 0.098, 0.916, -0.352, 192.0, 0.0, 0.0, 0.0, 0.0, 0.0, 0.0, 0.0, 0.0, 0.0, 1.741279873208948E9, 0.0, 2025-03-06 10:51:13.208
196.0, -37896.93568908402, -40878.23371627733, -48485.38172070763, -47286.25533416931, -24714.83793435549, -24767.878623947934, -54857.037050370825, -42015.244604974345, 0.098, 0.916, -0.352, 192.0, 0.0, 0.0, 0.0, 0.0, 0.0, 0.0, 0.0, 0.0, 0.0, 1.741279873268744E9, 0.0, 2025-03-06 10:51:13.268
197.0, -37924.003651619394, -40898.7526176873, -48507.8005203963, -47301.14159597654, -24697.35887019144, -24775.969955440756, -54862.893207418114, -42014.059962518215, 0.1, 0.918, -0.356, 192.0, 3.0, 32.0, 28.0, 176.0, 244.0, 224.0, 0.0, 0.0, 0.0, 1.741279873268809E9, 0.0, 2025-03-06 10:51:13.268
198.0, -37919.533302728334, -40890.48247223884, -48502.14552904911, -47299.956953520414, -24736.452071243773, -24770.449074560296, -54863.452001029495, -42022.106590522126, 0.1, 0.918, -0.356, 192.0, 0.0, 0.0, 0.0, 0.0, 0.0, 0.0, 0.0, 0.0, 0.0, 1.741279873268851E9, 0.0, 2025-03-06 10:51:13.268
199.0, -37898.947346085, -40867.683692894425, -48495.93174409053, -47286.92588650297, -24770.0467431601, -24763.542385523604, -54851.650279957095, -42004.64987810253, 0.1, 0.918, -0.356, 192.0, 0.0, 0.0, 0.0, 0.0, 0.0, 0.0, 0.0, 0.0, 0.0, 1.741279873268878E9, 0.0, 2025-03-06 10:51:13.268
200.0, -37900.57902343023, -40874.45627146438, -48482.87832532863, -47296.98417150786, -24746.644466715392, -24759.89905117739, -54857.81936142676, -41990.277706417764, 0.1, 0.918, -0.356, 192.0, 0.0, 0.0, 0.0, 0.0, 0.0, 0.0, 0.0, 0.0, 0.0, 1.741279873268905E9, 0.0, 2025-03-06 10:51:13.268
201.0, -37922.059049851785, -40896.271574052764, -48502.99489533841, -47317.234851984365, -24697.247111469165, -24779.121551408953, -54878.94175993702, -42025.45935219042, 0.1, 0.918, -0.356, 192.0, 0.0, 0.0, 0.0, 0.0, 0.0, 0.0, 0.0, 0.0, 0.0, 1.741279873268938E9, 0.0, 2025-03-06 10:51:13.268
202.0, -37923.89189289712, -40893.343495529116, -48502.70432266049, -47310.4175699255, -24746.644466715392, -24762.961240167766, -54867.96705340947, -42014.819921829694, 0.1, 0.918, -0.356, 192.0, 0.0, 0.0, 0.0, 0.0, 0.0, 0.0, 0.0, 0.0, 0.0, 1.741279873268971E9, 0.0, 2025-03-06 10:51:13.268
203.0, -37909.51972121235, -40877.87608836604, -48488.220392253446, -47286.94823824742, -24791.772638770657, -24754.80285344158, -54853.326660791245, -41980.1076626906, 0.1, 0.918, -0.356, 192.0, 0.0, 0.0, 0.0, 0.0, 0.0, 0.0, 0.0, 0.0, 0.0, 1.741279873269001E9, 0.0, 2025-03-06 10:51:13.269
204.0, -37894.63345940512, -40867.75074812779, -48463.83463905271, -47270.07267118367, -24804.222560432263, -24751.159519095367, -54845.7941229098, -41964.66260727199, 0.1, 0.918, -0.356, 192.0, 0.0, 0.0, 0.0, 0.0, 0.0, 0.0, 0.0, 0.0, 0.0, 1.741279873269028E9, 0.0, 2025-03-06 10:51:13.269
205.0, -37924.69655569751, -40890.34836177211, -48486.52165967484, -47293.07261622818, -24767.99038267021, -24776.10406590749, -54856.43355327053, -42005.253375202825, 0.1, 0.918, -0.356, 192.0, 0.0, 0.0, 0.0, 0.0, 0.0, 0.0, 0.0, 0.0, 0.0, 1.741279873269055E9, 0.0, 2025-03-06 10:51:13.269
206.0, -37924.6518522086, -40899.065542109674, -48487.661598642066, -47309.23292746937, -24812.068022736075, -24770.873757704947, -54856.545311992806, -42015.0657910187, 0.1, 0.918, -0.356, 192.0, 0.0, 0.0, 0.0, 0.0, 0.0, 0.0, 0.0, 0.0, 0.0, 1.741279873269082E9, 0.0, 2025-03-06 10:51:13.269
207.0, -37896.198081516995, -40887.554393715196, -48470.5401623893, -47280.68974979994, -24877.759799690226, -24746.555059737573, -54857.461733515476, -41983.19220342543, 0.1, 0.918, -0.354, 192.0, 3.0, 32.0, 28.0, 176.0, 244.0, 240.0, 0.0, 0.0, 0.0, 1.741279873269112E9, 0.0, 2025-03-06 10:51:13.269
208.0, -37900.377857730135, -40886.01212334778, -48486.052273041285, -47267.27870312676, -24858.716113414303, -24762.13422562292, -54860.099239361196, -42012.89767180654, 0.1, 0.918, -0.354, 192.0, 0.0, 0.0, 0.0, 0.0, 0.0, 0.0, 0.0, 0.0, 0.0, 1.741279873269142E9, 0.0, 2025-03-06 10:51:13.269
209.0, -37920.67324169556, -40897.56797523117, -48487.43808119751, -47278.90161024351, -24820.91931354038, -24753.84172843, -54868.347033065205, -42010.75190433883, 0.1, 0.918, -0.354, 192.0, 0.0, 0.0, 0.0, 0.0, 0.0, 0.0, 0.0, 0.0, 0.0, 1.741279873269168E9, 0.0, 2025-03-06 10:51:13.269
210.0, -37939.06872738227, -40904.2064433344, -48490.16499402106, -47279.19218292143, -24854.066950567598, -24752.634734229414, -54873.84556220121, -42040.36796574211, 0.1, 0.918, -0.354, 192.0, 0.0, 0.0, 0.0, 0.0, 0.0, 0.0, 0.0, 0.0, 0.0, 1.741279873269198E9, 0.0, 2025-03-06 10:51:13.269
211.0, -37918.482770738934, -40891.39889376151, -48467.656787354565, -47272.33019737365, -24902.01144242423, -24756.47923427573, -54868.3023295763, -42023.559453911716, 0.1, 0.918, -0.354, 192.0, 0.0, 0.0, 0.0, 0.0, 0.0, 0.0, 0.0, 0.0, 0.0, 1.741279873328876E9, 0.0, 2025-03-06 10:51:13.328
212.0, -37905.36229674367, -40880.42418723395, -48465.779240820324, -47276.3088078867, -24929.21351542634, -24754.601687741484, -54861.90973066208, -42006.438017658955, 0.1, 0.918, -0.354, 192.0, 0.0, 0.0, 0.0, 0.0, 0.0, 0.0, 0.0, 0.0, 0.0, 1.741279873328906E9, 0.0, 2025-03-06 10:51:13.328
213.0, -37901.24957576389, -40875.19387903141, -48473.602351379675, -47278.365168376586, -24907.73348900479, -24752.27710631813, -54854.24308231391, -42013.434113673466, 0.1, 0.918, -0.354, 192.0, 0.0, 0.0, 0.0, 0.0, 0.0, 0.0, 0.0, 0.0, 0.0, 1.74127987332894E9, 0.0, 2025-03-06 10:51:13.328
214.0, -37927.4011167766, -40886.347399514605, -48485.64994164109, -47291.53034586077, -24911.533285562193, -24761.173100611344, -54870.24693134391, -42016.33984045265, 0.1, 0.918, -0.354, 192.0, 0.0, 0.0, 0.0, 0.0, 0.0, 0.0, 0.0, 0.0, 0.0, 1.741279873328967E9, 0.0, 2025-03-06 10:51:13.328
215.0, -37945.52838152985, -40897.903251398, -48509.0969215747, -47312.5186339043, -24991.41842024546, -24782.85429273299, -54874.24789360141, -42020.81018934372, 0.1, 0.918, -0.354, 192.0, 0.0, 0.0, 0.0, 0.0, 0.0, 0.0, 0.0, 0.0, 0.0, 1.741279873328994E9, 0.0, 2025-03-06 10:51:13.328
216.0, -37929.88216041114, -40894.103454840595, -48507.26407852937, -47325.46029394392, -25021.973254915865, -24774.00300192869, -54874.62787325715, -42013.434113673466, 0.1, 0.918, -0.354, 192.0, 0.0, 0.0, 0.0, 0.0, 0.0, 0.0, 0.0, 0.0, 0.0, 1.741279873329028E9, 0.0, 2025-03-06 10:51:13.329
217.0, -37914.45945673698, -40882.48054772384, -48496.043502812805, -47306.37190417909, -24989.22794928884, -24775.791141485115, -54869.84459994371, -42004.1134362356, 0.094, 0.92, -0.356, 192.0, 2.0, 240.0, 28.0, 192.0, 244.0, 224.0, 0.0, 0.0, 0.0, 1.741279873329063E9, 0.0, 2025-03-06 10:51:13.329
218.0, -37919.48859923943, -40888.023780348754, -48493.115424289164, -47324.163892765515, -24978.834388117124, -24794.94658648331, -54886.608408285196, -42016.786875341764, 0.094, 0.92, -0.356, 192.0, 0.0, 0.0, 0.0, 0.0, 0.0, 0.0, 0.0, 0.0, 0.0, 1.741279873329097E9, 0.0, 2025-03-06 10:51:13.329
219.0, -37930.39625053362, -40880.02185583375, -48511.37679950915, -47332.70225914744, -25049.44354885144, -24788.82220850256, -54875.901922691104, -42014.26112821831, 0.094, 0.92, -0.356, 192.0, 0.0, 0.0, 0.0, 0.0, 0.0, 0.0, 0.0, 0.0, 0.0, 1.741279873329123E9, 0.0, 2025-03-06 10:51:13.329
220.0, -37955.206686879006, -40886.280344281244, -48521.502139747405, -47345.21923604241, -25096.44926744095, -24812.157429713898, -54881.8027832273, -42013.74703809584, 0.094, 0.92, -0.356, 192.0, 0.0, 0.0, 0.0, 0.0, 0.0, 0.0, 0.0, 0.0, 0.0, 1.74127987332915E9, 0.0, 2025-03-06 10:51:13.329
221.0, -37920.516779484366, -40857.267779978254, -48489.65090389859, -47323.40393345403, -25091.710697616425, -24811.37511865796, -54864.72605046345, -42013.88114856257, 0.094, 0.92, -0.356, 192.0, 0.0, 0.0, 0.0, 0.0, 0.0, 0.0, 0.0, 0.0, 0.0, 1.741279873329177E9, 0.0, 2025-03-06 10:51:13.329
222.0, -37931.8044104343, -40870.87999235153, -48507.55465120729, -47341.53119820729, -25081.428895166984, -24806.837714533536, -54880.28286460434, -42031.919006338, 0.094, 0.92, -0.356, 192.0, 0.0, 0.0, 0.0, 0.0, 0.0, 0.0, 0.0, 0.0, 0.0, 1.741279873329207E9, 0.0, 2025-03-06 10:51:13.329
223.0, -37923.89189289712, -40874.813899375666, -48484.577057907234, -47344.07929707519, -25137.755291194357, -24805.094278466022, -54881.28869310483, -42046.38058500059, 0.094, 0.92, -0.356, 192.0, 0.0, 0.0, 0.0, 0.0, 0.0, 0.0, 0.0, 0.0, 0.0, 1.741279873329233E9, 0.0, 2025-03-06 10:51:13.329
224.0, -37889.93959306951, -40842.716794337844, -48453.03874648079, -47322.15223576454, -25186.996184229396, -24798.81343827408, -54867.654128987095, -42020.29609922125, 0.094, 0.92, -0.356, 192.0, 0.0, 0.0, 0.0, 0.0, 0.0, 0.0, 0.0, 0.0, 0.0, 1.74127987332926E9, 0.0, 2025-03-06 10:51:13.329
225.0, -37899.193215274005, -40839.81106755866, -48466.606255365165, -47320.49820667484, -25175.909718979565, -24793.359612626984, -54856.27709105934, -41978.23011615636, 0.094, 0.92, -0.356, 192.0, 0.0, 0.0, 0.0, 0.0, 0.0, 0.0, 0.0, 0.0, 0.0, 1.741279873329289E9, 0.0, 2025-03-06 10:51:13.329
226.0, -37922.57313997426, -40858.810050345666, -48484.68881662951, -47340.41361098452, -25133.910791148042, -24800.758040041692, -54860.50157076139, -41991.28353491826, 0.094, 0.92, -0.356, 192.0, 0.0, 0.0, 0.0, 0.0, 0.0, 0.0, 0.0, 0.0, 0.0, 1.741279873388254E9, 0.0, 2025-03-06 10:51:13.388
227.0, -37924.11541034167, -40870.56706792916, -48477.8938863151, -47348.95197736645, -25195.691012822514, -24778.585109542026, -54857.1488090931, -42041.038518075766, 0.092, 0.928, -0.356, 192.0, 2.0, 224.0, 29.0, 0.0, 244.0, 224.0, 0.0, 0.0, 0.0, 1.7412798733883E9, 0.0, 2025-03-06 10:51:13.388
228.0, -37920.96381437347, -40859.860582335066, -48472.32830194572, -47312.049247270734, -25257.85121415272, -24766.09048439151, -54856.411201526076, -42015.57988114117, 0.092, 0.928, -0.356, 192.0, 0.0, 0.0, 0.0, 0.0, 0.0, 0.0, 0.0, 0.0, 0.0, 1.74127987338833E9, 0.0, 2025-03-06 10:51:13.388
229.0, -37938.39817504861, -40875.12682379804, -48503.665447672065, -47325.88497708857, -25239.74630114392, -24787.34699336851, -54875.99132966892, -42029.25914874782, 0.092, 0.928, -0.356, 192.0, 0.0, 0.0, 0.0, 0.0, 0.0, 0.0, 0.0, 0.0, 0.0, 1.741279873388361E9, 0.0, 2025-03-06 10:51:13.388
230.0, -37940.14161111613, -40873.495146452806, -48498.36808423616, -47320.18528225247, -25194.685184322025, -24762.46950178975, -54870.26928308836, -42037.73045989638, 0.092, 0.928, -0.356, 192.0, 0.0, 0.0, 0.0, 0.0, 0.0, 0.0, 0.0, 0.0, 0.0, 1.741279873388387E9, 0.0, 2025-03-06 10:51:13.388
231.0, -37936.31946281427, -40867.95191382789, -48474.60817988017, -47312.87626181558, -25201.636576847624, -24772.259565861175, -54865.24014058592, -42030.04145980376, 0.092, 0.928, -0.356, 192.0, 0.0, 0.0, 0.0, 0.0, 0.0, 0.0, 0.0, 0.0, 0.0, 1.741279873388421E9, 0.0, 2025-03-06 10:51:13.388
232.0, -37916.6499276936, -40846.18131472842, -48454.98334824841, -47299.84519479814, -25257.962972874997, -24762.447150045296, -54835.60172743818, -41983.41572086999, 0.092, 0.928, -0.356, 192.0, 0.0, 0.0, 0.0, 0.0, 0.0, 0.0, 0.0, 0.0, 0.0, 1.741279873388456E9, 0.0, 2025-03-06 10:51:13.388
233.0, -37936.31946281427, -40850.003463030276, -48477.06687177025, -47308.24945071333, -25275.397333550136, -24761.91070817837, -54841.25671878538, -41988.1095872056, 0.092, 0.928, -0.356, 192.0, 0.0, 0.0, 0.0, 0.0, 0.0, 0.0, 0.0, 0.0, 0.0, 1.741279873388485E9, 0.0, 2025-03-06 10:51:13.388
234.0, -37951.67511125506, -40861.536963169216, -48484.711168373964, -47301.90155528803, -25243.769615145877, -24767.409237314372, -54858.780486438336, -42027.24749174684, 0.092, 0.928, -0.356, 192.0, 0.0, 0.0, 0.0, 0.0, 0.0, 0.0, 0.0, 0.0, 0.0, 1.741279873388514E9, 0.0, 2025-03-06 10:51:13.388
235.0, -37940.38748030514, -40870.410605717974, -48477.71507235945, -47312.1163025041, -25258.18649031955, -24766.60457451398, -54855.85240791469, -42019.290270720754, 0.092, 0.928, -0.356, 192.0, 0.0, 0.0, 0.0, 0.0, 0.0, 0.0, 0.0, 0.0, 0.0, 1.74127987338854E9, 0.0, 2025-03-06 10:51:13.388
236.0, -37914.68297418153, -40853.982073543324, -48458.80549655027, -47296.93946801895, -25325.91227601913, -24756.032199386624, -54849.86214040067, -42013.07648576218, 0.092, 0.928, -0.356, 192.0, 0.0, 0.0, 0.0, 0.0, 0.0, 0.0, 0.0, 0.0, 0.0, 1.741279873388567E9, 0.0, 2025-03-06 10:51:13.388
237.0, -37921.38849751813, -40858.07244277864, -48471.74715658989, -47297.43120639696, -25336.507002890947, -24774.13711239542, -54860.099239361196, -42021.190168999456, 0.09, 0.912, -0.356, 192.0, 2.0, 208.0, 28.0, 128.0, 244.0, 224.0, 0.0, 0.0, 0.0, 1.741279873388594E9, 0.0, 2025-03-06 10:51:13.388
238.0, -37926.395288276115, -40861.64872189149, -48482.29717997279, -47312.78685483776, -25280.649993497133, -24772.23721411672, -54858.489913760415, -42014.17172124049, 0.09, 0.912, -0.356, 192.0, 0.0, 0.0, 0.0, 0.0, 0.0, 0.0, 0.0, 0.0, 0.0, 1.741279873388627E9, 0.0, 2025-03-06 10:51:13.388
239.0, -37941.99680590592, -40869.58359117313, -48495.3953022236, -47322.26399448681, -25267.775388690876, -24782.921347966356, -54859.831018427736, -42017.278613719776, 0.09, 0.912, -0.356, 192.0, 0.0, 0.0, 0.0, 0.0, 0.0, 0.0, 0.0, 0.0, 0.0, 1.741279873388654E9, 0.0, 2025-03-06 10:51:13.388
240.0, -37977.290210400846, -40885.94506811441, -48535.29316607633, -47343.49815171935, -25323.095956217763, -24808.67055757887, -54866.06715513077, -42029.929701081484, 0.09, 0.912, -0.356, 192.0, 0.0, 0.0, 0.0, 0.0, 0.0, 0.0, 0.0, 0.0, 0.0, 1.741279873388683E9, 0.0, 2025-03-06 10:51:13.388
241.0, -37968.08129168526, -40876.66909416546, -48517.009439111884, -47341.151218551546, -25349.135738508194, -24809.922255268368, -54870.04576564381, -42030.57790167069, 0.09, 0.912, -0.356, 192.0, 0.0, 0.0, 0.0, 0.0, 0.0, 0.0, 0.0, 0.0, 0.0, 1.741279873447977E9, 0.0, 2025-03-06 10:51:13.447
242.0, -37941.013329149886, -40865.42616670444, -48491.81902311075, -47342.4252679855, -25294.396316337148, -24791.213845159276, -54868.548198765304, -42024.92291032349, 0.09, 0.912, -0.356, 192.0, 0.0, 0.0, 0.0, 0.0, 0.0, 0.0, 0.0, 0.0, 0.0, 1.741279873448019E9, 0.0, 2025-03-06 10:51:13.448
243.0, -37940.40983204959, -40865.42616670444, -48506.37000875116, -47337.91021560552, -25290.70827850202, -24804.401374387908, -54872.32564357825, -42035.383526728576, 0.09, 0.912, -0.356, 192.0, 0.0, 0.0, 0.0, 0.0, 0.0, 0.0, 0.0, 0.0, 0.0, 1.741279873448046E9, 0.0, 2025-03-06 10:51:13.448
244.0, -37931.424430778556, -40861.15698351347, -48513.34375302122, -47343.36404125262, -25329.645017343166, -24810.034013990644, -54872.28094008934, -42052.169686814515, 0.09, 0.912, -0.356, 192.0, 0.0, 0.0, 0.0, 0.0, 0.0, 0.0, 0.0, 0.0, 0.0, 1.741279873448076E9, 0.0, 2025-03-06 10:51:13.448
245.0, -37924.80831441979, -40868.1977830169, -48505.23006978394, -47354.428154757996, -25365.050180560374, -24819.91348503989, -54870.939835422025, -42037.194018029455, 0.09, 0.912, -0.356, 192.0, 0.0, 0.0, 0.0, 0.0, 0.0, 0.0, 0.0, 0.0, 0.0, 1.741279873448104E9, 0.0, 2025-03-06 10:51:13.448
246.0, -37922.30491904079, -40864.86737309305, -48508.02403784085, -47368.57680899821, -25330.24851444346, -24830.932895056358, -54868.03410864283, -42037.194018029455, 0.09, 0.912, -0.356, 192.0, 0.0, 0.0, 0.0, 0.0, 0.0, 0.0, 0.0, 0.0, 0.0, 1.741279873448139E9, 0.0, 2025-03-06 10:51:13.448
247.0, -37933.74901220191, -40862.87806783654, -48520.228090313445, -47366.162820597034, -25306.220389154005, -24826.01551127619, -54870.91748367757, -42083.64094300759, 0.09, 0.918, -0.36, 192.0, 2.0, 208.0, 28.0, 176.0, 244.0, 192.0, 0.0, 0.0, 0.0, 1.741279873448177E9, 0.0, 2025-03-06 10:51:13.448
248.0, -37936.29711106981, -40850.78577408622, -48514.61780245517, -47348.03555584378, -25362.01034331445, -24816.605426860504, -54864.949567908, -42066.675968966, 0.09, 0.918, -0.36, 192.0, 0.0, 0.0, 0.0, 0.0, 0.0, 0.0, 0.0, 0.0, 0.0, 1.74127987344821E9, 0.0, 2025-03-06 10:51:13.448
249.0, -37964.4603090835, -40865.157945770974, -48536.34369806573, -47370.83433518819, -25404.41160254617, -24822.34982518552, -54874.13613487913, -42077.44950979346, 0.09, 0.918, -0.36, 192.0, 0.0, 0.0, 0.0, 0.0, 0.0, 0.0, 0.0, 0.0, 0.0, 1.741279873448237E9, 0.0, 2025-03-06 10:51:13.448
250.0, -37974.5632975773, -40869.94121908441, -48559.321291365784, -47380.87026844863, -25395.53795999741, -24837.92899107087, -54879.99229192642, -42067.30181781075, 0.09, 0.918, -0.36, 192.0, 0.0, 0.0, 0.0, 0.0, 0.0, 0.0, 0.0, 0.0, 0.0, 1.741279873448264E9, 0.0, 2025-03-06 10:51:13.448
251.0, -37981.04530346934, -40890.66128619448, -48579.97430324248, -47398.4387395905, -25363.50791019296, -24843.1145957845, -54883.83679197274, -42033.617738916604, 0.09, 0.918, -0.36, 192.0, 0.0, 0.0, 0.0, 0.0, 0.0, 0.0, 0.0, 0.0, 0.0, 1.741279873448291E9, 0.0, 2025-03-06 10:51:13.448
252.0, -37940.70040472751, -40876.847908121104, -48514.05900884378, -47378.478631791906, -25411.60886426078, -24841.661732394903, -54886.07196641827, -42062.451489263956, 0.09, 0.918, -0.36, 192.0, 0.0, 0.0, 0.0, 0.0, 0.0, 0.0, 0.0, 0.0, 0.0, 1.741279873448318E9, 0.0, 2025-03-06 10:51:13.448
253.0, -37933.61490173518, -40869.360073728574, -48503.15135754959, -47370.90139042156, -25470.863338811796, -24818.237104205742, -54879.99229192642, -42060.484535751886, 0.09, 0.918, -0.36, 192.0, 0.0, 0.0, 0.0, 0.0, 0.0, 0.0, 0.0, 0.0, 0.0, 1.741279873448348E9, 0.0, 2025-03-06 10:51:13.448
254.0, -37934.82189593576, -40862.47573643634, -48506.37000875116, -47361.93834089498, -25471.46683591209, -24822.86391530799, -54865.083678374736, -42083.01509416284, 0.09, 0.918, -0.36, 192.0, 0.0, 0.0, 0.0, 0.0, 0.0, 0.0, 0.0, 0.0, 0.0, 1.741279873448375E9, 0.0, 2025-03-06 10:51:13.448
255.0, -37949.37288157617, -40870.209440017876, -48514.863671644176, -47366.453393274955, -25429.04322493592, -24830.687025867348, -54875.79016396883, -42061.69152995247, 0.09, 0.918, -0.36, 192.0, 0.0, 0.0, 0.0, 0.0, 0.0, 0.0, 0.0, 0.0, 0.0, 1.741279873448405E9, 0.0, 2025-03-06 10:51:13.448
0.0, -37959.78879449234, -40864.66620739296, -48523.20087232601, -47351.142448323066, -25465.588327120346, -24821.47810715176, -54872.43740230053, -42061.736233441385, 0.09, 0.918, -0.36, 192.0, 0.0, 0.0, 0.0, 0.0, 0.0, 0.0, 0.0, 0.0, 0.0, 1.741279873508278E9, 0.0, 2025-03-06 10:51:13.508
1.0, -37965.98022770646, -40868.53305918373, -48525.23488107144, -47345.621567442606, -25522.04883361445, -24821.09812749602, -54883.5015158059, -42061.22214331891, 0.09, 0.916, -0.366, 192.0, 2.0, 208.0, 28.0, 160.0, 244.0, 144.0, 0.0, 0.0, 0.0, 1.741279873508322E9, 0.0, 2025-03-06 10:51:13.508
2.0, -37950.5575240323, -40866.02966380473, -48515.51187223338, -47344.3251662642, -25527.30149356145, -24822.707453096802, -54872.683271489535, -42065.35721604314, 0.09, 0.916, -0.366, 192.0, 0.0, 0.0, 0.0, 0.0, 0.0, 0.0, 0.0, 0.0, 0.0, 1.741279873508351E9, 0.0, 2025-03-06 10:51:13.508
3.0, -37943.53907627334, -40869.2483150063, -48508.35931400768, -47351.43302100099, -25492.23160651107, -24817.43244140535, -54880.931065193545, -42094.92857395751, 0.09, 0.916, -0.366, 192.0, 0.0, 0.0, 0.0, 0.0, 0.0, 0.0, 0.0, 0.0, 0.0, 1.741279873508388E9, 0.0, 2025-03-06 10:51:13.508
4.0, -37941.66152973909, -40875.88678310952, -48495.283543501326, -47350.20367505594, -25507.073164829395, -24800.48981910823, -54875.32077733526, -42064.48549800939, 0.09, 0.916, -0.366, 192.0, 0.0, 0.0, 0.0, 0.0, 0.0, 0.0, 0.0, 0.0, 0.0, 1.741279873508415E9, 0.0, 2025-03-06 10:51:13.508
5.0, -37942.24267509492, -40866.18612601592, -48490.254400998885, -47340.39125924007, -25563.91365097924, -24799.349880141006, -54866.35772780869, -42049.710994924426, 0.09, 0.916, -0.366, 192.0, 0.0, 0.0, 0.0, 0.0, 0.0, 0.0, 0.0, 0.0, 0.0, 1.741279873508448E9, 0.0, 2025-03-06 10:51:13.508
6.0, -37950.1104891432, -40862.5427916697, -48509.99099135292, -47334.579805681686, -25583.851407033373, -24788.509284080184, -54864.32371906325, -42050.15802981354, 0.09, 0.916, -0.366, 192.0, 0.0, 0.0, 0.0, 0.0, 0.0, 0.0, 0.0, 0.0, 0.0, 1.741279873508481E9, 0.0, 2025-03-06 10:51:13.508
7.0, -37957.486564813444, -40870.32119874015, -48506.12413956215, -47326.689639888966, -25556.850499731365, -24801.205074930796, -54870.872780188656, -42053.622550204105, 0.09, 0.916, -0.366, 192.0, 0.0, 0.0, 0.0, 0.0, 0.0, 0.0, 0.0, 0.0, 0.0, 1.741279873508513E9, 0.0, 2025-03-06 10:51:13.508
8.0, -37970.428224853065, -40878.166661043964, -48508.60518319669, -47336.323241749196, -25573.68136330621, -24809.631682590447, -54880.796954726815, -42061.71388169693, 0.09, 0.916, -0.366, 192.0, 0.0, 0.0, 0.0, 0.0, 0.0, 0.0, 0.0, 0.0, 0.0, 1.741279873508539E9, 0.0, 2025-03-06 10:51:13.508
9.0, -37971.65757079811, -40886.772082659256, -48520.47395950246, -47352.818829157215, -25641.183631561238, -24815.309025682098, -54884.39558558412, -42060.059852607235, 0.09, 0.916, -0.366, 192.0, 0.0, 0.0, 0.0, 0.0, 0.0, 0.0, 0.0, 0.0, 0.0, 1.741279873508566E9, 0.0, 2025-03-06 10:51:13.508
10.0, -37955.541963045835, -40868.77892837273, -48515.355410022195, -47342.44761972995, -25666.88813768484, -24822.14865948542, -54875.343129079716, -42038.535122696776, 0.09, 0.916, -0.366, 192.0, 0.0, 0.0, 0.0, 0.0, 0.0, 0.0, 0.0, 0.0, 0.0, 1.741279873508592E9, 0.0, 2025-03-06 10:51:13.508
11.0, -37963.230963138456, -40875.797376131704, -48516.56240422278, -47358.0267856153, -25659.377951547856, -24826.44019442084, -54884.90967570659, -42071.682759724, 0.094, 0.916, -0.364, 192.0, 2.0, 240.0, 28.0, 160.0, 244.0, 160.0, 0.0, 0.0, 0.0, 1.741279873508618E9, 0.0, 2025-03-06 10:51:13.508
12.0, -37937.07942212575, -40872.89164935251, -48499.57507843675, -47356.3280530367, -25665.4576260397, -24790.2527201477, -54879.83582971524, -42050.538009469274, 0.094, 0.916, -0.364, 192.0, 0.0, 0.0, 0.0, 0.0, 0.0, 0.0, 0.0, 0.0, 0.0, 1.741279873508652E9, 0.0, 2025-03-06 10:51:13.508
13.0, -37933.726660457454, -40872.37755923004, -48501.11734880416, -47344.66044243103, -25743.53226942209, -24807.06123197809, -54870.42574529955, -42031.0696400487, 0.094, 0.916, -0.364, 192.0, 0.0, 0.0, 0.0, 0.0, 0.0, 0.0, 0.0, 0.0, 0.0, 1.741279873508679E9, 0.0, 2025-03-06 10:51:13.508
14.0, -37946.869486197174, -40868.01896906125, -48512.896718132106, -47346.76150640983, -25795.812999703052, -24837.43725269285, -54883.85914371719, -42073.1803266025, 0.094, 0.916, -0.364, 192.0, 0.0, 0.0, 0.0, 0.0, 0.0, 0.0, 0.0, 0.0, 0.0, 1.741279873508708E9, 0.0, 2025-03-06 10:51:13.508
15.0, -37947.69650074202, -40867.28136149423, -48525.32428804926, -47354.58461696919, -25778.602156472465, -24840.29827598313, -54894.65503628911, -42084.1326813856, 0.094, 0.916, -0.364, 192.0, 0.0, 0.0, 0.0, 0.0, 0.0, 0.0, 0.0, 0.0, 0.0, 1.74127987356845E9, 0.0, 2025-03-06 10:51:13.568
16.0, -37944.924884429565, -40872.46696620786, -48524.51962524887, -47359.41259377153, -25762.28538302009, -24846.690874897347, -54895.79497525632, -42062.54089624177, 0.094, 0.916, -0.364, 192.0, 0.0, 0.0, 0.0, 0.0, 0.0, 0.0, 0.0, 0.0, 0.0, 1.741279873568494E9, 0.0, 2025-03-06 10:51:13.568
17.0, -37940.32042507177, -40868.28718999472, -48513.61197395468, -47360.641939716574, -25826.01020646217, -24840.63355214996, -54885.200248384506, -42062.719710197416, 0.094, 0.916, -0.364, 192.0, 0.0, 0.0, 0.0, 0.0, 0.0, 0.0, 0.0, 0.0, 0.0, 1.741279873568526E9, 0.0, 2025-03-06 10:51:13.568
18.0, -37939.94044541603, -40869.851812106586, -48521.345677536214, -47372.264846833335, -25898.11693407499, -24841.237049250252, -54882.741556494424, -42064.396091031565, 0.094, 0.916, -0.364, 192.0, 0.0, 0.0, 0.0, 0.0, 0.0, 0.0, 0.0, 0.0, 0.0, 1.741279873568563E9, 0.0, 2025-03-06 10:51:13.568
19.0, -37945.66249199659, -40865.64968414899, -48527.581814239245, -47362.00539612835, -25904.08484984456, -24833.883325324456, -54884.23912337293, -42064.597256731664, 0.094, 0.916, -0.364, 192.0, 0.0, 0.0, 0.0, 0.0, 0.0, 0.0, 0.0, 0.0, 0.0, 1.741279873568589E9, 0.0, 2025-03-06 10:51:13.568
20.0, -37964.12503291667, -40866.342588227104, -48535.069648631776, -47356.99860537036, -25900.37446026498, -24846.33324698606, -54875.03020465734, -42078.99178016088, 0.094, 0.916, -0.364, 192.0, 0.0, 0.0, 0.0, 0.0, 0.0, 0.0, 0.0, 0.0, 0.0, 1.741279873568623E9, 0.0, 2025-03-06 10:51:13.568
21.0, -37984.42041688209, -40902.41830377797, -48559.18718089905, -47398.93047796851, -25953.258687646234, -24860.459549481817, -54911.57530684177, -42096.42614083602, 0.094, 0.912, -0.36, 192.0, 2.0, 240.0, 28.0, 128.0, 244.0, 192.0, 0.0, 0.0, 0.0, 1.741279873568653E9, 0.0, 2025-03-06 10:51:13.568
22.0, -37963.432128838554, -40897.59032697562, -48546.804314470806, -47393.96839069944, -26009.249807506778, -24854.178709289874, -54896.37612061216, -42071.57100100172, 0.094, 0.912, -0.36, 192.0, 0.0, 0.0, 0.0, 0.0, 0.0, 0.0, 0.0, 0.0, 0.0, 1.741279873568687E9, 0.0, 2025-03-06 10:51:13.568
23.0, -37937.88408492614, -40876.28911450972, -48520.518662991366, -47375.79642245727, -26032.897953140495, -24845.752101630223, -54880.238161115434, -42061.110384596635, 0.094, 0.912, -0.36, 192.0, 0.0, 0.0, 0.0, 0.0, 0.0, 0.0, 0.0, 0.0, 0.0, 1.741279873568718E9, 0.0, 2025-03-06 10:51:13.568
24.0, -37950.9598554325, -40886.16858555896, -48518.08232284574, -47382.83722196069, -26009.249807506778, -24857.889098869455, -54889.49178331993, -42063.52437299781, 0.094, 0.912, -0.36, 192.0, 0.0, 0.0, 0.0, 0.0, 0.0, 0.0, 0.0, 0.0, 0.0, 1.741279873568746E9, 0.0, 2025-03-06 10:51:13.568
25.0, -37959.721739258974, -40891.890632139526, -48528.67704971755, -47389.96742844194, -26053.43920629492, -24864.505215228226, -54889.78235599785, -42028.27567199179, 0.094, 0.912, -0.36, 192.0, 0.0, 0.0, 0.0, 0.0, 0.0, 0.0, 0.0, 0.0, 0.0, 1.741279873568772E9, 0.0, 2025-03-06 10:51:13.568
26.0, -37963.47683232747, -40893.81288216268, -48527.53711075033, -47390.28035286431, -26115.241779713844, -24855.78803489066, -54905.45092886102, -42094.95092570197, 0.094, 0.912, -0.36, 192.0, 0.0, 0.0, 0.0, 0.0, 0.0, 0.0, 0.0, 0.0, 0.0, 1.741279873568799E9, 0.0, 2025-03-06 10:51:13.568
27.0, -37969.93648647505, -40907.06746662468, -48541.03756440134, -47403.17730941502, -26127.69170137545, -24860.325439015083, -54907.082606206255, -42091.06172216675, 0.094, 0.912, -0.36, 192.0, 0.0, 0.0, 0.0, 0.0, 0.0, 0.0, 0.0, 0.0, 0.0, 1.74127987356883E9, 0.0, 2025-03-06 10:51:13.568
28.0, -37996.62446935469, -40910.91196667099, -48564.39513735713, -47405.50189083837, -26078.87549148506, -24873.043581610156, -54902.0087602149, -42078.14241387158, 0.094, 0.912, -0.36, 192.0, 0.0, 0.0, 0.0, 0.0, 0.0, 0.0, 0.0, 0.0, 0.0, 1.741279873568857E9, 0.0, 2025-03-06 10:51:13.568
29.0, -38002.7711990799, -40917.57278651867, -48564.75276526842, -47406.55242282777, -26103.238892941346, -24874.943479888854, -54901.47231834797, -42079.975256916914, 0.094, 0.912, -0.36, 192.0, 0.0, 0.0, 0.0, 0.0, 0.0, 0.0, 0.0, 0.0, 0.0, 1.741279873568884E9, 0.0, 2025-03-06 10:51:13.568
30.0, -37980.68767555805, -40911.023725393265, -48551.31936685078, -47397.25409713437, -26167.61191697263, -24866.20394780683, -54894.990312455935, -42066.98889338838, 0.094, 0.912, -0.36, 192.0, 0.0, 0.0, 0.0, 0.0, 0.0, 0.0, 0.0, 0.0, 0.0, 1.741279873628775E9, 0.0, 2025-03-06 10:51:13.628
31.0, -37957.93359970255, -40897.389161275525, -48532.02981138585, -47381.540820782284, -26183.70517298045, -24851.474148210782, -54898.72305377997, -42069.69345446747, 0.09, 0.916, -0.36, 192.0, 2.0, 208.0, 28.0, 160.0, 244.0, 192.0, 0.0, 0.0, 0.0, 1.741279873628822E9, 0.0, 2025-03-06 10:51:13.628
32.0, -37952.63623626664, -40901.14425434402, -48518.015267612376, -47378.14335562508, -26133.92783807848, -24847.003799319722, -54900.019454958376, -42067.681797466495, 0.09, 0.916, -0.36, 192.0, 0.0, 0.0, 0.0, 0.0, 0.0, 0.0, 0.0, 0.0, 0.0, 1.741279873628851E9, 0.0, 2025-03-06 10:51:13.628
33.0, -37965.5108410729, -40912.29777482722, -48523.15616883709, -47382.27842834931, -26122.12611700608, -24854.73750290126, -54897.717225279484, -42052.05792809223, 0.09, 0.916, -0.36, 192.0, 0.0, 0.0, 0.0, 0.0, 0.0, 0.0, 0.0, 0.0, 0.0, 1.741279873628882E9, 0.0, 2025-03-06 10:51:13.628
34.0, -37977.04434121184, -40916.38814406254, -48536.00842189889, -47391.822623231725, -26158.425350001497, -24843.9639620738, -54888.19538214152, -42000.93948852295, 0.09, 0.916, -0.36, 192.0, 0.0, 0.0, 0.0, 0.0, 0.0, 0.0, 0.0, 0.0, 0.0, 1.74127987362891E9, 0.0, 2025-03-06 10:51:13.628
35.0, -37987.37084715019, -40916.969289418375, -48542.64689000212, -47395.06362617775, -26186.432085803997, -24856.97267734679, -54903.61808581568, -42054.047233348756, 0.09, 0.916, -0.36, 192.0, 0.0, 0.0, 0.0, 0.0, 0.0, 0.0, 0.0, 0.0, 0.0, 1.741279873628937E9, 0.0, 2025-03-06 10:51:13.628
36.0, -37973.37865512117, -40899.75844618779, -48522.93265139254, -47358.11619259312, -26147.65180917404, -24822.9086187969, -54902.50049859292, -42103.4892920839, 0.09, 0.916, -0.36, 192.0, 0.0, 0.0, 0.0, 0.0, 0.0, 0.0, 0.0, 0.0, 0.0, 1.741279873628973E9, 0.0, 2025-03-06 10:51:13.628
37.0, -37964.482660827955, -40905.23462357934, -48515.623630955655, -47364.75466069635, -26141.952114337935, -24812.20213320281, -54892.01753044338, -42088.62538202112, 0.09, 0.916, -0.36, 192.0, 0.0, 0.0, 0.0, 0.0, 0.0, 0.0, 0.0, 0.0, 0.0, 1.741279873629003E9, 0.0, 2025-03-06 10:51:13.629
38.0, -37970.33881787525, -40915.11409462859, -48526.866558416674, -47381.697282993475, -26177.960774655436, -24816.426612904863, -54899.61712355818, -42081.942210428984, 0.09, 0.916, -0.36, 192.0, 0.0, 0.0, 0.0, 0.0, 0.0, 0.0, 0.0, 0.0, 0.0, 1.741279873629035E9, 0.0, 2025-03-06 10:51:13.629
39.0, -37985.47094887149, -40912.230719593856, -48548.413640071594, -47359.099669349154, -26206.123972669124, -24833.793918346637, -54907.44023411754, -42068.35234980015, 0.09, 0.916, -0.36, 192.0, 0.0, 0.0, 0.0, 0.0, 0.0, 0.0, 0.0, 0.0, 0.0, 1.741279873629063E9, 0.0, 2025-03-06 10:51:13.629
40.0, -37973.69157954354, -40912.45423703841, -48535.6060904987, -47371.773108455316, -26179.391286300575, -24846.802633619624, -54915.9115452661, -42080.93638192849, 0.09, 0.916, -0.36, 192.0, 0.0, 0.0, 0.0, 0.0, 0.0, 0.0, 0.0, 0.0, 0.0, 1.74127987362909E9, 0.0, 2025-03-06 10:51:13.629
41.0, -37957.84419272473, -40890.974210616856, -48522.15034033661, -47355.23281755839, -26147.85297487414, -24827.401319432418, -54895.32558862276, -42058.69639619546, 0.088, 0.912, -0.358, 192.0, 2.0, 192.0, 28.0, 128.0, 244.0, 208.0, 0.0, 0.0, 0.0, 1.741279873629117E9, 0.0, 2025-03-06 10:51:13.629
42.0, -37960.79462299283, -40888.13553907103, -48522.619726970166, -47351.58948321218, -26193.71875449643, -24829.636493877948, -54899.97475146947, -42056.57298047221, 0.088, 0.912, -0.358, 192.0, 0.0, 0.0, 0.0, 0.0, 0.0, 0.0, 0.0, 0.0, 0.0, 1.74127987362915E9, 0.0, 2025-03-06 10:51:13.629
43.0, -37966.69548352903, -40903.49118751183, -48531.82864568575, -47365.55932349674, -26230.442670636497, -24849.0154563207, -54898.16426016859, -42056.26005604983, 0.088, 0.912, -0.358, 192.0, 0.0, 0.0, 0.0, 0.0, 0.0, 0.0, 0.0, 0.0, 0.0, 1.741279873629175E9, 0.0, 2025-03-06 10:51:13.629
44.0, -37967.72366377398, -40911.11313237109, -48540.63523300114, -47378.36687306963, -26204.112315668146, -24856.749159902236, -54910.88240276366, -42068.91114341154, 0.088, 0.912, -0.358, 192.0, 0.0, 0.0, 0.0, 0.0, 0.0, 0.0, 0.0, 0.0, 0.0, 1.741279873629201E9, 0.0, 2025-03-06 10:51:13.629
45.0, -37966.53902131785, -40910.93431841544, -48543.22803535796, -47383.91010569455, -26176.150283354556, -24855.34100000155, -54915.710379566, -42074.20850684745, 0.088, 0.912, -0.358, 192.0, 0.0, 0.0, 0.0, 0.0, 0.0, 0.0, 0.0, 0.0, 0.0, 1.741279873688955E9, 0.0, 2025-03-06 10:51:13.688
46.0, -37965.063806183796, -40905.0558096237, -48542.49042779094, -47380.222067859424, -26231.493202625898, -24845.28271499666, -54898.05250144631, -42059.36694852912, 0.088, 0.912, -0.358, 192.0, 0.0, 0.0, 0.0, 0.0, 0.0, 0.0, 0.0, 0.0, 0.0, 1.741279873688997E9, 0.0, 2025-03-06 10:51:13.688
47.0, -37977.1113964452, -40907.06746662468, -48557.37668959817, -47400.83037624721, -26286.478493985953, -24846.802633619624, -54899.885344491646, -42065.06664336522, 0.088, 0.912, -0.358, 192.0, 0.0, 0.0, 0.0, 0.0, 0.0, 0.0, 0.0, 0.0, 0.0, 1.741279873689024E9, 0.0, 2025-03-06 10:51:13.689
48.0, -37988.06375122831, -40914.242376594826, -48573.26877990589, -47407.89352749509, -26286.00910735239, -24841.885249839455, -54904.087472449246, -42049.88980888007, 0.088, 0.912, -0.358, 192.0, 0.0, 0.0, 0.0, 0.0, 0.0, 0.0, 0.0, 0.0, 0.0, 1.741279873689054E9, 0.0, 2025-03-06 10:51:13.689
49.0, -37986.87910877218, -40923.00426042131, -48559.522457065876, -47399.19869890198, -26251.0956825132, -24840.454738194316, -54907.48493760645, -42047.14054431207, 0.088, 0.912, -0.358, 192.0, 0.0, 0.0, 0.0, 0.0, 0.0, 0.0, 0.0, 0.0, 0.0, 1.741279873689081E9, 0.0, 2025-03-06 10:51:13.689
50.0, -37971.99284696494, -40909.92848991496, -48537.34952656621, -47385.16180338404, -26274.788531635826, -24860.146625059442, -54906.43440561705, -42075.2813905813, 0.088, 0.912, -0.358, 192.0, 0.0, 0.0, 0.0, 0.0, 0.0, 0.0, 0.0, 0.0, 0.0, 1.741279873689108E9, 0.0, 2025-03-06 10:51:13.689
51.0, -37952.63623626664, -40888.649629193504, -48526.44187527202, -47367.012186886335, -26317.97210192348, -24845.997970819233, -54891.52579206536, -42058.159954328534, 0.092, 0.914, -0.356, 192.0, 2.0, 224.0, 28.0, 144.0, 244.0, 224.0, 0.0, 0.0, 0.0, 1.741279873689142E9, 0.0, 2025-03-06 10:51:13.689
52.0, -37964.81793699478, -40898.305582798195, -48545.7090789925, -47372.823640444716, -26301.275348815365, -24849.238973765252, -54894.18564965554, -42058.98696887338, 0.092, 0.914, -0.356, 192.0, 0.0, 0.0, 0.0, 0.0, 0.0, 0.0, 0.0, 0.0, 0.0, 1.741279873689176E9, 0.0, 2025-03-06 10:51:13.689
53.0, -38008.605004382734, -40941.33269087466, -48583.349416655234, -47410.508681596366, -26242.132632986624, -24864.01347685021, -54911.35178939722, -42069.33582655619, 0.092, 0.914, -0.356, 192.0, 0.0, 0.0, 0.0, 0.0, 0.0, 0.0, 0.0, 0.0, 0.0, 1.741279873689205E9, 0.0, 2025-03-06 10:51:13.689
54.0, -38010.5719578948, -40945.31130138771, -48572.21824791649, -47419.87406252314, -26275.48143571394, -24869.57906121958, -54909.474242862976, -42055.097765338156, 0.092, 0.914, -0.356, 192.0, 0.0, 0.0, 0.0, 0.0, 0.0, 0.0, 0.0, 0.0, 0.0, 1.741279873689232E9, 0.0, 2025-03-06 10:51:13.689
55.0, -37997.362076921716, -40937.89052222855, -48573.715814794996, -47419.941117756505, -26345.375340625687, -24856.950325602334, -54897.58311481275, -42077.740082471384, 0.092, 0.914, -0.356, 192.0, 0.0, 0.0, 0.0, 0.0, 0.0, 0.0, 0.0, 0.0, 0.0, 1.74127987368926E9, 0.0, 2025-03-06 10:51:13.689
56.0, -37981.201765680526, -40933.17430414847, -48560.10360242172, -47411.536861841305, -26355.813605286316, -24818.14769722792, -54893.939780466535, -42065.13369859859, 0.092, 0.914, -0.356, 192.0, 0.0, 0.0, 0.0, 0.0, 0.0, 0.0, 0.0, 0.0, 0.0, 1.741279873689288E9, 0.0, 2025-03-06 10:51:13.689
57.0, -37965.533192817355, -40921.32787958716, -48523.670258959566, -47366.85572467515, -26297.766124935883, -24822.640397863437, -54895.43734734504, -42049.710994924426, 0.092, 0.914, -0.356, 192.0, 0.0, 0.0, 0.0, 0.0, 0.0, 0.0, 0.0, 0.0, 0.0, 1.741279873689317E9, 0.0, 2025-03-06 10:51:13.689
58.0, -37989.717780317995, -40930.112115158096, -48541.194026612524, -47367.52627700881, -26313.188828610044, -24833.72686311327, -54890.944646709526, -42061.02097761881, 0.092, 0.914, -0.356, 192.0, 0.0, 0.0, 0.0, 0.0, 0.0, 0.0, 0.0, 0.0, 0.0, 1.741279873689344E9, 0.0, 2025-03-06 10:51:13.689
59.0, -37998.5690711223, -40933.0625454262, -48556.28145411986, -47375.77407071282, -26377.874777063702, -24827.401319432418, -54894.40916710009, -42053.64490194856, 0.092, 0.914, -0.356, 192.0, 0.0, 0.0, 0.0, 0.0, 0.0, 0.0, 0.0, 0.0, 0.0, 1.741279873689371E9, 0.0, 2025-03-06 10:51:13.689
60.0, -38002.34651593525, -40943.34434787564, -48571.838268260755, -47385.22885861741, -26384.960280056035, -24847.853165609024, -54904.489803849436, -42071.0792626237, 0.092, 0.914, -0.356, 192.0, 0.0, 0.0, 0.0, 0.0, 0.0, 0.0, 0.0, 0.0, 0.0, 1.741279873748226E9, 0.0, 2025-03-06 10:51:13.748
61.0, -37991.64003034116, -40944.19371416494, -48555.32032910828, -47381.94315218248, -26336.72521552148, -24860.437197737363, -54922.05827499131, -42077.78478596029, 0.088, 0.91, -0.352, 192.0, 2.0, 192.0, 28.0, 112.0, 245.0, 0.0, 0.0, 0.0, 0.0, 1.741279873748261E9, 0.0, 2025-03-06 10:51:13.748
62.0, -37986.096797716236, -40937.28702512825, -48545.7090789925, -47371.840163688685, -26340.01092195641, -24858.380837247474, -54917.74438831144, -42128.25502494038, 0.088, 0.91, -0.352, 192.0, 0.0, 0.0, 0.0, 0.0, 0.0, 0.0, 0.0, 0.0, 0.0, 1.741279873748304E9, 0.0, 2025-03-06 10:51:13.748
63.0, -37984.42041688209, -40932.68256577046, -48538.131837622146, -47373.158916611545, -26407.915521611634, -24844.276886496173, -54902.94753348202, -42110.038353209304, 0.088, 0.91, -0.352, 192.0, 0.0, 0.0, 0.0, 0.0, 0.0, 0.0, 0.0, 0.0, 0.0, 1.741279873748331E9, 0.0, 2025-03-06 10:51:13.748
64.0, -37993.69639083104, -40942.9643682199, -48542.535131279845, -47377.785727713795, -26427.160373587656, -24826.663711865393, -54922.63942034715, -42128.05385924028, 0.088, 0.91, -0.352, 192.0, 0.0, 0.0, 0.0, 0.0, 0.0, 0.0, 0.0, 0.0, 0.0, 1.741279873748363E9, 0.0, 2025-03-06 10:51:13.748
65.0, -38002.63708861316, -40942.070298441686, -48551.900512206616, -47378.92566668102, -26400.09241105228, -24847.495537697738, -54919.510176123404, -42112.54174858829, 0.088, 0.91, -0.352, 192.0, 0.0, 0.0, 0.0, 0.0, 0.0, 0.0, 0.0, 0.0, 0.0, 1.741279873748395E9, 0.0, 2025-03-06 10:51:13.748
66.0, -38029.794458126365, -40956.598932337634, -48586.09868122324, -47404.60782106016, -26382.523939910407, -24861.59948844904, -54928.83085356127, -42128.90322552958, 0.088, 0.91, -0.352, 192.0, 0.0, 0.0, 0.0, 0.0, 0.0, 0.0, 0.0, 0.0, 0.0, 1.741279873748435E9, 0.0, 2025-03-06 10:51:13.748
67.0, -38005.878091559185, -40946.67475779948, -48562.539942567346, -47389.028655174814, -26437.576286503827, -24857.26325002471, -54933.859996063715, -42120.09663821419, 0.088, 0.91, -0.352, 192.0, 0.0, 0.0, 0.0, 0.0, 0.0, 0.0, 0.0, 0.0, 0.0, 1.741279873748469E9, 0.0, 2025-03-06 10:51:13.748
68.0, -37977.424320867576, -40942.7632025198, -48540.47877078996, -47396.76235875635, -26495.534359876438, -24867.433293751874, -54930.417827417594, -42098.48250132591, 0.088, 0.91, -0.352, 192.0, 0.0, 0.0, 0.0, 0.0, 0.0, 0.0, 0.0, 0.0, 0.0, 1.741279873748504E9, 0.0, 2025-03-06 10:51:13.748
69.0, -37985.62741108268, -40946.49594384384, -48556.50497156441, -47402.596164059185, -26471.215661909064, -24866.87450014049, -54936.3186879538, -42093.52041405683, 0.088, 0.91, -0.352, 192.0, 0.0, 0.0, 0.0, 0.0, 0.0, 0.0, 0.0, 0.0, 0.0, 1.741279873748537E9, 0.0, 2025-03-06 10:51:13.748
70.0, -37970.785852764355, -40924.97121393338, -48542.42337255757, -47386.83818421819, -26440.66082723866, -24876.39634327845, -54927.53445238286, -42084.71382674144, 0.088, 0.91, -0.352, 192.0, 0.0, 0.0, 0.0, 0.0, 0.0, 0.0, 0.0, 0.0, 0.0, 1.741279873748568E9, 0.0, 2025-03-06 10:51:13.748
71.0, -37981.87231801418, -40940.14804841853, -48559.70127102152, -47413.637925820105, -26474.411961366175, -24880.799636936146, -54938.28564146586, -42089.81002447725, 0.088, 0.91, -0.36, 192.0, 2.0, 192.0, 28.0, 112.0, 244.0, 192.0, 0.0, 0.0, 0.0, 1.741279873748596E9, 0.0, 2025-03-06 10:51:13.748
72.0, -37999.68665834507, -40955.280179414774, -48574.3640153842, -47426.62428934864, -26517.908456076202, -24883.235977081775, -54946.60049040324, -42090.8382047222, 0.088, 0.91, -0.36, 192.0, 0.0, 0.0, 0.0, 0.0, 0.0, 0.0, 0.0, 0.0, 0.0, 1.741279873748626E9, 0.0, 2025-03-06 10:51:13.748
73.0, -37995.32806817628, -40944.95367347642, -48576.04039621835, -47414.91197525406, -26518.936636321145, -24901.49735230176, -54954.624766662695, -42098.57190830373, 0.088, 0.91, -0.36, 192.0, 0.0, 0.0, 0.0, 0.0, 0.0, 0.0, 0.0, 0.0, 0.0, 1.741279873748659E9, 0.0, 2025-03-06 10:51:13.748
74.0, -37989.293097173344, -40939.03046119576, -48578.879067764174, -47421.17046370154, -26467.348810118296, -24912.78498325169, -54953.641289906656, -42099.845957737685, 0.088, 0.91, -0.36, 192.0, 0.0, 0.0, 0.0, 0.0, 0.0, 0.0, 0.0, 0.0, 0.0, 1.741279873748686E9, 0.0, 2025-03-06 10:51:13.748
75.0, -38002.167701979604, -40950.7651270348, -48585.22696318948, -47441.041164522314, -26481.452760869597, -24888.086305628578, -54952.031964305876, -42095.97910594691, 0.088, 0.91, -0.36, 192.0, 0.0, 0.0, 0.0, 0.0, 0.0, 0.0, 0.0, 0.0, 0.0, 1.741279873807999E9, 0.0, 2025-03-06 10:51:13.807
76.0, -38011.30956546182, -40953.38028113607, -48591.4183964036, -47429.8429405502, -26520.411851455196, -24852.54703194464, -54937.43627517656, -42072.55447775775, 0.088, 0.91, -0.36, 192.0, 0.0, 0.0, 0.0, 0.0, 0.0, 0.0, 0.0, 0.0, 0.0, 1.74127987380803E9, 0.0, 2025-03-06 10:51:13.808
77.0, -38022.28427198938, -40951.435679368464, -48606.25995472193, -47417.1918531885, -26524.63633115725, -24878.25153806824, -54940.40905718912, -42078.90237318306, 0.088, 0.91, -0.36, 192.0, 0.0, 0.0, 0.0, 0.0, 0.0, 0.0, 0.0, 0.0, 0.0, 1.741279873808067E9, 0.0, 2025-03-06 10:51:13.808
78.0, -38016.18224575308, -40956.64363582655, -48585.316370167304, -47412.453283363975, -26443.298333084385, -24881.179616591886, -54960.413868476615, -42089.54180354378, 0.088, 0.91, -0.36, 192.0, 0.0, 0.0, 0.0, 0.0, 0.0, 0.0, 0.0, 0.0, 0.0, 1.741279873808094E9, 0.0, 2025-03-06 10:51:13.808
79.0, -38028.20748427004, -40977.60957212563, -48599.55443138533, -47426.28901318181, -26423.628797963716, -24899.30688134514, -54977.51295298493, -42107.57966131922, 0.088, 0.91, -0.36, 192.0, 0.0, 0.0, 0.0, 0.0, 0.0, 0.0, 0.0, 0.0, 0.0, 1.741279873808125E9, 0.0, 2025-03-06 10:51:13.808
80.0, -38017.7245161205, -40969.272371443796, -48582.67886432158, -47428.21126320497, -26431.51896375644, -24892.288433586175, -54972.506162226935, -42092.60399253416, 0.088, 0.91, -0.36, 192.0, 0.0, 0.0, 0.0, 0.0, 0.0, 0.0, 0.0, 0.0, 0.0, 1.741279873808151E9, 0.0, 2025-03-06 10:51:13.808
81.0, -38035.36004249573, -40970.27819994428, -48600.202631974535, -47430.066457994755, -26428.345016043786, -24908.538151805184, -54969.89100812567, -42097.49902456987, 0.09, 0.92, -0.362, 192.0, 2.0, 208.0, 28.0, 192.0, 244.0, 176.0, 0.0, 0.0, 0.0, 1.741279873808189E9, 0.0, 2025-03-06 10:51:13.808
82.0, -38050.93920838108, -40990.506528676335, -48630.3774869892, -47457.69321414152, -26382.74745735496, -24902.68199475789, -54971.03094709289, -42062.69735845296, 0.09, 0.92, -0.362, 192.0, 0.0, 0.0, 0.0, 0.0, 0.0, 0.0, 0.0, 0.0, 0.0, 1.741279873808224E9, 0.0, 2025-03-06 10:51:13.808
83.0, -38044.03251934439, -40987.6231536416, -48622.48732119648, -47440.66118486657, -26359.769864054902, -24879.369125291007, -54955.250615507444, -42066.206582332445, 0.09, 0.92, -0.362, 192.0, 0.0, 0.0, 0.0, 0.0, 0.0, 0.0, 0.0, 0.0, 0.0, 1.741279873808254E9, 0.0, 2025-03-06 10:51:13.808
84.0, -38035.650615173654, -40984.11392976212, -48590.501974880935, -47427.965394015955, -26387.240157990476, -24873.91529964391, -54966.24767377945, -42122.063591726255, 0.09, 0.92, -0.362, 192.0, 0.0, 0.0, 0.0, 0.0, 0.0, 0.0, 0.0, 0.0, 0.0, 1.741279873808282E9, 0.0, 2025-03-06 10:51:13.808
85.0, -38015.77991435288, -40968.89239178805, -48566.78677401385, -47386.68172200701, -26380.020544531413, -24860.1689768039, -54956.3234992413, -42053.89077113757, 0.09, 0.92, -0.362, 192.0, 0.0, 0.0, 0.0, 0.0, 0.0, 0.0, 0.0, 0.0, 0.0, 1.741279873808309E9, 0.0, 2025-03-06 10:51:13.808
86.0, -38022.84306560076, -40978.61540062611, -48569.78190777086, -47386.63701851809, -26312.048889642825, -24883.615956737514, -54958.82689462029, -42093.43100707901, 0.09, 0.92, -0.362, 192.0, 0.0, 0.0, 0.0, 0.0, 0.0, 0.0, 0.0, 0.0, 0.0, 1.741279873808335E9, 0.0, 2025-03-06 10:51:13.808
87.0, -38041.305606520844, -41000.31894449222, -48574.85575376222, -47403.66904779304, -26271.659287412083, -24867.88032864098, -54966.65000517965, -42106.14914967408, 0.09, 0.92, -0.362, 192.0, 0.0, 0.0, 0.0, 0.0, 0.0, 0.0, 0.0, 0.0, 0.0, 1.741279873808363E9, 0.0, 2025-03-06 10:51:13.808
88.0, -38029.39212672617, -40987.086711774675, -48558.337814609746, -47384.67006500603, -26317.748584478926, -24874.429389766385, -54968.035813335875, -42105.791521762796, 0.09, 0.92, -0.362, 192.0, 0.0, 0.0, 0.0, 0.0, 0.0, 0.0, 0.0, 0.0, 0.0, 1.741279873808392E9, 0.0, 2025-03-06 10:51:13.808
89.0, -38021.63607140018, -40979.10713900413, -48556.39321284214, -47391.59910578717, -26330.35496835172, -24879.994974135756, -54970.82978139279, -42123.82937953823, 0.09, 0.92, -0.362, 192.0, 0.0, 0.0, 0.0, 0.0, 0.0, 0.0, 0.0, 0.0, 0.0, 1.741279873808418E9, 0.0, 2025-03-06 10:51:13.808
90.0, -38027.402821469645, -40995.80389211224, -48572.95585548352, -47419.4940828674, -26278.096589815214, -24871.03192460918, -54993.04741538136, -42136.27930119983, 0.09, 0.92, -0.362, 192.0, 0.0, 0.0, 0.0, 0.0, 0.0, 0.0, 0.0, 0.0, 0.0, 1.741279873868177E9, 0.0, 2025-03-06 10:51:13.868
91.0, -38030.75558313794, -40995.58037466769, -48582.27653292138, -47408.85465250667, -26204.894626724083, -24873.44591301035, -54981.178639075595, -42088.24540236538, 0.092, 0.908, -0.358, 192.0, 2.0, 224.0, 28.0, 96.0, 244.0, 208.0, 0.0, 0.0, 0.0, 1.741279873868212E9, 0.0, 2025-03-06 10:51:13.868
92.0, -38006.48158865948, -40967.52893537628, -48548.547750538324, -47392.89550696558, -26230.688539825507, -24865.578098962083, -54970.11452557022, -42082.433948806996, 0.092, 0.908, -0.358, 192.0, 0.0, 0.0, 0.0, 0.0, 0.0, 0.0, 0.0, 0.0, 0.0, 1.741279873868253E9, 0.0, 2025-03-06 10:51:13.868
93.0, -38020.25026324395, -40973.85447905713, -48569.737204281955, -47401.21035590296, -26250.58159239073, -24852.994066833744, -54977.64706345166, -42080.04231215028, 0.092, 0.908, -0.358, 192.0, 0.0, 0.0, 0.0, 0.0, 0.0, 0.0, 0.0, 0.0, 0.0, 1.741279873868281E9, 0.0, 2025-03-06 10:51:13.868
94.0, -38031.09085930477, -40993.233441499884, -48605.96938204401, -47441.041164522314, -26174.116274609125, -24880.665526469413, -54988.957046146046, -42081.83045170671, 0.092, 0.908, -0.358, 192.0, 0.0, 0.0, 0.0, 0.0, 0.0, 0.0, 0.0, 0.0, 0.0, 1.741279873868311E9, 0.0, 2025-03-06 10:51:13.868
95.0, -38034.42126922861, -40999.49192994737, -48591.44074814806, -47439.18596973252, -26093.247663169823, -24897.965776677822, -55015.22034588103, -42083.0821493962, 0.092, 0.908, -0.358, 192.0, 0.0, 0.0, 0.0, 0.0, 0.0, 0.0, 0.0, 0.0, 0.0, 1.741279873868337E9, 0.0, 2025-03-06 10:51:13.868
96.0, -38036.499981462955, -40993.50166243335, -48593.072425493294, -47438.76128658787, -26116.58288438116, -24911.667396028926, -55017.6343342822, -42083.88681219659, 0.092, 0.908, -0.358, 192.0, 0.0, 0.0, 0.0, 0.0, 0.0, 0.0, 0.0, 0.0, 0.0, 1.741279873868371E9, 0.0, 2025-03-06 10:51:13.868
97.0, -38029.39212672617, -40995.31215373423, -48584.37759690018, -47444.43862967952, -26147.294181262754, -24907.59937853806, -55019.40012209417, -42075.147280114565, 0.092, 0.908, -0.358, 192.0, 0.0, 0.0, 0.0, 0.0, 0.0, 0.0, 0.0, 0.0, 0.0, 1.741279873868405E9, 0.0, 2025-03-06 10:51:13.868
98.0, -38039.53981870888, -41015.048744088264, -48598.21332671802, -47465.73984214543, -26109.87736104457, -24910.70627101735, -55036.476854858025, -42088.37951283211, 0.092, 0.908, -0.358, 192.0, 0.0, 0.0, 0.0, 0.0, 0.0, 0.0, 0.0, 0.0, 0.0, 1.741279873868435E9, 0.0, 2025-03-06 10:51:13.868
99.0, -38035.85178087375, -41001.30242124825, -48587.86446903521, -47436.32494644224, -26038.932924143428, -24919.758727521745, -55036.61096532476, -42088.647733765574, 0.092, 0.908, -0.358, 192.0, 0.0, 0.0, 0.0, 0.0, 0.0, 0.0, 0.0, 0.0, 0.0, 1.741279873868463E9, 0.0, 2025-03-06 10:51:13.868
100.0, -38026.26288250242, -40991.981743810386, -48579.90724800912, -47435.76615283086, -26008.936883084403, -24905.811238981634, -55030.55364257737, -42065.290160809775, 0.092, 0.908, -0.358, 192.0, 0.0, 0.0, 0.0, 0.0, 0.0, 0.0, 0.0, 0.0, 0.0, 1.741279873868491E9, 0.0, 2025-03-06 10:51:13.868
101.0, -38032.320205249816, -40992.607592655135, -48572.84409676124, -47423.80796954727, -26003.214836503845, -24892.757820219736, -55045.86458752926, -42040.74794539785, 0.092, 0.914, -0.36, 192.0, 2.0, 224.0, 28.0, 144.0, 244.0, 192.0, 0.0, 0.0, 0.0, 1.741279873868534E9, 0.0, 2025-03-06 10:51:13.868
102.0, -38045.39597575617, -41006.175101539506, -48598.21332671802, -47433.93330978553, -25954.823309758107, -24913.857866985545, -55061.66727085916, -42062.74206194187, 0.092, 0.914, -0.36, 192.0, 0.0, 0.0, 0.0, 0.0, 0.0, 0.0, 0.0, 0.0, 0.0, 1.741279873868566E9, 0.0, 2025-03-06 10:51:13.868
103.0, -38033.348385494755, -41002.174139282004, -48602.594268631256, -47441.041164522314, -25845.188003204825, -24913.07555592961, -55061.48845690351, -42049.6215879466, 0.092, 0.914, -0.36, 192.0, 0.0, 0.0, 0.0, 0.0, 0.0, 0.0, 0.0, 0.0, 0.0, 1.741279873868603E9, 0.0, 2025-03-06 10:51:13.868
104.0, -38038.53399020839, -41010.39958124156, -48606.14819599965, -47451.457077438485, -25815.393127845902, -24912.94144546288, -55072.060832030875, -42089.02771342131, 0.092, 0.914, -0.36, 192.0, 0.0, 0.0, 0.0, 0.0, 0.0, 0.0, 0.0, 0.0, 0.0, 1.74127987386863E9, 0.0, 2025-03-06 10:51:13.868
105.0, -38051.587408970285, -41010.10900856364, -48610.39502744616, -47447.59022564772, -25857.369703932967, -24892.22137835281, -55057.576901623834, -42081.42812030651, 0.092, 0.914, -0.36, 192.0, 0.0, 0.0, 0.0, 0.0, 0.0, 0.0, 0.0, 0.0, 0.0, 1.741279873928434E9, 0.0, 2025-03-06 10:51:13.928
106.0, -38052.52618223741, -41016.389848755585, -48605.030608776884, -47442.76224884537, -25840.02475023565, -24900.78209647919, -55061.443753414605, -42049.97921585789, 0.092, 0.914, -0.36, 192.0, 0.0, 0.0, 0.0, 0.0, 0.0, 0.0, 0.0, 0.0, 0.0, 1.741279873928477E9, 0.0, 2025-03-06 10:51:13.928
107.0, -38052.32501653731, -41025.487008748896, -48606.41641693311, -47447.36670820317, -25747.689693890774, -24911.175657650907, -55069.15510525169, -42019.13380850957, 0.092, 0.914, -0.36, 192.0, 0.0, 0.0, 0.0, 0.0, 0.0, 0.0, 0.0, 0.0, 0.0, 1.74127987392851E9, 0.0, 2025-03-06 10:51:13.928
108.0, -38057.130641595206, -41028.50449425036, -48602.437806420065, -47447.2996529698, -25700.97454797918, -24915.84717224207, -55075.771221610456, -42073.89558242507, 0.092, 0.914, -0.36, 192.0, 0.0, 0.0, 0.0, 0.0, 0.0, 0.0, 0.0, 0.0, 0.0, 1.741279873928537E9, 0.0, 2025-03-06 10:51:13.928
109.0, -38045.440679245075, -41019.74261042388, -48593.96649527151, -47437.420181920555, -25728.400138425844, -24888.26511958422, -55084.75662288149, -42094.34742860168, 0.092, 0.914, -0.36, 192.0, 0.0, 0.0, 0.0, 0.0, 0.0, 0.0, 0.0, 0.0, 0.0, 1.741279873928568E9, 0.0, 2025-03-06 10:51:13.928
110.0, -38051.319188036825, -41026.31402329374, -48615.11124552623, -47447.2996529698, -25726.61199886942, -24899.955081934346, -55087.68470140514, -42088.5359750433, 0.092, 0.914, -0.36, 192.0, 0.0, 0.0, 0.0, 0.0, 0.0, 0.0, 0.0, 0.0, 0.0, 1.741279873928595E9, 0.0, 2025-03-06 10:51:13.928
111.0, -38060.03636837439, -41031.03024137381, -48637.35123125926, -47459.61546416467, -25629.538372700023, -24887.30399457264, -55095.46310847558, -42131.853655797684, 0.09, 0.916, -0.36, 192.0, 2.0, 208.0, 28.0, 160.0, 244.0, 192.0, 0.0, 0.0, 0.0, 1.741279873928629E9, 0.0, 2025-03-06 10:51:13.928
112.0, -38067.68066497811, -41031.16435184054, -48613.1219402697, -47444.57274014625, -25547.10513914885, -24903.73252674729, -55097.13948930973, -42119.31432715825, 0.09, 0.916, -0.36, 192.0, 0.0, 0.0, 0.0, 0.0, 0.0, 0.0, 0.0, 0.0, 0.0, 1.741279873928661E9, 0.0, 2025-03-06 10:51:13.928
113.0, -38037.0811268188, -40997.54732817976, -48581.38246314317, -47403.44553034849, -25548.736816494085, -24889.31565157362, -55075.078317532345, -42090.190004132986, 0.09, 0.916, -0.36, 192.0, 0.0, 0.0, 0.0, 0.0, 0.0, 0.0, 0.0, 0.0, 0.0, 1.741279873928694E9, 0.0, 2025-03-06 10:51:13.928
114.0, -38025.324109235306, -40993.0769792887, -48573.67111130609, -47400.76332101385, -25540.153746623248, -24900.871503457012, -55064.08125926033, -42094.57094604623, 0.09, 0.916, -0.36, 192.0, 0.0, 0.0, 0.0, 0.0, 0.0, 0.0, 0.0, 0.0, 0.0, 1.741279873928721E9, 0.0, 2025-03-06 10:51:13.928
115.0, -38033.080164561296, -41000.229537514395, -48581.56127709881, -47418.30944041126, -25473.85847256881, -24903.88898895848, -55061.62256737025, -42076.354274315156, 0.09, 0.916, -0.36, 192.0, 0.0, 0.0, 0.0, 0.0, 0.0, 0.0, 0.0, 0.0, 0.0, 1.741279873928749E9, 0.0, 2025-03-06 10:51:13.928
116.0, -38040.29977802036, -41015.02639234381, -48584.489355622456, -47431.116989984155, -25409.5972072598, -24908.02406168271, -55054.8946922892, -42066.85478292165, 0.09, 0.916, -0.36, 192.0, 0.0, 0.0, 0.0, 0.0, 0.0, 0.0, 0.0, 0.0, 0.0, 1.741279873928777E9, 0.0, 2025-03-06 10:51:13.928
117.0, -38043.831353644295, -41018.893244134575, -48583.68469282206, -47430.088809739216, -25413.955797428585, -24901.40794532394, -55052.32424167684, -42082.769224973825, 0.09, 0.916, -0.36, 192.0, 0.0, 0.0, 0.0, 0.0, 0.0, 0.0, 0.0, 0.0, 0.0, 1.741279873928805E9, 0.0, 2025-03-06 10:51:13.928
118.0, -38046.558266467844, -41024.145904081575, -48594.99467551645, -47441.37644068914, -25426.27160862346, -24886.991070150267, -55051.027840498435, -42076.84601269317, 0.09, 0.916, -0.36, 192.0, 0.0, 0.0, 0.0, 0.0, 0.0, 0.0, 0.0, 0.0, 0.0, 1.741279873928836E9, 0.0, 2025-03-06 10:51:13.928
119.0, -38066.74189171099, -41040.06034613375, -48628.05290556585, -47467.72914740195, -25376.673087677133, -24904.44778256986, -55057.532198134926, -42062.38443403059, 0.09, 0.916, -0.36, 192.0, 0.0, 0.0, 0.0, 0.0, 0.0, 0.0, 0.0, 0.0, 0.0, 1.741279873928862E9, 0.0, 2025-03-06 10:51:13.928
120.0, -38054.64959796066, -41025.0846773487, -48608.98686754547, -47441.37644068914, -25313.7752787799, -24922.507992089748, -55059.2979859469, -42094.07920766821, 0.09, 0.916, -0.36, 192.0, 0.0, 0.0, 0.0, 0.0, 0.0, 0.0, 0.0, 0.0, 0.0, 1.74127987398875E9, 0.0, 2025-03-06 10:51:13.988
121.0, -38047.05000484586, -41020.703735435454, -48594.972323771995, -47443.38809769012, -25345.894735562175, -24916.584779809094, -55059.11917199125, -42078.924724927514, 0.088, 0.912, -0.354, 192.0, 2.0, 192.0, 28.0, 128.0, 244.0, 240.0, 0.0, 0.0, 0.0, 1.741279873988793E9, 0.0, 2025-03-06 10:51:13.988
122.0, -38055.4319090166, -41026.3363750382, -48599.2191552185, -47450.898283827104, -25371.97922134152, -24906.526494804206, -55045.909291018164, -42079.41646330553, 0.088, 0.912, -0.354, 192.0, 0.0, 0.0, 0.0, 0.0, 0.0, 0.0, 0.0, 0.0, 0.0, 1.741279873988827E9, 0.0, 2025-03-06 10:51:13.988
123.0, -38056.50479275046, -41026.20226457146, -48608.33866695627, -47452.82053385026, -25346.58763964029, -24903.777230236203, -55048.23387244152, -42092.26871636733, 0.088, 0.912, -0.354, 192.0, 0.0, 0.0, 0.0, 0.0, 0.0, 0.0, 0.0, 0.0, 0.0, 1.741279873988855E9, 0.0, 2025-03-06 10:51:13.988
124.0, -38059.18700208509, -41035.4335350315, -48611.4232076911, -47461.29184499882, -25268.200071835527, -24919.535210077192, -55056.056983000875, -42057.93643688398, 0.088, 0.912, -0.354, 192.0, 0.0, 0.0, 0.0, 0.0, 0.0, 0.0, 0.0, 0.0, 0.0, 1.741279873988884E9, 0.0, 2025-03-06 10:51:13.988
125.0, -38062.69622596457, -41045.78239271431, -48613.30075422535, -47475.97694110596, -25279.107723129717, -24930.308750904653, -55060.1473522362, -42058.07054735071, 0.088, 0.912, -0.354, 192.0, 0.0, 0.0, 0.0, 0.0, 0.0, 0.0, 0.0, 0.0, 0.0, 1.741279873988912E9, 0.0, 2025-03-06 10:51:13.988
126.0, -38047.2288188015, -41040.06034613375, -48606.28230646638, -47466.857429368196, -25326.225200441506, -24927.51478284774, -55061.98019528153, -42091.46405356694, 0.088, 0.912, -0.354, 192.0, 0.0, 0.0, 0.0, 0.0, 0.0, 0.0, 0.0, 0.0, 0.0, 1.74127987398894E9, 0.0, 2025-03-06 10:51:13.988
127.0, -38043.38431875519, -41040.50738102286, -48612.6749053806, -47460.33071998724, -25294.01633668141, -24908.895779716466, -55058.40391616868, -42108.38432411961, 0.088, 0.912, -0.354, 192.0, 0.0, 0.0, 0.0, 0.0, 0.0, 0.0, 0.0, 0.0, 0.0, 1.741279873988976E9, 0.0, 2025-03-06 10:51:13.988
128.0, -38053.46495550453, -41047.279959592815, -48613.68073388109, -47468.60086543571, -25212.27600720835, -24927.850059014567, -55063.50011390449, -42105.45624559597, 0.088, 0.912, -0.354, 192.0, 0.0, 0.0, 0.0, 0.0, 0.0, 0.0, 0.0, 0.0, 0.0, 1.741279873989007E9, 0.0, 2025-03-06 10:51:13.989
129.0, -38082.65633376317, -41067.88826798061, -48625.57186193131, -47475.239333538935, -25195.8474750337, -24926.441899113885, -55068.439849429116, -42081.718692984425, 0.088, 0.912, -0.354, 192.0, 0.0, 0.0, 0.0, 0.0, 0.0, 0.0, 0.0, 0.0, 0.0, 1.741279873989037E9, 0.0, 2025-03-06 10:51:13.989
130.0, -38082.3881128297, -41064.15552665658, -48625.86243460923, -47468.26558926888, -25253.89495538413, -24932.141593949986, -55066.22702672804, -42113.79344627779, 0.088, 0.912, -0.354, 192.0, 0.0, 0.0, 0.0, 0.0, 0.0, 0.0, 0.0, 0.0, 0.0, 1.741279873989064E9, 0.0, 2025-03-06 10:51:13.989
