%OpenBCI Raw EXG Data
%Number of channels = 8
%Sample Rate = 250 Hz
%Board = OpenBCI_GUI$BoardCytonSerial
Sample Index, EXG Channel 0, EXG Channel 1, EXG Channel 2, EXG Channel 3, EXG Channel 4, EXG Channel 5, EXG Channel 6, EXG Channel 7, Accel Channel 0, Accel Channel 1, Accel Channel 2, Not Used, Digital Channel 0 (D11), Digital Channel 1 (D12), Digital Channel 2 (D13), Digital Channel 3 (D17), Not Used, Digital Channel 4 (D18), Analog Channel 0, Analog Channel 1, Analog Channel 2, Timestamp, Marker Channel, Timestamp (Formatted)
253.0, -33753.8163368483, -40414.323260107434, -45921.81544563955, -44887.6449331814, -19499.125420942953, -22622.13350798291, -52930.741361468004, -39666.27742842167, 0.0, 0.0, 0.0, 192.0, 0.0, 0.0, 0.0, 0.0, 0.0, 0.0, 0.0, 0.0, 0.0, 1.74127969048854E9, 0.0, 2025-03-06 10:48:10.488
254.0, -33748.608380390215, -40411.19401588369, -45916.42867522582, -44885.18624129132, -19452.097350608987, -22621.395900415886, -52930.00375390098, -39661.38239638596, 0.0, 0.0, 0.0, 192.0, 0.0, 0.0, 0.0, 0.0, 0.0, 0.0, 0.0, 0.0, 0.0, 1.741279690488594E9, 0.0, 2025-03-06 10:48:10.488
255.0, -33746.082633266764, -40407.01423967055, -45911.69010540129, -44885.00742733567, -19463.31792632555, -22624.122813239435, -52922.38180904172, -39628.41357331438, 0.0, 0.0, 0.0, 192.0, 0.0, 0.0, 0.0, 0.0, 0.0, 0.0, 0.0, 0.0, 0.0, 1.741279690488615E9, 0.0, 2025-03-06 10:48:10.488
0.0, -33736.04670000633, -40399.48170178911, -45902.79411110808, -44871.26110449566, -19518.347921174518, -22614.220990445734, -52920.34780029629, -39669.00434124522, 0.096, 0.916, -0.358, 192.0, 3.0, 0.0, 28.0, 160.0, 244.0, 208.0, 0.0, 0.0, 0.0, 1.741279690488642E9, 0.0, 2025-03-06 10:48:10.488
1.0, -33735.9125895396, -40398.00648665506, -45900.96126806275, -44873.138651029905, -19518.52673513016, -22620.188906215302, -52924.035838131414, -39670.92659126838, 0.096, 0.916, -0.358, 192.0, 0.0, 0.0, 0.0, 0.0, 0.0, 0.0, 0.0, 0.0, 0.0, 1.741279690488665E9, 0.0, 2025-03-06 10:48:10.488
2.0, -33734.72794708347, -40399.079370388914, -45907.55503267706, -44879.285380755115, -19468.503531039183, -22631.878868565425, -52924.661686976164, -39659.929532996364, 0.096, 0.916, -0.358, 192.0, 0.0, 0.0, 0.0, 0.0, 0.0, 0.0, 0.0, 0.0, 0.0, 1.741279690488684E9, 0.0, 2025-03-06 10:48:10.488
3.0, -33736.91841804009, -40400.80045471197, -45907.06329429904, -44879.419491221845, -19475.47727530924, -22627.09559525199, -52918.89493690669, -39675.28518143716, 0.096, 0.916, -0.358, 192.0, 0.0, 0.0, 0.0, 0.0, 0.0, 0.0, 0.0, 0.0, 0.0, 1.741279690488703E9, 0.0, 2025-03-06 10:48:10.488
4.0, -33738.52774364087, -40398.721742477625, -45904.89517508688, -44877.541944687604, -19523.935857288347, -22619.160725970356, -52916.95033513908, -39679.12968148347, 0.096, 0.916, -0.358, 192.0, 0.0, 0.0, 0.0, 0.0, 0.0, 0.0, 0.0, 0.0, 0.0, 1.74127969048873E9, 0.0, 2025-03-06 10:48:10.488
5.0, -33727.642444091136, -40390.406893540254, -45900.22366049572, -44872.6916161408, -19545.617049409993, -22626.827374318527, -52921.018352629944, -39658.83429751806, 0.096, 0.916, -0.358, 192.0, 0.0, 0.0, 0.0, 0.0, 0.0, 0.0, 0.0, 0.0, 0.0, 1.74127969048875E9, 0.0, 2025-03-06 10:48:10.488
6.0, -33717.18182768605, -40383.969591137124, -45896.334456960496, -44879.06186331056, -19517.09622348502, -22644.507604182676, -52922.87354741974, -39659.08016670706, 0.096, 0.916, -0.358, 192.0, 0.0, 0.0, 0.0, 0.0, 0.0, 0.0, 0.0, 0.0, 0.0, 1.741279690488769E9, 0.0, 2025-03-06 10:48:10.488
7.0, -33726.457801635006, -40383.768425437025, -45896.15564300485, -44875.664398153356, -19493.783354018135, -22637.33269421252, -52919.47608226253, -39685.47757690878, 0.096, 0.916, -0.358, 192.0, 0.0, 0.0, 0.0, 0.0, 0.0, 0.0, 0.0, 0.0, 0.0, 1.741279690488788E9, 0.0, 2025-03-06 10:48:10.488
8.0, -33737.141935484644, -40380.86269865784, -45900.96126806275, -44868.75770911667, -19521.655979353905, -22629.33076969752, -52918.04557061739, -39665.00337898772, 0.096, 0.916, -0.358, 192.0, 0.0, 0.0, 0.0, 0.0, 0.0, 0.0, 0.0, 0.0, 0.0, 1.741279690488806E9, 0.0, 2025-03-06 10:48:10.488
9.0, -33741.20995297551, -40379.47689050161, -45909.87961410041, -44878.92775284383, -19556.502348959726, -22632.05768252107, -52916.57035548334, -39656.06268120559, 0.096, 0.916, -0.358, 192.0, 0.0, 0.0, 0.0, 0.0, 0.0, 0.0, 0.0, 0.0, 0.0, 1.741279690488826E9, 0.0, 2025-03-06 10:48:10.488
10.0, -33732.71629008249, -40385.51186150454, -45909.186710022295, -44892.718779172756, -19530.373159691473, -22637.91383956836, -52920.45955901856, -39644.59623630002, 0.09, 0.916, -0.364, 192.0, 2.0, 208.0, 28.0, 160.0, 244.0, 160.0, 0.0, 0.0, 0.0, 1.741279690488845E9, 0.0, 2025-03-06 10:48:10.488
11.0, -33721.272196921374, -40382.00263762506, -45899.351942461966, -44879.75476738868, -19502.94756924481, -22626.134470240413, -52916.12332059423, -39667.551477855624, 0.09, 0.916, -0.364, 192.0, 0.0, 0.0, 0.0, 0.0, 0.0, 0.0, 0.0, 0.0, 0.0, 1.741279690488866E9, 0.0, 2025-03-06 10:48:10.488
12.0, -33714.8572462627, -40367.630465940296, -45889.51717490163, -44853.96085428725, -19545.30412498762, -22608.81186828755, -52907.49554723449, -39660.33186439656, 0.09, 0.916, -0.364, 192.0, 0.0, 0.0, 0.0, 0.0, 0.0, 0.0, 0.0, 0.0, 0.0, 1.741279690488886E9, 0.0, 2025-03-06 10:48:10.488
13.0, -33719.14878119812, -40370.31267527493, -45895.46273892674, -44860.73343285721, -19555.474168714783, -22617.752566069674, -52910.02129435793, -39657.87317250647, 0.09, 0.916, -0.364, 192.0, 0.0, 0.0, 0.0, 0.0, 0.0, 0.0, 0.0, 0.0, 0.0, 1.741279690488913E9, 0.0, 2025-03-06 10:48:10.488
14.0, -33717.11477245269, -40369.68682643018, -45891.640590624884, -44865.516706170645, -19527.802709079115, -22622.826412061026, -52911.027122858424, -39644.86445723349, 0.09, 0.916, -0.364, 192.0, 0.0, 0.0, 0.0, 0.0, 0.0, 0.0, 0.0, 0.0, 0.0, 1.741279690488937E9, 0.0, 2025-03-06 10:48:10.488
0.0, 0.0, 0.0, 0.0, 0.0, 0.0, 0.0, 0.0, 0.0, 0.058, 0.914, -0.38, 192.0, 1.0, 208.0, 28.0, 144.0, 244.0, 32.0, 0.0, 0.0, 0.0, 1.741279690576288E9, 0.0, 2025-03-06 10:48:10.576
1.0, -36861.24525800291, -43218.37195377016, -48720.231499699534, -47717.86751960129, -22717.955436462813, -25532.598856997356, -55630.72033294682, -42833.34080378304, 0.058, 0.914, -0.38, 192.0, 0.0, 0.0, 0.0, 0.0, 0.0, 0.0, 0.0, 0.0, 0.0, 1.741279690635604E9, 0.0, 2025-03-06 10:48:10.635
2.0, -36868.77779588435, -43229.927805653555, -48728.94868003711, -47733.24551978654, -22666.166444559865, -25549.697941505667, -55639.236347584294, -42862.398071574935, 0.058, 0.914, -0.38, 192.0, 0.0, 0.0, 0.0, 0.0, 0.0, 0.0, 0.0, 0.0, 0.0, 1.741279690635637E9, 0.0, 2025-03-06 10:48:10.635
3.0, -36870.2530110184, -43234.06287837779, -48723.20428171209, -47727.00938308351, -22656.421083977355, -25532.330636063893, -55639.61632724003, -42897.11033071403, 0.058, 0.914, -0.38, 192.0, 0.0, 0.0, 0.0, 0.0, 0.0, 0.0, 0.0, 0.0, 0.0, 1.741279690635657E9, 0.0, 2025-03-06 10:48:10.635
4.0, -36869.91773485157, -43235.47103827847, -48720.455017144086, -47723.70132490413, -22693.01088965069, -25531.660083730232, -55634.92246090442, -42872.03167343517, 0.058, 0.914, -0.38, 192.0, 0.0, 0.0, 0.0, 0.0, 0.0, 0.0, 0.0, 0.0, 0.0, 1.7412796906357E9, 0.0, 2025-03-06 10:48:10.635
5.0, -36870.2530110184, -43239.6061110027, -48718.17513920965, -47724.48363596006, -22706.86897121298, -25536.689226232676, -55633.42489402591, -42860.319359340596, 0.058, 0.914, -0.38, 192.0, 0.0, 0.0, 0.0, 0.0, 0.0, 0.0, 0.0, 0.0, 0.0, 1.741279690635719E9, 0.0, 2025-03-06 10:48:10.635
6.0, -36870.968266840966, -43237.59445400172, -48717.169310709156, -47722.762551637, -22675.978860375748, -25533.09059537537, -55636.5317865052, -42881.79938576215, 0.058, 0.914, -0.38, 192.0, 0.0, 0.0, 0.0, 0.0, 0.0, 0.0, 0.0, 0.0, 0.0, 1.741279690635738E9, 0.0, 2025-03-06 10:48:10.635
7.0, -36881.25006929041, -43244.14351512713, -48720.656182844185, -47720.72854289157, -22672.022601607157, -25524.82044992691, -55637.33644930559, -42880.368874117004, 0.058, 0.914, -0.38, 192.0, 0.0, 0.0, 0.0, 0.0, 0.0, 0.0, 0.0, 0.0, 0.0, 1.741279690635757E9, 0.0, 2025-03-06 10:48:10.635
8.0, -36879.73015066745, -43242.17656161506, -48719.11391247677, -47719.1639207797, -22731.567648836095, -25525.84863017185, -55634.92246090442, -42877.30668512663, 0.044, 0.914, -0.38, 192.0, 1.0, 96.0, 28.0, 144.0, 244.0, 32.0, 0.0, 0.0, 0.0, 1.741279690635775E9, 0.0, 2025-03-06 10:48:10.635
9.0, -36879.283115778344, -43244.545846527326, -48722.98076426754, -47716.705228889616, -22736.440329127352, -25526.09449936086, -55634.09544635957, -42870.95878970132, 0.044, 0.914, -0.38, 192.0, 0.0, 0.0, 0.0, 0.0, 0.0, 0.0, 0.0, 0.0, 0.0, 1.741279690635796E9, 0.0, 2025-03-06 10:48:10.635
10.0, -36871.57176394126, -43245.39521281663, -48720.58912761082, -47716.146435278235, -22684.38311629094, -25526.943865650162, -55626.4287980114, -42850.35048131353, 0.044, 0.914, -0.38, 192.0, 0.0, 0.0, 0.0, 0.0, 0.0, 0.0, 0.0, 0.0, 0.0, 1.741279690635815E9, 0.0, 2025-03-06 10:48:10.635
11.0, -36875.39391224312, -43247.6080355177, -48721.147921222204, -47717.82281611238, -22653.80592987608, -25527.39090053927, -55629.178062579405, -42858.978254673275, 0.044, 0.914, -0.38, 192.0, 0.0, 0.0, 0.0, 0.0, 0.0, 0.0, 0.0, 0.0, 0.0, 1.741279690635835E9, 0.0, 2025-03-06 10:48:10.635
12.0, -36877.83025238875, -43246.95983492849, -48716.610517097775, -47715.47588294457, -22685.567758747075, -25527.547362750454, -55631.972030636316, -42862.48747855276, 0.044, 0.914, -0.38, 192.0, 0.0, 0.0, 0.0, 0.0, 0.0, 0.0, 0.0, 0.0, 0.0, 1.741279690635854E9, 0.0, 2025-03-06 10:48:10.635
13.0, -36880.66892393457, -43251.27372160837, -48721.90788053368, -47722.94136559265, -22688.831113437547, -25533.783499453486, -55640.46569352933, -42877.8207752491, 0.044, 0.914, -0.38, 192.0, 0.0, 0.0, 0.0, 0.0, 0.0, 0.0, 0.0, 0.0, 0.0, 1.741279690635881E9, 0.0, 2025-03-06 10:48:10.635
14.0, -36882.03238034635, -43253.84417222073, -48726.624098613756, -47729.31161276241, -22641.28895298111, -25538.276200089003, -55650.412219811944, -42879.117176427506, 0.044, 0.914, -0.38, 192.0, 0.0, 0.0, 0.0, 0.0, 0.0, 0.0, 0.0, 0.0, 0.0, 1.741279690635907E9, 0.0, 2025-03-06 10:48:10.635
15.0, -36891.375409528664, -43261.376710102166, -48736.3024039629, -47734.29605177594, -22601.905179250858, -25549.09444440537, -55657.274205359725, -42871.67404552389, 0.044, 0.914, -0.38, 192.0, 0.0, 0.0, 0.0, 0.0, 0.0, 0.0, 0.0, 0.0, 0.0, 1.741279690635933E9, 0.0, 2025-03-06 10:48:10.635
16.0, -36886.34626702622, -43253.17361988707, -48732.07792426085, -47727.948156350634, -22634.315208711054, -25547.68628450469, -55649.89812968947, -42865.52731579868, 0.044, 0.914, -0.38, 192.0, 0.0, 0.0, 0.0, 0.0, 0.0, 0.0, 0.0, 0.0, 0.0, 1.741279690696058E9, 0.0, 2025-03-06 10:48:10.696
17.0, -36875.63978143213, -43242.713003481986, -48717.5492903649, -47719.409789968704, -22653.62711592044, -25534.878734931797, -55638.52109176172, -42866.51079255471, 0.044, 0.914, -0.38, 192.0, 0.0, 0.0, 0.0, 0.0, 0.0, 0.0, 0.0, 0.0, 0.0, 1.741279690696093E9, 0.0, 2025-03-06 10:48:10.696
18.0, -36872.59994418621, -43242.66829999308, -48716.20818569758, -47717.21931901209, -22630.090729009, -25525.178077838194, -55643.863158686545, -42887.096749198055, 0.038, 0.918, -0.38, 192.0, 1.0, 48.0, 28.0, 176.0, 244.0, 32.0, 0.0, 0.0, 0.0, 1.741279690696114E9, 0.0, 2025-03-06 10:48:10.696
19.0, -36880.557165212296, -43251.49723905292, -48727.56287188088, -47726.53999644995, -22593.098591935468, -25529.13433660678, -55648.7358389778, -42896.43977838037, 0.038, 0.918, -0.38, 192.0, 0.0, 0.0, 0.0, 0.0, 0.0, 0.0, 0.0, 0.0, 0.0, 1.741279690696136E9, 0.0, 2025-03-06 10:48:10.696
20.0, -36888.62614496066, -43254.604131532215, -48729.753342837495, -47727.14349355024, -22615.04800499058, -25538.63382800029, -55646.366554065535, -42875.138565914465, 0.038, 0.918, -0.38, 192.0, 0.0, 0.0, 0.0, 0.0, 0.0, 0.0, 0.0, 0.0, 0.0, 1.741279690696175E9, 0.0, 2025-03-06 10:48:10.696
21.0, -36885.206328059, -43252.74893674242, -48728.79221782592, -47726.763513894504, -22656.331676999533, -25543.037121657984, -55643.0361441417, -42869.43887107836, 0.038, 0.918, -0.38, 192.0, 0.0, 0.0, 0.0, 0.0, 0.0, 0.0, 0.0, 0.0, 0.0, 1.741279690696195E9, 0.0, 2025-03-06 10:48:10.696
22.0, -36883.418188502576, -43256.30286411082, -48735.564796395876, -47733.267871530996, -22654.163557787368, -25547.68628450469, -55650.61338551204, -42883.185193918376, 0.038, 0.918, -0.38, 192.0, 0.0, 0.0, 0.0, 0.0, 0.0, 0.0, 0.0, 0.0, 0.0, 1.741279690696215E9, 0.0, 2025-03-06 10:48:10.696
23.0, -36887.01681935988, -43266.11527992669, -48742.829113343854, -47741.582720468374, -22583.88967321988, -25558.124549165317, -55660.984594939306, -42895.83628128008, 0.038, 0.918, -0.38, 192.0, 0.0, 0.0, 0.0, 0.0, 0.0, 0.0, 0.0, 0.0, 0.0, 1.741279690696234E9, 0.0, 2025-03-06 10:48:10.696
24.0, -36880.31129602329, -43258.06865192278, -48729.97686028205, -47728.238729028555, -22601.56990308403, -25542.701845491156, -55650.59103376759, -42881.844089251055, 0.038, 0.918, -0.38, 192.0, 0.0, 0.0, 0.0, 0.0, 0.0, 0.0, 0.0, 0.0, 0.0, 1.741279690696254E9, 0.0, 2025-03-06 10:48:10.696
25.0, -36890.123711839165, -43268.08223343876, -48744.17021801117, -47736.10654307682, -22642.406540203876, -25538.097386133362, -55656.55894953715, -42878.73719677177, 0.038, 0.918, -0.38, 192.0, 0.0, 0.0, 0.0, 0.0, 0.0, 0.0, 0.0, 0.0, 0.0, 1.741279690696273E9, 0.0, 2025-03-06 10:48:10.696
26.0, -36893.65528746311, -43271.50205034042, -48746.89713083472, -47742.74501118005, -22651.838976364015, -25550.97199093962, -55663.64445252949, -42887.364970131515, 0.038, 0.918, -0.38, 192.0, 0.0, 0.0, 0.0, 0.0, 0.0, 0.0, 0.0, 0.0, 0.0, 1.741279690696293E9, 0.0, 2025-03-06 10:48:10.696
27.0, -36888.380275771655, -43265.914114226594, -48743.20909299959, -47736.8665023883, -22623.921647539337, -25547.753339738054, -55658.68236526041, -42892.66233356742, 0.038, 0.918, -0.38, 192.0, 0.0, 0.0, 0.0, 0.0, 0.0, 0.0, 0.0, 0.0, 0.0, 1.741279690696313E9, 0.0, 2025-03-06 10:48:10.696
28.0, -36890.548394983816, -43270.5632770733, -48744.97488081156, -47739.10167683383, -22633.28702846611, -25558.30336312096, -55657.140094892995, -42881.86644099551, 0.044, 0.906, -0.38, 192.0, 1.0, 96.0, 28.0, 80.0, 244.0, 32.0, 0.0, 0.0, 0.0, 1.741279690696344E9, 0.0, 2025-03-06 10:48:10.696
29.0, -36894.21408107449, -43275.90534399812, -48750.69692739212, -47746.43304901518, -22683.086715112535, -25566.908784736253, -55658.34708909358, -42888.39315037646, 0.044, 0.906, -0.38, 192.0, 0.0, 0.0, 0.0, 0.0, 0.0, 0.0, 0.0, 0.0, 0.0, 1.741279690696373E9, 0.0, 2025-03-06 10:48:10.696
30.0, -36893.09649385172, -43271.99378871844, -48749.69109889163, -47745.24840655904, -22690.373383804963, -25567.892261492285, -55661.1410571505, -42872.545763557646, 0.044, 0.906, -0.38, 192.0, 0.0, 0.0, 0.0, 0.0, 0.0, 0.0, 0.0, 0.0, 0.0, 1.741279690696399E9, 0.0, 2025-03-06 10:48:10.696
31.0, -36899.287927065845, -43278.47579461048, -48758.18476178465, -47756.60309274234, -22642.272429737142, -25579.828093031418, -55672.67455728943, -42887.05204570914, 0.044, 0.906, -0.38, 192.0, 0.0, 0.0, 0.0, 0.0, 0.0, 0.0, 0.0, 0.0, 0.0, 1.741279690756407E9, 0.0, 2025-03-06 10:48:10.756
32.0, -36899.06440962129, -43279.99571323344, -48753.71441289358, -47750.63517697277, -22634.91870581135, -25572.5861278279, -55675.42382185743, -42924.02183103822, 0.044, 0.906, -0.38, 192.0, 0.0, 0.0, 0.0, 0.0, 0.0, 0.0, 0.0, 0.0, 0.0, 1.741279690756439E9, 0.0, 2025-03-06 10:48:10.756
33.0, -36898.57267124327, -43278.67696031058, -48748.79702911342, -47742.1191623353, -22675.934156886837, -25560.02444744402, -55671.37815611102, -42911.281336698696, 0.044, 0.906, -0.38, 192.0, 0.0, 0.0, 0.0, 0.0, 0.0, 0.0, 0.0, 0.0, 0.0, 1.741279690756459E9, 0.0, 2025-03-06 10:48:10.756
34.0, -36901.67956372256, -43283.03555047936, -48752.44036345963, -47748.06472636041, -22694.26258734019, -25567.10995043635, -55674.93208347942, -42902.63121159449, 0.044, 0.906, -0.38, 192.0, 0.0, 0.0, 0.0, 0.0, 0.0, 0.0, 0.0, 0.0, 0.0, 1.741279690756479E9, 0.0, 2025-03-06 10:48:10.756
35.0, -36911.246110349435, -43293.250297695435, -48765.80670664391, -47765.11910737981, -22653.738874642717, -25574.888357506796, -55685.19153418441, -42903.43587439488, 0.044, 0.906, -0.38, 192.0, 0.0, 0.0, 0.0, 0.0, 0.0, 0.0, 0.0, 0.0, 0.0, 1.741279690756527E9, 0.0, 2025-03-06 10:48:10.756
36.0, -36918.73394474196, -43298.10062624224, -48767.37132875578, -47765.05205214644, -22602.687490306795, -25571.78146502751, -55682.509324849765, -42901.625383094004, 0.044, 0.906, -0.38, 192.0, 0.0, 0.0, 0.0, 0.0, 0.0, 0.0, 0.0, 0.0, 0.0, 1.741279690756547E9, 0.0, 2025-03-06 10:48:10.756
37.0, -36909.74854347092, -43288.712893571006, -48752.64152915973, -47753.42914502969, -22641.557173914574, -25554.280049119003, -55659.241158871795, -42883.34165612956, 0.044, 0.906, -0.38, 192.0, 0.0, 0.0, 0.0, 0.0, 0.0, 0.0, 0.0, 0.0, 0.0, 1.741279690756566E9, 0.0, 2025-03-06 10:48:10.756
38.0, -36901.25488057791, -43280.21923067799, -48745.04193604493, -47742.65560420223, -22672.804912663094, -25539.729063478597, -55661.67749901742, -42916.62340362351, 0.048, 0.91, -0.368, 192.0, 1.0, 128.0, 28.0, 112.0, 244.0, 128.0, 0.0, 0.0, 0.0, 1.741279690756586E9, 0.0, 2025-03-06 10:48:10.756
39.0, -36900.181996844054, -43276.15121318713, -48747.567683168374, -47741.33685127936, -22651.369589730453, -25539.662008245232, -55659.75524899427, -42909.96258377583, 0.048, 0.91, -0.368, 192.0, 0.0, 0.0, 0.0, 0.0, 0.0, 0.0, 0.0, 0.0, 0.0, 1.741279690756607E9, 0.0, 2025-03-06 10:48:10.756
40.0, -36920.99147093195, -43293.80909130682, -48764.59971244332, -47758.74886021005, -22582.95089995276, -25562.281973634002, -55677.36842362505, -42919.86440656953, 0.048, 0.91, -0.368, 192.0, 0.0, 0.0, 0.0, 0.0, 0.0, 0.0, 0.0, 0.0, 0.0, 1.741279690756627E9, 0.0, 2025-03-06 10:48:10.756
41.0, -36919.09157265325, -43284.71193131351, -48756.37427048377, -47747.86356066031, -22610.75647005516, -25558.30336312096, -55677.83781025861, -42915.952851289854, 0.048, 0.91, -0.368, 192.0, 0.0, 0.0, 0.0, 0.0, 0.0, 0.0, 0.0, 0.0, 0.0, 1.741279690756647E9, 0.0, 2025-03-06 10:48:10.756
42.0, -36906.68635448055, -43271.25618115142, -48747.74649712402, -47740.06280184541, -22638.293819224098, -25553.67655201871, -55669.3888508545, -42890.985952733274, 0.048, 0.91, -0.368, 192.0, 0.0, 0.0, 0.0, 0.0, 0.0, 0.0, 0.0, 0.0, 0.0, 1.741279690756666E9, 0.0, 2025-03-06 10:48:10.756
43.0, -36899.46674102148, -43267.590495060744, -48746.964186068086, -47747.394174026755, -22628.72727259723, -25552.938944451686, -55665.27612987473, -42895.97039174681, 0.048, 0.91, -0.368, 192.0, 0.0, 0.0, 0.0, 0.0, 0.0, 0.0, 0.0, 0.0, 0.0, 1.741279690756693E9, 0.0, 2025-03-06 10:48:10.756
44.0, -36903.333592812254, -43274.13955618615, -48749.08760179134, -47756.267816575506, -22590.684603534297, -25561.656124789253, -55667.60071129808, -42904.95579301784, 0.048, 0.91, -0.368, 192.0, 0.0, 0.0, 0.0, 0.0, 0.0, 0.0, 0.0, 0.0, 0.0, 1.741279690756719E9, 0.0, 2025-03-06 10:48:10.756
45.0, -36913.39187781714, -43278.498146354934, -48757.648319917724, -47758.68180497668, -22597.680699548808, -25566.97583996962, -55673.61333055655, -42896.953868502846, 0.048, 0.91, -0.368, 192.0, 0.0, 0.0, 0.0, 0.0, 0.0, 0.0, 0.0, 0.0, 0.0, 1.741279690756745E9, 0.0, 2025-03-06 10:48:10.756
46.0, -36906.73105796946, -43271.05501545132, -48758.274168762466, -47756.8713136758, -22632.035330776613, -25571.401485371767, -55665.67846127492, -42883.386359618475, 0.048, 0.91, -0.368, 192.0, 0.0, 0.0, 0.0, 0.0, 0.0, 0.0, 0.0, 0.0, 0.0, 1.74127969081562E9, 0.0, 2025-03-06 10:48:10.815
47.0, -36909.569729515286, -43274.63129456417, -48763.41506998719, -47765.141459124265, -22620.188906215302, -25586.15363671227, -55674.4403451014, -42900.26192668223, 0.048, 0.91, -0.368, 192.0, 0.0, 0.0, 0.0, 0.0, 0.0, 0.0, 0.0, 0.0, 0.0, 1.741279690815651E9, 0.0, 2025-03-06 10:48:10.815
48.0, -36902.52893001186, -43265.288265381845, -48751.41218321469, -47751.88687466227, -22580.201635384758, -25575.804779029462, -55680.96705448235, -42944.004290581266, 0.04, 0.912, -0.376, 192.0, 1.0, 64.0, 28.0, 128.0, 244.0, 64.0, 0.0, 0.0, 0.0, 1.741279690815673E9, 0.0, 2025-03-06 10:48:10.815
49.0, -36906.44048529154, -43269.44568985054, -48751.009851814495, -47753.45149677414, -22580.62631852941, -25572.004982472063, -55677.07785094713, -42911.19192972087, 0.04, 0.912, -0.376, 192.0, 0.0, 0.0, 0.0, 0.0, 0.0, 0.0, 0.0, 0.0, 0.0, 1.741279690815695E9, 0.0, 2025-03-06 10:48:10.815
50.0, -36901.6125084892, -43262.628407791664, -48745.66778488967, -47754.18910434117, -22626.24622896269, -25574.038991217494, -55667.24308338679, -42891.075359711096, 0.04, 0.912, -0.376, 192.0, 0.0, 0.0, 0.0, 0.0, 0.0, 0.0, 0.0, 0.0, 0.0, 1.741279690815734E9, 0.0, 2025-03-06 10:48:10.815
51.0, -36896.561014242296, -43256.07934666626, -48741.97974705455, -47746.54480773745, -22631.834165076514, -25569.81451151544, -55667.064269431154, -42910.6778395984, 0.04, 0.912, -0.376, 192.0, 0.0, 0.0, 0.0, 0.0, 0.0, 0.0, 0.0, 0.0, 0.0, 1.741279690815754E9, 0.0, 2025-03-06 10:48:10.815
52.0, -36898.48326426545, -43257.7110240115, -48748.79702911342, -47753.20562758513, -22586.728344765706, -25573.68136330621, -55672.00400495577, -42905.11225522903, 0.04, 0.912, -0.376, 192.0, 0.0, 0.0, 0.0, 0.0, 0.0, 0.0, 0.0, 0.0, 0.0, 1.741279690815774E9, 0.0, 2025-03-06 10:48:10.815
53.0, -36906.08285738026, -43266.65172179362, -48753.04386055993, -47763.196857356656, -22586.013088943135, -25581.97386049913, -55673.076888689626, -42915.59522337857, 0.04, 0.912, -0.376, 192.0, 0.0, 0.0, 0.0, 0.0, 0.0, 0.0, 0.0, 0.0, 0.0, 1.741279690815794E9, 0.0, 2025-03-06 10:48:10.815
54.0, -36904.317069568286, -43263.07544268077, -48749.5569884249, -47756.98307239808, -22626.983836529715, -25565.29945913547, -55669.96999621034, -42915.68463035639, 0.04, 0.912, -0.376, 192.0, 0.0, 0.0, 0.0, 0.0, 0.0, 0.0, 0.0, 0.0, 0.0, 1.741279690815814E9, 0.0, 2025-03-06 10:48:10.815
55.0, -36908.13921787014, -43266.31644562679, -48756.17310478367, -47759.44176428816, -22618.87015329244, -25567.15465392526, -55677.23431315832, -42903.033542994686, 0.04, 0.912, -0.376, 192.0, 0.0, 0.0, 0.0, 0.0, 0.0, 0.0, 0.0, 0.0, 0.0, 1.741279690815834E9, 0.0, 2025-03-06 10:48:10.815
56.0, -36911.246110349435, -43268.596323561236, -48763.258607776, -47767.667206247716, -22579.240510373176, -25573.927232495218, -55679.245970159296, -42880.234763650275, 0.04, 0.912, -0.376, 192.0, 0.0, 0.0, 0.0, 0.0, 0.0, 0.0, 0.0, 0.0, 0.0, 1.741279690815853E9, 0.0, 2025-03-06 10:48:10.815
57.0, -36914.956499929016, -43266.38350086016, -48764.33149150986, -47767.55544752544, -22555.74882695065, -25577.414104630247, -55683.78337428372, -42907.146263974464, 0.04, 0.912, -0.376, 192.0, 0.0, 0.0, 0.0, 0.0, 0.0, 0.0, 0.0, 0.0, 0.0, 1.741279690815873E9, 0.0, 2025-03-06 10:48:10.815
58.0, -36909.32386032627, -43257.86748622268, -48756.37427048377, -47756.625444486795, -22605.45910661925, -25571.043857460485, -55672.40633635597, -42913.516511144226, 0.044, 0.912, -0.38, 192.0, 1.0, 96.0, 28.0, 128.0, 244.0, 32.0, 0.0, 0.0, 0.0, 1.741279690815892E9, 0.0, 2025-03-06 10:48:10.815
59.0, -36911.1119998827, -43262.51664906939, -48760.866971119285, -47760.58170325538, -22623.51931613914, -25576.028296474018, -55665.20907464136, -42873.86451648051, 0.044, 0.912, -0.38, 192.0, 0.0, 0.0, 0.0, 0.0, 0.0, 0.0, 0.0, 0.0, 0.0, 1.741279690815926E9, 0.0, 2025-03-06 10:48:10.815
60.0, -36902.88655792315, -43253.37478558717, -48748.39469771322, -47751.28337756197, -22595.691394292284, -25568.67457254822, -55658.57060653813, -42870.511754812214, 0.044, 0.912, -0.38, 192.0, 0.0, 0.0, 0.0, 0.0, 0.0, 0.0, 0.0, 0.0, 0.0, 1.741279690815946E9, 0.0, 2025-03-06 10:48:10.815
61.0, -36916.766991229895, -43263.23190489196, -48759.72703215206, -47755.75372645304, -22551.434940270778, -25564.628906801812, -55671.91459797795, -42934.81772361013, 0.044, 0.912, -0.38, 192.0, 0.0, 0.0, 0.0, 0.0, 0.0, 0.0, 0.0, 0.0, 0.0, 1.741279690875543E9, 0.0, 2025-03-06 10:48:10.875
62.0, -36928.59106404675, -43272.463175352, -48767.52779096697, -47762.9733399121, -22570.545681780062, -25561.991400956085, -55684.14100219501, -42946.887665616, 0.044, 0.912, -0.38, 192.0, 0.0, 0.0, 0.0, 0.0, 0.0, 0.0, 0.0, 0.0, 0.0, 1.741279690875575E9, 0.0, 2025-03-06 10:48:10.875
63.0, -36922.86901746619, -43267.56814331629, -48764.93498861015, -47763.44272654566, -22593.76914426913, -25563.44426434568, -55673.412164856454, -42914.25411871125, 0.044, 0.912, -0.38, 192.0, 0.0, 0.0, 0.0, 0.0, 0.0, 0.0, 0.0, 0.0, 0.0, 1.741279690875602E9, 0.0, 2025-03-06 10:48:10.875
64.0, -36917.526950541374, -43263.45542233651, -48765.963168855094, -47766.54961902495, -22571.37269632491, -25569.903918493263, -55676.60846431357, -42906.54276687417, 0.044, 0.912, -0.38, 192.0, 0.0, 0.0, 0.0, 0.0, 0.0, 0.0, 0.0, 0.0, 0.0, 1.741279690875622E9, 0.0, 2025-03-06 10:48:10.875
65.0, -36918.711592997504, -43266.204686904515, -48772.266360791495, -47765.81201145792, -22540.70610293223, -25576.67649706322, -55686.10795570707, -42931.59907240857, 0.044, 0.912, -0.38, 192.0, 0.0, 0.0, 0.0, 0.0, 0.0, 0.0, 0.0, 0.0, 0.0, 1.741279690875667E9, 0.0, 2025-03-06 10:48:10.875
66.0, -36930.40155534763, -43277.26880040989, -48783.59869523033, -47779.53598255348, -22563.527234021098, -25589.886378036306, -55691.114746465064, -42932.11316253104, 0.044, 0.912, -0.38, 192.0, 0.0, 0.0, 0.0, 0.0, 0.0, 0.0, 0.0, 0.0, 0.0, 1.741279690875687E9, 0.0, 2025-03-06 10:48:10.875
67.0, -36921.2149883765, -43268.32810262777, -48778.636607961256, -47775.95970344063, -22600.966405983738, -25585.68425007871, -55693.707548821876, -42929.4309531964, 0.044, 0.912, -0.38, 192.0, 0.0, 0.0, 0.0, 0.0, 0.0, 0.0, 0.0, 0.0, 0.0, 1.741279690875707E9, 0.0, 2025-03-06 10:48:10.875
68.0, -36910.15087487112, -43258.38157634516, -48772.109898580304, -47764.76147946853, -22600.34055713899, -25583.784351800008, -55686.4432318739, -42927.575758406616, 0.04, 0.906, -0.376, 192.0, 1.0, 64.0, 28.0, 80.0, 244.0, 64.0, 0.0, 0.0, 0.0, 1.741279690875726E9, 0.0, 2025-03-06 10:48:10.875
69.0, -36912.52015978339, -43264.170678159084, -48772.86985789178, -47768.33775858137, -22570.791550969072, -25587.517093124046, -55684.319816150644, -42924.424162438416, 0.04, 0.906, -0.376, 192.0, 0.0, 0.0, 0.0, 0.0, 0.0, 0.0, 0.0, 0.0, 0.0, 1.741279690875748E9, 0.0, 2025-03-06 10:48:10.875
70.0, -36922.712555255006, -43270.965608473496, -48776.26732304899, -47774.46213656213, -22588.42707734431, -25599.229407218627, -55689.080737719625, -42925.65350838345, 0.04, 0.906, -0.376, 192.0, 0.0, 0.0, 0.0, 0.0, 0.0, 0.0, 0.0, 0.0, 0.0, 1.741279690875767E9, 0.0, 2025-03-06 10:48:10.875
71.0, -36917.75046798593, -43262.18137290256, -48772.266360791495, -47767.48839229207, -22628.302589452578, -25597.061288006462, -55680.92235099344, -42913.29299369967, 0.04, 0.906, -0.376, 192.0, 0.0, 0.0, 0.0, 0.0, 0.0, 0.0, 0.0, 0.0, 0.0, 1.741279690875787E9, 0.0, 2025-03-06 10:48:10.875
72.0, -36917.63870926365, -43258.80625948981, -48772.3110642804, -47768.784793470484, -22619.630112603918, -25596.793067073, -55681.14586843799, -42910.789598320676, 0.04, 0.906, -0.376, 192.0, 0.0, 0.0, 0.0, 0.0, 0.0, 0.0, 0.0, 0.0, 0.0, 1.741279690875807E9, 0.0, 2025-03-06 10:48:10.875
73.0, -36919.963290687, -43262.58370430276, -48769.22652354557, -47778.03841567498, -22575.373658582408, -25607.052517777982, -55685.77267954024, -42906.878043041, 0.04, 0.906, -0.376, 192.0, 0.0, 0.0, 0.0, 0.0, 0.0, 0.0, 0.0, 0.0, 0.0, 1.741279690875826E9, 0.0, 2025-03-06 10:48:10.875
74.0, -36928.32284311329, -43269.75861427291, -48775.23914280405, -47784.721587267115, -22598.798286771573, -25604.97380554364, -55692.25468543228, -42926.994613050774, 0.04, 0.906, -0.376, 192.0, 0.0, 0.0, 0.0, 0.0, 0.0, 0.0, 0.0, 0.0, 0.0, 1.741279690875854E9, 0.0, 2025-03-06 10:48:10.875
75.0, -36923.51721805539, -43260.77321300188, -48771.260532291, -47772.85281096135, -22641.49011868121, -25596.34603218389, -55686.04090047371, -42922.09958101506, 0.04, 0.906, -0.376, 192.0, 0.0, 0.0, 0.0, 0.0, 0.0, 0.0, 0.0, 0.0, 0.0, 1.74127969087588E9, 0.0, 2025-03-06 10:48:10.875
76.0, -36919.695069753536, -43254.78294548785, -48770.589979957345, -47765.78965971347, -22646.38515071692, -25593.283843193512, -55678.35190038108, -42915.48346465629, 0.04, 0.906, -0.376, 192.0, 0.0, 0.0, 0.0, 0.0, 0.0, 0.0, 0.0, 0.0, 0.0, 1.741279690935816E9, 0.0, 2025-03-06 10:48:10.935
77.0, -36946.0701282108, -43279.28045741087, -48801.72595998359, -47789.39310185827, -22582.66032727484, -25616.5967126604, -55702.715301837365, -42933.34250847608, 0.042, 0.908, -0.38, 192.0, 1.0, 80.0, 28.0, 96.0, 244.0, 32.0, 0.0, 0.0, 0.0, 1.741279690935848E9, 0.0, 2025-03-06 10:48:10.935
78.0, -36947.92532300059, -43280.241582422444, -48798.90964018222, -47789.01312220253, -22601.480496106207, -25610.07000327945, -55692.92523776594, -42925.809970594644, 0.042, 0.908, -0.38, 192.0, 0.0, 0.0, 0.0, 0.0, 0.0, 0.0, 0.0, 0.0, 0.0, 1.74127969093587E9, 0.0, 2025-03-06 10:48:10.935
79.0, -36943.56673283181, -43281.04624522284, -48797.30031458144, -47789.84013674738, -22656.24227002171, -25604.616177632353, -55693.752252310784, -42932.47079044233, 0.042, 0.908, -0.38, 192.0, 0.0, 0.0, 0.0, 0.0, 0.0, 0.0, 0.0, 0.0, 0.0, 1.74127969093589E9, 0.0, 2025-03-06 10:48:10.935
80.0, -36944.32669214329, -43288.55643135982, -48799.53548902697, -47803.02766597601, -22668.82630215005, -25610.047651534995, -55704.50344139379, -42929.67682238541, 0.042, 0.908, -0.38, 192.0, 0.0, 0.0, 0.0, 0.0, 0.0, 0.0, 0.0, 0.0, 0.0, 1.741279690935931E9, 0.0, 2025-03-06 10:48:10.935
81.0, -36950.60753233523, -43296.06661749681, -48809.21379437611, -47815.49993938207, -22609.281254921112, -25623.25753250808, -55716.39456944401, -42948.251122027774, 0.042, 0.908, -0.38, 192.0, 0.0, 0.0, 0.0, 0.0, 0.0, 0.0, 0.0, 0.0, 0.0, 1.74127969093595E9, 0.0, 2025-03-06 10:48:10.935
82.0, -36950.56282884632, -43292.915021528606, -48807.2691926085, -47809.75554105706, -22590.32697562301, -25618.004872561083, -55709.51023215178, -42932.91782533143, 0.042, 0.908, -0.38, 192.0, 0.0, 0.0, 0.0, 0.0, 0.0, 0.0, 0.0, 0.0, 0.0, 1.741279690935969E9, 0.0, 2025-03-06 10:48:10.935
83.0, -36950.7192910575, -43293.18324246207, -48802.955305928626, -47808.10151196737, -22625.933304540315, -25619.815363861962, -55705.82219431665, -42923.5300926602, 0.042, 0.908, -0.38, 192.0, 0.0, 0.0, 0.0, 0.0, 0.0, 0.0, 0.0, 0.0, 0.0, 1.741279690935988E9, 0.0, 2025-03-06 10:48:10.935
84.0, -36944.25963690992, -43288.578783104276, -48795.93685816966, -47804.81580553244, -22647.502737939685, -25608.773602101042, -55703.94464778241, -42936.82938061111, 0.042, 0.908, -0.38, 192.0, 0.0, 0.0, 0.0, 0.0, 0.0, 0.0, 0.0, 0.0, 0.0, 1.741279690936007E9, 0.0, 2025-03-06 10:48:10.936
85.0, -36941.219799664, -43288.24350693745, -48796.80857620342, -47796.79152927298, -22614.15393521237, -25608.080698022928, -55705.17399372745, -42949.41341273945, 0.042, 0.908, -0.38, 192.0, 0.0, 0.0, 0.0, 0.0, 0.0, 0.0, 0.0, 0.0, 0.0, 1.741279690936026E9, 0.0, 2025-03-06 10:48:10.936
86.0, -36948.93115150108, -43292.6691523396, -48801.055407649925, -47791.36005537034, -22574.345478337465, -25607.25368347808, -55710.650171119, -42979.431805542925, 0.042, 0.908, -0.38, 192.0, 0.0, 0.0, 0.0, 0.0, 0.0, 0.0, 0.0, 0.0, 0.0, 1.741279690936046E9, 0.0, 2025-03-06 10:48:10.936
87.0, -36960.84463129576, -43305.364943190216, -48807.4703583086, -47797.46208160664, -22591.489266334687, -25606.44902067769, -55718.16035725598, -42982.426939299934, 0.036000000000000004, 0.914, -0.378, 192.0, 1.0, 32.0, 28.0, 144.0, 244.0, 48.0, 0.0, 0.0, 0.0, 1.741279690936065E9, 0.0, 2025-03-06 10:48:10.936
88.0, -36960.531706873386, -43307.19778623555, -48812.320686855404, -47804.12290145432, -22602.32986239551, -25617.580189416432, -55722.94363056942, -42971.83221242812, 0.036000000000000004, 0.914, -0.378, 192.0, 0.0, 0.0, 0.0, 0.0, 0.0, 0.0, 0.0, 0.0, 0.0, 1.741279690936085E9, 0.0, 2025-03-06 10:48:10.936
89.0, -36954.49673587045, -43307.08602751327, -48813.70649501163, -47811.498977124575, -22577.072391161015, -25631.058291322985, -55719.72497936786, -42942.21615102484, 0.036000000000000004, 0.914, -0.378, 192.0, 0.0, 0.0, 0.0, 0.0, 0.0, 0.0, 0.0, 0.0, 0.0, 1.741279690936111E9, 0.0, 2025-03-06 10:48:10.936
90.0, -36957.53657311638, -43310.19291999256, -48815.2711171235, -47814.38235215931, -22534.78289065157, -25634.41105299128, -55720.350828212606, -42961.97509312333, 0.036000000000000004, 0.914, -0.378, 192.0, 0.0, 0.0, 0.0, 0.0, 0.0, 0.0, 0.0, 0.0, 0.0, 1.741279690936138E9, 0.0, 2025-03-06 10:48:10.936
91.0, -36959.056491739335, -43309.544719403355, -48806.06219840792, -47801.016008975035, -22551.054960615034, -25614.518000426055, -55712.371255442056, -42968.97118913784, 0.036000000000000004, 0.914, -0.378, 192.0, 0.0, 0.0, 0.0, 0.0, 0.0, 0.0, 0.0, 0.0, 0.0, 1.741279690996076E9, 0.0, 2025-03-06 10:48:10.996
92.0, -36956.84366903826, -43311.60107989325, -48809.92905019868, -47806.22396543312, -22572.311469592034, -25619.994177817607, -55714.4499676764, -42963.47266000183, 0.036000000000000004, 0.914, -0.378, 192.0, 0.0, 0.0, 0.0, 0.0, 0.0, 0.0, 0.0, 0.0, 0.0, 1.741279690996112E9, 0.0, 2025-03-06 10:48:10.996
93.0, -36961.291666184865, -43317.39018170717, -48821.44019859317, -47813.309468425454, -22545.623486712397, -25627.705529654686, -55724.41884570347, -42973.776814195735, 0.036000000000000004, 0.914, -0.378, 192.0, 0.0, 0.0, 0.0, 0.0, 0.0, 0.0, 0.0, 0.0, 0.0, 1.741279690996133E9, 0.0, 2025-03-06 10:48:10.996
94.0, -36965.80671856484, -43315.28911772837, -48829.88915799727, -47814.11413122584, -22498.014271022592, -25638.210849548683, -55724.21768000337, -42963.18208732392, 0.036000000000000004, 0.914, -0.378, 192.0, 0.0, 0.0, 0.0, 0.0, 0.0, 0.0, 0.0, 0.0, 0.0, 1.741279690996152E9, 0.0, 2025-03-06 10:48:10.996
95.0, -36967.21487846552, -43315.93731831757, -48824.25651839453, -47816.259898693555, -22543.768291922606, -25638.88140188234, -55725.223508503856, -42967.004235625776, 0.036000000000000004, 0.914, -0.378, 192.0, 0.0, 0.0, 0.0, 0.0, 0.0, 0.0, 0.0, 0.0, 0.0, 1.741279690996171E9, 0.0, 2025-03-06 10:48:10.996
96.0, -36959.324712672795, -43314.305640972336, -48815.94166945716, -47815.902270782266, -22598.66417630484, -25630.83477387843, -55718.96502005637, -42960.902209389475, 0.036000000000000004, 0.914, -0.378, 192.0, 0.0, 0.0, 0.0, 0.0, 0.0, 0.0, 0.0, 0.0, 0.0, 1.741279690996216E9, 0.0, 2025-03-06 10:48:10.996
97.0, -36968.22070696601, -43325.03447831088, -48828.21277716313, -47827.1899017322, -22584.783742998094, -25646.97273337516, -55726.51990968227, -42954.35314826407, 0.036000000000000004, 0.908, -0.382, 192.0, 1.0, 32.0, 28.0, 96.0, 244.0, 16.0, 0.0, 0.0, 0.0, 1.741279690996235E9, 0.0, 2025-03-06 10:48:10.996
98.0, -36965.60555286474, -43323.22398701, -48825.84349225086, -47830.654422122774, -22543.880050644882, -25651.174861332758, -55730.78909287323, -42952.944988363386, 0.036000000000000004, 0.908, -0.382, 192.0, 0.0, 0.0, 0.0, 0.0, 0.0, 0.0, 0.0, 0.0, 0.0, 1.741279690996256E9, 0.0, 2025-03-06 10:48:10.996
99.0, -36972.51224190143, -43330.95769059154, -48830.82793126439, -47833.76131460206, -22569.383391068386, -25647.531526986546, -55739.08159006615, -42971.36282579456, 0.036000000000000004, 0.908, -0.382, 192.0, 0.0, 0.0, 0.0, 0.0, 0.0, 0.0, 0.0, 0.0, 0.0, 1.741279690996275E9, 0.0, 2025-03-06 10:48:10.996
100.0, -36976.84848032576, -43336.81384763883, -48833.66660281022, -47838.85751233787, -22614.310397423556, -25650.928992143752, -55734.83475861964, -42970.15583159398, 0.036000000000000004, 0.908, -0.382, 192.0, 0.0, 0.0, 0.0, 0.0, 0.0, 0.0, 0.0, 0.0, 0.0, 1.741279690996294E9, 0.0, 2025-03-06 10:48:10.996
101.0, -36973.316904701824, -43332.745830147964, -48833.10780919884, -47839.863340838354, -22630.13543249791, -25658.28271606955, -55737.62872667656, -42969.373520538036, 0.036000000000000004, 0.908, -0.382, 192.0, 0.0, 0.0, 0.0, 0.0, 0.0, 0.0, 0.0, 0.0, 0.0, 1.741279690996313E9, 0.0, 2025-03-06 10:48:10.996
102.0, -36983.7775211069, -43341.686527930084, -48846.67531808321, -47848.401707220284, -22594.61851055843, -25664.809425450498, -55745.51889246928, -42984.28213408973, 0.036000000000000004, 0.908, -0.382, 192.0, 0.0, 0.0, 0.0, 0.0, 0.0, 0.0, 0.0, 0.0, 0.0, 1.741279690996333E9, 0.0, 2025-03-06 10:48:10.996
103.0, -37004.1846637946, -43361.7360427065, -48859.013481022535, -47859.1975997922, -22588.270615133122, -25670.911451686796, -55755.84539840763, -42996.12855865104, 0.036000000000000004, 0.908, -0.382, 192.0, 0.0, 0.0, 0.0, 0.0, 0.0, 0.0, 0.0, 0.0, 0.0, 1.741279690996352E9, 0.0, 2025-03-06 10:48:10.996
104.0, -36998.99905908097, -43364.64176948569, -48855.303091442955, -47859.6446346813, -22638.42792969083, -25669.57034701948, -55763.15441884452, -43016.356887383095, 0.036000000000000004, 0.908, -0.382, 192.0, 0.0, 0.0, 0.0, 0.0, 0.0, 0.0, 0.0, 0.0, 0.0, 1.741279690996377E9, 0.0, 2025-03-06 10:48:10.996
105.0, -36999.7813701369, -43363.099499118274, -48855.90658854325, -47856.448335224195, -22649.559098429574, -25666.59756500692, -55766.90951191301, -43005.158663410984, 0.036000000000000004, 0.908, -0.382, 192.0, 0.0, 0.0, 0.0, 0.0, 0.0, 0.0, 0.0, 0.0, 0.0, 1.741279690996403E9, 0.0, 2025-03-06 10:48:10.996
106.0, -37011.560739464854, -43373.69422599009, -48865.42843168121, -47864.22674229464, -22609.61653108794, -25682.22143438118, -55775.02319515029, -43012.490035592324, 0.036000000000000004, 0.908, -0.382, 192.0, 0.0, 0.0, 0.0, 0.0, 0.0, 0.0, 0.0, 0.0, 0.0, 1.741279691056375E9, 0.0, 2025-03-06 10:48:11.056
107.0, -37025.77644893843, -43388.37932209722, -48875.55377191946, -47877.19075407872, -22577.295908605567, -25689.4633995847, -55786.19906737794, -43030.17026545647, 0.04, 0.912, -0.382, 192.0, 1.0, 64.0, 28.0, 128.0, 244.0, 16.0, 0.0, 0.0, 0.0, 1.74127969105641E9, 0.0, 2025-03-06 10:48:11.056
108.0, -37023.63068147071, -43387.01586568545, -48874.16796376323, -47878.397748279305, -22621.57471437153, -25691.855036241417, -55785.14853538854, -43034.730021325355, 0.04, 0.912, -0.382, 192.0, 0.0, 0.0, 0.0, 0.0, 0.0, 0.0, 0.0, 0.0, 0.0, 1.741279691056432E9, 0.0, 2025-03-06 10:48:11.056
109.0, -37003.46940797203, -43370.1850021106, -48856.82301006592, -47863.71265217217, -22655.325848499044, -25670.330306330958, -55765.94838690143, -43010.03134370224, 0.04, 0.912, -0.382, 192.0, 0.0, 0.0, 0.0, 0.0, 0.0, 0.0, 0.0, 0.0, 0.0, 1.741279691056451E9, 0.0, 2025-03-06 10:48:11.056
110.0, -37009.124399319226, -43371.36964456674, -48864.35554794736, -47871.200486564696, -22614.265693934645, -25683.115504159392, -55773.01153814931, -43008.936108223934, 0.04, 0.912, -0.382, 192.0, 0.0, 0.0, 0.0, 0.0, 0.0, 0.0, 0.0, 0.0, 0.0, 1.741279691056471E9, 0.0, 2025-03-06 10:48:11.056
111.0, -37022.2895768034, -43379.50567954846, -48874.190315507694, -47875.13439358883, -22578.257033617145, -25685.32832686047, -55782.958064431914, -43031.9584050129, 0.04, 0.912, -0.382, 192.0, 0.0, 0.0, 0.0, 0.0, 0.0, 0.0, 0.0, 0.0, 0.0, 1.741279691056515E9, 0.0, 2025-03-06 10:48:11.056
112.0, -37026.312890805355, -43379.99741792648, -48874.07855678542, -47872.72040518766, -22619.89833353738, -25686.870597227884, -55779.962930674905, -43015.641631560524, 0.04, 0.912, -0.382, 192.0, 0.0, 0.0, 0.0, 0.0, 0.0, 0.0, 0.0, 0.0, 0.0, 1.741279691056536E9, 0.0, 2025-03-06 10:48:11.056
113.0, -37034.91831242065, -43381.96437143855, -48883.75686213456, -47880.61057098038, -22667.708714927285, -25696.101867687925, -55777.12425912908, -43002.722323265356, 0.04, 0.912, -0.382, 192.0, 0.0, 0.0, 0.0, 0.0, 0.0, 0.0, 0.0, 0.0, 0.0, 1.741279691056555E9, 0.0, 2025-03-06 10:48:11.056
114.0, -37027.67634721713, -43383.10431040577, -48886.46142321365, -47883.40453903729, -22638.249115735187, -25699.633443311865, -55781.25933185331, -43015.28400364924, 0.04, 0.912, -0.382, 192.0, 0.0, 0.0, 0.0, 0.0, 0.0, 0.0, 0.0, 0.0, 0.0, 1.741279691056575E9, 0.0, 2025-03-06 10:48:11.056
115.0, -37033.644262986694, -43396.20243265658, -48895.4915279736, -47894.96039092069, -22595.333766380998, -25710.809315539518, -55800.07950068468, -43046.57644588667, 0.04, 0.912, -0.382, 192.0, 0.0, 0.0, 0.0, 0.0, 0.0, 0.0, 0.0, 0.0, 0.0, 1.741279691056594E9, 0.0, 2025-03-06 10:48:11.056
116.0, -37051.30214110639, -43412.094522964304, -48907.78498742402, -47910.94188820623, -22613.2375136897, -25719.414737154813, -55810.24954441185, -43062.93792282795, 0.04, 0.912, -0.382, 192.0, 0.0, 0.0, 0.0, 0.0, 0.0, 0.0, 0.0, 0.0, 0.0, 1.741279691056614E9, 0.0, 2025-03-06 10:48:11.056
117.0, -37046.295350348395, -43405.56781358335, -48903.404045510775, -47905.800986981514, -22658.164520044866, -25716.6207690979, -55801.86764024111, -43042.93311154046, 0.044, 0.904, -0.384, 192.0, 1.0, 96.0, 28.0, 64.0, 244.0, 0.0, 0.0, 0.0, 0.0, 1.741279691056633E9, 0.0, 2025-03-06 10:48:11.056
118.0, -37041.132097379224, -43401.20922341457, -48900.118339075845, -47899.25192585611, -22654.14120604291, -25712.75391730713, -55806.69561704346, -43046.64350112004, 0.044, 0.904, -0.384, 192.0, 0.0, 0.0, 0.0, 0.0, 0.0, 0.0, 0.0, 0.0, 0.0, 1.741279691056654E9, 0.0, 2025-03-06 10:48:11.056
119.0, -37048.329359093834, -43410.842825274805, -48901.77236816554, -47891.80879495249, -22609.281254921112, -25707.344795148947, -55813.69171305797, -43085.28966728326, 0.044, 0.904, -0.384, 192.0, 0.0, 0.0, 0.0, 0.0, 0.0, 0.0, 0.0, 0.0, 0.0, 1.741279691056681E9, 0.0, 2025-03-06 10:48:11.056
120.0, -37056.443042331106, -43414.95554625458, -48905.5945164674, -47898.33550433344, -22635.388092444908, -25713.782097552074, -55815.59161133666, -43073.465594466405, 0.044, 0.904, -0.384, 192.0, 0.0, 0.0, 0.0, 0.0, 0.0, 0.0, 0.0, 0.0, 0.0, 1.741279691056707E9, 0.0, 2025-03-06 10:48:11.056
121.0, -37057.828850487334, -43414.061476476374, -48908.20967056867, -47903.74462649162, -22676.87293015396, -25725.203838968737, -55819.43611138298, -43069.889315353554, 0.044, 0.904, -0.384, 192.0, 0.0, 0.0, 0.0, 0.0, 0.0, 0.0, 0.0, 0.0, 0.0, 1.741279691116685E9, 0.0, 2025-03-06 10:48:11.116
122.0, -37066.27780989144, -43418.71063932308, -48919.564356751966, -47911.47833007316, -22670.592089962018, -25733.742205350663, -55833.38359992309, -43088.6200772071, 0.044, 0.904, -0.384, 192.0, 0.0, 0.0, 0.0, 0.0, 0.0, 0.0, 0.0, 0.0, 0.0, 1.74127969111672E9, 0.0, 2025-03-06 10:48:11.116
123.0, -37068.93766748162, -43421.057572490885, -48919.2961358185, -47910.49485331713, -22633.979932544225, -25732.579914638987, -55830.81314931073, -43086.5190132283, 0.044, 0.904, -0.384, 192.0, 0.0, 0.0, 0.0, 0.0, 0.0, 0.0, 0.0, 0.0, 0.0, 1.74127969111674E9, 0.0, 2025-03-06 10:48:11.116
124.0, -37090.060065991885, -43441.86704657877, -48934.60708077039, -47927.07984770297, -22632.48236566572, -25752.80824337104, -55838.122169747614, -43083.99326610485, 0.044, 0.904, -0.384, 192.0, 0.0, 0.0, 0.0, 0.0, 0.0, 0.0, 0.0, 0.0, 0.0, 1.74127969111676E9, 0.0, 2025-03-06 10:48:11.116
125.0, -37094.97744977206, -43447.83496234834, -48943.614833785876, -47930.52201634908, -22670.167406817367, -25753.00940907114, -55840.17853023751, -43075.633713678566, 0.044, 0.904, -0.384, 192.0, 0.0, 0.0, 0.0, 0.0, 0.0, 0.0, 0.0, 0.0, 0.0, 1.74127969111678E9, 0.0, 2025-03-06 10:48:11.116
126.0, -37093.74810382701, -43451.70181413911, -48948.17458965476, -47937.42870538577, -22671.26264229568, -25755.401045727856, -55840.96084129344, -43056.74648961383, 0.044, 0.904, -0.384, 192.0, 0.0, 0.0, 0.0, 0.0, 0.0, 0.0, 0.0, 0.0, 0.0, 1.741279691116824E9, 0.0, 2025-03-06 10:48:11.116
127.0, -37097.57025212887, -43459.860200865296, -48955.9529967252, -47949.699813091735, -22635.388092444908, -25775.227043059713, -55857.05409730126, -43094.990324376864, 0.042, 0.902, -0.384, 192.0, 1.0, 80.0, 28.0, 48.0, 244.0, 0.0, 0.0, 0.0, 0.0, 1.741279691116843E9, 0.0, 2025-03-06 10:48:11.116
128.0, -37096.05033350591, -43459.83784912084, -48951.504999578596, -47937.87574027488, -22649.91672634086, -25760.921926608316, -55852.27082398783, -43120.225443866904, 0.042, 0.902, -0.384, 192.0, 0.0, 0.0, 0.0, 0.0, 0.0, 0.0, 0.0, 0.0, 0.0, 1.741279691116864E9, 0.0, 2025-03-06 10:48:11.116
129.0, -37102.800560331416, -43468.93500911415, -48957.29410139252, -47948.2693014466, -22686.975918647757, -25759.80433938555, -55854.12601877761, -43112.67055424101, 0.042, 0.902, -0.384, 192.0, 0.0, 0.0, 0.0, 0.0, 0.0, 0.0, 0.0, 0.0, 0.0, 1.741279691116883E9, 0.0, 2025-03-06 10:48:11.116
130.0, -37104.879272565755, -43472.48893648254, -48957.6070258149, -47949.565702625005, -22707.07013691308, -25755.71397015023, -55859.08810604669, -43103.931022158984, 0.042, 0.902, -0.384, 192.0, 0.0, 0.0, 0.0, 0.0, 0.0, 0.0, 0.0, 0.0, 0.0, 1.741279691116902E9, 0.0, 2025-03-06 10:48:11.116
131.0, -37111.3612784578, -43480.37910227527, -48965.51954335208, -47957.92525505129, -22661.226709035243, -25770.130845323903, -55864.54193169379, -43095.75028368834, 0.042, 0.902, -0.384, 192.0, 0.0, 0.0, 0.0, 0.0, 0.0, 0.0, 0.0, 0.0, 0.0, 1.741279691116922E9, 0.0, 2025-03-06 10:48:11.116
132.0, -37133.422450235186, -43495.22066059359, -48981.72455808218, -47975.091394792966, -22635.29868546709, -25792.974328157226, -55878.71293767845, -43124.13699914658, 0.042, 0.902, -0.384, 192.0, 0.0, 0.0, 0.0, 0.0, 0.0, 0.0, 0.0, 0.0, 0.0, 1.741279691116941E9, 0.0, 2025-03-06 10:48:11.116
133.0, -37141.02204334999, -43497.388779805755, -48989.59237213044, -47977.28186574959, -22674.81656966407, -25797.355270070468, -55888.34653953869, -43131.40131609456, 0.042, 0.902, -0.384, 192.0, 0.0, 0.0, 0.0, 0.0, 0.0, 0.0, 0.0, 0.0, 0.0, 1.741279691116961E9, 0.0, 2025-03-06 10:48:11.116
134.0, -37148.0181393645, -43506.86591945481, -48999.65065713533, -47984.88145886439, -22695.044898396125, -25810.811020232562, -55897.0413681318, -43133.30121437326, 0.042, 0.902, -0.384, 192.0, 0.0, 0.0, 0.0, 0.0, 0.0, 0.0, 0.0, 0.0, 0.0, 1.741279691116987E9, 0.0, 2025-03-06 10:48:11.116
135.0, -37134.89766536924, -43497.92522167268, -48987.17838372927, -47982.66863616331, -22682.460866267786, -25803.837275962505, -55888.748870938885, -43129.948452704964, 0.042, 0.902, -0.384, 192.0, 0.0, 0.0, 0.0, 0.0, 0.0, 0.0, 0.0, 0.0, 0.0, 1.741279691117013E9, 0.0, 2025-03-06 10:48:11.117
136.0, -37143.77130791799, -43506.24007061006, -48993.101596009925, -47984.233258275184, -22655.1470345434, -25802.92085443984, -55898.22601058793, -43145.66172905704, 0.042, 0.902, -0.384, 192.0, 0.0, 0.0, 0.0, 0.0, 0.0, 0.0, 0.0, 0.0, 0.0, 1.741279691175933E9, 0.0, 2025-03-06 10:48:11.175
137.0, -37150.85681091032, -43509.39166657825, -49000.991761802645, -47987.76483389912, -22695.1566571184, -25808.35232834248, -55902.696359479, -43153.17191519403, 0.04, 0.908, -0.386, 192.0, 1.0, 64.0, 28.0, 96.0, 243.0, 240.0, 0.0, 0.0, 0.0, 1.741279691175991E9, 0.0, 2025-03-06 10:48:11.175
138.0, -37154.92482840119, -43511.49273055705, -49004.1657095153, -47993.486880479686, -22734.383968637463, -25809.693433009797, -55899.947094911, -43127.06507767023, 0.04, 0.908, -0.386, 192.0, 0.0, 0.0, 0.0, 0.0, 0.0, 0.0, 0.0, 0.0, 0.0, 1.741279691176014E9, 0.0, 2025-03-06 10:48:11.176
139.0, -37159.484584270074, -43519.338192860865, -49010.89358459635, -48002.427578261806, -22715.317930617086, -25818.432965091823, -55906.54085952531, -43129.747287004866, 0.04, 0.908, -0.386, 192.0, 0.0, 0.0, 0.0, 0.0, 0.0, 0.0, 0.0, 0.0, 0.0, 1.741279691176034E9, 0.0, 2025-03-06 10:48:11.176
140.0, -37158.59051449186, -43523.540320818465, -49011.899413096835, -48004.34982828496, -22670.88266263994, -25821.651616293388, -55916.37562708565, -43166.40414791157, 0.04, 0.908, -0.386, 192.0, 0.0, 0.0, 0.0, 0.0, 0.0, 0.0, 0.0, 0.0, 0.0, 1.741279691176053E9, 0.0, 2025-03-06 10:48:11.176
141.0, -37158.41170053622, -43524.07676268539, -49012.83818636396, -48002.58404047299, -22715.943779461835, -25815.68370052382, -55916.576792785745, -43174.9425142935, 0.04, 0.908, -0.386, 192.0, 0.0, 0.0, 0.0, 0.0, 0.0, 0.0, 0.0, 0.0, 0.0, 1.74127969117608E9, 0.0, 2025-03-06 10:48:11.176
142.0, -37160.55746800393, -43530.37995462179, -49016.05683756553, -48008.50725275365, -22767.576309153596, -25822.277465138133, -55920.98008644344, -43156.1894006955, 0.04, 0.908, -0.386, 192.0, 0.0, 0.0, 0.0, 0.0, 0.0, 0.0, 0.0, 0.0, 0.0, 1.741279691176099E9, 0.0, 2025-03-06 10:48:11.176
143.0, -37170.01225590852, -43545.53443736249, -49028.52911097158, -48027.796808218576, -22757.696838104348, -25838.705997312787, -55936.26867965087, -43189.515851678356, 0.04, 0.908, -0.386, 192.0, 0.0, 0.0, 0.0, 0.0, 0.0, 0.0, 0.0, 0.0, 0.0, 1.741279691176118E9, 0.0, 2025-03-06 10:48:11.176
144.0, -37180.69638975816, -43550.29535893147, -49032.530073229085, -48023.21470060524, -22711.74165150424, -25842.68460782583, -55947.22103443397, -43204.87150011915, 0.04, 0.908, -0.386, 192.0, 0.0, 0.0, 0.0, 0.0, 0.0, 0.0, 0.0, 0.0, 0.0, 1.741279691176138E9, 0.0, 2025-03-06 10:48:11.176
145.0, -37189.30181137345, -43553.26814094403, -49040.219073321714, -48026.85803495146, -22739.860146029016, -25851.82647130805, -55946.88575826714, -43193.002723813384, 0.04, 0.908, -0.386, 192.0, 0.0, 0.0, 0.0, 0.0, 0.0, 0.0, 0.0, 0.0, 0.0, 1.741279691176157E9, 0.0, 2025-03-06 10:48:11.176
146.0, -37188.921831717715, -43549.46834438662, -49046.74578270266, -48034.68114551081, -22806.580103228105, -25858.375532433456, -55944.672935566065, -43194.38853196961, 0.04, 0.908, -0.386, 192.0, 0.0, 0.0, 0.0, 0.0, 0.0, 0.0, 0.0, 0.0, 0.0, 1.741279691176176E9, 0.0, 2025-03-06 10:48:11.176
147.0, -37191.76050326353, -43548.61897809732, -49051.46200078273, -48034.27881411062, -22825.266161592743, -25853.704017842298, -55952.54074961433, -43202.81513962927, 0.038, 0.908, -0.382, 192.0, 1.0, 48.0, 28.0, 96.0, 244.0, 16.0, 0.0, 0.0, 0.0, 1.741279691176196E9, 0.0, 2025-03-06 10:48:11.176
148.0, -37195.761465521035, -43551.83762929888, -49051.618462993916, -48032.02128792063, -22778.238091258776, -25852.899355041907, -55952.38428740315, -43190.96871506795, 0.038, 0.908, -0.382, 192.0, 0.0, 0.0, 0.0, 0.0, 0.0, 0.0, 0.0, 0.0, 0.0, 1.741279691176217E9, 0.0, 2025-03-06 10:48:11.176
149.0, -37208.4349046272, -43561.784155581496, -49058.86042819744, -48039.35266010197, -22795.47128623382, -25857.704980099796, -55958.01692700588, -43197.94245933801, 0.038, 0.908, -0.382, 192.0, 0.0, 0.0, 0.0, 0.0, 0.0, 0.0, 0.0, 0.0, 0.0, 1.741279691176236E9, 0.0, 2025-03-06 10:48:11.176
150.0, -37219.09668673237, -43579.330274978915, -49073.70198651576, -48059.737451045214, -22829.870620950536, -25881.576643178065, -55972.16558124609, -43204.98325884143, 0.038, 0.908, -0.382, 192.0, 0.0, 0.0, 0.0, 0.0, 0.0, 0.0, 0.0, 0.0, 0.0, 1.741279691176268E9, 0.0, 2025-03-06 10:48:11.176
151.0, -37218.60494835436, -43584.649990159276, -49076.87593422842, -48064.23015168073, -22836.12910939802, -25883.677707156865, -55979.340491216244, -43209.990049599415, 0.038, 0.908, -0.382, 192.0, 0.0, 0.0, 0.0, 0.0, 0.0, 0.0, 0.0, 0.0, 0.0, 1.74127969123585E9, 0.0, 2025-03-06 10:48:11.235
152.0, -37226.40570716926, -43592.897783863285, -49084.81080351005, -48075.070747741556, -22780.897948848957, -25895.07709682907, -55988.68352039856, -43236.208645845494, 0.038, 0.908, -0.382, 192.0, 0.0, 0.0, 0.0, 0.0, 0.0, 0.0, 0.0, 0.0, 0.0, 1.741279691235905E9, 0.0, 2025-03-06 10:48:11.235
153.0, -37228.86439905935, -43593.74715015259, -49082.6873877868, -48070.935675017325, -22780.070934304113, -25886.717544402785, -55995.567857690796, -43256.14640189963, 0.038, 0.908, -0.382, 192.0, 0.0, 0.0, 0.0, 0.0, 0.0, 0.0, 0.0, 0.0, 0.0, 1.741279691235926E9, 0.0, 2025-03-06 10:48:11.235
154.0, -37239.16855325324, -43599.737417666605, -49093.505632103166, -48077.73060533174, -22831.725815740327, -25892.35018400552, -55998.5182879589, -43238.04148889083, 0.038, 0.908, -0.382, 192.0, 0.0, 0.0, 0.0, 0.0, 0.0, 0.0, 0.0, 0.0, 0.0, 1.741279691235945E9, 0.0, 2025-03-06 10:48:11.235
155.0, -37248.86921034684, -43605.66062994726, -49108.14602472139, -48090.024064782156, -22848.28845838171, -25898.385155008455, -55997.803032136326, -43246.24457910593, 0.038, 0.908, -0.382, 192.0, 0.0, 0.0, 0.0, 0.0, 0.0, 0.0, 0.0, 0.0, 0.0, 1.741279691235964E9, 0.0, 2025-03-06 10:48:11.235
156.0, -37251.73023363713, -43610.28744104951, -49109.934164277816, -48091.700445616305, -22809.664643962937, -25907.6164254685, -56008.4201107526, -43265.06474793729, 0.038, 0.908, -0.382, 192.0, 0.0, 0.0, 0.0, 0.0, 0.0, 0.0, 0.0, 0.0, 0.0, 1.74127969123599E9, 0.0, 2025-03-06 10:48:11.235
157.0, -37258.03342557352, -43617.998792886596, -49111.252917200676, -48097.89187883042, -22774.862977846024, -25911.93031214837, -56016.17616607859, -43255.63231177715, 0.04, 0.9, -0.382, 192.0, 1.0, 64.0, 28.0, 32.0, 244.0, 16.0, 0.0, 0.0, 0.0, 1.74127969123601E9, 0.0, 2025-03-06 10:48:11.236
158.0, -37256.871134861845, -43615.83067367443, -49106.424940398334, -48089.97936129324, -22825.646141248482, -25911.952663892826, -56011.48229974298, -43256.973416444474, 0.04, 0.9, -0.382, 192.0, 0.0, 0.0, 0.0, 0.0, 0.0, 0.0, 0.0, 0.0, 0.0, 1.741279691236031E9, 0.0, 2025-03-06 10:48:11.236
159.0, -37259.70980640767, -43618.624641731345, -49110.2917921891, -48091.16400374937, -22849.71897002685, -25915.260722072213, -56012.26461079891, -43255.922884455074, 0.04, 0.9, -0.382, 192.0, 0.0, 0.0, 0.0, 0.0, 0.0, 0.0, 0.0, 0.0, 0.0, 1.74127969123605E9, 0.0, 2025-03-06 10:48:11.236
160.0, -37267.17528905574, -43630.47106629265, -49121.020629527644, -48105.02208531166, -22823.768594714238, -25932.113937391514, -56022.50170975945, -43248.92678844056, 0.04, 0.9, -0.382, 192.0, 0.0, 0.0, 0.0, 0.0, 0.0, 0.0, 0.0, 0.0, 0.0, 1.741279691236069E9, 0.0, 2025-03-06 10:48:11.236
161.0, -37277.837071160924, -43640.19407513071, -49129.38018195393, -48112.040533070634, -22792.476152476807, -25940.562896795618, -56031.73298021949, -43279.03458822186, 0.04, 0.9, -0.382, 192.0, 0.0, 0.0, 0.0, 0.0, 0.0, 0.0, 0.0, 0.0, 0.0, 1.741279691236089E9, 0.0, 2025-03-06 10:48:11.236
162.0, -37280.02754211755, -43641.64693852031, -49131.90592907738, -48115.84032962803, -22831.79287097369, -25942.865126474517, -56029.14017786267, -43257.0628234223, 0.04, 0.9, -0.382, 192.0, 0.0, 0.0, 0.0, 0.0, 0.0, 0.0, 0.0, 0.0, 0.0, 1.741279691236108E9, 0.0, 2025-03-06 10:48:11.236
163.0, -37278.66408570577, -43642.317490853966, -49138.05265880259, -48122.36703900898, -22869.05322898069, -25949.548298066653, -56032.2247185975, -43243.85294244921, 0.04, 0.9, -0.382, 192.0, 0.0, 0.0, 0.0, 0.0, 0.0, 0.0, 0.0, 0.0, 0.0, 1.741279691236127E9, 0.0, 2025-03-06 10:48:11.236
164.0, -37272.49500423611, -43639.59057803042, -49136.48803669072, -48121.38356225295, -22853.85404275108, -25950.174146911402, -56046.261614115436, -43307.935393802574, 0.04, 0.9, -0.382, 192.0, 0.0, 0.0, 0.0, 0.0, 0.0, 0.0, 0.0, 0.0, 0.0, 1.741279691236146E9, 0.0, 2025-03-06 10:48:11.236
165.0, -37278.529975239035, -43639.76939198606, -49129.4472371873, -48112.040533070634, -22824.975588914825, -25939.445309572853, -56047.69212576057, -43320.586481164275, 0.04, 0.9, -0.382, 192.0, 0.0, 0.0, 0.0, 0.0, 0.0, 0.0, 0.0, 0.0, 0.0, 1.741279691236171E9, 0.0, 2025-03-06 10:48:11.236
166.0, -37293.68445797974, -43654.4544880932, -49136.51038843518, -48120.60125119701, -22850.456577593875, -25945.100300920047, -56053.19065489658, -43307.75657984693, 0.04, 0.9, -0.382, 192.0, 0.0, 0.0, 0.0, 0.0, 0.0, 0.0, 0.0, 0.0, 0.0, 1.74127969129604E9, 0.0, 2025-03-06 10:48:11.296
167.0, -37300.16646387178, -43658.85778175089, -49143.908815849885, -48131.821826913576, -22867.555662102182, -25960.701818549853, -56077.844629030784, -43324.40862946613, 0.034, 0.91, -0.382, 192.0, 1.0, 16.0, 28.0, 112.0, 244.0, 16.0, 0.0, 0.0, 0.0, 1.741279691296097E9, 0.0, 2025-03-06 10:48:11.296
168.0, -37301.19464411672, -43660.69062479623, -49152.80481014309, -48141.94716715183, -22864.67228706745, -25966.155644196948, -56088.14878322468, -43336.21035053854, 0.034, 0.91, -0.382, 192.0, 0.0, 0.0, 0.0, 0.0, 0.0, 0.0, 0.0, 0.0, 0.0, 1.74127969129612E9, 0.0, 2025-03-06 10:48:11.296
169.0, -37311.38703958834, -43669.363101644885, -49166.43937426083, -48152.519542279195, -22819.432356289908, -25974.470493134322, -56096.35187343978, -43331.89646385866, 0.034, 0.91, -0.382, 192.0, 0.0, 0.0, 0.0, 0.0, 0.0, 0.0, 0.0, 0.0, 0.0, 1.74127969129614E9, 0.0, 2025-03-06 10:48:11.296
170.0, -37318.450190836214, -43676.89563952633, -49171.17794408536, -48157.749850481734, -22851.350647372084, -25981.645403104474, -56099.05643451887, -43326.50969344493, 0.034, 0.91, -0.382, 192.0, 0.0, 0.0, 0.0, 0.0, 0.0, 0.0, 0.0, 0.0, 0.0, 1.74127969129616E9, 0.0, 2025-03-06 10:48:11.296
171.0, -37316.997327446625, -43682.12594772887, -49171.73673769674, -48161.92962669487, -22903.29610148622, -25984.260557205744, -56100.978684542024, -43326.55439693385, 0.034, 0.91, -0.382, 192.0, 0.0, 0.0, 0.0, 0.0, 0.0, 0.0, 0.0, 0.0, 0.0, 1.741279691296187E9, 0.0, 2025-03-06 10:48:11.296
172.0, -37316.997327446625, -43684.62934310787, -49172.34023479703, -48159.47093480479, -22904.033709053245, -25982.85239730506, -56098.09530950729, -43344.41344075363, 0.034, 0.91, -0.382, 192.0, 0.0, 0.0, 0.0, 0.0, 0.0, 0.0, 0.0, 0.0, 0.0, 1.741279691296206E9, 0.0, 2025-03-06 10:48:11.296
173.0, -37330.25191190862, -43695.872270568885, -49189.70754023881, -48172.88198147798, -22853.071731695145, -25997.649252134473, -56106.164289255656, -43344.25697854245, 0.034, 0.91, -0.382, 192.0, 0.0, 0.0, 0.0, 0.0, 0.0, 0.0, 0.0, 0.0, 0.0, 1.741279691296226E9, 0.0, 2025-03-06 10:48:11.296
174.0, -37349.18383946226, -43711.116160287405, -49206.85132823603, -48190.45045261985, -22869.075580725144, -26009.1380487845, -56102.40919618717, -43343.2287982975, 0.034, 0.91, -0.382, 192.0, 0.0, 0.0, 0.0, 0.0, 0.0, 0.0, 0.0, 0.0, 0.0, 1.741279691296246E9, 0.0, 2025-03-06 10:48:11.296
175.0, -37357.878668055375, -43725.60009069444, -49212.39456086094, -48202.58744985908, -22903.698432886416, -26012.915493597447, -56111.126376524735, -43357.66802521563, 0.034, 0.91, -0.382, 192.0, 0.0, 0.0, 0.0, 0.0, 0.0, 0.0, 0.0, 0.0, 0.0, 1.741279691296265E9, 0.0, 2025-03-06 10:48:11.296
176.0, -37355.26351395411, -43730.13749481887, -49212.6627817944, -48207.616592361526, -22903.58667416414, -26015.66475816545, -56119.15065278419, -43361.44547002858, 0.034, 0.91, -0.382, 192.0, 0.0, 0.0, 0.0, 0.0, 0.0, 0.0, 0.0, 0.0, 0.0, 1.741279691296285E9, 0.0, 2025-03-06 10:48:11.296
177.0, -37359.085662255966, -43728.48346572918, -49216.328467885076, -48200.64284809147, -22865.991039990313, -26018.48107796682, -56118.50245219499, -43364.26178982995, 0.038, 0.906, -0.382, 192.0, 1.0, 48.0, 28.0, 80.0, 244.0, 16.0, 0.0, 0.0, 0.0, 1.741279691296305E9, 0.0, 2025-03-06 10:48:11.296
178.0, -37369.65803738333, -43731.27743378609, -49222.92223249939, -48199.39115040197, -22868.606194091582, -26026.706519926374, -56119.91061209567, -43356.19281008158, 0.038, 0.906, -0.382, 192.0, 0.0, 0.0, 0.0, 0.0, 0.0, 0.0, 0.0, 0.0, 0.0, 1.741279691296327E9, 0.0, 2025-03-06 10:48:11.296
179.0, -37371.78145310658, -43734.585491965474, -49222.58695633256, -48201.447510891856, -22922.764470906794, -26026.05831933717, -56120.53646094042, -43349.57669372281, 0.038, 0.906, -0.382, 192.0, 0.0, 0.0, 0.0, 0.0, 0.0, 0.0, 0.0, 0.0, 0.0, 1.741279691296346E9, 0.0, 2025-03-06 10:48:11.296
180.0, -37378.934011332276, -43741.939215891274, -49232.64524133745, -48211.01405751873, -22946.88200317407, -26038.083557854126, -56127.845481377306, -43357.39980428217, 0.038, 0.906, -0.382, 192.0, 0.0, 0.0, 0.0, 0.0, 0.0, 0.0, 0.0, 0.0, 0.0, 1.741279691296372E9, 0.0, 2025-03-06 10:48:11.296
181.0, -37379.20223226574, -43747.81772468302, -49233.89693902695, -48218.859519822545, -22915.522505703273, -26044.543212001707, -56141.256528050486, -43380.53385979341, 0.038, 0.906, -0.382, 192.0, 0.0, 0.0, 0.0, 0.0, 0.0, 0.0, 0.0, 0.0, 0.0, 1.741279691356467E9, 0.0, 2025-03-06 10:48:11.356
182.0, -37388.232337025685, -43763.329835335, -49244.51401764322, -48229.45424669436, -22894.154238004, -26050.421720793453, -56153.79585668992, -43382.09848190528, 0.038, 0.906, -0.382, 192.0, 0.0, 0.0, 0.0, 0.0, 0.0, 0.0, 0.0, 0.0, 0.0, 1.741279691356526E9, 0.0, 2025-03-06 10:48:11.356
183.0, -37396.86011038543, -43774.52805930711, -49254.773468348205, -48240.3395462441, -22925.15610756351, -26061.06115115418, -56151.87360666676, -43355.94694089257, 0.038, 0.906, -0.382, 192.0, 0.0, 0.0, 0.0, 0.0, 0.0, 0.0, 0.0, 0.0, 0.0, 1.741279691356547E9, 0.0, 2025-03-06 10:48:11.356
184.0, -37402.31393603253, -43781.47945183271, -49260.67432888441, -48249.07907832612, -22950.41357879801, -26068.25841286879, -56158.91440617018, -43370.87790618872, 0.038, 0.906, -0.382, 192.0, 0.0, 0.0, 0.0, 0.0, 0.0, 0.0, 0.0, 0.0, 0.0, 1.741279691356567E9, 0.0, 2025-03-06 10:48:11.356
185.0, -37398.24591854166, -43775.913867463336, -49257.38862244948, -48241.45713346686, -22948.178404352475, -26067.20788087939, -56164.23412135054, -43407.95945024007, 0.038, 0.906, -0.382, 192.0, 0.0, 0.0, 0.0, 0.0, 0.0, 0.0, 0.0, 0.0, 0.0, 1.741279691356587E9, 0.0, 2025-03-06 10:48:11.356
186.0, -37404.996145367164, -43777.165565152834, -49261.50134342925, -48241.52418870023, -22912.52737194626, -26068.72779950235, -56165.03878415094, -43383.41723482814, 0.038, 0.906, -0.382, 192.0, 0.0, 0.0, 0.0, 0.0, 0.0, 0.0, 0.0, 0.0, 0.0, 1.741279691356613E9, 0.0, 2025-03-06 10:48:11.356
187.0, -37411.81342742604, -43778.43961458679, -49265.16702951992, -48247.17918004742, -22977.950927966944, -26076.640317039528, -56160.18845560413, -43382.321999349835, 0.04, 0.91, -0.38, 192.0, 1.0, 64.0, 28.0, 112.0, 244.0, 32.0, 0.0, 0.0, 0.0, 1.741279691356633E9, 0.0, 2025-03-06 10:48:11.356
188.0, -37421.67054673083, -43787.29090539109, -49276.2311430253, -48255.896360384984, -23007.432878903495, -26084.619889810074, -56176.773449989974, -43418.50947362298, 0.04, 0.91, -0.38, 192.0, 0.0, 0.0, 0.0, 0.0, 0.0, 0.0, 0.0, 0.0, 0.0, 1.741279691356654E9, 0.0, 2025-03-06 10:48:11.356
189.0, -37417.64723272887, -43785.14513792338, -49274.01832032423, -48253.683537683915, -22986.891625749067, -26078.808436251693, -56182.60725529281, -43439.430706433144, 0.04, 0.91, -0.38, 192.0, 0.0, 0.0, 0.0, 0.0, 0.0, 0.0, 0.0, 0.0, 0.0, 1.741279691356674E9, 0.0, 2025-03-06 10:48:11.356
190.0, -37425.7832677106, -43796.72334155123, -49284.38952975149, -48261.23842730981, -22957.812006212713, -26086.58684332214, -56185.69179602764, -43434.73684009753, 0.04, 0.91, -0.38, 192.0, 0.0, 0.0, 0.0, 0.0, 0.0, 0.0, 0.0, 0.0, 0.0, 1.741279691356693E9, 0.0, 2025-03-06 10:48:11.356
191.0, -37436.802677727064, -43809.15091146838, -49291.98912286629, -48271.5425815037, -22992.658375818537, -26086.676250299963, -56186.11647917229, -43421.057572490885, 0.04, 0.91, -0.38, 192.0, 0.0, 0.0, 0.0, 0.0, 0.0, 0.0, 0.0, 0.0, 0.0, 1.741279691356712E9, 0.0, 2025-03-06 10:48:11.356
192.0, -37426.8337997, -43800.791359042094, -49280.61208493854, -48267.56397099066, -23024.934294812, -26088.285575900743, -56186.67527278367, -43415.26847067696, 0.04, 0.91, -0.38, 192.0, 0.0, 0.0, 0.0, 0.0, 0.0, 0.0, 0.0, 0.0, 0.0, 1.741279691356732E9, 0.0, 2025-03-06 10:48:11.356
193.0, -37425.917378177335, -43798.73499855221, -49286.736462919296, -48270.17912509193, -23015.390099929584, -26090.856026513105, -56191.32443563038, -43420.990517257516, 0.04, 0.91, -0.38, 192.0, 0.0, 0.0, 0.0, 0.0, 0.0, 0.0, 0.0, 0.0, 0.0, 1.741279691356752E9, 0.0, 2025-03-06 10:48:11.356
194.0, -37435.57333178203, -43808.65917309036, -49298.38172178051, -48282.18201186443, -22969.63607902957, -26096.35455564911, -56202.79088053595, -43441.196494245116, 0.04, 0.91, -0.38, 192.0, 0.0, 0.0, 0.0, 0.0, 0.0, 0.0, 0.0, 0.0, 0.0, 1.741279691356771E9, 0.0, 2025-03-06 10:48:11.356
195.0, -37454.05822444656, -43826.56292039906, -49312.28450683171, -48296.64359052701, -22969.45726507393, -26105.965805764892, -56217.252459198535, -43453.624064162264, 0.04, 0.91, -0.38, 192.0, 0.0, 0.0, 0.0, 0.0, 0.0, 0.0, 0.0, 0.0, 0.0, 1.741279691356797E9, 0.0, 2025-03-06 10:48:11.356
196.0, -37460.56258208306, -43829.893330322906, -49315.07847488862, -48293.8496224701, -23012.88670455059, -26106.859875543105, -56212.87151728529, -43448.34905247081, 0.04, 0.91, -0.38, 192.0, 0.0, 0.0, 0.0, 0.0, 0.0, 0.0, 0.0, 0.0, 0.0, 1.741279691416593E9, 0.0, 2025-03-06 10:48:11.416
197.0, -37463.6918263068, -43833.313147224566, -49322.298088347685, -48297.31414286067, -23020.910980810044, -26106.010509253803, -56213.206793452126, -43437.10612500979, 0.04, 0.912, -0.382, 192.0, 1.0, 64.0, 28.0, 128.0, 244.0, 16.0, 0.0, 0.0, 0.0, 1.74127969141665E9, 0.0, 2025-03-06 10:48:11.416
198.0, -37472.16313745536, -43841.11390603947, -49334.189216397914, -48308.42295985496, -22986.891625749067, -26124.495401918342, -56220.35935167782, -43438.98367154404, 0.04, 0.912, -0.382, 192.0, 0.0, 0.0, 0.0, 0.0, 0.0, 0.0, 0.0, 0.0, 0.0, 1.741279691416673E9, 0.0, 2025-03-06 10:48:11.416
199.0, -37484.65776260588, -43857.74360391422, -49342.25819614628, -48317.22954717035, -22979.873177990103, -26138.867573603104, -56231.155244249734, -43460.17312528767, 0.04, 0.912, -0.382, 192.0, 0.0, 0.0, 0.0, 0.0, 0.0, 0.0, 0.0, 0.0, 0.0, 1.741279691416693E9, 0.0, 2025-03-06 10:48:11.416
200.0, -37492.950259798796, -43868.11481334148, -49346.19210317041, -48323.13040770655, -23011.433841160997, -26139.18049802548, -56238.93365132018, -43468.398567247226, 0.04, 0.912, -0.382, 192.0, 0.0, 0.0, 0.0, 0.0, 0.0, 0.0, 0.0, 0.0, 0.0, 1.741279691416712E9, 0.0, 2025-03-06 10:48:11.416
201.0, -37497.644126134415, -43871.86990640997, -49353.05408871819, -48326.5055211193, -23023.213210488942, -26140.186326525967, -56244.52158743401, -43469.44909923662, 0.04, 0.912, -0.382, 192.0, 0.0, 0.0, 0.0, 0.0, 0.0, 0.0, 0.0, 0.0, 0.0, 1.741279691416731E9, 0.0, 2025-03-06 10:48:11.416
202.0, -37497.5994226455, -43874.37330178897, -49358.038527731725, -48335.06623924569, -22998.64864333256, -26152.636248187573, -56250.3777444813, -43460.46369796559, 0.04, 0.912, -0.382, 192.0, 0.0, 0.0, 0.0, 0.0, 0.0, 0.0, 0.0, 0.0, 0.0, 1.741279691416761E9, 0.0, 2025-03-06 10:48:11.416
203.0, -37511.56926293007, -43891.91942118638, -49369.46026914839, -48350.95832955341, -22999.207436943943, -26164.974411126903, -56258.73729690758, -43490.10211111332, 0.04, 0.912, -0.382, 192.0, 0.0, 0.0, 0.0, 0.0, 0.0, 0.0, 0.0, 0.0, 0.0, 1.74127969141678E9, 0.0, 2025-03-06 10:48:11.416
204.0, -37514.56439668708, -43895.62981076596, -49372.32129243867, -48351.65123363152, -23035.305504239263, -26162.40396051454, -56267.36507026733, -43507.98350667757, 0.04, 0.912, -0.382, 192.0, 0.0, 0.0, 0.0, 0.0, 0.0, 0.0, 0.0, 0.0, 0.0, 1.741279691416799E9, 0.0, 2025-03-06 10:48:11.416
205.0, -37508.44001870633, -43893.2605258537, -49366.82276330266, -48351.38301269806, -23060.76414117386, -26158.470053490408, -56260.167808552724, -43466.4092619907, 0.04, 0.912, -0.382, 192.0, 0.0, 0.0, 0.0, 0.0, 0.0, 0.0, 0.0, 0.0, 0.0, 1.741279691416819E9, 0.0, 2025-03-06 10:48:11.416
206.0, -37506.69658263881, -43892.43351130885, -49366.420431902465, -48356.52391392278, -23036.71366413995, -26161.778111669795, -56264.45934348814, -43492.53845125895, 0.04, 0.912, -0.382, 192.0, 0.0, 0.0, 0.0, 0.0, 0.0, 0.0, 0.0, 0.0, 0.0, 1.741279691416838E9, 0.0, 2025-03-06 10:48:11.416
207.0, -37519.101800811506, -43897.19443287783, -49372.47775464985, -48361.10602153612, -23009.712756837936, -26169.22124257341, -56272.90830289225, -43513.23616662457, 0.042, 0.916, -0.378, 192.0, 1.0, 80.0, 28.0, 160.0, 244.0, 48.0, 0.0, 0.0, 0.0, 1.741279691416858E9, 0.0, 2025-03-06 10:48:11.416
208.0, -37514.98907983173, -43888.99134266274, -49361.97243475586, -48350.980681297864, -23056.763178916357, -26160.59346921366, -56262.60414869835, -43493.27605882598, 0.042, 0.916, -0.378, 192.0, 0.0, 0.0, 0.0, 0.0, 0.0, 0.0, 0.0, 0.0, 0.0, 1.741279691416879E9, 0.0, 2025-03-06 10:48:11.416
209.0, -37515.63728042094, -43884.94567691632, -49362.575931856154, -48342.7105358494, -23084.00995540738, -26150.55753595323, -56264.25817778805, -43517.05831492643, 0.042, 0.916, -0.378, 192.0, 0.0, 0.0, 0.0, 0.0, 0.0, 0.0, 0.0, 0.0, 0.0, 1.741279691416899E9, 0.0, 2025-03-06 10:48:11.416
210.0, -37518.252434522205, -43889.9077641854, -49369.9520075264, -48354.15462901052, -23047.934239856513, -26163.968582626414, -56279.50206750656, -43528.994146465564, 0.042, 0.916, -0.378, 192.0, 0.0, 0.0, 0.0, 0.0, 0.0, 0.0, 0.0, 0.0, 0.0, 1.741279691416924E9, 0.0, 2025-03-06 10:48:11.416
211.0, -37528.33307127155, -43893.6628572539, -49382.73720535484, -48364.95052158243, -23016.50768715235, -26175.99382114337, -56283.19010534169, -43521.88629172877, 0.042, 0.916, -0.378, 192.0, 0.0, 0.0, 0.0, 0.0, 0.0, 0.0, 0.0, 0.0, 0.0, 1.74127969147741E9, 0.0, 2025-03-06 10:48:11.477
212.0, -37537.3631760315, -43898.244964867234, -49385.15119375601, -48366.82806811668, -23056.785530660814, -26181.671164235016, -56285.44763153168, -43529.351774376846, 0.042, 0.916, -0.378, 192.0, 0.0, 0.0, 0.0, 0.0, 0.0, 0.0, 0.0, 0.0, 0.0, 1.741279691477464E9, 0.0, 2025-03-06 10:48:11.477
213.0, -37539.12896384346, -43897.79792997813, -49384.57004840017, -48371.38782398556, -23081.886539684125, -26185.89564393707, -56291.12497462332, -43523.07093418491, 0.042, 0.916, -0.378, 192.0, 0.0, 0.0, 0.0, 0.0, 0.0, 0.0, 0.0, 0.0, 0.0, 1.741279691477485E9, 0.0, 2025-03-06 10:48:11.477
214.0, -37542.97346388978, -43899.07197941208, -49392.59432465963, -48384.687111936466, -23059.624202206636, -26199.172580143524, -56297.539925282, -43520.29931787244, 0.042, 0.916, -0.378, 192.0, 0.0, 0.0, 0.0, 0.0, 0.0, 0.0, 0.0, 0.0, 0.0, 1.741279691477509E9, 0.0, 2025-03-06 10:48:11.477
215.0, -37546.39328079144, -43898.64729626743, -49395.05301654971, -48387.30226603774, -23020.374538943117, -26206.83922849169, -56302.77023348454, -43527.04954469795, 0.042, 0.916, -0.378, 192.0, 0.0, 0.0, 0.0, 0.0, 0.0, 0.0, 0.0, 0.0, 0.0, 1.741279691477528E9, 0.0, 2025-03-06 10:48:11.477
216.0, -37548.91902791489, -43902.514148058195, -49392.4602141929, -48393.18077482948, -23048.0907020677, -26203.75468775686, -56302.50201255108, -43527.2730621425, 0.042, 0.916, -0.378, 192.0, 0.0, 0.0, 0.0, 0.0, 0.0, 0.0, 0.0, 0.0, 0.0, 1.741279691477548E9, 0.0, 2025-03-06 10:48:11.477
217.0, -37535.23976030824, -43889.9077641854, -49378.57978088615, -48377.10987056612, -23108.28394988584, -26193.115257396134, -56296.64585550378, -43543.0757454724, 0.042, 0.914, -0.378, 192.0, 1.0, 80.0, 28.0, 144.0, 244.0, 48.0, 0.0, 0.0, 0.0, 1.741279691477574E9, 0.0, 2025-03-06 10:48:11.477
218.0, -37539.33012954356, -43891.5617932751, -49385.82174608967, -48379.501507222834, -23108.19454290802, -26201.34069935569, -56304.62542827433, -43529.50823658803, 0.042, 0.914, -0.378, 192.0, 0.0, 0.0, 0.0, 0.0, 0.0, 0.0, 0.0, 0.0, 0.0, 1.741279691477596E9, 0.0, 2025-03-06 10:48:11.477
219.0, -37550.4612982823, -43895.518052043684, -49394.3601124716, -48386.5199549818, -23068.9448796445, -26213.52240008383, -56309.587515543404, -43533.777419779, 0.042, 0.914, -0.378, 192.0, 0.0, 0.0, 0.0, 0.0, 0.0, 0.0, 0.0, 0.0, 0.0, 1.741279691477615E9, 0.0, 2025-03-06 10:48:11.477
220.0, -37558.79849896413, -43894.93690668785, -49396.77410087277, -48383.971856113894, -23087.563882775772, -26208.493257581387, -56309.16283239875, -43552.28466418799, 0.042, 0.914, -0.378, 192.0, 0.0, 0.0, 0.0, 0.0, 0.0, 0.0, 0.0, 0.0, 0.0, 1.741279691477634E9, 0.0, 2025-03-06 10:48:11.477
221.0, -37561.01132166521, -43898.28966835614, -49400.79741487472, -48387.704597437936, -23122.67847331506, -26208.828533748216, -56309.67692252123, -43552.95521652165, 0.042, 0.914, -0.378, 192.0, 0.0, 0.0, 0.0, 0.0, 0.0, 0.0, 0.0, 0.0, 0.0, 1.741279691477654E9, 0.0, 2025-03-06 10:48:11.477
222.0, -37564.252324611225, -43906.06807542659, -49408.44171147844, -48403.7755017013, -23131.68622633055, -26227.983978746415, -56327.75948378557, -43563.035853270994, 0.042, 0.914, -0.378, 192.0, 0.0, 0.0, 0.0, 0.0, 0.0, 0.0, 0.0, 0.0, 0.0, 1.741279691477673E9, 0.0, 2025-03-06 10:48:11.477
223.0, -37571.82956598158, -43914.40527610842, -49417.941202871945, -48415.26429835133, -23089.441429310016, -26233.169583460043, -56335.98492574513, -43563.035853270994, 0.042, 0.914, -0.378, 192.0, 0.0, 0.0, 0.0, 0.0, 0.0, 0.0, 0.0, 0.0, 0.0, 1.741279691477692E9, 0.0, 2025-03-06 10:48:11.477
224.0, -37578.26686838471, -43918.942680232845, -49419.4611214949, -48415.800740218256, -23088.033269409334, -26232.677845082027, -56330.776969287035, -43560.532457892, 0.042, 0.914, -0.378, 192.0, 0.0, 0.0, 0.0, 0.0, 0.0, 0.0, 0.0, 0.0, 0.0, 1.741279691477711E9, 0.0, 2025-03-06 10:48:11.477
225.0, -37582.848975998044, -43921.379020378474, -49422.411551763005, -48418.035914663786, -23135.15074672112, -26243.00435102038, -56339.15887345778, -43571.57421965292, 0.042, 0.914, -0.378, 192.0, 0.0, 0.0, 0.0, 0.0, 0.0, 0.0, 0.0, 0.0, 0.0, 1.741279691477736E9, 0.0, 2025-03-06 10:48:11.477
226.0, -37577.48455732877, -43915.992249964744, -49418.499996483326, -48414.9290221845, -23161.25758424492, -26244.323103943243, -56341.751675814594, -43566.321559705924, 0.042, 0.914, -0.378, 192.0, 0.0, 0.0, 0.0, 0.0, 0.0, 0.0, 0.0, 0.0, 0.0, 1.741279691536372E9, 0.0, 2025-03-06 10:48:11.536
227.0, -37584.7712260212, -43922.20603492332, -49427.798322176735, -48426.30606011225, -23121.918514003577, -26258.069426783255, -56350.692373596714, -43575.552830165965, 0.036000000000000004, 0.914, -0.378, 192.0, 1.0, 32.0, 28.0, 144.0, 244.0, 48.0, 0.0, 0.0, 0.0, 1.741279691536427E9, 0.0, 2025-03-06 10:48:11.536
228.0, -37597.332906405085, -43935.48297112977, -49433.520368757294, -48439.20301666296, -23118.185772679542, -26255.744845359906, -56355.743867843616, -43575.977513310616, 0.036000000000000004, 0.914, -0.378, 192.0, 0.0, 0.0, 0.0, 0.0, 0.0, 0.0, 0.0, 0.0, 0.0, 1.74127969153645E9, 0.0, 2025-03-06 10:48:11.536
229.0, -37605.89362453147, -43940.8697415435, -49442.84104619516, -48446.44498186648, -23160.519976677893, -26266.786607120826, -56360.01305103458, -43571.30599871946, 0.036000000000000004, 0.914, -0.378, 192.0, 0.0, 0.0, 0.0, 0.0, 0.0, 0.0, 0.0, 0.0, 0.0, 1.741279691536469E9, 0.0, 2025-03-06 10:48:11.536
230.0, -37620.15403749395, -43946.23416021278, -49460.74479350386, -48450.87062726863, -23147.690075360548, -26284.131560818143, -56377.73798438764, -43590.05911231746, 0.036000000000000004, 0.914, -0.378, 192.0, 0.0, 0.0, 0.0, 0.0, 0.0, 0.0, 0.0, 0.0, 0.0, 1.741279691536489E9, 0.0, 2025-03-06 10:48:11.536
231.0, -37616.95773803684, -43941.62970085498, -49460.253055125846, -48451.49647611338, -23120.130374447155, -26291.194712066022, -56377.08978379844, -43592.80837688546, 0.036000000000000004, 0.914, -0.378, 192.0, 0.0, 0.0, 0.0, 0.0, 0.0, 0.0, 0.0, 0.0, 0.0, 1.741279691536513E9, 0.0, 2025-03-06 10:48:11.536
232.0, -37617.248310714764, -43944.06604100061, -49454.50865680083, -48457.12911571612, -23103.7018422725, -26299.442505770032, -56378.07326055447, -43590.61790592884, 0.036000000000000004, 0.914, -0.378, 192.0, 0.0, 0.0, 0.0, 0.0, 0.0, 0.0, 0.0, 0.0, 0.0, 1.74127969153654E9, 0.0, 2025-03-06 10:48:11.536
233.0, -37622.34450845057, -43949.2739974587, -49453.59223527816, -48459.67721458402, -23138.615267111694, -26286.63495619714, -56375.7039756422, -43618.91521440926, 0.036000000000000004, 0.914, -0.378, 192.0, 0.0, 0.0, 0.0, 0.0, 0.0, 0.0, 0.0, 0.0, 0.0, 1.741279691536559E9, 0.0, 2025-03-06 10:48:11.536
234.0, -37630.70406087686, -43954.50430566124, -49457.16851439101, -48454.60336859267, -23150.39463643964, -26282.29871777281, -56382.811830378996, -43649.29123512402, 0.036000000000000004, 0.914, -0.378, 192.0, 0.0, 0.0, 0.0, 0.0, 0.0, 0.0, 0.0, 0.0, 0.0, 1.741279691536578E9, 0.0, 2025-03-06 10:48:11.536
235.0, -37647.19964828487, -43973.88326810399, -49476.45806985594, -48478.89971481558, -23091.60954852218, -26303.68933721654, -56403.93422888926, -43652.06285143648, 0.036000000000000004, 0.914, -0.378, 192.0, 0.0, 0.0, 0.0, 0.0, 0.0, 0.0, 0.0, 0.0, 0.0, 1.741279691536598E9, 0.0, 2025-03-06 10:48:11.536
236.0, -37651.91586636494, -43978.867707117526, -49479.09557570166, -48483.37006370665, -23040.51346069735, -26312.607683254206, -56407.957542891214, -43637.69067975172, 0.036000000000000004, 0.914, -0.378, 192.0, 0.0, 0.0, 0.0, 0.0, 0.0, 0.0, 0.0, 0.0, 0.0, 1.741279691536617E9, 0.0, 2025-03-06 10:48:11.536
237.0, -37645.65737791746, -43969.65878840194, -49471.16070642003, -48471.97067403444, -23079.830179194236, -26303.44346802753, -56403.911877144805, -43639.88115070834, 0.042, 0.914, -0.38, 192.0, 1.0, 80.0, 28.0, 144.0, 244.0, 32.0, 0.0, 0.0, 0.0, 1.741279691536636E9, 0.0, 2025-03-06 10:48:11.536
238.0, -37635.24146500129, -43962.68504413188, -49465.52806681729, -48468.05911875476, -23109.222723152965, -26293.452238256006, -56391.86428688339, -43619.6975254652, 0.042, 0.914, -0.38, 192.0, 0.0, 0.0, 0.0, 0.0, 0.0, 0.0, 0.0, 0.0, 0.0, 1.741279691536657E9, 0.0, 2025-03-06 10:48:11.536
239.0, -37640.382366226004, -43972.139832036475, -49477.3297878897, -48479.7937845938, -23077.706763470982, -26302.907026160603, -56404.64948471183, -43648.44186883472, 0.042, 0.914, -0.38, 192.0, 0.0, 0.0, 0.0, 0.0, 0.0, 0.0, 0.0, 0.0, 0.0, 1.741279691536677E9, 0.0, 2025-03-06 10:48:11.536
240.0, -37654.2851512772, -43984.61210544254, -49491.92547701901, -48493.47305220045, -23015.92654179651, -26313.568808265783, -56411.48911851515, -43636.662499506776, 0.042, 0.914, -0.38, 192.0, 0.0, 0.0, 0.0, 0.0, 0.0, 0.0, 0.0, 0.0, 0.0, 1.741279691536702E9, 0.0, 2025-03-06 10:48:11.536
241.0, -37665.21515431585, -43988.769529911224, -49497.96044802194, -48494.45652895648, -23042.32395199823, -26316.899218189625, -56413.29960981603, -43654.02980494855, 0.042, 0.914, -0.38, 192.0, 0.0, 0.0, 0.0, 0.0, 0.0, 0.0, 0.0, 0.0, 0.0, 1.741279691596121E9, 0.0, 2025-03-06 10:48:11.596
242.0, -37663.85169790408, -43986.86963163252, -49497.82633755521, -48493.16012777807, -23097.935092203035, -26324.901142704624, -56419.4686912857, -43653.87334273736, 0.042, 0.914, -0.38, 192.0, 0.0, 0.0, 0.0, 0.0, 0.0, 0.0, 0.0, 0.0, 0.0, 1.741279691596173E9, 0.0, 2025-03-06 10:48:11.596
243.0, -37659.0907763351, -43983.74038740878, -49498.072206744226, -48495.283543501326, -23111.748470276412, -26328.1644973951, -56420.72038897519, -43652.174610158756, 0.042, 0.914, -0.38, 192.0, 0.0, 0.0, 0.0, 0.0, 0.0, 0.0, 0.0, 0.0, 0.0, 1.741279691596195E9, 0.0, 2025-03-06 10:48:11.596
244.0, -37664.164622326454, -43986.757872910246, -49504.37539868062, -48498.47984295843, -23088.390897320616, -26325.415232827097, -56421.54740352004, -43641.602235031394, 0.042, 0.914, -0.38, 192.0, 0.0, 0.0, 0.0, 0.0, 0.0, 0.0, 0.0, 0.0, 0.0, 1.741279691596215E9, 0.0, 2025-03-06 10:48:11.596
245.0, -37680.68256147892, -43996.816157915135, -49518.09936977618, -48504.157186050084, -23101.66783352707, -26332.567791052796, -56426.129511133375, -43649.62651129085, 0.042, 0.914, -0.38, 192.0, 0.0, 0.0, 0.0, 0.0, 0.0, 0.0, 0.0, 0.0, 0.0, 1.741279691596235E9, 0.0, 2025-03-06 10:48:11.596
246.0, -37691.45610230638, -44009.44489353239, -49527.15182628058, -48519.89281414662, -23127.305284417307, -26347.722273793494, -56434.51141530412, -43654.43213634875, 0.042, 0.914, -0.38, 192.0, 0.0, 0.0, 0.0, 0.0, 0.0, 0.0, 0.0, 0.0, 0.0, 1.741279691596254E9, 0.0, 2025-03-06 10:48:11.596
247.0, -37687.20927085987, -44015.25634709076, -49526.07894254672, -48530.3534305517, -23132.87086878668, -26351.79029128436, -56438.46767407271, -43653.87334273736, 0.044, 0.906, -0.38, 192.0, 1.0, 96.0, 28.0, 80.0, 244.0, 32.0, 0.0, 0.0, 0.0, 1.741279691596281E9, 0.0, 2025-03-06 10:48:11.596
248.0, -37694.428884318935, -44025.80637047367, -49539.42293398654, -48542.266910346385, -23077.215025092963, -26355.03129423038, -56453.398639368854, -43668.98312198915, 0.044, 0.906, -0.38, 192.0, 0.0, 0.0, 0.0, 0.0, 0.0, 0.0, 0.0, 0.0, 0.0, 1.741279691596305E9, 0.0, 2025-03-06 10:48:11.596
249.0, -37708.30931762568, -44034.88117872253, -49555.62794871664, -48548.12306739367, -23068.38608603312, -26364.21786120151, -56463.41222088483, -43677.92381977127, 0.044, 0.906, -0.38, 192.0, 0.0, 0.0, 0.0, 0.0, 0.0, 0.0, 0.0, 0.0, 0.0, 1.741279691596325E9, 0.0, 2025-03-06 10:48:11.596
250.0, -37705.202425146395, -44031.28254786522, -49547.447210246, -48542.22220685747, -23116.084708700742, -26364.396675157153, -56463.36751739592, -43675.21925869218, 0.044, 0.906, -0.38, 192.0, 0.0, 0.0, 0.0, 0.0, 0.0, 0.0, 0.0, 0.0, 0.0, 1.741279691596345E9, 0.0, 2025-03-06 10:48:11.596
251.0, -37694.361829085574, -44018.072666892134, -49536.025468829335, -48534.24263408693, -23140.470461901485, -26368.732913581483, -56451.99047946817, -43663.909275997794, 0.044, 0.906, -0.38, 192.0, 0.0, 0.0, 0.0, 0.0, 0.0, 0.0, 0.0, 0.0, 0.0, 1.741279691596365E9, 0.0, 2025-03-06 10:48:11.596
252.0, -37696.14996864199, -44021.26896634924, -49541.121666565145, -48537.17071261057, -23104.126525417152, -26377.60655613024, -56462.160523195336, -43669.83248827845, 0.044, 0.906, -0.38, 192.0, 0.0, 0.0, 0.0, 0.0, 0.0, 0.0, 0.0, 0.0, 0.0, 1.741279691596385E9, 0.0, 2025-03-06 10:48:11.596
253.0, -37721.51919859877, -44038.368050857556, -49558.57837898474, -48551.900512206616, -23096.862208469178, -26386.547253912362, -56470.542427366076, -43687.28920069805, 0.044, 0.906, -0.38, 192.0, 0.0, 0.0, 0.0, 0.0, 0.0, 0.0, 0.0, 0.0, 0.0, 1.741279691596405E9, 0.0, 2025-03-06 10:48:11.596
254.0, -37726.81656203468, -44044.648891049495, -49564.3004255653, -48564.775117012876, -23168.49954944844, -26396.22555926151, -56478.07496524751, -43685.858689052904, 0.044, 0.906, -0.38, 192.0, 0.0, 0.0, 0.0, 0.0, 0.0, 0.0, 0.0, 0.0, 0.0, 1.741279691596426E9, 0.0, 2025-03-06 10:48:11.596
255.0, -37724.38022188905, -44047.62167306205, -49568.167277356064, -48573.42524211708, -23194.762849183422, -26396.873759850714, -56488.490878163684, -43705.03648579556, 0.044, 0.906, -0.38, 192.0, 0.0, 0.0, 0.0, 0.0, 0.0, 0.0, 0.0, 0.0, 0.0, 1.741279691596446E9, 0.0, 2025-03-06 10:48:11.596
0.0, -37717.45118110791, -44039.57504505814, -49563.361652298176, -48559.99184369944, -23156.273145231386, -26390.950547570057, -56492.89417182138, -43751.170486351315, 0.044, 0.906, -0.38, 192.0, 0.0, 0.0, 0.0, 0.0, 0.0, 0.0, 0.0, 0.0, 0.0, 1.741279691656346E9, 0.0, 2025-03-06 10:48:11.656
1.0, -37727.26359692378, -44045.9452922279, -49569.48603027893, -48565.60213155772, -23128.177002451062, -26395.9796900725, -56493.96705555524, -43711.89847134334, 0.042, 0.912, -0.38, 192.0, 1.0, 80.0, 28.0, 128.0, 244.0, 32.0, 0.0, 0.0, 0.0, 1.741279691656378E9, 0.0, 2025-03-06 10:48:11.656
2.0, -37721.049811965204, -44038.61392004656, -49562.75815519788, -48562.83051524527, -23202.0271661314, -26391.308175481343, -56476.77856406911, -43654.745060771114, 0.042, 0.912, -0.38, 192.0, 0.0, 0.0, 0.0, 0.0, 0.0, 0.0, 0.0, 0.0, 0.0, 1.741279691656423E9, 0.0, 2025-03-06 10:48:11.656
3.0, -37729.90110276951, -44046.70525153938, -49572.05648089129, -48569.9160182376, -23234.861878736243, -26393.677460393606, -56487.97678804121, -43719.18514003577, 0.042, 0.912, -0.38, 192.0, 0.0, 0.0, 0.0, 0.0, 0.0, 0.0, 0.0, 0.0, 0.0, 1.741279691656444E9, 0.0, 2025-03-06 10:48:11.656
4.0, -37740.18290521895, -44054.774231287745, -49585.40047233111, -48570.988901971454, -23201.35661379774, -26386.301384723352, -56501.432538203306, -43748.48827701667, 0.042, 0.912, -0.38, 192.0, 0.0, 0.0, 0.0, 0.0, 0.0, 0.0, 0.0, 0.0, 0.0, 1.741279691656464E9, 0.0, 2025-03-06 10:48:11.656
5.0, -37756.96906530489, -44073.86262105258, -49598.163318415085, -48587.082157979276, -23164.16331102411, -26402.88637910919, -56504.584134171506, -43732.86440764242, 0.042, 0.912, -0.38, 192.0, 0.0, 0.0, 0.0, 0.0, 0.0, 0.0, 0.0, 0.0, 0.0, 1.741279691656484E9, 0.0, 2025-03-06 10:48:11.656
6.0, -37764.03221655276, -44080.41168217798, -49599.2585538934, -48594.86056504972, -23188.660822947124, -26410.396565246174, -56515.44708197679, -43737.871198400404, 0.042, 0.912, -0.38, 192.0, 0.0, 0.0, 0.0, 0.0, 0.0, 0.0, 0.0, 0.0, 0.0, 1.741279691656515E9, 0.0, 2025-03-06 10:48:11.656
7.0, -37765.44037645344, -44080.59049613363, -49603.617144062184, -48599.4203209186, -23213.35950057024, -26420.879533395713, -56526.667657693346, -43753.29390207457, 0.042, 0.912, -0.38, 192.0, 0.0, 0.0, 0.0, 0.0, 0.0, 0.0, 0.0, 0.0, 0.0, 1.741279691656536E9, 0.0, 2025-03-06 10:48:11.656
8.0, -37767.38497822106, -44089.39708344902, -49614.4130366341, -48611.44555943556, -23208.755041212447, -26430.42372827813, -56526.533547226616, -43725.6224424389, 0.042, 0.912, -0.38, 192.0, 0.0, 0.0, 0.0, 0.0, 0.0, 0.0, 0.0, 0.0, 0.0, 1.741279691656556E9, 0.0, 2025-03-06 10:48:11.656
9.0, -37778.29262951525, -44105.28917375674, -49629.96985077499, -48627.136484043185, -23161.995191811944, -26447.858088953268, -56549.6452509934, -43743.28032055859, 0.042, 0.912, -0.38, 192.0, 0.0, 0.0, 0.0, 0.0, 0.0, 0.0, 0.0, 0.0, 0.0, 1.741279691656575E9, 0.0, 2025-03-06 10:48:11.656
10.0, -37779.54432720475, -44105.71385690139, -49624.29250768334, -48618.24048974997, -23193.98053812749, -26437.777452203925, -56549.57819576004, -43759.23946609968, 0.042, 0.912, -0.38, 192.0, 0.0, 0.0, 0.0, 0.0, 0.0, 0.0, 0.0, 0.0, 0.0, 1.741279691656595E9, 0.0, 2025-03-06 10:48:11.656
11.0, -37783.74645516234, -44107.52434820227, -49627.712324585, -48616.09472228226, -23236.202983403564, -26436.950437659078, -56548.9970504042, -43770.34828309397, 0.048, 0.91, -0.378, 192.0, 1.0, 128.0, 28.0, 112.0, 244.0, 48.0, 0.0, 0.0, 0.0, 1.741279691656615E9, 0.0, 2025-03-06 10:48:11.656
12.0, -37781.51128071681, -44107.79256913574, -49628.226414707475, -48622.19674851856, -23237.387625859694, -26448.014551164455, -56553.69091673982, -43772.985788939695, 0.048, 0.91, -0.378, 192.0, 0.0, 0.0, 0.0, 0.0, 0.0, 0.0, 0.0, 0.0, 0.0, 1.741279691656637E9, 0.0, 2025-03-06 10:48:11.656
13.0, -37777.555021948225, -44105.40093247902, -49627.22058620699, -48621.86147235173, -23212.93481742559, -26440.28084758292, -56551.32163182755, -43763.97803592421, 0.048, 0.91, -0.378, 192.0, 0.0, 0.0, 0.0, 0.0, 0.0, 0.0, 0.0, 0.0, 0.0, 1.741279691656656E9, 0.0, 2025-03-06 10:48:11.656
14.0, -37799.54913849224, -44122.56707222069, -49642.37506894769, -48628.2764230104, -23219.193305873076, -26451.27790585493, -56567.66075702438, -43777.2326203862, 0.048, 0.91, -0.378, 192.0, 0.0, 0.0, 0.0, 0.0, 0.0, 0.0, 0.0, 0.0, 0.0, 1.741279691656677E9, 0.0, 2025-03-06 10:48:11.656
15.0, -37800.71142920392, -44126.00924086681, -49648.7676678619, -48633.707896913045, -23260.096998226287, -26462.18555714912, -56566.453762823796, -43768.04605341507, 0.048, 0.91, -0.378, 192.0, 0.0, 0.0, 0.0, 0.0, 0.0, 0.0, 0.0, 0.0, 0.0, 1.741279691716597E9, 0.0, 2025-03-06 10:48:11.716
16.0, -37805.382943795084, -44135.68754621596, -49657.88717959967, -48648.75062093147, -23266.958983774064, -26472.109731687277, -56574.09805942751, -43770.392986582876, 0.048, 0.91, -0.378, 192.0, 0.0, 0.0, 0.0, 0.0, 0.0, 0.0, 0.0, 0.0, 0.0, 1.741279691716641E9, 0.0, 2025-03-06 10:48:11.716
17.0, -37810.546196764255, -44136.223988082886, -49663.9221506026, -48647.051888352864, -23246.015399219443, -26471.975621220547, -56570.52178031466, -43768.783660982095, 0.048, 0.91, -0.378, 192.0, 0.0, 0.0, 0.0, 0.0, 0.0, 0.0, 0.0, 0.0, 0.0, 1.741279691716667E9, 0.0, 2025-03-06 10:48:11.716
18.0, -37829.79104874028, -44156.89935170404, -49677.75788042044, -48665.24620833948, -23247.468262609036, -26488.828836539848, -56582.56937057607, -43781.56885881053, 0.048, 0.91, -0.378, 192.0, 0.0, 0.0, 0.0, 0.0, 0.0, 0.0, 0.0, 0.0, 0.0, 1.741279691716687E9, 0.0, 2025-03-06 10:48:11.716
19.0, -37824.20311262645, -44157.88282846008, -49672.86284838472, -48671.594103764786, -23288.349603217794, -26489.320574917863, -56585.899780499916, -43773.05284417306, 0.048, 0.91, -0.378, 192.0, 0.0, 0.0, 0.0, 0.0, 0.0, 0.0, 0.0, 0.0, 0.0, 1.741279691716706E9, 0.0, 2025-03-06 10:48:11.716
20.0, -37823.15258063705, -44160.900313961545, -49674.427470496594, -48672.555228776364, -23296.910321344178, -26494.796752309412, -56590.01250147969, -43780.42891984331, 0.048, 0.91, -0.378, 192.0, 0.0, 0.0, 0.0, 0.0, 0.0, 0.0, 0.0, 0.0, 0.0, 1.741279691716726E9, 0.0, 2025-03-06 10:48:11.716
21.0, -37827.71233650593, -44163.291950618266, -49681.33415953328, -48673.471650299034, -23264.343829672795, -26498.305976188898, -56594.57225734857, -43783.08877743349, 0.042, 0.908, -0.38, 192.0, 1.0, 80.0, 28.0, 96.0, 244.0, 32.0, 0.0, 0.0, 0.0, 1.741279691716751E9, 0.0, 2025-03-06 10:48:11.716
22.0, -37837.92708372201, -44166.421194842005, -49687.0785578583, -48672.39876656518, -23264.187367461607, -26509.21362748309, -56597.567391105586, -43791.224812415225, 0.042, 0.908, -0.38, 192.0, 0.0, 0.0, 0.0, 0.0, 0.0, 0.0, 0.0, 0.0, 0.0, 1.741279691716773E9, 0.0, 2025-03-06 10:48:11.716
23.0, -37850.756985039356, -44175.74187227987, -49701.24956384296, -48684.8933917157, -23301.380670235238, -26519.07074678788, -56610.59845812303, -43807.496882378684, 0.042, 0.908, -0.38, 192.0, 0.0, 0.0, 0.0, 0.0, 0.0, 0.0, 0.0, 0.0, 0.0, 1.741279691716792E9, 0.0, 2025-03-06 10:48:11.716
24.0, -37851.40518562856, -44181.26275316033, -49704.49056678898, -48694.526993575935, -23311.349548262304, -26530.91717134919, -56613.59359188004, -43807.47453063423, 0.042, 0.908, -0.38, 192.0, 0.0, 0.0, 0.0, 0.0, 0.0, 0.0, 0.0, 0.0, 0.0, 1.741279691716812E9, 0.0, 2025-03-06 10:48:11.716
25.0, -37847.06894720423, -44180.2792764043, -49700.82488069831, -48696.493947088, -23293.021117808952, -26532.571200438884, -56611.58193487906, -43786.37448386842, 0.042, 0.908, -0.38, 192.0, 0.0, 0.0, 0.0, 0.0, 0.0, 0.0, 0.0, 0.0, 0.0, 1.741279691716831E9, 0.0, 2025-03-06 10:48:11.716
26.0, -37855.60731358616, -44189.21997418642, -49708.22330811302, -48706.01579022596, -23289.37778346274, -26532.61590392779, -56618.5109756602, -43827.70285936628, 0.042, 0.908, -0.38, 192.0, 0.0, 0.0, 0.0, 0.0, 0.0, 0.0, 0.0, 0.0, 0.0, 1.741279691716851E9, 0.0, 2025-03-06 10:48:11.716
27.0, -37860.10001422167, -44193.51150912184, -49713.00658142645, -48709.86029027227, -23341.99378991053, -26526.647988158227, -56622.82486234008, -43821.2432052187, 0.042, 0.908, -0.38, 192.0, 0.0, 0.0, 0.0, 0.0, 0.0, 0.0, 0.0, 0.0, 0.0, 1.741279691716871E9, 0.0, 2025-03-06 10:48:11.716
28.0, -37861.4858223779, -44196.10431147865, -49717.007543683954, -48716.0964269753, -23361.90919422021, -26538.092081319344, -56638.11345554751, -43826.98760354371, 0.042, 0.908, -0.38, 192.0, 0.0, 0.0, 0.0, 0.0, 0.0, 0.0, 0.0, 0.0, 0.0, 1.74127969171689E9, 0.0, 2025-03-06 10:48:11.716
29.0, -37866.29144743579, -44199.926459780516, -49722.886052475704, -48721.48319738903, -23344.340723078338, -26543.903534877725, -56638.515786947704, -43839.750449627696, 0.042, 0.908, -0.38, 192.0, 0.0, 0.0, 0.0, 0.0, 0.0, 0.0, 0.0, 0.0, 0.0, 1.74127969171691E9, 0.0, 2025-03-06 10:48:11.716
30.0, -37878.093168508196, -44208.48717790689, -49730.75386652397, -48720.27620318845, -23311.12603081775, -26536.259238274008, -56638.0687520586, -43844.712536896775, 0.042, 0.908, -0.38, 192.0, 0.0, 0.0, 0.0, 0.0, 0.0, 0.0, 0.0, 0.0, 0.0, 1.74127969177694E9, 0.0, 2025-03-06 10:48:11.776
31.0, -37880.77537784283, -44209.001268029366, -49725.545910065885, -48712.67661007364, -23349.123996391776, -26533.934656850655, -56634.045438056644, -43822.15962674137, 0.044, 0.92, -0.384, 192.0, 1.0, 96.0, 28.0, 192.0, 244.0, 0.0, 0.0, 0.0, 0.0, 1.741279691776991E9, 0.0, 2025-03-06 10:48:11.776
32.0, -37883.43523543301, -44205.648506361074, -49726.0376484439, -48708.51918560496, -23406.143296497263, -26525.709214891103, -56622.646048384435, -43837.13529552642, 0.044, 0.92, -0.384, 192.0, 0.0, 0.0, 0.0, 0.0, 0.0, 0.0, 0.0, 0.0, 0.0, 1.741279691777019E9, 0.0, 2025-03-06 10:48:11.777
33.0, -37881.4906336654, -44208.21895697343, -49721.209671641554, -48706.55223209289, -23410.300720965948, -26523.854020101313, -56631.78791186666, -43858.3023975256, 0.044, 0.92, -0.384, 192.0, 0.0, 0.0, 0.0, 0.0, 0.0, 0.0, 0.0, 0.0, 0.0, 1.741279691777039E9, 0.0, 2025-03-06 10:48:11.777
34.0, -37885.26807847835, -44222.30055598028, -49724.60713679876, -48720.79029331092, -23358.33291510736, -26535.521630706982, -56651.524502220695, -43863.53270572814, 0.044, 0.92, -0.384, 192.0, 0.0, 0.0, 0.0, 0.0, 0.0, 0.0, 0.0, 0.0, 0.0, 1.741279691777059E9, 0.0, 2025-03-06 10:48:11.777
35.0, -37895.68399139452, -44232.24708226289, -49735.80536077087, -48730.4015434267, -23370.514615835502, -26557.560450739915, -56665.293176805164, -43880.25181058071, 0.044, 0.92, -0.384, 192.0, 0.0, 0.0, 0.0, 0.0, 0.0, 0.0, 0.0, 0.0, 0.0, 1.74127969177708E9, 0.0, 2025-03-06 10:48:11.777
36.0, -37892.77826461533, -44228.42493396103, -49737.52644509393, -48732.5026074055, -23421.54364842697, -26561.15908159722, -56663.68385120438, -43871.98166513225, 0.044, 0.92, -0.384, 192.0, 0.0, 0.0, 0.0, 0.0, 0.0, 0.0, 0.0, 0.0, 0.0, 1.741279691777099E9, 0.0, 2025-03-06 10:48:11.777
37.0, -37890.319572725246, -44229.60957641716, -49741.59446258479, -48734.82718882885, -23440.676741680712, -26561.62846823078, -56663.08035410409, -43860.73873767123, 0.044, 0.92, -0.384, 192.0, 0.0, 0.0, 0.0, 0.0, 0.0, 0.0, 0.0, 0.0, 0.0, 1.741279691777126E9, 0.0, 2025-03-06 10:48:11.777
38.0, -37903.954136842985, -44243.244140534895, -49756.34661392529, -48750.18283726965, -23385.33382240937, -26575.240680604064, -56676.58080775509, -43880.74354895873, 0.044, 0.92, -0.384, 192.0, 0.0, 0.0, 0.0, 0.0, 0.0, 0.0, 0.0, 0.0, 0.0, 1.741279691777145E9, 0.0, 2025-03-06 10:48:11.777
39.0, -37906.56929094426, -44240.47252422244, -49752.524465623435, -48742.829113343854, -23417.497982680557, -26566.523500266496, -56670.9258164079, -43874.418005277876, 0.044, 0.92, -0.384, 192.0, 0.0, 0.0, 0.0, 0.0, 0.0, 0.0, 0.0, 0.0, 0.0, 1.741279691777165E9, 0.0, 2025-03-06 10:48:11.777
40.0, -37908.133913056125, -44237.7903148878, -49756.145448225194, -48744.21492150008, -23466.02361989303, -26571.64204974676, -56670.63524372998, -43872.026368621155, 0.044, 0.92, -0.384, 192.0, 0.0, 0.0, 0.0, 0.0, 0.0, 0.0, 0.0, 0.0, 0.0, 1.741279691777184E9, 0.0, 2025-03-06 10:48:11.777
41.0, -37911.55372995779, -44241.94773935649, -49762.13571573922, -48752.14979078172, -23469.73400947261, -26577.542910282962, -56682.772240969214, -43882.107005370504, 0.046, 0.912, -0.38, 192.0, 1.0, 112.0, 28.0, 128.0, 244.0, 32.0, 0.0, 0.0, 0.0, 1.741279691777205E9, 0.0, 2025-03-06 10:48:11.777
42.0, -37920.40502076209, -44251.80485866128, -49770.11528850976, -48763.48212522056, -23429.366758986325, -26582.482645807584, -56685.27563634821, -43887.49377578423, 0.046, 0.912, -0.38, 192.0, 0.0, 0.0, 0.0, 0.0, 0.0, 0.0, 0.0, 0.0, 0.0, 1.741279691777226E9, 0.0, 2025-03-06 10:48:11.777
43.0, -37936.36416630318, -44268.769832702856, -49780.01711130347, -48776.17791607117, -23416.49215418007, -26591.132770911787, -56696.67502602041, -43891.71825548628, 0.046, 0.912, -0.38, 192.0, 0.0, 0.0, 0.0, 0.0, 0.0, 0.0, 0.0, 0.0, 0.0, 1.741279691777246E9, 0.0, 2025-03-06 10:48:11.777
44.0, -37929.815105177775, -44265.61823673466, -49779.39126245872, -48771.88638113575, -23463.83314893641, -26596.78776225898, -56695.9821219423, -43893.282877598154, 0.046, 0.912, -0.38, 192.0, 0.0, 0.0, 0.0, 0.0, 0.0, 0.0, 0.0, 0.0, 0.0, 1.741279691777265E9, 0.0, 2025-03-06 10:48:11.777
45.0, -37932.4526110235, -44270.312103070275, -49783.928666583146, -48775.552067226425, -23463.184948347207, -26601.68279429469, -56699.93838071089, -43907.69975277183, 0.046, 0.912, -0.38, 192.0, 0.0, 0.0, 0.0, 0.0, 0.0, 0.0, 0.0, 0.0, 0.0, 1.74127969183732E9, 0.0, 2025-03-06 10:48:11.837
46.0, -37935.78302094734, -44271.47439378195, -49789.82952711934, -48780.916485895694, -23416.78272685799, -26607.963634486634, -56707.113290681045, -43905.82220623758, 0.046, 0.912, -0.38, 192.0, 0.0, 0.0, 0.0, 0.0, 0.0, 0.0, 0.0, 0.0, 0.0, 1.741279691837369E9, 0.0, 2025-03-06 10:48:11.837
47.0, -37949.55169553181, -44282.22558286495, -49802.726483670056, -48795.06514013591, -23406.67973836419, -26616.300835168462, -56712.500061094775, -43915.88049124247, 0.046, 0.912, -0.38, 192.0, 0.0, 0.0, 0.0, 0.0, 0.0, 0.0, 0.0, 0.0, 0.0, 1.741279691837398E9, 0.0, 2025-03-06 10:48:11.837
48.0, -37956.726605501965, -44285.64539976662, -49808.67204769517, -48801.904773939226, -23471.16452111775, -26613.573922344916, -56709.50492733776, -43894.17694737637, 0.046, 0.912, -0.38, 192.0, 0.0, 0.0, 0.0, 0.0, 0.0, 0.0, 0.0, 0.0, 0.0, 1.741279691837418E9, 0.0, 2025-03-06 10:48:11.837
49.0, -37963.454480583016, -44288.72994050145, -49814.751722187015, -48803.40234081773, -23506.83790526842, -26623.87807653881, -56700.02778768871, -43877.48019426825, 0.046, 0.912, -0.38, 192.0, 0.0, 0.0, 0.0, 0.0, 0.0, 0.0, 0.0, 0.0, 0.0, 1.741279691837438E9, 0.0, 2025-03-06 10:48:11.837
50.0, -37969.869431241685, -44298.94468771752, -49826.19581534813, -48809.97375368759, -23480.149922388784, -26631.097689997878, -56729.64384909199, -43943.99898576725, 0.046, 0.912, -0.38, 192.0, 0.0, 0.0, 0.0, 0.0, 0.0, 0.0, 0.0, 0.0, 0.0, 1.741279691837458E9, 0.0, 2025-03-06 10:48:11.837
51.0, -37982.78873953685, -44317.362525148696, -49839.1151236433, -48829.62093706381, -23435.133509055795, -26647.526222172528, -56751.68266912492, -43925.04470646915, 0.04, 0.912, -0.384, 192.0, 1.0, 64.0, 28.0, 128.0, 244.0, 0.0, 0.0, 0.0, 0.0, 1.741279691837477E9, 0.0, 2025-03-06 10:48:11.837
52.0, -37967.27662888487, -44304.3091063868, -49819.80321643391, -48810.04080892096, -23485.246120124593, -26635.724501100125, -56735.36589567255, -43961.455698186845, 0.04, 0.912, -0.384, 192.0, 0.0, 0.0, 0.0, 0.0, 0.0, 0.0, 0.0, 0.0, 0.0, 1.741279691837521E9, 0.0, 2025-03-06 10:48:11.837
53.0, -37963.432128838554, -44298.76587376188, -49816.495158254525, -48793.99225640205, -23520.472469386157, -26619.899466025767, -56735.56706137265, -44005.75685569726, 0.04, 0.912, -0.384, 192.0, 0.0, 0.0, 0.0, 0.0, 0.0, 0.0, 0.0, 0.0, 0.0, 1.741279691837537E9, 0.0, 2025-03-06 10:48:11.837
54.0, -37972.12695743167, -44311.975754734965, -49830.755571217014, -48808.49853855355, -23488.442419581705, -26633.17640223222, -56736.77405557324, -43970.70932039134, 0.04, 0.912, -0.384, 192.0, 0.0, 0.0, 0.0, 0.0, 0.0, 0.0, 0.0, 0.0, 0.0, 1.741279691837551E9, 0.0, 2025-03-06 10:48:11.837
55.0, -37982.83344302576, -44328.38193516516, -49842.55729228941, -48826.49169284006, -23449.05864585145, -26651.571887918937, -56748.17344524544, -43970.10582329104, 0.04, 0.912, -0.384, 192.0, 0.0, 0.0, 0.0, 0.0, 0.0, 0.0, 0.0, 0.0, 0.0, 1.741279691837564E9, 0.0, 2025-03-06 10:48:11.837
56.0, -37982.14053894765, -44328.80661830981, -49839.360992832306, -48827.87750099629, -23479.322907843936, -26649.917858829245, -56748.32990745663, -43975.716111149326, 0.04, 0.912, -0.384, 192.0, 0.0, 0.0, 0.0, 0.0, 0.0, 0.0, 0.0, 0.0, 0.0, 1.741279691837578E9, 0.0, 2025-03-06 10:48:11.837
57.0, -37996.646821099144, -44338.462571914504, -49852.88379822777, -48835.6782598112, -23499.5959400649, -26662.546594446492, -56762.00917506328, -44000.101864350065, 0.04, 0.912, -0.384, 192.0, 0.0, 0.0, 0.0, 0.0, 0.0, 0.0, 0.0, 0.0, 0.0, 1.741279691837591E9, 0.0, 2025-03-06 10:48:11.837
58.0, -37994.054018742325, -44336.29445270234, -49851.22976913807, -48835.36533538882, -23492.666899283755, -26665.787597392515, -56759.9975180623, -43987.60723919955, 0.04, 0.912, -0.384, 192.0, 0.0, 0.0, 0.0, 0.0, 0.0, 0.0, 0.0, 0.0, 0.0, 1.741279691837609E9, 0.0, 2025-03-06 10:48:11.837
59.0, -37980.03947496885, -44324.60449035221, -49837.81872246489, -48822.53543407148, -23478.7417624881, -26656.958658332667, -56749.62630863504, -43981.52756470771, 0.04, 0.912, -0.384, 192.0, 0.0, 0.0, 0.0, 0.0, 0.0, 0.0, 0.0, 0.0, 0.0, 1.741279691837622E9, 0.0, 2025-03-06 10:48:11.837
60.0, -37986.83440528326, -44328.87367354318, -49843.87604521228, -48827.81044576293, -23514.348091405405, -26664.62530668084, -56755.52716917124, -43977.30308500565, 0.04, 0.912, -0.384, 192.0, 0.0, 0.0, 0.0, 0.0, 0.0, 0.0, 0.0, 0.0, 0.0, 1.741279691896601E9, 0.0, 2025-03-06 10:48:11.896
61.0, -37994.90338503163, -44338.10494400322, -49853.91197847271, -48840.506236613546, -23551.85431860141, -26679.1986440657, -56765.58545417613, -43981.6840269189, 0.046, 0.91, -0.386, 192.0, 1.0, 112.0, 28.0, 112.0, 243.0, 240.0, 0.0, 0.0, 0.0, 1.741279691896636E9, 0.0, 2025-03-06 10:48:11.896
62.0, -38002.92766129108, -44351.895970332145, -49867.14421119025, -48856.80065832146, -23534.621123626366, -26699.96341466468, -56777.4542304819, -43991.49644273477, 0.046, 0.91, -0.386, 192.0, 0.0, 0.0, 0.0, 0.0, 0.0, 0.0, 0.0, 0.0, 0.0, 1.74127969189666E9, 0.0, 2025-03-06 10:48:11.896
63.0, -38016.94220506456, -44367.58689493977, -49884.71268233212, -48871.39634745078, -23467.141207115797, -26702.466810043672, -56789.99355912132, -43998.5372422382, 0.046, 0.91, -0.386, 192.0, 0.0, 0.0, 0.0, 0.0, 0.0, 0.0, 0.0, 0.0, 0.0, 1.741279691896676E9, 0.0, 2025-03-06 10:48:11.896
64.0, -38026.218179013515, -44374.337121765275, -49887.1266707333, -48873.45270794067, -23479.12174214384, -26705.46194380068, -56793.368672534074, -43999.3866085275, 0.046, 0.91, -0.386, 192.0, 0.0, 0.0, 0.0, 0.0, 0.0, 0.0, 0.0, 0.0, 0.0, 1.741279691896692E9, 0.0, 2025-03-06 10:48:11.896
65.0, -38024.98883306847, -44365.70934840552, -49885.53969687697, -48869.27293172752, -23519.488992630126, -26700.74572572061, -56787.065480597674, -43985.79674789867, 0.046, 0.91, -0.386, 192.0, 0.0, 0.0, 0.0, 0.0, 0.0, 0.0, 0.0, 0.0, 0.0, 1.741279691896709E9, 0.0, 2025-03-06 10:48:11.896
66.0, -38030.88969360467, -44369.03975832937, -49896.045016770964, -48875.866696341836, -23526.730957833643, -26706.691289745726, -56792.13932658903, -43993.46339624684, 0.046, 0.91, -0.386, 192.0, 0.0, 0.0, 0.0, 0.0, 0.0, 0.0, 0.0, 0.0, 0.0, 1.741279691896726E9, 0.0, 2025-03-06 10:48:11.896
67.0, -38027.268711002915, -44369.64325542966, -49892.267571958015, -48875.91139983075, -23498.61246330887, -26710.133458391843, -56800.789451693236, -43994.20100381387, 0.046, 0.91, -0.386, 192.0, 0.0, 0.0, 0.0, 0.0, 0.0, 0.0, 0.0, 0.0, 0.0, 1.741279691896747E9, 0.0, 2025-03-06 10:48:11.896
68.0, -38022.23956850047, -44373.24188628696, -49885.4726416436, -48876.9395800757, -23506.16735293476, -26715.18495263874, -56800.074195870664, -44002.89583240698, 0.046, 0.91, -0.386, 192.0, 0.0, 0.0, 0.0, 0.0, 0.0, 0.0, 0.0, 0.0, 0.0, 1.741279691896763E9, 0.0, 2025-03-06 10:48:11.896
69.0, -38024.474742946004, -44380.21563055702, -49889.07127250091, -48882.52751618952, -23550.13323427835, -26712.972129937665, -56807.94200991893, -44009.42254178793, 0.046, 0.91, -0.386, 192.0, 0.0, 0.0, 0.0, 0.0, 0.0, 0.0, 0.0, 0.0, 0.0, 1.74127969189678E9, 0.0, 2025-03-06 10:48:11.896
70.0, -38033.59425468377, -44380.550906723845, -49896.84967957136, -48884.5391731905, -23569.221624043184, -26721.219923641675, -56813.17231812148, -43999.766588183236, 0.046, 0.91, -0.386, 192.0, 0.0, 0.0, 0.0, 0.0, 0.0, 0.0, 0.0, 0.0, 0.0, 1.741279691896797E9, 0.0, 2025-03-06 10:48:11.896
71.0, -38042.780821654895, -44388.798700427855, -49908.11495877683, -48897.01144659656, -23529.726091590655, -26733.960417981198, -56818.42497806847, -44018.497350036785, 0.048, 0.91, -0.386, 192.0, 1.0, 128.0, 28.0, 112.0, 243.0, 240.0, 0.0, 0.0, 0.0, 1.741279691896813E9, 0.0, 2025-03-06 10:48:11.896
72.0, -38054.15785958265, -44399.37107555522, -49914.48520594659, -48904.96866762265, -23522.394719409316, -26743.012874485597, -56826.04692292773, -44035.61878628955, 0.048, 0.91, -0.386, 192.0, 0.0, 0.0, 0.0, 0.0, 0.0, 0.0, 0.0, 0.0, 0.0, 1.74127969189683E9, 0.0, 2025-03-06 10:48:11.896
73.0, -38043.205504799545, -44393.58197374129, -49907.086778531884, -48899.15721406427, -23573.736676423156, -26729.132441178852, -56824.549356049225, -44033.13774265501, 0.048, 0.91, -0.386, 192.0, 0.0, 0.0, 0.0, 0.0, 0.0, 0.0, 0.0, 0.0, 0.0, 1.741279691896844E9, 0.0, 2025-03-06 10:48:11.896
74.0, -38034.890655862175, -44386.07178760431, -49902.124691262805, -48885.947333091186, -23603.01746165961, -26718.33654860694, -56821.621277525584, -44030.12025715355, 0.048, 0.91, -0.386, 192.0, 0.0, 0.0, 0.0, 0.0, 0.0, 0.0, 0.0, 0.0, 0.0, 1.741279691896857E9, 0.0, 2025-03-06 10:48:11.896
75.0, -38036.365870996226, -44386.295305048865, -49903.93518256369, -48888.67424591473, -23569.936879865752, -26726.33847312194, -56823.74469324884, -44025.225225117836, 0.048, 0.91, -0.386, 192.0, 0.0, 0.0, 0.0, 0.0, 0.0, 0.0, 0.0, 0.0, 0.0, 1.741279691956515E9, 0.0, 2025-03-06 10:48:11.956
76.0, -38058.69526370708, -44402.857947690245, -49920.386066482795, -48908.030856613026, -23533.838812570433, -26733.24516215863, -56831.63485904156, -44027.99684143029, 0.048, 0.91, -0.386, 192.0, 0.0, 0.0, 0.0, 0.0, 0.0, 0.0, 0.0, 0.0, 0.0, 1.741279691956558E9, 0.0, 2025-03-06 10:48:11.956
77.0, -38070.02759814592, -44416.17958738561, -49930.712572421144, -48919.273784074045, -23575.077781090473, -26733.513383092093, -56837.759237022314, -44023.392382072496, 0.048, 0.91, -0.386, 192.0, 0.0, 0.0, 0.0, 0.0, 0.0, 0.0, 0.0, 0.0, 0.0, 1.741279691956572E9, 0.0, 2025-03-06 10:48:11.956
78.0, -38078.945944183586, -44430.261186392454, -49941.709630693156, -48929.488531290124, -23585.404287028825, -26758.994371771143, -56850.87971101758, -44039.686803780416, 0.048, 0.91, -0.386, 192.0, 0.0, 0.0, 0.0, 0.0, 0.0, 0.0, 0.0, 0.0, 0.0, 1.74127969195659E9, 0.0, 2025-03-06 10:48:11.956
79.0, -38073.64858074768, -44427.98130845801, -49938.893310891784, -48924.05705738748, -23568.90869962081, -26752.28884843455, -56854.25482443033, -44075.404891419996, 0.048, 0.91, -0.386, 192.0, 0.0, 0.0, 0.0, 0.0, 0.0, 0.0, 0.0, 0.0, 0.0, 1.741279691956604E9, 0.0, 2025-03-06 10:48:11.956
80.0, -38086.03144717592, -44437.950186485075, -49945.91175865076, -48929.06384814547, -23537.41509168328, -26749.941915266743, -56854.43363838597, -44063.75963255878, 0.048, 0.91, -0.386, 192.0, 0.0, 0.0, 0.0, 0.0, 0.0, 0.0, 0.0, 0.0, 0.0, 1.741279691956618E9, 0.0, 2025-03-06 10:48:11.956
81.0, -38096.22384264754, -44445.97446274453, -49953.511351765555, -48935.63526101533, -23580.28573754856, -26755.753368825124, -56854.94772850844, -44048.96277772937, 0.052000000000000005, 0.912, -0.388, 192.0, 1.0, 160.0, 28.0, 128.0, 243.0, 224.0, 0.0, 0.0, 0.0, 1.741279691956631E9, 0.0, 2025-03-06 10:48:11.956
82.0, -38099.21897640455, -44448.74607905699, -49958.24992159008, -48937.736324994126, -23616.58497054398, -26755.082816491464, -56856.82527504269, -44065.03368199273, 0.052000000000000005, 0.912, -0.388, 192.0, 0.0, 0.0, 0.0, 0.0, 0.0, 0.0, 0.0, 0.0, 0.0, 1.74127969195665E9, 0.0, 2025-03-06 10:48:11.956
83.0, -38097.5425955704, -44448.36609940125, -49954.24895933258, -48934.20474937019, -23598.345947068447, -26746.231525687163, -56857.562882609716, -44042.9948619598, 0.052000000000000005, 0.912, -0.388, 192.0, 0.0, 0.0, 0.0, 0.0, 0.0, 0.0, 0.0, 0.0, 0.0, 1.741279691956664E9, 0.0, 2025-03-06 10:48:11.956
84.0, -38112.11593295526, -44464.07937575333, -49968.97875892863, -48949.31452862198, -23544.075911530963, -26765.208156729717, -56872.31503395022, -44057.03175747774, 0.052000000000000005, 0.912, -0.388, 192.0, 0.0, 0.0, 0.0, 0.0, 0.0, 0.0, 0.0, 0.0, 0.0, 1.741279691956678E9, 0.0, 2025-03-06 10:48:11.956
85.0, -38110.327793398836, -44460.883076296224, -49960.82037220244, -48933.757714481086, -23575.68127819077, -26754.121691479886, -56865.788324569265, -44095.0073713073, 0.052000000000000005, 0.912, -0.388, 192.0, 0.0, 0.0, 0.0, 0.0, 0.0, 0.0, 0.0, 0.0, 0.0, 1.741279691956692E9, 0.0, 2025-03-06 10:48:11.956
86.0, -38105.365706129756, -44459.206695462075, -49954.67364247723, -48933.265976103066, -23613.992168187164, -26746.745615809636, -56868.314071692716, -44078.98117053285, 0.052000000000000005, 0.912, -0.388, 192.0, 0.0, 0.0, 0.0, 0.0, 0.0, 0.0, 0.0, 0.0, 0.0, 1.741279691956705E9, 0.0, 2025-03-06 10:48:11.956
87.0, -38105.18689217411, -44463.408823419675, -49957.86994193435, -48938.4515808167, -23614.036871676075, -26761.944802039245, -56870.146914738056, -44073.303827441196, 0.052000000000000005, 0.912, -0.388, 192.0, 0.0, 0.0, 0.0, 0.0, 0.0, 0.0, 0.0, 0.0, 0.0, 1.741279691956718E9, 0.0, 2025-03-06 10:48:11.956
88.0, -38111.82536027734, -44471.41074793467, -49964.8436862044, -48943.65953727478, -23562.583155939956, -26774.35002021194, -56882.41802244401, -44101.93641208845, 0.052000000000000005, 0.912, -0.388, 192.0, 0.0, 0.0, 0.0, 0.0, 0.0, 0.0, 0.0, 0.0, 0.0, 1.741279691956732E9, 0.0, 2025-03-06 10:48:11.956
89.0, -38118.55323535839, -44476.50694567048, -49969.15757288427, -48947.101705920904, -23558.38102798236, -26778.01570630261, -56885.54726666776, -44102.159929533, 0.052000000000000005, 0.912, -0.388, 192.0, 0.0, 0.0, 0.0, 0.0, 0.0, 0.0, 0.0, 0.0, 0.0, 1.741279691956746E9, 0.0, 2025-03-06 10:48:11.956
90.0, -38104.27047065145, -44462.246532708, -49959.255750090575, -48936.126999393346, -23612.91928445331, -26764.470549162692, -56873.410269428525, -44073.1026617411, 0.052000000000000005, 0.912, -0.388, 192.0, 0.0, 0.0, 0.0, 0.0, 0.0, 0.0, 0.0, 0.0, 0.0, 1.741279692016658E9, 0.0, 2025-03-06 10:48:12.016
91.0, -38104.13636018471, -44465.912218798665, -49962.60851175887, -48944.553607053, -23617.613150788922, -26763.62118287339, -56880.07108927621, -44062.97732150285, 0.048, 0.912, -0.384, 192.0, 1.0, 128.0, 28.0, 128.0, 244.0, 0.0, 0.0, 0.0, 0.0, 1.741279692016709E9, 0.0, 2025-03-06 10:48:12.016
92.0, -38120.34137491481, -44479.0997480273, -49984.40146260279, -48964.04432821803, -23556.90581284831, -26782.57546217149, -56893.124508038105, -44074.555525130694, 0.048, 0.912, -0.384, 192.0, 0.0, 0.0, 0.0, 0.0, 0.0, 0.0, 0.0, 0.0, 0.0, 1.741279692016735E9, 0.0, 2025-03-06 10:48:12.016
93.0, -38133.61831112127, -44485.38058821924, -49992.62690456235, -48967.17357244177, -23552.56957442398, -26790.085648308475, -56896.79019412878, -44100.371789976576, 0.048, 0.912, -0.384, 192.0, 0.0, 0.0, 0.0, 0.0, 0.0, 0.0, 0.0, 0.0, 0.0, 1.741279692016752E9, 0.0, 2025-03-06 10:48:12.016
94.0, -38134.26651171047, -44485.224126008055, -49989.47530859415, -48967.39708988632, -23590.05344987553, -26792.119657053907, -56896.6784354065, -44086.78192934775, 0.048, 0.912, -0.384, 192.0, 0.0, 0.0, 0.0, 0.0, 0.0, 0.0, 0.0, 0.0, 0.0, 1.741279692016766E9, 0.0, 2025-03-06 10:48:12.016
95.0, -38135.07117451086, -44490.7003033996, -49990.05645394998, -48975.73429056815, -23595.306109822526, -26797.662889678824, -56901.84168837568, -44085.70904561389, 0.048, 0.912, -0.384, 192.0, 0.0, 0.0, 0.0, 0.0, 0.0, 0.0, 0.0, 0.0, 0.0, 1.741279692016779E9, 0.0, 2025-03-06 10:48:12.016
96.0, -38128.54446512991, -44497.294068013915, -49993.163346429275, -48979.84701154793, -23563.410170484804, -26800.903892624843, -56905.17209829952, -44098.44953995342, 0.048, 0.912, -0.384, 192.0, 0.0, 0.0, 0.0, 0.0, 0.0, 0.0, 0.0, 0.0, 0.0, 1.741279692016793E9, 0.0, 2025-03-06 10:48:12.016
97.0, -38133.84182856582, -44505.31834427337, -49999.13126219884, -48985.88198255086, -23559.14098729384, -26802.513218225627, -56910.5812204577, -44094.44857769592, 0.048, 0.912, -0.384, 192.0, 0.0, 0.0, 0.0, 0.0, 0.0, 0.0, 0.0, 0.0, 0.0, 1.741279692016817E9, 0.0, 2025-03-06 10:48:12.016
98.0, -38141.642587380724, -44509.34165827533, -50004.78625354603, -48989.4135581748, -23586.5665777405, -26806.536532227583, -56922.82997641921, -44113.089932571645, 0.048, 0.912, -0.384, 192.0, 0.0, 0.0, 0.0, 0.0, 0.0, 0.0, 0.0, 0.0, 0.0, 1.74127969201683E9, 0.0, 2025-03-06 10:48:12.016
99.0, -38144.34714845981, -44509.69928618662, -50006.39557914682, -48988.430081418766, -23597.273063334593, -26813.532628242094, -56922.04766536327, -44112.41938023799, 0.048, 0.912, -0.384, 192.0, 0.0, 0.0, 0.0, 0.0, 0.0, 0.0, 0.0, 0.0, 0.0, 1.741279692016844E9, 0.0, 2025-03-06 10:48:12.016
100.0, -38151.79027936343, -44512.6050129658, -50016.61032636289, -48995.94026755575, -23573.915490378797, -26819.433488778293, -56921.868851407635, -44095.72262712987, 0.048, 0.912, -0.384, 192.0, 0.0, 0.0, 0.0, 0.0, 0.0, 0.0, 0.0, 0.0, 0.0, 1.741279692016858E9, 0.0, 2025-03-06 10:48:12.016
101.0, -38161.46858471258, -44521.23278632555, -50024.92517530027, -49001.70701762522, -23567.880519375864, -26823.054471380052, -56924.19343283099, -44105.959726090405, 0.048, 0.912, -0.384, 192.0, 1.0, 128.0, 28.0, 128.0, 244.0, 0.0, 0.0, 0.0, 0.0, 1.741279692016871E9, 0.0, 2025-03-06 10:48:12.016
102.0, -38159.6580934117, -44522.7080014596, -50019.89603279782, -49002.64579089234, -23622.262313635627, -26828.03891039359, -56927.188566587996, -44126.74684843384, 0.048, 0.912, -0.384, 192.0, 0.0, 0.0, 0.0, 0.0, 0.0, 0.0, 0.0, 0.0, 0.0, 1.741279692016886E9, 0.0, 2025-03-06 10:48:12.016
103.0, -38166.2071545371, -44528.273585828974, -50024.0087537776, -49007.5184711836, -23637.95323824325, -26821.7804219461, -56929.490796266895, -44106.18324353496, 0.048, 0.912, -0.384, 192.0, 0.0, 0.0, 0.0, 0.0, 0.0, 0.0, 0.0, 0.0, 0.0, 1.741279692016899E9, 0.0, 2025-03-06 10:48:12.016
104.0, -38170.431634239154, -44533.928577176164, -50034.98346030515, -49017.62145967739, -23621.569409557513, -26836.554925031058, -56933.17883410202, -44099.812996365195, 0.048, 0.912, -0.384, 192.0, 0.0, 0.0, 0.0, 0.0, 0.0, 0.0, 0.0, 0.0, 0.0, 1.741279692016913E9, 0.0, 2025-03-06 10:48:12.016
105.0, -38169.89519237223, -44532.98980390904, -50030.40135269181, -49014.2686980091, -23584.08553410596, -26845.83089898001, -56950.16615988805, -44138.07918287268, 0.048, 0.912, -0.384, 192.0, 0.0, 0.0, 0.0, 0.0, 0.0, 0.0, 0.0, 0.0, 0.0, 1.741279692076895E9, 0.0, 2025-03-06 10:48:12.076
106.0, -38166.92241035967, -44524.45143752712, -50022.28766945454, -49004.88096533787, -23620.988264201675, -26837.851326209468, -56946.679287753024, -44135.91106366051, 0.048, 0.912, -0.384, 192.0, 0.0, 0.0, 0.0, 0.0, 0.0, 0.0, 0.0, 0.0, 0.0, 1.741279692076934E9, 0.0, 2025-03-06 10:48:12.076
107.0, -38177.04775059793, -44529.8605596853, -50034.62583239387, -49018.87315736689, -23657.131034985905, -26844.51214605715, -56953.675383767535, -44113.26874652729, 0.048, 0.912, -0.384, 192.0, 0.0, 0.0, 0.0, 0.0, 0.0, 0.0, 0.0, 0.0, 0.0, 1.741279692076958E9, 0.0, 2025-03-06 10:48:12.076
108.0, -38173.73969241854, -44531.24636784153, -50033.12826551536, -49015.76626488761, -23644.032912735096, -26844.154518145864, -56964.56068331727, -44144.85176144264, 0.048, 0.912, -0.384, 192.0, 0.0, 0.0, 0.0, 0.0, 0.0, 0.0, 0.0, 0.0, 0.0, 1.741279692076974E9, 0.0, 2025-03-06 10:48:12.076
109.0, -38171.16924180618, -44532.31925157538, -50025.61807937838, -49009.35131422893, -23589.38289754187, -26839.8853349549, -56970.57330257575, -44145.87994168758, 0.048, 0.912, -0.384, 192.0, 0.0, 0.0, 0.0, 0.0, 0.0, 0.0, 0.0, 0.0, 0.0, 1.741279692076988E9, 0.0, 2025-03-06 10:48:12.076
110.0, -38164.37431149177, -44527.29010907294, -50017.92907928576, -49004.500985682134, -23648.81618604853, -26838.767747732134, -56960.00092744839, -44155.84881971464, 0.048, 0.912, -0.384, 192.0, 0.0, 0.0, 0.0, 0.0, 0.0, 0.0, 0.0, 0.0, 0.0, 1.741279692077002E9, 0.0, 2025-03-06 10:48:12.077
111.0, -38168.352922004815, -44535.18027486566, -50026.04276252303, -49013.64284916435, -23677.22525325123, -26843.126337900918, -56962.30315712728, -44165.81769774172, 0.044, 0.91, -0.384, 192.0, 1.0, 96.0, 28.0, 112.0, 244.0, 0.0, 0.0, 0.0, 0.0, 1.74127969207702E9, 0.0, 2025-03-06 10:48:12.077
112.0, -38171.68333192865, -44533.88387368726, -50030.93779455874, -49019.320192256, -23689.96574759075, -26853.721064772733, -56960.537369315316, -44140.426116040486, 0.044, 0.91, -0.384, 192.0, 0.0, 0.0, 0.0, 0.0, 0.0, 0.0, 0.0, 0.0, 0.0, 1.741279692077038E9, 0.0, 2025-03-06 10:48:12.077
113.0, -38183.14977683422, -44544.45624881462, -50043.58888192045, -49028.395000504854, -23662.808378077552, -26863.30996314406, -56971.04268920931, -44171.98677921138, 0.044, 0.91, -0.384, 192.0, 0.0, 0.0, 0.0, 0.0, 0.0, 0.0, 0.0, 0.0, 0.0, 1.741279692077051E9, 0.0, 2025-03-06 10:48:12.077
114.0, -38187.03898036945, -44552.07819367388, -50043.47712319817, -49033.6253087074, -23671.749075859676, -26861.253602654175, -56968.0475554523, -44163.71663376292, 0.044, 0.91, -0.384, 192.0, 0.0, 0.0, 0.0, 0.0, 0.0, 0.0, 0.0, 0.0, 0.0, 1.741279692077064E9, 0.0, 2025-03-06 10:48:12.077
115.0, -38180.22169831058, -44546.0655744154, -50036.61513765039, -49024.61755569191, -23711.334015290024, -26852.02233219413, -56958.74922975889, -44146.19286610995, 0.044, 0.91, -0.384, 192.0, 0.0, 0.0, 0.0, 0.0, 0.0, 0.0, 0.0, 0.0, 0.0, 1.741279692077078E9, 0.0, 2025-03-06 10:48:12.077
116.0, -38176.108977330805, -44540.25412085702, -50030.624870136366, -49018.09084631096, -23728.433099798334, -26845.65208502437, -56951.95429944448, -44146.1705143655, 0.044, 0.91, -0.384, 192.0, 0.0, 0.0, 0.0, 0.0, 0.0, 0.0, 0.0, 0.0, 0.0, 1.741279692077092E9, 0.0, 2025-03-06 10:48:12.077
117.0, -38186.32372454688, -44551.22882738458, -50040.12436152987, -49027.433875493276, -23678.63341315191, -26846.143823402384, -56957.13990415811, -44136.849836927635, 0.044, 0.91, -0.384, 192.0, 0.0, 0.0, 0.0, 0.0, 0.0, 0.0, 0.0, 0.0, 0.0, 1.741279692077105E9, 0.0, 2025-03-06 10:48:12.077
118.0, -38199.75712296452, -44562.13647867876, -50053.02131808059, -49035.391096519365, -23662.987192033197, -26861.03008520962, -56964.18070366153, -44137.58744449466, 0.044, 0.91, -0.384, 192.0, 0.0, 0.0, 0.0, 0.0, 0.0, 0.0, 0.0, 0.0, 0.0, 1.741279692077119E9, 0.0, 2025-03-06 10:48:12.077
119.0, -38197.09726537434, -44559.23075189957, -50052.440172724746, -49035.01111686363, -23696.98419534972, -26863.13114918842, -56965.41004960657, -44155.73706099237, 0.044, 0.91, -0.384, 192.0, 0.0, 0.0, 0.0, 0.0, 0.0, 0.0, 0.0, 0.0, 0.0, 1.741279692077133E9, 0.0, 2025-03-06 10:48:12.077
120.0, -38183.373294278776, -44551.45234482913, -50038.69384988474, -49026.2715847816, -23719.11242236047, -26854.481024084216, -56955.619985535144, -44130.3678310356, 0.044, 0.91, -0.384, 192.0, 0.0, 0.0, 0.0, 0.0, 0.0, 0.0, 0.0, 0.0, 0.0, 1.741279692137244E9, 0.0, 2025-03-06 10:48:12.137
121.0, -38189.117692603795, -44562.9187897347, -50046.204036021714, -49036.173407575305, -23672.374924704425, -26861.87945149892, -56969.23219790843, -44146.46108704342, 0.042, 0.906, -0.388, 192.0, 1.0, 80.0, 28.0, 80.0, 243.0, 224.0, 0.0, 0.0, 0.0, 1.741279692137293E9, 0.0, 2025-03-06 10:48:12.137
122.0, -38205.90385268973, -44578.36384515332, -50059.90565537282, -49048.265701325625, -23647.050398236563, -26874.12820746043, -56978.82109627975, -44174.825450757206, 0.042, 0.906, -0.388, 192.0, 0.0, 0.0, 0.0, 0.0, 0.0, 0.0, 0.0, 0.0, 0.0, 1.741279692137313E9, 0.0, 2025-03-06 10:48:12.137
123.0, -38203.020477654994, -44573.20059218414, -50057.64812918283, -49045.69525071326, -23685.02601206613, -26877.682134828825, -56980.318663158265, -44172.83614550068, 0.042, 0.906, -0.388, 192.0, 0.0, 0.0, 0.0, 0.0, 0.0, 0.0, 0.0, 0.0, 0.0, 1.74127969213733E9, 0.0, 2025-03-06 10:48:12.137
124.0, -38197.52194851899, -44571.43480437217, -50054.742402403645, -49046.36580304692, -23717.413689781868, -26877.95035576229, -56973.14375318811, -44146.6175492546, 0.042, 0.906, -0.388, 192.0, 0.0, 0.0, 0.0, 0.0, 0.0, 0.0, 0.0, 0.0, 0.0, 1.741279692137344E9, 0.0, 2025-03-06 10:48:12.137
125.0, -38209.41307656921, -44582.43186264418, -50067.70641418772, -49056.647605496364, -23684.623680665933, -26885.03585875462, -56974.23898866642, -44156.139392392564, 0.042, 0.906, -0.388, 192.0, 0.0, 0.0, 0.0, 0.0, 0.0, 0.0, 0.0, 0.0, 0.0, 1.741279692137358E9, 0.0, 2025-03-06 10:48:12.137
126.0, -38215.828027227886, -44584.35411266734, -50067.50524848762, -49052.49018102768, -23661.422569921324, -26887.382791922428, -56977.27882591234, -44163.18019189599, 0.042, 0.906, -0.388, 192.0, 0.0, 0.0, 0.0, 0.0, 0.0, 0.0, 0.0, 0.0, 0.0, 1.741279692137372E9, 0.0, 2025-03-06 10:48:12.137
127.0, -38213.03405917097, -44579.68259807618, -50064.93479787526, -49051.95373916075, -23711.31166354557, -26889.863835556967, -56980.162200947074, -44144.94116842046, 0.042, 0.906, -0.388, 192.0, 0.0, 0.0, 0.0, 0.0, 0.0, 0.0, 0.0, 0.0, 0.0, 1.741279692137386E9, 0.0, 2025-03-06 10:48:12.137
128.0, -38205.79209396745, -44575.50282186304, -50059.570379205994, -49048.71273621473, -23734.959809179283, -26888.61213786747, -56984.297273671305, -44169.908066977034, 0.042, 0.906, -0.388, 192.0, 0.0, 0.0, 0.0, 0.0, 0.0, 0.0, 0.0, 0.0, 0.0, 1.741279692137409E9, 0.0, 2025-03-06 10:48:12.137
129.0, -38199.399495053236, -44573.93819975117, -50057.7151844162, -49046.075230369, -23714.664425213865, -26888.053344256085, -56985.3031021718, -44168.0752239317, 0.042, 0.906, -0.388, 192.0, 0.0, 0.0, 0.0, 0.0, 0.0, 0.0, 0.0, 0.0, 0.0, 1.741279692137422E9, 0.0, 2025-03-06 10:48:12.137
130.0, -38219.56076855192, -44594.16652848322, -50077.34001604796, -49068.91871320233, -23650.604325604956, -26907.56641716557, -56997.88713430013, -44186.69422706297, 0.042, 0.906, -0.388, 192.0, 0.0, 0.0, 0.0, 0.0, 0.0, 0.0, 0.0, 0.0, 0.0, 1.741279692137435E9, 0.0, 2025-03-06 10:48:12.137
131.0, -38215.02336442749, -44586.522231879506, -50066.16414382031, -49055.84294269597, -23687.50705570067, -26892.300175702596, -56983.98434924893, -44173.193773411964, 0.044, 0.908, -0.384, 192.0, 1.0, 96.0, 28.0, 96.0, 244.0, 0.0, 0.0, 0.0, 0.0, 1.741279692137449E9, 0.0, 2025-03-06 10:48:12.137
132.0, -38216.36446909481, -44588.71270283612, -50068.06404209901, -49057.67578574131, -23725.057986385586, -26892.099010002497, -56983.91729401556, -44144.82940969818, 0.044, 0.908, -0.384, 192.0, 0.0, 0.0, 0.0, 0.0, 0.0, 0.0, 0.0, 0.0, 0.0, 1.741279692137463E9, 0.0, 2025-03-06 10:48:12.137
