%OpenBCI Raw EXG Data
%Number of channels = 16
%Sample Rate = 125 Hz
%Board = OpenBCI_GUI$BoardCytonSerialDaisy
Sample Index, EXG Channel 0, EXG Channel 1, EXG Channel 2, EXG Channel 3, EXG Channel 4, EXG Channel 5, EXG Channel 6, EXG Channel 7, EXG Channel 8, EXG Channel 9, EXG Channel 10, EXG Channel 11, EXG Channel 12, EXG Channel 13, EXG Channel 14, EXG Channel 15, Accel Channel 0, Accel Channel 1, Accel Channel 2, Not Used, Digital Channel 0 (D11), Digital Channel 1 (D12), Digital Channel 2 (D13), Digital Channel 3 (D17), Not Used, Digital Channel 4 (D18), Analog Channel 0, Analog Channel 1, Analog Channel 2, Timestamp, Marker Channel, Timestamp (Formatted)
132.0, -12200.811469651637, -29765.952201599146, -29200.96715700235, -26231.850830537183, -33071.618744327876, 4953.101867807134, 4108.8764797301865, 39348.72619494512, -21011.82443044477, -27425.925722828597, -30233.528343859714, 5912.662257273467, -39133.8365237518, -17754.258841783863, 2878.010616065337, 11619.39789288019, -0.04, 0.47800000000000004, -0.10200000000000001, 192.0, 126.5, 64.0, 14.5, 112.0, 124.5, 80.0, 0.0, 0.0, 0.0, 1.741811594943827E9, 0.0, 2025-03-12 15:33:14.943
134.0, -12186.46164971133, -29761.057169563435, -29195.178055188426, -26220.47379260943, -33064.37677912435, 4962.199027800444, 4122.376933381192, 39362.047834640485, -21008.471668776474, -27421.701243126543, -30220.586683820093, 5918.719580020855, -39125.87930272571, -17745.38519923511, 2850.5179703853096, 11621.3424946478, -0.04, 0.47800000000000004, -0.10200000000000001, 192.0, 0.0, 0.0, 0.0, 0.0, 0.0, 0.0, 0.0, 0.0, 0.0, 1.741811594943896E9, 0.0, 2025-03-12 15:33:14.943
136.0, -12174.257597238731, -29738.3701489413, -29179.44242709189, -26209.85671399316, -33054.63141854184, 4980.303940809244, 4118.19715716805, 39329.77191564702, -20989.450334245008, -27401.584673116766, -30208.20381739185, 5923.279335889738, -39111.574186274316, -17731.75063511737, 2865.538342659276, 11628.427997640134, -0.04, 0.47800000000000004, -0.10200000000000001, 192.0, 0.0, 0.0, 0.0, 0.0, 0.0, 0.0, 0.0, 0.0, 0.0, 1.741811594943919E9, 0.0, 2025-03-12 15:33:14.943
138.0, -12169.474323925297, -29732.715157594106, -29180.403552103468, -26201.251292377867, -33048.70820626119, 4985.489545522874, 4144.192235969572, 39344.03232860951, -20983.191845797523, -27391.884016023163, -30199.956023687846, 5944.17821695545, -39097.40318028965, -17717.110242499144, 2835.4528946224327, 11631.132558719226, -0.04, 0.47800000000000004, -0.10200000000000001, 192.0, 0.0, 0.0, 0.0, 0.0, 0.0, 0.0, 0.0, 0.0, 0.0, 1.741811594943941E9, 0.0, 2025-03-12 15:33:14.943
140.0, -12146.988469003258, -29720.64521558824, -29162.611563517043, -26189.270757349823, -33033.48666828712, 5004.801452732259, 4142.717020835522, 39321.25590100955, -20973.781761381837, -27379.367039128192, -30186.187349103377, 5958.170408984472, -39086.048494106355, -17708.080137739198, 2863.2584647248345, 11637.234584955524, -0.04, 0.47800000000000004, -0.10200000000000001, 192.0, 0.0, 0.0, 0.0, 0.0, 0.0, 0.0, 0.0, 0.0, 0.0, 1.74181159494397E9, 0.0, 2025-03-12 15:33:14.943
142.0, -12162.54528314415, -29738.75012859704, -29185.745619028286, -26210.95194947147, -33045.333092848436, 4984.863696678126, 4154.6305006302, 39359.27621832803, -20978.855607373192, -27380.998716473427, -30190.858863694535, 5959.422106673969, -39084.01448536092, -17711.2317337074, 2837.1739789454914, 11637.189881466615, -0.062, 0.719, -0.15200000000000002, 192.0, 126.5, 48.0, 15.0, 0.0, 124.5, 88.0, 0.0, 0.0, 0.0, 1.741811594943992E9, 0.0, 2025-03-12 15:33:14.943
144.0, -12162.92526279989, -29734.682111106173, -29180.62706954802, -26211.33192912721, -33038.91814218976, 4990.518688025319, 4141.621785357212, 39349.97789263462, -20980.24141552942, -27392.867492779198, -30206.54978830216, 5945.720487322866, -39093.73749419898, -17724.441614680483, 2876.5801044201976, 11632.272497686447, -0.062, 0.719, -0.15200000000000002, 192.0, 0.0, 0.0, 0.0, 0.0, 0.0, 0.0, 0.0, 0.0, 0.0, 1.741811594944014E9, 0.0, 2025-03-12 15:33:14.944
146.0, -12170.16722800341, -29758.41966371771, -29194.216930176848, -26219.020929219834, -33044.32726434794, 4980.572161742707, 4158.810276843343, 39371.94965743419, -20982.85656963069, -27387.793646787843, -30206.236863879785, 5941.630118087544, -39086.473177251006, -17716.84202156568, 2842.2701766813016, 11623.82353828234, -0.062, 0.719, -0.15200000000000002, 192.0, 0.0, 0.0, 0.0, 0.0, 0.0, 0.0, 0.0, 0.0, 0.0, 1.74181159494406E9, 0.0, 2025-03-12 15:33:14.944
148.0, -12175.643405394962, -29755.513936938518, -29195.155703443972, -26227.58164734622, -33044.99781668161, 4985.534249011785, 4147.097962748761, 39368.619247510345, -21001.743793695427, -27405.60798711872, -30225.28055015571, 5930.677763304444, -39106.79091296088, -17733.337608973696, 2890.438185982488, 11626.818672039351, -0.062, 0.719, -0.15200000000000002, 192.0, 0.0, 0.0, 0.0, 0.0, 0.0, 0.0, 0.0, 0.0, 0.0, 1.741811594944077E9, 0.0, 2025-03-12 15:33:14.944
0.0, -6137.520806493856, -14893.771993371487, -14568.107076657663, -13066.092201005484, -16485.97615790083, 2519.756855935676, 2060.7190800570347, 19938.068978556275, -10498.03322530189, -13701.731109825507, -15113.154365200326, 2965.8753235191493, -19549.975639578777, -8863.51720851865, 1421.6380025908952, 5813.264049680716, -0.08600000000000001, 0.966, -0.20600000000000002, 192.0, 126.5, 40.0, 15.0, 24.0, 124.5, 72.0, 0.0, 0.0, 0.0, 1.741811595097053E9, 0.0, 2025-03-12 15:33:15.097
2.0, -12265.989156483312, -29775.228175548098, -29128.838077645076, -26124.875381574082, -32962.72104534162, 5051.136618988111, 4121.438160114069, 39852.98154985685, -21052.057570464323, -27368.772312256377, -30177.06783736561, 6011.613429977111, -39037.25463596042, -17663.197834872943, 2954.341823380211, 11577.890703426685, -0.08600000000000001, 0.966, -0.20600000000000002, 192.0, 0.0, 0.0, 0.0, 0.0, 0.0, 0.0, 0.0, 0.0, 0.0, 1.741811595097077E9, 0.0, 2025-03-12 15:33:15.097
4.0, -12258.054287201678, -29759.201974773645, -29119.740917651765, -26114.526523891276, -32962.09519649687, 5055.674023112539, 4140.191273712072, 39878.954276913915, -21043.07216919329, -27363.966687198485, -30170.742293684758, 6027.751389473843, -39031.68905159105, -17650.25617483332, 2967.797573542306, 11584.283302340902, -0.08600000000000001, 0.966, -0.20600000000000002, 192.0, 0.0, 0.0, 0.0, 0.0, 0.0, 0.0, 0.0, 0.0, 0.0, 1.74181159509712E9, 0.0, 2025-03-12 15:33:15.097
6.0, -12261.630566314527, -29761.9735910861, -29116.701080405845, -26108.916236032994, -32967.81724307743, 5060.47964817043, 4120.074703702296, 39857.921285381475, -21038.02067494639, -27353.97545742696, -30163.567383714606, 6022.677543482488, -39027.39751665563, -17646.232860831366, 2965.048308974303, 11582.204590106558, -0.08600000000000001, 0.966, -0.20600000000000002, 192.0, 0.0, 0.0, 0.0, 0.0, 0.0, 0.0, 0.0, 0.0, 0.0, 1.741811595097139E9, 0.0, 2025-03-12 15:33:15.097
8.0, -12256.266147645254, -29757.145614283756, -29118.980958340286, -26105.965805764892, -32968.04076052198, 5063.7206511164495, 4143.588738869278, 39881.88235543756, -21032.298628365832, -27348.052245146304, -30160.862822635514, 6048.762029261831, -39021.76487705289, -17634.565250225693, 2971.664425333074, 11595.235657124002, -0.084, 0.962, -0.20600000000000002, 192.0, 126.5, 48.0, 15.0, 8.0, 124.5, 72.0, 0.0, 0.0, 0.0, 1.741811595097155E9, 0.0, 2025-03-12 15:33:15.097
10.0, -12273.924025764945, -29775.339934270378, -29134.090737592072, -26124.07071877369, -32971.43822567919, 5046.487456141407, 4124.9026805046415, 39850.008767844294, -21047.386055873165, -27356.36709408368, -30168.507119239228, 6025.896194684052, -39031.86786554669, -17642.76834044079, 2971.0385764883254, 11587.904284942662, -0.084, 0.962, -0.20600000000000002, 192.0, 0.0, 0.0, 0.0, 0.0, 0.0, 0.0, 0.0, 0.0, 0.0, 1.741811595097171E9, 0.0, 2025-03-12 15:33:15.097
12.0, -12281.747136324304, -29782.000754118057, -29142.606752229545, -26137.325303235688, -32973.91926931373, 5030.550662344774, 4139.833645800787, 39870.930000654465, -21060.77475080189, -27376.014277459893, -30187.26023283723, 6016.351999801636, -39047.20116224303, -17668.11521865311, 2956.599349570197, 11577.175447604115, -0.084, 0.962, -0.20600000000000002, 192.0, 0.0, 0.0, 0.0, 0.0, 0.0, 0.0, 0.0, 0.0, 0.0, 1.74181159509719E9, 0.0, 2025-03-12 15:33:15.097
14.0, -12280.629549101539, -29783.095989596368, -29134.180144569895, -26133.70432063393, -32970.61121113434, 5037.61381359265, 4119.582965324279, 39834.988395570326, -21068.955489272535, -27377.13186468266, -30189.92009042741, 6008.037150864262, -39046.93294130957, -17674.01607918931, 2963.5283903513423, 11560.18812181808, -0.084, 0.962, -0.20600000000000002, 192.0, 0.0, 0.0, 0.0, 0.0, 0.0, 0.0, 0.0, 0.0, 0.0, 1.741811595097206E9, 0.0, 2025-03-12 15:33:15.097
16.0, -12271.353575152585, -29773.70825692514, -29133.308426536136, -26126.954093808425, -32968.57720238891, 5039.781932804815, 4136.793808554865, 39850.299340522215, -21051.07409370829, -27372.728571024963, -30180.06297112262, 6022.744598715854, -39039.9144935506, -17662.080247650178, 2944.507055819876, 11564.412601520135, -0.084, 0.962, -0.20600000000000002, 192.0, 0.0, 0.0, 0.0, 0.0, 0.0, 0.0, 0.0, 0.0, 0.0, 1.741811595156852E9, 0.0, 2025-03-12 15:33:15.156
18.0, -12272.42645888644, -29770.60136444585, -29131.76615616872, -26129.770413609793, -32976.109740270345, 5036.250357180877, 4115.827872255787, 39832.41794495797, -21053.510433853917, -27374.114379181192, -30180.21943333381, 6021.671714981999, -39043.73664185246, -17667.8693494641, 2964.0648322182697, 11569.598206233764, -0.08600000000000001, 0.968, -0.20600000000000002, 192.0, 126.5, 40.0, 15.0, 32.0, 124.5, 72.0, 0.0, 0.0, 0.0, 1.741811595156869E9, 0.0, 2025-03-12 15:33:15.156
20.0, -12267.419668128452, -29756.296247994454, -29132.257894546736, -26119.332148949165, -32976.534423414996, 5033.23287167941, 4138.6937068335665, 39845.806639886694, -21038.82533774678, -27362.446768575523, -30168.149491327942, 6031.238261608871, -39032.5160661359, -17659.979183671378, 2927.9444131784935, 11563.429124764101, -0.08600000000000001, 0.968, -0.20600000000000002, 192.0, 0.0, 0.0, 0.0, 0.0, 0.0, 0.0, 0.0, 0.0, 0.0, 1.741811595156907E9, 0.0, 2025-03-12 15:33:15.156
22.0, -12287.268017204764, -29781.41960876222, -29130.626217201498, -26124.942436807447, -32986.01156306405, 5029.164854188544, 4121.326401391792, 39843.727927652355, -21059.34423915675, -27381.021068217884, -30183.34867755755, 6019.123616114094, -39048.229342487975, -17675.424239089996, 2966.3894136416216, 11572.10160161276, -0.08600000000000001, 0.968, -0.20600000000000002, 192.0, 0.0, 0.0, 0.0, 0.0, 0.0, 0.0, 0.0, 0.0, 0.0, 1.741811595156927E9, 0.0, 2025-03-12 15:33:15.156
24.0, -12275.153371709988, -29775.60815520384, -29130.58151371259, -26118.728651848873, -32983.0834845404, 5029.433075122008, 4136.033849243385, 39857.96598887038, -21054.35980014322, -27373.622640803176, -30170.16114832892, 6022.074046382195, -39042.75316509642, -17666.88587270807, 2933.465294058954, 11568.480619011, -0.08600000000000001, 0.968, -0.20600000000000002, 192.0, 0.0, 0.0, 0.0, 0.0, 0.0, 0.0, 0.0, 0.0, 0.0, 1.741811595156942E9, 0.0, 2025-03-12 15:33:15.156
26.0, -12289.369081183564, -29780.32437328391, -29140.326874295104, -26128.451660686933, -32988.35849623186, 5030.461255366952, 4115.202023411039, 39850.74637541132, -21058.60663158973, -27380.439922862046, -30180.554709500637, 6025.739732472865, -39053.21378150151, -17676.49712282385, 2970.055099732292, 11580.327043572313, -0.08600000000000001, 0.968, -0.20600000000000002, 192.0, 0.0, 0.0, 0.0, 0.0, 0.0, 0.0, 0.0, 0.0, 0.0, 1.741811595156967E9, 0.0, 2025-03-12 15:33:15.156
28.0, -12280.0484037457, -29771.875413879803, -29130.067423590117, -26117.342843692644, -32978.45667343815, 5039.6031188491725, 4137.732581821988, 39853.227419045856, -21051.945811742047, -27368.079408178262, -30173.357447786027, 6025.784435961776, -39044.027214530375, -17660.985012171866, 2928.3690963231443, 11567.38538353269, -0.08600000000000001, 0.964, -0.198, 192.0, 126.5, 40.0, 15.0, 16.0, 124.5, 104.0, 0.0, 0.0, 0.0, 1.741811595156982E9, 0.0, 2025-03-12 15:33:15.156
30.0, -12280.674252590448, -29768.254431278045, -29126.4240892439, -26117.432250670463, -32979.44015019419, 5033.925775757525, 4127.316668905815, 39858.2565615483, -21052.079922208777, -27376.461312349, -30178.990087388767, 6035.3062790997365, -39052.856153590226, -17671.17740764349, 2979.375777170155, 11584.305654085358, -0.08600000000000001, 0.964, -0.198, 192.0, 0.0, 0.0, 0.0, 0.0, 0.0, 0.0, 0.0, 0.0, 0.0, 1.741811595217308E9, 0.0, 2025-03-12 15:33:15.217
32.0, -12269.85600827408, -29761.92888759719, -29115.583493183076, -26104.26707318629, -32964.352722686854, 5044.721668329438, 4148.01438427143, 39858.122451081574, -21043.385093615663, -27364.547832554323, -30160.54989821314, 6033.205215120937, -39034.57242662578, -17658.1686923705, 2935.923985949038, 11576.504895270455, -0.08600000000000001, 0.964, -0.198, 192.0, 0.0, 0.0, 0.0, 0.0, 0.0, 0.0, 0.0, 0.0, 0.0, 1.741811595217326E9, 0.0, 2025-03-12 15:33:15.217
34.0, -12285.815153815169, -29771.093102823867, -29125.01592934322, -26116.22525646988, -32972.265240224035, 5039.334897915709, 4140.034811500885, 39877.479061779864, -21049.241250662955, -27368.83936748974, -30166.69662793835, 6042.794113492265, -39037.321691193785, -17660.20270111593, 2986.5730388847637, 11605.696273529085, -0.08600000000000001, 0.964, -0.198, 192.0, 0.0, 0.0, 0.0, 0.0, 0.0, 0.0, 0.0, 0.0, 0.0, 1.74181159521735E9, 0.0, 2025-03-12 15:33:15.217
36.0, -12269.788953040714, -29766.08631206588, -29113.169504781905, -26102.054250485213, -32963.950391286664, 5050.488418398907, 4141.957061524041, 39865.252657562814, -21050.425893119085, -27364.234908131948, -30165.333171526574, 6030.366543575114, -39035.779420826366, -17656.089980136156, 2945.244663386901, 11587.09962214227, -0.08600000000000001, 0.964, -0.198, 192.0, 0.0, 0.0, 0.0, 0.0, 0.0, 0.0, 0.0, 0.0, 0.0, 1.741811595217365E9, 0.0, 2025-03-12 15:33:15.217
38.0, -12272.784086797725, -29767.114492310822, -29109.079135546584, -26099.886131273048, -32961.916382541225, 5050.980156776924, 4148.05908776034, 39870.4606140209, -21043.474500593486, -27364.6595912766, -30156.8171568891, 6047.063296683228, -39030.79498181283, -17654.145378368543, 2984.6731406060626, 11603.170526405636, -0.088, 0.962, -0.188, 192.0, 126.5, 32.0, 15.0, 8.0, 125.0, 16.0, 0.0, 0.0, 0.0, 1.74181159521738E9, 0.0, 2025-03-12 15:33:15.217
40.0, -12273.43228738693, -29760.476024207597, -29109.213246013314, -26100.333166162156, -32966.05145526546, 5045.8169038077485, 4140.995936512463, 39855.28377953575, -21051.230555919476, -27364.480777320958, -30162.762720914212, 6027.393761562558, -39036.38291792666, -17651.798445200737, 2955.6829280475295, 11588.932465187605, -0.088, 0.962, -0.188, 192.0, 0.0, 0.0, 0.0, 0.0, 0.0, 0.0, 0.0, 0.0, 0.0, 1.741811595217396E9, 0.0, 2025-03-12 15:33:15.217
42.0, -12283.915255536469, -29775.474044737108, -29121.774926397196, -26111.97842502337, -32981.96589731764, 5031.5564908452625, 4134.379820153692, 39874.2604105783, -21048.749512284936, -27369.107588423205, -30164.68497093737, 6041.028325680295, -39037.09817374923, -17656.224090602886, 2989.0987860082137, 11599.661302526154, -0.088, 0.962, -0.188, 192.0, 0.0, 0.0, 0.0, 0.0, 0.0, 0.0, 0.0, 0.0, 0.0, 1.741811595217412E9, 0.0, 2025-03-12 15:33:15.217
44.0, -12282.372985169051, -29759.961934085124, -29120.299711263146, -26112.000776767825, -32984.513996185546, 5029.410723377553, 4121.9075467476305, 39849.18175329945, -21053.801006531838, -27371.208652402005, -30170.272907051196, 6017.33547655767, -39044.04956627483, -17664.717753495905, 2955.191189669513, 11573.398002791168, -0.088, 0.962, -0.188, 192.0, 0.0, 0.0, 0.0, 0.0, 0.0, 0.0, 0.0, 0.0, 0.0, 1.741811595217427E9, 0.0, 2025-03-12 15:33:15.217
46.0, -12277.232083944331, -29782.447789007165, -29114.89058910496, -26112.537218634752, -32980.445978694675, 5025.767389031338, 4123.8968520041535, 39859.35179702661, -21055.27622166589, -27380.350515884224, -30173.11157859702, 6024.890366183564, -39048.3187494658, -17671.870311721603, 2984.0025882724035, 11580.81878195033, -0.088, 0.962, -0.188, 192.0, 0.0, 0.0, 0.0, 0.0, 0.0, 0.0, 0.0, 0.0, 0.0, 1.741811595277702E9, 0.0, 2025-03-12 15:33:15.277
48.0, -12269.744249551804, -29765.192242287667, -29111.80604837013, -26111.576093623175, -32979.328391471914, 5024.225118663921, 4113.793863510355, 39833.580235669644, -21045.530861083374, -27372.2591843914, -30160.840470891057, 6013.133348600072, -39035.578255126275, -17668.294032608752, 2951.883131490127, 11565.95487188755, -0.084, 0.962, -0.196, 192.0, 126.5, 48.0, 15.0, 8.0, 124.5, 112.0, 0.0, 0.0, 0.0, 1.741811595277731E9, 0.0, 2025-03-12 15:33:15.277
50.0, -12272.448810630896, -29765.41575973222, -29119.159772295927, -26113.386584924054, -32982.971725818126, 5024.940374486491, 4128.903642762142, 39853.94267486843, -21040.971105214492, -27369.398161101122, -30157.353598756028, 6032.646421509555, -39034.75124058143, -17662.840206961657, 2970.2562654323897, 11582.271645339924, -0.084, 0.962, -0.196, 192.0, 0.0, 0.0, 0.0, 0.0, 0.0, 0.0, 0.0, 0.0, 0.0, 1.741811595277747E9, 0.0, 2025-03-12 15:33:15.277
52.0, -12269.051345473688, -29766.153367299245, -29124.211266542825, -26114.526523891276, -32985.74334213058, 5028.7401710438935, 4119.627668813189, 39824.30426172069, -21046.179061672578, -27368.54879481182, -30164.59556395955, 6012.8204241776975, -39035.73471733746, -17661.54380578325, 2948.2621488883674, 11566.871293410219, -0.084, 0.962, -0.196, 192.0, 0.0, 0.0, 0.0, 0.0, 0.0, 0.0, 0.0, 0.0, 0.0, 1.741811595277762E9, 0.0, 2025-03-12 15:33:15.277
54.0, -12268.157275695477, -29767.963858600124, -29124.457135731835, -26110.92789303397, -32985.65393515276, 5033.344630401687, 4138.112561477728, 39848.891180621526, -21040.948753470035, -27366.850062233218, -30164.21558430381, 6028.801921463242, -39042.95433079652, -17661.409695316517, 2956.1076111921802, 11577.063688881837, -0.084, 0.962, -0.196, 192.0, 0.0, 0.0, 0.0, 0.0, 0.0, 0.0, 0.0, 0.0, 0.0, 1.741811595277777E9, 0.0, 2025-03-12 15:33:15.277
56.0, -12276.494476377306, -29779.85498665035, -29132.034377102183, -26116.068794258692, -32988.04557180948, 5041.905348528069, 4121.594622325257, 39828.193465255914, -21048.525994840384, -27371.052190190818, -30172.01634311871, 6012.194575332949, -39040.22741797297, -17663.130779639578, 2953.4924570909093, 11572.459229524045, -0.084, 0.962, -0.197, 192.0, 126.5, 48.0, 15.0, 8.0, 124.5, 104.0, 0.0, 0.0, 0.0, 1.741811595277795E9, 0.0, 2025-03-12 15:33:15.277
58.0, -12258.322508135141, -29767.449768477654, -29125.887647376974, -26104.959977264403, -32973.51693791353, 5055.875188812636, 4147.813218571332, 39848.28768352124, -21039.741759269447, -27360.815091230284, -30166.808386660625, 6031.126502886594, -39024.91647302109, -17647.30574456522, 2945.825808742739, 11578.225979593513, -0.084, 0.962, -0.197, 192.0, 0.0, 0.0, 0.0, 0.0, 0.0, 0.0, 0.0, 0.0, 0.0, 1.741811595277811E9, 0.0, 2025-03-12 15:33:15.277
60.0, -12273.52169436475, -29777.642163949273, -29141.95855164034, -26123.824849584682, -32981.429455450714, 5047.917967786547, 4125.752046793944, 39842.0068433293, -21047.743683784447, -27366.917117466586, -30169.870575651003, 6017.782511446776, -39030.52676087937, -17653.720695223892, 2964.1989426850014, 11579.991767405483, -0.084, 0.962, -0.197, 192.0, 0.0, 0.0, 0.0, 0.0, 0.0, 0.0, 0.0, 0.0, 0.0, 1.741811595338477E9, 0.0, 2025-03-12 15:33:15.338
62.0, -12257.51784533475, -29754.195184015654, -29131.319121279616, -26113.028957012768, -32963.81628081993, 5056.8586655686695, 4147.813218571332, 39856.84840164762, -21041.30638138132, -27362.64793427562, -30167.05425584963, 6030.612412764122, -39026.838723044246, -17651.530224267273, 2950.318509378256, 11573.95679640255, -0.084, 0.962, -0.197, 192.0, 0.0, 0.0, 0.0, 0.0, 0.0, 0.0, 0.0, 0.0, 0.0, 1.741811595338495E9, 0.0, 2025-03-12 15:33:15.338
64.0, -12269.386621640519, -29772.83653889138, -29133.66605444742, -26120.248570471835, -32964.62094362032, 5057.506866157873, 4134.558634109335, 39840.64338691752, -21042.379265115174, -27361.59740228622, -30170.45172100684, 6025.76208421732, -39026.95048176652, -17652.11136962311, 2968.6692915760627, 11576.035508636895, -0.084, 0.962, -0.197, 192.0, 0.0, 0.0, 0.0, 0.0, 0.0, 0.0, 0.0, 0.0, 0.0, 1.74181159533851E9, 0.0, 2025-03-12 15:33:15.338
66.0, -12253.561586566162, -29766.399236488254, -29127.38521425548, -26112.425459912476, -32957.96012377264, 5065.151162761589, 4157.603282642756, 39853.54034346823, -21038.758282513416, -27356.165928383583, -30165.8696133935, 6035.753313988843, -39018.501522362414, -17647.596317243137, 2952.888959990616, 11578.650662738164, -0.084, 0.961, -0.1985, 192.0, 126.5, 48.0, 15.0, 0.0, 124.5, 96.0, 0.0, 0.0, 0.0, 1.741811595338526E9, 0.0, 2025-03-12 15:33:15.338
68.0, -12256.556720323173, -29764.633448676283, -29126.960531110828, -26114.079489002168, -32961.1787749742, 5067.00635755138, 4144.527512136401, 39829.42281120096, -21036.701922023527, -27348.36516956868, -30166.562517471615, 6041.34125010267, -39016.02047872788, -17646.523433509283, 2979.286370192334, 11589.401851821167, -0.084, 0.961, -0.1985, 192.0, 0.0, 0.0, 0.0, 0.0, 0.0, 0.0, 0.0, 0.0, 0.0, 1.741811595338541E9, 0.0, 2025-03-12 15:33:15.338
70.0, -12259.373040124541, -29759.06786430691, -29129.821554401107, -26112.157238979013, -32962.56458313043, 5063.787706349815, 4159.033794287896, 39840.017538072774, -21029.77288124238, -27346.867602690174, -30163.63443894797, 6048.247939139359, -39019.976737496465, -17642.880099163067, 2957.6498815595965, 11589.558314032354, -0.084, 0.961, -0.1985, 192.0, 0.0, 0.0, 0.0, 0.0, 0.0, 0.0, 0.0, 0.0, 0.0, 1.741811595338567E9, 0.0, 2025-03-12 15:33:15.338
72.0, -12276.159200210477, -29769.595535945362, -29140.77390918421, -26126.194134496945, -32976.08738852589, 5054.489380656407, 4139.207796956039, 39837.02240431576, -21045.508509338917, -27357.93171619555, -30177.380761787983, 6042.8164652367195, -39024.469438131986, -17652.87132893459, 2995.6478471336186, 11591.681729755608, -0.084, 0.961, -0.1985, 192.0, 0.0, 0.0, 0.0, 0.0, 0.0, 0.0, 0.0, 0.0, 0.0, 1.741811595338582E9, 0.0, 2025-03-12 15:33:15.338
74.0, -12259.708316291371, -29757.972628828604, -29137.28703704918, -26117.432250670463, -32972.62286813532, 5057.395107435597, 4154.764611096932, 39839.99518632832, -21042.53572732636, -27355.98711442794, -30172.46337800782, 6036.848549467153, -39028.26923468939, -17651.35141031163, 2952.8442565017053, 11571.118124856726, -0.084, 0.961, -0.1985, 192.0, 0.0, 0.0, 0.0, 0.0, 0.0, 0.0, 0.0, 0.0, 0.0, 1.741811595338597E9, 0.0, 2025-03-12 15:33:15.338
76.0, -12266.905578005979, -29766.533346954984, -29138.404624271945, -26122.528448406276, -32975.99798154807, 5057.842142324704, 4143.901663291653, 39832.619110658066, -21039.45118659153, -27357.976419684463, -30175.816139676113, 6038.457875067935, -39029.94561552353, -17653.1171981236, 2977.073547491258, 11581.824610450818, -0.084, 0.9595, -0.20125, 192.0, 126.5, 48.0, 14.5, 120.0, 124.5, 80.0, 0.0, 0.0, 0.0, 1.741811595397382E9, 0.0, 2025-03-12 15:33:15.397
78.0, -12279.780182812237, -29782.581899473895, -29155.079025635605, -26130.64213164355, -32981.89884208427, 5048.163836975556, 4153.490561662979, 39856.53547722525, -21044.97206747199, -27361.37388484167, -30183.013401390723, 6030.232433108382, -39032.225493457976, -17652.69251497895, 2939.857892973172, 11578.561255760344, -0.084, 0.9595, -0.20125, 192.0, 0.0, 0.0, 0.0, 0.0, 0.0, 0.0, 0.0, 0.0, 0.0, 1.74181159539741E9, 0.0, 2025-03-12 15:33:15.397
80.0, -12276.449772888396, -29768.835576633883, -29144.618409230523, -26126.30589321922, -32974.075731524914, 5055.405802179075, 4144.1475324806615, 39854.009730101796, -21058.584279845272, -27371.09689367973, -30193.898700940455, 6029.137197630072, -39041.523819151385, -17661.364991827606, 2976.179477713046, 11580.841133694785, -0.084, 0.9595, -0.20125, 192.0, 0.0, 0.0, 0.0, 0.0, 0.0, 0.0, 0.0, 0.0, 0.0, 1.741811595397425E9, 0.0, 2025-03-12 15:33:15.397
82.0, -12272.135886208522, -29769.55083245645, -29143.947856896863, -26118.773355337784, -32967.4819669106, 5058.5573981472735, 4163.548846667868, 39850.299340522215, -21039.27237263589, -27353.79664347132, -30178.140721099466, 6034.881595955086, -39022.703650320014, -17647.506910265318, 2927.542081778298, 11567.72065969952, -0.084, 0.9595, -0.20125, 192.0, 0.0, 0.0, 0.0, 0.0, 0.0, 0.0, 0.0, 0.0, 0.0, 1.74181159539744E9, 0.0, 2025-03-12 15:33:15.397
84.0, -12271.867665275058, -29776.010486604035, -29153.894383179475, -26134.799556112237, -32975.215670492136, 5047.470932897441, 4154.138762252183, 39859.41885225998, -21042.580430815273, -27362.536175553345, -30183.68395372438, 6041.609471036133, -39029.92326377908, -17654.570061513194, 2975.598332357208, 11583.00925290695, -0.084, 0.9595, -0.20125, 192.0, 0.0, 0.0, 0.0, 0.0, 0.0, 0.0, 0.0, 0.0, 0.0, 1.741811595397454E9, 0.0, 2025-03-12 15:33:15.397
86.0, -12255.126208678033, -29758.374960228797, -29141.511516751234, -26126.372948452587, -32963.4810046531, 5055.651671368083, 4162.721832123021, 39840.3528142396, -21045.26264014991, -27364.36901859868, -30186.0755903811, 6018.564822502712, -39026.72696432197, -17659.599204015638, 2930.5819190242196, 11561.350412529757, -0.085, 0.96175, -0.202625, 192.0, 126.5, 40.0, 15.0, 16.0, 124.5, 80.0, 0.0, 0.0, 0.0, 1.741811595397469E9, 0.0, 2025-03-12 15:33:15.397
88.0, -12270.615967585562, -29777.59746046036, -29150.67573197791, -26136.230067757377, -32974.90274606976, 5042.352383417176, 4159.816105343832, 39863.06218660619, -21039.317076124797, -27362.22325113097, -30174.87736640899, 6040.491883813368, -39025.45291488802, -17654.994744657844, 2970.5468381103087, 11577.354261559756, -0.085, 0.96175, -0.202625, 192.0, 0.0, 0.0, 0.0, 0.0, 0.0, 0.0, 0.0, 0.0, 0.0, 1.741811595397485E9, 0.0, 2025-03-12 15:33:15.397
90.0, -12260.937662236413, -29759.60430617384, -29145.24425807527, -26125.478878674374, -32960.441167407174, 5051.494246899396, 4145.622747614711, 39834.36254672558, -21046.916669239603, -27359.36222784069, -30184.64507873596, 6023.90688942753, -39030.37029866818, -17657.520491781295, 2934.918157448549, 11553.214377548025, -0.085, 0.96175, -0.202625, 192.0, 0.0, 0.0, 0.0, 0.0, 0.0, 0.0, 0.0, 0.0, 0.0, 1.741811595457727E9, 0.0, 2025-03-12 15:33:15.457
92.0, -12278.170857211455, -29781.821940162416, -29157.29184833668, -26140.007512570326, -32971.46057742364, 5039.7148775714495, 4152.082401762295, 39857.67541619246, -21041.909878481612, -27354.713064993986, -30188.176654359897, 6044.157569904038, -39027.79984805582, -17653.29601207924, 2962.5002101063983, 11570.626386478709, -0.085, 0.96175, -0.202625, 192.0, 0.0, 0.0, 0.0, 0.0, 0.0, 0.0, 0.0, 0.0, 0.0, 1.741811595457753E9, 0.0, 2025-03-12 15:33:15.457
94.0, -12280.026052001245, -29782.581899473895, -29158.632953004, -26143.31557074971, -32975.64035363679, 5040.6536508385725, 4138.6937068335665, 39838.2517502608, -21056.93025075558, -27371.07454193527, -30198.12318064251, 6011.725188699387, -39044.228380230474, -17665.25419536283, 2937.0415731718035, 11549.951022857551, -0.085, 0.96175, -0.202625, 192.0, 0.0, 0.0, 0.0, 0.0, 0.0, 0.0, 0.0, 0.0, 0.0, 1.741811595457768E9, 0.0, 2025-03-12 15:33:15.457
96.0, -12283.937607280923, -29775.205823803644, -29162.030418161205, -26144.343750994656, -32977.33908621539, 5038.820807793237, 4148.550826138357, 39859.865887149084, -21055.231518176977, -27372.147425669125, -30199.93367194339, 6028.779569718787, -39040.54034239535, -17664.941270940457, 2959.661538560574, 11562.423296263612, -0.0805, 0.959875, -0.2043125, 192.0, 126.5, 80.0, 14.5, 120.0, 124.5, 72.0, 0.0, 0.0, 0.0, 1.741811595457784E9, 0.0, 2025-03-12 15:33:15.457
98.0, -12265.18449368292, -29765.996905088057, -29146.76417669823, -26134.352521223132, -32969.404216933755, 5047.962671275458, 4140.034811500885, 39834.22843625885, -21051.387018130663, -27364.100797665214, -30190.568291016614, 6012.082816610672, -39037.47815340497, -17659.375686571086, 2934.24760511489, 11555.606014204743, -0.0805, 0.959875, -0.2043125, 192.0, 0.0, 0.0, 0.0, 0.0, 0.0, 0.0, 0.0, 0.0, 0.0, 1.7418115954578E9, 0.0, 2025-03-12 15:33:15.457
100.0, -12274.035784487223, -29771.249565035054, -29155.39195005798, -26142.533259693773, -32978.30021122697, 5037.747924059382, 4151.233035472994, 39869.14186109804, -21042.088692437257, -27366.09010292174, -30188.199006104354, 6033.629898265588, -39035.04181325934, -17661.856730205625, 2954.185361169024, 11576.43784003709, -0.0805, 0.959875, -0.2043125, 192.0, 0.0, 0.0, 0.0, 0.0, 0.0, 0.0, 0.0, 0.0, 0.0, 1.741811595457825E9, 0.0, 2025-03-12 15:33:15.457
102.0, -12273.05230773119, -29757.950277084146, -29146.16067959794, -26135.872439846094, -32969.605382633854, 5041.055982238768, 4140.481846389991, 39848.39944224351, -21043.698018038038, -27363.98903894294, -30188.109599126532, 6016.821386435197, -39034.28185394786, -17666.058858163222, 2941.243701129401, 11563.920863142117, -0.0805, 0.959875, -0.2043125, 192.0, 0.0, 0.0, 0.0, 0.0, 0.0, 0.0, 0.0, 0.0, 0.0, 1.74181159545784E9, 0.0, 2025-03-12 15:33:15.457
104.0, -12270.303043163187, -29769.349666756352, -29140.036301617183, -26132.139698522056, -32970.11947275633, 5033.054057723768, 4159.659643132644, 39882.70936998241, -21038.467709835495, -27357.21646037298, -30183.616898491015, 6038.524930301301, -39034.81829581479, -17656.40290455853, 2954.274768146845, 11577.175447604115, -0.0805, 0.959875, -0.2043125, 192.0, 0.0, 0.0, 0.0, 0.0, 0.0, 0.0, 0.0, 0.0, 0.0, 1.741811595457856E9, 0.0, 2025-03-12 15:33:15.457
106.0, -12269.900711762992, -29757.480890450584, -29131.654397446444, -26133.32434097819, -32969.00188553356, 5033.456389123963, 4138.850169044754, 39854.345006268624, -21039.49589008044, -27356.590611528234, -30176.889023409967, 6032.065276153717, -39036.98641502696, -17659.599204015638, 2954.9676722249596, 11573.196837091069, -0.08225, 0.9599375, -0.20815625, 192.0, 126.5, 48.0, 15.0, 0.0, 124.5, 48.0, 0.0, 0.0, 0.0, 1.741811595519454E9, 0.0, 2025-03-12 15:33:15.519
108.0, -12273.81226704267, -29764.521689954006, -29138.806955672142, -26135.783032868272, -32974.433359436196, 5026.66145880955, 4152.06005001784, 39877.88139318006, -21038.959448213514, -27358.959896440494, -30176.330229798587, 6044.090514670672, -39032.24784520243, -17660.24740460484, 2947.032802943326, 11576.035508636895, -0.08225, 0.9599375, -0.20815625, 192.0, 0.0, 0.0, 0.0, 0.0, 0.0, 0.0, 0.0, 0.0, 0.0, 1.741811595519473E9, 0.0, 2025-03-12 15:33:15.519
110.0, -12276.181551954933, -29773.931774369692, -29146.563010998132, -26140.543954437253, -32988.11262704285, 5021.967592473936, 4128.635421828678, 39856.870753392075, -21052.83988152026, -27366.246565132926, -30186.79084620367, 6027.796092962753, -39046.06122327581, -17672.317346610707, 2954.565340824764, 11568.212398077536, -0.08225, 0.9599375, -0.20815625, 192.0, 0.0, 0.0, 0.0, 0.0, 0.0, 0.0, 0.0, 0.0, 0.0, 1.741811595519488E9, 0.0, 2025-03-12 15:33:15.519
112.0, -12265.765639038758, -29764.387579487277, -29140.23746731728, -26127.73640486436, -32979.03781879399, 5033.389333890597, 4151.836532573287, 39870.37120704308, -21041.48519533696, -27362.312658108793, -30177.872500166002, 6036.401514578047, -39036.897008049134, -17663.60016627314, 2936.7062970049737, 11564.859636409241, -0.08225, 0.9599375, -0.20815625, 192.0, 0.0, 0.0, 0.0, 0.0, 0.0, 0.0, 0.0, 0.0, 0.0, 1.741811595519502E9, 0.0, 2025-03-12 15:33:15.519
114.0, -12268.850179773592, -29761.213631774623, -29141.24329581777, -26130.97740781038, -32979.37309496082, 5037.323240914731, 4136.123256221206, 39857.407195259, -21037.864212735203, -27356.88118420615, -30174.005648375234, 6034.255747110337, -39031.08555449075, -17658.63807900406, 2949.0668116887587, 11573.710927213542, -0.08225, 0.9599375, -0.20815625, 192.0, 0.0, 0.0, 0.0, 0.0, 0.0, 0.0, 0.0, 0.0, 0.0, 1.74181159551953E9, 0.0, 2025-03-12 15:33:15.519
116.0, -12268.514903606761, -29761.347742241353, -29148.19468834337, -26131.513849677307, -32976.266202481536, 5038.574938604229, 4147.701459849055, 39876.22736409037, -21040.747587769936, -27355.093044649726, -30173.178633830386, 6040.000145435351, -39025.497618376925, -17654.34654406864, 2933.733514992418, 11574.135610358193, -0.085125, 0.9609687499999999, -0.209078125, 192.0, 126.5, 32.0, 15.0, 8.0, 124.5, 56.0, 0.0, 0.0, 0.0, 1.741811595519547E9, 0.0, 2025-03-12 15:33:15.519
118.0, -12269.14075245151, -29754.99984681605, -29140.751557439755, -26132.139698522056, -32971.57233614592, 5041.257147938865, 4138.447837644558, 39860.11175633809, -21035.517279567397, -27356.210631872495, -30177.269003065707, 6033.920470943507, -39027.37516491117, -17655.330020824673, 2950.922006478549, 11573.196837091069, -0.085125, 0.9609687499999999, -0.209078125, 192.0, 0.0, 0.0, 0.0, 0.0, 0.0, 0.0, 0.0, 0.0, 0.0, 1.741811595519563E9, 0.0, 2025-03-12 15:33:15.519
120.0, -12262.792857026203, -29767.18154754419, -29146.607714487043, -26137.012378813313, -32973.04755127997, 5037.032668236812, 4157.11154426474, 39889.63841076355, -21038.44535809104, -27360.32335285227, -30174.54209024216, 6033.786360476775, -39026.68226083306, -17653.9665644129, 2925.7092387329626, 11569.821723678318, -0.085125, 0.9609687499999999, -0.209078125, 192.0, 0.0, 0.0, 0.0, 0.0, 0.0, 0.0, 0.0, 0.0, 0.0, 1.741811595578319E9, 0.0, 2025-03-12 15:33:15.578
122.0, -12263.686926804416, -29764.45463472064, -29140.215115572824, -26136.61004741312, -32965.64912386527, 5045.638089852106, 4143.745201080465, 39866.593762230135, -21037.77480575738, -27358.401102829113, -30174.229165819786, 6027.661982496022, -39028.67156608958, -17654.905337680022, 2955.191189669513, 11570.827552178807, -0.085125, 0.9609687499999999, -0.209078125, 192.0, 0.0, 0.0, 0.0, 0.0, 0.0, 0.0, 0.0, 0.0, 0.0, 1.741811595578346E9, 0.0, 2025-03-12 15:33:15.578
124.0, -12265.542121594206, -29764.968724843115, -29142.763214440733, -26134.911314834513, -32966.56554538793, 5040.631299094117, 4155.077535519306, 39870.773538443274, -21046.35787562822, -27360.770387741377, -30179.928860655888, 6019.4588922809235, -39025.1623422101, -17656.33584932516, 2925.0833898882142, 11570.626386478709, -0.085125, 0.9609687499999999, -0.209078125, 192.0, 0.0, 0.0, 0.0, 0.0, 0.0, 0.0, 0.0, 0.0, 0.0, 1.741811595578361E9, 0.0, 2025-03-12 15:33:15.578
126.0, -12266.704412305882, -29747.512012423518, -29136.035339359685, -26122.79666933974, -32961.06701625192, 5051.606005621673, 4150.227206972505, 39852.26629403428, -21036.388997601152, -27348.74514922442, -30175.480863509285, 6035.373334333102, -39022.81540904229, -17651.06083763371, 2963.5060386068867, 11577.913055171139, -0.0865625, 0.963484375, -0.21053906249999998, 192.0, 126.5, 32.0, 15.0, 24.0, 124.5, 48.0, 0.0, 0.0, 0.0, 1.741811595578377E9, 0.0, 2025-03-12 15:33:15.578
128.0, -12267.28555766172, -29765.348704498854, -29140.550391739656, -26122.684910617463, -32962.966914530625, 5045.593386363195, 4163.526494923412, 39863.12924183956, -21039.719407524994, -27351.18148937005, -30179.906508911434, 6034.680430254988, -39027.10694397771, -17651.284355078264, 2931.431285313521, 11575.990805147983, -0.0865625, 0.963484375, -0.21053906249999998, 192.0, 0.0, 0.0, 0.0, 0.0, 0.0, 0.0, 0.0, 0.0, 0.0, 1.741811595578393E9, 0.0, 2025-03-12 15:33:15.578
130.0, -12281.9483020244, -29770.288440023476, -29147.278266820704, -26137.481765446875, -32970.09712101187, 5035.71391531395, 4152.551788395856, 39868.58306748665, -21045.083826194266, -27364.614887787688, -30184.15334035794, 6032.154683131538, -39032.67252834708, -17660.716791238403, 2977.5429341248196, 11583.322177329324, -0.0865625, 0.963484375, -0.21053906249999998, 192.0, 0.0, 0.0, 0.0, 0.0, 0.0, 0.0, 0.0, 0.0, 0.0, 1.741811595578408E9, 0.0, 2025-03-12 15:33:15.578
132.0, -12269.788953040714, -29771.4283789907, -29133.86722014752, -26125.65769263002, -32959.36828367332, 5038.150255459578, 4160.665471633133, 39854.16619231298, -21051.87875650868, -27366.246565132926, -30187.908433426433, 6014.42974977848, -39026.63755734415, -17664.807160473723, 2934.4264190705326, 11560.657508451643, -0.0865625, 0.963484375, -0.21053906249999998, 192.0, 0.0, 0.0, 0.0, 0.0, 0.0, 0.0, 0.0, 0.0, 0.0, 1.741811595578423E9, 0.0, 2025-03-12 15:33:15.578
134.0, -12267.486723361817, -29765.572221943406, -29132.459060246834, -26127.55759090872, -32964.10685349785, 5039.8936915270915, 4159.458477432547, 39861.07288134967, -21035.047892933835, -27359.18341388505, -30172.44102626336, 6039.933090201985, -39024.06710673179, -17655.866462691603, 2973.4525648894987, 11579.09769762727, -0.0865625, 0.963484375, -0.21053906249999998, 192.0, 0.0, 0.0, 0.0, 0.0, 0.0, 0.0, 0.0, 0.0, 0.0, 1.741811595578438E9, 0.0, 2025-03-12 15:33:15.578
136.0, -12265.028031471735, -29757.436186961677, -29132.637874202475, -26116.538180892254, -32963.883336053295, 5050.331956187721, 4160.799582099865, 39849.69584342192, -21043.58625931576, -27356.098873150215, -30177.44781702135, 6028.623107507599, -39033.03015625836, -17651.619631245092, 2934.605233026175, 11564.993746875973, -0.08728125, 0.9607421875, -0.20926953125, 192.0, 126.5, 32.0, 14.5, 120.0, 124.5, 64.0, 0.0, 0.0, 0.0, 1.741811595637677E9, 0.0, 2025-03-12 15:33:15.637
138.0, -12267.486723361817, -29763.18058528669, -29132.660225946933, -26120.49443966084, -32964.48683315359, 5051.42719166603, 4163.884122834697, 39870.214744831894, -21032.83507023276, -27355.02598941636, -30175.74908444275, 6043.822293737208, -39025.89994977712, -17649.049180632734, 2975.307759679289, 11583.635101751697, -0.08728125, 0.9607421875, -0.20926953125, 192.0, 0.0, 0.0, 0.0, 0.0, 0.0, 0.0, 0.0, 0.0, 0.0, 1.741811595637695E9, 0.0, 2025-03-12 15:33:15.637
140.0, -12257.495493590295, -29749.814242102417, -29123.51836246471, -26114.16889597999, -32954.20503070415, 5055.852837068181, 4170.902570593664, 39854.143840568526, -21028.051796919324, -27345.235925344936, -30164.05912209262, 6033.495787798856, -39017.33923165074, -17642.500119507327, 2934.5158260483536, 11568.927653900106, -0.08728125, 0.9607421875, -0.20926953125, 192.0, 0.0, 0.0, 0.0, 0.0, 0.0, 0.0, 0.0, 0.0, 0.0, 1.74181159563771E9, 0.0, 2025-03-12 15:33:15.637
142.0, -12272.895845520003, -29753.41287295972, -29138.069348105117, -26127.13290776407, -32962.98926627508, 5045.8169038077485, 4176.557561940856, 39878.41783504699, -21035.83020398977, -27350.957971925494, -30170.87640415149, 6042.794113492265, -39024.044754987335, -17647.953945154422, 2968.1104979646802, 11590.608846021754, -0.08728125, 0.9607421875, -0.20926953125, 192.0, 0.0, 0.0, 0.0, 0.0, 0.0, 0.0, 0.0, 0.0, 0.0, 1.741811595637725E9, 0.0, 2025-03-12 15:33:15.637
144.0, -12280.987177012823, -29769.9755156011, -29145.020740630716, -26130.418614199, -32970.56650764543, 5042.687659584005, 4164.711137379544, 39870.32650355417, -21043.765073271403, -27356.165928383583, -30179.81710193361, 6022.699895226943, -39028.224531200474, -17651.753741711826, 2938.5838435392197, 11577.24250283748, -0.08728125, 0.9607421875, -0.20926953125, 192.0, 0.0, 0.0, 0.0, 0.0, 0.0, 0.0, 0.0, 0.0, 0.0, 1.741811595637749E9, 0.0, 2025-03-12 15:33:15.637
146.0, -12267.151447194989, -29762.487681208575, -29135.945932381863, -26126.68587287496, -32965.783234332, 5045.95101427448, 4171.416660716136, 39882.61996300459, -21040.43466334756, -27359.921021452075, -30176.374933287494, 6036.915604700519, -39028.49275213394, -17653.519529523794, 2962.4555066174876, 11584.797392463373, -0.085640625, 0.95937109375, -0.210634765625, 192.0, 126.5, 48.0, 14.5, 120.0, 124.5, 48.0, 0.0, 0.0, 0.0, 1.741811595637764E9, 0.0, 2025-03-12 15:33:15.637
148.0, -12270.057173974177, -29758.28555325098, -29134.80599341464, -26125.590637396654, -32960.731740085095, 5044.274633440332, 4165.180524013105, 39859.105927837605, -21040.725236025482, -27353.34960858221, -30173.24568906375, 6027.974906918395, -39027.598682355725, -17653.720695223892, 2944.1941313975017, 11576.035508636895, -0.085640625, 0.95937109375, -0.210634765625, 192.0, 0.0, 0.0, 0.0, 0.0, 0.0, 0.0, 0.0, 0.0, 0.0, 1.74181159563778E9, 0.0, 2025-03-12 15:33:15.637
150.0, -12281.814191557669, -29764.61109693183, -29145.53483075319, -26134.956018323424, -32973.025199535514, 5033.9034240130695, 4167.549808925368, 39887.29147759575, -21045.888488994657, -27356.724721994964, -30177.850148421545, 6040.581290791189, -39034.48301964796, -17658.21339585941, 2966.0764892192474, 11586.473773297523, -0.085640625, 0.95937109375, -0.210634765625, 192.0, 0.0, 0.0, 0.0, 0.0, 0.0, 0.0, 0.0, 0.0, 0.0, 1.741811595697426E9, 0.0, 2025-03-12 15:33:15.697
152.0, -12281.836543302124, -29758.307904995432, -29148.95464765485, -26136.587695668662, -32977.33908621539, 5037.703220570472, 4143.611090613734, 39856.98251211435, -21049.55417508533, -27360.233945874446, -30184.60037524705, 6022.610488249122, -39040.13801099516, -17661.16382612751, 2949.625605300141, 11566.468962010022, -0.085640625, 0.95937109375, -0.210634765625, 192.0, 0.0, 0.0, 0.0, 0.0, 0.0, 0.0, 0.0, 0.0, 0.0, 1.741811595697443E9, 0.0, 2025-03-12 15:33:15.697
154.0, -12277.0979734776, -29756.095082294356, -29145.24425807527, -26129.636303143063, -32973.65104838026, 5039.6031188491725, 4162.632425145201, 39876.98732340185, -21034.31028536681, -27351.89674519262, -30176.30787805413, 6043.732886759387, -39038.75220283892, -17652.468997534394, 2947.2339686434234, 11577.220151093024, -0.085640625, 0.95937109375, -0.210634765625, 192.0, 0.0, 0.0, 0.0, 0.0, 0.0, 0.0, 0.0, 0.0, 0.0, 1.741811595697458E9, 0.0, 2025-03-12 15:33:15.697
156.0, -12283.848200303102, -29763.247640520054, -29141.44446151787, -26135.64892240154, -32975.126263514314, 5033.635203079606, 4148.953157538553, 39854.81439290218, -21046.87196575069, -27358.244640617926, -30182.991049646265, 6024.778607461287, -39038.238112716455, -17661.141474383054, 2944.6188145421524, 11575.141438858682, -0.0848203125, 0.959685546875, -0.2083173828125, 192.0, 126.5, 48.0, 15.0, 0.0, 124.5, 72.0, 0.0, 0.0, 0.0, 1.741811595697473E9, 0.0, 2025-03-12 15:33:15.697
158.0, -12271.420630385952, -29759.403140473743, -29137.935237638383, -26130.731538621374, -32967.794891332975, 5037.993793248391, 4168.667396148133, 39873.925134411475, -21039.764111013905, -27360.99390518593, -30175.190290831364, 6031.327668586692, -39035.421792915084, -17664.53893954026, 2942.6518610300855, 11579.522380771921, -0.0848203125, 0.959685546875, -0.2083173828125, 192.0, 0.0, 0.0, 0.0, 0.0, 0.0, 0.0, 0.0, 0.0, 0.0, 1.741811595697502E9, 0.0, 2025-03-12 15:33:15.697
160.0, -12278.215560700364, -29761.727721897096, -29141.891496406974, -26133.369044467097, -32971.43822567919, 5038.105551970667, 4151.747125595466, 39853.585046957145, -21042.2675063929, -27361.932678453053, -30175.68202920938, 6018.765988202809, -39033.72306033648, -17665.88004420758, 2947.8821692326273, 11576.169619103626, -0.0848203125, 0.959685546875, -0.2083173828125, 192.0, 0.0, 0.0, 0.0, 0.0, 0.0, 0.0, 0.0, 0.0, 0.0, 1.741811595697521E9, 0.0, 2025-03-12 15:33:15.697
162.0, -12273.0970112201, -29747.489660679064, -29137.219981815815, -26125.590637396654, -32965.47030990962, 5043.492322384396, 4172.333082238803, 39869.857116920604, -21037.73010226847, -27359.451634818513, -30173.715075697313, 6028.891328441064, -39033.70070859203, -17656.872291192092, 2931.2301196134235, 11570.849903923263, -0.0848203125, 0.959685546875, -0.2083173828125, 192.0, 0.0, 0.0, 0.0, 0.0, 0.0, 0.0, 0.0, 0.0, 0.0, 1.741811595697536E9, 0.0, 2025-03-12 15:33:15.697
164.0, -12272.359403653074, -29757.190317772667, -29123.563065953622, -26119.376852438076, -32960.08353949589, 5047.314470686254, 4159.324366965815, 39841.51510495128, -21033.50562256642, -27354.869527205174, -30166.517813982704, 6027.840796451664, -39027.19635095553, -17651.64198298955, 2949.8491227446943, 11572.52628475741, -0.0848203125, 0.959685546875, -0.2083173828125, 192.0, 0.0, 0.0, 0.0, 0.0, 0.0, 0.0, 0.0, 0.0, 0.0, 1.741811595697554E9, 0.0, 2025-03-12 15:33:15.697
166.0, -12284.541104381216, -29770.109626067835, -29141.735034195786, -26130.64213164355, -32971.54998440146, 5032.763485045849, 4177.719852652533, 39870.55002099872, -21037.216012146, -27357.797605728818, -30167.92597388339, 6033.629898265588, -39027.173999211074, -17654.05597139072, 2934.2923086038004, 11567.05010736586, -0.08441015625, 0.9618427734374999, -0.20415869140625, 192.0, 126.5, 48.0, 15.0, 16.0, 124.5, 96.0, 0.0, 0.0, 0.0, 1.741811595759307E9, 0.0, 2025-03-12 15:33:15.759
168.0, -12292.878305063046, -29766.309829510432, -29138.069348105117, -26131.536201421764, -32970.67826636771, 5036.160950203055, 4156.709212864544, 39848.757070154796, -21053.35397164273, -27368.12411166717, -30184.510968269227, 6016.039075379262, -39042.75316509642, -17665.276547107285, 2960.8461810167055, 11562.132723585693, -0.08441015625, 0.9618427734374999, -0.20415869140625, 192.0, 0.0, 0.0, 0.0, 0.0, 0.0, 0.0, 0.0, 0.0, 0.0, 1.741811595759326E9, 0.0, 2025-03-12 15:33:15.759
170.0, -12284.138772981021, -29770.310791767934, -29139.745728939266, -26130.35155896563, -32970.54415590098, 5033.501092612874, 4167.438050203091, 39863.77744242876, -21054.560965843317, -27367.94529771153, -30187.774322959704, 6019.347133558647, -39042.37318544069, -17663.06372440621, 2925.955107921971, 11557.885892139184, -0.08441015625, 0.9618427734374999, -0.20415869140625, 192.0, 0.0, 0.0, 0.0, 0.0, 0.0, 0.0, 0.0, 0.0, 0.0, 1.741811595759341E9, 0.0, 2025-03-12 15:33:15.759
172.0, -12285.256360203786, -29764.387579487277, -29128.927484622895, -26128.429308942475, -32962.072844752416, 5037.5467583592845, 4158.787925098887, 39844.26436951928, -21044.21210816051, -27360.099835407716, -30176.240822820764, 6025.5609185172225, -39038.10400224972, -17653.653639990527, 2947.2563203878785, 11561.640985207676, -0.08441015625, 0.9618427734374999, -0.20415869140625, 192.0, 0.0, 0.0, 0.0, 0.0, 0.0, 0.0, 0.0, 0.0, 0.0, 1.741811595759356E9, 0.0, 2025-03-12 15:33:15.759
174.0, -12286.91038929348, -29761.54890794145, -29138.896362649964, -26133.369044467097, -32967.05728376595, 5027.5108250988515, 4168.667396148133, 39857.85423014811, -21043.183927915565, -27361.910326708596, -30177.894851910456, 6024.488034783368, -39033.03015625836, -17655.53118652477, 2913.4157792825436, 11550.62157519121, -0.08441015625, 0.9618427734374999, -0.20415869140625, 192.0, 0.0, 0.0, 0.0, 0.0, 0.0, 0.0, 0.0, 0.0, 0.0, 1.741811595759371E9, 0.0, 2025-03-12 15:33:15.759
176.0, -12291.604255629094, -29772.41185574673, -29137.510554493732, -26134.732500878872, -32970.879432067806, 5030.014220477846, 4159.302015221359, 39850.34404401112, -21054.2703931654, -27370.068713434783, -30185.561500258627, 6018.922450413997, -39041.18854298455, -17663.55546278423, 2956.9346257370266, 11561.864502652228, -0.082205078125, 0.9599213867187499, -0.20307934570312502, 192.0, 126.5, 64.0, 14.5, 120.0, 124.5, 88.0, 0.0, 0.0, 0.0, 1.741811595759386E9, 0.0, 2025-03-12 15:33:15.759
178.0, -12280.942473523912, -29767.60623068884, -29132.324949780104, -26128.1163845201, -32964.308019197946, 5033.925775757525, 4174.59060842879, 39845.538418953234, -21053.577489087285, -27367.833538989253, -30183.460436279827, 6013.9380114004625, -39037.56756038279, -17658.59337551515, 2926.223328855435, 11553.929633370595, -0.082205078125, 0.9599213867187499, -0.20307934570312502, 192.0, 0.0, 0.0, 0.0, 0.0, 0.0, 0.0, 0.0, 0.0, 0.0, 1.741811595759404E9, 0.0, 2025-03-12 15:33:15.759
180.0, -12297.594523143116, -29777.41864650472, -29140.259819061735, -26138.286428247266, -32975.349780958866, 5029.254261166366, 4165.0464135463735, 39852.51216322329, -21049.12949194068, -27369.018181445383, -30176.330229798587, 6022.8563574381305, -39031.7114033355, -17658.34750632614, 2968.915160765071, 11571.05106962336, -0.082205078125, 0.9599213867187499, -0.20307934570312502, 192.0, 0.0, 0.0, 0.0, 0.0, 0.0, 0.0, 0.0, 0.0, 0.0, 1.741811595759432E9, 0.0, 2025-03-12 15:33:15.759
182.0, -12290.307854450686, -29774.13294006979, -29131.252066046247, -26133.369044467097, -32970.722969856615, 5033.009354234857, 4167.706271136555, 39850.008767844294, -21059.657163579126, -27375.164911170592, -30185.472093280805, 6005.109072340617, -39044.027214530375, -17665.678878507482, 2937.1980353829904, 11557.170636316614, -0.082205078125, 0.9599213867187499, -0.20307934570312502, 192.0, 0.0, 0.0, 0.0, 0.0, 0.0, 0.0, 0.0, 0.0, 0.0, 1.741811595818998E9, 0.0, 2025-03-12 15:33:15.818
184.0, -12291.29133120672, -29767.717989411118, -29131.676749190898, -26126.819983341695, -32973.65104838026, 5045.0569444962675, 4164.800544357365, 39863.308055795205, -21053.912765254114, -27370.64985879062, -30175.570270487104, 6021.068217881706, -39043.69193836355, -17658.77218947079, 2977.4982306359093, 11575.29790106987, -0.082205078125, 0.9599213867187499, -0.20307934570312502, 192.0, 0.0, 0.0, 0.0, 0.0, 0.0, 0.0, 0.0, 0.0, 0.0, 1.741811595819052E9, 0.0, 2025-03-12 15:33:15.819
186.0, -12278.23791244482, -29751.71414038112, -29130.782679412685, -26117.521657648285, -32975.081560025406, 5051.740116088405, 4156.843323331275, 39853.27212253477, -21046.78255877287, -27357.149405139615, -30171.81517741861, 6016.351999801636, -39036.762897582405, -17644.601183486127, 2933.733514992418, 11568.547674244366, -0.08410253906250001, 0.9569606933593751, -0.20153967285156252, 192.0, 126.5, 40.0, 14.5, 104.0, 124.5, 96.0, 0.0, 0.0, 0.0, 1.741811595819077E9, 0.0, 2025-03-12 15:33:15.819
188.0, -12274.19224669841, -29756.65387590574, -29126.513496221723, -26114.615930869095, -32970.38769368979, 5055.159932990066, 4149.891930805675, 39847.21479978738, -21045.217936661, -27354.198974871517, -30170.49642449575, 6029.919508686007, -39033.07485974728, -17640.98020088437, 2966.2329514304342, 11584.193895363082, -0.08410253906250001, 0.9569606933593751, -0.20153967285156252, 192.0, 0.0, 0.0, 0.0, 0.0, 0.0, 0.0, 0.0, 0.0, 0.0, 1.741811595819094E9, 0.0, 2025-03-12 15:33:15.819
190.0, -12287.29036894922, -29767.829748133394, -29134.224848058802, -26124.473050173885, -32971.4829291681, 5036.920909514536, 4148.036736015884, 39826.517084421765, -21039.898221480635, -27350.153309125104, -30167.63540120547, 6017.447235279946, -39025.38585965465, -17642.902450907524, 2925.15044512158, 11565.485485253988, -0.08410253906250001, 0.9569606933593751, -0.20153967285156252, 192.0, 0.0, 0.0, 0.0, 0.0, 0.0, 0.0, 0.0, 0.0, 0.0, 1.741811595819109E9, 0.0, 2025-03-12 15:33:15.819
192.0, -12289.682005605937, -29774.423512747708, -29139.745728939266, -26129.703358376428, -32973.51693791353, 5033.635203079606, 4152.618843629222, 39835.971872326365, -21058.964259501012, -27376.014277459893, -30188.578985760094, 6012.395741033047, -39046.99999654293, -17669.836302976168, 2961.673195561552, 11574.940273158583, -0.08410253906250001, 0.9569606933593751, -0.20153967285156252, 192.0, 0.0, 0.0, 0.0, 0.0, 0.0, 0.0, 0.0, 0.0, 0.0, 1.741811595819124E9, 0.0, 2025-03-12 15:33:15.819
194.0, -12281.814191557669, -29766.84627137736, -29130.246237545758, -26119.667425115997, -32965.3809029318, 5044.609909607161, 4158.318538465326, 39816.50350290579, -21049.35300938523, -27363.4078935871, -30175.9726018873, 6001.756310672321, -39035.712365593005, -17654.614765002105, 2918.981363651915, 11563.898511397661, -0.08410253906250001, 0.9569606933593751, -0.20153967285156252, 192.0, 0.0, 0.0, 0.0, 0.0, 0.0, 0.0, 0.0, 0.0, 0.0, 1.741811595819139E9, 0.0, 2025-03-12 15:33:15.819
196.0, -12284.451697403396, -29766.51099521053, -29129.70979567883, -26122.751965850828, -32965.73853084308, 5044.319336929243, 4168.153306025661, 39831.635633902035, -21050.247079163444, -27371.722742524475, -30173.49155825276, 6013.7591974448205, -39039.690976106045, -17659.755666226825, 2943.791799997306, 11584.909151185651, -0.08105126953125, 0.9584803466796875, -0.20276983642578128, 192.0, 126.5, 72.0, 15.0, 0.0, 124.5, 80.0, 0.0, 0.0, 0.0, 1.741811595879267E9, 0.0, 2025-03-12 15:33:15.879
198.0, -12298.600351643605, -29775.585803459384, -29138.91871439442, -26131.290332232755, -32975.43918793669, 5033.657554824061, 4151.434201173091, 39820.48211341883, -21054.2703931654, -27367.162986655592, -30173.983296630777, 6004.28205779577, -39038.52868539437, -17657.87811969258, 2919.3613433076553, 11574.202665591558, -0.08105126953125, 0.9584803466796875, -0.20276983642578128, 192.0, 0.0, 0.0, 0.0, 0.0, 0.0, 0.0, 0.0, 0.0, 0.0, 1.741811595879285E9, 0.0, 2025-03-12 15:33:15.879
200.0, -12301.14845051151, -29789.734457699593, -29146.38419704249, -26141.25921025982, -32985.341010730386, 5021.744075029383, 4150.607186628245, 39850.63461668904, -21070.989498017967, -27388.88888226615, -30189.11542762702, 6005.511403740812, -39055.18073501358, -17678.285262380276, 2944.9093872200715, 11573.353299302256, -0.08105126953125, 0.9584803466796875, -0.20276983642578128, 192.0, 0.0, 0.0, 0.0, 0.0, 0.0, 0.0, 0.0, 0.0, 0.0, 1.741811595879301E9, 0.0, 2025-03-12 15:33:15.879
202.0, -12289.123211994554, -29771.204861546143, -29129.374519512003, -26123.489573417854, -32966.85611806585, 5038.641993837595, 4140.012459756429, 39803.00304925478, -21062.428779891587, -27372.929736725062, -30178.990087388767, 5997.71064492591, -39044.3624906972, -17664.20366337343, 2917.997886895882, 11551.627403691698, -0.08105126953125, 0.9584803466796875, -0.20276983642578128, 192.0, 0.0, 0.0, 0.0, 0.0, 0.0, 0.0, 0.0, 0.0, 0.0, 1.741811595879328E9, 0.0, 2025-03-12 15:33:15.879
204.0, -12308.412767459486, -29787.722800698615, -29144.931333652894, -26139.2699050033, -32973.40517919126, 5022.436979107497, 4154.406983185647, 39836.97770082685, -21058.673686823095, -27376.014277459893, -30177.246651321253, 6019.704761469932, -39042.95433079652, -17660.44857030494, 2927.2291573559237, 11574.716755714031, -0.08105126953125, 0.9584803466796875, -0.20276983642578128, 192.0, 0.0, 0.0, 0.0, 0.0, 0.0, 0.0, 0.0, 0.0, 0.0, 1.741811595879343E9, 0.0, 2025-03-12 15:33:15.879
206.0, -12301.729595867348, -29787.879262909802, -29144.931333652894, -26140.87923060408, -32972.198184990666, 5023.509862841352, 4130.982354996486, 39812.5472441372, -21071.3247741848, -27385.42436187558, -30190.74710497226, 5995.90015362503, -39048.02817678788, -17674.127837911587, 2924.569299765742, 11561.730392185496, -0.07952563476562499, 0.9592401733398437, -0.20138491821289065, 192.0, 126.5, 72.0, 15.0, 0.0, 124.5, 96.0, 0.0, 0.0, 0.0, 1.741811595879358E9, 0.0, 2025-03-12 15:33:15.879
208.0, -12296.991026042822, -29777.75392267155, -29139.18693532788, -26130.64213164355, -32966.05145526546, 5029.611889077651, 4149.802523827854, 39833.580235669644, -21069.737800328472, -27383.65857406361, -30183.59454674656, 6009.646476465044, -39049.07870877728, -17667.288204108263, 2919.6519159855743, 11563.943214886573, -0.07952563476562499, 0.9592401733398437, -0.20138491821289065, 192.0, 0.0, 0.0, 0.0, 0.0, 0.0, 0.0, 0.0, 0.0, 0.0, 1.74181159587938E9, 0.0, 2025-03-12 15:33:15.879
210.0, -12297.1027847651, -29768.209727789133, -29135.05186260365, -26126.909390319513, -32968.01840877753, 5034.0822379687115, 4137.263195188427, 39813.64247961551, -21060.685343824072, -27376.59542281573, -30177.224299576796, 6001.197517060938, -39046.620016887195, -17663.510759295317, 2934.2923086038004, 11559.47286599551, -0.07952563476562499, 0.9592401733398437, -0.20138491821289065, 192.0, 0.0, 0.0, 0.0, 0.0, 0.0, 0.0, 0.0, 0.0, 0.0, 1.741811595879395E9, 0.0, 2025-03-12 15:33:15.879
212.0, -12301.707244122892, -29777.061018593435, -29142.517345251723, -26129.83746884316, -32972.30994371294, 5023.174586674522, 4154.339927952281, 39842.47622996286, -21063.859291536726, -27374.092027436738, -30175.905546653936, 6012.507499755323, -39042.32848195177, -17663.264890106308, 2925.597480010686, 11572.123953357215, -0.07952563476562499, 0.9592401733398437, -0.20138491821289065, 192.0, 0.0, 0.0, 0.0, 0.0, 0.0, 0.0, 0.0, 0.0, 0.0, 1.741811595938694E9, 0.0, 2025-03-12 15:33:15.938
214.0, -12297.929799309946, -29774.043533091968, -29129.687443934377, -26124.78597459626, -32965.29149595398, 5030.640069322595, 4136.525587621401, 39819.83391282963, -21066.563852615818, -27378.383562372157, -30179.01243913322, 6002.382159517069, -39048.497563421435, -17669.67984076498, 2944.8646837311608, 11568.726488200009, -0.07952563476562499, 0.9592401733398437, -0.20138491821289065, 192.0, 0.0, 0.0, 0.0, 0.0, 0.0, 0.0, 0.0, 0.0, 0.0, 1.74181159593874E9, 0.0, 2025-03-12 15:33:15.938
216.0, -12290.888999806524, -29768.94733535616, -29125.01592934322, -26112.179590723466, -32960.597629618365, 5036.295060669788, 4160.665471633133, 39838.899950850006, -21049.531823340873, -27366.112454666192, -30167.92597388339, 6013.71449395591, -39039.17688598357, -17655.620593502594, 2919.67426773003, 11574.180313847102, -0.07676281738281249, 0.9576200866699218, -0.20169245910644534, 192.0, 126.5, 88.0, 14.5, 112.0, 124.5, 88.0, 0.0, 0.0, 0.0, 1.741811595938755E9, 0.0, 2025-03-12 15:33:15.938
218.0, -12305.439985446928, -29782.581899473895, -29139.14223183897, -26128.272846731288, -32979.686019383196, 5027.153197187567, 4133.597509097756, 39834.60841591459, -21060.730047312984, -27373.95791697001, -30176.240822820764, 6009.266496809304, -39046.03887153135, -17659.040410404257, 2954.766506524862, 11586.317311086335, -0.07676281738281249, 0.9576200866699218, -0.20169245910644534, 192.0, 0.0, 0.0, 0.0, 0.0, 0.0, 0.0, 0.0, 0.0, 0.0, 1.741811595938771E9, 0.0, 2025-03-12 15:33:15.938
220.0, -12299.807345844192, -29773.350629013854, -29137.443499260367, -26119.421555926987, -32978.4343216937, 5031.80236003427, 4137.665526588622, 39834.78722987023, -21067.234404949475, -27380.819902517786, -30187.21552934832, 5997.062444336706, -39051.17977275608, -17665.768285485305, 2926.916232933549, 11571.76632544593, -0.07676281738281249, 0.9576200866699218, -0.20169245910644534, 192.0, 0.0, 0.0, 0.0, 0.0, 0.0, 0.0, 0.0, 0.0, 0.0, 1.741811595938786E9, 0.0, 2025-03-12 15:33:15.938
222.0, -12305.90937208049, -29780.32437328391, -29139.030473116694, -26122.193172239444, -32981.697676384174, 5030.505958855862, 4123.002782225941, 39822.78434309773, -21065.043933992856, -27374.919041981586, -30178.855976922034, 6005.444348507446, -39052.1185460232, -17660.962660427413, 2958.096916448703, 11579.745898216475, -0.07676281738281249, 0.9576200866699218, -0.20169245910644534, 192.0, 0.0, 0.0, 0.0, 0.0, 0.0, 0.0, 0.0, 0.0, 0.0, 1.741811595938801E9, 0.0, 2025-03-12 15:33:15.938
224.0, -12297.460412676384, -29771.2272132906, -29130.492106734768, -26107.105744732115, -32975.059208280945, 5039.312546171253, 4136.145607965661, 39828.95342456739, -21058.897204267647, -27369.398161101122, -30171.658715207424, 6012.8204241776975, -39043.53547615236, -17656.268794091797, 2927.832654456217, 11570.402869034157, -0.07676281738281249, 0.9576200866699218, -0.20169245910644534, 192.0, 0.0, 0.0, 0.0, 0.0, 0.0, 0.0, 0.0, 0.0, 0.0, 1.741811595938828E9, 0.0, 2025-03-12 15:33:15.938
226.0, -12319.007494331301, -29783.207748318644, -29142.85262141855, -26125.680044374472, -32987.643240409285, 5027.019086720835, 4120.409979869125, 39839.41404097248, -21064.59689910375, -27377.780065271865, -30181.649944978948, 6012.127520099583, -39057.34885422574, -17659.845073204648, 2970.3680241546663, 11581.645796495175, -0.07338140869140625, 0.9598100433349609, -0.19984622955322268, 192.0, 126.5, 104.0, 15.0, 8.0, 124.5, 104.0, 0.0, 0.0, 0.0, 1.741811595998469E9, 0.0, 2025-03-12 15:33:15.998
228.0, -12293.280636463242, -29772.009524346537, -29129.553333467644, -26117.856933815117, -32973.78515884699, 5034.171644946533, 4133.9998404979515, 39830.67450889046, -21069.111951483723, -27375.6119460597, -30182.32049731261, 5998.6717699374885, -39050.57627565578, -17660.985012171866, 2915.9638781504486, 11563.071496852815, -0.07338140869140625, 0.9598100433349609, -0.19984622955322268, 192.0, 0.0, 0.0, 0.0, 0.0, 0.0, 0.0, 0.0, 0.0, 0.0, 1.741811595998488E9, 0.0, 2025-03-12 15:33:15.998
230.0, -12298.265075476775, -29767.785044644483, -29124.412432242923, -26118.54983789323, -32973.82986233591, 5031.623546078628, 4134.603337598245, 39837.04475606022, -21053.711599554015, -27372.88503323615, -30173.178633830386, 6012.485148010868, -39045.8153540868, -17662.370820328095, 2955.6829280475295, 11577.778944704407, -0.07338140869140625, 0.9598100433349609, -0.19984622955322268, 192.0, 0.0, 0.0, 0.0, 0.0, 0.0, 0.0, 0.0, 0.0, 0.0, 1.741811595998512E9, 0.0, 2025-03-12 15:33:15.998
232.0, -12293.57120914116, -29766.779216143994, -29127.407565999936, -26112.783087823762, -32972.980496046606, 5032.0258774788235, 4146.114485992728, 39835.65894790399, -21053.063398964812, -27368.32527736727, -30168.39536051695, 6008.439482264457, -39039.19923772803, -17660.090942393654, 2919.8754334301275, 11561.417467763124, -0.07338140869140625, 0.9598100433349609, -0.19984622955322268, 192.0, 0.0, 0.0, 0.0, 0.0, 0.0, 0.0, 0.0, 0.0, 0.0, 1.741811595998527E9, 0.0, 2025-03-12 15:33:15.998
234.0, -12303.540087168229, -29774.624678447806, -29140.95272313985, -26122.50609666182, -32983.06113279595, 5030.260089666855, 4145.980375525996, 39849.315863766176, -21056.572622844295, -27374.13673092565, -30177.224299576796, 6022.521081271301, -39040.00390052842, -17664.136608140067, 2957.9628059819706, 11569.397040533668, -0.07338140869140625, 0.9598100433349609, -0.19984622955322268, 192.0, 0.0, 0.0, 0.0, 0.0, 0.0, 0.0, 0.0, 0.0, 0.0, 1.741811595998541E9, 0.0, 2025-03-12 15:33:15.998
236.0, -12287.558589882683, -29761.817128874914, -29133.308426536136, -26110.50320988932, -32971.23705997909, 5043.112342728656, 4149.623709872211, 39833.35671822509, -21053.622192576193, -27366.850062233218, -30173.8715379085, 6006.919563641497, -39034.99710977043, -17663.17548312849, 2917.1932240954907, 11550.196892046559, -0.07669070434570313, 0.9589050216674805, -0.19892311477661134, 192.0, 126.5, 64.0, 14.5, 120.0, 124.5, 104.0, 0.0, 0.0, 0.0, 1.741811595998556E9, 0.0, 2025-03-12 15:33:15.998
238.0, -12297.080433020645, -29771.338972012876, -29141.355054540047, -26120.337977449653, -32975.215670492136, 5039.223139193433, 4151.590663384279, 39851.9533696119, -21052.79517803135, -27369.08523667875, -30172.8210059191, 6025.538566772767, -39033.141914980646, -17663.06372440621, 2955.9735007254485, 11569.3299853003, -0.07669070434570313, 0.9589050216674805, -0.19892311477661134, 192.0, 0.0, 0.0, 0.0, 0.0, 0.0, 0.0, 0.0, 0.0, 0.0, 1.741811595998572E9, 0.0, 2025-03-12 15:33:15.998
240.0, -12277.14267696651, -29754.88808809377, -29130.112127079028, -26108.22333195488, -32965.67147560972, 5055.226988223432, 4152.529436651402, 39829.62397690106, -21045.35204712773, -27358.199937129015, -30168.328305283583, 6014.608563734122, -39021.07197297478, -17654.68182023547, 2914.9133461610495, 11549.325174012802, -0.07669070434570313, 0.9589050216674805, -0.19892311477661134, 192.0, 0.0, 0.0, 0.0, 0.0, 0.0, 0.0, 0.0, 0.0, 0.0, 1.741811595998588E9, 0.0, 2025-03-12 15:33:15.998
242.0, -12279.690775834415, -29755.379826471788, -29137.197630071358, -26114.414765169, -32967.97370528862, 5058.311528958265, 4160.307843721848, 39861.58697147214, -21037.864212735203, -27355.718893494475, -30161.198098802342, 6038.524930301301, -39023.754182309414, -17647.417503287495, 2954.3641751246664, 11575.141438858682, -0.07669070434570313, 0.9589050216674805, -0.19892311477661134, 192.0, 0.0, 0.0, 0.0, 0.0, 0.0, 0.0, 0.0, 0.0, 0.0, 1.741811596058673E9, 0.0, 2025-03-12 15:33:16.058
244.0, -12275.890979277014, -29757.547945683953, -29139.075176605606, -26115.062965758203, -32966.81141457694, 5058.33388070272, 4155.278701219404, 39845.06903231967, -21043.206279660022, -27351.025027158863, -30166.651924449438, 6021.604659748633, -39024.15651370961, -17641.40488402902, 2924.7481137213845, 11561.708040441043, -0.07669070434570313, 0.9589050216674805, -0.19892311477661134, 192.0, 0.0, 0.0, 0.0, 0.0, 0.0, 0.0, 0.0, 0.0, 0.0, 1.741811596058691E9, 0.0, 2025-03-12 15:33:16.058
246.0, -12287.737403838326, -29768.18737604468, -29145.803051686653, -26126.976445552882, -32975.72976061461, 5045.280461940821, 4162.073631533817, 39890.10779739712, -21044.569736071797, -27356.858832461698, -30170.54112798466, 6036.6250320226, -39036.80760107131, -17651.30670682272, 2950.2067506559792, 11578.203627849058, -0.07734535217285157, 0.9574525108337403, -0.19746155738830568, 192.0, 126.5, 72.0, 14.5, 112.0, 124.5, 112.0, 0.0, 0.0, 0.0, 1.741811596058718E9, 0.0, 2025-03-12 15:33:16.058
248.0, -12277.14267696651, -29755.290419493966, -29136.5270777377, -26113.006605268314, -32968.353684944355, 5053.058869011267, 4153.6023203852565, 39865.00678837381, -21041.842823248247, -27356.143576639126, -30167.769511672202, 6023.616316749611, -39030.124429479176, -17645.58466024216, 2926.513901533354, 11566.312499798834, -0.07734535217285157, 0.9574525108337403, -0.19746155738830568, 192.0, 0.0, 0.0, 0.0, 0.0, 0.0, 0.0, 0.0, 0.0, 0.0, 1.741811596058734E9, 0.0, 2025-03-12 15:33:16.058
250.0, -12287.29036894922, -29765.192242287667, -29143.567877241123, -26117.63341637056, -32969.65008612276, 5050.175493976533, 4167.8627333477425, 39886.95620142892, -21037.97597145748, -27355.584783027745, -30163.63443894797, 6041.676526269499, -39030.43735390155, -17642.20954682941, 2941.9366052075156, 11581.332872072802, -0.07734535217285157, 0.9574525108337403, -0.19746155738830568, 192.0, 0.0, 0.0, 0.0, 0.0, 0.0, 0.0, 0.0, 0.0, 0.0, 1.741811596058749E9, 0.0, 2025-03-12 15:33:16.058
252.0, -12276.650938588493, -29766.309829510432, -29143.970208641316, -26124.718919362895, -32973.96397280264, 5047.985023019913, 4154.876369819209, 39861.81048891669, -21044.63679130516, -27360.79273948583, -30174.899718153447, 6020.911755670519, -39032.87369404718, -17656.425256302984, 2930.157235879569, 11570.000537633961, -0.07734535217285157, 0.9574525108337403, -0.19746155738830568, 192.0, 0.0, 0.0, 0.0, 0.0, 0.0, 0.0, 0.0, 0.0, 0.0, 1.741811596058768E9, 0.0, 2025-03-12 15:33:16.058
254.0, -12271.510037363772, -29754.30694273793, -29136.929409137894, -26114.995910524834, -32964.46448140913, 5053.751773089382, 4174.702367151066, 39874.23805883385, -21031.426910332073, -27353.439015560034, -30161.198098802342, 6040.558939046734, -39028.5598073673, -17645.562308497705, 2930.403105068577, 11574.023851635917, -0.07734535217285157, 0.9574525108337403, -0.19746155738830568, 192.0, 0.0, 0.0, 0.0, 0.0, 0.0, 0.0, 0.0, 0.0, 0.0, 1.741811596058783E9, 0.0, 2025-03-12 15:33:16.058
0.0, -12275.1980751989, -29754.061073548924, -29136.5270777377, -26118.326320448676, -32965.67147560972, 5055.04817426779, 4156.172770997617, 39858.03304410375, -21040.166442414098, -27356.769425483875, -30171.055218107133, 6024.197462105449, -39026.74931606642, -17650.144416111045, 2937.667422016552, 11572.682746968598, -0.07867267608642578, 0.9577262554168702, -0.20173077869415285, 192.0, 126.5, 64.0, 14.5, 120.0, 124.5, 72.0, 0.0, 0.0, 0.0, 1.741811596118953E9, 0.0, 2025-03-12 15:33:16.118
2.0, -12269.878360018536, -29759.827823618394, -29139.902191150453, -26119.55566639372, -32966.05145526546, 5052.52242714434, 4176.132878796206, 39888.78904447425, -21028.78940448635, -27347.69461723502, -30159.141738312454, 6044.045811181762, -39021.56371135279, -17641.650753218026, 2932.705334747474, 11576.61665399273, -0.07867267608642578, 0.9577262554168702, -0.20173077869415285, 192.0, 0.0, 0.0, 0.0, 0.0, 0.0, 0.0, 0.0, 0.0, 0.0, 1.74181159611904E9, 0.0, 2025-03-12 15:33:16.119
4.0, -12275.779220554736, -29761.861832363826, -29144.23842957478, -26127.803460097726, -32972.198184990666, 5050.197845720988, 4156.306881464348, 39862.41398601699, -21036.903087723626, -27350.823861458764, -30167.389532016463, 6026.767912717809, -39028.53745562285, -17648.98212539937, 2938.0697534167475, 11571.498104512466, -0.07867267608642578, 0.9577262554168702, -0.20173077869415285, 192.0, 0.0, 0.0, 0.0, 0.0, 0.0, 0.0, 0.0, 0.0, 0.0, 1.741811596119058E9, 0.0, 2025-03-12 15:33:16.119
6.0, -12276.226255443842, -29753.99401831556, -29146.94299065387, -26122.819021084193, -32968.9348303002, 5049.147313731589, 4173.808297372853, 39885.27982059477, -21035.36081735621, -27352.276724848358, -30166.562517471615, 6032.892290698564, -39026.0117084994, -17644.422369530486, 2913.773407193829, 11563.47382825301, -0.07867267608642578, 0.9577262554168702, -0.20173077869415285, 192.0, 0.0, 0.0, 0.0, 0.0, 0.0, 0.0, 0.0, 0.0, 0.0, 1.741811596119077E9, 0.0, 2025-03-12 15:33:16.119
8.0, -12264.201016926887, -29748.36137871282, -29130.559161968133, -26114.325358191178, -32958.38480691729, 5060.725517359438, 4163.302977478859, 39862.682206950456, -21031.65042777663, -27348.83455620224, -30165.154357570933, 6029.695991241454, -39020.69199331904, -17646.25521257582, 2934.2029016259794, 11565.709002698542, -0.07867267608642578, 0.9577262554168702, -0.20173077869415285, 192.0, 0.0, 0.0, 0.0, 0.0, 0.0, 0.0, 0.0, 0.0, 0.0, 1.741811596119095E9, 0.0, 2025-03-12 15:33:16.119
10.0, -12259.529502335728, -29746.93086706768, -29131.028548601695, -26109.519733133286, -32956.57431561641, 5053.371793433642, 4186.504088223468, 39885.03395140576, -21023.380282328162, -27347.515803279377, -30156.548935955638, 6038.927261701497, -39015.97577523896, -17637.314514793696, 2915.852119428172, 11575.610825492244, -0.07833633804321288, 0.9578631277084351, -0.20286538934707643, 192.0, 126.5, 72.0, 14.5, 120.0, 124.5, 80.0, 0.0, 0.0, 0.0, 1.741811596119113E9, 0.0, 2025-03-12 15:33:16.119
12.0, -12274.996909498801, -29750.954181069636, -29135.454194003847, -26116.337015192155, -32967.2808012105, 5051.136618988111, 4173.674186906122, 39878.01550364679, -21032.87977372167, -27346.93465792354, -30162.87447963649, 6036.803845978242, -39018.41211538459, -17639.035599116756, 2949.402087855588, 11585.15502037466, -0.07833633804321288, 0.9578631277084351, -0.20286538934707643, 192.0, 0.0, 0.0, 0.0, 0.0, 0.0, 0.0, 0.0, 0.0, 0.0, 1.741811596119147E9, 0.0, 2025-03-12 15:33:16.119
14.0, -12275.37688915454, -29761.70537015264, -29137.48820274928, -26117.476954159374, -32971.795853590476, 5045.459275896464, 4187.01817834594, 39900.72487601339, -21032.477442321473, -27350.33212308075, -30166.24959304924, 6035.507444799834, -39028.13512422265, -17641.471939262385, 2924.546948021287, 11581.645796495175, -0.07833633804321288, 0.9578631277084351, -0.20286538934707643, 192.0, 0.0, 0.0, 0.0, 0.0, 0.0, 0.0, 0.0, 0.0, 0.0, 1.74181159611917E9, 0.0, 2025-03-12 15:33:16.119
16.0, -12270.168932696455, -29758.732588140083, -29129.821554401107, -26112.961901779403, -32967.83959482188, 5050.5778253767285, 4168.242713003482, 39882.4635007934, -21028.945866697537, -27347.292285834825, -30160.371084257495, 6035.686258755477, -39022.0107462419, -17643.14832009653, 2956.0629077032695, 11584.126840129715, -0.07833633804321288, 0.9578631277084351, -0.20286538934707643, 192.0, 0.0, 0.0, 0.0, 0.0, 0.0, 0.0, 0.0, 0.0, 0.0, 1.741811596180613E9, 0.0, 2025-03-12 15:33:16.180
18.0, -12281.411860157474, -29762.197108530654, -29141.80208942915, -26119.55566639372, -32980.22246125012, 5037.703220570472, 4171.908399094153, 39904.59172780415, -21034.176174900076, -27355.18245162755, -30162.248630791742, 6028.153720874038, -39031.33142367976, -17646.098750364632, 2922.7364567204067, 11577.287206326391, -0.07833633804321288, 0.9578631277084351, -0.20286538934707643, 192.0, 0.0, 0.0, 0.0, 0.0, 0.0, 0.0, 0.0, 0.0, 0.0, 1.741811596180639E9, 0.0, 2025-03-12 15:33:16.180
20.0, -12285.211656714877, -29764.65580042074, -29138.494031249767, -26122.640207128552, -32980.937717072695, 5040.8324647942145, 4161.1125065222395, 39893.773483487785, -21038.78063425787, -27358.89284120713, -30169.289430295164, 6034.14398838806, -39034.63948185915, -17650.41263704451, 2953.559512324275, 11575.141438858682, -0.07516816902160645, 0.9599315638542175, -0.20543269467353822, 192.0, 126.5, 96.0, 15.0, 8.0, 124.5, 64.0, 0.0, 0.0, 0.0, 1.741811596180654E9, 0.0, 2025-03-12 15:33:16.180
22.0, -12273.611101342573, -29758.397311973255, -29132.19083931337, -26113.721861090882, -32967.70548435515, 5048.655575353572, 4170.947274082574, 39883.357570571614, -21035.941962712048, -27356.344742339224, -30164.707322681825, 6025.516215028312, -39029.766801567894, -17648.669200976994, 2903.6480669555744, 11564.881988153695, -0.07516816902160645, 0.9599315638542175, -0.20543269467353822, 192.0, 0.0, 0.0, 0.0, 0.0, 0.0, 0.0, 0.0, 0.0, 0.0, 1.74181159618067E9, 0.0, 2025-03-12 15:33:16.180
24.0, -12286.597464871105, -29761.280687007988, -29137.756423682742, -26126.104727519123, -32976.601478648365, 5038.105551970667, 4163.01240480094, 39892.00769567581, -21033.72914001097, -27355.69654175002, -30165.556688971126, 6036.177997133494, -39031.75610682441, -17649.78678819976, 2942.562454052264, 11584.842095952285, -0.07516816902160645, 0.9599315638542175, -0.20543269467353822, 192.0, 0.0, 0.0, 0.0, 0.0, 0.0, 0.0, 0.0, 0.0, 0.0, 1.741811596180685E9, 0.0, 2025-03-12 15:33:16.180
26.0, -12270.593615841106, -29758.620829417807, -29118.66803391791, -26110.436154655952, -32960.64233310727, 5042.464142139452, 4173.92005609513, 39876.7638059573, -21033.30445686632, -27355.562431283288, -30162.293334280654, 6024.33157257218, -39031.53258937986, -17650.97143065589, 2909.1242443471247, 11565.887816654184, -0.07516816902160645, 0.9599315638542175, -0.20543269467353822, 192.0, 0.0, 0.0, 0.0, 0.0, 0.0, 0.0, 0.0, 0.0, 0.0, 1.7418115961807E9, 0.0, 2025-03-12 15:33:16.180
28.0, -12280.942473523912, -29758.553774184442, -29124.367728754012, -26122.12611700608, -32968.644257622276, 5033.299926912776, 4173.8530008617645, 39888.72198924088, -21029.72817775347, -27349.348646324714, -30150.87159286399, 6044.537549559778, -39024.469438131986, -17646.88106142057, 2952.307814634778, 11588.86540995424, -0.07516816902160645, 0.9599315638542175, -0.20543269467353822, 192.0, 0.0, 0.0, 0.0, 0.0, 0.0, 0.0, 0.0, 0.0, 0.0, 1.741811596180715E9, 0.0, 2025-03-12 15:33:16.180
30.0, -12279.891941534514, -29764.052303320444, -29128.5251532227, -26126.529410663774, -32968.644257622276, 5031.8470635231815, 4167.6839193921, 39872.1593465995, -21042.53572732636, -27364.83840523224, -30166.83073840508, 6015.23441257887, -39040.115659250696, -17661.29793659424, 2925.0610381437587, 11573.979148147006, -0.07658408451080323, 0.9609657819271087, -0.2087163473367691, 192.0, 126.5, 72.0, 15.0, 8.0, 124.5, 48.0, 0.0, 0.0, 0.0, 1.741811596239628E9, 0.0, 2025-03-12 15:33:16.239
32.0, -12286.530409637739, -29771.56248945743, -29132.257894546736, -26130.262151987812, -32971.81820533493, 5032.763485045849, 4173.607131672756, 39884.341047327645, -21031.315151609797, -27359.228117373958, -30158.806462145625, 6032.333497087181, -39031.21966495748, -17653.407770801517, 2952.1737041680462, 11591.145287888681, -0.07658408451080323, 0.9609657819271087, -0.2087163473367691, 192.0, 0.0, 0.0, 0.0, 0.0, 0.0, 0.0, 0.0, 0.0, 0.0, 1.741811596239705E9, 0.0, 2025-03-12 15:33:16.239
34.0, -12291.179572484443, -29766.734512655083, -29135.968284126317, -26133.100823533634, -32976.55677515946, 5030.863586767147, 4163.101811778762, 39871.24292507683, -21051.74464604195, -27370.40398960161, -30174.25151756424, 6007.925392141985, -39039.847438317236, -17668.83047447568, 2927.3409160782003, 11578.315386571336, -0.07658408451080323, 0.9609657819271087, -0.2087163473367691, 192.0, 0.0, 0.0, 0.0, 0.0, 0.0, 0.0, 0.0, 0.0, 0.0, 1.741811596239731E9, 0.0, 2025-03-12 15:33:16.239
36.0, -12285.368118926064, -29765.616925432318, -29135.945932381863, -26128.809288598215, -32976.22149899262, 5034.529272857818, 4176.982245085507, 39882.68701823795, -21042.043988948346, -27364.27961162086, -30169.132968083977, 6027.997258662851, -39028.98449051195, -17662.907262195025, 2946.474009331943, 11579.544732516377, -0.07658408451080323, 0.9609657819271087, -0.2087163473367691, 192.0, 0.0, 0.0, 0.0, 0.0, 0.0, 0.0, 0.0, 0.0, 0.0, 1.741811596239746E9, 0.0, 2025-03-12 15:33:16.239
38.0, -12286.105726493088, -29773.26122203603, -29137.95758938284, -26123.534276906765, -32978.52372867152, 5041.324203172231, 4171.01432931594, 39866.70552095241, -21050.381189630174, -27361.932678453053, -30175.436160020374, 6018.117787613605, -39035.60060687073, -17659.934480182466, 2925.3292590772226, 11569.888778911683, -0.07658408451080323, 0.9609657819271087, -0.2087163473367691, 192.0, 0.0, 0.0, 0.0, 0.0, 0.0, 0.0, 0.0, 0.0, 0.0, 1.741811596239761E9, 0.0, 2025-03-12 15:33:16.239
40.0, -12295.404052186495, -29778.066847093924, -29146.67476972041, -26127.64699788654, -32983.91049908525, 5039.089028726701, 4173.338910739292, 39899.47317832389, -21047.45311110653, -27362.245602875424, -30173.82683441959, 6031.975869175896, -39035.55590338181, -17655.55353826923, 2946.2951953763004, 11589.625369265721, -0.07729204225540162, 0.9624828909635543, -0.21035817366838455, 192.0, 126.5, 72.0, 15.0, 16.0, 124.5, 48.0, 0.0, 0.0, 0.0, 1.741811596239779E9, 0.0, 2025-03-12 15:33:16.239
42.0, -12279.400203156496, -29765.773387643505, -29132.57081896911, -26120.3156257052, -32973.22636523561, 5045.168703218545, 4153.445858174069, 39866.52670699677, -21051.297611152844, -27360.949201697018, -30174.363276286516, 6011.367560788102, -39037.76872608289, -17655.955869669422, 2928.838482956706, 11570.089944611782, -0.07729204225540162, 0.9624828909635543, -0.21035817366838455, 192.0, 0.0, 0.0, 0.0, 0.0, 0.0, 0.0, 0.0, 0.0, 0.0, 1.741811596239795E9, 0.0, 2025-03-12 15:33:16.239
44.0, -12278.617892100561, -29761.92888759719, -29131.855563146542, -26123.467221673396, -32973.98632454709, 5040.47483688293, 4170.187314771094, 39885.03395140576, -21036.12077666769, -27351.11443413668, -30161.667485435904, 6036.5356250447785, -39024.044754987335, -17649.138587610556, 2941.9366052075156, 11580.259988338947, -0.07729204225540162, 0.9624828909635543, -0.21035817366838455, 192.0, 0.0, 0.0, 0.0, 0.0, 0.0, 0.0, 0.0, 0.0, 0.0, 1.74181159623981E9, 0.0, 2025-03-12 15:33:16.239
46.0, -12282.931778780436, -29761.50420445254, -29134.314255036625, -26126.350596708133, -32974.14278675828, 5041.52536887233, 4154.0717070188175, 39850.41109924449, -21039.942924969546, -27350.33212308075, -30166.651924449438, 6026.656153995533, -39023.17303695357, -17651.574927756184, 2935.7451719933956, 11566.446610265566, -0.07729204225540162, 0.9624828909635543, -0.21035817366838455, 192.0, 0.0, 0.0, 0.0, 0.0, 0.0, 0.0, 0.0, 0.0, 0.0, 1.741811596300287E9, 0.0, 2025-03-12 15:33:16.300
48.0, -12274.460467631874, -29749.07663453539, -29125.731185165787, -26119.533314649263, -32964.55388838695, 5052.500075399885, 4171.751936882965, 39866.236134318846, -21035.651390034127, -27350.64504750312, -30167.389532016463, 6037.094418656161, -39024.91647302109, -17650.01030564431, 2937.7344772499177, 11571.81102893484, -0.07729204225540162, 0.9624828909635543, -0.21035817366838455, 192.0, 0.0, 0.0, 0.0, 0.0, 0.0, 0.0, 0.0, 0.0, 0.0, 1.741811596300303E9, 0.0, 2025-03-12 15:33:16.300
50.0, -12274.594578098606, -29756.050378805445, -29121.52905720819, -26122.84137282865, -32964.66564710923, 5052.075392255234, 4157.715041365032, 39841.44804971791, -21040.725236025482, -27349.013370157885, -30161.086340080066, 6026.09736038415, -39021.67547007507, -17644.422369530486, 2943.2330063859235, 11574.180313847102, -0.0766460211277008, 0.9622414454817771, -0.2121790868341923, 192.0, 126.5, 80.0, 15.0, 8.0, 124.5, 40.0, 0.0, 0.0, 0.0, 1.741811596300318E9, 0.0, 2025-03-12 15:33:16.300
52.0, -12284.51875263676, -29768.880280122794, -29138.33756903858, -26134.55368692323, -32974.18749024719, 5035.065714724746, 4174.836477617798, 39874.12630011157, -21038.959448213514, -27357.775253984364, -30165.40022675994, 6032.28879359827, -39020.401420641116, -17656.469959791895, 2945.8928639761048, 11577.66718598213, -0.0766460211277008, 0.9622414454817771, -0.2121790868341923, 192.0, 0.0, 0.0, 0.0, 0.0, 0.0, 0.0, 0.0, 0.0, 0.0, 1.741811596300335E9, 0.0, 2025-03-12 15:33:16.300
54.0, -12273.544046109206, -29755.156309027236, -29125.105336321038, -26126.12707926358, -32963.0786732529, 5046.800380563782, 4159.391422199181, 39837.38003222705, -21040.25584939192, -27358.22228887347, -30171.7704739297, 6020.777645203787, -39022.41307764209, -17661.72261973889, 2950.8102477562725, 11564.43495326459, -0.0766460211277008, 0.9622414454817771, -0.2121790868341923, 192.0, 0.0, 0.0, 0.0, 0.0, 0.0, 0.0, 0.0, 0.0, 0.0, 1.74181159630035E9, 0.0, 2025-03-12 15:33:16.300
56.0, -12283.177647969444, -29764.968724843115, -29140.081005106094, -26131.804422355228, -32969.538327400485, 5040.608947349661, 4183.620713188733, 39864.64916046252, -21035.383169100664, -27352.70140799301, -30164.796729659647, 6041.4083053360355, -39020.78140029686, -17656.089980136156, 2931.2077678689684, 11571.274587067914, -0.0766460211277008, 0.9622414454817771, -0.2121790868341923, 192.0, 0.0, 0.0, 0.0, 0.0, 0.0, 0.0, 0.0, 0.0, 0.0, 1.741811596300377E9, 0.0, 2025-03-12 15:33:16.300
58.0, -12282.9988340138, -29765.326352754397, -29131.073252090606, -26130.150393265536, -32965.87264130982, 5045.906310785569, 4165.851076346765, 39839.7046136504, -21050.135320441168, -27361.865623219684, -30175.860843165025, 6026.656153995533, -39028.13512422265, -17661.789674972257, 2954.0959541912025, 11567.027755621404, -0.0766460211277008, 0.9622414454817771, -0.2121790868341923, 192.0, 0.0, 0.0, 0.0, 0.0, 0.0, 0.0, 0.0, 0.0, 0.0, 1.741811596300392E9, 0.0, 2025-03-12 15:33:16.300
60.0, -12286.731575337837, -29767.60623068884, -29146.026569131205, -26138.085262547167, -32975.57329840342, 5033.4340373795085, 4172.958931083552, 39863.84449766213, -21047.1178349397, -27361.97738194196, -30173.64802046395, 6030.701819741943, -39029.766801567894, -17657.78871271476, 2927.5867852672086, 11568.748839944463, -0.07732301056385041, 0.9621207227408886, -0.21108954341709613, 192.0, 126.5, 72.0, 15.0, 8.0, 124.5, 56.0, 0.0, 0.0, 0.0, 1.741811596359521E9, 0.0, 2025-03-12 15:33:16.359
62.0, -12297.371005698564, -29773.03770459148, -29149.848717433062, -26142.846184116148, -32978.09904552687, 5029.254261166366, 4156.977433798008, 39847.79594514322, -21049.710637296517, -27361.642105775132, -30179.794750189158, 6023.5716132607, -39032.44901090253, -17664.53893954026, 2949.245625644401, 11562.736220685985, -0.07732301056385041, 0.9621207227408886, -0.21108954341709613, 192.0, 0.0, 0.0, 0.0, 0.0, 0.0, 0.0, 0.0, 0.0, 0.0, 1.741811596359581E9, 0.0, 2025-03-12 15:33:16.359
64.0, -12275.309833921176, -29768.94733535616, -29139.477508005803, -26126.64116938605, -32971.10294951236, 5036.7197438144385, 4173.182448528105, 39848.53355271024, -21051.811701275314, -27362.200899386517, -30176.53139549868, 6019.794168447754, -39031.10790623521, -17663.510759295317, 2916.187395595002, 11553.482598481489, -0.07732301056385041, 0.9621207227408886, -0.21108954341709613, 192.0, 0.0, 0.0, 0.0, 0.0, 0.0, 0.0, 0.0, 0.0, 0.0, 1.741811596359596E9, 0.0, 2025-03-12 15:33:16.359
66.0, -12285.636339859528, -29769.9755156011, -29140.48333650629, -26130.77624211028, -32974.656876880756, 5032.9646507459465, 4162.341852467282, 39847.61713118757, -21047.319000639796, -27362.17854764206, -30169.892927395456, 6026.7902644622645, -39032.20314171352, -17658.526320281784, 2955.3029483917894, 11570.33581380079, -0.07732301056385041, 0.9621207227408886, -0.21108954341709613, 192.0, 0.0, 0.0, 0.0, 0.0, 0.0, 0.0, 0.0, 0.0, 0.0, 1.741811596359611E9, 0.0, 2025-03-12 15:33:16.359
68.0, -12289.749060839304, -29761.50420445254, -29144.14902259696, -26129.278675231777, -32970.07476926741, 5031.355325145165, 4173.517724694935, 39856.13314582505, -21055.87971876618, -27363.564355798288, -30172.8210059191, 6023.057523138228, -39031.10790623521, -17657.565195270206, 2922.4458840424877, 11551.67210718061, -0.07732301056385041, 0.9621207227408886, -0.21108954341709613, 192.0, 0.0, 0.0, 0.0, 0.0, 0.0, 0.0, 0.0, 0.0, 0.0, 1.741811596359626E9, 0.0, 2025-03-12 15:33:16.359
70.0, -12290.218447472866, -29773.596498202864, -29139.701025450355, -26131.245628743844, -32971.43822567919, 5031.668249567539, 4162.118335022728, 39848.690014921434, -21049.196547174044, -27363.810224987297, -30177.44781702135, 6033.786360476775, -39032.560769624804, -17658.01223015931, 2962.2990444063003, 11562.535054985889, -0.0796615052819252, 0.9650603613704443, -0.20854477170854807, 192.0, 126.5, 56.0, 15.0, 32.0, 124.5, 72.0, 0.0, 0.0, 0.0, 1.741811596359641E9, 0.0, 2025-03-12 15:33:16.359
72.0, -12284.80932531468, -29768.299134766956, -29139.231638816793, -26123.02018678429, -32969.538327400485, 5035.423342636031, 4164.375861212714, 39841.8056776292, -21053.197509431542, -27366.827710488764, -30179.16890134441, 6023.7951307052535, -39035.86882780419, -17657.654602248025, 2924.546948021287, 11555.360145015735, -0.0796615052819252, 0.9650603613704443, -0.20854477170854807, 192.0, 0.0, 0.0, 0.0, 0.0, 0.0, 0.0, 0.0, 0.0, 0.0, 1.741811596359656E9, 0.0, 2025-03-12 15:33:16.359
74.0, -12287.826810816146, -29771.36132375733, -29132.973150369307, -26123.444869928942, -32967.012580277034, 5036.786799047804, 4160.486657677491, 39846.521895709266, -21046.380227372676, -27360.233945874446, -30172.172805329898, 6039.016668679317, -39032.73958358045, -17646.009343386813, 2962.053175217292, 11575.029680136406, -0.0796615052819252, 0.9650603613704443, -0.20854477170854807, 192.0, 0.0, 0.0, 0.0, 0.0, 0.0, 0.0, 0.0, 0.0, 0.0, 1.741811596359671E9, 0.0, 2025-03-12 15:33:16.359
76.0, -12283.602331114094, -29769.439073734175, -29131.922618379907, -26119.779183838273, -32967.12433899931, 5037.211482192455, 4171.439012460592, 39842.90091310751, -21045.84378550575, -27355.540079538834, -30163.097997081044, 6031.081799397683, -39024.69295557654, -17647.037523631756, 2916.8132444397506, 11562.870331152717, -0.0796615052819252, 0.9650603613704443, -0.20854477170854807, 192.0, 0.0, 0.0, 0.0, 0.0, 0.0, 0.0, 0.0, 0.0, 0.0, 1.74181159641891E9, 0.0, 2025-03-12 15:33:16.418
78.0, -12296.968674298369, -29786.918137898225, -29135.25302830375, -26131.536201421764, -32978.38961820479, 5027.6225838211285, 4167.147477525172, 39863.59862847312, -21061.40059964664, -27367.922945967075, -30173.893889652958, 6043.531721059289, -39038.081650505264, -17653.787750457257, 2956.4875908479203, 11577.421316793123, -0.0796615052819252, 0.9650603613704443, -0.20854477170854807, 192.0, 0.0, 0.0, 0.0, 0.0, 0.0, 0.0, 0.0, 0.0, 0.0, 1.741811596418937E9, 0.0, 2025-03-12 15:33:16.418
80.0, -12291.559552140183, -29781.151387828755, -29126.75936541073, -26121.723785605885, -32972.198184990666, 5034.775142046827, 4167.370994969725, 39843.75027939681, -21066.452093893542, -27366.403027344113, -30172.709247196824, 6030.321840086203, -39037.54520863834, -17657.565195270206, 2917.6402589845966, 11552.767342658919, -0.0808307526409626, 0.9655301806852221, -0.20727238585427404, 192.0, 126.5, 56.0, 15.0, 24.0, 124.5, 72.0, 0.0, 0.0, 0.0, 1.741811596418952E9, 0.0, 2025-03-12 15:33:16.418
82.0, -12291.984235284834, -29785.80055067546, -29127.876952633498, -26119.421555926987, -32977.40614144876, 5036.697392069983, 4170.6343496602, 39866.12437559657, -21057.35493390023, -27366.872413977675, -30162.650962191936, 6048.6279187950995, -39030.99614751293, -17651.843148689648, 2954.0736024467474, 11575.320252814325, -0.0808307526409626, 0.9655301806852221, -0.20727238585427404, 192.0, 0.0, 0.0, 0.0, 0.0, 0.0, 0.0, 0.0, 0.0, 0.0, 1.741811596418967E9, 0.0, 2025-03-12 15:33:16.418
84.0, -12297.505116165295, -29794.920062413225, -29123.853638631543, -26110.16793372249, -32965.269144209524, 5044.8781305406255, 4166.543980424879, 39840.66573866198, -21074.655184108637, -27369.331105867757, -30170.49642449575, 6025.180938861482, -39031.59964461323, -17650.725561466883, 2922.62469799813, 11565.686650954087, -0.0808307526409626, 0.9655301806852221, -0.20727238585427404, 192.0, 0.0, 0.0, 0.0, 0.0, 0.0, 0.0, 0.0, 0.0, 0.0, 1.741811596418985E9, 0.0, 2025-03-12 15:33:16.418
86.0, -12314.62655241806, -29813.919045200237, -29133.01785385822, -26121.3661576946, -32974.008676291545, 5036.943261258992, 4179.262123019948, 39867.33136979716, -21082.41123943463, -27372.147425669125, -30173.536261741672, 6045.833950738186, -39036.897008049134, -17648.423331787984, 2947.6810035325293, 11583.948026174072, -0.0808307526409626, 0.9655301806852221, -0.20727238585427404, 192.0, 0.0, 0.0, 0.0, 0.0, 0.0, 0.0, 0.0, 0.0, 0.0, 1.741811596419001E9, 0.0, 2025-03-12 15:33:16.419
88.0, -12324.9083548675, -29824.67023428324, -29147.702949965354, -26129.45748918742, -32982.21176650665, 5033.076409468224, 4165.6946141355775, 39853.585046957145, -21111.021472337423, -27381.646917062633, -30190.143607871963, 6020.755293459331, -39052.207953001016, -17660.67208774949, 2928.0114684118594, 11569.017060877928, -0.0808307526409626, 0.9655301806852221, -0.20727238585427404, 192.0, 0.0, 0.0, 0.0, 0.0, 0.0, 0.0, 0.0, 0.0, 0.0, 1.741811596419016E9, 0.0, 2025-03-12 15:33:16.419
90.0, -12339.705209696915, -29847.33490316092, -29159.817595460132, -26140.812175370716, -32989.56549043244, 5024.448636108475, 4165.404041457658, 39878.17196585798, -21123.046710854378, -27395.32618466928, -30202.88410221149, 6022.364619060114, -39058.75701412642, -17667.981108186377, 2947.703355276985, 11571.47575276801, -0.08241537632048129, 0.9617650903426112, -0.20663619292713703, 192.0, 126.5, 48.0, 14.5, 120.0, 124.5, 72.0, 0.0, 0.0, 0.0, 1.741811596479812E9, 0.0, 2025-03-12 15:33:16.479
92.0, -12336.195985817432, -29840.741138546604, -29148.64172323248, -26130.64213164355, -32977.83082459341, 5034.864549024648, 4151.948291295564, 39845.605474186596, -21127.762928934448, -27396.4661236365, -30206.84036098008, 5998.917639126496, -39053.906685579626, -17665.723581996393, 2914.376904294122, 11551.537996713878, -0.08241537632048129, 0.9617650903426112, -0.20663619292713703, 192.0, 0.0, 0.0, 0.0, 0.0, 0.0, 0.0, 0.0, 0.0, 0.0, 1.74181159647983E9, 0.0, 2025-03-12 15:33:16.479
94.0, -12328.216413046886, -29841.746967047093, -29152.66503723443, -26139.82869861468, -32980.84831009487, 5024.046304708279, 4168.287416492393, 39874.03689313375, -21124.65603645516, -27398.030745748372, -30198.391401575973, 6015.323819556692, -39049.25752273292, -17666.148265141044, 2927.832654456217, 11565.887816654184, -0.08241537632048129, 0.9617650903426112, -0.20663619292713703, 192.0, 0.0, 0.0, 0.0, 0.0, 0.0, 0.0, 0.0, 0.0, 0.0, 1.741811596479845E9, 0.0, 2025-03-12 15:33:16.479
96.0, -12327.545860713228, -29832.04630995349, -29142.092662107072, -26133.369044467097, -32974.67922862521, 5034.104589713167, 4157.558579153845, 39841.82802937365, -21118.75517591896, -27394.432114891068, -30194.904529440944, 6000.683426938466, -39044.60835988622, -17664.270718606796, 2924.0105061543595, 11547.626441434199, -0.08241537632048129, 0.9617650903426112, -0.20663619292713703, 192.0, 0.0, 0.0, 0.0, 0.0, 0.0, 0.0, 0.0, 0.0, 0.0, 1.74181159647986E9, 0.0, 2025-03-12 15:33:16.479
98.0, -12334.452549749918, -29845.9937984936, -29152.15094711196, -26136.274771246288, -32979.01546704954, 5028.181377432511, 4179.619750931233, 39877.277896079766, -21121.32562653132, -27398.209559704013, -30198.50316029825, 6015.010895134318, -39047.938769810055, -17656.849939447635, 2940.3943348400994, 11565.709002698542, -0.08241537632048129, 0.9617650903426112, -0.20663619292713703, 192.0, 0.0, 0.0, 0.0, 0.0, 0.0, 0.0, 0.0, 0.0, 0.0, 1.741811596479875E9, 0.0, 2025-03-12 15:33:16.479
100.0, -12332.664410193493, -29835.555533832972, -29145.5795342421, -26140.521602692796, -32975.66270538124, 5027.130845443112, 4154.295224463371, 39848.15357305451, -21122.934952132102, -27401.65172835013, -30202.727640000303, 6000.95164787193, -39050.10688902222, -17666.8188174747, 2941.6907360185073, 11562.043316607871, -0.08220768816024066, 0.9608825451713056, -0.20631809646356852, 192.0, 126.5, 56.0, 15.0, 0.0, 124.5, 72.0, 0.0, 0.0, 0.0, 1.741811596479901E9, 0.0, 2025-03-12 15:33:16.479
102.0, -12337.358276529107, -29828.76060351856, -29154.252011090757, -26144.768434139307, -32979.57426066092, 5015.5302900708075, 4159.793753599376, 39870.48296576535, -21115.156545061654, -27402.70226033953, -30198.36904983152, 6016.731979457376, -39051.358586711714, -17670.953890198933, 2932.504169047376, 11567.497142254966, -0.08220768816024066, 0.9608825451713056, -0.20631809646356852, 192.0, 0.0, 0.0, 0.0, 0.0, 0.0, 0.0, 0.0, 0.0, 0.0, 1.741811596479918E9, 0.0, 2025-03-12 15:33:16.479
104.0, -12319.231011775853, -29818.367042346843, -29134.984807370285, -26134.956018323424, -32971.013542534536, 5024.582746575206, 4140.660660345633, 39832.30618623569, -21118.218734052032, -27393.828617790776, -30199.821913221112, 6013.490976511357, -39053.124374523686, -17674.083134422675, 2941.176645896035, 11556.053049093849, -0.08220768816024066, 0.9608825451713056, -0.20631809646356852, 192.0, 0.0, 0.0, 0.0, 0.0, 0.0, 0.0, 0.0, 0.0, 0.0, 1.741811596479933E9, 0.0, 2025-03-12 15:33:16.479
106.0, -12307.161069769987, -29812.689699255196, -29133.62135095851, -26129.345730465142, -32966.76671108803, 5020.492377339885, 4162.632425145201, 39846.16426779798, -21084.26643422442, -27378.405914116614, -30173.357447786027, 6036.401514578047, -39036.24880745993, -17661.566157527704, 2923.8763956876273, 11559.785790417885, -0.08220768816024066, 0.9608825451713056, -0.20631809646356852, 192.0, 0.0, 0.0, 0.0, 0.0, 0.0, 0.0, 0.0, 0.0, 0.0, 1.741811596539595E9, 0.0, 2025-03-12 15:33:16.539
108.0, -12306.28935173623, -29794.51773101303, -29132.682577691387, -26129.569247909698, -32974.96980130313, 5021.9899442183905, 4142.58291036879, 39827.65702338899, -21083.439419679573, -27376.349553626726, -30174.653848964437, 6030.679467997488, -39039.80273482832, -17663.17548312849, 2951.9054832345823, 11560.881025896195, -0.08220768816024066, 0.9608825451713056, -0.20631809646356852, 192.0, 0.0, 0.0, 0.0, 0.0, 0.0, 0.0, 0.0, 0.0, 0.0, 1.741811596539612E9, 0.0, 2025-03-12 15:33:16.539
110.0, -12298.220371987865, -29784.213576819133, -29131.252066046247, -26124.02601528478, -32976.15444375926, 5022.056999451756, 4156.172770997617, 39857.38484351455, -21074.901053297646, -27370.60515530171, -30169.58000297308, 6038.636689023578, -39038.52868539437, -17653.9665644129, 2932.8394452142056, 11558.802313661852, -0.08110384408012034, 0.9614412725856527, -0.20515904823178427, 192.0, 126.5, 64.0, 15.0, 8.0, 124.5, 80.0, 0.0, 0.0, 0.0, 1.741811596539627E9, 0.0, 2025-03-12 15:33:16.539
112.0, -12300.075566777656, -29778.200957560657, -29132.481411991288, -26121.50026816133, -32986.99503982008, 5033.523444357329, 4138.425485900103, 39855.12731732456, -21070.49775963995, -27361.910326708596, -30165.8696133935, 6042.436485580979, -39039.132182494664, -17651.977259156378, 2966.590579341719, 11563.00444161945, -0.08110384408012034, 0.9614412725856527, -0.20515904823178427, 192.0, 0.0, 0.0, 0.0, 0.0, 0.0, 0.0, 0.0, 0.0, 0.0, 1.741811596539643E9, 0.0, 2025-03-12 15:33:16.539
114.0, -12295.404052186495, -29771.964820857625, -29134.44836550336, -26117.164029737, -32989.36432473234, 5032.271746667832, 4152.998823284963, 39875.22153558988, -21056.30440191083, -27353.08138764875, -30162.315686025107, 6045.699840271454, -39032.27019694688, -17645.517605008794, 2933.4876458034096, 11562.490351496977, -0.08110384408012034, 0.9614412725856527, -0.20515904823178427, 192.0, 0.0, 0.0, 0.0, 0.0, 0.0, 0.0, 0.0, 0.0, 0.0, 1.741811596539659E9, 0.0, 2025-03-12 15:33:16.539
116.0, -12308.368063970574, -29785.286460552987, -29142.00325512925, -26133.12317527809, -32994.14759804578, 5016.334952871198, 4139.788942311877, 39868.046625619725, -21066.340335171266, -27363.296134864824, -30173.715075697313, 6047.331517616692, -39050.30805472232, -17656.0676283917, 2972.9161230225714, 11568.927653900106, -0.08110384408012034, 0.9614412725856527, -0.20515904823178427, 192.0, 0.0, 0.0, 0.0, 0.0, 0.0, 0.0, 0.0, 0.0, 0.0, 1.741811596539674E9, 0.0, 2025-03-12 15:33:16.539
118.0, -12304.031825546244, -29779.631469205797, -29140.103356850548, -26131.379739210577, -32981.94354557318, 5013.697447025472, 4155.904550064153, 39862.07870985016, -21067.88260553868, -27367.453559333513, -30170.943459384856, 6041.050677424751, -39051.582104156274, -17662.415523817006, 2924.591651510197, 11549.19106354607, -0.08110384408012034, 0.9614412725856527, -0.20515904823178427, 192.0, 0.0, 0.0, 0.0, 0.0, 0.0, 0.0, 0.0, 0.0, 0.0, 1.741811596539689E9, 0.0, 2025-03-12 15:33:16.539
120.0, -12317.86755536408, -29769.863756878825, -29141.91384815143, -26135.157184023523, -32983.39640896278, 5014.099778425668, 4146.561520881834, 39863.53157323976, -21065.379210159685, -27370.5604518128, -30173.24568906375, 6050.326651373703, -39055.426604202585, -17664.918919196, 2961.963768239471, 11559.562272973333, -0.08055192204006018, 0.9617206362928263, -0.20557952411589214, 192.0, 126.5, 64.0, 15.0, 8.0, 124.5, 72.0, 0.0, 0.0, 0.0, 1.741811596600236E9, 0.0, 2025-03-12 15:33:16.600
122.0, -12310.133851782544, -29790.405010033253, -29143.65728421894, -26132.3185124777, -32980.1330542723, 5017.161967416045, 4157.402116942659, 39862.79396567273, -21071.145960229154, -27373.600289058722, -30176.68785770987, 6033.875767454597, -39054.39842395764, -17665.92474769649, 2921.574166008731, 11547.201758289548, -0.08055192204006018, 0.9617206362928263, -0.20557952411589214, 192.0, 0.0, 0.0, 0.0, 0.0, 0.0, 0.0, 0.0, 0.0, 0.0, 1.741811596600274E9, 0.0, 2025-03-12 15:33:16.600
124.0, -12317.353465241607, -29791.902576911758, -29144.998388886263, -26138.286428247266, -32983.8881473408, 5017.631354049606, 4144.751029580954, 39867.89016340854, -21075.348088186754, -27378.89765249463, -30179.906508911434, 6038.122598901105, -39057.21474375901, -17669.411619831517, 2965.405936885588, 11557.841188650274, -0.08055192204006018, 0.9617206362928263, -0.20557952411589214, 192.0, 0.0, 0.0, 0.0, 0.0, 0.0, 0.0, 0.0, 0.0, 0.0, 1.741811596600289E9, 0.0, 2025-03-12 15:33:16.600
126.0, -12318.202831530909, -29788.795684432473, -29142.763214440733, -26132.966713066904, -32982.10000778437, 5017.1172639271335, 4148.394363927169, 39863.06218660619, -21067.659088094126, -27369.08523667875, -30178.96773564431, 6027.349058073647, -39050.799793100334, -17660.292108093752, 2924.05520964327, 11536.003534317439, -0.08055192204006018, 0.9617206362928263, -0.20557952411589214, 192.0, 0.0, 0.0, 0.0, 0.0, 0.0, 0.0, 0.0, 0.0, 0.0, 1.741811596600304E9, 0.0, 2025-03-12 15:33:16.600
128.0, -12319.141604798033, -29789.399181532764, -29144.596057486066, -26132.989064811358, -32984.715161885644, 5019.195976161477, 4146.919148793119, 39872.20405008842, -21078.36557368822, -27379.121169939182, -30191.328250328097, 6032.28879359827, -39059.74049088246, -17669.143398898053, 2963.6177973291633, 11552.007383347438, -0.08055192204006018, 0.9617206362928263, -0.20557952411589214, 192.0, 0.0, 0.0, 0.0, 0.0, 0.0, 0.0, 0.0, 0.0, 0.0, 1.741811596600323E9, 0.0, 2025-03-12 15:33:16.600
130.0, -12312.413729716985, -29786.113475097834, -29131.56499046862, -26117.566361137197, -32977.96493506014, 5029.880110011114, 4149.735468594488, 39850.94754111142, -21073.381134674684, -27369.755789012408, -30181.11350311202, 6022.364619060114, -39048.02817678788, -17656.380552814073, 2922.5576427647643, 11547.4252757341, -0.0792759610200301, 0.9618603181464132, -0.20378976205794608, 192.0, 126.5, 72.0, 15.0, 8.0, 124.5, 88.0, 0.0, 0.0, 0.0, 1.741811596600339E9, 0.0, 2025-03-12 15:33:16.600
132.0, -12308.47982269285, -29776.971611615612, -29125.95470261034, -26112.134887234555, -32973.3828274468, 5026.952031487469, 4155.502218663957, 39855.79786965822, -21066.16152121562, -27359.921021452075, -30171.41284601842, 6049.164360662027, -39044.653063375124, -17646.411674787007, 2960.153276938591, 11568.994709133472, -0.0792759610200301, 0.9618603181464132, -0.20378976205794608, 192.0, 0.0, 0.0, 0.0, 0.0, 0.0, 0.0, 0.0, 0.0, 0.0, 1.741811596600355E9, 0.0, 2025-03-12 15:33:16.600
134.0, -12301.260209233787, -29775.250527292555, -29122.691347919867, -26112.961901779403, -32971.72879835711, 5023.174586674522, 4145.15336098115, 39830.853322846095, -21066.876777038193, -27363.385541842646, -30171.792825674158, 6033.5404912877675, -39039.15453423912, -17651.77609345628, 2935.2981371042893, 11551.985031602982, -0.0792759610200301, 0.9618603181464132, -0.20378976205794608, 192.0, 0.0, 0.0, 0.0, 0.0, 0.0, 0.0, 0.0, 0.0, 0.0, 1.74181159660037E9, 0.0, 2025-03-12 15:33:16.600
136.0, -12296.0522527757, -29775.250527292555, -29121.082022319082, -26110.659672100508, -32970.320638456426, 5022.727551785416, 4150.003689527952, 39851.1040033226, -21063.166387458612, -27361.79856798632, -30167.92597388339, 6051.243072896371, -39033.5665981253, -17652.0666661342, 2965.405936885588, 11563.317366041823, -0.0792759610200301, 0.9618603181464132, -0.20378976205794608, 192.0, 0.0, 0.0, 0.0, 0.0, 0.0, 0.0, 0.0, 0.0, 0.0, 1.741811596660182E9, 0.0, 2025-03-12 15:33:16.660
138.0, -12295.784031842237, -29765.88514636578, -29117.282225761683, -26110.190285466946, -32970.05241752296, 5018.100740683168, 4142.851131302254, 39835.21191301488, -21058.204300189533, -27355.562431283288, -30162.472148236295, 6040.178959390993, -39031.242016701945, -17648.624497488083, 2938.539140050309, 11547.648793178654, -0.0792759610200301, 0.9618603181464132, -0.20378976205794608, 192.0, 0.0, 0.0, 0.0, 0.0, 0.0, 0.0, 0.0, 0.0, 0.0, 1.7418115966602E9, 0.0, 2025-03-12 15:33:16.660
140.0, -12300.43319468894, -29771.920117368714, -29126.088813077073, -26117.49930590383, -32974.008676291545, 5012.870432480626, 4152.507084906946, 39864.44799476242, -21053.041047220355, -27355.18245162755, -30156.504232466727, 6055.266386898325, -39031.13025797967, -17648.870366677093, 2955.1688379250572, 11555.963642116028, -0.08063798051001506, 0.9609301590732066, -0.20589488102897305, 192.0, 126.5, 56.0, 15.0, 0.0, 124.5, 64.0, 0.0, 0.0, 0.0, 1.741811596660215E9, 0.0, 2025-03-12 15:33:16.660
142.0, -12303.115404023578, -29770.780178401492, -29122.71369966432, -26115.84527681414, -32968.979533789105, 5010.590554546185, 4132.837549786276, 39842.677395662955, -21064.06045723682, -27364.212556387494, -30166.9201453829, 6028.511348785323, -39045.18950524205, -17662.192006372454, 2940.148465651091, 11541.412656475622, -0.08063798051001506, 0.9609301590732066, -0.20589488102897305, 192.0, 0.0, 0.0, 0.0, 0.0, 0.0, 0.0, 0.0, 0.0, 0.0, 1.741811596660231E9, 0.0, 2025-03-12 15:33:16.660
144.0, -12298.868572577068, -29767.51682371102, -29127.29580727766, -26118.773355337784, -32974.70158036966, 5011.864603980137, 4150.651890117156, 39876.27206757928, -21054.583317587774, -27364.90546046561, -30159.49936622374, 6051.310128129737, -39042.999034285436, -17659.286279593263, 2951.6149105566637, 11558.779961917397, -0.08063798051001506, 0.9609301590732066, -0.20589488102897305, 192.0, 0.0, 0.0, 0.0, 0.0, 0.0, 0.0, 0.0, 0.0, 0.0, 1.741811596660257E9, 0.0, 2025-03-12 15:33:16.660
146.0, -12300.746119111314, -29770.333143512387, -29121.752574652743, -26113.1630674795, -32971.59468789038, 5020.5817843177065, 4132.971660253008, 39836.7541833823, -21059.523053112396, -27363.251431375913, -30161.868651136003, 6038.234357623382, -39045.18950524205, -17659.77801797128, 2953.023070457348, 11554.66724093762, -0.08063798051001506, 0.9609301590732066, -0.20589488102897305, 192.0, 0.0, 0.0, 0.0, 0.0, 0.0, 0.0, 0.0, 0.0, 0.0, 1.741811596660273E9, 0.0, 2025-03-12 15:33:16.660
148.0, -12303.830659846148, -29773.976477858603, -29130.827382901596, -26112.604273868117, -32973.91926931373, 5018.0560371942565, 4153.311747707337, 39861.36345402759, -21048.771864029393, -27357.26116386189, -30154.939610354857, 6053.455895597446, -39039.266292961394, -17650.032657388765, 2951.257282645379, 11564.09967709776, -0.08063798051001506, 0.9609301590732066, -0.20589488102897305, 192.0, 0.0, 0.0, 0.0, 0.0, 0.0, 0.0, 0.0, 0.0, 0.0, 1.741811596660288E9, 0.0, 2025-03-12 15:33:16.660
150.0, -12317.509927452795, -29787.47693150961, -29134.113089336526, -26123.109593762114, -32978.68019088271, 5009.271801623321, 4130.669430574111, 39839.682261905946, -21077.136227743176, -27376.12603618217, -30176.017305376212, 6018.855395180631, -39053.28083673488, -17671.98207044388, 2966.63528283063, 11556.656546194143, -0.08131899025500752, 0.9634650795366033, -0.20694744051448655, 192.0, 126.5, 56.0, 15.0, 24.0, 124.5, 64.0, 0.0, 0.0, 0.0, 1.741811596718966E9, 0.0, 2025-03-12 15:33:16.718
152.0, -12305.127061024556, -29776.70339068215, -29123.205438042336, -26112.045480256736, -32965.96204828764, 5017.653705794061, 4153.088230262784, 39848.37709049906, -21067.390867160662, -27369.107588423205, -30166.83073840508, 6028.421941807502, -39051.67151113409, -17665.83534071867, 2953.559512324275, 11553.884929881684, -0.08131899025500752, 0.9634650795366033, -0.20694744051448655, 192.0, 0.0, 0.0, 0.0, 0.0, 0.0, 0.0, 0.0, 0.0, 0.0, 1.741811596718987E9, 0.0, 2025-03-12 15:33:16.718
154.0, -12302.422499945462, -29775.854024392847, -29120.500876963244, -26107.888055788047, -32964.1292052423, 5025.856796009159, 4135.564462609824, 39822.71728786436, -21067.077942738288, -27364.301963365313, -30170.228203562285, 6022.901060927041, -39050.15159251113, -17659.710962737914, 2965.025957229848, 11559.942252629073, -0.08131899025500752, 0.9634650795366033, -0.20694744051448655, 192.0, 0.0, 0.0, 0.0, 0.0, 0.0, 0.0, 0.0, 0.0, 0.0, 1.741811596719002E9, 0.0, 2025-03-12 15:33:16.719
156.0, -12302.489555178829, -29780.682001195193, -29122.15490605294, -26109.02799475527, -32968.04076052198, 5021.56526107374, 4157.0668407758285, 39851.774555656266, -21061.490006624463, -27360.770387741377, -30164.483805237272, 6029.360715074625, -39045.10009826423, -17656.425256302984, 2948.396259355099, 11559.76343867343, -0.08131899025500752, 0.9634650795366033, -0.20694744051448655, 192.0, 0.0, 0.0, 0.0, 0.0, 0.0, 0.0, 0.0, 0.0, 0.0, 1.741811596719017E9, 0.0, 2025-03-12 15:33:16.719
158.0, -12307.42929070345, -29773.88707088078, -29127.18404855538, -26114.50417214682, -32974.54511815848, 5023.934545986002, 4142.292337690871, 39843.14678229651, -21067.904957283135, -27364.100797665214, -30171.9716396298, 6021.358790559625, -39047.35762445422, -17661.655564505527, 2973.407861400588, 11558.444685750566, -0.08131899025500752, 0.9634650795366033, -0.20694744051448655, 192.0, 0.0, 0.0, 0.0, 0.0, 0.0, 0.0, 0.0, 0.0, 0.0, 1.741811596719035E9, 0.0, 2025-03-12 15:33:16.719
160.0, -12296.812212087181, -29773.395332502765, -29128.368691011514, -26110.25734070031, -32973.04755127997, 5029.991868733391, 4163.928826323608, 39867.33136979716, -21074.677535853094, -27363.005562186907, -30172.26221230772, 6028.220776107404, -39048.855191332725, -17660.69443949395, 2954.475933846943, 11551.940328114073, -0.07865949512750375, 0.9637325397683016, -0.20547372025724328, 192.0, 126.5, 80.0, 15.0, 16.0, 124.5, 80.0, 0.0, 0.0, 0.0, 1.74181159671905E9, 0.0, 2025-03-12 15:33:16.719
162.0, -12303.96477031288, -29777.59746046036, -29135.25302830375, -26114.526523891276, -32972.64521987978, 5038.6643455820495, 4152.39532618467, 39859.172983070974, -21058.204300189533, -27354.22132661597, -30165.981372115777, 6036.870901211608, -39039.556865639315, -17644.556479997216, 2984.6731406060626, 11560.925729385106, -0.07865949512750375, 0.9637325397683016, -0.20547372025724328, 192.0, 0.0, 0.0, 0.0, 0.0, 0.0, 0.0, 0.0, 0.0, 0.0, 1.741811596719066E9, 0.0, 2025-03-12 15:33:16.719
164.0, -12291.984235284834, -29786.26993730902, -29137.465851004825, -26113.565398879695, -32971.30411521246, 5040.228967693922, 4162.25244548946, 39867.89016340854, -21070.65422185114, -27359.429283074056, -30171.25638380723, 6032.378200576091, -39035.2653307039, -17648.512738765807, 2957.9181024930604, 11557.505912483444, -0.07865949512750375, 0.9637325397683016, -0.20547372025724328, 192.0, 0.0, 0.0, 0.0, 0.0, 0.0, 0.0, 0.0, 0.0, 0.0, 1.741811596719092E9, 0.0, 2025-03-12 15:33:16.719
166.0, -12290.218447472866, -29781.106684339844, -29131.497935235257, -26110.63732035605, -32967.81724307743, 5044.565206118251, 4159.614939643734, 39852.3557010121, -21065.043933992856, -27359.898669707618, -30167.434235505374, 6031.506482542334, -39030.48205739046, -17649.9656021554, 2993.1668034990794, 11564.81493292033, -0.07865949512750375, 0.9637325397683016, -0.20547372025724328, 192.0, 0.0, 0.0, 0.0, 0.0, 0.0, 0.0, 0.0, 0.0, 0.0, 1.741811596779337E9, 0.0, 2025-03-12 15:33:16.779
168.0, -12292.587732385127, -29780.167911072724, -29135.163621325926, -26107.888055788047, -32965.15738548725, 5042.754714817371, 4173.405965972658, 39859.12827958206, -21062.808759547326, -27354.333085338247, -30165.355523271028, 6034.6580785105325, -39023.93299626506, -17645.986991642356, 2954.0736024467474, 11557.930595628095, -0.07865949512750375, 0.9637325397683016, -0.20547372025724328, 192.0, 0.0, 0.0, 0.0, 0.0, 0.0, 0.0, 0.0, 0.0, 0.0, 1.741811596779381E9, 0.0, 2025-03-12 15:33:16.779
170.0, -12274.214598442864, -29769.863756878825, -29121.730222908285, -26100.02024173978, -32957.40133016126, 5051.38248817712, 4172.042509560884, 39847.17009629847, -21059.03131473438, -27350.913268436587, -30166.987200616266, 6044.850473982153, -39016.53456885035, -17646.05404687572, 2987.5565156407974, 11567.564197488333, -0.07832974756375188, 0.9638662698841508, -0.20573686012862163, 192.0, 126.5, 72.0, 15.0, 16.0, 124.5, 72.0, 0.0, 0.0, 0.0, 1.741811596779397E9, 0.0, 2025-03-12 15:33:16.779
172.0, -12283.758793325282, -29781.821940162416, -29126.401737499447, -26102.523637118775, -32958.67537959521, 5049.683755598517, 4185.520611467435, 39850.12052656657, -21052.83988152026, -27341.547887509812, -30159.655828434927, 6042.570596047712, -39011.34896413672, -17635.14639558153, 2943.9482622084934, 11559.405810762146, -0.07832974756375188, 0.9638662698841508, -0.20573686012862163, 192.0, 0.0, 0.0, 0.0, 0.0, 0.0, 0.0, 0.0, 0.0, 0.0, 1.741811596779423E9, 0.0, 2025-03-12 15:33:16.779
174.0, -12294.688796363926, -29783.18539657419, -29135.275380048202, -26116.091146003146, -32964.91151629824, 5044.386392162609, 4173.473021206024, 39858.30126503721, -21066.429742149085, -27353.5060707934, -30174.966773386812, 6040.558939046734, -39021.04962123032, -17647.73042770987, 2991.959809298493, 11570.536979500888, -0.07832974756375188, 0.9638662698841508, -0.20573686012862163, 192.0, 0.0, 0.0, 0.0, 0.0, 0.0, 0.0, 0.0, 0.0, 0.0, 1.741811596779438E9, 0.0, 2025-03-12 15:33:16.779
176.0, -12300.76847085577, -29786.940489642682, -29137.778775427196, -26115.532352391765, -32962.16225173024, 5041.793589805793, 4176.535210196401, 39855.395538258024, -21073.13526548568, -27357.238812117437, -30179.906508911434, 6026.164415617516, -39029.02919400087, -17649.853843433124, 2954.274768146845, 11553.61670894822, -0.07832974756375188, 0.9638662698841508, -0.20573686012862163, 192.0, 0.0, 0.0, 0.0, 0.0, 0.0, 0.0, 0.0, 0.0, 0.0, 1.741811596779453E9, 0.0, 2025-03-12 15:33:16.779
178.0, -12303.405976701497, -29786.091123353377, -29139.209287072335, -26114.906503547016, -32961.089367996385, 5049.303775942776, 4171.774288627421, 39860.60349471611, -21075.906881798135, -27360.54687029682, -30186.0755903811, 6036.066238411217, -39031.4655341465, -17651.35141031163, 2990.015207530881, 11563.406773019646, -0.07832974756375188, 0.9638662698841508, -0.20573686012862163, 192.0, 0.0, 0.0, 0.0, 0.0, 0.0, 0.0, 0.0, 0.0, 0.0, 1.741811596779469E9, 0.0, 2025-03-12 15:33:16.779
180.0, -12308.189250014932, -29794.875358924313, -29152.843851190075, -26121.902599561527, -32967.303152954955, 5041.413610150053, 4169.941445582085, 39855.61905570258, -21079.1255329997, -27360.74803599692, -30189.83068344959, 6022.588136504667, -39033.544246380836, -17649.518567266296, 2956.4875908479203, 11552.476769981, -0.07516487378187595, 0.9619331349420754, -0.20486843006431082, 192.0, 126.5, 96.0, 15.0, 0.0, 124.5, 80.0, 0.0, 0.0, 0.0, 1.741811596839982E9, 0.0, 2025-03-12 15:33:16.839
182.0, -12321.712055410393, -29806.36415557434, -29162.96919142833, -26132.854954344628, -32976.80264434846, 5036.47387462543, 4167.706271136555, 39879.13309086956, -21093.095373284268, -27373.019143702884, -30203.845227223068, 6028.712514485421, -39043.334310452265, -17657.45343654793, 2991.3563121981997, 11563.540883486377, -0.07516487378187595, 0.9619331349420754, -0.20486843006431082, 192.0, 0.0, 0.0, 0.0, 0.0, 0.0, 0.0, 0.0, 0.0, 0.0, 1.741811596840027E9, 0.0, 2025-03-12 15:33:16.840
184.0, -12319.856860620603, -29794.42832403521, -29156.375426814015, -26121.29910246123, -32967.8842983108, 5048.320299186743, 4166.521628680423, 39861.65402670551, -21094.525884929408, -27369.88989947914, -30199.39723007646, 6016.262592823815, -39043.177848241074, -17657.051105147733, 2961.2485124169007, 11543.580775687788, -0.07516487378187595, 0.9619331349420754, -0.20486843006431082, 192.0, 0.0, 0.0, 0.0, 0.0, 0.0, 0.0, 0.0, 0.0, 0.0, 1.741811596840054E9, 0.0, 2025-03-12 15:33:16.840
186.0, -12309.53035468225, -29802.810228205948, -29158.655304748456, -26118.393375682044, -32964.48683315359, 5050.063735254256, 4183.665416677644, 39883.89401243854, -21080.623099878205, -27367.36415235569, -30193.78694221818, 6033.831063965687, -39038.61809237219, -17649.719732966394, 2984.628437117152, 11559.562272973333, -0.07516487378187595, 0.9619331349420754, -0.20486843006431082, 192.0, 0.0, 0.0, 0.0, 0.0, 0.0, 0.0, 0.0, 0.0, 0.0, 1.741811596840117E9, 0.0, 2025-03-12 15:33:16.840
188.0, -12308.993912815324, -29799.70333572666, -29157.67182799242, -26115.621759369584, -32966.09615875437, 5049.124961987133, 4179.709157909055, 39860.7599569273, -21079.974899289, -27359.56339354079, -30193.496369540262, 6021.962287659918, -39037.00876677141, -17642.880099163067, 2954.7441547804065, 11549.079304823794, -0.07516487378187595, 0.9619331349420754, -0.20486843006431082, 192.0, 0.0, 0.0, 0.0, 0.0, 0.0, 0.0, 0.0, 0.0, 0.0, 1.741811596840136E9, 0.0, 2025-03-12 15:33:16.840
190.0, -12310.29031399373, -29795.724725213615, -29153.469700034824, -26114.37006168009, -32962.51987964152, 5051.717764343949, 4197.076463350829, 39877.43435829096, -21078.11970449921, -27360.658629019097, -30191.574119517103, 6040.603642535644, -39033.94657778103, -17643.34948579663, 2970.8374107882278, 11568.033584121893, -0.07358243689093798, 0.9609665674710377, -0.20043421503215542, 192.0, 126.5, 96.0, 15.0, 0.0, 124.5, 112.0, 0.0, 0.0, 0.0, 1.741811596840151E9, 0.0, 2025-03-12 15:33:16.840
192.0, -12310.044444804722, -29806.341803829888, -29151.10041512256, -26120.87441931658, -32966.52084189902, 5046.375697419131, 4180.692634665088, 39858.0106923593, -21087.3286232148, -27367.006524444405, -30194.278680596195, 6026.924374928996, -39042.082612762766, -17651.485520778362, 2959.1921519270127, 11562.892682897173, -0.07358243689093798, 0.9609665674710377, -0.20043421503215542, 192.0, 0.0, 0.0, 0.0, 0.0, 0.0, 0.0, 0.0, 0.0, 0.0, 1.741811596840169E9, 0.0, 2025-03-12 15:33:16.840
194.0, -12307.876325592557, -29810.879207954313, -29152.70974072334, -26120.98617803886, -32966.99022853258, 5045.369868918642, 4199.579858729823, 39868.00192213082, -21083.729992357494, -27365.55366105481, -30187.483750281783, 6039.307241357236, -39031.97962426897, -17648.803311443724, 2962.723727550951, 11568.257101566447, -0.07358243689093798, 0.9609665674710377, -0.20043421503215542, 192.0, 0.0, 0.0, 0.0, 0.0, 0.0, 0.0, 0.0, 0.0, 0.0, 1.74181159684019E9, 0.0, 2025-03-12 15:33:16.840
196.0, -12316.48174720785, -29819.551684802973, -29154.900211679964, -26127.445832186444, -32971.05824602345, 5043.984060762413, 4179.932675353608, 39836.62007291557, -21096.917521586125, -27373.779103014363, -30199.285471354186, 6015.569688745701, -39036.65113886013, -17657.78871271476, 2958.9239309935488, 11547.268813522913, -0.07358243689093798, 0.9609665674710377, -0.20043421503215542, 192.0, 0.0, 0.0, 0.0, 0.0, 0.0, 0.0, 0.0, 0.0, 0.0, 1.741811596899928E9, 0.0, 2025-03-12 15:33:16.899
198.0, -12318.828680375658, -29820.624568536827, -29144.596057486066, -26121.567323394698, -32960.463519151635, 5049.192017220499, 4198.082291851317, 39853.04860509022, -21100.806725121347, -27372.2591843914, -30196.06682015262, 6027.885499940575, -39036.44997316003, -17652.82662544568, 2960.2426839164123, 11552.230900791992, -0.07358243689093798, 0.9609665674710377, -0.20043421503215542, 192.0, 0.0, 0.0, 0.0, 0.0, 0.0, 0.0, 0.0, 0.0, 0.0, 1.741811596899952E9, 0.0, 2025-03-12 15:33:16.899
200.0, -12319.38747398704, -29830.414632608252, -29147.926467409907, -26131.290332232755, -32958.921248784216, 5050.756639332371, 4185.475907978524, 39827.25469198879, -21101.32081524382, -27374.114379181192, -30196.44679980836, 6013.021589877795, -39026.63755734415, -17652.983087656867, 2962.9025415065935, 11551.895624625162, -0.07579121844546899, 0.9604832837355188, -0.20121710751607771, 192.0, 126.5, 72.0, 15.0, 0.0, 124.5, 88.0, 0.0, 0.0, 0.0, 1.741811596899967E9, 0.0, 2025-03-12 15:33:16.899
202.0, -12333.044389849234, -29852.453452641184, -29158.588249515087, -26138.085262547167, -32962.45282440815, 5043.112342728656, 4198.931658140619, 39857.429547003456, -21121.526792231416, -27390.498207866935, -30210.88602672649, 6004.863203151608, -39036.24880745993, -17661.387343572063, 2961.8967130061046, 11551.895624625162, -0.07579121844546899, 0.9604832837355188, -0.20121710751607771, 192.0, 0.0, 0.0, 0.0, 0.0, 0.0, 0.0, 0.0, 0.0, 0.0, 1.741811596899984E9, 0.0, 2025-03-12 15:33:16.899
204.0, -12341.739218442348, -29860.120100989356, -29157.67182799242, -26132.810250855717, -32964.46448140913, 5051.38248817712, 4188.336931268804, 39839.12346829456, -21133.17205109263, -27394.007431746417, -30215.22226515082, 5996.548354214234, -39036.137048737655, -17658.191044114952, 2976.5147538798756, 11549.414580990622, -0.07579121844546899, 0.9604832837355188, -0.20121710751607771, 192.0, 0.0, 0.0, 0.0, 0.0, 0.0, 0.0, 0.0, 0.0, 0.0, 1.741811596899999E9, 0.0, 2025-03-12 15:33:16.899
206.0, -12346.433084777962, -29862.154109734787, -29165.405531573957, -26135.537163679262, -32970.05241752296, 5045.749848574383, 4204.743111698998, 39864.22447731787, -21136.971847650035, -27394.32035616879, -30214.685823283893, 6004.751444429332, -39038.95336853902, -17653.564233012705, 2961.472029861454, 11556.209511305036, -0.07579121844546899, 0.9604832837355188, -0.20121710751607771, 192.0, 0.0, 0.0, 0.0, 0.0, 0.0, 0.0, 0.0, 0.0, 0.0, 1.741811596900014E9, 0.0, 2025-03-12 15:33:16.900
208.0, -12354.30089882623, -29870.737179605625, -29163.19270887288, -26138.509945691818, -32969.71714135613, 5050.264900954354, 4182.681939921611, 39848.041814332224, -21150.315839089853, -27404.55745512932, -30225.481715855803, 5988.479374465868, -39049.749261110934, -17664.762456984816, 2985.9695417844705, 11549.459284479533, -0.07579121844546899, 0.9604832837355188, -0.20121710751607771, 192.0, 0.0, 0.0, 0.0, 0.0, 0.0, 0.0, 0.0, 0.0, 0.0, 1.741811596900059E9, 0.0, 2025-03-12 15:33:16.900
210.0, -12352.982145903366, -29859.918935289257, -29155.19078435788, -26127.781108353272, -32961.67051335222, 5051.606005621673, 4204.050207620884, 39866.83963141914, -21147.499519288485, -27390.878187522674, -30217.25627389625, 5999.3199705266925, -39044.07191801929, -17654.34654406864, 2954.0736024467474, 11546.732371655986, -0.0768956092227345, 0.9592416418677594, -0.20360855375803888, 192.0, 126.5, 72.0, 14.5, 120.0, 124.5, 72.0, 0.0, 0.0, 0.0, 1.74181159696012E9, 0.0, 2025-03-12 15:33:16.960
212.0, -12357.16192211651, -29883.164749522777, -29156.777758214208, -26140.611009670618, -32969.605382633854, 5039.826636293726, 4182.145498054683, 39851.752203911805, -21158.585984538317, -27403.12694348418, -30224.520590844226, 5997.174203058983, -39048.34110121025, -17664.248366862343, 3000.6769896360624, 11554.153150815147, -0.0768956092227345, 0.9592416418677594, -0.20360855375803888, 192.0, 0.0, 0.0, 0.0, 0.0, 0.0, 0.0, 0.0, 0.0, 0.0, 1.741811596960146E9, 0.0, 2025-03-12 15:33:16.960
214.0, -12374.931558958478, -29891.2560810156, -29161.315162338637, -26143.0697015607, -32973.67340012472, 5028.114322199145, 4189.856849891764, 39862.883372650555, -21168.04077244291, -27406.90438829713, -30224.69940479987, 5996.369540258592, -39055.04662454684, -17669.277509364787, 2967.596407842208, 11535.780016872886, -0.0768956092227345, 0.9592416418677594, -0.20360855375803888, 192.0, 0.0, 0.0, 0.0, 0.0, 0.0, 0.0, 0.0, 0.0, 0.0, 1.741811596960166E9, 0.0, 2025-03-12 15:33:16.960
216.0, -12378.284320626775, -29886.830435613447, -29162.790377472687, -26144.209640527923, -32979.52955717201, 5028.717819299438, 4169.136782781695, 39854.92615162446, -21182.27883366094, -27414.86160932322, -30239.384500907006, 5987.808822132209, -39068.278857264384, -17678.754649013837, 3000.9675623139815, 11535.33298198378, -0.0768956092227345, 0.9592416418677594, -0.20360855375803888, 192.0, 0.0, 0.0, 0.0, 0.0, 0.0, 0.0, 0.0, 0.0, 0.0, 1.7418115969602E9, 0.0, 2025-03-12 15:33:16.960
