%OpenBCI Raw EXG Data
%Number of channels = 16
%Sample Rate = 125 Hz
%Board = OpenBCI_GUI$BoardCytonSerialDaisy
Sample Index, EXG Channel 0, EXG Channel 1, EXG Channel 2, EXG Channel 3, EXG Channel 4, EXG Channel 5, EXG Channel 6, EXG Channel 7, EXG Channel 8, EXG Channel 9, EXG Channel 10, EXG Channel 11, EXG Channel 12, EXG Channel 13, EXG Channel 14, EXG Channel 15, Accel Channel 0, Accel Channel 1, Accel Channel 2, Not Used, Digital Channel 0 (D11), Digital Channel 1 (D12), Digital Channel 2 (D13), Digital Channel 3 (D17), Not Used, Digital Channel 4 (D18), Analog Channel 0, Analog Channel 1, Analog Channel 2, Timestamp, Marker Channel, Timestamp (Formatted)
148.0, -12632.758931250446, -29884.90818559029, -28798.725163784646, -25471.019801022983, -32570.671447595534, 5236.633746222705, 4757.457048589832, 35527.091983210084, -21191.353641909798, -27021.58266563209, -29948.320084609997, 6457.888359771772, -38721.04450715119, -17289.968405958225, 3506.4299114262953, 12218.670513471427, 0.0, 0.0, 0.0, 192.0, 0.0, 0.0, 0.0, 0.0, 0.0, 0.0, 0.0, 0.0, 0.0, 1.741811654815829E9, 0.0, 2025-03-12 15:34:14.815
150.0, -12636.31285861884, -29897.06753457398, -28812.784411047032, -25508.280159029982, -32576.907584298562, 5227.9612693740455, 4790.492926894775, 35567.302771485185, -21179.104885948287, -26978.086170922063, -29943.670921763292, 6472.752269834551, -38712.37203030253, -17231.36213199641, 3497.444510155262, 12223.27497282922, 0.0, 0.0, 0.0, 192.0, 0.0, 0.0, 0.0, 0.0, 0.0, 0.0, 0.0, 0.0, 0.0, 1.741811654815914E9, 0.0, 2025-03-12 15:34:14.815
152.0, -12639.732675520501, -29901.046145087024, -28819.422879150257, -25509.6212636973, -32578.673372110534, 5220.831062892802, 4771.8739237635045, 35558.27266672524, -21197.612130357284, -26962.19408061434, -29963.295753395054, 6442.353897375334, -38721.06685889565, -17255.3232020525, 3514.834167341491, 12217.016484381735, -0.048, 0.484, -0.10300000000000001, 192.0, 126.5, 0.0, 15.0, 32.0, 124.5, 72.0, 0.0, 0.0, 0.0, 1.741811654815954E9, 0.0, 2025-03-12 15:34:14.815
154.0, -12621.650114256157, -29895.905243862304, -28828.452983910203, -25530.900124418753, -32573.554822630267, 5252.592891763794, 4805.066264279636, 35573.15892853247, -21198.1038687353, -26959.601278257524, -29955.78556725807, 6442.823284008895, -38707.09701861108, -17205.277646217066, 3495.745777576659, 12215.161289591944, -0.048, 0.484, -0.10300000000000001, 192.0, 0.0, 0.0, 0.0, 0.0, 0.0, 0.0, 0.0, 0.0, 0.0, 1.741811654815996E9, 0.0, 2025-03-12 15:34:14.815
156.0, -12613.938762419077, -29869.261964471578, -28817.500629127102, -25484.006164551516, -32568.05629349426, 5255.856246454268, 4797.176098486912, 35539.74307057179, -21183.53053135044, -26933.65090294491, -29941.748671740137, 6451.361650390822, -38702.47020750883, -17190.41373615429, 3502.0713212575106, 12216.79296693718, -0.048, 0.484, -0.10300000000000001, 192.0, 0.0, 0.0, 0.0, 0.0, 0.0, 0.0, 0.0, 0.0, 0.0, 1.741811654816066E9, 0.0, 2025-03-12 15:34:14.816
158.0, -12621.516003789426, -29886.942194335723, -28821.479239640146, -25473.65730686871, -32569.643267350588, 5260.416002323152, 4824.579337189119, 35562.31833247165, -21180.758915037983, -26940.736405937245, -29940.564029284007, 6466.672595342708, -38703.25251856477, -17211.871410831383, 3493.2870856865748, 12222.067978628635, -0.048, 0.484, -0.10300000000000001, 192.0, 0.0, 0.0, 0.0, 0.0, 0.0, 0.0, 0.0, 0.0, 0.0, 1.741811654816103E9, 0.0, 2025-03-12 15:34:14.816
160.0, -12622.991218923476, -29886.15988327979, -28814.639605836823, -25471.578594634368, -32570.693799339988, 5257.733792988514, 4811.794139360683, 35556.05984402417, -21188.91730176417, -26935.03671110114, -29940.094642650445, 6489.583133409397, -38698.31278304014, -17246.65072520384, 3525.384190724396, 12233.668534000939, -0.048, 0.484, -0.10300000000000001, 192.0, 0.0, 0.0, 0.0, 0.0, 0.0, 0.0, 0.0, 0.0, 0.0, 1.741811654816131E9, 0.0, 2025-03-12 15:34:14.816
162.0, -12608.574343749804, -29887.29982224701, -28810.638643579325, -25469.27636495547, -32564.77058705933, 5271.033080939422, 4825.093427311591, 35571.25903025377, -21182.368240638763, -26909.62277765546, -29933.187953613753, 6489.0466915424695, -38693.0824748376, -17263.839216689972, 3497.399806666351, 12230.382827566007, -0.07100000000000001, 0.724, -0.15250000000000002, 192.0, 126.5, 8.0, 15.0, 16.0, 124.5, 88.0, 0.0, 0.0, 0.0, 1.741811654816162E9, 0.0, 2025-03-12 15:34:14.816
164.0, -12612.508250773937, -29884.86348210138, -28813.633777336334, -25473.769065590986, -32568.168052216537, 5267.389746593207, 4809.067226537136, 35569.47089069735, -21183.91051100618, -26882.554815120082, -29935.62429375938, 6476.417955925222, -38689.37208525802, -17242.94033562426, 3525.0712663020217, 12244.799702739681, -0.07100000000000001, 0.724, -0.15250000000000002, 192.0, 0.0, 0.0, 0.0, 0.0, 0.0, 0.0, 0.0, 0.0, 0.0, 1.741811654816191E9, 0.0, 2025-03-12 15:34:14.816
0.0, -6352.164608498169, -14964.403505850258, -14371.456428939871, -12699.255371004983, -16248.31005910755, 2642.0208981062055, 2425.141921656361, 17540.129129902023, -10589.876543268747, -13431.409112383022, -14967.555101818456, 3238.790123318449, -19342.484395800162, -8623.191252135188, 1741.3126517906967, 6112.6656666595545, -0.092, 0.962, -0.20600000000000002, 192.0, 126.5, 16.0, 15.0, 8.0, 124.5, 72.0, 0.0, 0.0, 0.0, 1.74181165498436E9, 0.0, 2025-03-12 15:34:14.984
2.0, -12694.114469780263, -29927.756479711115, -28735.357968253848, -25386.12787558173, -32488.640545444556, 5293.004845738989, 4861.593826007107, 35080.41472201523, -21225.887087093244, -27087.922643175443, -29918.59226448444, 6544.05433464698, -38642.29931143514, -17191.26310244359, 3581.4870693072166, 12487.561999268772, -0.092, 0.962, -0.20600000000000002, 192.0, 0.0, 0.0, 0.0, 0.0, 0.0, 0.0, 0.0, 0.0, 0.0, 1.741811654984398E9, 0.0, 2025-03-12 15:34:14.984
4.0, -12708.956028098588, -29944.855564219426, -28740.610628200848, -25393.392192529704, -32495.27901354778, 5290.166174193165, 4849.233311323323, 35088.215480830135, -21232.749072641025, -27092.996489166795, -29921.05095637452, 6558.58296854293, -38647.641378359964, -17200.606131625907, 3618.412151147384, 12507.365644856172, -0.092, 0.962, -0.20600000000000002, 192.0, 0.0, 0.0, 0.0, 0.0, 0.0, 0.0, 0.0, 0.0, 0.0, 1.741811654984449E9, 0.0, 2025-03-12 15:34:14.984
6.0, -12705.580914685836, -29948.901229965835, -28743.382244513305, -25393.615709974256, -32495.5695862257, 5285.874639257746, 4853.614253236563, 35083.92394589471, -21237.711159910104, -27092.54945427769, -29925.811877943503, 6535.337154309411, -38643.90863703592, -17199.39913742532, 3576.189705871309, 12490.199505114497, -0.092, 0.962, -0.20600000000000002, 192.0, 0.0, 0.0, 0.0, 0.0, 0.0, 0.0, 0.0, 0.0, 0.0, 1.741811654984485E9, 0.0, 2025-03-12 15:34:14.984
8.0, -12711.571182199858, -29951.73990151166, -28742.845802646378, -25393.861579163266, -32491.85919664612, 5290.724967804547, 4856.00588989328, 35097.96084141265, -21245.489566980552, -27100.014936925763, -29935.31136933701, 6535.9406514097045, -38655.41978543041, -17203.087175260447, 3616.311087168585, 12510.830165246745, -0.096, 0.9540000000000001, -0.21, 192.0, 126.5, 0.0, 14.5, 104.0, 124.5, 56.0, 0.0, 0.0, 0.0, 1.741811654984511E9, 0.0, 2025-03-12 15:34:14.984
10.0, -12713.873411878754, -29951.762253256114, -28748.07611084892, -25400.857675177776, -32492.99913561334, 5282.544229333906, 4861.280901584733, 35095.6362599893, -21238.560526199406, -27097.08685840212, -29930.30457857902, 6527.983430383615, -38648.826020816094, -17205.657625872806, 3582.6270082744372, 12499.386072085628, -0.096, 0.9540000000000001, -0.21, 192.0, 0.0, 0.0, 0.0, 0.0, 0.0, 0.0, 0.0, 0.0, 0.0, 1.741811654984544E9, 0.0, 2025-03-12 15:34:14.984
12.0, -12730.883089409244, -29968.838986019968, -28761.21893658864, -25413.061727650373, -32504.10795260763, 5270.742508261503, 4860.520942273252, 35122.07837367992, -21249.088197837853, -27111.347271364604, -29940.988712428658, 6535.694782220696, -38661.99119830027, -17216.45351844472, 3621.5860988600375, 12510.316075124274, -0.096, 0.9540000000000001, -0.21, 192.0, 0.0, 0.0, 0.0, 0.0, 0.0, 0.0, 0.0, 0.0, 0.0, 1.741811654984571E9, 0.0, 2025-03-12 15:34:14.984
14.0, -12729.050246363908, -29954.39975910184, -28759.94488715469, -25412.637044505722, -32508.6230049876, 5268.663796027159, 4846.4840467553195, 35098.7878559575, -21271.417590548706, -27115.03530919973, -29949.616485788407, 6508.9397441076935, -38667.89205883647, -17226.064768560504, 3590.2936566226076, 12484.768031211857, -0.096, 0.9540000000000001, -0.21, 192.0, 0.0, 0.0, 0.0, 0.0, 0.0, 0.0, 0.0, 0.0, 0.0, 1.741811654984601E9, 0.0, 2025-03-12 15:34:14.984
16.0, -12726.479795751547, -29963.631029561882, -28758.670837720736, -25410.35716657128, -32506.67840321999, 5269.267293127453, 4853.100163114091, 35113.11532415335, -21253.290325795453, -27113.6495010435, -29943.89443920785, 6527.156415838768, -38668.09322453657, -17225.394216226843, 3616.534604613138, 12496.972083684455, -0.096, 0.9540000000000001, -0.21, 192.0, 0.0, 0.0, 0.0, 0.0, 0.0, 0.0, 0.0, 0.0, 0.0, 1.741811655044144E9, 0.0, 2025-03-12 15:34:15.044
18.0, -12711.951161855599, -29942.732148496172, -28739.873020633822, -25392.989861129507, -32490.62985070108, 5291.328464904841, 4848.2945380562, 35070.19997479916, -21247.85885189281, -27103.322995105147, -29942.285113607064, 6517.768683167539, -38656.49266916426, -17212.11728002039, 3592.8417554905127, 12478.509542764372, -0.088, 0.9540000000000001, -0.20800000000000002, 192.0, 126.5, 32.0, 14.5, 104.0, 124.5, 64.0, 0.0, 0.0, 0.0, 1.741811655044194E9, 0.0, 2025-03-12 15:34:15.044
20.0, -12714.767481656967, -29955.092663179956, -28745.997398614574, -25399.87419842174, -32501.112818850615, 5283.170078178654, 4860.699756228895, 35098.832559446404, -21241.86858437879, -27098.785590980722, -29928.40468030032, 6546.177750370235, -38648.28957894917, -17201.388442681844, 3618.9932965032217, 12504.66108377708, -0.088, 0.9540000000000001, -0.20800000000000002, 192.0, 0.0, 0.0, 0.0, 0.0, 0.0, 0.0, 0.0, 0.0, 0.0, 1.741811655044224E9, 0.0, 2025-03-12 15:34:15.044
22.0, -12710.207725788085, -29946.26372412011, -28736.49790722107, -25394.532131496922, -32494.89903389204, 5289.80854628188, 4846.752267688784, 35063.8744311183, -21244.193165802142, -27094.806980467678, -29928.985825656157, 6531.917337407749, -38652.08937550657, -17207.02108228458, 3606.699837052803, 12492.725252237948, -0.088, 0.9540000000000001, -0.20800000000000002, 192.0, 0.0, 0.0, 0.0, 0.0, 0.0, 0.0, 0.0, 0.0, 0.0, 1.741811655044251E9, 0.0, 2025-03-12 15:34:15.044
24.0, -12713.09110082282, -29936.853639704426, -28744.11985208033, -25396.856712920275, -32498.43060951598, 5287.081633458332, 4863.225503352345, 35083.879242405805, -21246.473043736583, -27099.32203284765, -29934.88668619236, 6539.963965411659, -38656.20209648635, -17209.591532896942, 3611.5054621106938, 12505.063415177276, -0.088, 0.9540000000000001, -0.20800000000000002, 192.0, 0.0, 0.0, 0.0, 0.0, 0.0, 0.0, 0.0, 0.0, 0.0, 1.741811655044279E9, 0.0, 2025-03-12 15:34:15.044
26.0, -12709.626580432247, -29937.814764716004, -28736.341445009883, -25392.431067518126, -32498.676478704987, 5291.149650949198, 4857.123477116046, 35062.24275377307, -21236.77238664298, -27090.06841064315, -29927.309444822007, 6535.67243047624, -38646.30027369264, -17199.801468825517, 3599.0331887046327, 12495.988606928422, -0.088, 0.9540000000000001, -0.20800000000000002, 192.0, 0.0, 0.0, 0.0, 0.0, 0.0, 0.0, 0.0, 0.0, 0.0, 1.741811655044311E9, 0.0, 2025-03-12 15:34:15.044
28.0, -12708.486641465026, -29931.221000101687, -28734.35213975336, -25386.68666919311, -32492.932080379975, 5296.402310896196, 4879.229352382345, 35080.19120457068, -21237.35353199882, -27090.157817620973, -29922.54852325303, 6547.876482948838, -38647.52961963769, -17199.801468825517, 3606.118691696965, 12505.443394833017, -0.094, 0.9560000000000001, -0.212, 192.0, 126.5, 8.0, 14.5, 112.0, 124.5, 48.0, 0.0, 0.0, 0.0, 1.741811655044346E9, 0.0, 2025-03-12 15:34:15.044
30.0, -12712.889935122721, -29951.851660233937, -28742.912857879743, -25400.388288544214, -32504.689097963466, 5284.801755523891, 4863.2702068412555, 35065.46140497463, -21235.990075587044, -27094.874035701043, -29925.856581432414, 6531.313840307455, -38649.384814427474, -17205.12118400588, 3615.7075900682917, 12510.651351291102, -0.094, 0.9560000000000001, -0.212, 192.0, 0.0, 0.0, 0.0, 0.0, 0.0, 0.0, 0.0, 0.0, 0.0, 1.741811655104445E9, 0.0, 2025-03-12 15:34:15.104
32.0, -12725.22809806205, -29959.674770793292, -28756.8379946754, -25409.038413648417, -32512.489856778368, 5273.625883296238, 4869.752212733294, 35100.97832691411, -21239.8122238889, -27100.707841003878, -29929.92459892328, 6536.566500254453, -38655.59859938605, -17210.798527097526, 3602.8106335175794, 12499.251961618897, -0.094, 0.9560000000000001, -0.212, 192.0, 0.0, 0.0, 0.0, 0.0, 0.0, 0.0, 0.0, 0.0, 0.0, 1.74181165510449E9, 0.0, 2025-03-12 15:34:15.104
34.0, -12733.386484788238, -29955.74086376916, -28758.760244698555, -25416.414489318668, -32515.350880068647, 5271.9271507176345, 4842.952471131382, 35095.79272220048, -21255.838424663358, -27115.16941966646, -29947.515421809607, 6517.858090145361, -38673.100015294556, -17222.041454558548, 3618.3450959140177, 12490.266560347864, -0.094, 0.9560000000000001, -0.212, 192.0, 0.0, 0.0, 0.0, 0.0, 0.0, 0.0, 0.0, 0.0, 0.0, 1.741811655104518E9, 0.0, 2025-03-12 15:34:15.104
36.0, -12736.828653434355, -29963.251049906143, -28760.50368076607, -25410.93831192712, -32513.495685278856, 5271.010729194967, 4858.621043994552, 35119.93260621221, -21254.698485696135, -27117.292835389715, -29943.961494441213, 6522.753122181073, -38671.15541352695, -17217.012312056104, 3595.8368892475237, 12484.589217256214, -0.094, 0.9560000000000001, -0.212, 192.0, 0.0, 0.0, 0.0, 0.0, 0.0, 0.0, 0.0, 0.0, 0.0, 1.741811655104549E9, 0.0, 2025-03-12 15:34:15.104
38.0, -12740.069656380374, -29964.59215457346, -28761.375398799828, -25414.246370106506, -32515.283824835282, 5269.46845882755, 4838.4374187514095, 35103.36996357083, -21271.97638416009, -27123.014881970274, -29953.192764901254, 6515.511156977554, -38672.13889028298, -17226.64591391634, 3617.272212180163, 12490.579484770238, -0.092, 0.9560000000000001, -0.22, 192.0, 126.5, 16.0, 14.5, 112.0, 124.5, 16.0, 0.0, 0.0, 0.0, 1.741811655104576E9, 0.0, 2025-03-12 15:34:15.104
40.0, -12726.055112606897, -29948.990636943658, -28749.238401560593, -25396.230864075525, -32501.895129906552, 5282.119546189255, 4854.575378248141, 35101.000678658565, -21264.466198023107, -27114.342405121613, -29943.179183385277, 6519.735636679607, -38666.79682335816, -17219.381596968364, 3585.0633484200657, 12490.311263836773, -0.092, 0.9560000000000001, -0.22, 192.0, 0.0, 0.0, 0.0, 0.0, 0.0, 0.0, 0.0, 0.0, 0.0, 1.741811655104607E9, 0.0, 2025-03-12 15:34:15.104
42.0, -12735.28638306694, -29962.40168361684, -28752.79232892899, -25396.96847164255, -32502.85625491813, 5287.260447413975, 4841.4325525084205, 35083.85689066135, -21246.562450714406, -27104.93232070593, -29939.200572872232, 6523.557784981464, -38663.66757913442, -17211.53613466455, 3617.4510261358055, 12508.103252423198, -0.092, 0.9560000000000001, -0.22, 192.0, 0.0, 0.0, 0.0, 0.0, 0.0, 0.0, 0.0, 0.0, 0.0, 1.741811655104633E9, 0.0, 2025-03-12 15:34:15.104
44.0, -12728.916135897176, -29953.75155851264, -28755.787462686, -25399.002480387986, -32499.704658949933, 5280.040833954911, 4849.345070045599, 35091.0318006315, -21254.363209529307, -27115.459992344382, -29944.69910200824, 6512.158395309258, -38669.456680948344, -17220.387425468853, 3590.5842293005267, 12499.833106974735, -0.092, 0.9560000000000001, -0.22, 192.0, 0.0, 0.0, 0.0, 0.0, 0.0, 0.0, 0.0, 0.0, 0.0, 1.741811655104659E9, 0.0, 2025-03-12 15:34:15.104
46.0, -12726.748016685013, -29948.78947124356, -28747.60672421536, -25399.985957144017, -32495.547234481244, 5284.242961912509, 4838.124494329035, 35071.13874806628, -21250.384599016263, -27111.70489927589, -29941.54750604004, 6522.686066947707, -38663.019378545214, -17219.471003946186, 3624.33536342804, 12504.214048887974, -0.092, 0.9560000000000001, -0.22, 192.0, 0.0, 0.0, 0.0, 0.0, 0.0, 0.0, 0.0, 0.0, 0.0, 1.741811655164584E9, 0.0, 2025-03-12 15:34:15.164
48.0, -12721.808281160389, -29942.083947906965, -28748.724311438124, -25398.913073410164, -32495.23431005887, 5281.560752577871, 4847.087543855613, 35073.48568123409, -21244.081407079866, -27103.16653289396, -29930.05870939001, 6523.110750092358, -38657.722015109306, -17215.537096922053, 3585.979769942733, 12493.105231893687, -0.088, 0.9580000000000001, -0.216, 192.0, 126.5, 32.0, 14.5, 120.0, 124.5, 32.0, 0.0, 0.0, 0.0, 1.741811655164673E9, 0.0, 2025-03-12 15:34:15.164
50.0, -12746.842234950333, -29972.482320366184, -28766.87392793583, -25422.427108577147, -32517.161371369526, 5263.433487824618, 4829.742590158295, 35095.18922510019, -21260.867567165802, -27123.283102903737, -29946.286075864566, 6518.998029112581, -38678.01739907472, -17229.17166103979, 3635.5782908890596, 12509.153784412598, -0.088, 0.9580000000000001, -0.216, 192.0, 0.0, 0.0, 0.0, 0.0, 0.0, 0.0, 0.0, 0.0, 0.0, 1.741811655164711E9, 0.0, 2025-03-12 15:34:15.164
52.0, -12736.962763901087, -29956.41141610282, -28757.396788286784, -25407.987881659017, -32503.213882829416, 5269.289644871908, 4837.699811184384, 35078.71598943663, -21259.01237237601, -27120.533838335734, -29945.68257876427, 6500.110805047847, -38675.670465906915, -17227.696445905738, 3590.9418572118116, 12486.265598090364, -0.088, 0.9580000000000001, -0.216, 192.0, 0.0, 0.0, 0.0, 0.0, 0.0, 0.0, 0.0, 0.0, 0.0, 1.741811655164738E9, 0.0, 2025-03-12 15:34:15.164
54.0, -12730.972496387065, -29960.233564404676, -28747.919648637733, -25404.903340924186, -32503.10212410714, 5268.596740793793, 4836.470465239342, 35082.80635867195, -21251.59159321685, -27113.537742321223, -29942.19570662924, 6522.9095843922605, -38670.864840849026, -17228.098777305935, 3629.7668373306797, 12500.615418030671, -0.088, 0.9580000000000001, -0.216, 192.0, 0.0, 0.0, 0.0, 0.0, 0.0, 0.0, 0.0, 0.0, 0.0, 1.741811655164768E9, 0.0, 2025-03-12 15:34:15.164
56.0, -12729.832557419844, -29946.196668886743, -28750.7359684391, -25401.014137388964, -32506.790161942266, 5267.948540204589, 4837.990383862303, 35075.40793125724, -21249.82580540488, -27109.201503896893, -29932.852677446925, 6516.785206411506, -38664.31577972362, -17224.03075981507, 3591.18772640082, 12491.42885105954, -0.088, 0.9580000000000001, -0.216, 192.0, 0.0, 0.0, 0.0, 0.0, 0.0, 0.0, 0.0, 0.0, 0.0, 1.741811655164794E9, 0.0, 2025-03-12 15:34:15.164
58.0, -12725.116339339775, -29949.348264854943, -28740.767090412035, -25392.229901818027, -32499.458789760924, 5283.125374689744, 4836.157540816968, 35074.75973066804, -21248.797625159936, -27111.302567875693, -29936.428956559776, 6528.609279228363, -38670.998951315756, -17223.203745270224, 3625.631764606448, 12513.735892025936, -0.094, 0.9520000000000001, -0.218, 192.0, 126.5, 8.0, 14.5, 96.0, 124.5, 24.0, 0.0, 0.0, 0.0, 1.741811655164825E9, 0.0, 2025-03-12 15:34:15.164
60.0, -12728.603211474803, -29956.03143644708, -28747.65142770427, -25397.080230364827, -32502.230406073384, 5282.588932822816, 4830.010811091758, 35063.29328576247, -21238.40406398822, -27102.31716660466, -29927.085927377455, 6514.505328477065, -38662.34882621156, -17210.016216041593, 3589.3772350999398, 12512.551249569804, -0.094, 0.9520000000000001, -0.218, 192.0, 0.0, 0.0, 0.0, 0.0, 0.0, 0.0, 0.0, 0.0, 0.0, 1.741811655224926E9, 0.0, 2025-03-12 15:34:15.224
62.0, -12743.735342471045, -29963.318105139508, -28757.821471431434, -25411.877085194243, -32512.75807771183, 5271.033080939422, 4826.881566868015, 35098.22906234611, -21262.20867183312, -27119.975044724353, -29942.35216884043, 6513.633610443308, -38679.04557931967, -17227.78585288356, 3631.1302937424534, 12530.14207245613, -0.094, 0.9520000000000001, -0.218, 192.0, 0.0, 0.0, 0.0, 0.0, 0.0, 0.0, 0.0, 0.0, 0.0, 1.74181165522497E9, 0.0, 2025-03-12 15:34:15.224
64.0, -12728.782025430444, -29943.536811296563, -28745.21508755864, -25394.487428008015, -32504.420877030003, 5284.980569479534, 4827.328601757122, 35075.0279516015, -21254.83259616287, -27111.771954509255, -29942.173354884788, 6495.595752667875, -38678.28562000819, -17223.717835392694, 3602.5871160730267, 12510.628999546649, -0.094, 0.9520000000000001, -0.218, 192.0, 0.0, 0.0, 0.0, 0.0, 0.0, 0.0, 0.0, 0.0, 0.0, 1.741811655224998E9, 0.0, 2025-03-12 15:34:15.224
66.0, -12724.490490495025, -29932.092718135445, -28738.59897119987, -25383.378611013726, -32505.069077619206, 5294.256543428486, 4834.458808238364, 35092.57407099892, -21244.34962801333, -27097.578596780135, -29926.281264577065, 6528.139892594802, -38673.167070527925, -17206.372881695377, 3625.363543672984, 12531.505528867905, -0.094, 0.9520000000000001, -0.218, 192.0, 0.0, 0.0, 0.0, 0.0, 0.0, 0.0, 0.0, 0.0, 0.0, 1.741811655225025E9, 0.0, 2025-03-12 15:34:15.225
68.0, -12709.850097876799, -29930.885723934858, -28730.015901329032, -25375.309631265358, -32502.85625491813, 5302.951372021601, 4828.781465146717, 35069.93175386569, -21229.172793528178, -27080.814788438656, -29917.631139472862, 6529.570404239942, -38656.69383486436, -17189.58672160944, 3601.7377497837247, 12520.19554617352, -0.10200000000000001, 0.9560000000000001, -0.218, 192.0, 126.0, 104.0, 14.5, 112.0, 124.5, 24.0, 0.0, 0.0, 0.0, 1.741811655225053E9, 0.0, 2025-03-12 15:34:15.225
70.0, -12720.534231726437, -29935.601942014928, -28737.25786653255, -25388.40775351617, -32504.465580518914, 5290.657912571181, 4838.929157129426, 35094.54102451098, -21231.184450529152, -27089.911948431964, -29918.502857506617, 6546.177750370235, -38664.58400065709, -17189.698480331717, 3634.9747937887664, 12537.562851615294, -0.10200000000000001, 0.9560000000000001, -0.218, 192.0, 0.0, 0.0, 0.0, 0.0, 0.0, 0.0, 0.0, 0.0, 0.0, 1.741811655225085E9, 0.0, 2025-03-12 15:34:15.225
72.0, -12742.61775524828, -29959.585363815473, -28755.340427796895, -25407.607902003278, -32514.903845179542, 5269.669624527648, 4830.5696047031415, 35082.09110284938, -21254.02793336248, -27107.949806207398, -29935.333721081464, 6516.919316878238, -38673.36823622802, -17214.93359982176, 3617.987468002733, 12514.652313548602, -0.10200000000000001, 0.9560000000000001, -0.218, 192.0, 0.0, 0.0, 0.0, 0.0, 0.0, 0.0, 0.0, 0.0, 0.0, 1.741811655225164E9, 0.0, 2025-03-12 15:34:15.225
74.0, -12734.772292944466, -29944.185011885766, -28745.79623291448, -25397.080230364827, -32501.8727781621, 5275.816354252858, 4845.589976977108, 35095.055114633455, -21252.39625601724, -27118.7009952904, -29941.949837440236, 6522.239032058601, -38681.75014039876, -17225.617733671395, 3622.5472238716156, 12512.640656547626, -0.10200000000000001, 0.9560000000000001, -0.218, 192.0, 0.0, 0.0, 0.0, 0.0, 0.0, 0.0, 0.0, 0.0, 0.0, 1.741811655225192E9, 0.0, 2025-03-12 15:34:15.225
76.0, -12729.497281253014, -29943.335645596464, -28741.63880844579, -25391.045259361897, -32497.871815904597, 5279.906723488179, 4834.034125093714, 35066.668399175214, -21248.708218182113, -27102.02659392674, -29930.34928206793, 6520.763816924551, -38665.83569834658, -17211.044396286536, 3613.181842944842, 12511.813642002779, -0.10200000000000001, 0.9560000000000001, -0.218, 192.0, 0.0, 0.0, 0.0, 0.0, 0.0, 0.0, 0.0, 0.0, 0.0, 1.741811655285377E9, 0.0, 2025-03-12 15:34:15.285
78.0, -12726.546850984914, -29948.1189189099, -28738.17428805522, -25391.559349484367, -32494.586109469667, 5278.587970565316, 4846.394639777499, 35091.52353900952, -21244.77431115798, -27103.255939871782, -29930.97513091268, 6530.442122273698, -38669.590791415074, -17211.670245131285, 3611.7513312997025, 12520.955505484999, -0.098, 0.9540000000000001, -0.22, 192.0, 126.0, 120.0, 14.5, 104.0, 124.5, 16.0, 0.0, 0.0, 0.0, 1.741811655285419E9, 0.0, 2025-03-12 15:34:15.285
80.0, -12746.886938439244, -29953.192764901254, -28748.38903527129, -25407.049108391897, -32506.879568920085, 5263.992281436001, 4820.578374931619, 35083.16398658323, -21255.749017685535, -27110.386146353027, -29941.03341591757, 6514.684142432707, -38675.29048625118, -17218.643989401342, 3618.546261614116, 12523.86123226419, -0.098, 0.9540000000000001, -0.22, 192.0, 0.0, 0.0, 0.0, 0.0, 0.0, 0.0, 0.0, 0.0, 0.0, 1.741811655285449E9, 0.0, 2025-03-12 15:34:15.285
82.0, -12730.458406264594, -29953.617448045905, -28744.276314291517, -25398.22016933205, -32504.19735958545, 5266.093345414799, 4843.62302346504, 35103.437018804194, -21246.49539548104, -27110.02851844174, -29931.98095941317, 6524.563613481952, -38670.641323404474, -17212.921942820783, 3601.0448457056104, 12511.724235024958, -0.098, 0.9540000000000001, -0.22, 192.0, 0.0, 0.0, 0.0, 0.0, 0.0, 0.0, 0.0, 0.0, 0.0, 1.741811655285477E9, 0.0, 2025-03-12 15:34:15.285
84.0, -12739.421455791171, -29948.096567165445, -28743.471651491127, -25402.288186822916, -32506.745458453355, 5264.729889003025, 4819.214918519845, 35091.05415237596, -21243.09793032383, -27115.12471617755, -29937.50184029363, 6514.415921499243, -38678.486785708286, -17224.857774359916, 3621.9437267713224, 12510.42783384655, -0.098, 0.9540000000000001, -0.22, 192.0, 0.0, 0.0, 0.0, 0.0, 0.0, 0.0, 0.0, 0.0, 0.0, 1.741811655285509E9, 0.0, 2025-03-12 15:34:15.285
86.0, -12725.026932361954, -29949.504727066127, -28732.653407174756, -25383.289204035904, -32493.312060035714, 5278.789136265414, 4834.324697771633, 35090.8306349314, -21256.330163041373, -27103.010070682776, -29926.907113421814, 6524.764779182051, -38672.541221683176, -17212.564314909498, 3601.4918805947163, 12498.290836607319, -0.098, 0.9540000000000001, -0.22, 192.0, 0.0, 0.0, 0.0, 0.0, 0.0, 0.0, 0.0, 0.0, 0.0, 1.741811655285536E9, 0.0, 2025-03-12 15:34:15.285
88.0, -12737.119226112274, -29953.55039281254, -28743.73987242459, -25397.817837931852, -32501.582205484177, 5271.524819317439, 4824.020543577736, 35084.90742265075, -21242.270915778987, -27110.542608564214, -29927.734127966658, 6522.216680314145, -38669.74725362626, -17218.487527190155, 3632.203177476308, 12510.293723379818, -0.094, 0.9500000000000001, -0.218, 192.0, 126.5, 8.0, 14.5, 88.0, 124.5, 24.0, 0.0, 0.0, 0.0, 1.741811655285563E9, 0.0, 2025-03-12 15:34:15.285
90.0, -12725.630429462246, -29948.40949158782, -28741.0353113455, -25391.291128550904, -32494.072019347197, 5271.480115828528, 4845.120590343546, 35090.383600042296, -21242.561488456904, -27110.967291708865, -29923.375537797874, 6521.076741346925, -38667.377968714, -17212.854887587415, 3598.921429982356, 12495.675682506047, -0.094, 0.9500000000000001, -0.218, 192.0, 0.0, 0.0, 0.0, 0.0, 0.0, 0.0, 0.0, 0.0, 0.0, 1.741811655344691E9, 0.0, 2025-03-12 15:34:15.344
92.0, -12740.986077903042, -29957.93133472578, -28743.672817191222, -25397.996651887497, -32495.390772270057, 5271.591874550805, 4828.177968046423, 35078.93950688118, -21245.042532091444, -27106.631053284535, -29927.108279121912, 6523.535433237009, -38668.473204192305, -17212.139631764847, 3631.465569909283, 12509.891391979623, -0.094, 0.9500000000000001, -0.218, 192.0, 0.0, 0.0, 0.0, 0.0, 0.0, 0.0, 0.0, 0.0, 0.0, 1.741811655344796E9, 0.0, 2025-03-12 15:34:15.344
94.0, -12736.180452845152, -29951.359921855917, -28753.440529518193, -25407.6973089811, -32507.5724729982, 5253.442258053095, 4833.497683226787, 35102.94528042618, -21255.570203729894, -27115.214123155372, -29936.87599144888, 6514.371218010333, -38678.55384094165, -17227.517631950097, 3608.465624864772, 12505.219877388463, -0.094, 0.9500000000000001, -0.218, 192.0, 0.0, 0.0, 0.0, 0.0, 0.0, 0.0, 0.0, 0.0, 0.0, 1.741811655344833E9, 0.0, 2025-03-12 15:34:15.344
96.0, -12742.014258147987, -29959.138328926365, -28747.629075959812, -25408.50197178149, -32504.57733924119, 5253.129333630721, 4822.277107510222, 35097.290289078985, -21254.92200314069, -27124.512448848778, -29937.703005993728, 6514.818252899439, -38687.27102127922, -17236.65949543232, 3643.7366776152467, 12505.130470410642, -0.094, 0.9500000000000001, -0.218, 192.0, 0.0, 0.0, 0.0, 0.0, 0.0, 0.0, 0.0, 0.0, 0.0, 1.741811655344859E9, 0.0, 2025-03-12 15:34:15.344
98.0, -12726.479795751547, -29952.656323034327, -28738.5319159665, -25391.492294251002, -32492.86502514661, 5264.036984924911, 4838.996212362792, 35086.382637784794, -21241.779177400967, -27108.240378885315, -29924.850752931925, 6517.589869211897, -38668.60731465904, -17217.481698689666, 3594.47343283575, 12488.344310324706, -0.09, 0.9500000000000001, -0.218, 192.0, 126.5, 24.0, 14.5, 88.0, 124.5, 24.0, 0.0, 0.0, 0.0, 1.741811655344893E9, 0.0, 2025-03-12 15:34:15.344
100.0, -12727.195051574117, -29950.108224166423, -28732.742814152578, -25391.581701228824, -32494.161426325016, 5272.173019906642, 4838.52682572923, 35077.64310570277, -21241.130976811764, -27112.21898939836, -29927.667072733293, 6522.596659969886, -38671.066006549125, -17218.17460276778, 3631.2644042091856, 12509.265543134874, -0.09, 0.9500000000000001, -0.218, 192.0, 0.0, 0.0, 0.0, 0.0, 0.0, 0.0, 0.0, 0.0, 0.0, 1.741811655344926E9, 0.0, 2025-03-12 15:34:15.344
102.0, -12712.577010700346, -29935.31136933701, -28721.522238436013, -25377.433046988615, -32484.706638420423, 5276.643368797704, 4852.63077648053, 35058.24179151557, -21234.29134300844, -27093.59998626709, -29910.29976729152, 6526.105883849369, -38655.1739162414, -17198.77328858057, 3586.024473431644, 12499.050795918798, -0.09, 0.9500000000000001, -0.218, 192.0, 0.0, 0.0, 0.0, 0.0, 0.0, 0.0, 0.0, 0.0, 0.0, 1.741811655344953E9, 0.0, 2025-03-12 15:34:15.344
104.0, -12736.895708667722, -29945.92844795328, -28734.732119409102, -25389.681802950123, -32501.604557228635, 5261.622996523738, 4840.359668774566, 35077.91132663624, -21239.096968066333, -27106.385184095525, -29917.385270283852, 6535.694782220696, -38667.31091348063, -17212.74312886514, 3640.920357813878, 12521.559002585293, -0.09, 0.9500000000000001, -0.218, 192.0, 0.0, 0.0, 0.0, 0.0, 0.0, 0.0, 0.0, 0.0, 0.0, 1.741811655344981E9, 0.0, 2025-03-12 15:34:15.344
106.0, -12721.964743371576, -29948.9682851992, -28726.081994304895, -25379.757628411964, -32498.296499049247, 5266.85330472628, 4834.950546616381, 35064.76850089651, -21241.645066934238, -27107.45806782938, -29923.084965119957, 6518.372180267833, -38674.10584379505, -17218.465175445697, 3610.119653954465, 12495.921551695055, -0.09, 0.9500000000000001, -0.218, 192.0, 0.0, 0.0, 0.0, 0.0, 0.0, 0.0, 0.0, 0.0, 0.0, 1.74181165540433E9, 0.0, 2025-03-12 15:34:15.404
108.0, -12723.752882928, -29936.3171978375, -28715.55432266645, -25373.655602175666, -32493.557929224724, 5272.508296073473, 4843.086581598113, 35066.44488173066, -21231.787947629447, -27098.249149113795, -29910.63504345835, 6536.432389787721, -38662.818212845115, -17206.372881695377, 3639.020459535177, 12514.272333892863, -0.092, 0.9540000000000001, -0.218, 192.0, 126.5, 16.0, 14.5, 104.0, 124.5, 24.0, 0.0, 0.0, 0.0, 1.741811655404366E9, 0.0, 2025-03-12 15:34:15.404
110.0, -12725.94335388462, -29931.198648357233, -28719.44352620167, -25377.477750477523, -32492.753266424334, 5268.194409393598, 4837.476293739831, 35050.84336410086, -21240.080444822364, -27097.735058991322, -29918.122877850878, 6521.702590191673, -38664.427538445896, -17206.059957273003, 3607.3033341530963, 12508.527935567849, -0.092, 0.9540000000000001, -0.218, 192.0, 0.0, 0.0, 0.0, 0.0, 0.0, 0.0, 0.0, 0.0, 0.0, 1.741811655404395E9, 0.0, 2025-03-12 15:34:15.404
112.0, -12721.875336393756, -29944.49793630814, -28724.137392537286, -25382.752762168977, -32492.015658857308, 5270.451935583585, 4848.965090389859, 35067.85304163135, -21227.58581967185, -27100.193750881404, -29913.764287682094, 6537.728790966129, -38662.57234365611, -17208.45159392972, 3634.170130988375, 12526.006999731899, -0.092, 0.9540000000000001, -0.218, 192.0, 0.0, 0.0, 0.0, 0.0, 0.0, 0.0, 0.0, 0.0, 0.0, 1.741811655404422E9, 0.0, 2025-03-12 15:34:15.404
114.0, -12717.762615413978, -29944.006197930124, -28725.322034993416, -25383.937404625107, -32491.456865245924, 5276.464554842062, 4837.6774594399285, 35049.94929432265, -21242.561488456904, -27103.21123638287, -29920.961549396703, 6523.356619281366, -38661.208887244335, -17210.418547441786, 3607.6609620643812, 12509.913743724079, -0.092, 0.9540000000000001, -0.218, 192.0, 0.0, 0.0, 0.0, 0.0, 0.0, 0.0, 0.0, 0.0, 0.0, 1.741811655404468E9, 0.0, 2025-03-12 15:34:15.404
116.0, -12716.667379935669, -29944.095604907943, -28725.702014649156, -25385.390268014704, -32488.819359400197, 5282.298360144897, 4852.116686358057, 35064.61203868533, -21228.748110383523, -27100.014936925763, -29914.72541269367, 6543.540244524508, -38654.123384252, -17203.713024105196, 3628.5151396411825, 12521.827223518756, -0.092, 0.9540000000000001, -0.218, 192.0, 0.0, 0.0, 0.0, 0.0, 0.0, 0.0, 0.0, 0.0, 0.0, 1.741811655404503E9, 0.0, 2025-03-12 15:34:15.404
118.0, -12723.417606761172, -29956.07613993599, -28740.677683434213, -25399.427163532637, -32501.559853739724, 5275.324615874841, 4840.560834474663, 35054.48669844707, -21253.58089847337, -27103.010070682776, -29925.677767476773, 6521.412017513754, -38658.99606454326, -17209.993864297136, 3615.6181830904707, 12508.974970456955, -0.096, 0.9540000000000001, -0.222, 192.0, 126.5, 0.0, 14.5, 104.0, 124.5, 8.0, 0.0, 0.0, 0.0, 1.74181165540453E9, 0.0, 2025-03-12 15:34:15.404
120.0, -12728.759673685989, -29978.58434660248, -28749.283105049504, -25400.388288544214, -32501.09046710616, 5277.671549042649, 4849.814456679161, 35082.1805098272, -21255.88312815227, -27114.901198732998, -29931.35511056842, 6527.469340261143, -38664.82986984609, -17211.580838153463, 3630.437389664339, 12515.032293204344, -0.096, 0.9540000000000001, -0.222, 192.0, 0.0, 0.0, 0.0, 0.0, 0.0, 0.0, 0.0, 0.0, 0.0, 1.741811655465249E9, 0.0, 2025-03-12 15:34:15.465
122.0, -12738.482682524049, -29991.034268264088, -28756.07803536392, -25406.199742102595, -32503.213882829416, 5280.621979310748, 4835.688154183406, 35068.09891082036, -21283.01814592101, -27117.04696620071, -29940.45227056173, 6510.14673830828, -38666.729768124795, -17208.093966018434, 3615.1264447124536, 12504.19169714352, -0.096, 0.9540000000000001, -0.222, 192.0, 0.0, 0.0, 0.0, 0.0, 0.0, 0.0, 0.0, 0.0, 0.0, 1.741811655465297E9, 0.0, 2025-03-12 15:34:15.465
124.0, -12739.421455791171, -29983.635840849383, -28753.37347428483, -25403.942215912608, -32494.42964725848, 5287.506316602983, 4844.874721154538, 35077.307829535945, -21272.088142882367, -27117.918684234464, -29942.039244418058, 6520.67440994673, -38660.650093632954, -17208.161021251803, 3607.057464964088, 12509.198487901509, -0.096, 0.9540000000000001, -0.222, 192.0, 0.0, 0.0, 0.0, 0.0, 0.0, 0.0, 0.0, 0.0, 0.0, 1.741811655465323E9, 0.0, 2025-03-12 15:34:15.465
126.0, -12741.18724360314, -30019.219818022233, -28750.154823083263, -25405.88681768022, -32490.495740234346, 5289.316807903863, 4827.865043624049, 35040.20393374014, -21291.44475358066, -27118.745698779312, -29955.36088411342, 6498.1438515357795, -38657.990236042766, -17205.79173633954, 3592.484127579228, 12499.989569185922, -0.096, 0.9560000000000001, -0.219, 192.0, 126.5, 0.0, 14.5, 120.0, 124.5, 32.0, 0.0, 0.0, 0.0, 1.74181165546535E9, 0.0, 2025-03-12 15:34:15.465
128.0, -12740.270822080472, -30013.94480633078, -28750.44539576118, -25402.645814734202, -32491.05453384573, 5290.836726526824, 4851.133209602023, 35056.31954149241, -21305.88398049879, -27121.003224969296, -29946.755462498128, 6520.339133779899, -38648.2225237158, -17202.68484386025, 3587.1420606544093, 12503.275275620852, -0.096, 0.9560000000000001, -0.219, 192.0, 0.0, 0.0, 0.0, 0.0, 0.0, 0.0, 0.0, 0.0, 0.0, 1.741811655465384E9, 0.0, 2025-03-12 15:34:15.465
130.0, -12763.538988058448, -30050.8922399154, -28766.35983781336, -25420.147230642706, -32508.779467198787, 5278.789136265414, 4827.19449129039, 35043.24377098605, -21302.195942663664, -27130.905047762997, -29969.21896567571, 6503.284752760501, -38660.717148866315, -17209.815050341494, 3606.431616119339, 12507.365644856172, -0.096, 0.9560000000000001, -0.219, 192.0, 0.0, 0.0, 0.0, 0.0, 0.0, 0.0, 0.0, 0.0, 0.0, 1.741811655465411E9, 0.0, 2025-03-12 15:34:15.465
132.0, -12760.074467667875, -30055.742568462203, -28768.438550047704, -25422.114184154772, -32505.516112508314, 5276.822182753347, 4840.136151330013, 35053.01148331302, -21311.60602707935, -27139.66693158948, -29968.50370985314, 6499.484956203099, -38663.19819250086, -17217.012312056104, 3590.539525811616, 12500.593066286216, -0.096, 0.9560000000000001, -0.219, 192.0, 0.0, 0.0, 0.0, 0.0, 0.0, 0.0, 0.0, 0.0, 0.0, 1.741811655465438E9, 0.0, 2025-03-12 15:34:15.465
134.0, -12772.300871884927, -30042.532687489118, -28777.40159957428, -25431.07723368135, -32513.115705623117, 5270.027252438933, 4817.7173516413395, 35037.85700057232, -21330.962637777644, -27145.344274681127, -29980.998335003656, 6488.622008397819, -38674.3293612396, -17221.348550480434, 3608.5997353315042, 12505.242229132919, -0.096, 0.9560000000000001, -0.219, 192.0, 0.0, 0.0, 0.0, 0.0, 0.0, 0.0, 0.0, 0.0, 0.0, 1.741811655465465E9, 0.0, 2025-03-12 15:34:15.465
136.0, -12772.8149620074, -30055.094367873, -28774.048837905986, -25420.951893443096, -32506.99132764236, 5275.302264130386, 4835.218767549845, 35054.732567636085, -21300.25134089605, -27147.020655515273, -29979.0760849805, 6498.56853468043, -38671.915372838426, -17217.392291711843, 3583.1858018858197, 12495.921551695055, -0.092, 0.9560000000000001, -0.2195, 192.0, 126.5, 32.0, 14.5, 112.0, 124.5, 16.0, 0.0, 0.0, 0.0, 1.741811655525986E9, 0.0, 2025-03-12 15:34:15.525
138.0, -12762.890787469243, -30047.092443358, -28767.41036980276, -25418.247332364004, -32505.918443908507, 5277.448031598095, 4826.590994190096, 35039.8686575733, -21305.816925265422, -27135.26363793178, -29970.470663365206, 6502.3683312378325, -38665.70158787985, -17216.74409112264, 3607.2586306641856, 12499.85545871919, -0.092, 0.9560000000000001, -0.2195, 192.0, 0.0, 0.0, 0.0, 0.0, 0.0, 0.0, 0.0, 0.0, 0.0, 1.741811655526073E9, 0.0, 2025-03-12 15:34:15.526
140.0, -12765.28242412596, -30029.345158260487, -28769.15380587027, -25414.715756740065, -32505.404353786034, 5275.2128571525645, 4845.075886854635, 35056.185431025675, -21293.9257972152, -27129.496887862315, -29967.967267986212, 6508.1797847962125, -38660.73950061077, -17209.45742243021, 3581.75529024068, 12497.553229040293, -0.092, 0.9560000000000001, -0.2195, 192.0, 0.0, 0.0, 0.0, 0.0, 0.0, 0.0, 0.0, 0.0, 0.0, 1.741811655526112E9, 0.0, 2025-03-12 15:34:15.526
142.0, -12775.340709130849, -30049.797004437092, -28775.345239084392, -25420.281341109436, -32509.360612554625, 5275.0340431969225, 4826.211014534356, 35056.90068684825, -21305.325186887407, -27137.23059144385, -29976.84091053497, 6508.9397441076935, -38674.46347170633, -17219.471003946186, 3619.082703481043, 12510.830165246745, -0.092, 0.9560000000000001, -0.2195, 192.0, 0.0, 0.0, 0.0, 0.0, 0.0, 0.0, 0.0, 0.0, 0.0, 1.741811655526157E9, 0.0, 2025-03-12 15:34:15.526
144.0, -12756.8111129774, -30022.214951779242, -28760.637791232803, -25405.618596746757, -32494.362592025114, 5284.399424123696, 4841.343145530599, 35052.31857923491, -21292.160009403233, -27132.670835574965, -29976.460930879228, 6512.739540665096, -38666.305084980144, -17212.877239331872, 3583.655188519381, 12500.190734886019, -0.092, 0.9560000000000001, -0.2195, 192.0, 0.0, 0.0, 0.0, 0.0, 0.0, 0.0, 0.0, 0.0, 0.0, 1.7418116555262E9, 0.0, 2025-03-12 15:34:15.526
146.0, -12754.911214698699, -30007.082820782998, -28757.195622586685, -25404.322195568348, -32494.451999002937, 5286.969874736056, 4836.783389661717, 35039.68984361766, -21260.085256109865, -27117.494001089814, -29958.713645781714, 6540.76862821205, -38657.498497664754, -17199.44384091423, 3619.4179796478725, 12524.643543320126, -0.09, 0.9550000000000001, -0.22275, 192.0, 126.5, 32.0, 14.5, 104.0, 124.0, 120.0, 0.0, 0.0, 0.0, 1.74181165552624E9, 0.0, 2025-03-12 15:34:15.526
148.0, -12747.08810413934, -30008.490980683684, -28756.45801501966, -25403.02579438994, -32493.669687947, 5286.724005547047, 4845.254700810278, 35034.32542494839, -21252.686828695158, -27115.102364433096, -29959.45125334874, 6529.1904245842015, -38657.2749802202, -17198.706233347206, 3581.4870693072166, 12508.416176845572, -0.09, 0.9550000000000001, -0.22275, 192.0, 0.0, 0.0, 0.0, 0.0, 0.0, 0.0, 0.0, 0.0, 0.0, 1.741811655526282E9, 0.0, 2025-03-12 15:34:15.526
150.0, -12761.259110124007, -30008.55803591705, -28758.804948187466, -25407.183218858627, -32503.72797295189, 5278.587970565316, 4833.251814037778, 35043.4225849417, -21252.35155252833, -27117.091669689617, -29959.719474282203, 6534.86776767585, -38661.968846555814, -17204.718852605685, 3620.155587214898, 12523.414197375083, -0.09, 0.9550000000000001, -0.22275, 192.0, 0.0, 0.0, 0.0, 0.0, 0.0, 0.0, 0.0, 0.0, 0.0, 1.741811655526328E9, 0.0, 2025-03-12 15:34:15.526
152.0, -12743.668287237679, -29989.55905313004, -28746.131509081308, -25394.040393118907, -32493.91555713601, 5284.511182845972, 4835.308174527666, 35028.13399173427, -21246.428340247672, -27114.56592256617, -29954.53386956857, 6522.306087291967, -38659.733672110284, -17203.891838060837, 3578.5813425280267, 12503.319979109763, -0.09, 0.9550000000000001, -0.22275, 192.0, 0.0, 0.0, 0.0, 0.0, 0.0, 0.0, 0.0, 0.0, 0.0, 1.741811655586262E9, 0.0, 2025-03-12 15:34:15.586
154.0, -12747.959822173098, -29985.26751819462, -28742.845802646378, -25393.16867508515, -32491.501568734835, 5291.082595715832, 4837.118665828546, 35027.955177778626, -21242.382674501263, -27104.954672450385, -29945.526116553083, 6552.749163240095, -38649.29540744965, -17193.095945488923, 3610.1867091878307, 12521.089615951732, -0.09, 0.9550000000000001, -0.22275, 192.0, 0.0, 0.0, 0.0, 0.0, 0.0, 0.0, 0.0, 0.0, 0.0, 1.741811655586318E9, 0.0, 2025-03-12 15:34:15.586
156.0, -12752.988964675542, -29987.59209961797, -28751.004189372565, -25393.25808206297, -32499.682307205476, 5285.628770068738, 4842.952471131382, 35021.16024746421, -21229.262200505997, -27101.244282870804, -29945.012026430613, 6541.975622412637, -38647.730785337786, -17190.16786696528, 3581.1294413959317, 12514.697017037513, -0.09, 0.9535, -0.221375, 192.0, 126.5, 24.0, 14.5, 96.0, 124.5, 16.0, 0.0, 0.0, 0.0, 1.741811655586364E9, 0.0, 2025-03-12 15:34:15.586
158.0, -12752.273708852972, -29982.07121873751, -28745.058625347454, -25395.02386987494, -32499.257624060825, 5281.76191827797, 4837.856273395571, 35035.17479123769, -21229.128090039267, -27116.37641386705, -29963.54162258406, 6545.551901525486, -38665.79099485767, -17209.368015452386, 3629.342154186029, 12536.579374859259, -0.09, 0.9535, -0.221375, 192.0, 0.0, 0.0, 0.0, 0.0, 0.0, 0.0, 0.0, 0.0, 0.0, 1.741811655586435E9, 0.0, 2025-03-12 15:34:15.586
160.0, -12744.361191315795, -29987.949727529256, -28748.277276549015, -25396.02969837543, -32502.85625491813, 5282.208953167075, 4832.581261704119, 35018.45568638512, -21231.497374951527, -27106.98868119582, -29949.281209621575, 6535.091285120402, -38656.91735230891, -17202.908361304806, 3587.2314676322303, 12515.412272860083, -0.09, 0.9535, -0.221375, 192.0, 0.0, 0.0, 0.0, 0.0, 0.0, 0.0, 0.0, 0.0, 0.0, 1.74181165558649E9, 0.0, 2025-03-12 15:34:15.586
162.0, -12736.51572901198, -29970.962401743225, -28742.68934043519, -25391.8946256512, -32496.173083325994, 5287.461613114073, 4838.035087351213, 35028.69278534565, -21229.709235395105, -27106.429887584436, -29948.36478809891, 6544.903700936282, -38657.83377383158, -17203.087175260447, 3616.7357703132357, 12527.52691835486, -0.09, 0.9535, -0.221375, 192.0, 0.0, 0.0, 0.0, 0.0, 0.0, 0.0, 0.0, 0.0, 0.0, 1.741811655586535E9, 0.0, 2025-03-12 15:34:15.586
164.0, -12732.648877221212, -29967.341419141463, -28740.275352034016, -25393.146323340694, -32490.04870534524, 5281.8513252557905, 4831.664840181451, 35004.41879086719, -21207.71511885108, -27093.063544400164, -29939.513497294607, 6537.773494455039, -38644.95916902532, -17196.627521112863, 3588.8184414885573, 12515.099348437709, -0.09, 0.9535, -0.221375, 192.0, 0.0, 0.0, 0.0, 0.0, 0.0, 0.0, 0.0, 0.0, 0.0, 1.741811655586585E9, 0.0, 2025-03-12 15:34:15.586
166.0, -12738.862662179788, -29978.83021579149, -28747.696131193177, -25403.204608345583, -32497.536539737768, 5269.1108309162655, 4839.644412951996, 35037.387613938765, -21209.704424107604, -27106.340480606614, -29951.158756155823, 6547.004764915081, -38654.23514297428, -17203.668320616285, 3616.1099214684873, 12530.47734862296, -0.092, 0.95275, -0.21968749999999998, 192.0, 126.5, 8.0, 14.5, 96.0, 124.5, 24.0, 0.0, 0.0, 0.0, 1.74181165564559E9, 0.0, 2025-03-12 15:34:15.645
168.0, -12744.070618637876, -29973.398741888854, -28750.780671928012, -25409.038413648417, -32505.739629952866, 5270.720156517048, 4827.596822690585, 35027.4187359117, -21225.931790582155, -27106.340480606614, -29950.108224166423, 6536.3429828099, -38659.91248606593, -17211.893762575837, 3600.3519416274958, 12522.721293296969, -0.092, 0.95275, -0.21968749999999998, 192.0, 0.0, 0.0, 0.0, 0.0, 0.0, 0.0, 0.0, 0.0, 0.0, 1.74181165564565E9, 0.0, 2025-03-12 15:34:15.645
170.0, -12750.038534407442, -29967.36377088592, -28755.139262096796, -25408.434916548125, -32507.036031131272, 5268.149705904688, 4834.369401260544, 35050.038701300466, -21228.68105515016, -27112.911893476474, -29957.238430647663, 6546.490674792609, -38668.78612861468, -17216.83349810046, 3621.340229671029, 12535.48413938095, -0.092, 0.95275, -0.21968749999999998, 192.0, 0.0, 0.0, 0.0, 0.0, 0.0, 0.0, 0.0, 0.0, 0.0, 1.741811655645717E9, 0.0, 2025-03-12 15:34:15.645
172.0, -12738.348572057317, -29963.60867781743, -28742.130546823806, -25392.92280589614, -32493.088542591162, 5283.505354345483, 4824.400523233477, 34995.45574134061, -21224.166002770187, -27098.36090783607, -29955.383235857873, 6537.549977010486, -38660.091300021566, -17206.194067739736, 3595.076929936043, 12513.154746670098, -0.092, 0.95275, -0.21968749999999998, 192.0, 0.0, 0.0, 0.0, 0.0, 0.0, 0.0, 0.0, 0.0, 0.0, 1.741811655645761E9, 0.0, 2025-03-12 15:34:15.645
174.0, -12739.80143544691, -29958.490128337162, -28752.12177659533, -25394.30861405237, -32507.304252064736, 5282.052490955888, 4837.9680321178475, 35024.15538122122, -21212.699557864617, -27090.35898332107, -29942.84390721845, 6565.556712812986, -38654.36925344101, -17196.11343099039, 3594.741653769214, 12520.307304895796, -0.092, 0.95275, -0.21968749999999998, 192.0, 0.0, 0.0, 0.0, 0.0, 0.0, 0.0, 0.0, 0.0, 0.0, 1.741811655645806E9, 0.0, 2025-03-12 15:34:15.645
176.0, -12748.496264040026, -29961.328799882987, -28755.005151630063, -25399.248349576992, -32511.81930444471, 5282.7900985229135, 4821.405389476466, 35012.867750271296, -21222.690787636137, -27097.355079335583, -29950.667017777803, 6546.222453859145, -38661.32064596661, -17200.561428136996, 3606.85629926399, 12515.255810648896, -0.092, 0.9513750000000001, -0.21884375, 192.0, 126.5, 16.0, 14.5, 88.0, 124.5, 24.0, 0.0, 0.0, 0.0, 1.741811655645851E9, 0.0, 2025-03-12 15:34:15.645
178.0, -12734.794644688922, -29959.093625437454, -28746.802061414965, -25388.139532582707, -32492.86502514661, 5292.468403872062, 4845.701735699384, 35031.6208638693, -21218.131031767254, -27096.08102990163, -29947.202497387232, 6554.425544074243, -38659.376044198994, -17195.040547256536, 3602.7882817731243, 12521.938982241034, -0.092, 0.9513750000000001, -0.21884375, 192.0, 0.0, 0.0, 0.0, 0.0, 0.0, 0.0, 0.0, 0.0, 0.0, 1.741811655645898E9, 0.0, 2025-03-12 15:34:15.645
180.0, -12740.04730463592, -29951.225811389188, -28747.562020726447, -25391.425239017637, -32494.586109469667, 5288.623903825749, 4834.48115998282, 35018.18746545166, -21221.707310880105, -27090.73896297681, -29939.133517638867, 6556.01251793057, -38653.229314473785, -17194.705271089708, 3612.2654214221743, 12525.24704042042, -0.092, 0.9513750000000001, -0.21884375, 192.0, 0.0, 0.0, 0.0, 0.0, 0.0, 0.0, 0.0, 0.0, 0.0, 1.741811655645948E9, 0.0, 2025-03-12 15:34:15.645
182.0, -12735.040513877932, -29962.53579408357, -28745.416253258736, -25383.19979705808, -32501.29163280626, 5282.454822356084, 4843.62302346504, 35049.09992803335, -21229.373959228273, -27101.534855548725, -29943.20153512973, 6556.459552819676, -38660.11365176602, -17199.44384091423, 3611.080778966043, 12532.377246901662, -0.092, 0.9513750000000001, -0.21884375, 192.0, 0.0, 0.0, 0.0, 0.0, 0.0, 0.0, 0.0, 0.0, 0.0, 1.741811655706889E9, 0.0, 2025-03-12 15:34:15.706
184.0, -12738.19210984613, -29957.484299836673, -28738.9342473667, -25383.669183691643, -32502.14099909556, 5281.76191827797, 4829.04968608018, 35035.59947438234, -21213.638331131737, -27095.902215945986, -29935.154907125823, 6553.129142895836, -38656.090337764064, -17195.755803079104, 3630.3479826865178, 12535.685305081048, -0.092, 0.9513750000000001, -0.21884375, 192.0, 0.0, 0.0, 0.0, 0.0, 0.0, 0.0, 0.0, 0.0, 0.0, 1.741811655706946E9, 0.0, 2025-03-12 15:34:15.706
186.0, -12724.132862583741, -29944.564991541505, -28727.62426467231, -25370.392247485193, -32486.24890878784, 5293.608342839282, 4854.240102081311, 35039.332215706374, -21219.33802596784, -27091.40951531047, -29929.723433223182, 6562.136895911324, -38646.03205275918, -17191.799544310517, 3606.2975056526075, 12527.839842777234, -0.089, 0.9516875, -0.218421875, 192.0, 126.5, 40.0, 14.5, 96.0, 124.5, 24.0, 0.0, 0.0, 0.0, 1.741811655707015E9, 0.0, 2025-03-12 15:34:15.707
188.0, -12732.648877221212, -29944.363825841407, -28732.094613563375, -25379.824683645333, -32498.162388582517, 5291.931962005135, 4840.426724007932, 35027.374032422784, -21202.082479248344, -27082.93820416191, -29919.911017407303, 6570.854076248894, -38639.79591605615, -17186.479829130152, 3626.9728692737663, 12538.56868011578, -0.089, 0.9516875, -0.218421875, 192.0, 0.0, 0.0, 0.0, 0.0, 0.0, 0.0, 0.0, 0.0, 0.0, 1.741811655707073E9, 0.0, 2025-03-12 15:34:15.707
190.0, -12732.268897565473, -29945.97315144219, -28736.810831643445, -25378.863558633755, -32494.9213856365, 5292.758976549981, 4846.662860710962, 35034.92892204868, -21217.19225850013, -27086.760352463767, -29928.225866344677, 6558.784134243028, -38646.590846370564, -17186.233959941146, 3599.0331887046327, 12528.309229410796, -0.089, 0.9516875, -0.218421875, 192.0, 0.0, 0.0, 0.0, 0.0, 0.0, 0.0, 0.0, 0.0, 0.0, 1.741811655707116E9, 0.0, 2025-03-12 15:34:15.707
192.0, -12724.669304450668, -29942.44157581825, -28729.837087373387, -25376.82954988832, -32495.837807159165, 5298.592781852816, 4827.663877923951, 35022.076668986876, -21217.661645133692, -27090.426038554437, -29930.885723934858, 6558.985299943126, -38652.89403830696, -17195.77815482356, 3629.8338925640455, 12540.088598738743, -0.089, 0.9516875, -0.218421875, 192.0, 0.0, 0.0, 0.0, 0.0, 0.0, 0.0, 0.0, 0.0, 0.0, 1.741811655707166E9, 0.0, 2025-03-12 15:34:15.707
194.0, -12718.924906125654, -29948.767119499105, -28731.424061229714, -25376.27075627694, -32495.457827503426, 5290.166174193165, 4839.800875163183, 35031.59851212484, -21199.400269913705, -27078.40080003748, -29913.786639426547, 6569.736489026129, -38641.427593401386, -17184.22230294017, 3593.75817701318, 12534.031275991354, -0.089, 0.9516875, -0.218421875, 192.0, 0.0, 0.0, 0.0, 0.0, 0.0, 0.0, 0.0, 0.0, 0.0, 1.74181165570721E9, 0.0, 2025-03-12 15:34:15.707
196.0, -12728.446749263616, -29944.766157241604, -28738.509564222048, -25389.34652678329, -32502.565682240212, 5279.28087464343, 4824.6463924224845, 35029.05041325693, -21219.405081201206, -27092.147122877494, -29923.844924431436, 6560.751087755095, -38650.63651211697, -17196.135782734847, 3635.734753100247, 12542.882566795655, -0.0865, 0.95084375, -0.21821093749999998, 192.0, 126.5, 48.0, 14.5, 88.0, 124.5, 24.0, 0.0, 0.0, 0.0, 1.741811655765727E9, 0.0, 2025-03-12 15:34:15.765
198.0, -12726.300981795906, -29938.641779260848, -28744.835107902898, -25385.92670988163, -32502.878606662587, 5272.351833862285, 4834.414104749454, 35038.46049767262, -21212.8560200758, -27088.302622831183, -29923.666110475795, 6556.168980141757, -38654.86099181903, -17194.88408504535, 3596.66390379237, 12523.458900863994, -0.0865, 0.95084375, -0.21821093749999998, 192.0, 0.0, 0.0, 0.0, 0.0, 0.0, 0.0, 0.0, 0.0, 0.0, 1.741811655765787E9, 0.0, 2025-03-12 15:34:15.765
200.0, -12737.208633090095, -29952.589267800962, -28746.198564314673, -25392.989861129507, -32508.04185963176, 5271.681281528626, 4827.350953501577, 35048.89876233325, -21219.941523068133, -27095.79045722371, -29927.152982610824, 6561.533398811031, -38663.33230296759, -17203.221285727177, 3630.7279623422583, 12534.523014369372, -0.0865, 0.95084375, -0.21821093749999998, 192.0, 0.0, 0.0, 0.0, 0.0, 0.0, 0.0, 0.0, 0.0, 0.0, 1.741811655765831E9, 0.0, 2025-03-12 15:34:15.765
202.0, -12731.888917909733, -29948.78947124356, -28743.69516893568, -25386.373744770735, -32501.71631595091, 5280.66668279966, 4830.793122147694, 35033.207837725626, -21200.473153647563, -27091.610681010567, -29927.577665755474, 6543.204968357679, -38659.21958198781, -17202.215457226688, 3584.012816430666, 12514.697017037513, -0.0865, 0.95084375, -0.21821093749999998, 192.0, 0.0, 0.0, 0.0, 0.0, 0.0, 0.0, 0.0, 0.0, 0.0, 1.74181165576776E9, 0.0, 2025-03-12 15:34:15.767
204.0, -12742.215423848085, -29949.191802643756, -28740.811793900943, -25383.378611013726, -32501.157522339527, 5289.540325348416, 4839.57735771863, 35035.95710229362, -21223.495450436527, -27088.41438155346, -29932.15977336881, 6565.668471535262, -38656.626779631, -17192.894779788825, 3615.5511278571043, 12531.706694568002, -0.0865, 0.95084375, -0.21821093749999998, 192.0, 0.0, 0.0, 0.0, 0.0, 0.0, 0.0, 0.0, 0.0, 0.0, 1.741811655767802E9, 0.0, 2025-03-12 15:34:15.767
206.0, -12727.955010885598, -29941.569857784496, -28737.414328743736, -25378.05889583336, -32498.520016493803, 5295.329427162341, 4839.62206120754, 35020.623805597286, -21220.075633534867, -27095.20931186787, -29927.555314011017, 6546.758895726072, -38660.67244537741, -17191.508971632597, 3586.985598443222, 12526.185813687542, -0.08825, 0.952421875, -0.22010546874999998, 192.0, 126.5, 24.0, 14.5, 104.0, 124.5, 8.0, 0.0, 0.0, 0.0, 1.741811655767829E9, 0.0, 2025-03-12 15:34:15.767
208.0, -12738.99677264652, -29965.08389295148, -28740.16359331174, -25382.506892979967, -32497.402429271035, 5297.497546374506, 4846.551101988685, 35040.69567211815, -21222.82489810287, -27094.806980467678, -29923.77786919807, 6564.39442210131, -38658.92900930989, -17192.090116988435, 3621.206119204297, 12549.699848854525, -0.08825, 0.952421875, -0.22010546874999998, 192.0, 0.0, 0.0, 0.0, 0.0, 0.0, 0.0, 0.0, 0.0, 0.0, 1.741811655767862E9, 0.0, 2025-03-12 15:34:15.767
210.0, -12740.874319180766, -29963.22869816169, -28740.20829680065, -25385.591433714802, -32493.71439143591, 5291.104947460288, 4837.185721061912, 35027.57519812288, -21226.758805127003, -27100.37256483705, -29935.87016294839, 6541.305070078978, -38665.14279426847, -17194.571160622974, 3592.9535142127893, 12541.273241194875, -0.08825, 0.952421875, -0.22010546874999998, 192.0, 0.0, 0.0, 0.0, 0.0, 0.0, 0.0, 0.0, 0.0, 0.0, 1.741811655767892E9, 0.0, 2025-03-12 15:34:15.767
212.0, -12745.90346168321, -29976.41622739032, -28737.771956655022, -25389.324175038837, -32493.356763524625, 5285.6064183242825, 4840.4937792412975, 35046.88710533227, -21242.33797101235, -27103.21123638287, -29937.144212382344, 6550.066953905458, -38656.626779631, -17199.332082191955, 3620.513215126183, 12555.44424717954, -0.08825, 0.952421875, -0.22010546874999998, 192.0, 0.0, 0.0, 0.0, 0.0, 0.0, 0.0, 0.0, 0.0, 0.0, 1.741811655825994E9, 0.0, 2025-03-12 15:34:15.825
214.0, -12734.258202821995, -29948.722416010194, -28725.79142162698, -25379.91409062315, -32486.67359193249, 5287.841592769813, 4828.937927357903, 35018.20981719611, -21237.53234595446, -27095.768105479256, -29931.176296612775, 6537.952308410681, -38650.100070250046, -17197.856867057904, 3599.9049067383894, 12536.646430092625, -0.08825, 0.952421875, -0.22010546874999998, 192.0, 0.0, 0.0, 0.0, 0.0, 0.0, 0.0, 0.0, 0.0, 0.0, 1.741811655826071E9, 0.0, 2025-03-12 15:34:15.826
216.0, -12742.438941292638, -29959.585363815473, -28735.805003142956, -25392.31930879585, -32499.302327549736, 5270.653101283682, 4837.230424550823, 35054.01731181351, -21219.270970734477, -27098.629128769535, -29925.20838084321, 6560.594625543908, -38651.30706445063, -17200.62848337036, 3631.3538111870066, 12551.175063988574, -0.089125, 0.9552109375, -0.221052734375, 192.0, 126.5, 24.0, 14.5, 120.0, 124.5, 8.0, 0.0, 0.0, 0.0, 1.741811655826115E9, 0.0, 2025-03-12 15:34:15.826
218.0, -12732.470063265571, -29944.69910200824, -28717.83420060089, -25376.360163254758, -32485.980687854375, 5281.2031246665865, 4829.429665735921, 35008.77738103597, -21221.416738202184, -27095.23166361233, -29929.05288088952, 6544.479017791631, -38649.675387105395, -17202.48367816015, 3606.498671352705, 12526.521089854372, -0.089125, 0.9552109375, -0.221052734375, 192.0, 0.0, 0.0, 0.0, 0.0, 0.0, 0.0, 0.0, 0.0, 0.0, 1.741811655826165E9, 0.0, 2025-03-12 15:34:15.826
220.0, -12735.644010978223, -29950.82347998899, -28723.668005903724, -25378.841206889298, -32492.507397235324, 5277.984473465022, 4847.221654322345, 35036.02415752699, -21212.274874719962, -27089.107285631573, -29914.50189524912, 6572.664567549774, -38644.75800332522, -17194.191180967235, 3617.5851366025377, 12546.883529053155, -0.089125, 0.9552109375, -0.221052734375, 192.0, 0.0, 0.0, 0.0, 0.0, 0.0, 0.0, 0.0, 0.0, 0.0, 1.741811655826208E9, 0.0, 2025-03-12 15:34:15.826
222.0, -12740.829615691855, -29951.672846278292, -28723.9809303261, -25376.896605121685, -32491.81449315721, 5285.539363090917, 4828.289726768699, 35007.27981415747, -21234.3136947529, -27090.403686809983, -29926.281264577065, 6553.889102207316, -38655.03980577467, -17194.72762283416, 3612.7124563112807, 12539.440398149538, -0.089125, 0.9552109375, -0.221052734375, 192.0, 0.0, 0.0, 0.0, 0.0, 0.0, 0.0, 0.0, 0.0, 0.0, 1.741811655826253E9, 0.0, 2025-03-12 15:34:15.826
224.0, -12747.71395298409, -29955.003256202133, -28734.977988598108, -25380.629346445723, -32502.14099909556, 5279.012653709967, 4837.833921651116, 35045.9706838096, -21198.752069324502, -27091.387163566014, -29925.320139565487, 6572.441050105221, -38657.90082906495, -17192.20187571071, 3621.04965699311, 12552.270299466885, -0.089125, 0.9552109375, -0.221052734375, 192.0, 0.0, 0.0, 0.0, 0.0, 0.0, 0.0, 0.0, 0.0, 0.0, 1.741811655826302E9, 0.0, 2025-03-12 15:34:15.826
226.0, -12747.62454600627, -29947.96245669871, -28729.188886784184, -25375.622555687733, -32497.178911826482, 5287.975703236545, 4814.118720784035, 35025.854113799825, -21226.53528768245, -27098.45031481389, -29932.562104769007, 6553.978509185137, -38668.74142512577, -17203.198933982723, 3629.0962849970206, 12546.48119765296, -0.09156249999999999, 0.9566054687500001, -0.22252636718750002, 192.0, 126.5, 8.0, 14.5, 120.0, 124.5, 0.0, 0.0, 0.0, 0.0, 1.741811655886292E9, 0.0, 2025-03-12 15:34:15.886
228.0, -12743.534176770947, -29951.784605000572, -28733.21220078614, -25374.884948120707, -32496.35189728164, 5288.109813703277, 4840.739648430306, 35044.80839309793, -21217.125203266765, -27081.351230305583, -29923.44259303124, 6578.2078001746895, -38654.704529607836, -17182.97060525067, 3610.365523143473, 12548.67166860958, -0.09156249999999999, 0.9566054687500001, -0.22252636718750002, 192.0, 0.0, 0.0, 0.0, 0.0, 0.0, 0.0, 0.0, 0.0, 0.0, 1.741811655886352E9, 0.0, 2025-03-12 15:34:15.886
230.0, -12746.529310527958, -29921.386232541354, -28732.20637228565, -25377.67891617762, -32502.67744096249, 5285.8969910022015, 4814.588107417597, 35025.563541121905, -21199.981415269544, -27091.185997865916, -29926.191857599242, 6564.215608145668, -38666.28273323569, -17194.07942224496, 3634.237186221741, 12549.05164826532, -0.09156249999999999, 0.9566054687500001, -0.22252636718750002, 192.0, 0.0, 0.0, 0.0, 0.0, 0.0, 0.0, 0.0, 0.0, 0.0, 1.741811655886419E9, 0.0, 2025-03-12 15:34:15.886
232.0, -12738.415627290682, -29938.06063390501, -28729.993549584575, -25367.754741639466, -32495.30136529224, 5288.981531737034, 4829.273203524734, 35036.44884067164, -21178.121409192256, -27084.905157673977, -29917.228808072665, 6578.051337963502, -38661.11948026651, -17189.16203846479, 3612.310124911085, 12542.167310973085, -0.09156249999999999, 0.9566054687500001, -0.22252636718750002, 192.0, 0.0, 0.0, 0.0, 0.0, 0.0, 0.0, 0.0, 0.0, 0.0, 1.741811655886469E9, 0.0, 2025-03-12 15:34:15.886
234.0, -12743.020086648476, -29948.610657287918, -28725.277331504505, -25367.955907339565, -32491.076885590184, 5293.80950853938, 4818.410255719454, 35018.27687242948, -21196.136915223233, -27087.542663519704, -29924.98486339866, 6567.233093647134, -38659.867782577014, -17190.54784662102, 3638.439314179339, 12547.129398242165, -0.09156249999999999, 0.9566054687500001, -0.22252636718750002, 192.0, 0.0, 0.0, 0.0, 0.0, 0.0, 0.0, 0.0, 0.0, 0.0, 1.741811655886513E9, 0.0, 2025-03-12 15:34:15.886
236.0, -12750.083237896353, -29953.50568932363, -28735.02269208702, -25372.672125419635, -32495.390772270057, 5283.773575278947, 4834.816436149649, 35045.1213175203, -21216.499354422016, -27099.232625869827, -29927.35414831092, 6567.255445391589, -38667.646189647465, -17196.381651923853, 3616.1099214684873, 12546.034162763854, -0.09178125, 0.957302734375, -0.22126318359375002, 192.0, 126.5, 16.0, 14.5, 120.0, 124.5, 16.0, 0.0, 0.0, 0.0, 1.741811655886567E9, 0.0, 2025-03-12 15:34:15.886
238.0, -12746.57401401687, -29929.45521228972, -28721.410479713737, -25362.345619481282, -32487.835882644165, 5298.123395219254, 4814.565755673141, 35017.87454102928, -21173.85222600129, -27098.673832258446, -29926.929465166268, 6569.021233203559, -38666.90858208044, -17197.856867057904, 3631.443218164828, 12547.934061042555, -0.09178125, 0.957302734375, -0.22126318359375002, 192.0, 0.0, 0.0, 0.0, 0.0, 0.0, 0.0, 0.0, 0.0, 0.0, 1.741811655886615E9, 0.0, 2025-03-12 15:34:15.886
240.0, -12736.00163888951, -29940.988712428658, -28714.68260463269, -25352.39909319867, -32476.414141227502, 5302.370226665763, 4840.873758897038, 35027.12816323378, -21184.37989763974, -27086.02274489674, -29910.277415547065, 6582.1417071988235, -38649.4742214053, -17171.817084767474, 3595.6133718029705, 12545.005982518911, -0.09178125, 0.957302734375, -0.22126318359375002, 192.0, 0.0, 0.0, 0.0, 0.0, 0.0, 0.0, 0.0, 0.0, 0.0, 1.741811655886659E9, 0.0, 2025-03-12 15:34:15.886
242.0, -12764.455409581115, -29960.9711719717, -28733.949808353165, -25376.091942321294, -32495.05549610323, 5280.241999655009, 4825.719276156339, 35043.55669540843, -21184.245787173008, -27104.619396283557, -29922.280302319567, 6571.234055904634, -38663.33230296759, -17196.269893201577, 3650.0398695516433, 12566.307194984818, -0.09178125, 0.957302734375, -0.22126318359375002, 192.0, 0.0, 0.0, 0.0, 0.0, 0.0, 0.0, 0.0, 0.0, 0.0, 1.741811655946862E9, 0.0, 2025-03-12 15:34:15.946
244.0, -12768.210502649606, -29968.995448231155, -28738.956599111152, -25377.477750477523, -32497.29067054876, 5271.122487917243, 4821.740665643295, 35045.65775938723, -21223.696616136625, -27119.013919712776, -29948.655360776826, 6541.059200889969, -38677.25743976324, -17212.810184098504, 3617.406322646895, 12541.139130728143, -0.09178125, 0.957302734375, -0.22126318359375002, 192.0, 0.0, 0.0, 0.0, 0.0, 0.0, 0.0, 0.0, 0.0, 0.0, 1.741811655946911E9, 0.0, 2025-03-12 15:34:15.946
246.0, -12759.158046145207, -29954.60092480194, -28732.094613563375, -25372.739180653, -32491.590975712657, 5278.543267076406, 4811.592973660586, 35026.68112834467, -21196.42748790115, -27116.063489444674, -29934.104375136423, 6557.48773306462, -38666.305084980144, -17209.055091030015, 3640.361564202495, 12536.959354515, -0.092890625, 0.9576513671875, -0.22063159179687503, 192.0, 126.5, 8.0, 14.5, 120.0, 124.5, 16.0, 0.0, 0.0, 0.0, 1.741811655946974E9, 0.0, 2025-03-12 15:34:15.946
248.0, -12748.51861578448, -29958.93716322627, -28726.573732682915, -25359.59635491328, -32483.61140294211, 5286.947522991601, 4824.4675784668425, 35013.80652353841, -21197.321557679363, -27108.709765518877, -29929.701081478728, 6554.403192329788, -38661.72297736681, -17200.673186859272, 3593.9146392243674, 12527.124586954664, -0.092890625, 0.9576513671875, -0.22063159179687503, 192.0, 0.0, 0.0, 0.0, 0.0, 0.0, 0.0, 0.0, 0.0, 0.0, 1.741811655947036E9, 0.0, 2025-03-12 15:34:15.947
250.0, -12750.507921041004, -29936.07132864849, -28720.337595979883, -25355.50598567796, -32488.34997276664, 5295.441185884618, 4823.372342988532, 35027.374032422784, -21205.569351383372, -27102.58538753812, -29927.44355528874, 6573.513933839075, -38660.47127967731, -17189.027927998057, 3638.7745903461687, 12555.176026246076, -0.092890625, 0.9576513671875, -0.22063159179687503, 192.0, 0.0, 0.0, 0.0, 0.0, 0.0, 0.0, 0.0, 0.0, 0.0, 1.741811655947087E9, 0.0, 2025-03-12 15:34:15.947
252.0, -12745.121150627274, -29938.373558327385, -28722.10338379185, -25350.25332573096, -32495.435475758968, 5298.995113253011, 4826.188662789901, 35035.04068077096, -21169.694801532605, -27086.17920710793, -29912.44553475923, 6579.414794375276, -38652.13407899548, -17176.77917203655, 3606.7221887972582, 12552.225595977974, -0.092890625, 0.9576513671875, -0.22063159179687503, 192.0, 0.0, 0.0, 0.0, 0.0, 0.0, 0.0, 0.0, 0.0, 0.0, 1.741811655947152E9, 0.0, 2025-03-12 15:34:15.947
254.0, -12743.288307581939, -29931.086889634957, -28718.907084334744, -25347.146433251673, -32500.397563028047, 5304.583049366838, 4815.236308006801, 35040.36039595132, -21167.32551662034, -27086.447428041392, -29920.02277612958, 6592.557620114997, -38660.24776223276, -17180.333099404943, 3642.015593292188, 12566.038974051355, -0.092890625, 0.9576513671875, -0.22063159179687503, 192.0, 0.0, 0.0, 0.0, 0.0, 0.0, 0.0, 0.0, 0.0, 0.0, 1.741811655947212E9, 0.0, 2025-03-12 15:34:15.947
0.0, -12752.161950130696, -29938.574724027483, -28724.316206492927, -25353.427273443613, -32497.894167649054, 5298.9280580196455, 4814.230479506312, 35024.870637043794, -21186.838589529823, -27080.814788438656, -29919.64279647384, 6583.572218843963, -38655.71035810833, -17171.414753367277, 3594.339322369018, 12549.029296520865, -0.0934453125, 0.95982568359375, -0.22131579589843753, 192.0, 126.5, 8.0, 15.0, 8.0, 124.5, 8.0, 0.0, 0.0, 0.0, 1.74181165600586E9, 0.0, 2025-03-12 15:34:16.005
2.0, -12754.128903642762, -29935.847811203937, -28724.807944870943, -25362.904413092663, -32491.38981001256, 5284.131203190232, 4820.7124853983505, 35028.6704336012, -21199.869656547267, -27091.7447914773, -29922.749688953125, 6582.029948476547, -38659.84543083256, -17178.83553252644, 3620.6473255929145, 12552.471465166982, -0.0934453125, 0.95982568359375, -0.22131579589843753, 192.0, 0.0, 0.0, 0.0, 0.0, 0.0, 0.0, 0.0, 0.0, 0.0, 1.74181165600594E9, 0.0, 2025-03-12 15:34:16.005
4.0, -12760.923833957177, -29953.863317234915, -28729.859439117845, -25368.62645967322, -32491.166292568007, 5281.359586877774, 4815.035142306703, 35014.231206683064, -21189.789019797925, -27101.065468915163, -29929.790488456547, 6561.466343577665, -38666.41684370242, -17195.97932052366, 3591.9029822233897, 12532.332543412751, -0.0934453125, 0.95982568359375, -0.22131579589843753, 192.0, 0.0, 0.0, 0.0, 0.0, 0.0, 0.0, 0.0, 0.0, 0.0, 1.741811656005983E9, 0.0, 2025-03-12 15:34:16.005
6.0, -12761.683793268658, -29959.004218459635, -28733.994511842076, -25371.040448074396, -32494.89903389204, 5282.208953167075, 4824.4675784668425, 35030.07859350188, -21190.437220387128, -27104.552341050192, -29933.947912925236, 6577.49254435212, -38667.1768030139, -17195.286416445546, 3626.1905582178306, 12543.553119129316, -0.0934453125, 0.95982568359375, -0.22131579589843753, 192.0, 0.0, 0.0, 0.0, 0.0, 0.0, 0.0, 0.0, 0.0, 0.0, 1.741811656006028E9, 0.0, 2025-03-12 15:34:16.006
8.0, -12760.56620604589, -29952.477509078686, -28729.59121818438, -25369.520529451434, -32495.10019959214, 5284.041796212411, 4820.62307842053, 35012.59952933783, -21212.8560200758, -27102.071297415652, -29934.84198270345, 6557.577140042441, -38667.646189647465, -17194.2582362006, 3600.597810816504, 12529.851499778211, -0.0934453125, 0.95982568359375, -0.22131579589843753, 192.0, 0.0, 0.0, 0.0, 0.0, 0.0, 0.0, 0.0, 0.0, 0.0, 1.741811656006071E9, 0.0, 2025-03-12 15:34:16.006
10.0, -12759.158046145207, -29944.92261945279, -28728.428927472705, -25368.26883176194, -32495.636641459067, 5278.766784520958, 4831.351915759077, 35040.539209906965, -21205.077613005356, -27109.40266959699, -29938.865296705404, 6568.104811680891, -38668.74142512577, -17201.969588037682, 3625.7435233287247, 12545.922404041577, -0.09372265625000001, 0.9589128417968751, -0.22065789794921875, 192.0, 126.5, 8.0, 14.5, 120.0, 124.5, 16.0, 0.0, 0.0, 0.0, 1.741811656006116E9, 0.0, 2025-03-12 15:34:16.006
12.0, -12761.393220590739, -29952.67867477878, -28726.59608442737, -25370.45930271856, -32499.168217083006, 5275.8610577417685, 4813.649334150474, 35024.28949168795, -21217.19225850013, -27108.21802714086, -29934.171430369788, 6553.911453951771, -38670.9765995713, -17205.36705319489, 3613.405360389395, 12539.10512198271, -0.09372265625000001, 0.9589128417968751, -0.22065789794921875, 192.0, 0.0, 0.0, 0.0, 0.0, 0.0, 0.0, 0.0, 0.0, 0.0, 1.741811656006168E9, 0.0, 2025-03-12 15:34:16.006
14.0, -12751.022011163475, -29941.88278220687, -28715.241398244074, -25355.394226955683, -32489.244042544848, 5288.847421270302, 4832.044819837191, 35036.046509271444, -21190.191351198122, -27097.6456520135, -29920.045127874033, 6585.583875844941, -38656.71618660881, -17190.033756498546, 3612.8465667780124, 12543.463712151493, -0.09372265625000001, 0.9589128417968751, -0.22065789794921875, 192.0, 0.0, 0.0, 0.0, 0.0, 0.0, 0.0, 0.0, 0.0, 0.0, 1.741811656006223E9, 0.0, 2025-03-12 15:34:16.006
16.0, -12753.52540654247, -29926.97416865518, -28713.140334265274, -25354.8354333443, -32487.925289621988, 5287.3051509028855, 4824.9369651004035, 35014.63353808326, -21192.33711866583, -27087.60971875307, -29914.613653971395, 6581.471154865165, -38654.86099181903, -17183.998785495616, 3611.0360754771327, 12542.413180162095, -0.09372265625000001, 0.9589128417968751, -0.22065789794921875, 192.0, 0.0, 0.0, 0.0, 0.0, 0.0, 0.0, 0.0, 0.0, 0.0, 1.741811656067176E9, 0.0, 2025-03-12 15:34:16.067
18.0, -12747.490435539537, -29940.36286358391, -28712.49213367607, -25356.645924645178, -32490.741609423356, 5282.6112845672715, 4843.175988575935, 35036.67235811619, -21186.346851151808, -27090.291928087703, -29910.366822524888, 6590.233038691645, -38652.469355162306, -17188.200913453213, 3620.468511637272, 12552.896148311633, -0.09372265625000001, 0.9589128417968751, -0.22065789794921875, 192.0, 0.0, 0.0, 0.0, 0.0, 0.0, 0.0, 0.0, 0.0, 0.0, 1.741811656067228E9, 0.0, 2025-03-12 15:34:16.067
20.0, -12755.224139121074, -29939.0664624055, -28719.599988412858, -25368.939384095596, -32500.732839194876, 5277.716252531559, 4819.930174342415, 35022.23313119807, -21211.403156686207, -27096.393954324005, -29924.761345954103, 6567.747183769606, -38659.68896862137, -17198.862695558393, 3630.213872219786, 12546.771770330879, -0.092861328125, 0.9584564208984376, -0.21932894897460936, 192.0, 126.5, 16.0, 14.5, 120.0, 124.5, 24.0, 0.0, 0.0, 0.0, 1.741811656067259E9, 0.0, 2025-03-12 15:34:16.067
22.0, -12742.595403503825, -29936.20543911522, -28713.162686009728, -25354.45545368856, -32491.345106523648, 5289.294456159408, 4838.459770495864, 35034.236017970565, -21184.13402845073, -27075.763294191755, -29909.830380657957, 6585.695634567218, -38651.86585806202, -17188.893817531327, 3612.5112906111826, 12538.881604538155, -0.092861328125, 0.9584564208984376, -0.21932894897460936, 192.0, 0.0, 0.0, 0.0, 0.0, 0.0, 0.0, 0.0, 0.0, 0.0, 1.741811656067288E9, 0.0, 2025-03-12 15:34:16.067
24.0, -12746.261089594494, -29934.68552049226, -28709.362889452328, -25353.091997276784, -32490.495740234346, 5290.166174193165, 4814.744569628784, 35015.304090416925, -21200.406098414194, -27068.54368073269, -29918.122877850878, 6574.117430939368, -38659.08547152108, -17190.056108243003, 3627.8669390519785, 12545.810645319301, -0.092861328125, 0.9584564208984376, -0.21932894897460936, 192.0, 0.0, 0.0, 0.0, 0.0, 0.0, 0.0, 0.0, 0.0, 0.0, 1.741811656067318E9, 0.0, 2025-03-12 15:34:16.067
26.0, -12739.600269746814, -29923.621406986884, -28709.20642724114, -25349.828642586308, -32490.853368145632, 5284.354720634785, 4832.156578559468, 35039.39927093974, -21194.9522727671, -27056.33962826009, -29898.140418307834, 6591.864716036883, -38651.351767939545, -17178.522608104064, 3606.47631960825, 12551.95737504451, -0.092861328125, 0.9584564208984376, -0.21932894897460936, 192.0, 0.0, 0.0, 0.0, 0.0, 0.0, 0.0, 0.0, 0.0, 0.0, 1.741811656067346E9, 0.0, 2025-03-12 15:34:16.067
28.0, -12757.034630421953, -29934.864334447902, -28714.235569743585, -25358.478767690514, -32498.542368238257, 5277.313921131364, 4810.184813759901, 35026.59172136685, -21184.357545895284, -27067.381390021015, -29911.372651025376, 6580.800602531505, -38665.29925647965, -17191.665433843784, 3644.116657270987, 12555.466598923995, -0.092861328125, 0.9584564208984376, -0.21932894897460936, 192.0, 0.0, 0.0, 0.0, 0.0, 0.0, 0.0, 0.0, 0.0, 0.0, 1.741811656067374E9, 0.0, 2025-03-12 15:34:16.067
30.0, -12748.026877406464, -29939.468793805696, -28715.755488366543, -25355.4836339335, -32496.888339148565, 5275.257560641475, 4825.5851656896075, 35038.08051801688, -21197.67918559065, -27068.476625499326, -29918.77107844008, 6581.135878698335, -38661.834736089084, -17190.234922198644, 3613.695933067314, 12544.916575541089, -0.0964306640625, 0.9592282104492188, -0.2166644744873047, 192.0, 126.0, 112.0, 15.0, 0.0, 124.5, 40.0, 0.0, 0.0, 0.0, 1.741811656126058E9, 0.0, 2025-03-12 15:34:16.126
32.0, -12756.565243788391, -29938.239447860655, -28713.609720898836, -25355.237764744496, -32496.553062981733, 5280.510220588472, 4808.821357348127, 35017.74043056255, -21198.170923968664, -27069.951840633374, -29918.324043550976, 6571.0999454379025, -38664.293427979166, -17193.319462933476, 3640.8533025805123, 12548.023468020376, -0.0964306640625, 0.9592282104492188, -0.2166644744873047, 192.0, 0.0, 0.0, 0.0, 0.0, 0.0, 0.0, 0.0, 0.0, 0.0, 1.741811656126095E9, 0.0, 2025-03-12 15:34:16.126
34.0, -12739.533214513447, -29926.34831981043, -28700.71276434812, -25337.15520348015, -32480.683324418467, 5293.697749817104, 4834.369401260544, 35013.85122702733, -21200.249636203007, -27059.759445161755, -29910.456229502706, 6572.888084994327, -38653.586942385075, -17179.573140093464, 3609.8514330210014, 12541.876738295166, -0.0964306640625, 0.9592282104492188, -0.2166644744873047, 192.0, 0.0, 0.0, 0.0, 0.0, 0.0, 0.0, 0.0, 0.0, 0.0, 1.741811656126136E9, 0.0, 2025-03-12 15:34:16.126
36.0, -12757.168740888685, -29954.422110846295, -28713.63207264329, -25356.668276389635, -32498.58707172717, 5276.397499608695, 4820.019581320236, 35022.009613753515, -21213.28070322045, -27067.470796998838, -29917.742898195138, 6575.167962928768, -38657.36438719802, -17184.557579106997, 3659.6734714118807, 12565.279014739874, -0.0964306640625, 0.9592282104492188, -0.2166644744873047, 192.0, 0.0, 0.0, 0.0, 0.0, 0.0, 0.0, 0.0, 0.0, 0.0, 1.741811656126177E9, 0.0, 2025-03-12 15:34:16.126
38.0, -12754.24066236504, -29958.713645781714, -28715.956654066642, -25360.02103805793, -32498.14003683806, 5270.317825116852, 4824.422874977931, 35031.799677824936, -21221.9084765802, -27081.373582050037, -29929.991654156645, 6550.0893056499135, -38664.60635240154, -17196.31459669049, 3621.8990232824117, 12543.86604355169, -0.0964306640625, 0.9592282104492188, -0.2166644744873047, 192.0, 0.0, 0.0, 0.0, 0.0, 0.0, 0.0, 0.0, 0.0, 0.0, 1.741811656126204E9, 0.0, 2025-03-12 15:34:16.126
40.0, -12761.437924079648, -29950.8681834779, -28718.325938978905, -25366.12306429423, -32499.23527231637, 5273.894104229701, 4816.867985352038, 35032.783154580975, -21205.43524091664, -27078.378448293028, -29932.40564255782, 6555.319613852455, -38665.36631171302, -17200.62848337036, 3646.240072994241, 12552.136189000154, -0.09621533203125, 0.9606141052246093, -0.21533223724365236, 192.0, 126.5, 0.0, 15.0, 8.0, 124.5, 40.0, 0.0, 0.0, 0.0, 1.741811656126235E9, 0.0, 2025-03-12 15:34:16.126
42.0, -12754.687697254145, -29944.83321247497, -28712.24626448706, -25353.717846121534, -32491.00983035682, 5281.828973511336, 4832.894186126493, 35026.479962644575, -21216.611113144292, -27078.043172126196, -29931.757441968613, 6552.346831839899, -38666.08156753559, -17197.92392229127, 3599.8154997605684, 12542.681401095559, -0.09621533203125, 0.9606141052246093, -0.21533223724365236, 192.0, 0.0, 0.0, 0.0, 0.0, 0.0, 0.0, 0.0, 0.0, 0.0, 1.741811656126268E9, 0.0, 2025-03-12 15:34:16.126
44.0, -12753.167778631185, -29958.356017870432, -28713.29679647646, -25354.902488577663, -32492.28387979077, 5285.7852322799245, 4827.708581412862, 35026.79288706695, -21224.836555103848, -27076.031515125218, -29927.756479711115, 6571.614035560374, -38662.61704714502, -17194.369994922876, 3637.7464101012242, 12560.205168748518, -0.09621533203125, 0.9606141052246093, -0.21533223724365236, 192.0, 0.0, 0.0, 0.0, 0.0, 0.0, 0.0, 0.0, 0.0, 0.0, 1.741811656126294E9, 0.0, 2025-03-12 15:34:16.126
46.0, -12756.14056064374, -29956.724340525194, -28725.567904182426, -25358.232898501505, -32501.202225828438, 5279.079708943333, 4829.742590158295, 35025.720003333096, -21227.29524699393, -27077.819654681643, -29931.332758823963, 6556.861884219871, -38665.522773924204, -17196.1581344793, 3598.563802071071, 12547.710543598003, -0.09621533203125, 0.9606141052246093, -0.21533223724365236, 192.0, 0.0, 0.0, 0.0, 0.0, 0.0, 0.0, 0.0, 0.0, 0.0, 1.741811656187663E9, 0.0, 2025-03-12 15:34:16.187
48.0, -12746.66342099469, -29938.395910071842, -28721.410479713737, -25348.040503029886, -32492.8203216577, 5294.9941509955115, 4833.855311138072, 35020.824971297385, -21200.987243770032, -27073.25989881276, -29925.945988410236, 6571.971663471659, -38660.00189304374, -17189.094983231425, 3629.699782097314, 12555.15367450162, -0.09621533203125, 0.9606141052246093, -0.21533223724365236, 192.0, 0.0, 0.0, 0.0, 0.0, 0.0, 0.0, 0.0, 0.0, 0.0, 1.741811656187697E9, 0.0, 2025-03-12 15:34:16.187
50.0, -12734.816996433377, -29933.21030535821, -28720.091726790874, -25342.20669772705, -32485.533652965267, 5300.693845831614, 4830.591956447596, 35003.010630966506, -21216.14172651073, -27063.648648696977, -29920.64862497433, 6569.244750648111, -38656.17974474189, -17182.63532908384, 3591.9476857123004, 12540.513281883394, -0.09710766601562501, 0.9613070526123046, -0.21466611862182616, 192.0, 126.0, 120.0, 15.0, 8.0, 124.5, 40.0, 0.0, 0.0, 0.0, 1.741811656187724E9, 0.0, 2025-03-12 15:34:16.187
52.0, -12738.102702868307, -29934.462003047705, -28723.31037799244, -25345.760625095445, -32484.460769231413, 5303.063130743877, 4835.062305338658, 35024.177732965676, -21198.77442106896, -27059.26770678374, -29913.83134291546, 6591.127108469857, -38645.58501787007, -17178.902587759803, 3625.9446890288223, 12558.595843147737, -0.09710766601562501, 0.9613070526123046, -0.21466611862182616, 192.0, 0.0, 0.0, 0.0, 0.0, 0.0, 0.0, 0.0, 0.0, 0.0, 1.741811656187752E9, 0.0, 2025-03-12 15:34:16.187
54.0, -12741.008429647498, -29943.62621827438, -28728.652444917258, -25354.723674622022, -32490.7192576789, 5298.14574696371, 4822.545328443686, 35018.790962551946, -21211.604322386305, -27064.45331149737, -29920.089831362944, 6572.955140227693, -38652.44700341785, -17182.881198272848, 3605.559898085582, 12548.67166860958, -0.09710766601562501, 0.9613070526123046, -0.21466611862182616, 192.0, 0.0, 0.0, 0.0, 0.0, 0.0, 0.0, 0.0, 0.0, 0.0, 1.741811656187779E9, 0.0, 2025-03-12 15:34:16.187
56.0, -12740.494339525027, -29936.048976904032, -28727.333691994394, -25352.82377634332, -32488.595841955645, 5304.560697622383, 4828.5802994466185, 35036.85117207184, -21208.475078162563, -27064.7885876642, -29922.97320639768, 6587.3049601679995, -38652.201134228846, -17183.574102350965, 3633.5889856325375, 12556.472427424482, -0.09710766601562501, 0.9613070526123046, -0.21466611862182616, 192.0, 0.0, 0.0, 0.0, 0.0, 0.0, 0.0, 0.0, 0.0, 0.0, 1.741811656187818E9, 0.0, 2025-03-12 15:34:16.187
58.0, -12728.759673685989, -29942.06159616251, -28726.26080826054, -25352.22027924303, -32486.494777976848, 5307.667590101671, 4820.645430164985, 35013.44889562713, -21205.792868827924, -27059.82650039512, -29917.385270283852, 6577.447840863209, -38648.26722720471, -17174.901625502305, 3606.1633951858757, 12543.284898195852, -0.09710766601562501, 0.9613070526123046, -0.21466611862182616, 192.0, 0.0, 0.0, 0.0, 0.0, 0.0, 0.0, 0.0, 0.0, 0.0, 1.74181165618786E9, 0.0, 2025-03-12 15:34:16.187
60.0, -12731.352476042804, -29934.26083734761, -28725.21027627114, -25354.50015717747, -32485.757170409823, 5300.917363276168, 4832.402447748476, 35030.41386966871, -21204.0047292715, -27061.994619607285, -29912.266720803585, 6592.40115790381, -38641.002910256735, -17176.01921272507, 3626.056447751099, 12555.15367450162, -0.0955538330078125, 0.9606535263061523, -0.21433305931091307, 192.0, 126.5, 8.0, 15.0, 0.0, 124.5, 40.0, 0.0, 0.0, 0.0, 1.741811656246596E9, 0.0, 2025-03-12 15:34:16.246
62.0, -12736.314563311884, -29945.1684886418, -28728.49598270607, -25359.082264790806, -32488.729952422378, 5296.067034729366, 4814.230479506312, 35007.92801474667, -21215.135898010245, -27071.874090656533, -29924.91780816529, 6571.569332071464, -38648.200171971344, -17185.853980285407, 3618.188633702831, 12545.944755786033, -0.0955538330078125, 0.9606535263061523, -0.21433305931091307, 192.0, 0.0, 0.0, 0.0, 0.0, 0.0, 0.0, 0.0, 0.0, 0.0, 1.741811656246645E9, 0.0, 2025-03-12 15:34:16.246
64.0, -12729.743150442024, -29946.464889820207, -28727.534857694493, -25358.54582292388, -32483.969030853397, 5301.364398165274, 4827.015677334747, 35018.299224173934, -21210.464383419083, -27068.342515032593, -29920.26864531859, 6588.847230535416, -38641.18172421238, -17183.127067461857, 3627.084627996043, 12552.091485511242, -0.0955538330078125, 0.9606535263061523, -0.21433305931091307, 192.0, 0.0, 0.0, 0.0, 0.0, 0.0, 0.0, 0.0, 0.0, 0.0, 1.741811656246676E9, 0.0, 2025-03-12 15:34:16.246
66.0, -12733.878223166255, -29955.919677724803, -28729.144183295273, -25362.949116581574, -32488.551138466733, 5302.638447599226, 4815.817453362639, 34995.92512797417, -21212.029005530956, -27067.604907465568, -29924.716642465195, 6569.982358215137, -38641.20407595683, -17185.541055863032, 3618.0098197471884, 12544.469540651982, -0.0955538330078125, 0.9606535263061523, -0.21433305931091307, 192.0, 0.0, 0.0, 0.0, 0.0, 0.0, 0.0, 0.0, 0.0, 0.0, 1.741811656246703E9, 0.0, 2025-03-12 15:34:16.246
68.0, -12732.268897565473, -29943.02272117409, -28728.428927472705, -25359.037561301895, -32479.766902895797, 5302.280819687941, 4839.465598996353, 35013.42654388268, -21205.122316494264, -27061.54758471818, -29916.35709003891, 6586.545000856519, -38641.2711311902, -17181.204817438702, 3616.7134185687805, 12547.375267431173, -0.0955538330078125, 0.9606535263061523, -0.21433305931091307, 192.0, 0.0, 0.0, 0.0, 0.0, 0.0, 0.0, 0.0, 0.0, 0.0, 1.741811656246734E9, 0.0, 2025-03-12 15:34:16.246
70.0, -12750.239700107539, -29954.064482935013, -28736.654369432257, -25371.845110874787, -32491.546272223746, 5292.490755616517, 4818.633773164007, 35010.40905838121, -21229.48571795055, -27078.17728259293, -29939.35703508342, 6564.640291290319, -38656.29150346416, -17197.83451531345, 3632.0914187540316, 12544.715409840992, -0.09477691650390625, 0.9603267631530761, -0.21716652965545652, 192.0, 126.5, 8.0, 15.0, 0.0, 124.5, 16.0, 0.0, 0.0, 0.0, 1.741811656246761E9, 0.0, 2025-03-12 15:34:16.246
72.0, -12749.882072196255, -29973.108169210933, -28745.59506721438, -25375.22022428754, -32499.838769416663, 5284.421775868151, 4836.2916512837, 35047.44589894365, -21243.1649855572, -27078.713724459856, -29936.853639704426, 6568.373032614355, -38655.822116830605, -17192.805372811006, 3621.8766715379566, 12543.798988318324, -0.09477691650390625, 0.9603267631530761, -0.21716652965545652, 192.0, 0.0, 0.0, 0.0, 0.0, 0.0, 0.0, 0.0, 0.0, 0.0, 1.741811656246788E9, 0.0, 2025-03-12 15:34:16.246
74.0, -12737.8568336793, -29952.16458465631, -28724.942055337677, -25360.423369458123, -32484.393713998048, 5298.324560919352, 4816.33154348511, 35011.75016304853, -21222.467270191584, -27078.378448293028, -29934.35024432543, 6560.996956944104, -38653.49753540725, -17185.675166329762, 3631.554976887104, 12539.57450861627, -0.09477691650390625, 0.9603267631530761, -0.21716652965545652, 192.0, 0.0, 0.0, 0.0, 0.0, 0.0, 0.0, 0.0, 0.0, 0.0, 1.741811656246815E9, 0.0, 2025-03-12 15:34:16.246
76.0, -12738.23681333504, -29951.963418956213, -28727.69131990568, -25357.405883956657, -32482.851443630632, 5300.403273153695, 4840.136151330013, 35028.156343478724, -21206.642235117226, -27064.073331841628, -29922.68263371976, 6579.213628675178, -38643.394546913456, -17180.131933704848, 3607.9738864867554, 12542.346124928728, -0.09477691650390625, 0.9603267631530761, -0.21716652965545652, 192.0, 0.0, 0.0, 0.0, 0.0, 0.0, 0.0, 0.0, 0.0, 0.0, 1.741811656306761E9, 0.0, 2025-03-12 15:34:16.306
78.0, -12752.787798975445, -29960.725302782692, -28737.459032232648, -25371.10750330776, -32494.139074580562, 5294.8823922732345, 4820.310153998155, 35016.332270661864, -21232.659665663203, -27072.16466333445, -29936.160735626312, 6570.563503570975, -38651.016491772716, -17185.764573307584, 3642.7755526036685, 12551.465636666493, -0.09477691650390625, 0.9603267631530761, -0.21716652965545652, 192.0, 0.0, 0.0, 0.0, 0.0, 0.0, 0.0, 0.0, 0.0, 0.0, 1.741811656306808E9, 0.0, 2025-03-12 15:34:16.306
80.0, -12755.179435632162, -29982.093570481968, -28749.193698071686, -25380.741105168, -32499.5705484832, 5284.645293312704, 4823.595860433085, 35040.02511978449, -21251.479834494574, -27092.214178110862, -29950.39879684434, 6555.274910363545, -38665.90275357995, -17204.383576438853, 3622.3237064270625, 12540.893261539133, -0.09238845825195313, 0.958163381576538, -0.21758326482772827, 192.0, 126.5, 24.0, 14.5, 112.0, 124.5, 24.0, 0.0, 0.0, 0.0, 1.741811656306839E9, 0.0, 2025-03-12 15:34:16.306
82.0, -12751.42434256367, -29962.625201061393, -28734.732119409102, -25369.20760502906, -32486.65124018803, 5303.107834232787, 4811.280049238211, 35007.99506998004, -21238.02408433248, -27081.59709949459, -29946.464889820207, 6559.454686576687, -38659.15252675444, -17192.090116988435, 3642.663793881392, 12539.798026060824, -0.09238845825195313, 0.958163381576538, -0.21758326482772827, 192.0, 0.0, 0.0, 0.0, 0.0, 0.0, 0.0, 0.0, 0.0, 0.0, 1.741811656306867E9, 0.0, 2025-03-12 15:34:16.306
84.0, -12747.512787283993, -29965.799148774047, -28744.186907313695, -25371.889814363698, -32491.412161757013, 5294.480060873039, 4827.105084312569, 35015.95229100613, -21227.362302227295, -27072.07525635663, -29944.386177585864, 6560.259349377078, -38652.91639005142, -17182.143590705826, 3610.5666888435712, 12539.440398149538, -0.09238845825195313, 0.958163381576538, -0.21758326482772827, 192.0, 0.0, 0.0, 0.0, 0.0, 0.0, 0.0, 0.0, 0.0, 0.0, 1.741811656306902E9, 0.0, 2025-03-12 15:34:16.306
86.0, -12752.161950130696, -29968.07902670849, -28740.38711075629, -25374.97435509853, -32493.401467013537, 5290.367339893262, 4811.7270841273175, 35012.68893631565, -21236.280648264965, -27086.536835019215, -29952.768081756603, 6552.100962650891, -38659.241933732264, -17196.06872750148, 3656.00778532121, 12549.699848854525, -0.09238845825195313, 0.958163381576538, -0.21758326482772827, 192.0, 0.0, 0.0, 0.0, 0.0, 0.0, 0.0, 0.0, 0.0, 0.0, 1.741811656306934E9, 0.0, 2025-03-12 15:34:16.306
88.0, -12738.952069157609, -29975.29864016755, -28739.001302600063, -25370.571061440834, -32494.072019347197, 5286.656950313682, 4820.131340042512, 35010.342003147845, -21241.555659956415, -27085.68746872991, -29944.095604907943, 6553.218549873656, -38650.79297432816, -17193.475925144663, 3613.4500638783056, 12532.153729457108, -0.09238845825195313, 0.958163381576538, -0.21758326482772827, 192.0, 0.0, 0.0, 0.0, 0.0, 0.0, 0.0, 0.0, 0.0, 0.0, 1.741811656306962E9, 0.0, 2025-03-12 15:34:16.306
90.0, -12748.228043106563, -29971.923526754803, -28744.92451488072, -25383.803294158377, -32501.8727781621, 5277.202162409087, 4809.536613170697, 35017.62867184027, -21236.370055242784, -27091.655384499478, -29945.392006086353, 6560.616977288363, -38660.40422444394, -17203.60126538292, 3651.425677707872, 12547.375267431173, -0.08819422912597658, 0.9570816907882691, -0.21679163241386412, 192.0, 126.5, 48.0, 14.5, 112.0, 124.5, 32.0, 0.0, 0.0, 0.0, 1.74181165636857E9, 0.0, 2025-03-12 15:34:16.368
92.0, -12744.405894804704, -29963.631029561882, -28736.587314198892, -25371.77805564142, -32488.32762102218, 5283.9970927235, 4820.757188887262, 35001.669526299185, -21240.72864541157, -27084.703991973878, -29941.54750604004, 6548.703497493684, -38654.83864007457, -17199.041509514038, 3601.4471771058056, 12522.76599678588, -0.08819422912597658, 0.9570816907882691, -0.21679163241386412, 192.0, 0.0, 0.0, 0.0, 0.0, 0.0, 0.0, 0.0, 0.0, 0.0, 1.741811656368608E9, 0.0, 2025-03-12 15:34:16.368
94.0, -12751.089066396842, -29975.633916334384, -28741.21412530114, -25384.295032536393, -32501.023411872797, 5276.3304443753295, 4816.867985352038, 35020.959081764115, -21240.415720989196, -27092.08006764413, -29945.50376480863, 6554.090267907413, -38657.923180809405, -17197.052204257514, 3645.189541004842, 12545.38596217465, -0.08819422912597658, 0.9570816907882691, -0.21679163241386412, 192.0, 0.0, 0.0, 0.0, 0.0, 0.0, 0.0, 0.0, 0.0, 0.0, 1.741811656368635E9, 0.0, 2025-03-12 15:34:16.368
96.0, -12746.171682616674, -29967.475529608197, -28733.145145552775, -25377.187177799606, -32495.033144358775, 5281.225476411042, 4818.499662697275, 35009.9620234921, -21238.337008754854, -27093.17530312244, -29938.284151349566, 6538.756971211073, -38666.439195446874, -17203.73537584965, 3612.2654214221743, 12529.985610244943, -0.08819422912597658, 0.9570816907882691, -0.21679163241386412, 192.0, 0.0, 0.0, 0.0, 0.0, 0.0, 0.0, 0.0, 0.0, 0.0, 1.741811656368663E9, 0.0, 2025-03-12 15:34:16.368
98.0, -12752.47487455307, -29958.914811481813, -28733.659235675244, -25376.047238832383, -32494.00496411383, 5283.348892134296, 4826.434531978909, 35019.10388697432, -21232.39144472974, -27085.888634430008, -29934.171430369788, 6562.91920696726, -38662.14766051146, -17196.381651923853, 3646.3294799720625, 12548.783427331857, -0.08819422912597658, 0.9570816907882691, -0.21679163241386412, 192.0, 0.0, 0.0, 0.0, 0.0, 0.0, 0.0, 0.0, 0.0, 0.0, 1.741811656368691E9, 0.0, 2025-03-12 15:34:16.368
100.0, -12748.76448497349, -29964.45804410673, -28732.564000196937, -25373.36502949775, -32496.798932170743, 5279.482040343528, 4824.869909867038, 35008.2632909135, -21239.499299466526, -27081.39593379449, -29933.63498850286, 6553.307956851478, -38662.23706748927, -17200.606131625907, 3614.7464650567135, 12536.579374859259, -0.0870971145629883, 0.9575408453941345, -0.21839581620693205, 192.0, 126.5, 40.0, 14.5, 120.0, 124.5, 16.0, 0.0, 0.0, 0.0, 1.741811656368738E9, 0.0, 2025-03-12 15:34:16.368
102.0, -12747.043400650431, -29963.02753246159, -28731.558171696448, -25369.520529451434, -32496.441304259457, 5287.260447413975, 4828.915575613449, 35012.33130840436, -21244.17081405769, -27086.894462930497, -29935.244314103642, 6560.862846477372, -38665.16514601292, -17201.63431187085, 3651.023346307677, 12550.48215991046, -0.0870971145629883, 0.9575408453941345, -0.21839581620693205, 192.0, 0.0, 0.0, 0.0, 0.0, 0.0, 0.0, 0.0, 0.0, 0.0, 1.741811656368771E9, 0.0, 2025-03-12 15:34:16.368
104.0, -12753.391296075737, -29965.128596440387, -28736.140279309784, -25368.514700950946, -32498.832940916174, 5288.690959059115, 4818.544366186186, 34996.30510762991, -21227.183488271654, -27087.60971875307, -29934.864334447902, 6542.892043935304, -38659.040768032166, -17197.856867057904, 3621.563747115582, 12535.57354635877, -0.0870971145629883, 0.9575408453941345, -0.21839581620693205, 192.0, 0.0, 0.0, 0.0, 0.0, 0.0, 0.0, 0.0, 0.0, 0.0, 1.741811656368798E9, 0.0, 2025-03-12 15:34:16.368
106.0, -12748.943298929133, -29973.01876223311, -28735.335616509394, -25365.87719510522, -32498.14003683806, 5289.339159648319, 4830.413142491954, 35023.99891901004, -21240.88510762276, -27088.101457131084, -29939.73701473916, 6557.3089191089775, -38659.867782577014, -17194.772326323073, 3646.217721249786, 12552.449113422528, -0.0870971145629883, 0.9575408453941345, -0.21839581620693205, 192.0, 0.0, 0.0, 0.0, 0.0, 0.0, 0.0, 0.0, 0.0, 0.0, 1.741811656427479E9, 0.0, 2025-03-12 15:34:16.427
108.0, -12740.986077903042, -29959.607715559927, -28727.668968161222, -25359.21637525754, -32487.031219843775, 5299.173927208653, 4822.5900319325965, 35000.44018035414, -21245.15429081372, -27077.819654681643, -29932.092718135445, 6546.937709681715, -38651.66469236192, -17188.3573756644, 3618.3674476584733, 12542.256717950908, -0.0870971145629883, 0.9575408453941345, -0.21839581620693205, 192.0, 0.0, 0.0, 0.0, 0.0, 0.0, 0.0, 0.0, 0.0, 0.0, 1.741811656427557E9, 0.0, 2025-03-12 15:34:16.427
110.0, -12746.19403436113, -29956.098491680445, -28735.156802553753, -25367.240651516993, -32491.836844901663, 5293.407177139185, 4830.726066914328, 35034.50423890403, -21230.737415640047, -27083.094666373097, -29932.83032570247, 6566.786058758028, -38649.541276638665, -17192.78302106655, 3634.9077385554006, 12556.874758824679, -0.08554855728149416, 0.9577704226970674, -0.219197908103466, 192.0, 126.5, 48.0, 14.5, 120.0, 124.5, 16.0, 0.0, 0.0, 0.0, 1.741811656427585E9, 0.0, 2025-03-12 15:34:16.427
112.0, -12751.893729197232, -29966.156776685333, -28740.45416598966, -25380.897567379187, -32499.5705484832, 5279.884371743724, 4810.877717838016, 35017.76278230701, -21237.688808165647, -27088.347326320094, -29941.21222987321, 6548.502331793587, -38660.47127967731, -17197.476887402165, 3623.754218072202, 12535.662953336592, -0.08554855728149416, 0.9577704226970674, -0.219197908103466, 192.0, 0.0, 0.0, 0.0, 0.0, 0.0, 0.0, 0.0, 0.0, 0.0, 1.74181165642762E9, 0.0, 2025-03-12 15:34:16.427
114.0, -12753.056019908909, -29980.64070709237, -28746.7350061816, -25389.570044227847, -32502.789199684765, 5270.474287328039, 4828.088561068602, 35041.38857619627, -21246.16011931421, -27091.431867054926, -29939.55820078352, 6557.443029575709, -38662.03590178918, -17204.338872949946, 3633.790151332635, 12531.48317712345, -0.08554855728149416, 0.9577704226970674, -0.219197908103466, 192.0, 0.0, 0.0, 0.0, 0.0, 0.0, 0.0, 0.0, 0.0, 0.0, 1.741811656427647E9, 0.0, 2025-03-12 15:34:16.427
116.0, -12759.359211845305, -29974.337515155974, -28744.656293947257, -25389.03360236092, -32502.409220029025, 5268.105002415777, 4810.073055037625, 35012.30895665991, -21254.229099062577, -27102.004242182287, -29951.49403232265, 6535.225395587135, -38671.51304143823, -17219.135727779358, 3629.7444855862245, 12514.831127504245, -0.08554855728149416, 0.9577704226970674, -0.219197908103466, 192.0, 0.0, 0.0, 0.0, 0.0, 0.0, 0.0, 0.0, 0.0, 0.0, 1.741811656427675E9, 0.0, 2025-03-12 15:34:16.427
118.0, -12756.989926933042, -29968.950744742247, -28744.186907313695, -25382.46218949106, -32499.034106616273, 5272.597703051294, 4832.871834382037, 35025.563541121905, -21247.121244325786, -27091.297756588192, -29940.87695370638, 6556.034869675025, -38660.650093632954, -17203.40009968282, 3607.459796364283, 12522.05074096331, -0.08554855728149416, 0.9577704226970674, -0.219197908103466, 192.0, 0.0, 0.0, 0.0, 0.0, 0.0, 0.0, 0.0, 0.0, 0.0, 1.741811656427702E9, 0.0, 2025-03-12 15:34:16.427
120.0, -12759.694488012134, -29972.07998896599, -28747.696131193177, -25386.105523837272, -32505.069077619206, 5273.3353106183185, 4814.4316452064095, 35012.82304678238, -21262.00750613302, -27099.70201250339, -29949.996465444146, 6542.087381134914, -38671.02130306021, -17210.75382360862, 3619.172110458864, 12537.138168470641, -0.08477427864074707, 0.9568852113485338, -0.21859895405173302, 192.0, 126.5, 48.0, 14.5, 112.0, 124.5, 24.0, 0.0, 0.0, 0.0, 1.741811656486337E9, 0.0, 2025-03-12 15:34:16.486
122.0, -12755.67117401018, -29980.305430925542, -28747.182041070708, -25380.428180745625, -32503.48210376288, 5276.218685653053, 4835.352878016577, 35038.77342209499, -21249.9152123827, -27095.678698501433, -29946.621352031394, 6557.15245689779, -38671.11071003803, -17208.853925329917, 3607.146871941909, 12544.357781929706, -0.08477427864074707, 0.9568852113485338, -0.21859895405173302, 192.0, 0.0, 0.0, 0.0, 0.0, 0.0, 0.0, 0.0, 0.0, 0.0, 1.741811656486405E9, 0.0, 2025-03-12 15:34:16.486
124.0, -12752.273708852972, -29968.704875553238, -28740.096538078375, -25378.349468511282, -32500.889301406063, 5283.147726434198, 4819.796063875683, 35019.59562535234, -21238.58287794386, -27092.616509511055, -29941.659264762315, 6555.118448152358, -38673.100015294556, -17207.35635845141, 3621.2955261821185, 12548.67166860958, -0.08477427864074707, 0.9568852113485338, -0.21859895405173302, 192.0, 0.0, 0.0, 0.0, 0.0, 0.0, 0.0, 0.0, 0.0, 0.0, 1.741811656486432E9, 0.0, 2025-03-12 15:34:16.486
126.0, -12745.881109938755, -29972.50467211064, -28743.69516893568, -25375.533148709914, -32496.977746126384, 5285.271142157453, 4842.90776764247, 35041.299169218444, -21249.73639842706, -27092.392992066503, -29940.54167753955, 6560.840494732916, -38668.69672163686, -17204.11535550539, 3607.795072531113, 12548.9622412875, -0.08477427864074707, 0.9568852113485338, -0.21859895405173302, 192.0, 0.0, 0.0, 0.0, 0.0, 0.0, 0.0, 0.0, 0.0, 0.0, 1.74181165648646E9, 0.0, 2025-03-12 15:34:16.486
128.0, -12746.37284831677, -29966.40264587434, -28734.374491497816, -25374.706134165066, -32501.135170595073, 5283.862982256768, 4826.6356976790075, 35027.68695684516, -21252.95504962862, -27088.5931955091, -29930.97513091268, 6560.39345984381, -38662.684102378385, -17196.001672268114, 3635.2653664666855, 12560.160465259609, -0.08477427864074707, 0.9568852113485338, -0.21859895405173302, 192.0, 0.0, 0.0, 0.0, 0.0, 0.0, 0.0, 0.0, 0.0, 0.0, 1.741811656486491E9, 0.0, 2025-03-12 15:34:16.486
130.0, -12742.595403503825, -29963.02753246159, -28735.805003142956, -25370.839282374298, -32499.05645836073, 5283.103022945288, 4837.275128039733, 35042.19323899665, -21231.45267146262, -27086.514483274757, -29924.023738387077, 6565.601416301896, -38659.75602385474, -17198.97445428067, 3609.6279155764482, 12553.969032045488, -0.08438713932037353, 0.954442605674267, -0.2172994770258665, 192.0, 126.5, 48.0, 14.5, 96.0, 124.5, 32.0, 0.0, 0.0, 0.0, 1.741811656486521E9, 0.0, 2025-03-12 15:34:16.486
132.0, -12751.960784430597, -29974.404570389343, -28730.77586064051, -25374.706134165066, -32499.123513594095, 5282.320711889352, 4811.682380638406, 35029.83272431287, -21238.113491310298, -27090.02370715424, -29933.702043736226, 6560.616977288363, -38667.10974778053, -17205.568218894987, 3641.2556339807074, 12557.835883836256, -0.08438713932037353, 0.954442605674267, -0.2172994770258665, 192.0, 0.0, 0.0, 0.0, 0.0, 0.0, 0.0, 0.0, 0.0, 0.0, 1.74181165648655E9, 0.0, 2025-03-12 15:34:16.486
134.0, -12735.532252255947, -29961.395855116352, -28727.333691994394, -25368.62645967322, -32496.10602809263, 5283.706520045581, 4823.9981918332805, 35032.425526669685, -21240.415720989196, -27079.876015171532, -29921.095659863433, 6569.53532332603, -38648.80366907164, -17196.78398332405, 3601.022493961155, 12537.115816726187, -0.08438713932037353, 0.954442605674267, -0.2172994770258665, 192.0, 0.0, 0.0, 0.0, 0.0, 0.0, 0.0, 0.0, 0.0, 0.0, 1.74181165648658E9, 0.0, 2025-03-12 15:34:16.486
136.0, -12742.57305175937, -29952.477509078686, -28729.16653503973, -25376.24840453248, -32501.939833395463, 5278.476211843039, 4803.836918334594, 35022.74722132054, -21237.59940118783, -27086.73800071931, -29923.55435175352, 6566.271968635556, -38654.436308674376, -17204.271817716577, 3636.3158984560846, 12549.409276176606, -0.08438713932037353, 0.954442605674267, -0.2172994770258665, 192.0, 0.0, 0.0, 0.0, 0.0, 0.0, 0.0, 0.0, 0.0, 0.0, 1.741811656547293E9, 0.0, 2025-03-12 15:34:16.547
138.0, -12730.57016498687, -29955.96438121371, -28725.612607671334, -25368.82762537332, -32495.547234481244, 5286.746357291503, 4814.409293461954, 35013.1136194603, -21230.357435984308, -27074.243375568793, -29913.87604640437, 6566.853113991394, -38642.79104981316, -17193.69944258922, 3591.18772640082, 12528.510395110894, -0.08438713932037353, 0.954442605674267, -0.2172994770258665, 192.0, 0.0, 0.0, 0.0, 0.0, 0.0, 0.0, 0.0, 0.0, 0.0, 1.741811656547331E9, 0.0, 2025-03-12 15:34:16.547
140.0, -12746.171682616674, -29965.08389295148, -28733.41336648624, -25381.992802857498, -32506.38783054207, 5276.129278675232, 4798.070168265124, 35022.74722132054, -21230.24567726203, -27085.441599540904, -29925.655415732315, 6573.133954183335, -38651.93291329538, -17204.49533516113, 3642.954366559311, 12551.711505855503, -0.08619356966018676, 0.9542213028371336, -0.21564973851293323, 192.0, 126.5, 32.0, 14.5, 104.0, 124.5, 40.0, 0.0, 0.0, 0.0, 1.741811656547358E9, 0.0, 2025-03-12 15:34:16.547
142.0, -12733.833519677344, -29956.59023005846, -28720.806982613445, -25366.883023605707, -32491.85919664612, 5288.2439241700085, 4806.407368946954, 35001.669526299185, -21233.44197671914, -27083.720515217843, -29918.480505762163, 6561.354584855389, -38646.16616322591, -17196.448707157222, 3600.955438727789, 12532.645467835126, -0.08619356966018676, 0.9542213028371336, -0.21564973851293323, 192.0, 0.0, 0.0, 0.0, 0.0, 0.0, 0.0, 0.0, 0.0, 0.0, 1.741811656547388E9, 0.0, 2025-03-12 15:34:16.547
144.0, -12753.212482120096, -29961.038227205067, -28735.469726976127, -25380.96462261255, -32504.353821796638, 5280.309054888375, 4799.411272932443, 35019.416811396695, -21243.656723935215, -27084.771047207243, -29924.761345954103, 6575.503239095598, -38648.31193069362, -17196.225189712666, 3638.998107790722, 12557.992346047444, -0.08619356966018676, 0.9542213028371336, -0.21564973851293323, 192.0, 0.0, 0.0, 0.0, 0.0, 0.0, 0.0, 0.0, 0.0, 0.0, 1.741811656547444E9, 0.0, 2025-03-12 15:34:16.547
146.0, -12746.931641928155, -29956.433767847273, -28729.434755973194, -25373.990878342498, -32500.688135705965, 5280.756089777481, 4802.741682856284, 35005.49167460104, -21239.901630866723, -27083.541701262202, -29927.935293666756, 6549.1505323827905, -38656.06798601961, -17200.963759537193, 3598.697912537803, 12540.200357461019, -0.08619356966018676, 0.9542213028371336, -0.21564973851293323, 192.0, 0.0, 0.0, 0.0, 0.0, 0.0, 0.0, 0.0, 0.0, 0.0, 1.741811656547471E9, 0.0, 2025-03-12 15:34:16.547
148.0, -12742.438941292638, -29961.865241749914, -28727.62426467231, -25371.241613774495, -32498.408257771523, 5283.7288717900365, 4806.7426451137835, 35014.946462505635, -21235.185412786654, -27084.435771040415, -29925.677767476773, 6562.8297999894385, -38656.537372653176, -17198.862695558393, 3632.4266949208613, 12553.164369245098, -0.08619356966018676, 0.9542213028371336, -0.21564973851293323, 192.0, 0.0, 0.0, 0.0, 0.0, 0.0, 0.0, 0.0, 0.0, 0.0, 1.741811656547497E9, 0.0, 2025-03-12 15:34:16.547
150.0, -12744.540005271436, -29957.327837625486, -28725.992587327077, -25371.6886486636, -32496.262490303816, 5284.421775868151, 4805.647409635474, 34999.23318615356, -21245.02018034699, -27083.854625684577, -29926.616540743893, 6552.570349284452, -38657.61025638703, -17198.102736246914, 3602.765930028669, 12535.707656825502, -0.08809678483009338, 0.9551106514185668, -0.2158248692564666, 192.0, 126.5, 24.0, 14.5, 112.0, 124.5, 32.0, 0.0, 0.0, 0.0, 1.741811656608139E9, 0.0, 2025-03-12 15:34:16.608
152.0, -12748.697429740123, -29952.3210468675, -28728.8312588729, -25375.466093476545, -32495.368420525603, 5281.985435722522, 4807.010866047248, 35018.90272127423, -21229.15044178372, -27083.139369862005, -29921.855619174916, 6575.324425139956, -38655.01745403021, -17194.414698411787, 3635.801808333613, 12551.800912833323, -0.08809678483009338, 0.9551106514185668, -0.2158248692564666, 192.0, 0.0, 0.0, 0.0, 0.0, 0.0, 0.0, 0.0, 0.0, 0.0, 1.741811656608201E9, 0.0, 2025-03-12 15:34:16.608
154.0, -12748.317450084383, -29954.15388991283, -28734.374491497816, -25377.20952954406, -32498.56471998271, 5277.671549042649, 4798.785424087694, 35003.94940423362, -21238.82874713287, -27082.759390206265, -29928.62819774487, 6548.72584923814, -38655.71035810833, -17195.197009467724, 3606.14104344142, 12532.690171324037, -0.08809678483009338, 0.9551106514185668, -0.2158248692564666, 192.0, 0.0, 0.0, 0.0, 0.0, 0.0, 0.0, 0.0, 0.0, 0.0, 1.741811656608229E9, 0.0, 2025-03-12 15:34:16.608
156.0, -12759.828598478867, -29977.287945424076, -28739.515392722536, -25384.764419169955, -32508.19832184295, 5272.530647817927, 4800.126528755013, 35033.94544529265, -21254.38556127376, -27096.41630606846, -29936.83128795997, 6552.771514984551, -38664.60635240154, -17214.128937021367, 3631.152645486909, 12544.178967974063, -0.08809678483009338, 0.9551106514185668, -0.2158248692564666, 192.0, 0.0, 0.0, 0.0, 0.0, 0.0, 0.0, 0.0, 0.0, 0.0, 1.741811656608261E9, 0.0, 2025-03-12 15:34:16.608
158.0, -12738.28151682395, -29958.08779693697, -28726.46197396064, -25372.716828908546, -32500.8222461727, 5281.694863044603, 4787.9001245379595, 35004.329383889366, -21245.042532091444, -27090.291928087703, -29931.55627626852, 6543.428485802232, -38658.79489884316, -17204.517686905587, 3600.28488639413, 12523.9059357531, -0.08809678483009338, 0.9551106514185668, -0.2158248692564666, 192.0, 0.0, 0.0, 0.0, 0.0, 0.0, 0.0, 0.0, 0.0, 0.0, 1.741811656608287E9, 0.0, 2025-03-12 15:34:16.608
160.0, -12752.229005364063, -29964.50274759564, -28737.414328743736, -25383.043334846894, -32510.634661988577, 5270.027252438933, 4799.18775548789, 35036.828820327384, -21225.10477603731, -27089.26374784276, -29918.793430184538, 6565.199084901701, -38654.346901696554, -17203.042471771536, 3612.690104566825, 12542.234366206452, -0.0870483924150467, 0.9545553257092834, -0.2179124346282333, 192.0, 126.5, 40.0, 14.5, 104.0, 124.5, 16.0, 0.0, 0.0, 0.0, 1.741811656608315E9, 0.0, 2025-03-12 15:34:16.608
162.0, -12749.367982073783, -29960.36767487141, -28729.16653503973, -25380.003497600974, -32504.465580518914, 5277.492735087006, 4794.113909496536, 35006.22928216807, -21248.127072826275, -27092.817675211154, -29930.796316957036, 6541.10390437888, -38662.661750633924, -17209.815050341494, 3601.536584083627, 12530.007961989399, -0.0870483924150467, 0.9545553257092834, -0.2179124346282333, 192.0, 0.0, 0.0, 0.0, 0.0, 0.0, 0.0, 0.0, 0.0, 0.0, 1.741811656608344E9, 0.0, 2025-03-12 15:34:16.608
164.0, -12751.960784430597, -29968.436654619774, -28735.425023487216, -25380.383477256713, -32508.354784054136, 5270.116659416754, 4811.302400982667, 35033.900741803736, -21250.943392627643, -27094.60581476758, -29929.097584378433, 6554.827875474439, -38661.45475643334, -17208.563352651996, 3611.1925376883196, 12536.109988225699, -0.0870483924150467, 0.9545553257092834, -0.2179124346282333, 192.0, 0.0, 0.0, 0.0, 0.0, 0.0, 0.0, 0.0, 0.0, 0.0, 1.741811656608374E9, 0.0, 2025-03-12 15:34:16.608
166.0, -12762.24258688004, -29970.850643020945, -28737.950770610663, -25388.430105260624, -32513.026298645294, 5267.0544704263775, 4792.146955984468, 35021.07084048639, -21245.377808258272, -27100.774896237243, -29934.484354792163, 6537.10294212138, -38672.16124202743, -17216.967608567193, 3611.9748487442553, 12523.637714819637, -0.0870483924150467, 0.9545553257092834, -0.2179124346282333, 192.0, 0.0, 0.0, 0.0, 0.0, 0.0, 0.0, 0.0, 0.0, 0.0, 1.741811656667894E9, 0.0, 2025-03-12 15:34:16.667
168.0, -12756.252319366016, -29963.519270839606, -28731.9828548411, -25374.25909927596, -32504.599690985644, 5280.66668279966, 4813.291706239189, 35038.95223605064, -21243.34379951284, -27098.852646214087, -29932.763270469102, 6547.496503293098, -38665.478070435296, -17212.60901839841, 3610.1867091878307, 12526.699903810013, -0.0870483924150467, 0.9545553257092834, -0.2179124346282333, 192.0, 0.0, 0.0, 0.0, 0.0, 0.0, 0.0, 0.0, 0.0, 0.0, 1.74181165666793E9, 0.0, 2025-03-12 15:34:16.667
170.0, -12744.04826689342, -29949.59413404395, -28714.235569743585, -25357.987029312495, -32496.77658042629, 5300.246810942508, 4805.356836957555, 35008.375049635775, -21253.312677539907, -27083.094666373097, -29928.896418678334, 6546.065991647958, -38658.347863954055, -17194.21353271169, 3622.636630849437, 12541.988497017444, -0.08852419620752335, 0.9532776628546418, -0.21995621731411663, 192.0, 126.5, 24.0, 14.5, 96.0, 124.5, 8.0, 0.0, 0.0, 0.0, 1.741811656667978E9, 0.0, 2025-03-12 15:34:16.667
172.0, -12736.739246456535, -29941.59220952895, -28714.392031954772, -25352.60025889877, -32499.14586533855, 5300.269162686964, 4817.38207547451, 35030.682090602175, -21227.29524699393, -27069.75067493328, -29909.003366113113, 6570.831724504438, -38646.85906730402, -17180.93659650524, 3610.119653954465, 12553.38788668965, -0.08852419620752335, 0.9532776628546418, -0.21995621731411663, 192.0, 0.0, 0.0, 0.0, 0.0, 0.0, 0.0, 0.0, 0.0, 0.0, 1.741811656668006E9, 0.0, 2025-03-12 15:34:16.668
174.0, -12743.310659326395, -29943.916790952302, -28715.844895344366, -25359.14932002417, -32501.984536884374, 5294.770633550958, 4788.883601293994, 35020.73556431956, -21225.68592139315, -27071.02472436723, -29913.965453382192, 6560.639329032819, -38656.85029707555, -17186.278663430057, 3636.3606019449953, 12556.919462313588, -0.08852419620752335, 0.9532776628546418, -0.21995621731411663, 192.0, 0.0, 0.0, 0.0, 0.0, 0.0, 0.0, 0.0, 0.0, 0.0, 1.741811656668045E9, 0.0, 2025-03-12 15:34:16.668
176.0, -12738.370923801771, -29947.850697976435, -28713.430906943195, -25359.17167176863, -32485.108969820616, 5289.316807903863, 4811.883546338505, 35020.199122452635, -21222.7578428695, -27071.494111000793, -29910.500932991617, 6561.846323233405, -38652.29054120667, -17190.77136406557, 3606.3198573970626, 12545.67653485257, -0.08852419620752335, 0.9532776628546418, -0.21995621731411663, 192.0, 0.0, 0.0, 0.0, 0.0, 0.0, 0.0, 0.0, 0.0, 0.0, 1.741811656668072E9, 0.0, 2025-03-12 15:34:16.668
178.0, -12756.632299021758, -29968.146081941853, -28722.438659958683, -25371.666296919146, -32490.58514721217, 5282.834802011825, 4803.2781247232115, 35009.02325022498, -21247.031837347968, -27082.08883787261, -29918.882837162357, 6555.297262108, -38657.431442431385, -17194.30293968951, 3633.05254376561, 12551.15271224412, -0.08852419620752335, 0.9532776628546418, -0.21995621731411663, 192.0, 0.0, 0.0, 0.0, 0.0, 0.0, 0.0, 0.0, 0.0, 0.0, 1.741811656668105E9, 0.0, 2025-03-12 15:34:16.668
180.0, -12761.750848502023, -29955.96438121371, -28736.29674152097, -25372.381552741714, -32499.794065927756, 5270.429583839129, 4813.470520194831, 35035.89004706026, -21263.527424755983, -27094.6952217454, -29929.05288088952, 6544.635480002818, -38661.38770119997, -17205.612922383898, 3612.757159800191, 12540.9603167725, -0.08826209810376168, 0.949638831427321, -0.2209781086570583, 192.0, 126.5, 32.0, 14.5, 72.0, 124.5, 8.0, 0.0, 0.0, 0.0, 1.741811656726767E9, 0.0, 2025-03-12 15:34:16.726
182.0, -12755.939394943643, -29963.02753246159, -28727.333691994394, -25371.06279981885, -32500.106990350127, 5273.000034451489, 4792.079900751102, 35023.618939354295, -21254.720837440593, -27098.226797369338, -29935.557238526017, 6546.825950959439, -38676.27396300721, -17208.608056140907, 3643.535511915149, 12541.206185961508, -0.08826209810376168, 0.949638831427321, -0.2209781086570583, 192.0, 0.0, 0.0, 0.0, 0.0, 0.0, 0.0, 0.0, 0.0, 0.0, 1.741811656726813E9, 0.0, 2025-03-12 15:34:16.726
184.0, -12742.9083279262, -29960.233564404676, -28720.27054074652, -25362.367971225736, -32491.63567920157, 5281.225476411042, 4810.073055037625, 35024.89298878825, -21233.68784590815, -27085.195730351894, -29913.764287682094, 6550.156360883279, -38660.60539014404, -17199.242675214133, 3602.7435782842135, 12528.778616044357, -0.08826209810376168, 0.949638831427321, -0.2209781086570583, 192.0, 0.0, 0.0, 0.0, 0.0, 0.0, 0.0, 0.0, 0.0, 0.0, 1.74181165672684E9, 0.0, 2025-03-12 15:34:16.726
186.0, -12745.165854116185, -29959.607715559927, -28718.81767735692, -25368.425293973127, -32491.18864431246, 5280.130240932732, 4798.159575242946, 35015.95229100613, -21245.53427046946, -27085.285137329716, -29920.559217996506, 6551.519817295053, -38661.499459922255, -17195.06289900099, 3634.572462388571, 12541.966145272989, -0.08826209810376168, 0.949638831427321, -0.2209781086570583, 192.0, 0.0, 0.0, 0.0, 0.0, 0.0, 0.0, 0.0, 0.0, 0.0, 1.741811656726884E9, 0.0, 2025-03-12 15:34:16.726
188.0, -12745.121150627274, -29953.997427701644, -28722.282197747496, -25374.39320974269, -32494.742571680854, 5269.982548950023, 4809.827185848616, 35019.30505267442, -21245.19899430263, -27087.430904797424, -29916.267683061087, 6548.502331793587, -38661.81238434462, -17203.69067236074, 3602.900040495401, 12528.085711966243, -0.08826209810376168, 0.949638831427321, -0.2209781086570583, 192.0, 0.0, 0.0, 0.0, 0.0, 0.0, 0.0, 0.0, 0.0, 0.0, 1.741811656726919E9, 0.0, 2025-03-12 15:34:16.726
190.0, -12754.061848409397, -29960.79235801606, -28722.572770425413, -25375.421389987638, -32499.05645836073, 5269.133182660721, 4801.110005511046, 35024.803581810425, -21254.83259616287, -27092.951785677888, -29916.91588365029, 6553.889102207316, -38665.969808813315, -17210.97734105317, 3645.949500316322, 12539.038066749343, -0.08813104905188084, 0.9518194157136606, -0.22148905432852917, 192.0, 126.5, 32.0, 14.5, 104.0, 124.5, 8.0, 0.0, 0.0, 0.0, 1.741811656726945E9, 0.0, 2025-03-12 15:34:16.726
192.0, -12750.776141974467, -29972.482320366184, -28722.326901236404, -25376.44957023258, -32498.296499049247, 5270.0496041833885, 4805.781520102206, 35022.50135213153, -21252.373904272787, -27101.959538693376, -29919.665148218293, 6536.745314210095, -38673.83762286158, -17217.012312056104, 3609.694970809814, 12527.750435799413, -0.08813104905188084, 0.9518194157136606, -0.22148905432852917, 192.0, 0.0, 0.0, 0.0, 0.0, 0.0, 0.0, 0.0, 0.0, 0.0, 1.741811656726985E9, 0.0, 2025-03-12 15:34:16.726
194.0, -12757.861644966799, -29963.698084795247, -28718.25888374554, -25370.369895740736, -32497.33537403767, 5278.118583931754, 4809.357799215055, 35019.72973581907, -21251.21161356111, -27098.405611324983, -29920.64862497433, 6550.938671939215, -38669.814308859626, -17211.35732070891, 3641.210930491797, 12540.423874905573, -0.08813104905188084, 0.9518194157136606, -0.22148905432852917, 192.0, 0.0, 0.0, 0.0, 0.0, 0.0, 0.0, 0.0, 0.0, 0.0, 1.741811656727011E9, 0.0, 2025-03-12 15:34:16.727
196.0, -12746.752827972512, -29946.889572964858, -28718.34829072336, -25364.245517759984, -32497.29067054876, 5280.465517099562, 4816.219784762834, 35011.54899734843, -21237.889973865746, -27087.60971875307, -29913.227845815167, 6545.931881181226, -38661.65592213344, -17206.328178206466, 3604.1293864404424, 12532.556060857303, -0.08813104905188084, 0.9518194157136606, -0.22148905432852917, 192.0, 0.0, 0.0, 0.0, 0.0, 0.0, 0.0, 0.0, 0.0, 0.0, 1.741811656787077E9, 0.0, 2025-03-12 15:34:16.787
198.0, -12760.297985112427, -29965.575631329495, -28724.696186148667, -25373.16386379765, -32503.996193885352, 5273.38001410723, 4808.575488159119, 35042.79673609695, -21251.055151349923, -27091.007183910275, -29913.63017721536, 6559.924073210249, -38669.881364092995, -17203.578913638463, 3637.366430445484, 12554.39371519014, -0.08813104905188084, 0.9518194157136606, -0.22148905432852917, 192.0, 0.0, 0.0, 0.0, 0.0, 0.0, 0.0, 0.0, 0.0, 0.0, 1.741811656787113E9, 0.0, 2025-03-12 15:34:16.787
200.0, -12760.722668257078, -29965.709741796225, -28723.891523348277, -25372.135683552708, -32501.09046710616, 5269.893141972201, 4800.484156666298, 35036.53824764946, -21262.275727066484, -27094.6952217454, -29923.710813964706, 6528.050485616981, -38674.75404438425, -17209.412718941297, 3600.888383494423, 12536.355857414706, -0.09006552452594041, 0.9539097078568304, -0.22374452716426457, 192.0, 126.5, 16.0, 14.5, 112.0, 124.0, 120.0, 0.0, 0.0, 0.0, 1.741811656787163E9, 0.0, 2025-03-12 15:34:16.787
202.0, -12756.520540299482, -29949.21415438821, -28715.30845347744, -25363.01617181494, -32494.407295514025, 5278.766784520958, 4804.954505557359, 35043.78021285298, -21247.59063095935, -27090.984832165817, -29922.570874997484, 6543.964927669159, -38675.961038584835, -17208.228076485168, 3622.9495552718113, 12546.548252886327, -0.09006552452594041, 0.9539097078568304, -0.22374452716426457, 192.0, 0.0, 0.0, 0.0, 0.0, 0.0, 0.0, 0.0, 0.0, 0.0, 1.741811656787194E9, 0.0, 2025-03-12 15:34:16.787
204.0, -12755.760580988, -29950.06352067751, -28718.661215145734, -25365.11723579374, -32499.034106616273, 5278.52091533195, 4799.120700254524, 35013.69476481614, -21246.718912925593, -27081.26182332776, -29917.988767384148, 6536.946479910193, -38668.473204192305, -17201.433146170755, 3591.478299078739, 12531.237307934442, -0.09006552452594041, 0.9539097078568304, -0.22374452716426457, 192.0, 0.0, 0.0, 0.0, 0.0, 0.0, 0.0, 0.0, 0.0, 0.0, 1.74181165678722E9, 0.0, 2025-03-12 15:34:16.787
206.0, -12767.651709038224, -29961.574669071993, -28728.07129956142, -25366.011305571952, -32501.179874083984, 5276.956293220079, 4807.636714891996, 35025.67529984418, -21242.025046589977, -27086.380372808027, -29927.510610522106, 6546.267157348056, -38670.127233282, -17204.472983416676, 3618.7250755697582, 12549.00694477641, -0.09006552452594041, 0.9539097078568304, -0.22374452716426457, 192.0, 0.0, 0.0, 0.0, 0.0, 0.0, 0.0, 0.0, 0.0, 0.0, 1.741811656787247E9, 0.0, 2025-03-12 15:34:16.787
208.0, -12762.756677002511, -29964.860375506923, -28727.26663676103, -25369.721695151533, -32498.609423471622, 5277.403328109184, 4793.175136229413, 34995.03105819596, -21268.176587602688, -27090.336631576614, -29941.234581617664, 6520.830872157917, -38675.111672295534, -17203.17658223827, 3601.9389154838227, 12535.953526014511, -0.09006552452594041, 0.9539097078568304, -0.22374452716426457, 192.0, 0.0, 0.0, 0.0, 0.0, 0.0, 0.0, 0.0, 0.0, 0.0, 1.741811656787279E9, 0.0, 2025-03-12 15:34:16.787
210.0, -12759.359211845305, -29970.425959876295, -28725.45614546015, -25370.6381166742, -32495.815455414708, 5275.8610577417685, 4803.412235189943, 35006.83277926836, -21268.936546914167, -27095.432829312424, -29934.59611351444, 6534.376029297832, -38670.35075072655, -17204.093003760936, 3607.7503690422022, 12542.256717950908, -0.0930327622629702, 0.9569548539284152, -0.2228722635821323, 192.0, 126.5, 0.0, 15.0, 0.0, 124.5, 8.0, 0.0, 0.0, 0.0, 1.741811656848732E9, 0.0, 2025-03-12 15:34:16.848
212.0, -12749.122112884774, -29956.701988780736, -28715.666081388725, -25363.172634026127, -32489.780484411778, 5286.768709035959, 4794.493889152275, 34974.37804631925, -21242.002694845523, -27082.06648612815, -29922.8614476754, 6531.2467850740895, -38662.59469540056, -17196.82868681296, 3585.577438542538, 12524.62119157567, -0.0930327622629702, 0.9569548539284152, -0.2228722635821323, 192.0, 0.0, 0.0, 0.0, 0.0, 0.0, 0.0, 0.0, 0.0, 0.0, 1.741811656848772E9, 0.0, 2025-03-12 15:34:16.848
214.0, -12757.235796122051, -29964.03336096208, -28728.943017595175, -25370.97339284103, -32499.43643801647, 5275.503429830484, 4804.127491012513, 35020.44499164164, -21250.138729827253, -27091.9459571774, -29931.846848946436, 6543.473189291142, -38679.00087583076, -17205.747032850628, 3601.7377497837247, 12535.886470781144, -0.0930327622629702, 0.9569548539284152, -0.2228722635821323, 192.0, 0.0, 0.0, 0.0, 0.0, 0.0, 0.0, 0.0, 0.0, 0.0, 1.741811656848818E9, 0.0, 2025-03-12 15:34:16.848
216.0, -12755.090028654342, -29962.066407450013, -28726.126697793807, -25369.27466026243, -32501.8727781621, 5279.839668254813, 4790.962313528337, 35009.33617464735, -21258.67709620918, -27089.666079242957, -29932.316235579998, 6530.240956573601, -38677.771529885715, -17202.997768282625, 3600.5531073275934, 12529.829148033758, -0.0930327622629702, 0.9569548539284152, -0.2228722635821323, 192.0, 0.0, 0.0, 0.0, 0.0, 0.0, 0.0, 0.0, 0.0, 0.0, 1.741811656848849E9, 0.0, 2025-03-12 15:34:16.848
218.0, -12749.122112884774, -29966.916735996812, -28724.986758826588, -25362.345619481282, -32500.799894428244, 5280.554924077383, 4809.111930026046, 35029.87742780178, -21263.370962544795, -27091.87890194403, -29929.54461926754, 6540.321593322944, -38669.30021873715, -17198.929750791758, 3598.0944154375097, 12537.898127782122, -0.0930327622629702, 0.9569548539284152, -0.2228722635821323, 192.0, 0.0, 0.0, 0.0, 0.0, 0.0, 0.0, 0.0, 0.0, 0.0, 1.741811656848876E9, 0.0, 2025-03-12 15:34:16.848
