%OpenBCI Raw EXG Data
%Number of channels = 16
%Sample Rate = 125 Hz
%Board = OpenBCI_GUI$BoardCytonSerialDaisy
Sample Index, EXG Channel 0, EXG Channel 1, EXG Channel 2, EXG Channel 3, EXG Channel 4, EXG Channel 5, EXG Channel 6, EXG Channel 7, EXG Channel 8, EXG Channel 9, EXG Channel 10, EXG Channel 11, EXG Channel 12, EXG Channel 13, EXG Channel 14, EXG Channel 15, Accel Channel 0, Accel Channel 1, Accel Channel 2, Not Used, Digital Channel 0 (D11), Digital Channel 1 (D12), Digital Channel 2 (D13), Digital Channel 3 (D17), Not Used, Digital Channel 4 (D18), Analog Channel 0, Analog Channel 1, Analog Channel 2, Timestamp, Marker Channel, Timestamp (Formatted)
12.0, -12755.067676909886, -29944.63204677487, -28639.24546709603, -25296.452676827037, -32396.03726816622, 5354.628605202271, 4945.412867714509, 34723.88204620863, -21281.87820695379, -27007.501066625246, -29855.8956212873, 6698.907220233348, -38587.98457240875, -17074.89992080926, 3597.1332904259316, 12635.284678373895, -0.042, 0.47700000000000004, -0.11, 192.0, 126.5, 48.0, 14.5, 104.0, 124.5, 16.0, 0.0, 0.0, 0.0, 1.741811674998502E9, 0.0, 2025-03-12 15:34:34.998
14.0, -12755.291194354439, -29958.199555659245, -28642.665283997692, -25296.363269849215, -32399.5464920457, 5353.645128446237, 4940.003745556324, 34708.168769856544, -21292.092954169864, -27013.089002739074, -29865.439816169717, 6683.1045369034455, -38596.4111800684, -17081.583092401397, 3566.6008074999822, 12621.73952123398, -0.042, 0.47700000000000004, -0.11, 192.0, 0.0, 0.0, 0.0, 0.0, 0.0, 0.0, 0.0, 0.0, 0.0, 1.741811674998589E9, 0.0, 2025-03-12 15:34:34.998
16.0, -12752.743095486534, -29950.778776500083, -28637.8596589398, -25290.820037224297, -32397.8477594671, 5355.701488936125, 4952.9007021070365, 34720.68574675152, -21277.854892951837, -27009.043336992665, -29857.32613293244, 6702.818775513027, -38590.55502302111, -17076.978633043604, 3596.9768282147443, 12631.037846927387, -0.042, 0.47700000000000004, -0.11, 192.0, 0.0, 0.0, 0.0, 0.0, 0.0, 0.0, 0.0, 0.0, 0.0, 1.741811674998643E9, 0.0, 2025-03-12 15:34:34.998
18.0, -12745.210557605096, -29949.68354102177, -28632.182315848153, -25285.14269413265, -32399.613547279067, 5360.015375616, 4952.36426024011, 34710.18042685752, -21278.368983074306, -27006.405831146938, -29859.158975977778, 6681.763432236127, -38591.49379628823, -17079.124400511315, 3574.4015663148843, 12619.057311899342, -0.042, 0.47700000000000004, -0.11, 192.0, 0.0, 0.0, 0.0, 0.0, 0.0, 0.0, 0.0, 0.0, 0.0, 1.74181167499869E9, 0.0, 2025-03-12 15:34:34.998
20.0, -12756.09585715483, -29962.580497572482, -28640.67597874117, -25292.898749458644, -32416.466762598367, 5355.813247658401, 4955.918187608503, 34754.72745355695, -21281.609986020325, -27007.25519743624, -29853.839260797413, 6703.80225226906, -38590.57737476556, -17075.995156287572, 3611.7513312997025, 12643.040733699887, -0.042, 0.47700000000000004, -0.11, 192.0, 0.0, 0.0, 0.0, 0.0, 0.0, 0.0, 0.0, 0.0, 0.0, 1.741811674998743E9, 0.0, 2025-03-12 15:34:34.998
22.0, -12735.219327833573, -29925.40954654331, -28620.738222687036, -25267.99890613543, -32400.41821007946, 5382.63534100477, 4945.435219458964, 34715.92482518254, -21285.11920989981, -26994.53705484117, -29851.872307285346, 6692.671083530317, -38585.59293575203, -17066.138036982782, 3589.8466217335013, 12625.584021280292, -0.064, 0.7165, -0.165, 192.0, 126.5, 40.0, 14.5, 112.0, 124.5, 16.0, 0.0, 0.0, 0.0, 1.741811674998789E9, 0.0, 2025-03-12 15:34:34.998
24.0, -12741.053133136409, -29947.247200876143, -28626.683786712147, -25272.938641660054, -32412.51050382978, 5376.130983368276, 4958.801562643238, 34753.11812795617, -21264.48854976756, -26985.149322169942, -29835.421423366242, 6721.303668177566, -38577.88158391495, -17046.110873950824, 3608.8679562649677, 12649.656850058658, -0.064, 0.7165, -0.165, 192.0, 0.0, 0.0, 0.0, 0.0, 0.0, 0.0, 0.0, 0.0, 0.0, 1.741811674998838E9, 0.0, 2025-03-12 15:34:34.998
26.0, -12750.507921041004, -29944.229715374677, -28627.756670446, -25288.271938356393, -32411.191750906917, 5360.015375616, 4940.78605661226, 34730.25229337839, -21280.291233097465, -27001.19787468885, -29855.985028265124, 6690.301798618055, -38591.516148032686, -17069.826074817905, 3592.3053136235853, 12633.273021372917, -0.064, 0.7165, -0.165, 192.0, 0.0, 0.0, 0.0, 0.0, 0.0, 0.0, 0.0, 0.0, 0.0, 1.741811674998883E9, 0.0, 2025-03-12 15:34:34.998
28.0, -12753.681868753656, -29957.84192774796, -28626.48262101205, -25292.63052852518, -32400.865244968565, 5354.606253457815, 4963.853056890137, 34746.859639508686, -21280.805323219935, -27007.791639303166, -29853.749853819594, 6698.661351044339, -38585.72704621876, -17075.682231865198, 3591.791223501113, 12628.601506781759, -0.064, 0.7165, -0.165, 192.0, 0.0, 0.0, 0.0, 0.0, 0.0, 0.0, 0.0, 0.0, 0.0, 1.741811674998928E9, 0.0, 2025-03-12 15:34:34.998
0.0, -6409.183908603658, -14994.734823076109, -14285.648081975947, -12619.481995043994, -16168.022593024087, 2698.839032511596, 2499.1485475478826, 17282.793495988073, -10645.711200918104, -13503.091156851193, -14930.026522877995, 3338.61301405585, -19291.656528908796, -8541.607384873318, 1783.6468557890482, 6308.4892998324995, -0.09, 0.9540000000000001, -0.224, 192.0, 126.5, 24.0, 14.5, 104.0, 124.5, 0.0, 0.0, 0.0, 0.0, 1.741811675162906E9, 0.0, 2025-03-12 15:34:35.162
2.0, -12814.076282271897, -29979.45606463624, -28571.497329651993, -25234.784213874846, -32333.11710752453, 5397.633361534281, 5005.382598088097, 34571.711369956894, -21358.567042179948, -26995.34171764156, -29829.43115585222, 6755.971223827747, -38532.90987407087, -17007.688225232152, 3686.2943990581516, 12571.67161365409, -0.09, 0.9540000000000001, -0.224, 192.0, 0.0, 0.0, 0.0, 0.0, 0.0, 0.0, 0.0, 0.0, 0.0, 1.741811675163024E9, 0.0, 2025-03-12 15:34:35.163
4.0, -12812.310494459927, -29975.87978552339, -28565.50706213797, -25234.62775166366, -32324.198761486863, 5402.7072075256365, 5007.438958577986, 34575.98055314786, -21351.548594420983, -26989.642022805456, -29824.37966160532, 6770.991596101713, -38525.936129800815, -16999.283969316955, 3718.1903383958747, 12581.215808536508, -0.09, 0.9540000000000001, -0.224, 192.0, 0.0, 0.0, 0.0, 0.0, 0.0, 0.0, 0.0, 0.0, 0.0, 1.741811675163092E9, 0.0, 2025-03-12 15:34:35.163
6.0, -12814.389206694272, -29981.624183848406, -28573.106655252774, -25240.99799883342, -32327.14919175496, 5394.682931266181, 5010.679961524005, 34575.13118685856, -21346.832376340913, -26988.747953027243, -29819.2387603806, 6758.854598862481, -38524.885597811415, -17004.156649608212, 3680.952332133333, 12568.63177640817, -0.09, 0.9540000000000001, -0.224, 192.0, 0.0, 0.0, 0.0, 0.0, 0.0, 0.0, 0.0, 0.0, 0.0, 1.741811675163129E9, 0.0, 2025-03-12 15:34:35.163
8.0, -12828.49315744557, -30001.584291646996, -28584.260175735973, -25258.208842064007, -32335.933427325897, 5381.204829359631, 5002.0298364198015, 34602.10974241611, -21372.916862120255, -27014.407755661938, -29843.37864439233, 6759.189875029311, -38540.86709509696, -17029.771748753996, 3721.453693086349, 12574.510285199916, -0.09, 0.9560000000000001, -0.224, 192.0, 126.5, 24.0, 14.5, 112.0, 124.5, 0.0, 0.0, 0.0, 0.0, 1.741811675163164E9, 0.0, 2025-03-12 15:34:35.163
10.0, -12805.850840312343, -29979.2772506806, -28566.378780171726, -25242.160289545096, -32321.225979474308, 5395.465242322117, 5007.885993467092, 34576.762864203796, -21357.36004797936, -26997.465133364814, -29831.86749599785, 6755.166561027356, -38524.52796990013, -17010.526896777978, 3688.2837043146737, 12556.070096024287, -0.09, 0.9560000000000001, -0.224, 192.0, 0.0, 0.0, 0.0, 0.0, 0.0, 0.0, 0.0, 0.0, 0.0, 1.741811675163195E9, 0.0, 2025-03-12 15:34:35.163
12.0, -12816.06558752842, -29990.69899209726, -28570.580908129326, -25246.8094523918, -32329.116145267028, 5388.357387585329, 5010.188223145989, 34598.04172492525, -21356.890661345802, -27000.43791537737, -29831.71103378666, 6774.746689170205, -38533.2451502377, -17018.439414315155, 3723.8676814875225, 12575.314948000307, -0.09, 0.9560000000000001, -0.224, 192.0, 0.0, 0.0, 0.0, 0.0, 0.0, 0.0, 0.0, 0.0, 0.0, 1.741811675163231E9, 0.0, 2025-03-12 15:34:35.163
14.0, -12808.443642669159, -29976.84091053497, -28560.92495452463, -25235.834745864242, -32319.30372945115, 5398.147451656753, 5009.405912090053, 34564.447053008924, -21353.537899677503, -26988.01034546022, -29826.190152906198, 6765.895398365903, -38523.075106510536, -17003.12846936327, 3686.942599647355, 12559.176988503576, -0.09, 0.9560000000000001, -0.224, 192.0, 0.0, 0.0, 0.0, 0.0, 0.0, 0.0, 0.0, 0.0, 0.0, 1.741811675163263E9, 0.0, 2025-03-12 15:34:35.163
16.0, -12812.109328759829, -29983.9264135273, -28563.763626070457, -25241.13210930015, -32320.06368876263, 5393.54299229896, 5019.37479011712, 34582.194338106434, -21351.258021743062, -26989.686726294367, -29824.781993005516, 6785.2967125531095, -38520.63876636491, -17002.659082729708, 3705.539251034171, 12583.249817281941, -0.09, 0.9560000000000001, -0.224, 192.0, 0.0, 0.0, 0.0, 0.0, 0.0, 0.0, 0.0, 0.0, 0.0, 1.741811675223075E9, 0.0, 2025-03-12 15:34:35.223
18.0, -12818.323113718405, -29989.179073474297, -28566.244669704996, -25244.08253956825, -32326.6798051214, 5390.7937277309575, 5001.538098041785, 34561.876602396565, -21358.85761485787, -26990.15611292793, -29832.403937864776, 6764.174314042844, -38529.95944380277, -17008.716405477095, 3694.028102639688, 12571.96218633201, -0.09, 0.9480000000000001, -0.228, 192.0, 126.5, 24.0, 14.5, 80.0, 124.0, 112.0, 0.0, 0.0, 0.0, 1.741811675223111E9, 0.0, 2025-03-12 15:34:35.223
20.0, -12824.022808554508, -29992.576538631507, -28571.69849535209, -25242.696731412023, -32324.981072542796, 5393.87826846579, 5012.199880146966, 34585.703561985916, -21358.008248568567, -26996.504008353237, -29834.393243121296, 6775.730165926238, -38532.82046709305, -17009.27519908848, 3710.8589662145337, 12578.131267801675, -0.09, 0.9480000000000001, -0.228, 192.0, 0.0, 0.0, 0.0, 0.0, 0.0, 0.0, 0.0, 0.0, 0.0, 1.741811675223143E9, 0.0, 2025-03-12 15:34:35.223
22.0, -12831.7788638805, -30005.294681226576, -28581.33209721233, -25252.643257694635, -32335.173468014418, 5385.094032894854, 4988.574086257707, 34571.75607344581, -21393.011080385575, -27003.67891832339, -29853.079301485934, 6748.706906879772, -38544.21985676526, -17018.640580015253, 3705.7404167342684, 12566.754229873924, -0.09, 0.9480000000000001, -0.228, 192.0, 0.0, 0.0, 0.0, 0.0, 0.0, 0.0, 0.0, 0.0, 0.0, 1.741811675223184E9, 0.0, 2025-03-12 15:34:35.223
24.0, -12820.535936419481, -29991.79422757557, -28571.072646507342, -25240.61801917768, -32323.975244042307, 5394.481765566083, 5001.605153275151, 34582.79783520673, -21369.51939696305, -27000.527322355192, -29844.496231615096, 6768.108221066978, -38534.83212409403, -17009.52106827749, 3695.436262540372, 12561.523921671382, -0.09, 0.9480000000000001, -0.228, 192.0, 0.0, 0.0, 0.0, 0.0, 0.0, 0.0, 0.0, 0.0, 0.0, 1.741811675223223E9, 0.0, 2025-03-12 15:34:35.223
26.0, -12815.14916600575, -29979.16549195832, -28562.93661152561, -25234.515992941382, -32319.259025962238, 5403.310704625929, 4993.469118293419, 34558.27797153926, -21355.527204934027, -26987.518607082202, -29828.738251774106, 6769.516380967663, -38524.751487344685, -16999.149858850225, 3696.1962218518524, 12567.000099062932, -0.09, 0.9480000000000001, -0.228, 192.0, 0.0, 0.0, 0.0, 0.0, 0.0, 0.0, 0.0, 0.0, 0.0, 1.741811675223259E9, 0.0, 2025-03-12 15:34:35.223
28.0, -12828.761378379033, -30000.1314282574, -28579.722771611545, -25247.81528089229, -32333.899418580466, 5383.149431127243, 5002.163946886533, 34600.9698034489, -21362.74681839309, -26998.783886287678, -29837.05310071148, 6772.57856995804, -38532.48519092622, -17006.861210687304, 3705.561602778626, 12582.422802737094, -0.09, 0.9500000000000001, -0.228, 192.0, 126.5, 24.0, 14.5, 88.0, 124.0, 112.0, 0.0, 0.0, 0.0, 1.741811675223293E9, 0.0, 2025-03-12 15:34:35.223
30.0, -12820.692398630668, -29983.345268171463, -28566.64700110519, -25240.886240111144, -32325.048127776165, 5391.2631143645185, 4988.261161835332, 34562.770672174775, -21365.943117850198, -26997.040450220164, -29841.70226355818, 6756.552369183585, -38529.490057169205, -17007.21883859859, 3706.768596979213, 12565.569587417793, -0.09, 0.9500000000000001, -0.228, 192.0, 0.0, 0.0, 0.0, 0.0, 0.0, 0.0, 0.0, 0.0, 0.0, 1.741811675283369E9, 0.0, 2025-03-12 15:34:35.283
32.0, -12819.753625363544, -29993.202387476253, -28576.235899476516, -25242.98730408994, -32331.798354601666, 5385.094032894854, 5003.281534109299, 34585.6141550081, -21362.925632348735, -26994.514703096713, -29840.47291761314, 6765.560122199074, -38531.30054847009, -17009.14108862175, 3692.686997972369, 12567.022450807388, -0.09, 0.9500000000000001, -0.228, 192.0, 0.0, 0.0, 0.0, 0.0, 0.0, 0.0, 0.0, 0.0, 0.0, 1.741811675283406E9, 0.0, 2025-03-12 15:34:35.283
34.0, -12814.456261927637, -29986.20629146174, -28565.32824818233, -25239.70159765501, -32327.752688855257, 5391.330169597884, 4984.818993189215, 34560.960180873895, -21364.534957949516, -26995.833456019576, -29841.925781002737, 6754.563063927062, -38530.22766473623, -17010.057510144416, 3713.563527293626, 12572.72214564349, -0.09, 0.9500000000000001, -0.228, 192.0, 0.0, 0.0, 0.0, 0.0, 0.0, 0.0, 0.0, 0.0, 0.0, 1.741811675283448E9, 0.0, 2025-03-12 15:34:35.283
36.0, -12811.86345957082, -29982.92058502681, -28567.853995305777, -25233.7560336299, -32327.328005710606, 5390.883134708779, 5004.197955631967, 34574.50533801381, -21338.49517565908, -26986.53513032617, -29831.107536686366, 6770.835133890526, -38520.63876636491, -17001.809716440406, 3692.77640495019, 12572.275110754385, -0.09, 0.9500000000000001, -0.228, 192.0, 0.0, 0.0, 0.0, 0.0, 0.0, 0.0, 0.0, 0.0, 0.0, 1.741811675283479E9, 0.0, 2025-03-12 15:34:35.283
38.0, -12823.531070176492, -29993.627070620903, -28573.88896630871, -25240.081577310753, -32337.02866280421, 5391.531335297983, 4990.406929303042, 34571.08552111215, -21363.104446304376, -26996.43695311987, -29837.36602513385, 6756.619424416951, -38534.51919967165, -17009.968103166593, 3730.6179083130255, 12588.994215606954, -0.09, 0.9560000000000001, -0.23600000000000002, 192.0, 126.5, 24.0, 14.5, 112.0, 124.0, 80.0, 0.0, 0.0, 0.0, 1.741811675283509E9, 0.0, 2025-03-12 15:34:35.283
40.0, -12819.39599745226, -29992.1295037424, -28577.37583844374, -25240.595667433223, -32335.553447670158, 5384.557591027927, 5000.286400352287, 34585.97178291938, -21374.03444934302, -26997.53218859818, -29844.76445254856, 6745.510607422663, -38536.1955805058, -17006.972969409584, 3694.9668759068104, 12573.705622399524, -0.09, 0.9560000000000001, -0.23600000000000002, 192.0, 0.0, 0.0, 0.0, 0.0, 0.0, 0.0, 0.0, 0.0, 0.0, 1.741811675283543E9, 0.0, 2025-03-12 15:34:35.283
42.0, -12827.777901623, -29993.090628753976, -28573.68780060861, -25246.965914602988, -32333.11710752453, 5385.384605572773, 4994.8102229607375, 34581.993172406335, -21361.7409898926, -26997.733354298278, -29837.52248734504, 6757.558197684074, -38534.4968479272, -17007.2635420875, 3718.458559329338, 12577.840695123756, -0.09, 0.9560000000000001, -0.23600000000000002, 192.0, 0.0, 0.0, 0.0, 0.0, 0.0, 0.0, 0.0, 0.0, 0.0, 1.741811675283574E9, 0.0, 2025-03-12 15:34:35.283
44.0, -12815.372683450305, -29983.635840849383, -28570.84912906279, -25241.780309889356, -32329.741994111777, 5384.8034602169355, 4995.391368316576, 34583.535442773755, -21365.093751560897, -26997.308671153627, -29834.683815799217, 6755.47948544973, -38533.22279849325, -17008.403481054724, 3687.4790415142825, 12567.424782207583, -0.09, 0.9560000000000001, -0.23600000000000002, 192.0, 0.0, 0.0, 0.0, 0.0, 0.0, 0.0, 0.0, 0.0, 0.0, 1.741811675283612E9, 0.0, 2025-03-12 15:34:35.283
46.0, -12825.54272717747, -29994.945823543767, -28578.783998344425, -25253.112644328197, -32336.134593025996, 5378.679082236181, 4979.141650097567, 34585.480044541364, -21361.584527681414, -27003.947139256852, -29832.80626926497, 6757.915825595359, -38535.61443514996, -17017.5676962814, 3725.6111175550363, 12576.499590456438, -0.09, 0.9560000000000001, -0.23600000000000002, 192.0, 0.0, 0.0, 0.0, 0.0, 0.0, 0.0, 0.0, 0.0, 0.0, 1.741811675342845E9, 0.0, 2025-03-12 15:34:35.342
48.0, -12819.127776518795, -29993.336497942986, -28577.867576821754, -25243.83667037924, -32327.998558044263, 5385.116384639309, 4989.445804291464, 34577.03108513726, -21363.75264689358, -27004.72945031279, -29834.169725676744, 6747.768133612649, -38537.80490610658, -17016.785385225463, 3679.6782826993804, 12553.47729366747, -0.092, 0.9500000000000001, -0.23600000000000002, 192.0, 126.5, 16.0, 14.5, 88.0, 124.0, 80.0, 0.0, 0.0, 0.0, 1.741811675342894E9, 0.0, 2025-03-12 15:34:35.342
50.0, -12822.905221331743, -29985.446332150263, -28576.280602965428, -25248.530536714858, -32332.06657553513, 5381.853029948835, 4985.064862378224, 34586.195300363936, -21359.058780557967, -27001.68961306687, -29833.85680125437, 6762.2297122752325, -38534.742717116205, -17016.763033481006, 3719.7102570188354, 12569.279976997374, -0.092, 0.9500000000000001, -0.23600000000000002, 192.0, 0.0, 0.0, 0.0, 0.0, 0.0, 0.0, 0.0, 0.0, 0.0, 1.74181167534293E9, 0.0, 2025-03-12 15:34:35.342
52.0, -12810.879982814788, -29981.713590826228, -28569.060989506364, -25239.656894166103, -32325.696328365368, 5388.424442818695, 4987.210629845933, 34567.64335246603, -21351.66035314326, -26990.58079607258, -29822.122135415335, 6756.351203483487, -38525.42203967834, -17004.000187397025, 3678.1583640764197, 12549.990421532444, -0.092, 0.9500000000000001, -0.23600000000000002, 192.0, 0.0, 0.0, 0.0, 0.0, 0.0, 0.0, 0.0, 0.0, 0.0, 1.741811675342966E9, 0.0, 2025-03-12 15:34:35.342
54.0, -12820.15595676374, -29985.55809087254, -28572.50315815248, -25248.016446592384, -32331.038395290187, 5384.714053239114, 4986.785946701282, 34580.69677122793, -21346.586507151904, -27002.136647955973, -29827.978292462623, 6767.705889666783, -38534.42979269383, -17021.389844583256, 3719.2855738741846, 12569.794067119845, -0.092, 0.9500000000000001, -0.23600000000000002, 192.0, 0.0, 0.0, 0.0, 0.0, 0.0, 0.0, 0.0, 0.0, 0.0, 1.741811675342997E9, 0.0, 2025-03-12 15:34:35.342
56.0, -12813.092805515864, -29984.619317605415, -28569.575079628838, -25236.95233308701, -32328.06561327763, 5389.8549544638345, 4992.485641537385, 34561.92130588547, -21364.84788237189, -26993.330060640583, -29824.938455216703, 6758.1169912954565, -38530.965272303256, -17011.93505667866, 3679.343006532551, 12555.891282068646, -0.091, 0.9510000000000001, -0.238, 192.0, 126.5, 24.0, 14.5, 96.0, 124.0, 64.0, 0.0, 0.0, 0.0, 1.741811675343032E9, 0.0, 2025-03-12 15:34:35.343
58.0, -12810.678817114689, -29975.142177956364, -28561.707265580568, -25231.431452206547, -32323.282339964193, 5395.979332444588, 4999.437034062986, 34568.17979433296, -21346.720617618637, -26986.378668114983, -29815.930702201214, 6779.395852016909, -38526.271405967644, -17005.073071130882, 3708.4896813022715, 12576.365479989707, -0.091, 0.9510000000000001, -0.238, 192.0, 0.0, 0.0, 0.0, 0.0, 0.0, 0.0, 0.0, 0.0, 0.0, 1.741811675343064E9, 0.0, 2025-03-12 15:34:35.343
60.0, -12822.659352142735, -29976.617393090415, -28568.7927685729, -25236.102966797705, -32328.467944677825, 5393.252419621042, 4991.256295592344, 34555.19343080443, -21345.89360307379, -26988.81500826061, -29818.456449324665, 6761.335642497021, -38529.75827810267, -17007.487059532054, 3684.8191839241013, 12565.256662995418, -0.091, 0.9510000000000001, -0.238, 192.0, 0.0, 0.0, 0.0, 0.0, 0.0, 0.0, 0.0, 0.0, 0.0, 1.741811675402548E9, 0.0, 2025-03-12 15:34:35.402
62.0, -12825.96741032212, -29986.943899028767, -28574.715980853558, -25244.708388413, -32340.604941917056, 5382.344768326851, 4984.4837170223855, 34582.93194567346, -21357.98589682411, -26995.744049041758, -29827.106574428868, 6769.538732712118, -38540.21889450776, -17010.16926886669, 3706.20980336783, 12572.968014832499, -0.091, 0.9510000000000001, -0.238, 192.0, 0.0, 0.0, 0.0, 0.0, 0.0, 0.0, 0.0, 0.0, 0.0, 1.741811675402646E9, 0.0, 2025-03-12 15:34:35.402
64.0, -12820.759453864033, -29981.534776870583, -28568.56925112835, -25237.801699376312, -32333.407680202446, 5386.681006751181, 4978.716966952917, 34555.998093604816, -21361.025734070034, -26990.044354205653, -29824.558475560963, 6755.323023238543, -38537.55903691758, -17012.382091567768, 3672.570427962593, 12556.7630001024, -0.091, 0.9510000000000001, -0.238, 192.0, 0.0, 0.0, 0.0, 0.0, 0.0, 0.0, 0.0, 0.0, 0.0, 1.741811675402677E9, 0.0, 2025-03-12 15:34:35.402
66.0, -12820.513584675025, -29976.59504134596, -28565.440006904606, -25234.337178985737, -32331.373671457015, 5386.122213139798, 4988.417624046519, 34577.16519560399, -21360.623402669837, -26993.91120599642, -29825.206676150166, 6773.562046714073, -38538.788382862615, -17014.304341590923, 3687.6802072143805, 12578.712413157513, -0.0905, 0.9515, -0.238, 192.0, 126.5, 24.0, 14.5, 96.0, 124.0, 72.0, 0.0, 0.0, 0.0, 1.741811675402717E9, 0.0, 2025-03-12 15:34:35.402
68.0, -12808.309532202427, -29968.660172064327, -28552.096015464787, -25224.301245725306, -32323.170581241917, 5388.670312007704, 4978.0240628748015, 34541.6035701756, -21343.524318161526, -26983.33883086906, -29815.595426034382, 6766.72241291075, -38526.80784783457, -17006.36947230929, 3667.675395926881, 12571.090468298253, -0.0905, 0.9515, -0.238, 192.0, 0.0, 0.0, 0.0, 0.0, 0.0, 0.0, 0.0, 0.0, 0.0, 1.741811675402756E9, 0.0, 2025-03-12 15:34:35.402
70.0, -12824.894526588265, -29983.45702689374, -28570.290335451406, -25240.170984288572, -32339.77792737221, 5373.314663566907, 4986.316560067721, 34576.22642233687, -21346.228879240618, -26995.16290368592, -29820.9374929592, 6775.529000226141, -38534.78742060511, -17011.21980085609, 3687.568448492104, 12586.736689416968, -0.0905, 0.9515, -0.238, 192.0, 0.0, 0.0, 0.0, 0.0, 0.0, 0.0, 0.0, 0.0, 0.0, 1.741811675402791E9, 0.0, 2025-03-12 15:34:35.402
72.0, -12820.15595676374, -29977.73498031318, -28566.22231796054, -25232.437280707036, -32334.882895336497, 5385.853992206335, 4977.331158796687, 34548.64436967902, -21362.52330094854, -26997.308671153627, -29827.08422268441, 6753.177255770834, -38540.44241195231, -17018.08178640387, 3685.020349624199, 12566.709526385013, -0.0905, 0.9515, -0.238, 192.0, 0.0, 0.0, 0.0, 0.0, 0.0, 0.0, 0.0, 0.0, 0.0, 1.741811675402825E9, 0.0, 2025-03-12 15:34:35.402
74.0, -12814.143337505262, -29972.281154666085, -28562.8919080367, -25225.888219581633, -32336.760441870745, 5390.234934119575, 4994.5196502828185, 34581.65789623951, -21351.995629310088, -26981.081304679075, -29818.992891191592, 6780.938122384325, -38533.22279849325, -17000.46861177309, 3690.5859339935705, 12578.757116646424, -0.0905, 0.9515, -0.238, 192.0, 0.0, 0.0, 0.0, 0.0, 0.0, 0.0, 0.0, 0.0, 0.0, 1.741811675402859E9, 0.0, 2025-03-12 15:34:35.402
76.0, -12809.695340358656, -29959.563012071016, -28550.531393352914, -25220.121469512163, -32333.519438924726, 5398.192155145664, 4971.922036638503, 34559.57437271767, -21347.659390885758, -26971.447702818838, -29814.276673111523, 6773.33852926952, -38532.44048743731, -16999.306321061413, 3699.8395561980674, 12575.314948000307, -0.09125, 0.9537500000000001, -0.235, 192.0, 126.5, 16.0, 14.5, 112.0, 124.0, 96.0, 0.0, 0.0, 0.0, 1.74181167546427E9, 0.0, 2025-03-12 15:34:35.464
78.0, -12812.824584582399, -29966.916735996812, -28559.919126024142, -25223.76480385838, -32341.96839832883, 5389.251457363541, 4979.879257664592, 34589.57041377669, -21340.149204748777, -26967.96083068381, -29809.873379453824, 6786.034320120135, -38528.43952517981, -16992.153762835715, 3693.9610474063215, 12577.259549767918, -0.09125, 0.9537500000000001, -0.235, 192.0, 0.0, 0.0, 0.0, 0.0, 0.0, 0.0, 0.0, 0.0, 0.0, 1.74181167546433E9, 0.0, 2025-03-12 15:34:35.464
80.0, -12821.407654453238, -29962.893421994857, -28560.70143708008, -25230.649141150614, -32340.202610516862, 5384.0435009054545, 4962.690766178461, 34557.048625594216, -21347.882908330314, -26976.074513921085, -29816.333033601408, 6775.193724059311, -38535.59208340551, -16998.568713494387, 3708.2214603688076, 12572.72214564349, -0.09125, 0.9537500000000001, -0.235, 192.0, 0.0, 0.0, 0.0, 0.0, 0.0, 0.0, 0.0, 0.0, 0.0, 1.741811675464362E9, 0.0, 2025-03-12 15:34:35.464
82.0, -12821.25119224205, -29983.054695493545, -28565.28354469342, -25237.198202276017, -32334.34645346957, 5375.2369135900635, 4983.768461199816, 34562.99418961933, -21351.74976012108, -26986.266909392707, -29821.80921099296, 6769.963415856769, -38535.033289794126, -17006.23536184256, 3684.238038568263, 12556.047744279831, -0.09125, 0.9537500000000001, -0.235, 192.0, 0.0, 0.0, 0.0, 0.0, 0.0, 0.0, 0.0, 0.0, 0.0, 1.741811675464393E9, 0.0, 2025-03-12 15:34:35.464
84.0, -12832.53882319198, -29995.437561921786, -28570.80442557388, -25247.010618091896, -32337.20747675985, 5371.861800177312, 4966.736431924872, 34553.98643660384, -21369.832321385424, -26997.35337464254, -29831.62162680884, 6760.151000040889, -38540.93415033032, -17017.232420114568, 3702.6782277438915, 12555.62306113518, -0.09125, 0.9537500000000001, -0.235, 192.0, 0.0, 0.0, 0.0, 0.0, 0.0, 0.0, 0.0, 0.0, 0.0, 1.741811675464424E9, 0.0, 2025-03-12 15:34:35.464
86.0, -12826.302686488949, -29976.259765179133, -28568.524547639438, -25239.478080210458, -32328.892627822475, 5379.72961422558, 4983.589647244174, 34555.46165173789, -21364.55730969397, -26995.699345552846, -29835.354368132877, 6757.893473850903, -38539.23541775172, -17018.46176605961, 3670.402308750428, 12540.178005716563, -0.090625, 0.953875, -0.23349999999999999, 192.0, 126.5, 24.0, 14.5, 104.0, 124.0, 96.0, 0.0, 0.0, 0.0, 1.741811675464455E9, 0.0, 2025-03-12 15:34:35.464
88.0, -12836.383323238293, -29991.99539327567, -28575.36418144276, -25248.396426248128, -32336.49222093728, 5372.152372855231, 4969.351586026142, 34550.477212724356, -21366.434856228218, -26999.76736304371, -29839.62355132384, 6755.904168594381, -38545.91858934386, -17018.93115269317, 3696.8667741855115, 12550.616270377192, -0.090625, 0.953875, -0.23349999999999999, 192.0, 0.0, 0.0, 0.0, 0.0, 0.0, 0.0, 0.0, 0.0, 0.0, 1.741811675464492E9, 0.0, 2025-03-12 15:34:35.464
90.0, -12832.739988892077, -29988.21794846272, -28576.61587913226, -25246.27301052487, -32335.084061036596, 5370.945378654645, 4984.08138562219, 34563.17300357497, -21374.772056910046, -27000.594377588557, -29842.484574614118, 6750.115066780457, -38547.50556320019, -17018.148841637238, 3668.1894860493526, 12539.216880704986, -0.090625, 0.953875, -0.23349999999999999, 192.0, 0.0, 0.0, 0.0, 0.0, 0.0, 0.0, 0.0, 0.0, 0.0, 1.741811675524605E9, 0.0, 2025-03-12 15:34:35.524
92.0, -12842.172425052218, -30000.9807945467, -28575.408884931672, -25250.51984197138, -32339.26383724974, 5370.0736606208875, 4973.441955261464, 34562.703616941406, -21374.727353421134, -27008.618653848014, -29844.20565893718, 6746.516435923152, -38553.272313269656, -17025.167289396202, 3705.82982371209, 12549.901014554622, -0.090625, 0.953875, -0.23349999999999999, 192.0, 0.0, 0.0, 0.0, 0.0, 0.0, 0.0, 0.0, 0.0, 0.0, 1.741811675524649E9, 0.0, 2025-03-12 15:34:35.524
94.0, -12828.962544079131, -29982.674715837806, -28564.61299235976, -25235.298303997315, -32329.473773178313, 5382.881210193778, 4985.802469945249, 34558.233268050346, -21371.933385364224, -27004.170656701408, -29837.075452455934, 6742.00138354318, -38546.52208644415, -17020.160498638215, 3667.675395926881, 12548.112874998198, -0.090625, 0.953875, -0.23349999999999999, 192.0, 0.0, 0.0, 0.0, 0.0, 0.0, 0.0, 0.0, 0.0, 0.0, 1.741811675524685E9, 0.0, 2025-03-12 15:34:35.524
96.0, -12833.54465169247, -29980.998335003656, -28566.915222038657, -25240.55096394431, -32338.883857594, 5382.948265427144, 4982.136783854578, 34566.190489076434, -21364.400847482782, -27003.16482820092, -29827.978292462623, 6764.509590209675, -38545.158630032376, -17019.735815493565, 3704.3099050891287, 12570.688136898058, -0.0863125, 0.9549375, -0.23075, 192.0, 126.5, 56.0, 14.5, 112.0, 124.0, 112.0, 0.0, 0.0, 0.0, 1.74181167552472E9, 0.0, 2025-03-12 15:34:35.524
98.0, -12828.627267912301, -29981.199500703755, -28568.12221623924, -25230.626789406157, -32333.988825558285, 5388.245628863052, 4986.785946701282, 34564.60351522011, -21371.97808885313, -27000.080287466084, -29830.504039586074, 6752.439648203808, -38548.04200506712, -17011.80094621193, 3666.5354569596598, 12558.506436169915, -0.0863125, 0.9549375, -0.23075, 192.0, 0.0, 0.0, 0.0, 0.0, 0.0, 0.0, 0.0, 0.0, 0.0, 1.741811675524753E9, 0.0, 2025-03-12 15:34:35.524
100.0, -12831.331828991393, -29980.305430925542, -28563.137777225707, -25228.302207982804, -32330.345491212072, 5394.012378932522, 4988.931714168992, 34572.58308799066, -21357.22593751263, -26990.33492688357, -29822.502115071075, 6770.8574856349815, -38540.196542763304, -17006.771803709486, 3699.63839049797, 12576.030203822877, -0.0863125, 0.9549375, -0.23075, 192.0, 0.0, 0.0, 0.0, 0.0, 0.0, 0.0, 0.0, 0.0, 0.0, 1.741811675524787E9, 0.0, 2025-03-12 15:34:35.524
102.0, -12832.851747614355, -29986.094532739466, -28566.579945871825, -25228.346911471715, -32333.407680202446, 5390.570210286404, 4989.334045569187, 34577.50047177082, -21358.432931713218, -26997.57689208709, -29825.72076627264, 6756.038279061113, -38547.7961358781, -17011.51037353401, 3666.244884281741, 12562.932081572066, -0.0863125, 0.9549375, -0.23075, 192.0, 0.0, 0.0, 0.0, 0.0, 0.0, 0.0, 0.0, 0.0, 0.0, 1.741811675524818E9, 0.0, 2025-03-12 15:34:35.524
104.0, -12844.005268097553, -29983.99346876067, -28573.50898665297, -25240.14863254412, -32349.992674588288, 5379.059061891921, 4983.164964099523, 34605.26133838431, -21367.08305681742, -27002.650738078446, -29829.498211085585, 6768.018814089158, -38550.321883001554, -17010.57160026689, 3708.8473092135564, 12581.484029469972, -0.0863125, 0.9549375, -0.23075, 192.0, 0.0, 0.0, 0.0, 0.0, 0.0, 0.0, 0.0, 0.0, 0.0, 1.741811675524848E9, 0.0, 2025-03-12 15:34:35.524
106.0, -12835.131625548796, -29995.70578285525, -28564.948268526587, -25233.823088863264, -32343.108337296053, 5381.853029948835, 4970.893856393559, 34588.11755038709, -21378.147170322798, -27004.81885729061, -29832.00160646458, 6748.885720835415, -38558.793194150116, -17020.294609104945, 3677.7113291873134, 12566.329546729274, -0.08515625, 0.95446875, -0.230375, 192.0, 126.5, 48.0, 14.5, 104.0, 124.0, 104.0, 0.0, 0.0, 0.0, 1.741811675583463E9, 0.0, 2025-03-12 15:34:35.583
108.0, -12843.982916353098, -29991.526006642107, -28568.54689938389, -25237.645237165125, -32346.72931989781, 5376.153335112731, 4969.12806858159, 34603.60730929462, -21367.954774851176, -27003.075421223097, -29822.703280771173, 6764.375479742942, -38553.85345862549, -17012.583257267863, 3705.8745272010005, 12589.44125049606, -0.08515625, 0.95446875, -0.230375, 192.0, 0.0, 0.0, 0.0, 0.0, 0.0, 0.0, 0.0, 0.0, 0.0, 1.741811675583504E9, 0.0, 2025-03-12 15:34:35.583
110.0, -12826.68266614469, -29979.254898936142, -28553.16889919864, -25224.65887363659, -32336.894552337475, 5382.076547393388, 4958.131010309578, 34563.821204164175, -21373.363897009363, -27006.294072424662, -29825.29608312799, 6749.600976657985, -38552.221781280256, -17017.478289303577, 3678.828916410079, 12574.175009033086, -0.08515625, 0.95446875, -0.230375, 192.0, 0.0, 0.0, 0.0, 0.0, 0.0, 0.0, 0.0, 0.0, 0.0, 1.741811675583543E9, 0.0, 2025-03-12 15:34:35.583
112.0, -12820.558288163935, -29971.320029654507, -28552.07366372033, -25219.272103222862, -32334.16763951393, 5383.417652060706, 4969.776269170794, 34568.82799492216, -21352.196795010186, -26994.939386241364, -29808.331109086408, 6782.703910196294, -38536.93318807283, -17007.956446165615, 3703.3934835664613, 12585.887323127667, -0.08515625, 0.95446875, -0.230375, 192.0, 0.0, 0.0, 0.0, 0.0, 0.0, 0.0, 0.0, 0.0, 0.0, 1.74181167558358E9, 0.0, 2025-03-12 15:34:35.583
114.0, -12833.142320292274, -29984.261689694133, -28563.69657083709, -25230.626789406157, -32348.36099724305, 5368.620797231293, 4950.93374859497, 34558.859116895095, -21365.339620749906, -26998.985051987776, -29816.265978368043, 6765.224846032244, -38545.0468713101, -17013.477327046076, 3691.211782838319, 12571.20222702053, -0.08515625, 0.95446875, -0.230375, 192.0, 0.0, 0.0, 0.0, 0.0, 0.0, 0.0, 0.0, 0.0, 0.0, 1.741811675583615E9, 0.0, 2025-03-12 15:34:35.583
116.0, -12838.506738961547, -29985.915718783825, -28567.853995305777, -25236.751167386912, -32347.824555376123, 5365.536256496461, 4962.422545244997, 34579.84740493863, -21357.382399723818, -27007.076383480595, -29819.14935340278, 6773.226770547244, -38550.83597312403, -17023.401501584234, 3709.6072685250365, 12571.716317143002, -0.083578125, 0.958234375, -0.22618749999999999, 192.0, 126.5, 56.0, 15.0, 8.0, 124.5, 8.0, 0.0, 0.0, 0.0, 1.741811675583649E9, 0.0, 2025-03-12 15:34:35.583
118.0, -12830.326000490904, -29976.41622739032, -28555.64994283318, -25230.917362084077, -32341.566066928634, 5372.800573444435, 4948.855036360626, 34553.405291248004, -21373.699173176192, -27004.72945031279, -29826.257208139567, 6753.557235426573, -38553.831106881036, -17022.149803894736, 3696.2632770852183, 12559.221691992485, -0.083578125, 0.958234375, -0.22618749999999999, 192.0, 0.0, 0.0, 0.0, 0.0, 0.0, 0.0, 0.0, 0.0, 0.0, 1.741811675583686E9, 0.0, 2025-03-12 15:34:35.583
120.0, -12821.899392831254, -29970.537718598574, -28545.144622939188, -25218.221571233462, -32328.7808691002, 5384.892867194756, 4976.772365185305, 34575.06413162519, -21362.56800443745, -26995.09584845255, -29811.95209168817, 6780.558142728584, -38541.09061254151, -17009.051681643927, 3705.0698644006093, 12582.109878314719, -0.083578125, 0.958234375, -0.22618749999999999, 192.0, 0.0, 0.0, 0.0, 0.0, 0.0, 0.0, 0.0, 0.0, 0.0, 1.741811675643798E9, 0.0, 2025-03-12 15:34:35.643
122.0, -12818.546631162959, -29965.285058651574, -28544.45171886107, -25218.17686774455, -32330.814877845634, 5384.222314861097, 4965.395327257554, 34554.32171277067, -21360.869271858846, -26989.977298972288, -29812.46618181064, 6771.48333447973, -38531.591121148005, -17007.93409442116, 3703.885221944478, 12581.282863769873, -0.083578125, 0.958234375, -0.22618749999999999, 192.0, 0.0, 0.0, 0.0, 0.0, 0.0, 0.0, 0.0, 0.0, 0.0, 1.741811675643839E9, 0.0, 2025-03-12 15:34:35.643
124.0, -12821.988799809074, -29983.099398982456, -28554.733521310514, -25221.46257417948, -32335.21817150333, 5385.228143361586, 4981.846211176659, 34580.20503284992, -21357.516510190548, -26989.798485016643, -29813.360251588852, 6783.016834618668, -38531.43465893682, -17006.637693242752, 3706.5897830235704, 12586.043785338854, -0.083578125, 0.958234375, -0.22618749999999999, 192.0, 0.0, 0.0, 0.0, 0.0, 0.0, 0.0, 0.0, 0.0, 0.0, 1.741811675643869E9, 0.0, 2025-03-12 15:34:35.643
126.0, -12819.708921874633, -29973.555204100037, -28550.12906195272, -25216.74635609941, -32333.564142413634, 5399.063873179421, 4971.139725582567, 34553.98643660384, -21362.52330094854, -26995.29701415265, -29825.497248828084, 6765.828343132537, -38539.74950787419, -17012.672664245685, 3719.2185186408187, 12582.847485881744, -0.08378906250000001, 0.9591171875, -0.22409374999999998, 192.0, 126.5, 48.0, 15.0, 0.0, 124.5, 8.0, 0.0, 0.0, 0.0, 1.741811675643899E9, 0.0, 2025-03-12 15:34:35.643
128.0, -12808.220125224607, -29965.530927840584, -28546.441024117594, -25208.56561762877, -32324.422278931415, 5409.233916906585, 4997.358321828642, 34572.89601241303, -21353.51554793305, -26985.886929736964, -29805.268920096034, 6788.045977121113, -38525.33263270052, -16998.65812047221, 3709.8978412029555, 12588.927160373589, -0.08378906250000001, 0.9591171875, -0.22409374999999998, 192.0, 0.0, 0.0, 0.0, 0.0, 0.0, 0.0, 0.0, 0.0, 0.0, 1.741811675643932E9, 0.0, 2025-03-12 15:34:35.643
130.0, -12806.029654267986, -29963.74278828416, -28548.184460185108, -25213.32653919775, -32321.181275985396, 5409.703303540147, 4986.316560067721, 34551.84066913613, -21352.28620198801, -26980.656621534425, -29808.37581257532, 6779.507610739185, -38521.57753963203, -16996.825277426873, 3725.275841388207, 12592.816363908812, -0.08378906250000001, 0.9591171875, -0.22409374999999998, 192.0, 0.0, 0.0, 0.0, 0.0, 0.0, 0.0, 0.0, 0.0, 0.0, 1.741811675643963E9, 0.0, 2025-03-12 15:34:35.643
132.0, -12810.500003159048, -29971.65530582134, -28562.534280125416, -25224.74828061441, -32328.5797034001, 5396.627533033792, 5003.482699809397, 34585.36828581909, -21336.729387847114, -26974.75576099822, -29804.37485031782, 6791.309331811587, -38516.280176196124, -16991.438507013143, 3705.4498440563493, 12589.798878407346, -0.08378906250000001, 0.9591171875, -0.22409374999999998, 192.0, 0.0, 0.0, 0.0, 0.0, 0.0, 0.0, 0.0, 0.0, 0.0, 1.741811675643996E9, 0.0, 2025-03-12 15:34:35.643
134.0, -12804.040349011464, -29959.630067304384, -28547.35744564026, -25220.121469512163, -32311.39121191397, 5413.279582652996, 4985.780118200793, 34556.60159070511, -21358.7905596245, -26977.99676394424, -29810.208655620656, 6782.368634029464, -38523.969176288745, -17005.83303044236, 3736.339954893584, 12581.595788192248, -0.08378906250000001, 0.9591171875, -0.22409374999999998, 192.0, 0.0, 0.0, 0.0, 0.0, 0.0, 0.0, 0.0, 0.0, 0.0, 1.741811675644035E9, 0.0, 2025-03-12 15:34:35.644
136.0, -12797.15601171923, -29962.468738850206, -28551.51487010895, -25219.741489856424, -32312.9781857703, 5412.027884963499, 4998.4535573069525, 34575.645276981035, -21350.296896731485, -26979.7178482673, -29804.352498573364, 6790.124689355456, -38516.995432018695, -16994.210123325603, 3713.1388441489753, 12578.198323035042, -0.08589453125, 0.9565585937500001, -0.22404687499999998, 192.0, 126.5, 32.0, 14.5, 104.0, 124.5, 0.0, 0.0, 0.0, 0.0, 1.741811675703308E9, 0.0, 2025-03-12 15:34:35.703
138.0, -12808.980084536086, -29976.460930879228, -28556.07462597783, -25232.52668768486, -32316.420354416416, 5406.618762805315, 4985.042510633768, 34567.01750362128, -21342.384379194307, -26980.835435490066, -29810.56628353194, 6787.733052698738, -38519.74469658669, -16999.373376294778, 3744.543045108682, 12586.312006272317, -0.08589453125, 0.9565585937500001, -0.22404687499999998, 192.0, 0.0, 0.0, 0.0, 0.0, 0.0, 0.0, 0.0, 0.0, 0.0, 1.741811675703353E9, 0.0, 2025-03-12 15:34:35.703
140.0, -12803.034520510975, -29972.50467211064, -28556.02992248892, -25235.18654527504, -32315.48158114929, 5402.7072075256365, 4996.03956890578, 34563.955314630904, -21349.872213586834, -26985.86457799251, -29812.66734751074, 6774.545523470107, -38516.23547270721, -17003.664911230197, 3714.234079627285, 12570.643433409148, -0.08589453125, 0.9565585937500001, -0.22404687499999998, 192.0, 0.0, 0.0, 0.0, 0.0, 0.0, 0.0, 0.0, 0.0, 0.0, 1.741811675703389E9, 0.0, 2025-03-12 15:34:35.703
142.0, -12817.049064284452, -29982.607660604437, -28564.36712317075, -25241.13210930015, -32322.321214952615, 5399.73442551308, 4985.623655989606, 34554.12054707057, -21357.65062065728, -26991.653679806434, -29821.9880249486, 6774.947854870303, -38521.4434291653, -17002.88260017426, 3747.135847465497, 12576.365479989707, -0.08589453125, 0.9565585937500001, -0.22404687499999998, 192.0, 0.0, 0.0, 0.0, 0.0, 0.0, 0.0, 0.0, 0.0, 0.0, 1.74181167570342E9, 0.0, 2025-03-12 15:34:35.703
144.0, -12806.34257869036, -29975.008067489634, -28557.46043413406, -25227.251675993404, -32312.754668325746, 5407.02109420551, 4992.105661881646, 34540.21776201937, -21359.32700149143, -26993.30770889613, -29828.179458162722, 6766.901226866392, -38521.33167044302, -17010.32573107788, 3710.2331173697853, 12558.327622214274, -0.08589453125, 0.9565585937500001, -0.22404687499999998, 192.0, 0.0, 0.0, 0.0, 0.0, 0.0, 0.0, 0.0, 0.0, 0.0, 1.741811675703454E9, 0.0, 2025-03-12 15:34:35.703
146.0, -12802.073395499398, -29971.476491865695, -28549.302047407873, -25225.03885329233, -32306.473828133803, 5413.816024519923, 4991.211592103433, 34529.62303514755, -21340.775053593523, -26983.070609935596, -29817.338862101897, 6784.000311374702, -38509.015859248146, -16995.662986715197, 3738.2845566611954, 12574.420878222094, -0.085947265625, 0.9572792968750001, -0.22302343749999998, 192.0, 126.5, 40.0, 14.5, 120.0, 124.5, 8.0, 0.0, 0.0, 0.0, 1.741811675703485E9, 0.0, 2025-03-12 15:34:35.703
148.0, -12811.751700848545, -29977.31029716853, -28566.378780171726, -25232.929019085055, -32317.71675559482, 5404.9423819711665, 4996.128975883601, 34546.900933611505, -21353.582603166415, -26977.415618588406, -29818.210580135656, 6781.429860762341, -38509.61935634844, -16993.09253610284, 3701.7171027323134, 12566.82128510729, -0.085947265625, 0.9572792968750001, -0.22302343749999998, 192.0, 0.0, 0.0, 0.0, 0.0, 0.0, 0.0, 0.0, 0.0, 0.0, 1.741811675703519E9, 0.0, 2025-03-12 15:34:35.703
150.0, -12814.858593327832, -29986.295698439564, -28566.736408083012, -25233.5548679298, -32317.604996872546, 5409.949172729155, 4986.473022278908, 34558.90382038401, -21369.51939696305, -26993.06183970712, -29831.643978553293, 6778.77000317216, -38526.71844085675, -17006.905914176215, 3746.107667220553, 12580.277035269384, -0.085947265625, 0.9572792968750001, -0.22302343749999998, 192.0, 0.0, 0.0, 0.0, 0.0, 0.0, 0.0, 0.0, 0.0, 0.0, 1.741811675762929E9, 0.0, 2025-03-12 15:34:35.762
152.0, -12809.24830546955, -29977.55616635754, -28563.27188769244, -25226.312902726284, -32312.262929947727, 5410.485614596083, 4988.216458346422, 34548.80083189021, -21360.71280964766, -26989.91024373892, -29826.257208139567, 6775.10431708149, -38519.25295820868, -16999.574541994876, 3706.500376045749, 12568.654128152624, -0.085947265625, 0.9572792968750001, -0.22302343749999998, 192.0, 0.0, 0.0, 0.0, 0.0, 0.0, 0.0, 0.0, 0.0, 0.0, 1.741811675762963E9, 0.0, 2025-03-12 15:34:35.762
154.0, -12814.858593327832, -29981.288907681574, -28570.960887785066, -25233.823088863264, -32321.941235296876, 5400.852012735845, 4990.317522325221, 34569.31973330018, -21354.49902468908, -26985.216377403307, -29823.351481360376, 6794.2150585907775, -38514.02265000613, -16994.70186170362, 3741.1679316959303, 12583.540389959859, -0.085947265625, 0.9572792968750001, -0.22302343749999998, 192.0, 0.0, 0.0, 0.0, 0.0, 0.0, 0.0, 0.0, 0.0, 0.0, 1.741811675763002E9, 0.0, 2025-03-12 15:34:35.763
156.0, -12812.399901437748, -29980.41718964782, -28569.060989506364, -25232.481984195947, -32324.891665564977, 5400.315570868918, 4983.120260610612, 34552.22064879187, -21363.909109104767, -26986.512778581713, -29826.458373839665, 6772.1985903023, -38521.82340882104, -17004.17900135267, 3710.009599925232, 12560.853369337723, -0.0829736328125, 0.9586396484375, -0.22351171874999998, 192.0, 126.5, 64.0, 15.0, 0.0, 124.5, 0.0, 0.0, 0.0, 0.0, 1.741811675763046E9, 0.0, 2025-03-12 15:34:35.763
158.0, -12805.828488567888, -29975.008067489634, -28558.801538801377, -25228.0563387938, -32317.761459083733, 5400.807309246935, 4991.32335082571, 34557.62977095005, -21350.83333859841, -26985.66341229241, -29816.2883301125, 6789.320026555065, -38516.23547270721, -16998.993396639038, 3730.081466446098, 12571.828075865278, -0.0829736328125, 0.9586396484375, -0.22351171874999998, 192.0, 0.0, 0.0, 0.0, 0.0, 0.0, 0.0, 0.0, 0.0, 0.0, 1.741811675763082E9, 0.0, 2025-03-12 15:34:35.763
160.0, -12800.374662920793, -29966.64851506335, -28554.040617232396, -25227.05051029331, -32313.49227589277, 5398.102748167843, 4983.008501888336, 34538.63078816304, -21348.285239730507, -26982.310650624117, -29814.52254230053, 6776.0207386041575, -38517.17424597433, -17003.821373441384, 3704.242849855763, 12560.451037937528, -0.0829736328125, 0.9586396484375, -0.22351171874999998, 192.0, 0.0, 0.0, 0.0, 0.0, 0.0, 0.0, 0.0, 0.0, 0.0, 1.741811675763117E9, 0.0, 2025-03-12 15:34:35.763
162.0, -12798.63122685328, -29975.633916334384, -28553.638285832203, -25229.442146950027, -32315.503932893746, 5393.565344043415, 4996.79952821726, 34554.72404417086, -21337.623457625326, -26971.894737707942, -29802.631414250307, 6799.512422026685, -38510.848702293486, -16998.59106523884, 3726.1699111664193, 12569.525846186381, -0.0829736328125, 0.9586396484375, -0.22351171874999998, 192.0, 0.0, 0.0, 0.0, 0.0, 0.0, 0.0, 0.0, 0.0, 0.0, 1.741811675763151E9, 0.0, 2025-03-12 15:34:35.763
164.0, -12809.24830546955, -29969.286020909076, -28566.55759412737, -25242.450862223013, -32331.038395290187, 5377.15916361322, 4974.514838995318, 34543.548171943214, -21348.486405430605, -26981.57304305709, -29814.097859155878, 6779.3064450390875, -38518.940033786304, -17007.375300809777, 3710.344876092062, 12555.86893032419, -0.0829736328125, 0.9586396484375, -0.22351171874999998, 192.0, 0.0, 0.0, 0.0, 0.0, 0.0, 0.0, 0.0, 0.0, 0.0, 1.741811675763181E9, 0.0, 2025-03-12 15:34:35.763
166.0, -12811.751700848545, -29962.759311528127, -28565.954097027075, -25240.774481388868, -32327.35035745506, 5381.316588081907, 4991.904496181548, 34560.93782912944, -21351.66035314326, -26983.539996569158, -29816.824771979427, 6786.369596286964, -38524.41621117786, -17007.151783365225, 3725.0970274325646, 12556.24890997993, -0.08148681640625, 0.9563198242187501, -0.22475585937499998, 192.0, 126.5, 64.0, 14.5, 104.0, 124.0, 120.0, 0.0, 0.0, 0.0, 1.741811675823263E9, 0.0, 2025-03-12 15:34:35.823
168.0, -12816.691436373167, -29978.27142218011, -28568.16691972815, -25243.322580256772, -32329.25025573376, 5386.502192795539, 4986.160097856534, 34544.33048299915, -21359.550518935983, -26986.06574369261, -29824.42436509423, 6773.4949914807075, -38524.37150768894, -17004.111946119305, 3710.054303414143, 12546.928232542066, -0.08148681640625, 0.9563198242187501, -0.22475585937499998, 192.0, 0.0, 0.0, 0.0, 0.0, 0.0, 0.0, 0.0, 0.0, 0.0, 1.741811675823298E9, 0.0, 2025-03-12 15:34:35.823
170.0, -12813.808061338434, -29983.725247827202, -28565.440006904606, -25240.61801917768, -32327.260950477237, 5383.730576483081, 4999.079406151701, 34570.86200366759, -21354.811949111456, -26989.127932682986, -29822.703280771173, 6787.822459676559, -38526.696089112294, -17006.123603120282, 3727.2204431558184, 12555.57835764627, -0.08148681640625, 0.9563198242187501, -0.22475585937499998, 192.0, 0.0, 0.0, 0.0, 0.0, 0.0, 0.0, 0.0, 0.0, 0.0, 1.741811675823328E9, 0.0, 2025-03-12 15:34:35.823
172.0, -12820.982971308586, -29986.20629146174, -28567.026980760933, -25241.66855116708, -32324.31052020914, 5383.909390438723, 4982.874391421604, 34546.23038127785, -21359.66227765826, -26984.903452980932, -29828.0900511849, 6770.72337516825, -38528.26071122417, -17008.738757221552, 3726.080504188598, 12549.230462220963, -0.08148681640625, 0.9563198242187501, -0.22475585937499998, 192.0, 0.0, 0.0, 0.0, 0.0, 0.0, 0.0, 0.0, 0.0, 0.0, 1.741811675823361E9, 0.0, 2025-03-12 15:34:35.823
174.0, -12814.031578782986, -29970.068331965012, -28560.41086440216, -25225.932923070544, -32313.6263863595, 5395.375835344295, 5002.722740497916, 34558.76970991727, -21344.686608873202, -26980.835435490066, -29822.36800460434, 6785.319064297565, -38516.146065729394, -16994.724213448073, 3718.0338761846874, 12552.829093078268, -0.08148681640625, 0.9563198242187501, -0.22475585937499998, 192.0, 0.0, 0.0, 0.0, 0.0, 0.0, 0.0, 0.0, 0.0, 0.0, 1.741811675823392E9, 0.0, 2025-03-12 15:34:35.823
176.0, -12811.72934910409, -29964.279230151085, -28552.900678265178, -25228.726891127455, -32313.067592748117, 5399.533259812983, 4986.2271530899, 34531.679395637446, -21357.583565423916, -26979.449627333837, -29823.932626716214, 6777.071270593557, -38520.43760066481, -16995.059489614905, 3728.293326889673, 12558.595843147737, -0.08374340820312501, 0.958159912109375, -0.22637792968749998, 192.0, 126.5, 40.0, 15.0, 0.0, 124.0, 112.0, 0.0, 0.0, 0.0, 1.741811675823435E9, 0.0, 2025-03-12 15:34:35.823
178.0, -12810.656465370235, -29980.1266169699, -28560.388512657704, -25238.89693485462, -32317.202665472352, 5389.340864341362, 4999.995827674369, 34552.287704025235, -21354.49902468908, -26980.321345367593, -29819.57403654743, 6785.743747442216, -38515.90019654038, -16993.338405291845, 3708.3555708355393, 12562.44034319405, -0.08374340820312501, 0.958159912109375, -0.22637792968749998, 192.0, 0.0, 0.0, 0.0, 0.0, 0.0, 0.0, 0.0, 0.0, 0.0, 1.74181167582347E9, 0.0, 2025-03-12 15:34:35.823
180.0, -12814.568020649913, -29980.193672203266, -28559.427387646127, -25243.881373868153, -32323.43880217538, 5385.094032894854, 4976.638254718573, 34529.08659328063, -21362.27743175953, -26989.552615827637, -29824.156144160766, 6770.946892612803, -38521.734001843215, -17007.330597320866, 3718.480911073794, 12560.004003048422, -0.08374340820312501, 0.958159912109375, -0.22637792968749998, 192.0, 0.0, 0.0, 0.0, 0.0, 0.0, 0.0, 0.0, 0.0, 0.0, 1.741811675883418E9, 0.0, 2025-03-12 15:34:35.883
182.0, -12830.169538279717, -29998.097419511967, -28574.17953898663, -25246.76474890289, -32330.45724993435, 5383.440003805162, 4986.473022278908, 34548.77848014575, -21373.56506270946, -26997.711002553824, -29830.727557030626, 6769.963415856769, -38528.14895250189, -17011.666835745196, 3693.469309028305, 12554.43841867905, -0.08374340820312501, 0.958159912109375, -0.22637792968749998, 192.0, 0.0, 0.0, 0.0, 0.0, 0.0, 0.0, 0.0, 0.0, 0.0, 1.741811675883463E9, 0.0, 2025-03-12 15:34:35.883
184.0, -12843.468826230624, -30017.006995321157, -28571.385570929717, -25244.261353523896, -32329.45142143386, 5389.87730620829, 4976.41473727402, 34529.73479386983, -21381.432876757728, -26998.6721275654, -29836.04727221099, 6763.213189031267, -38532.95457755978, -17008.336425821355, 3710.6130970255253, 12558.931119314566, -0.08374340820312501, 0.958159912109375, -0.22637792968749998, 192.0, 0.0, 0.0, 0.0, 0.0, 0.0, 0.0, 0.0, 0.0, 0.0, 1.741811675883498E9, 0.0, 2025-03-12 15:34:35.883
186.0, -12846.978050110109, -30034.351949018474, -28567.27284994994, -25242.00382733391, -32324.377575442504, 5384.691701494658, 4989.781080458293, 34543.5034684543, -21406.13155438084, -27011.233807949284, -29843.75862404807, 6755.568892427551, -38530.85351358098, -17013.633789257263, 3686.0708816135984, 12551.86796806669, -0.0858717041015625, 0.9590799560546874, -0.23018896484375, 192.0, 126.5, 32.0, 15.0, 0.0, 124.0, 88.0, 0.0, 0.0, 0.0, 1.741811675883528E9, 0.0, 2025-03-12 15:34:35.883
188.0, -12872.637852744801, -30065.465577300263, -28577.331134954828, -25253.872603639677, -32332.06657553513, 5375.751003712536, 4980.41569953152, 34547.12445105606, -21431.254915148606, -27019.10162199755, -29849.391263650807, 6750.159770269367, -38529.57946414703, -17012.963236923606, 3716.268088372718, 12560.808665848812, -0.0858717041015625, 0.9590799560546874, -0.23018896484375, 192.0, 0.0, 0.0, 0.0, 0.0, 0.0, 0.0, 0.0, 0.0, 0.0, 1.741811675883565E9, 0.0, 2025-03-12 15:34:35.883
190.0, -12877.577588269423, -30076.328525105542, -28575.721809354047, -25248.686998926045, -32323.68467136439, 5380.802497959435, 4990.1163566251225, 34547.48207896735, -21455.461854393703, -27038.8829158405, -29864.255173713587, 6727.8303775585155, -38539.19071426281, -17024.340274851354, 3687.3672827920063, 12549.364572687695, -0.0858717041015625, 0.9590799560546874, -0.23018896484375, 192.0, 0.0, 0.0, 0.0, 0.0, 0.0, 0.0, 0.0, 0.0, 0.0, 1.741811675883596E9, 0.0, 2025-03-12 15:34:35.883
192.0, -12900.085794935918, -30110.414935399884, -28587.188254259618, -25262.410970021603, -32336.313406981637, 5373.739346711558, 4978.135821597079, 34551.12541331356, -21472.09155226845, -27051.22107877983, -29875.319287218965, 6729.909089792859, -38543.95163583179, -17026.687208019164, 3719.9114227189334, 12563.066192038797, -0.0858717041015625, 0.9590799560546874, -0.23018896484375, 192.0, 0.0, 0.0, 0.0, 0.0, 0.0, 0.0, 0.0, 0.0, 0.0, 1.741811675883626E9, 0.0, 2025-03-12 15:34:35.883
194.0, -12882.293806349493, -30096.445095115316, -28566.98227727202, -25240.081577310753, -32315.347470682562, 5393.565344043415, 4989.602266502651, 34524.951520556395, -21490.241168766162, -27042.615657164533, -29872.659429628784, 6718.643810587384, -38537.38022296193, -17019.244077115545, 3669.687052927858, 12540.066246994287, -0.0858717041015625, 0.9590799560546874, -0.23018896484375, 192.0, 0.0, 0.0, 0.0, 0.0, 0.0, 0.0, 0.0, 0.0, 0.0, 1.741811675883657E9, 0.0, 2025-03-12 15:34:35.883
196.0, -12910.009969474075, -30113.87945579046, -28585.60128040329, -25259.192318820038, -32332.200686001863, 5380.176649114686, 4983.209667588433, 34537.334386984636, -21497.192561291762, -27046.907192099952, -29874.96165930768, 6731.451360160275, -38540.420060207856, -17016.964199181104, 3710.009599925232, 12561.076886782275, -0.08893585205078125, 0.9575399780273437, -0.23109448242187502, 192.0, 126.5, 16.0, 14.5, 112.0, 124.0, 96.0, 0.0, 0.0, 0.0, 1.741811675943733E9, 0.0, 2025-03-12 15:34:35.943
198.0, -12914.055635220486, -30127.335205952553, -28593.022059562452, -25264.489682255946, -32332.401851701958, 5374.432250789672, 4987.277685079299, 34532.97579681585, -21516.079785356498, -27053.50095671427, -29887.322173991466, 6711.3347901504985, -38552.91468535837, -17029.570583053897, 3672.302207029129, 12536.467616136983, -0.08893585205078125, 0.9575399780273437, -0.23109448242187502, 192.0, 0.0, 0.0, 0.0, 0.0, 0.0, 0.0, 0.0, 0.0, 0.0, 1.741811675943784E9, 0.0, 2025-03-12 15:34:35.943
200.0, -12916.939010255219, -30125.792935585134, -28591.345678728307, -25268.96003114701, -32336.179296514907, 5373.0687943778985, 4979.476926264397, 34539.278988752245, -21521.332445303495, -27064.721532430834, -29894.832360128446, 6718.174423953823, -38560.0001883507, -17033.61624880031, 3714.1670243939193, 12545.408313919106, -0.08893585205078125, 0.9575399780273437, -0.23109448242187502, 192.0, 0.0, 0.0, 0.0, 0.0, 0.0, 0.0, 0.0, 0.0, 0.0, 1.741811675943815E9, 0.0, 2025-03-12 15:34:35.943
202.0, -12905.763138027567, -30121.590807627537, -28586.137722270218, -25263.975592133476, -32333.228866246805, 5377.270922335497, 4981.980321643391, 34527.58902640212, -21509.10604108644, -27057.39016024949, -29887.29982224701, 6709.010208727147, -38551.953560346796, -17028.497699320043, 3671.5198959731933, 12529.471520122472, -0.08893585205078125, 0.9575399780273437, -0.23109448242187502, 192.0, 0.0, 0.0, 0.0, 0.0, 0.0, 0.0, 0.0, 0.0, 0.0, 1.741811675943849E9, 0.0, 2025-03-12 15:34:35.943
204.0, -12909.384120629325, -30118.95330178181, -28586.56240541487, -25264.534385744857, -32335.26287499224, 5379.461393292117, 4981.801507687749, 34541.44710796441, -21504.859209639933, -27057.16664280494, -29883.88000534535, 6729.506758392663, -38551.61828417996, -17027.491870819555, 3709.9425446918663, 12545.073037752276, -0.08893585205078125, 0.9575399780273437, -0.23109448242187502, 192.0, 0.0, 0.0, 0.0, 0.0, 0.0, 0.0, 0.0, 0.0, 0.0, 1.741811675943883E9, 0.0, 2025-03-12 15:34:35.943
206.0, -12890.474544820136, -30090.879510745945, -28576.61587913226, -25249.111682070696, -32325.450459176358, 5397.633361534281, 4979.342815797665, 34515.45202916289, -21491.82814262249, -27046.63897116649, -29879.208490754187, 6721.258964688655, -38545.47155445475, -17025.591972540853, 3673.218628551797, 12528.28687766634, -0.08846792602539062, 0.9557699890136719, -0.2315472412109375, 192.0, 126.5, 32.0, 14.5, 104.0, 124.0, 96.0, 0.0, 0.0, 0.0, 1.741811675943916E9, 0.0, 2025-03-12 15:34:35.943
208.0, -12899.236428646616, -30096.735667793237, -28586.8976815817, -25259.14761533113, -32337.900380837964, 5384.088204394366, 4986.94240891247, 34556.78040466075, -21468.694087111246, -27042.01216006424, -29868.792577838016, 6745.667069633851, -38547.72908064474, -17017.94767593714, 3703.6393527554696, 12558.059401280809, -0.08846792602539062, 0.9557699890136719, -0.2315472412109375, 192.0, 0.0, 0.0, 0.0, 0.0, 0.0, 0.0, 0.0, 0.0, 0.0, 1.741811675943949E9, 0.0, 2025-03-12 15:34:35.943
210.0, -12884.685443006212, -30076.797911739104, -28576.526472154437, -25252.129167572162, -32327.64093013298, 5385.831640461879, 4983.567295499718, 34535.79211661722, -21484.474418696693, -27040.49224144128, -29868.278487715543, 6724.656429845862, -38549.80779287908, -17020.138146893758, 3679.052433854632, 12539.57450861627, -0.08846792602539062, 0.9557699890136719, -0.2315472412109375, 192.0, 0.0, 0.0, 0.0, 0.0, 0.0, 0.0, 0.0, 0.0, 0.0, 1.741811676004554E9, 0.0, 2025-03-12 15:34:36.004
212.0, -12891.681539020723, -30074.875661715945, -28587.858806593278, -25263.57326073328, -32336.983959315297, 5370.431288532172, 4984.751937955849, 34570.72789320086, -21464.067276009, -27045.029645565708, -29870.893641816812, 6735.117046250945, -38551.372414990954, -17027.290705119456, 3712.4235883264055, 12557.05357278032, -0.08846792602539062, 0.9557699890136719, -0.2315472412109375, 192.0, 0.0, 0.0, 0.0, 0.0, 0.0, 0.0, 0.0, 0.0, 0.0, 1.741811676004593E9, 0.0, 2025-03-12 15:34:36.004
214.0, -12881.355033082371, -30064.95148717779, -28583.433161191126, -25254.364342017692, -32327.97620629981, 5379.282579336475, 4977.50997275233, 34543.615227176575, -21460.133368984865, -27036.670093139423, -29874.067589529466, 6717.682685575805, -38548.35492948949, -17019.17702188218, 3694.0057508952323, 12536.400560903618, -0.08846792602539062, 0.9557699890136719, -0.2315472412109375, 192.0, 0.0, 0.0, 0.0, 0.0, 0.0, 0.0, 0.0, 0.0, 0.0, 1.741811676004624E9, 0.0, 2025-03-12 15:34:36.004
216.0, -12879.186913870206, -30059.452958041784, -28585.22130074755, -25252.9114786281, -32326.277473721206, 5380.802497959435, 4994.184374115989, 34567.44218676593, -21446.454101378215, -27028.19878199086, -29865.261002214076, 6745.443552189297, -38540.73298463023, -17021.99334168355, 3709.786082480679, 12552.002078533422, -0.08823396301269532, 0.9548849945068361, -0.23077362060546874, 192.0, 126.5, 32.0, 14.5, 104.0, 124.0, 104.0, 0.0, 0.0, 0.0, 1.741811676004654E9, 0.0, 2025-03-12 15:34:36.004
218.0, -12870.380326554816, -30051.585143993518, -28576.951155299088, -25252.08446408325, -32322.142400996974, 5387.843297462857, 4980.885086165081, 34536.30620673969, -21444.9118310108, -27024.91307555593, -29862.422330668254, 6733.373610183431, -38543.7951736206, -17017.27712360348, 3702.879393443989, 12545.609479619203, -0.08823396301269532, 0.9548849945068361, -0.23077362060546874, 192.0, 0.0, 0.0, 0.0, 0.0, 0.0, 0.0, 0.0, 0.0, 0.0, 1.741811676004686E9, 0.0, 2025-03-12 15:34:36.004
220.0, -12865.798218941478, -30046.488946257705, -28576.7946930879, -25255.034894351353, -32325.07047952062, 5381.920085182201, 4996.888935195081, 34562.301285541216, -21430.673769792767, -27023.05788076614, -29858.086092243924, 6751.433819703319, -38538.87778984044, -17017.768861981494, 3711.1048354035424, 12554.505473912415, -0.08823396301269532, 0.9548849945068361, -0.23077362060546874, 192.0, 0.0, 0.0, 0.0, 0.0, 0.0, 0.0, 0.0, 0.0, 0.0, 1.741811676004735E9, 0.0, 2025-03-12 15:34:36.004
222.0, -12870.380326554816, -30043.00207412268, -28581.51091116797, -25260.846347909734, -32333.564142413634, 5381.763622971013, 4979.275760564299, 34547.325616756156, -21436.865203006888, -27028.914037813433, -29862.10940624588, 6734.938232295302, -38546.61149342197, -17025.882545218774, 3714.1670243939193, 12554.170197745587, -0.08823396301269532, 0.9548849945068361, -0.23077362060546874, 192.0, 0.0, 0.0, 0.0, 0.0, 0.0, 0.0, 0.0, 0.0, 0.0, 1.741811676004765E9, 0.0, 2025-03-12 15:34:36.004
224.0, -12863.250120073571, -30038.71053918726, -28580.84035883431, -25254.677266440067, -32332.44655519087, 5382.2777130934855, 4994.8102229607375, 34567.799814677215, -21426.449290090717, -27028.62346513551, -29856.96850502116, 6742.806046343571, -38548.42198472285, -17019.869925960294, 3707.30503884614, 12552.940851800544, -0.08823396301269532, 0.9548849945068361, -0.23077362060546874, 192.0, 0.0, 0.0, 0.0, 0.0, 0.0, 0.0, 0.0, 0.0, 0.0, 1.741811676004798E9, 0.0, 2025-03-12 15:34:36.004
226.0, -12860.25498631656, -30023.354890746465, -28566.043504004898, -25250.564545460293, -32328.669110377923, 5386.077509650888, 4977.487621007875, 34539.52485794126, -21418.760289998092, -27018.006386519242, -29850.508850873575, 6739.341525952998, -38546.18681027732, -17017.94767593714, 3715.239908127774, 12542.793159817835, -0.09011698150634766, 0.954442497253418, -0.2293868103027344, 192.0, 126.5, 16.0, 14.5, 104.0, 124.0, 112.0, 0.0, 0.0, 0.0, 1.74181167606347E9, 0.0, 2025-03-12 15:34:36.063
228.0, -12852.521282735024, -30010.07795454001, -28561.61785860275, -25243.6578564236, -32323.25998821974, 5388.335035840873, 4992.597400259662, 34556.57923896066, -21405.975092169654, -27008.86452303702, -29838.01422572306, 6754.250139504688, -38538.98954856271, -17009.431661299666, 3703.2593730997296, 12544.491892396438, -0.09011698150634766, 0.954442497253418, -0.2293868103027344, 192.0, 0.0, 0.0, 0.0, 0.0, 0.0, 0.0, 0.0, 0.0, 0.0, 1.741811676063517E9, 0.0, 2025-03-12 15:34:36.063
230.0, -12860.769076439034, -30021.969082590233, -28566.17761447163, -25246.876507625166, -32327.864447577533, 5387.865649207312, 4974.626597717595, 34543.7046341544, -21411.89830445031, -27010.54090387117, -29843.848031025893, 6744.661241133362, -38542.67758639784, -17017.187716625656, 3719.173815151908, 12552.784389589357, -0.09011698150634766, 0.954442497253418, -0.2293868103027344, 192.0, 0.0, 0.0, 0.0, 0.0, 0.0, 0.0, 0.0, 0.0, 0.0, 1.741811676063548E9, 0.0, 2025-03-12 15:34:36.063
232.0, -12842.753570408055, -30009.496809184173, -28552.587753842803, -25226.894048082122, -32311.435915402883, 5399.622666790804, 4996.553659028252, 34542.63175042054, -21403.270531090562, -27004.796505546154, -29838.103632700877, 6754.33954648251, -38533.6474816379, -17006.59298975384, 3691.524707260693, 12547.330563942262, -0.09011698150634766, 0.954442497253418, -0.2293868103027344, 192.0, 0.0, 0.0, 0.0, 0.0, 0.0, 0.0, 0.0, 0.0, 0.0, 1.741811676063587E9, 0.0, 2025-03-12 15:34:36.063
234.0, -12853.951794380164, -30013.453067952763, -28558.980352757022, -25240.483908710947, -32318.92374979541, 5391.129003897787, 4989.110528124635, 34545.783346388744, -21387.691365205214, -26997.219264175805, -29832.22512390913, 6763.213189031267, -38528.86420832446, -16997.78640243845, 3717.9668209513216, 12563.356764716716, -0.09011698150634766, 0.954442497253418, -0.2293868103027344, 192.0, 0.0, 0.0, 0.0, 0.0, 0.0, 0.0, 0.0, 0.0, 0.0, 1.741811676063618E9, 0.0, 2025-03-12 15:34:36.063
236.0, -12847.44743674367, -30007.306338227554, -28556.923992267133, -25233.19724001852, -32312.95583402584, 5392.44775682065, 4999.995827674369, 34554.70169242641, -21400.163638611277, -27007.85869453653, -29836.76252803356, 6757.133514539423, -38533.33455721552, -17008.26937058799, 3698.297285830651, 12554.997212290433, -0.09105849075317382, 0.957221248626709, -0.2266934051513672, 192.0, 126.5, 16.0, 15.0, 0.0, 124.5, 0.0, 0.0, 0.0, 0.0, 1.741811676063649E9, 0.0, 2025-03-12 15:34:36.063
238.0, -12849.213224555639, -30003.975928303713, -28553.459471876562, -25232.37022547367, -32320.10839225154, 5390.011416675022, 4984.41666178902, 34550.99130284683, -21397.794353699013, -27004.505932868236, -29837.276618156033, 6765.426011732342, -38533.4463159378, -17010.616303755796, 3735.848216515567, 12563.379116461172, -0.09105849075317382, 0.957221248626709, -0.2266934051513672, 192.0, 0.0, 0.0, 0.0, 0.0, 0.0, 0.0, 0.0, 0.0, 0.0, 1.74181167606368E9, 0.0, 2025-03-12 15:34:36.063
240.0, -12839.06553257293, -29991.36954443092, -28550.911373008654, -25221.88725732413, -32319.124915495508, 5392.604219031838, 4999.146461385067, 34561.27310529627, -21383.444533758706, -26989.57496757209, -29820.490458070097, 6768.24233153371, -38525.310280956066, -16994.344233792333, 3699.616038753514, 12550.795084332834, -0.09105849075317382, 0.957221248626709, -0.2266934051513672, 192.0, 0.0, 0.0, 0.0, 0.0, 0.0, 0.0, 0.0, 0.0, 0.0, 1.741811676123189E9, 0.0, 2025-03-12 15:34:36.123
242.0, -12836.91976510522, -29976.79620704606, -28544.675236305626, -25223.921266069567, -32315.43687766038, 5400.337922613374, 4987.5906095016735, 34552.846497636616, -21379.287109290017, -26990.290223394662, -29816.84712372388, 6773.763212414171, -38525.019708278145, -16995.4618210151, 3740.1844549398966, 12563.490875183448, -0.09105849075317382, 0.957221248626709, -0.2266934051513672, 192.0, 0.0, 0.0, 0.0, 0.0, 0.0, 0.0, 0.0, 0.0, 0.0, 1.741811676123242E9, 0.0, 2025-03-12 15:34:36.123
244.0, -12838.707904661645, -29992.777704331602, -28555.046445732885, -25230.872658595166, -32322.321214952615, 5388.44679456315, 4992.016254903824, 34559.1049860841, -21375.37555401034, -26988.72560128279, -29819.28346386951, 6765.314253010065, -38527.09842051249, -16998.45695477211, 3705.8745272010005, 12554.639584379147, -0.09105849075317382, 0.957221248626709, -0.2266934051513672, 192.0, 0.0, 0.0, 0.0, 0.0, 0.0, 0.0, 0.0, 0.0, 0.0, 1.741811676123272E9, 0.0, 2025-03-12 15:34:36.123
246.0, -12842.530052963502, -29992.911814798335, -28555.35937015526, -25235.924152842064, -32333.228866246805, 5382.21065786012, 4976.682958207483, 34562.36834077458, -21375.66612668826, -26996.191083930862, -29819.551684802973, 6775.81957290406, -38534.76506886066, -17003.75431820802, 3743.045478230176, 12560.071058281786, -0.09052924537658691, 0.9536106243133545, -0.22734670257568362, 192.0, 126.5, 24.0, 14.5, 88.0, 124.0, 112.0, 0.0, 0.0, 0.0, 1.741811676123311E9, 0.0, 2025-03-12 15:34:36.123
248.0, -12826.705017889146, -29983.054695493545, -28545.70341655057, -25221.976664301954, -32318.476714906305, 5397.767472001014, 4978.2252285749, 34539.18958177442, -21370.41346674126, -26986.57983381508, -29818.970539447135, 6767.750593155693, -38527.63486237942, -16999.619245483787, 3694.8104136956235, 12541.742627828435, -0.09052924537658691, 0.9536106243133545, -0.22734670257568362, 192.0, 0.0, 0.0, 0.0, 0.0, 0.0, 0.0, 0.0, 0.0, 0.0, 1.741811676123344E9, 0.0, 2025-03-12 15:34:36.123
250.0, -12845.927518120709, -29990.095494996967, -28560.92495452463, -25243.300228512315, -32334.838191847586, 5375.840410690357, 4968.07753659219, 34563.21770706388, -21363.55148119348, -26995.408772874925, -29824.647882538782, 6777.33949152702, -38532.641653137405, -17001.005053640016, 3734.395353125972, 12562.730915871969, -0.09052924537658691, 0.9536106243133545, -0.22734670257568362, 192.0, 0.0, 0.0, 0.0, 0.0, 0.0, 0.0, 0.0, 0.0, 0.0, 1.741811676123378E9, 0.0, 2025-03-12 15:34:36.123
252.0, -12837.232689527595, -29983.50173038265, -28553.481823621016, -25237.354664487204, -32325.74103185428, 5377.405032802229, 4968.211647058922, 34540.84361086412, -21378.147170322798, -26999.499142110246, -29824.536123816506, 6756.261796505666, -38533.33455721552, -17012.717367734596, 3693.1563846059307, 12532.913688768589, -0.09052924537658691, 0.9536106243133545, -0.22734670257568362, 192.0, 0.0, 0.0, 0.0, 0.0, 0.0, 0.0, 0.0, 0.0, 0.0, 1.741811676123408E9, 0.0, 2025-03-12 15:34:36.123
254.0, -12837.858538372344, -29980.46189313673, -28552.1407189537, -25236.32648424226, -32324.91401730943, 5378.388509558262, 4972.883161650081, 34553.31588427018, -21373.788580154014, -27000.370860144005, -29826.123097672833, 6771.684500179827, -38531.97110080375, -17013.85730670182, 3731.3331641355953, 12549.275165709874, -0.09052924537658691, 0.9536106243133545, -0.22734670257568362, 192.0, 0.0, 0.0, 0.0, 0.0, 0.0, 0.0, 0.0, 0.0, 0.0, 1.741811676123441E9, 0.0, 2025-03-12 15:34:36.123
0.0, -12834.818701126422, -29974.89630876736, -28554.286486421406, -25228.011635304887, -32323.327043453104, 5385.094032894854, 4976.593551229662, 34542.34117774262, -21365.89841436129, -26987.853883249034, -29820.57986504792, 6764.710755909772, -38526.78549609012, -16999.64159722824, 3699.3478178200508, 12540.826206305768, -0.09126462268829345, 0.9538053121566773, -0.22767335128784183, 192.0, 126.5, 16.0, 14.5, 104.0, 124.0, 112.0, 0.0, 0.0, 0.0, 1.741811676183511E9, 0.0, 2025-03-12 15:34:36.183
2.0, -12837.031523827496, -29973.734018055682, -28555.001742243978, -25229.688016139033, -32328.557351655647, 5386.770413729002, 4978.515801252818, 34580.00386714982, -21368.602975440383, -26990.37963037248, -29828.872362240836, 6776.601883959996, -38538.520161929155, -17010.88452468926, 3733.0318967141984, 12566.798933362834, -0.09126462268829345, 0.9538053121566773, -0.22767335128784183, 192.0, 0.0, 0.0, 0.0, 0.0, 0.0, 0.0, 0.0, 0.0, 0.0, 1.741811676183548E9, 0.0, 2025-03-12 15:34:36.183
4.0, -12817.406692195736, -29964.949782484746, -28535.779242012413, -25214.42177467606, -32322.857656819542, 5400.024998190999, 4971.385594771576, 34548.309093512195, -21358.634097413316, -26974.77811274268, -29818.32233885793, 6766.00715708818, -38517.0401355076, -16994.187771581146, 3703.371131822006, 12551.398581433128, -0.09126462268829345, 0.9538053121566773, -0.22767335128784183, 192.0, 0.0, 0.0, 0.0, 0.0, 0.0, 0.0, 0.0, 0.0, 0.0, 1.741811676183579E9, 0.0, 2025-03-12 15:34:36.183
6.0, -12823.285200987482, -29965.173299929298, -28547.491556106994, -25221.88725732413, -32336.089889537085, 5393.498288810049, 4974.8501151621485, 34580.13797761655, -21349.447530442183, -26977.639136032958, -29812.89086495529, 6792.829250434548, -38520.50465589818, -16991.259693057502, 3731.243757157774, 12571.381040976172, -0.09126462268829345, 0.9538053121566773, -0.22767335128784183, 192.0, 0.0, 0.0, 0.0, 0.0, 0.0, 0.0, 0.0, 0.0, 0.0, 1.741811676183619E9, 0.0, 2025-03-12 15:34:36.183
8.0, -12818.144299762762, -29959.540660326562, -28541.322474637327, -25219.249751478405, -32325.137534753983, 5397.812175489924, 4962.60135920064, 34536.21679976187, -21350.140434520297, -26976.968583699298, -29819.015242936046, 6775.417241503864, -38524.05858326657, -16991.326748290867, 3711.753035992746, 12556.830055335768, -0.09126462268829345, 0.9538053121566773, -0.22767335128784183, 192.0, 0.0, 0.0, 0.0, 0.0, 0.0, 0.0, 0.0, 0.0, 0.0, 1.741811676183656E9, 0.0, 2025-03-12 15:34:36.183
10.0, -12836.025695327007, -29976.1256547124, -28554.018265487943, -25233.644274907623, -32328.467944677825, 5380.534277025971, 4982.4273565324975, 34565.4081780205, -21356.242460756595, -26981.282470379174, -29818.1882283912, 6782.614503218473, -38525.26557746716, -16998.434603027654, 3723.5771088096035, 12567.469485696494, -0.08763231134414673, 0.9559026560783387, -0.2288366756439209, 192.0, 126.5, 48.0, 14.5, 120.0, 124.0, 104.0, 0.0, 0.0, 0.0, 1.741811676183686E9, 0.0, 2025-03-12 15:34:36.183
12.0, -12837.076227316407, -29974.829253533993, -28548.050349718374, -25230.76089987289, -32322.790601586177, 5383.194134616153, 4974.693652950961, 34538.56373292968, -21362.232728270617, -26984.67993553638, -29824.871399983338, 6762.073250064046, -38529.490057169205, -17002.972007152082, 3715.217556383319, 12549.744552343434, -0.08763231134414673, 0.9559026560783387, -0.2288366756439209, 192.0, 0.0, 0.0, 0.0, 0.0, 0.0, 0.0, 0.0, 0.0, 0.0, 1.741811676183725E9, 0.0, 2025-03-12 15:34:36.183
14.0, -12846.419256498726, -29985.55809087254, -28555.202907944073, -25231.61026616219, -32326.389232443482, 5379.8190212034015, 4989.4681560359195, 34567.3080762992, -21364.199681782688, -26993.218301918307, -29826.346615117385, 6773.651453691895, -38536.128525272434, -17008.06820488789, 3724.1582541654416, 12564.452000195028, -0.08763231134414673, 0.9559026560783387, -0.2288366756439209, 192.0, 0.0, 0.0, 0.0, 0.0, 0.0, 0.0, 0.0, 0.0, 0.0, 1.741811676243804E9, 0.0, 2025-03-12 15:34:36.243
16.0, -12839.423160484215, -29971.118863954413, -28547.290390406895, -25229.50920218339, -32317.73910733928, 5388.245628863052, 4978.515801252818, 34531.12060202606, -21369.251176029586, -26992.10071469554, -29829.38645236331, 6756.105334294479, -38532.798115348596, -17007.732928721063, 3715.7316465057906, 12554.214901234496, -0.08763231134414673, 0.9559026560783387, -0.2288366756439209, 192.0, 0.0, 0.0, 0.0, 0.0, 0.0, 0.0, 0.0, 0.0, 0.0, 1.741811676243844E9, 0.0, 2025-03-12 15:34:36.243
18.0, -12838.439683728182, -29966.715570296714, -28546.97746598452, -25225.687053881535, -32320.39896492946, 5384.82581196139, 5000.42051081902, 34560.02140760677, -21364.669068416246, -26988.502083838237, -29823.99968194958, 6768.711718167272, -38528.43952517981, -17002.994358896536, 3705.7404167342684, 12561.859197838212, -0.08763231134414673, 0.9559026560783387, -0.2288366756439209, 192.0, 0.0, 0.0, 0.0, 0.0, 0.0, 0.0, 0.0, 0.0, 0.0, 1.741811676243874E9, 0.0, 2025-03-12 15:34:36.243
20.0, -12843.44647448617, -29974.44927387825, -28541.70245429307, -25227.877524838153, -32322.768249841723, 5382.322416582396, 4985.534249011785, 34533.66870089396, -21367.485388217618, -26987.563310571113, -29826.48072558412, 6756.731183139227, -38531.345251959, -17004.469574030587, 3715.2846116166847, 12560.383982704161, -0.08581615567207337, 0.9569513280391694, -0.22641833782196047, 192.0, 126.5, 48.0, 14.5, 120.0, 124.5, 0.0, 0.0, 0.0, 0.0, 1.741811676243907E9, 0.0, 2025-03-12 15:34:36.243
22.0, -12843.44647448617, -29985.044000750066, -28544.630532816715, -25231.051472550807, -32324.422278931415, 5382.9259136826895, 4999.548792785263, 34553.36058775909, -21368.17829229573, -26992.63715656247, -29826.57013256194, 6764.442534976308, -38530.697051369796, -17002.79319319644, 3702.7676347217125, 12558.774657103379, -0.08581615567207337, 0.9569513280391694, -0.22641833782196047, 192.0, 0.0, 0.0, 0.0, 0.0, 0.0, 0.0, 0.0, 0.0, 0.0, 1.741811676243939E9, 0.0, 2025-03-12 15:34:36.243
24.0, -12841.8818523743, -29976.527986112596, -28538.30498913586, -25226.491716681925, -32322.07534576361, 5390.59256203086, 4984.148440855556, 34532.998148560306, -21362.12096954834, -26995.252310663738, -29825.09491742789, 6756.418258716853, -38533.423964193345, -17000.759184451006, 3722.303059375651, 12561.099238526731, -0.08581615567207337, 0.9569513280391694, -0.22641833782196047, 192.0, 0.0, 0.0, 0.0, 0.0, 0.0, 0.0, 0.0, 0.0, 0.0, 1.741811676243969E9, 0.0, 2025-03-12 15:34:36.243
26.0, -12853.437704257693, -29988.754390329646, -28555.627591088723, -25239.76865288838, -32332.759479613243, 5371.68298622167, 4996.955990428447, 34575.488814769844, -21366.144283550297, -26995.47582810829, -29822.502115071075, 6765.917750110359, -38533.17809500433, -17009.677530488676, 3704.9357539338775, 12564.116724028197, -0.08581615567207337, 0.9569513280391694, -0.22641833782196047, 192.0, 0.0, 0.0, 0.0, 0.0, 0.0, 0.0, 0.0, 0.0, 0.0, 1.741811676244E9, 0.0, 2025-03-12 15:34:36.244
28.0, -12849.324983277917, -29976.259765179133, -28548.139756696197, -25235.94650458652, -32327.439764432882, 5376.39920430174, 4971.787926171771, 34560.110814584594, -21385.23267331513, -27002.449572378348, -29836.226086166633, 6744.1471510108895, -38549.78544113463, -17025.94960045214, 3737.792818283179, 12560.272223981885, -0.08581615567207337, 0.9569513280391694, -0.22641833782196047, 192.0, 0.0, 0.0, 0.0, 0.0, 0.0, 0.0, 0.0, 0.0, 0.0, 1.741811676244035E9, 0.0, 2025-03-12 15:34:36.244
30.0, -12838.931422106198, -29975.231584934187, -28551.604277086768, -25231.118527784172, -32323.215284730828, 5377.315625824407, 4982.740280954871, 34569.923230400476, -21368.290051018008, -26997.219264175805, -29821.42923133722, 6752.52905518163, -38534.51919967165, -17010.348082822333, 3701.2924195876626, 12551.309174455308, -0.08690807783603668, 0.9534756640195847, -0.22720916891098025, 192.0, 126.5, 32.0, 14.5, 88.0, 124.0, 112.0, 0.0, 0.0, 0.0, 1.741811676304059E9, 0.0, 2025-03-12 15:34:36.304
32.0, -12837.791483138977, -29977.623221590904, -28547.737425296, -25234.739510385934, -32320.5777788851, 5381.16012587072, 4973.173734328, 34561.89895414102, -21372.693344675703, -26997.10750545353, -29825.407841850265, 6757.737011639716, -38531.70287987028, -17011.55507702292, 3732.4507513583603, 12561.479218182472, -0.08690807783603668, 0.9534756640195847, -0.22720916891098025, 192.0, 0.0, 0.0, 0.0, 0.0, 0.0, 0.0, 0.0, 0.0, 0.0, 1.741811676304095E9, 0.0, 2025-03-12 15:34:36.304
34.0, -12828.8284336124, -29970.135387198377, -28542.998855471476, -25228.123394027163, -32312.911130536933, 5382.25536134903, 4983.6567024775395, 34559.619076206574, -21361.159844536764, -26992.01130771772, -29811.8850364548, 6756.53001743913, -38527.45604842377, -17005.18482985316, 3695.1233381179977, 12548.291688953841, -0.08690807783603668, 0.9534756640195847, -0.22720916891098025, 192.0, 0.0, 0.0, 0.0, 0.0, 0.0, 0.0, 0.0, 0.0, 0.0, 1.741811676304139E9, 0.0, 2025-03-12 15:34:36.304
36.0, -12836.293916260473, -29974.561032600526, -28543.401186871673, -25230.023292305865, -32320.73424109629, 5378.9696549141, 4970.446821504453, 34562.904782641504, -21354.811949111456, -26994.62646181899, -29812.9355684442, 6765.358956498976, -38532.641653137405, -17008.515239777, 3739.5809578396033, 12564.921386828588, -0.08690807783603668, 0.9534756640195847, -0.22720916891098025, 192.0, 0.0, 0.0, 0.0, 0.0, 0.0, 0.0, 0.0, 0.0, 0.0, 1.741811676304173E9, 0.0, 2025-03-12 15:34:36.304
38.0, -12826.079169044397, -29961.50761383863, -28538.774375769422, -25217.863943322176, -32318.54377013967, 5385.071681150399, 4981.51093500983, 34549.44903247941, -21352.397960710285, -26985.395191358948, -29808.129943386313, 6763.1684855423555, -38523.94682454429, -17008.60464675482, 3695.4139107959168, 12547.352915686717, -0.08690807783603668, 0.9534756640195847, -0.22720916891098025, 192.0, 0.0, 0.0, 0.0, 0.0, 0.0, 0.0, 0.0, 0.0, 0.0, 1.741811676304205E9, 0.0, 2025-03-12 15:34:36.304
40.0, -12842.530052963502, -29979.612526847428, -28549.65967531916, -25231.632617906645, -32332.625369146514, 5374.20873334512, 4968.613978459118, 34555.59576220462, -21355.638963656304, -26996.883988008976, -29817.696490013182, 6769.248160034199, -38534.899179327396, -17015.109004391314, 3731.1319984354973, 12566.910692085112, -0.08645403891801834, 0.9527378320097923, -0.22660458445549014, 192.0, 126.5, 40.0, 14.5, 96.0, 124.0, 120.0, 0.0, 0.0, 0.0, 1.741811676304235E9, 0.0, 2025-03-12 15:34:36.304
42.0, -12832.695285403168, -29974.091645966968, -28544.608181072257, -25223.89891432511, -32325.24929347626, 5382.233009604574, 4973.061975605724, 34537.602607918096, -21366.792484139503, -26991.81014201762, -29816.04246092349, 6754.317194738054, -38531.63582463692, -17009.610475255307, 3688.149593847942, 12545.184796474552, -0.08645403891801834, 0.9527378320097923, -0.22660458445549014, 192.0, 0.0, 0.0, 0.0, 0.0, 0.0, 0.0, 0.0, 0.0, 0.0, 1.741811676304273E9, 0.0, 2025-03-12 15:34:36.304
44.0, -12841.658334929745, -29981.08774198148, -28547.692721807092, -25231.856135351198, -32324.601092887056, 5378.410861302717, 4969.463344748419, 34543.16819228747, -21367.619498684347, -26995.185255430373, -29823.86557148285, 6765.381308243431, -38536.687318883814, -17011.73389097856, 3725.8346349995895, 12565.793104862345, -0.08645403891801834, 0.9527378320097923, -0.22660458445549014, 192.0, 0.0, 0.0, 0.0, 0.0, 0.0, 0.0, 0.0, 0.0, 0.0, 1.741811676364373E9, 0.0, 2025-03-12 15:34:36.364
46.0, -12832.985858081087, -29970.001276731644, -28541.79186127089, -25219.629731134148, -32311.078287491597, 5388.9161811967115, 4974.201914572945, 34516.03317451873, -21366.054876572478, -26991.63132806198, -29823.396184849287, 6752.998441815191, -38531.032327536625, -17009.476364788577, 3689.602457237537, 12548.67166860958, -0.08645403891801834, 0.9527378320097923, -0.22660458445549014, 192.0, 0.0, 0.0, 0.0, 0.0, 0.0, 0.0, 0.0, 0.0, 0.0, 1.741811676364449E9, 0.0, 2025-03-12 15:34:36.364
48.0, -12846.441608243182, -29988.821445563015, -28555.56053585536, -25234.448937708014, -32322.902360308453, 5381.897733437745, 4977.778193685794, 34549.33727375713, -21373.252138287084, -26996.928691497887, -29830.504039586074, 6769.315215267565, -38537.58138866203, -17007.04002464295, 3732.3389926360837, 12572.58803517676, -0.08645403891801834, 0.9527378320097923, -0.22660458445549014, 192.0, 0.0, 0.0, 0.0, 0.0, 0.0, 0.0, 0.0, 0.0, 0.0, 1.741811676364481E9, 0.0, 2025-03-12 15:34:36.364
50.0, -12841.747741907568, -29975.611564589926, -28554.241782932495, -25229.41979520557, -32317.71675559482, 5391.486631809072, 4975.095984351156, 34535.568599172664, -21374.23561504312, -27001.53315085568, -29832.985083220614, 6744.929462066825, -38537.2461124952, -17009.65517874422, 3705.047512656154, 12554.72899135697, -0.08922701945900917, 0.9533689160048961, -0.22930229222774506, 192.0, 126.5, 16.0, 14.5, 104.0, 124.0, 96.0, 0.0, 0.0, 0.0, 1.74181167636452E9, 0.0, 2025-03-12 15:34:36.364
52.0, -12849.101465833362, -30001.137256757887, -28567.60812611677, -25242.85319362321, -32331.664244134936, 5387.195096873653, 4979.7227954534055, 34577.03108513726, -21382.46105700267, -27013.44663065036, -29836.114327444357, 6756.351203483487, -38543.9963393207, -17021.523955049986, 3737.2563764162514, 12575.091430555753, -0.08922701945900917, 0.9533689160048961, -0.22930229222774506, 192.0, 0.0, 0.0, 0.0, 0.0, 0.0, 0.0, 0.0, 0.0, 0.0, 1.74181167636456E9, 0.0, 2025-03-12 15:34:36.364
54.0, -12835.444549971171, -29980.819521048015, -28559.382684157215, -25234.940676086033, -32321.00246202975, 5400.583791802382, 4978.538152997274, 34549.69490166842, -21375.152036565785, -27004.550636357148, -29834.08031869892, 6742.940156810303, -38537.29081598411, -17015.71250149161, 3706.8356522125787, 12547.62113662018, -0.08922701945900917, 0.9533689160048961, -0.22930229222774506, 192.0, 0.0, 0.0, 0.0, 0.0, 0.0, 0.0, 0.0, 0.0, 0.0, 1.741811676364592E9, 0.0, 2025-03-12 15:34:36.364
56.0, -12839.177291295206, -29988.329707184996, -28573.978373286533, -25241.869716867175, -32327.864447577533, 5396.560477800426, 4999.638199763084, 34590.79975972173, -21367.50773996207, -27001.48844736677, -29829.878190741325, 6768.91288386737, -38531.85934208147, -17010.30337933342, 3733.9036147479555, 12567.648299652135, -0.08922701945900917, 0.9533689160048961, -0.22930229222774506, 192.0, 0.0, 0.0, 0.0, 0.0, 0.0, 0.0, 0.0, 0.0, 0.0, 1.741811676364629E9, 0.0, 2025-03-12 15:34:36.364
58.0, -12842.887680874788, -29993.85058806546, -28579.9462890561, -25247.859984381197, -32327.909151066444, 5395.040559177466, 4982.31559781022, 34567.88922165504, -21384.33860353692, -27003.030717734186, -29841.322283902442, 6751.09854353649, -38540.397708463395, -17018.08178640387, 3722.2360041422853, 12554.952508801522, -0.08922701945900917, 0.9533689160048961, -0.22930229222774506, 192.0, 0.0, 0.0, 0.0, 0.0, 0.0, 0.0, 0.0, 0.0, 0.0, 1.741811676364663E9, 0.0, 2025-03-12 15:34:36.364
60.0, -12835.601012182356, -29987.994431018167, -28573.50898665297, -25242.920248856575, -32318.09673525056, 5399.35444585734, 5001.068711408224, 34580.383846805555, -21381.05289710199, -27004.461229379325, -29840.51762110205, 6768.443497233809, -38533.60277814898, -17016.539516036453, 3727.3545536225506, 12558.752305358925, -0.08961350972950458, 0.9516844580024482, -0.22965114611387255, 192.0, 126.5, 24.0, 14.5, 88.0, 124.0, 104.0, 0.0, 0.0, 0.0, 1.741811676423731E9, 0.0, 2025-03-12 15:34:36.423
62.0, -12831.48829120258, -29979.79134080307, -28563.808329559368, -25238.51695519888, -32313.559331126136, 5405.456472093639, 4992.575048515207, 34539.703671896896, -21368.424161484738, -26990.670203050402, -29832.2921791425, 6759.703965151783, -38524.23739722221, -17006.07889963137, 3716.0669226726204, 12548.738723842946, -0.08961350972950458, 0.9516844580024482, -0.22965114611387255, 192.0, 0.0, 0.0, 0.0, 0.0, 0.0, 0.0, 0.0, 0.0, 0.0, 1.741811676423767E9, 0.0, 2025-03-12 15:34:36.423
64.0, -12828.761378379033, -29981.89240478187, -28569.239803462006, -25244.88720236864, -32321.673014363412, 5397.990989445566, 5000.42051081902, 34561.47427099637, -21366.770132395046, -26991.944252484354, -29831.331054130922, 6769.9187123678585, -38518.738868086206, -17008.738757221552, 3719.844367485567, 12551.800912833323, -0.08961350972950458, 0.9516844580024482, -0.22965114611387255, 192.0, 0.0, 0.0, 0.0, 0.0, 0.0, 0.0, 0.0, 0.0, 0.0, 1.741811676423804E9, 0.0, 2025-03-12 15:34:36.423
66.0, -12827.643791156268, -29965.46387260722, -28566.8928702942, -25244.48487096845, -32323.01411903073, 5402.394283103262, 4977.398214030053, 34529.82420084765, -21376.359030766373, -26993.710040296322, -29841.992836236102, 6749.042183046602, -38526.91960655685, -17014.773728224485, 3723.018315198221, 12542.793159817835, -0.08961350972950458, 0.9516844580024482, -0.22965114611387255, 192.0, 0.0, 0.0, 0.0, 0.0, 0.0, 0.0, 0.0, 0.0, 0.0, 1.741811676423834E9, 0.0, 2025-03-12 15:34:36.423
68.0, -12811.662293870724, -29972.370561643907, -28551.0901869643, -25225.888219581633, -32310.474790391305, 5409.256268651041, 5006.164909144033, 34528.81837234717, -21343.949001306177, -26970.978316185276, -29821.831562737414, 6775.774869415149, -38507.1383127139, -16992.131411091257, 3701.4041783099387, 12541.921441784078, -0.08961350972950458, 0.9516844580024482, -0.22965114611387255, 192.0, 0.0, 0.0, 0.0, 0.0, 0.0, 0.0, 0.0, 0.0, 0.0, 1.741811676423865E9, 0.0, 2025-03-12 15:34:36.423
70.0, -12828.023770812008, -29971.498843610152, -28562.020190002942, -25237.488774953938, -32322.92471205291, 5401.1202336693095, 4986.785946701282, 34520.36941294306, -21354.1413967778, -26979.49433082275, -29823.19501914919, 6774.6125787034725, -38513.37444941693, -17001.407385040213, 3723.711219276335, 12555.421895435084, -0.09080675486475229, 0.9498422290012241, -0.2288255730569363, 192.0, 126.5, 16.0, 14.5, 80.0, 124.0, 112.0, 0.0, 0.0, 0.0, 1.741811676423895E9, 0.0, 2025-03-12 15:34:36.423
72.0, -12816.937305562176, -29970.113035453924, -28559.628553346225, -25227.676359138055, -32314.989842771276, 5410.127986684798, 5004.5555835432515, 34536.84264860662, -21351.66035314326, -26974.442836575847, -29819.50698131406, 6780.178163072845, -38509.373487159435, -16994.165419836692, 3701.985323665777, 12554.505473912415, -0.09080675486475229, 0.9498422290012241, -0.2288255730569363, 192.0, 0.0, 0.0, 0.0, 0.0, 0.0, 0.0, 0.0, 0.0, 0.0, 1.741811676423932E9, 0.0, 2025-03-12 15:34:36.423
74.0, -12834.975163337609, -29977.712628568726, -28572.70432385258, -25242.450862223013, -32324.24346497577, 5403.891849981767, 4982.31559781022, 34539.41309921898, -21367.574795195436, -26986.378668114983, -29835.823754766436, 6766.521247210651, -38523.835065822015, -17001.429736784667, 3727.823940256112, 12563.736744372458, -0.09080675486475229, 0.9498422290012241, -0.2288255730569363, 192.0, 0.0, 0.0, 0.0, 0.0, 0.0, 0.0, 0.0, 0.0, 0.0, 1.741811676484169E9, 0.0, 2025-03-12 15:34:36.484
76.0, -12834.461073215136, -29978.85256753595, -28577.08526576582, -25243.03200757885, -32321.38244168549, 5400.472033080106, 4995.883106694592, 34559.12733782856, -21366.725428906135, -26991.519569339704, -29842.015187980556, 6764.777811143138, -38521.4434291653, -17008.157611865714, 3701.0689021431094, 12549.38692443215, -0.09080675486475229, 0.9498422290012241, -0.2288255730569363, 192.0, 0.0, 0.0, 0.0, 0.0, 0.0, 0.0, 0.0, 0.0, 0.0, 1.741811676484201E9, 0.0, 2025-03-12 15:34:36.484
78.0, -12837.25504127205, -29976.036247734577, -28570.42444591814, -25243.881373868153, -32320.15309574045, 5402.774262759002, 4988.663493235528, 34551.55009645821, -21373.43095224273, -26994.224130418796, -29845.61381883786, 6762.162657041867, -38523.58919663301, -17010.973931667082, 3729.567376323626, 12553.521997156382, -0.09080675486475229, 0.9498422290012241, -0.2288255730569363, 192.0, 0.0, 0.0, 0.0, 0.0, 0.0, 0.0, 0.0, 0.0, 0.0, 1.741811676484245E9, 0.0, 2025-03-12 15:34:36.484
80.0, -12825.229802755095, -29980.193672203266, -28568.770416828447, -25235.588876675236, -32312.709964836835, 5406.708169783136, 5008.511842311841, 34563.66474195298, -21366.591318439405, -26994.090019952062, -29832.538048331506, 6765.850694876993, -38516.95072852978, -17008.403481054724, 3693.8716404285005, 12548.33639244275, -0.09040337743237614, 0.9519211145006121, -0.22641278652846814, 192.0, 126.5, 24.0, 14.5, 104.0, 124.5, 0.0, 0.0, 0.0, 0.0, 1.741811676484278E9, 0.0, 2025-03-12 15:34:36.484
82.0, -12838.730256406101, -29986.496864139663, -28571.765550585456, -25239.634542421645, -32316.73327883879, 5408.004570961544, 4992.7538624708495, 34558.50148898381, -21369.541748707503, -27000.795543288656, -29838.081280956423, 6767.370613499954, -38528.595987390996, -17010.683358989165, 3726.371076866517, 12565.457828695517, -0.09040337743237614, 0.9519211145006121, -0.22641278652846814, 192.0, 0.0, 0.0, 0.0, 0.0, 0.0, 0.0, 0.0, 0.0, 0.0, 1.74181167648431E9, 0.0, 2025-03-12 15:34:36.484
84.0, -12826.705017889146, -29963.720436539705, -28563.964791770555, -25228.592780660725, -32303.836322288076, 5415.961791987633, 5013.250412136365, 34549.35962550159, -21345.960658307155, -26984.38936285846, -29827.62066455134, 6769.695194923305, -38513.66502209485, -16996.624111726775, 3681.689939700358, 12549.744552343434, -0.09040337743237614, 0.9519211145006121, -0.22641278652846814, 192.0, 0.0, 0.0, 0.0, 0.0, 0.0, 0.0, 0.0, 0.0, 0.0, 1.74181167648434E9, 0.0, 2025-03-12 15:34:36.484
86.0, -12829.409578968238, -29974.248108178155, -28562.199003958587, -25234.314827241284, -32305.95973801133, 5412.407864619239, 5009.271801623321, 34544.799869632705, -21359.6399259138, -26985.462246592313, -29830.593446563897, 6778.188857816322, -38516.503693640676, -17002.54732400743, 3727.0863326890867, 12567.134209529664, -0.09040337743237614, 0.9519211145006121, -0.22641278652846814, 192.0, 0.0, 0.0, 0.0, 0.0, 0.0, 0.0, 0.0, 0.0, 0.0, 1.741811676484374E9, 0.0, 2025-03-12 15:34:36.484
88.0, -12827.353218478349, -29975.45510237874, -28570.446797662593, -25239.880411610655, -32311.59237761407, 5401.455509836139, 5012.199880146966, 34544.91162835498, -21362.70211490418, -26983.7188105248, -29826.10074592838, 6769.0916978230125, -38516.213120962755, -16998.881637916762, 3687.9931316367547, 12552.762037844901, -0.09040337743237614, 0.9519211145006121, -0.22641278652846814, 192.0, 0.0, 0.0, 0.0, 0.0, 0.0, 0.0, 0.0, 0.0, 0.0, 1.741811676484403E9, 0.0, 2025-03-12 15:34:36.484
90.0, -12838.573794194914, -29989.424942663307, -28578.09109426631, -25251.972705360975, -32319.035508517685, 5393.677102765692, 4996.128975883601, 34553.98643660384, -21367.03835332851, -27000.035583977176, -29838.125984445334, 6768.130572811434, -38530.04885078059, -17013.946713679637, 3723.018315198221, 12562.999136805432, -0.09120168871618807, 0.953960557250306, -0.22720639326423409, 192.0, 126.5, 16.0, 14.5, 112.0, 124.0, 112.0, 0.0, 0.0, 0.0, 1.741811676543814E9, 0.0, 2025-03-12 15:34:36.543
92.0, -12824.87217484381, -29977.623221590904, -28564.344771426295, -25239.343969743728, -32304.59628159956, 5399.443852835161, 5001.046359663768, 34525.13033451204, -21369.653507429783, -26991.00547921723, -29835.75669953307, 6754.607767415973, -38516.61545236295, -17010.862172944806, 3676.9290181313777, 12534.835938791746, -0.09120168871618807, 0.953960557250306, -0.22720639326423409, 192.0, 0.0, 0.0, 0.0, 0.0, 0.0, 0.0, 0.0, 0.0, 0.0, 1.741811676543849E9, 0.0, 2025-03-12 15:34:36.543
94.0, -12821.92174457571, -29967.49788135265, -28560.61203010226, -25236.594705175725, -32307.21143570083, 5400.852012735845, 5006.008446932847, 34533.86986659406, -21361.65158291478, -26985.10461868103, -29833.23095240962, 6777.786526416126, -38511.83217904952, -17005.40834729771, 3718.235041884785, 12556.472427424482, -0.09120168871618807, 0.953960557250306, -0.22720639326423409, 192.0, 0.0, 0.0, 0.0, 0.0, 0.0, 0.0, 0.0, 0.0, 0.0, 1.741811676543889E9, 0.0, 2025-03-12 15:34:36.543
96.0, -12812.556363648935, -29958.73599752617, -28556.968695756044, -25229.28568473884, -32306.898511278454, 5406.864631994323, 5003.482699809397, 34520.70468910989, -21345.0889402734, -26976.18627264336, -29818.23293188011, 6772.064479835568, -38506.221891191235, -16996.847629171327, 3688.529573503682, 12543.19549121803, -0.09120168871618807, 0.953960557250306, -0.22720639326423409, 192.0, 0.0, 0.0, 0.0, 0.0, 0.0, 0.0, 0.0, 0.0, 0.0, 1.741811676543927E9, 0.0, 2025-03-12 15:34:36.543
98.0, -12821.877041086798, -29969.1742621868, -28567.36225692776, -25238.494603454426, -32319.281377706695, 5401.16493715822, 5008.042455678279, 34551.88537262504, -21343.144338505786, -26985.462246592313, -29821.09395517039, 6783.8885526524255, -38509.19467320379, -16996.914684404695, 3728.0921611895756, 12568.251796752429, -0.09120168871618807, 0.953960557250306, -0.22720639326423409, 192.0, 0.0, 0.0, 0.0, 0.0, 0.0, 0.0, 0.0, 0.0, 0.0, 1.741811676543957E9, 0.0, 2025-03-12 15:34:36.543
100.0, -12810.522354903504, -29968.034323219577, -28554.264134676952, -25226.894048082122, -32305.222130444305, 5414.017190220022, 5004.712045754439, 34519.721212353856, -21357.337696234907, -26983.33883086906, -29821.56334180395, 6760.396869229898, -38506.780684802616, -16994.970082637083, 3691.0329688826764, 12548.515206398393, -0.09460084435809404, 0.951980278625153, -0.22960319663211703, 192.0, 126.0, 120.0, 14.5, 88.0, 124.0, 96.0, 0.0, 0.0, 0.0, 1.741811676543996E9, 0.0, 2025-03-12 15:34:36.543
102.0, -12806.521392646002, -29958.333666125975, -28548.072701462832, -25221.954312557496, -32300.371801897505, 5416.11825419882, 5015.083255181701, 34535.83682010613, -21337.958733792155, -26967.96083068381, -29806.3865073188, 6790.102337611001, -38500.45514112176, -16986.07408834387, 3714.21172788283, 12563.356764716716, -0.09460084435809404, 0.951980278625153, -0.22960319663211703, 192.0, 0.0, 0.0, 0.0, 0.0, 0.0, 0.0, 0.0, 0.0, 0.0, 1.741811676544034E9, 0.0, 2025-03-12 15:34:36.544
104.0, -12802.475726899593, -29943.380349085375, -28543.55764908286, -25216.94752179951, -32296.259080917727, 5415.805329776446, 5008.578897545207, 34519.296529209205, -21336.66233261375, -26960.696513735835, -29805.626548007316, 6782.100413096001, -38498.62229807643, -16978.31803301788, 3698.5208032752043, 12558.372325703183, -0.09460084435809404, 0.951980278625153, -0.22960319663211703, 192.0, 0.0, 0.0, 0.0, 0.0, 0.0, 0.0, 0.0, 0.0, 0.0, 1.741811676604118E9, 0.0, 2025-03-12 15:34:36.604
106.0, -12820.625343397302, -29965.97796272969, -28561.99783825849, -25237.354664487204, -32308.709002579333, 5397.432195834183, 5011.909307469047, 34558.47913723936, -21339.255134970565, -26974.666354020403, -29814.32137660043, 6791.599904489506, -38508.948804014784, -16989.292739545435, 3727.5780710671033, 12576.432535223072, -0.09460084435809404, 0.951980278625153, -0.22960319663211703, 192.0, 0.0, 0.0, 0.0, 0.0, 0.0, 0.0, 0.0, 0.0, 0.0, 1.741811676604151E9, 0.0, 2025-03-12 15:34:36.604
108.0, -12826.97323882261, -29963.40751211733, -28557.572192856336, -25234.672455152566, -32308.172560712406, 5401.097881924854, 4990.161060114034, 34529.913607825474, -21359.41640846925, -26984.702287280834, -29831.129888430823, 6760.709793652272, -38521.37637393193, -17001.74266120704, 3707.1262248904977, 12557.411200691606, -0.09460084435809404, 0.951980278625153, -0.22960319663211703, 192.0, 0.0, 0.0, 0.0, 0.0, 0.0, 0.0, 0.0, 0.0, 0.0, 1.74181167660419E9, 0.0, 2025-03-12 15:34:36.604
110.0, -12827.084997544885, -29964.994485973657, -28560.7908440579, -25235.164193530585, -32311.480618891794, 5398.63919003477, 5007.997752189369, 34545.850401622105, -21347.726446119126, -26982.355354113028, -29825.005510450068, 6780.267570050665, -38515.69903084028, -16998.300492560924, 3706.3215620901065, 12563.222654249985, -0.09630042217904702, 0.9519901393125765, -0.2298015983160585, 192.0, 126.0, 120.0, 14.5, 96.0, 124.0, 104.0, 0.0, 0.0, 0.0, 1.741811676604221E9, 0.0, 2025-03-12 15:34:36.604
112.0, -12820.938267819676, -29952.388102100864, -28554.062968976854, -25228.86100159419, -32312.10646773654, 5404.897678482256, 4996.486603794886, 34520.23530247633, -21344.239573984098, -26978.153226155428, -29825.743118017093, 6765.962453599269, -38517.71068784126, -17006.07889963137, 3701.0689021431094, 12552.851444822723, -0.09630042217904702, 0.9519901393125765, -0.2298015983160585, 192.0, 0.0, 0.0, 0.0, 0.0, 0.0, 0.0, 0.0, 0.0, 0.0, 1.741811676604254E9, 0.0, 2025-03-12 15:34:36.604
114.0, -12815.417386939214, -29954.891497479857, -28554.487652121505, -25220.18852474553, -32312.53115088119, 5405.300009882451, 5012.4233975915195, 34546.81152663368, -21335.388283179796, -26969.346638840037, -29808.509923042053, 6794.684445224339, -38509.10526622597, -16992.109059346803, 3706.343913834562, 12565.01079380641, -0.09630042217904702, 0.9519901393125765, -0.2298015983160585, 192.0, 0.0, 0.0, 0.0, 0.0, 0.0, 0.0, 0.0, 0.0, 0.0, 1.741811676604284E9, 0.0, 2025-03-12 15:34:36.604
116.0, -12808.220125224607, -29948.36478809891, -28544.07173920533, -25212.9018560531, -32306.764400811724, 5413.301934397452, 4996.888935195081, 34525.91264556797, -21346.51945191854, -26969.883080706964, -29815.99775743458, 6784.469698008264, -38518.35888843046, -16997.384071038257, 3710.344876092062, 12565.658994395613, -0.09630042217904702, 0.9519901393125765, -0.2298015983160585, 192.0, 0.0, 0.0, 0.0, 0.0, 0.0, 0.0, 0.0, 0.0, 0.0, 1.741811676604318E9, 0.0, 2025-03-12 15:34:36.604
118.0, -12818.166651507217, -29958.467776592708, -28552.431291631616, -25220.635559634633, -32311.413563658425, 5399.108576668332, 5017.743112771883, 34567.88922165504, -21333.9354197902, -26964.608069015514, -29804.03957415099, 6804.809785462593, -38504.1878824458, -16986.69993718862, 3699.5489835201483, 12575.605520678226, -0.09630042217904702, 0.9519901393125765, -0.2298015983160585, 192.0, 0.0, 0.0, 0.0, 0.0, 0.0, 0.0, 0.0, 0.0, 0.0, 1.741811676604355E9, 0.0, 2025-03-12 15:34:36.604
120.0, -12824.939230077176, -29970.917698254314, -28561.215527202552, -25230.805603361798, -32321.717717852323, 5392.581867287382, 4993.1785456155, 34569.11856760008, -21353.046161299488, -26989.01617396071, -29822.122135415335, 6778.859410149981, -38519.208254719764, -17009.722233977584, 3725.946393721866, 12573.72797414398, -0.09415021108952351, 0.9539950696562882, -0.22990079915802925, 192.0, 126.5, 16.0, 14.5, 112.0, 124.0, 104.0, 0.0, 0.0, 0.0, 1.74181167666439E9, 0.0, 2025-03-12 15:34:36.664
122.0, -12818.077244529397, -29955.070311435502, -28552.49834686498, -25219.763841600878, -32320.264854462726, 5395.465242322117, 5003.661513765039, 34586.35176257513, -21347.346466463383, -26984.568176814104, -29813.18143763321, 6790.77288994466, -38513.553263372574, -17002.79319319644, 3710.5460417921595, 12562.932081572066, -0.09415021108952351, 0.9539950696562882, -0.22990079915802925, 192.0, 0.0, 0.0, 0.0, 0.0, 0.0, 0.0, 0.0, 0.0, 0.0, 1.741811676664439E9, 0.0, 2025-03-12 15:34:36.664
124.0, -12820.982971308586, -29956.21025040272, -28549.816137530346, -25221.41787069057, -32319.236674217784, 5400.784957502479, 4991.032778147791, 34560.5578494737, -21345.26775422904, -26977.773246499688, -29814.61194927835, 6794.505631268697, -38516.10136224048, -17004.827201941873, 3737.4798938608046, 12562.619157149693, -0.09415021108952351, 0.9539950696562882, -0.22990079915802925, 192.0, 0.0, 0.0, 0.0, 0.0, 0.0, 0.0, 0.0, 0.0, 0.0, 1.741811676664477E9, 0.0, 2025-03-12 15:34:36.664
126.0, -12813.495136916059, -29947.805994487524, -28548.944419496587, -25220.590856145725, -32310.810066558133, 5401.589620302871, 5017.676057538517, 34564.78232917575, -21335.03065526851, -26967.513795794704, -29809.22517886462, 6802.77577671716, -38506.15483595787, -16994.210123325603, 3709.7413789917687, 12557.210034991507, -0.09415021108952351, 0.9539950696562882, -0.22990079915802925, 192.0, 0.0, 0.0, 0.0, 0.0, 0.0, 0.0, 0.0, 0.0, 0.0, 1.741811676664508E9, 0.0, 2025-03-12 15:34:36.664
128.0, -12821.474709686603, -29961.395855116352, -28552.431291631616, -25231.811431862287, -32312.911130536933, 5399.600315046348, 5002.543926542274, 34557.49566048332, -21338.182251236707, -26978.354391855526, -29816.42244057923, 6790.996407389213, -38509.641708092895, -16999.351024550324, 3746.8676265320337, 12567.111857785208, -0.09415021108952351, 0.9539950696562882, -0.22990079915802925, 192.0, 0.0, 0.0, 0.0, 0.0, 0.0, 0.0, 0.0, 0.0, 0.0, 1.741811676664539E9, 0.0, 2025-03-12 15:34:36.664
130.0, -12804.15210773374, -29941.502802551127, -28541.88126824871, -25210.778440329843, -32297.555482096137, 5419.135739700287, 5024.225118663921, 34549.2031632904, -21341.60206813837, -26966.932650438866, -29806.23004510761, 6791.734014956238, -38501.17039694433, -16988.89040814524, 3709.2049371248413, 12547.576433131271, -0.09207510554476175, 0.9509975348281441, -0.23195039957901464, 192.0, 126.5, 24.0, 14.5, 80.0, 124.0, 88.0, 0.0, 0.0, 0.0, 1.741811676664573E9, 0.0, 2025-03-12 15:34:36.664
132.0, -12826.77207312251, -29955.427939346784, -28560.522623124438, -25226.022330048363, -32317.604996872546, 5408.384550617284, 5016.80433950476, 34564.670570453476, -21336.304704702463, -26963.132853881463, -29802.832579950405, 6804.295695340121, -38504.34434465699, -16978.206274295604, 3740.944414251377, 12572.655090410124, -0.09207510554476175, 0.9509975348281441, -0.23195039957901464, 192.0, 0.0, 0.0, 0.0, 0.0, 0.0, 0.0, 0.0, 0.0, 0.0, 1.741811676664606E9, 0.0, 2025-03-12 15:34:36.664
134.0, -12830.01307606853, -29953.93037246828, -28568.524547639438, -25229.66566439458, -32319.5272468957, 5398.996817946055, 5014.613868548139, 34575.287649069745, -21354.342562477894, -26976.20862438782, -29821.51863831504, 6774.590226959018, -38520.549359387085, -16992.533742491454, 3705.49454754526, 12557.366497202695, -0.09207510554476175, 0.9509975348281441, -0.23195039957901464, 192.0, 0.0, 0.0, 0.0, 0.0, 0.0, 0.0, 0.0, 0.0, 0.0, 1.741811676724628E9, 0.0, 2025-03-12 15:34:36.724
136.0, -12832.20354702515, -29964.435692362273, -28561.662562091657, -25231.297341739817, -32317.940273039374, 5402.774262759002, 5004.197955631967, 34575.08648336965, -21356.84595785689, -26982.981202957777, -29824.200847649678, 6778.032395605135, -38526.76314434566, -17007.93409442116, 3747.3593649100503, 12564.29553798384, -0.09207510554476175, 0.9509975348281441, -0.23195039957901464, 192.0, 0.0, 0.0, 0.0, 0.0, 0.0, 0.0, 0.0, 0.0, 0.0, 1.741811676724664E9, 0.0, 2025-03-12 15:34:36.724
138.0, -12825.498023688559, -29960.9711719717, -28558.734483568012, -25223.34012071373, -32314.654566604444, 5407.155204672242, 5020.514729084341, 34569.23032632236, -21338.606934381358, -26968.296106850637, -29810.409821320754, 6782.905075896392, -38514.35792617297, -16988.622187211775, 3703.4828905442823, 12547.62113662018, -0.09207510554476175, 0.9509975348281441, -0.23195039957901464, 192.0, 0.0, 0.0, 0.0, 0.0, 0.0, 0.0, 0.0, 0.0, 0.0, 1.741811676724707E9, 0.0, 2025-03-12 15:34:36.724
140.0, -12830.661276657735, -29951.65049453384, -28555.001742243978, -25224.18948700303, -32313.313461937127, 5407.177556416697, 5018.413665105541, 34567.17396583247, -21345.89360307379, -26971.62651677448, -29817.60708303536, 6796.874916180959, -38524.90794955587, -16995.439469270645, 3748.5663591106368, 12566.329546729274, -0.09103755277238088, 0.951498767414072, -0.23297519978950731, 192.0, 126.5, 24.0, 14.5, 96.0, 124.0, 88.0, 0.0, 0.0, 0.0, 1.741811676724745E9, 0.0, 2025-03-12 15:34:36.724
142.0, -12826.414445211227, -29949.616485788407, -28551.760739297955, -25220.85907707919, -32312.53115088119, 5405.0541406934435, 5016.379656360109, 34554.813451148686, -21339.32219020393, -26968.43021731737, -29814.1872661337, 6786.727224198249, -38519.90115879788, -16995.08184135936, 3712.602402282048, 12554.594880890238, -0.09103755277238088, 0.951498767414072, -0.23297519978950731, 192.0, 0.0, 0.0, 0.0, 0.0, 0.0, 0.0, 0.0, 0.0, 0.0, 1.741811676724781E9, 0.0, 2025-03-12 15:34:36.724
144.0, -12827.554384178447, -29947.515421809607, -28549.07852996332, -25215.6511206211, -32311.190046213873, 5407.378722116795, 5018.637182550095, 34565.25171580931, -21344.932478062212, -26973.548766797638, -29815.81894347894, 6798.305427826099, -38519.38706867541, -16999.485135017054, 3749.013393999743, 12576.141962545153, -0.09103755277238088, 0.951498767414072, -0.23297519978950731, 192.0, 0.0, 0.0, 0.0, 0.0, 0.0, 0.0, 0.0, 0.0, 0.0, 1.741811676724816E9, 0.0, 2025-03-12 15:34:36.724
146.0, -12827.889660345276, -29954.802090502035, -28549.592620085794, -25215.09232700972, -32314.721621837813, 5397.521602812005, 5014.949144714969, 34558.34502677262, -21350.140434520297, -26976.543900554647, -29815.17074288973, 6781.921599140358, -38514.82731280653, -16993.628977969765, 3719.1961668963636, 12566.754229873924, -0.09103755277238088, 0.951498767414072, -0.23297519978950731, 192.0, 0.0, 0.0, 0.0, 0.0, 0.0, 0.0, 0.0, 0.0, 0.0, 1.741811676724855E9, 0.0, 2025-03-12 15:34:36.724
148.0, -12828.068474300919, -29950.555259055527, -28547.60331482927, -25215.338196198725, -32315.280415449193, 5395.778166744491, 5013.56333655874, 34572.65014322402, -21346.094768773888, -26979.47197907829, -29813.874341711326, 6800.115919126978, -38518.91768204185, -16998.59106523884, 3750.2427399447847, 12577.684232912568, -0.09103755277238088, 0.951498767414072, -0.23297519978950731, 192.0, 0.0, 0.0, 0.0, 0.0, 0.0, 0.0, 0.0, 0.0, 0.0, 1.741811676724886E9, 0.0, 2025-03-12 15:34:36.724
150.0, -12814.29979971645, -29939.133517638867, -28534.974579212023, -25202.664757092567, -32305.557406611137, 5404.651809293247, 5007.662476022539, 34543.07878530965, -21339.36689369284, -26965.30097309363, -29806.94530093018, 6794.371520801964, -38507.20536794727, -16991.237341313048, 3711.529518548193, 12559.981651303966, -0.09351877638619044, 0.9517493837070361, -0.23148759989475365, 192.0, 126.5, 0.0, 14.5, 96.0, 124.0, 104.0, 0.0, 0.0, 0.0, 1.741811676784896E9, 0.0, 2025-03-12 15:34:36.784
152.0, -12812.131680504284, -29941.703968251226, -28531.890038477188, -25200.764858813865, -32304.305708921638, 5409.211565162131, 5016.983153460402, 34558.61324770609, -21329.532126132504, -26956.360275311505, -29797.915196170237, 6817.863204224492, -38503.070295223035, -16981.31316677489, 3743.7830857972012, 12578.15361954613, -0.09351877638619044, 0.9517493837070361, -0.23148759989475365, 192.0, 0.0, 0.0, 0.0, 0.0, 0.0, 0.0, 0.0, 0.0, 0.0, 1.741811676784932E9, 0.0, 2025-03-12 15:34:36.784
154.0, -12811.036445025975, -29937.59124727145, -28531.420651843626, -25199.6472715911, -32301.601147842546, 5412.430216363695, 5010.32233361272, 34531.27706423725, -21333.37662617882, -26954.862708433, -29798.98807990409, 6798.573648759562, -38498.91287075435, -16982.654271442207, 3732.182530424897, 12567.424782207583, -0.09351877638619044, 0.9517493837070361, -0.23148759989475365, 192.0, 0.0, 0.0, 0.0, 0.0, 0.0, 0.0, 0.0, 0.0, 0.0, 1.741811676784963E9, 0.0, 2025-03-12 15:34:36.784
156.0, -12828.180233023195, -29950.667017777803, -28549.994951485987, -25216.36637644367, -32319.281377706695, 5397.1863266451755, 5014.166833659034, 34564.670570453476, -21345.51362341805, -26965.70330449382, -29811.058021909957, 6807.313180841587, -38508.34530691449, -16989.762126178997, 3759.205789471363, 12578.734764901968, -0.09351877638619044, 0.9517493837070361, -0.23148759989475365, 192.0, 0.0, 0.0, 0.0, 0.0, 0.0, 0.0, 0.0, 0.0, 0.0, 1.741811676784995E9, 0.0, 2025-03-12 15:34:36.784
158.0, -12825.900355088754, -29939.379386827874, -28543.87057350523, -25213.930036298043, -32312.44174390337, 5406.149376171753, 4999.146461385067, 34528.5501514137, -21331.610838366847, -26965.09980739353, -29810.23100736511, 6787.263666065177, -38511.07221973804, -16988.5104284895, 3739.335088650595, 12556.204206491018, -0.09351877638619044, 0.9517493837070361, -0.23148759989475365, 192.0, 0.0, 0.0, 0.0, 0.0, 0.0, 0.0, 0.0, 0.0, 0.0, 1.741811676785027E9, 0.0, 2025-03-12 15:34:36.785
160.0, -12831.197718524661, -29960.702951038238, -28553.705341065568, -25225.463536436982, -32316.800334072155, 5396.40401558924, 5013.630391792106, 34560.51314598479, -21343.27844897252, -26968.877252206476, -29810.074545153922, 6799.780642960149, -38510.04403949309, -16985.64940519922, 3744.0289549862096, 12572.364517732207, -0.09575938819309522, 0.950874691853518, -0.22974379994737681, 192.0, 126.0, 120.0, 14.5, 88.0, 124.0, 112.0, 0.0, 0.0, 0.0, 1.741811676785068E9, 0.0, 2025-03-12 15:34:36.785
162.0, -12835.779826138, -29966.626163318895, -28557.527489367425, -25234.113661541185, -32321.337738196584, 5392.268942865007, 4995.391368316576, 34541.78238413124, -21358.969373580145, -26984.00938320272, -29823.954978460668, 6769.225808289744, -38517.46481865225, -17002.681434474165, 3747.3817166545055, 12560.406334448617, -0.09575938819309522, 0.950874691853518, -0.22974379994737681, 192.0, 0.0, 0.0, 0.0, 0.0, 0.0, 0.0, 0.0, 0.0, 0.0, 1.741811676785108E9, 0.0, 2025-03-12 15:34:36.785
164.0, -12842.7312186636, -29971.65530582134, -28570.670315107145, -25241.914420356086, -32328.758517355745, 5381.964788671111, 5020.559432573251, 34574.88531766955, -21357.494158446094, -26986.803351259634, -29819.99871969208, 6777.875933393948, -38515.07318199553, -17003.150821107723, 3740.720896806824, 12560.33927921525, -0.09575938819309522, 0.950874691853518, -0.22974379994737681, 192.0, 0.0, 0.0, 0.0, 0.0, 0.0, 0.0, 0.0, 0.0, 0.0, 1.74181167684379E9, 0.0, 2025-03-12 15:34:36.843
166.0, -12844.184082053194, -29965.776797029594, -28562.35546616977, -25240.595667433223, -32321.40479342995, 5390.100823652843, 5001.962781186436, 34546.4538987224, -21374.302670276484, -27002.807200289633, -29842.641036825305, 6748.058706290568, -38531.881693825926, -17021.479251561075, 3746.889978276489, 12546.123569741676, -0.09575938819309522, 0.950874691853518, -0.22974379994737681, 192.0, 0.0, 0.0, 0.0, 0.0, 0.0, 0.0, 0.0, 0.0, 0.0, 1.741811676843854E9, 0.0, 2025-03-12 15:34:36.843
168.0, -12843.044143085974, -29971.632954076882, -28566.825815060834, -25240.215687777483, -32316.979148027796, 5394.817041732913, 5025.096836697679, 34563.17300357497, -21358.522338691037, -26992.346583884548, -29830.23581865261, 6767.549427455596, -38519.38706867541, -17006.28006533147, 3726.304021633151, 12546.972936030978, -0.09575938819309522, 0.950874691853518, -0.22974379994737681, 192.0, 0.0, 0.0, 0.0, 0.0, 0.0, 0.0, 0.0, 0.0, 0.0, 1.741811676843889E9, 0.0, 2025-03-12 15:34:36.843
170.0, -12843.73704716409, -29977.153834957342, -28561.237878947006, -25240.215687777483, -32315.973319527307, 5399.086224923876, 5011.70814176895, 34542.63175042054, -21365.339620749906, -26992.05601120663, -29831.956902975668, 6761.603863430484, -38523.92447279984, -17000.245094328537, 3738.4857223612935, 12559.57931990377, -0.09687969409654762, 0.9514373459267591, -0.2268718999736884, 192.0, 126.0, 120.0, 14.5, 96.0, 124.5, 0.0, 0.0, 0.0, 0.0, 1.74181167684392E9, 0.0, 2025-03-12 15:34:36.843
172.0, -12845.905166376253, -29979.59017510297, -28563.40599815917, -25240.014522077385, -32316.085078249584, 5394.884096966279, 5022.302868640765, 34568.49271875533, -21357.60591716837, -27006.80816254713, -29832.135716931312, 6760.57568318554, -38524.05858326657, -17015.71250149161, 3721.453693086349, 12564.474351939483, -0.09687969409654762, 0.9514373459267591, -0.2268718999736884, 192.0, 0.0, 0.0, 0.0, 0.0, 0.0, 0.0, 0.0, 0.0, 0.0, 1.741811676843957E9, 0.0, 2025-03-12 15:34:36.843
174.0, -12847.290974532483, -29984.529910627596, -28558.153338212174, -25237.04174006483, -32315.950967782854, 5391.330169597884, 5000.50991779684, 34555.48400348234, -21370.9946120971, -26999.87912176599, -29826.70424302867, 6759.391040729409, -38522.40455417688, -17008.582295010365, 3744.520693364226, 12566.463657196005, -0.09687969409654762, 0.9514373459267591, -0.2268718999736884, 192.0, 0.0, 0.0, 0.0, 0.0, 0.0, 0.0, 0.0, 0.0, 0.0, 1.741811676843987E9, 0.0, 2025-03-12 15:34:36.843
176.0, -12845.055800086951, -29981.423018148307, -28558.64507659019, -25234.98537957494, -32317.336775939082, 5379.1708206141975, 5010.3670371016315, 34579.489777027346, -21384.673879703747, -27011.747898071757, -29831.643978553293, 6758.139343039911, -38530.9429205588, -17019.55700153792, 3726.885166988989, 12564.049668794833, -0.09687969409654762, 0.9514373459267591, -0.2268718999736884, 192.0, 0.0, 0.0, 0.0, 0.0, 0.0, 0.0, 0.0, 0.0, 0.0, 1.74181167684402E9, 0.0, 2025-03-12 15:34:36.844
178.0, -12842.865329130333, -29970.247145920654, -28552.833623031813, -25230.85030685071, -32321.605959130047, 5376.39920430174, 4996.6877694949835, 34571.35374204561, -21373.40860049827, -27006.070554980106, -29823.150315660278, 6765.537770454618, -38527.36664144595, -17020.339312593856, 3753.103763235064, 12567.87181709669, -0.09687969409654762, 0.9514373459267591, -0.2268718999736884, 192.0, 0.0, 0.0, 0.0, 0.0, 0.0, 0.0, 0.0, 0.0, 0.0, 1.741811676844052E9, 0.0, 2025-03-12 15:34:36.844
180.0, -12841.434817485193, -29980.238375692177, -28556.61106784476, -25227.765766115877, -32324.422278931415, 5376.421556046195, 5015.664400537539, 34579.44507353843, -21361.56217593696, -26997.44278162036, -29817.160048146256, 6773.450287991797, -38525.019708278145, -17010.817469455895, 3714.21172788283, 12552.985555289455, -0.09343984704827381, 0.9507186729633796, -0.2254359499868442, 192.0, 126.5, 24.0, 14.5, 88.0, 124.5, 0.0, 0.0, 0.0, 0.0, 1.741811676904017E9, 0.0, 2025-03-12 15:34:36.904
182.0, -12847.44743674367, -29976.79620704606, -28556.566364355847, -25230.582085917245, -32322.902360308453, 5377.382681057773, 4998.185336373489, 34573.56656474669, -21370.726391163636, -27003.455400878836, -29827.061870939957, 6769.2705117786545, -38532.88752232642, -17019.154670137726, 3750.3544986670613, 12565.413125206605, -0.09343984704827381, 0.9507186729633796, -0.2254359499868442, 192.0, 0.0, 0.0, 0.0, 0.0, 0.0, 0.0, 0.0, 0.0, 0.0, 1.741811676904085E9, 0.0, 2025-03-12 15:34:36.904
184.0, -12832.762340636533, -29962.80401501704, -28544.07173920533, -25213.32653919775, -32311.30180493615, 5390.458451564128, 5013.161005158545, 34573.99124789134, -21364.579661438427, -26988.926766982888, -29819.46227782515, 6770.76807865716, -38520.281138453625, -17004.760146708508, 3709.048474913654, 12558.931119314566, -0.09343984704827381, 0.9507186729633796, -0.2254359499868442, 192.0, 0.0, 0.0, 0.0, 0.0, 0.0, 0.0, 0.0, 0.0, 0.0, 1.741811676904126E9, 0.0, 2025-03-12 15:34:36.904
186.0, -12828.53786093448, -29954.73503526867, -28527.44204133058, -25203.111791981675, -32306.719697322813, 5407.35637037234, 5007.595420789173, 34578.95333516042, -21349.916917075745, -26983.070609935596, -29810.14160038729, 6783.508572996685, -38517.15189422988, -16992.511390747, 3756.612987114547, 12588.524828973394, -0.09343984704827381, 0.9507186729633796, -0.2254359499868442, 192.0, 0.0, 0.0, 0.0, 0.0, 0.0, 0.0, 0.0, 0.0, 0.0, 1.741811676904159E9, 0.0, 2025-03-12 15:34:36.904
188.0, -12813.718654360611, -29934.752575725626, -28524.089279662287, -25192.94174825451, -32306.272662433705, 5420.722713556614, 5018.324258127721, 34579.28861132725, -21337.958733792155, -26951.487595020248, -29789.89091991078, 6790.728186455749, -38497.6388213204, -16966.02457356746, 3722.9289082203995, 12584.34505276025, -0.09343984704827381, 0.9507186729633796, -0.2254359499868442, 192.0, 0.0, 0.0, 0.0, 0.0, 0.0, 0.0, 0.0, 0.0, 0.0, 1.741811676904194E9, 0.0, 2025-03-12 15:34:36.904
190.0, -12832.091788302874, -29946.755462498128, -28540.18253567011, -25209.437335662526, -32330.859581334542, 5412.027884963499, 4997.201859617456, 34605.44015233996, -21350.36395196485, -26970.464226062802, -29806.162989874243, 6795.176183602355, -38518.090667497, -16976.35107950581, 3772.572132655637, 12608.462585027526, -0.08971992352413691, 0.9503593364816898, -0.2247179749934221, 192.0, 126.5, 40.0, 14.5, 88.0, 124.5, 0.0, 0.0, 0.0, 0.0, 1.741811676904228E9, 0.0, 2025-03-12 15:34:36.904
192.0, -12825.63213415529, -29943.000369429636, -28532.56059081085, -25203.648233848602, -32312.642909603466, 5417.414655377228, 5000.956952685947, 34577.18754734845, -21338.338713447894, -26958.617801501492, -29801.491475283085, 6785.073195108556, -38509.82052204854, -16966.203387523103, 3718.9279459628997, 12579.941759102556, -0.08971992352413691, 0.9503593364816898, -0.2247179749934221, 192.0, 0.0, 0.0, 0.0, 0.0, 0.0, 0.0, 0.0, 0.0, 0.0, 1.74181167690426E9, 0.0, 2025-03-12 15:34:36.904
194.0, -12840.965430851631, -29956.813747503013, -28540.629570559213, -25220.83672533473, -32309.513665379724, 5402.371931358806, 5006.880164966603, 34583.44603579593, -21343.949001306177, -26974.219319131294, -29809.538103286995, 6790.147041099911, -38521.82340882104, -16979.368565007277, 3745.3700596535277, 12594.291579042861, -0.08971992352413691, 0.9503593364816898, -0.2247179749934221, 192.0, 0.0, 0.0, 0.0, 0.0, 0.0, 0.0, 0.0, 0.0, 0.0, 1.741811676964367E9, 0.0, 2025-03-12 15:34:36.964
196.0, -12837.299744760961, -29953.840965490457, -28540.27194264793, -25219.89795206761, -32299.924767008397, 5404.584754059882, 5009.6070777901505, 34559.32850352866, -21355.951888078678, -26983.115313424507, -29818.94818770268, 6763.302596009087, -38517.420115163346, -16995.059489614905, 3703.4158353109165, 12574.979671833476, -0.08971992352413691, 0.9503593364816898, -0.2247179749934221, 192.0, 0.0, 0.0, 0.0, 0.0, 0.0, 0.0, 0.0, 0.0, 0.0, 1.7418116769644E9, 0.0, 2025-03-12 15:34:36.964
198.0, -12842.418294241226, -29968.950744742247, -28542.976503727023, -25220.590856145725, -32303.29988042115, 5404.629457548793, 5016.111435426645, 34577.90280317102, -21358.32117299094, -26984.903452980932, -29820.80338249247, 6774.254950792188, -38518.78357157511, -16997.74169894954, 3734.462408359338, 12591.430555752582, -0.08971992352413691, 0.9503593364816898, -0.2247179749934221, 192.0, 0.0, 0.0, 0.0, 0.0, 0.0, 0.0, 0.0, 0.0, 0.0, 1.74181167696443E9, 0.0, 2025-03-12 15:34:36.964
200.0, -12844.92168962022, -29966.44734936325, -28549.167936941143, -25220.344986956716, -32309.53601712418, 5402.30487612544, 4999.258220107344, 34563.12830008606, -21365.451379472182, -26985.68576403687, -29825.698414528182, 6759.569854685052, -38525.28792921161, -17001.49679201803, 3708.5120330467266, 12579.785296891368, -0.09285996176206845, 0.950179668240845, -0.22435898749671107, 192.0, 126.5, 0.0, 14.5, 88.0, 124.5, 0.0, 0.0, 0.0, 0.0, 1.74181167696446E9, 0.0, 2025-03-12 15:34:36.964
202.0, -12848.475616988615, -29967.02849471909, -28545.859878761756, -25221.395518946116, -32313.469924148314, 5394.146489399253, 5003.594458531673, 34591.49266379984, -21370.65933593027, -26998.605072332037, -29826.748946517582, 6771.1480583129005, -38535.5473799166, -17006.011844398003, 3733.9259664924107, 12594.8727243987, -0.09285996176206845, 0.950179668240845, -0.22435898749671107, 192.0, 0.0, 0.0, 0.0, 0.0, 0.0, 0.0, 0.0, 0.0, 0.0, 1.741811676964493E9, 0.0, 2025-03-12 15:34:36.964
204.0, -12839.423160484215, -29963.96630572871, -28533.521715822426, -25213.192428731018, -32306.272662433705, 5397.298085367452, 4996.173679372511, 34558.4567854949, -21354.27550724453, -26989.57496757209, -29816.534199301506, 6760.24040701871, -38526.561978645565, -17001.765012951495, 3710.434283069883, 12574.018546821899, -0.09285996176206845, 0.950179668240845, -0.22435898749671107, 192.0, 0.0, 0.0, 0.0, 0.0, 0.0, 0.0, 0.0, 0.0, 0.0, 1.741811676964531E9, 0.0, 2025-03-12 15:34:36.964
206.0, -12835.802177882455, -29961.999352216644, -28527.822020986325, -25204.966986771466, -32304.931557766387, 5396.336960355873, 5011.574031302218, 34578.707465971405, -21350.431007198218, -26985.842226248056, -29806.721783485627, 6779.597017717007, -38520.79522857609, -16999.731004206064, 3725.924041977411, 12586.669634183603, -0.09285996176206845, 0.950179668240845, -0.22435898749671107, 192.0, 0.0, 0.0, 0.0, 0.0, 0.0, 0.0, 0.0, 0.0, 0.0, 1.741811676964568E9, 0.0, 2025-03-12 15:34:36.964
208.0, -12836.763302894033, -29960.993523716155, -28526.480916319004, -25201.837742547723, -32305.222130444305, 5395.577001044393, 4994.921981683014, 34555.75222441581, -21364.959641094167, -26984.545825069647, -29807.392335819288, 6768.778773400638, -38523.32097569954, -16997.339367549346, 3718.9055942184445, 12578.421840479594, -0.09285996176206845, 0.950179668240845, -0.22435898749671107, 192.0, 0.0, 0.0, 0.0, 0.0, 0.0, 0.0, 0.0, 0.0, 0.0, 1.741811676964601E9, 0.0, 2025-03-12 15:34:36.964
210.0, -12833.276430759006, -29953.952724212733, -28522.524657550417, -25199.669623335558, -32302.62932808749, 5397.678065023192, 5014.367999359131, 34582.84253869564, -21355.303687489475, -26981.215415145805, -29806.56532127444, 6789.275323066155, -38518.26948145265, -16998.23343732756, 3731.5790333246036, 12589.709471429524, -0.09342998088103423, 0.9500898341204225, -0.22417949374835555, 192.0, 126.5, 8.0, 14.5, 88.0, 124.5, 0.0, 0.0, 0.0, 0.0, 1.741811677024564E9, 0.0, 2025-03-12 15:34:37.024
212.0, -12830.661276657735, -29945.59317178645, -28516.847314458766, -25196.070992478253, -32297.287261162674, 5399.2426871350635, 5001.269877108321, 34560.62490470707, -21349.60399265337, -26975.62747903198, -29797.602271747863, 6785.408471275387, -38513.352097672476, -16990.857361657305, 3728.203919911852, 12581.05934632532, -0.09342998088103423, 0.9500898341204225, -0.22417949374835555, 192.0, 0.0, 0.0, 0.0, 0.0, 0.0, 0.0, 0.0, 0.0, 0.0, 1.74181167702461E9, 0.0, 2025-03-12 15:34:37.024
214.0, -12828.694323145668, -29955.427939346784, -28524.938645951588, -25201.010728002875, -32303.813970543622, 5390.614913775315, 5019.106569183657, 34595.001887679326, -21348.59816415288, -26975.180444142872, -29793.646012979272, 6797.2101923477885, -38513.285042439114, -16987.88457964475, 3723.711219276335, 12582.15458180363, -0.09342998088103423, 0.9500898341204225, -0.22417949374835555, 192.0, 0.0, 0.0, 0.0, 0.0, 0.0, 0.0, 0.0, 0.0, 0.0, 1.741811677024641E9, 0.0, 2025-03-12 15:34:37.024
