%OpenBCI Raw EXG Data
%Number of channels = 16
%Sample Rate = 125 Hz
%Board = OpenBCI_GUI$BoardCytonSerialDaisy
Sample Index, EXG Channel 0, EXG Channel 1, EXG Channel 2, EXG Channel 3, EXG Channel 4, EXG Channel 5, EXG Channel 6, EXG Channel 7, EXG Channel 8, EXG Channel 9, EXG Channel 10, EXG Channel 11, EXG Channel 12, EXG Channel 13, EXG Channel 14, EXG Channel 15, Accel Channel 0, Accel Channel 1, Accel Channel 2, Not Used, Digital Channel 0 (D11), Digital Channel 1 (D12), Digital Channel 2 (D13), Digital Channel 3 (D17), Not Used, Digital Channel 4 (D18), Analog Channel 0, Analog Channel 1, Analog Channel 2, Timestamp, Marker Channel, Timestamp (Formatted)
0.0, 8412.99544727748, 13096.334111253514, 3794.432138732927, 16318.025150063653, 11595.682692013108, 41957.33123509064, -7819.467225011257, 26706.46777230117, 0.0, 0.0, 0.0, 0.0, 0.0, 0.0, 0.0, 0.0, 0.0, 0.0, 0.0, 192.0, 0.0, 0.0, 0.0, 0.0, 0.0, 0.0, 0.0, 0.0, 0.0, 1.741806325074165E9, 0.0, 2025-03-12 14:05:25.074
16.0, 8421.444406681587, 13098.88221012142, 3788.7100921523684, 16292.342995684505, 11589.29009309889, 41941.37208954956, -7818.819024422053, 26707.697118246215, 11058.279700074161, 11416.01937008135, -4335.903148162741, 16427.57104963911, -1906.6261537821476, -3090.687464557584, 4391.760157556553, 39225.14339985173, 0.0, 0.0, 0.0, 192.0, 0.0, 0.0, 0.0, 0.0, 0.0, 0.0, 0.0, 0.0, 0.0, 1.741806325074207E9, 0.0, 2025-03-12 14:05:25.074
18.0, 8423.634877638207, 13092.467259462746, 3784.619722917047, 16310.961998815776, 11587.144325631181, 41951.02804315425, -7820.7412744452095, 26705.819571711967, 11058.436162285348, 11413.963009591462, -4344.419162800213, 16425.022950771207, -1904.815662481268, -3094.4425576260755, 4393.056558734961, 39221.92474865016, 0.0, 0.0, 0.0, 192.0, 0.0, 0.0, 0.0, 0.0, 0.0, 0.0, 0.0, 0.0, 0.0, 1.741806325074235E9, 0.0, 2025-03-12 14:05:25.074
20.0, 8421.2879444704, 13093.249570518681, 3776.2601704907624, 16297.685062609324, 11582.629273251208, 41947.228246596846, -7818.081416855028, 26709.01587116908, 11061.073668131074, 11411.794890379297, -4331.835130671875, 16433.40485494195, -1905.5979735372036, -3083.6019615652517, 4392.743634312586, 39229.792562698436, 0.0, 0.0, 0.0, 192.0, 0.0, 0.0, 0.0, 0.0, 0.0, 0.0, 0.0, 0.0, 0.0, 1.741806325074262E9, 0.0, 2025-03-12 14:05:25.074
22.0, 8425.467720683542, 13086.25347450417, 3773.823830345134, 16293.438231162816, 11582.495162784477, 41931.000880122294, -7821.590640734511, 26687.46878951416, 11051.484769759747, 11399.456727439969, -4349.627119258299, 16411.276627931195, -1896.7913862218127, -3094.5766680928077, 4375.666901548731, 39212.84994040131, -0.022, 0.972, -0.20800000000000002, 192.0, 127.5, 40.0, 15.0, 48.0, 124.5, 64.0, 0.0, 0.0, 0.0, 1.741806325074289E9, 0.0, 2025-03-12 14:05:25.074
24.0, 8412.123729243724, 13090.679119906321, 3776.3048739796727, 16286.59859735949, 11580.349395316767, 41935.001842379796, -7823.624649479944, 26682.149074333796, 11050.389534281438, 11396.998035549885, -4350.677651247698, 16418.38448266798, -1898.6689327560584, -3090.3521883907547, 4385.1663929422375, 39204.892719375224, -0.022, 0.972, -0.20800000000000002, 192.0, 0.0, 0.0, 0.0, 0.0, 0.0, 0.0, 0.0, 0.0, 0.0, 1.741806325074319E9, 0.0, 2025-03-12 14:05:25.074
26.0, 8424.975982305525, 13094.92595135283, 3792.3534264985833, 16293.751155585189, 11587.189029120093, 41936.186484835926, -7804.648018437389, 26706.311310089986, 11045.382743523449, 11392.214762236448, -4364.088697920883, 16406.24748542875, -1903.9662961919662, -3098.2200024390227, 4378.43851786119, 39213.58754796834, -0.022, 0.972, -0.20800000000000002, 192.0, 0.0, 0.0, 0.0, 0.0, 0.0, 0.0, 0.0, 0.0, 0.0, 1.741806325074367E9, 0.0, 2025-03-12 14:05:25.074
28.0, 8428.328743973821, 13091.819058873542, 3787.9948363297985, 16300.590789388514, 11587.300787842369, 41957.3535868351, -7802.904582369874, 26714.469696816173, 11052.602356982512, 11410.63259966762, -4348.844808202363, 16425.20176472685, -1888.9682756624552, -3089.636932568185, 4397.213983203648, 39250.78085074197, -0.022, 0.972, -0.20800000000000002, 192.0, 0.0, 0.0, 0.0, 0.0, 0.0, 0.0, 0.0, 0.0, 0.0, 1.741806325074403E9, 0.0, 2025-03-12 14:05:25.074
30.0, 8417.868127568738, 13091.662596662354, 3783.680949649924, 16296.075737008541, 11585.66911049713, 41961.51101130379, -7792.846297364986, 26712.56979853747, 11051.305955804106, 11403.703558886476, -4364.28986362098, 16405.666340072912, -1889.035330895821, -3081.880877242193, 4392.318951167936, 39273.467871364104, -0.022, 0.972, -0.20800000000000002, 192.0, 0.0, 0.0, 0.0, 0.0, 0.0, 0.0, 0.0, 0.0, 0.0, 1.74180632507443E9, 0.0, 2025-03-12 14:05:25.074
32.0, 8396.924543014115, 13091.863762362453, 3771.7004146218796, 16294.779335830133, 11582.919845929127, 41960.12520314756, -7788.822983363031, 26717.397775339818, 11045.829778412555, 11387.431488923012, -4369.944854968173, 16403.96760749431, -1878.5300110018268, -3084.4513278545533, 4403.15954722876, 39283.28028717999, -0.02, 0.97, -0.2, 192.0, 127.5, 48.0, 15.0, 40.0, 124.5, 96.0, 0.0, 0.0, 0.0, 1.741806325074457E9, 0.0, 2025-03-12 14:05:25.074
0.0, 4236.326126614347, 6459.274167928001, 1850.5679786882376, 8110.442234330444, 5466.119106545342, 20974.42996197104, -4051.3654412466817, 12871.609672499857, 5522.557261294993, 5702.622914626946, -2196.349465411838, 8197.926962128517, -942.9753950804943, -1543.119733705489, 2196.125947967285, 19640.679018578412, -0.024, 0.972, -0.2, 192.0, 127.5, 32.0, 15.0, 48.0, 124.5, 96.0, 0.0, 0.0, 0.0, 1.741806325228612E9, 0.0, 2025-03-12 14:05:25.228
2.0, 8463.689203702117, 12911.149908441295, 3692.441128783361, 16203.96419810822, 10924.236288575685, 41947.4517640414, -8108.899963963028, 25767.873319133916, 10883.757279367122, 11268.654318887511, -4474.260446341092, 15982.637224511771, -1839.392106460584, -3150.4783809755304, 4360.802991485953, 39053.54905766834, -0.024, 0.972, -0.2, 192.0, 0.0, 0.0, 0.0, 0.0, 0.0, 0.0, 0.0, 0.0, 0.0, 1.741806325228657E9, 0.0, 2025-03-12 14:05:25.228
4.0, 8474.686261974128, 12918.570687600457, 3710.21076562533, 16227.54528850857, 10933.534614269092, 41972.84334574263, -8089.878629431561, 25767.24747028917, 10885.903046834832, 11263.781638596254, -4483.402309823312, 15972.645994740249, -1839.9285483275114, -3148.4220204856424, 4368.402584600757, 39082.136938826676, -0.024, 0.972, -0.2, 192.0, 0.0, 0.0, 0.0, 0.0, 0.0, 0.0, 0.0, 0.0, 0.0, 1.741806325228725E9, 0.0, 2025-03-12 14:05:25.228
6.0, 8473.188695095623, 12922.281077180038, 3707.461501057327, 16219.297494804561, 10931.254736334651, 41960.28166535874, -8096.159469623503, 25761.39131324188, 10890.328692236984, 11271.13536252205, -4464.380975291846, 15989.052175170444, -1832.5077691683496, -3133.3792964672207, 4388.1615266992485, 39092.66461046512, -0.024, 0.972, -0.2, 192.0, 0.0, 0.0, 0.0, 0.0, 0.0, 0.0, 0.0, 0.0, 0.0, 1.741806325228752E9, 0.0, 2025-03-12 14:05:25.228
8.0, 8480.140087621223, 12925.298562681504, 3713.563527293626, 16219.58806748248, 10937.557928271048, 41953.509086788785, -8094.6842544894525, 25758.127958551402, 10889.076994547486, 11265.994461297329, -4478.373167320868, 15976.311680830919, -1836.0840482811986, -3145.3821832397207, 4381.634817318299, 39073.12918581119, -0.026000000000000002, 0.96, -0.20400000000000001, 192.0, 127.5, 24.0, 15.0, 0.0, 124.5, 80.0, 0.0, 0.0, 0.0, 1.74180632522878E9, 0.0, 2025-03-12 14:05:25.228
10.0, 8474.730965463039, 12910.904039252287, 3714.59170753857, 16224.103119862453, 10938.586108515992, 41956.34775833461, -8091.487955032344, 25763.224156287215, 10895.06726206151, 11269.03429854325, -4458.591873477921, 15987.465201314117, -1830.0043737893552, -3126.9866975530026, 4388.832079032908, 39070.78225264338, -0.026000000000000002, 0.96, -0.20400000000000001, 192.0, 0.0, 0.0, 0.0, 0.0, 0.0, 0.0, 0.0, 0.0, 0.0, 1.741806325228809E9, 0.0, 2025-03-12 14:05:25.228
12.0, 8463.53274149093, 12899.728167024634, 3702.834689955079, 16215.050663358053, 10930.852404934456, 41948.99403440882, -8097.791146968741, 25757.971496340215, 10879.510447920615, 11255.936176292442, -4479.334292332446, 15968.801494693935, -1837.6486703930702, -3155.172247311145, 4381.456003362657, 39066.55777294133, -0.026000000000000002, 0.96, -0.20400000000000001, 192.0, 0.0, 0.0, 0.0, 0.0, 0.0, 0.0, 0.0, 0.0, 0.0, 1.741806325228837E9, 0.0, 2025-03-12 14:05:25.228
14.0, 8472.093459617312, 12896.733033267623, 3708.40027432445, 16225.801852441056, 10932.34997181296, 41955.43133681194, -8098.08171964666, 25760.05020857456, 10876.448258930239, 11249.744743078321, -4473.656949240798, 15972.198959851143, -1832.8877488240898, -3156.468648489553, 4379.377291128313, 39063.58499092877, -0.026000000000000002, 0.96, -0.20400000000000001, 192.0, 0.0, 0.0, 0.0, 0.0, 0.0, 0.0, 0.0, 0.0, 0.0, 1.741806325228874E9, 0.0, 2025-03-12 14:05:25.228
16.0, 8471.042927627914, 12910.389949129814, 3705.2933818451625, 16220.772709938612, 10930.11479736743, 41951.430374554446, -8097.724091735375, 25763.201804542758, 10881.119773521397, 11255.243272214328, -4471.0417951395275, 15970.522579016993, -1840.5991006611707, -3155.440468244609, 4381.00896847355, 39066.06603456331, -0.026000000000000002, 0.96, -0.20400000000000001, 192.0, 0.0, 0.0, 0.0, 0.0, 0.0, 0.0, 0.0, 0.0, 0.0, 1.741806325288917E9, 0.0, 2025-03-12 14:05:25.288
18.0, 8473.032232884436, 12905.517268838557, 3702.879393443989, 16221.711483205734, 10927.745512455167, 41946.13301111854, -8101.903867948517, 25749.678999147298, 10893.770860883102, 11264.541597907735, -4456.915492643773, 15981.87726520029, -1841.0908390391874, -3146.6115291847623, 4383.244142919081, 39062.422700217096, -0.032, 0.9580000000000001, -0.20600000000000002, 192.0, 127.5, 0.0, 14.5, 120.0, 124.5, 72.0, 0.0, 0.0, 0.0, 1.741806325288964E9, 0.0, 2025-03-12 14:05:25.288
20.0, 8467.690165959617, 12913.675655564744, 3697.8502509415453, 16204.075956830498, 10924.34804729796, 41932.96783363436, -8108.721150007385, 25736.267952474114, 10888.562904425014, 11256.159693736994, -4473.187562607237, 15965.404029536729, -1850.232702521408, -3155.3287095223322, 4368.447288089667, 39033.79011556985, -0.032, 0.9580000000000001, -0.20600000000000002, 192.0, 0.0, 0.0, 0.0, 0.0, 0.0, 0.0, 0.0, 0.0, 0.0, 1.741806325288994E9, 0.0, 2025-03-12 14:05:25.288
22.0, 8467.466648515065, 12909.406472373781, 3700.554812020637, 16215.676512202803, 10927.164367099329, 41938.01932788126, -8113.683237276464, 25735.977379796193, 10891.222762015195, 11260.093600761129, -4457.273120555058, 15982.883093700779, -1845.941167585989, -3142.789380882905, 4370.414241601735, 39031.666699846595, -0.032, 0.9580000000000001, -0.20600000000000002, 192.0, 0.0, 0.0, 0.0, 0.0, 0.0, 0.0, 0.0, 0.0, 0.0, 1.74180632528904E9, 0.0, 2025-03-12 14:05:25.289
24.0, 8465.76791593646, 12916.26845792156, 3702.946448677355, 16212.010826112131, 10927.11966361042, 41946.244769840814, -8113.5267750652765, 25761.950106853263, 10889.747546881146, 11261.658222873, -4462.324614801957, 15979.619739010304, -1852.3784699891175, -3163.91177939317, 4368.916674723229, 39042.52964765187, -0.032, 0.9580000000000001, -0.20600000000000002, 192.0, 0.0, 0.0, 0.0, 0.0, 0.0, 0.0, 0.0, 0.0, 0.0, 1.741806325289088E9, 0.0, 2025-03-12 14:05:25.289
26.0, 8468.070145615357, 12911.12755669684, 3706.5227277902045, 16226.315942563528, 10929.578355500504, 41949.57517976465, -8118.757083267818, 25748.71787413572, 10896.050738817543, 11267.670842131478, -4444.3314605154355, 15996.07062292941, -1845.4047257190616, -3155.3510612667874, 4381.143078940282, 39056.92417108109, -0.032, 0.9580000000000001, -0.20600000000000002, 192.0, 0.0, 0.0, 0.0, 0.0, 0.0, 0.0, 0.0, 0.0, 0.0, 1.741806325289113E9, 0.0, 2025-03-12 14:05:25.289
28.0, 8458.771819921949, 12904.913771738264, 3700.8677364430114, 16210.87088714491, 10928.30430606655, 41939.71806045986, -8117.885365234061, 25755.84808061696, 10884.271369489596, 11260.495932161324, -4463.308091557991, 15983.441887312161, -1856.6923566689918, -3164.0905933488125, 4369.274302634514, 39029.87856029017, -0.038, 0.96, -0.212, 192.0, 127.0, 104.0, 15.0, 0.0, 124.5, 48.0, 0.0, 0.0, 0.0, 1.741806325289132E9, 0.0, 2025-03-12 14:05:25.289
30.0, 8466.326709547844, 12914.860298020876, 3714.144672649464, 16239.145843880875, 10934.316925325027, 41965.8025462392, -8117.483033833866, 25752.58472592649, 10890.798078870544, 11266.217978741883, -4449.874693140351, 15998.21639039712, -1844.4883041963942, -3150.858360631271, 4378.4161661167345, 39044.72011860849, -0.038, 0.96, -0.212, 192.0, 0.0, 0.0, 0.0, 0.0, 0.0, 0.0, 0.0, 0.0, 0.0, 1.741806325349066E9, 0.0, 2025-03-12 14:05:25.349
32.0, 8458.72711643304, 12912.491013108614, 3708.1991086243524, 16220.951523894255, 10930.651239234357, 41953.26321759978, -8119.002952456827, 25762.151272553358, 10892.854439360433, 11268.140228765038, -4453.9650623756725, 15995.109497917832, -1849.2492257653746, -3149.584311197318, 4380.360767884346, 39046.284740720366, -0.038, 0.96, -0.212, 192.0, 0.0, 0.0, 0.0, 0.0, 0.0, 0.0, 0.0, 0.0, 0.0, 1.74180632534909E9, 0.0, 2025-03-12 14:05:25.349
34.0, 8462.862189157271, 12914.12269045385, 3711.4177598259166, 16244.17498638332, 10929.69011422278, 41964.68495901644, -8113.258554131813, 25759.044380074072, 10885.925398579288, 11271.269472988783, -4457.876617655351, 15995.44477408466, -1846.1646850305422, -3140.5765581818296, 4372.537657324989, 39039.266292961394, -0.038, 0.96, -0.212, 192.0, 0.0, 0.0, 0.0, 0.0, 0.0, 0.0, 0.0, 0.0, 0.0, 1.74180632534914E9, 0.0, 2025-03-12 14:05:25.349
36.0, 8458.078915843835, 12913.139213697817, 3703.0582073996316, 16220.035102371587, 10925.35387579845, 41948.99403440882, -8121.260478646813, 25750.863641603428, 10890.283988748073, 11276.768002124787, -4459.93297814524, 15992.829619983391, -1838.5650919157376, -3137.112037791257, 4374.661073048243, 39036.472324904484, -0.038, 0.96, -0.212, 192.0, 0.0, 0.0, 0.0, 0.0, 0.0, 0.0, 0.0, 0.0, 0.0, 1.741806325349159E9, 0.0, 2025-03-12 14:05:25.349
38.0, 8460.269386800455, 12909.741748540611, 3710.054303414143, 16245.203166628262, 10931.053570634553, 41966.6072090396, -8115.963115210905, 25754.506975949644, 10890.641616659357, 11276.253912002316, -4460.178847334248, 15992.606102538837, -1846.7011268974695, -3137.8943488471928, 4371.598884057866, 39037.50050514943, -0.04, 0.96, -0.20800000000000002, 192.0, 127.0, 96.0, 15.0, 0.0, 124.5, 64.0, 0.0, 0.0, 0.0, 1.74180632534919E9, 0.0, 2025-03-12 14:05:25.349
40.0, 8453.072125085846, 12904.287922893516, 3696.4420910408608, 16219.945695393766, 10926.694980465769, 41953.82201121116, -8114.107920421115, 25756.89861260636, 10886.39478521285, 11272.275301489271, -4459.642405467321, 15989.029823425988, -1834.139446513587, -3138.81077036986, 4377.812669016441, 39044.13897325265, -0.04, 0.96, -0.20800000000000002, 192.0, 0.0, 0.0, 0.0, 0.0, 0.0, 0.0, 0.0, 0.0, 0.0, 1.741806325349214E9, 0.0, 2025-03-12 14:05:25.349
42.0, 8455.352003020287, 12897.917675723753, 3699.616038753514, 16229.489890276182, 10926.270297321118, 41956.07953740115, -8112.453891331422, 25753.81407187153, 10873.319014706494, 11267.290862475737, -4478.12729813186, 15975.752887219536, -1866.7059381849692, -3148.6678896746507, 4371.8447532468745, 39040.182714484064, -0.04, 0.96, -0.20800000000000002, 192.0, 0.0, 0.0, 0.0, 0.0, 0.0, 0.0, 0.0, 0.0, 0.0, 1.741806325349233E9, 0.0, 2025-03-12 14:05:25.349
44.0, 8448.53472096142, 12901.31514088096, 3684.282742057174, 16196.945750349254, 10919.20714607324, 41936.96879589186, -8119.807615257218, 25741.967647310215, 10872.939035050755, 11264.51924616328, -4472.226437595658, 15974.21061685212, -1858.2569787808632, -3153.585273454818, 4369.587227056888, 39027.10694397771, -0.04, 0.96, -0.20800000000000002, 192.0, 0.0, 0.0, 0.0, 0.0, 0.0, 0.0, 0.0, 0.0, 0.0, 1.741806325349252E9, 0.0, 2025-03-12 14:05:25.349
46.0, 8457.989508866014, 12895.794260000499, 3687.210820580819, 16197.817468383011, 10921.218803074218, 41931.4479150114, -8122.51217633631, 25730.79177508256, 10871.128543749875, 11253.633946613545, -4481.882391200351, 15957.53621548846, -1861.9673683604442, -3165.6328637162287, 4353.896302449262, 39012.1089234482, -0.036000000000000004, 0.9590000000000001, -0.20800000000000002, 192.0, 127.5, 0.0, 14.5, 120.0, 124.5, 64.0, 0.0, 0.0, 0.0, 1.741806325408474E9, 0.0, 2025-03-12 14:05:25.408
48.0, 8454.569691964352, 12898.632931546323, 3682.0922711005537, 16187.513314189115, 10917.039026861075, 41925.99408936431, -8120.880498991072, 25737.51965016361, 10873.475476917682, 11256.159693736994, -4473.656949240798, 15965.046401625445, -1855.0830310682097, -3160.983700869525, 4357.517285051023, 39003.212929154986, -0.036000000000000004, 0.9590000000000001, -0.20800000000000002, 192.0, 0.0, 0.0, 0.0, 0.0, 0.0, 0.0, 0.0, 0.0, 0.0, 1.741806325408511E9, 0.0, 2025-03-12 14:05:25.408
50.0, 8456.693107687606, 12900.17520191374, 3695.279800329185, 16219.677474460303, 10924.705675209247, 41960.236961869836, -8114.309086121212, 25755.579859683497, 10871.508523405615, 11256.18204548145, -4482.977626678661, 15959.927852145178, -1853.4066502340615, -3164.0905933488125, 4366.145058410771, 39032.78428706936, -0.036000000000000004, 0.9590000000000001, -0.20800000000000002, 192.0, 0.0, 0.0, 0.0, 0.0, 0.0, 0.0, 0.0, 0.0, 0.0, 1.741806325408529E9, 0.0, 2025-03-12 14:05:25.408
52.0, 8447.886520372214, 12894.40845184427, 3685.6461984689477, 16203.427756241294, 10917.530765239093, 41949.329310575646, -8122.936859480961, 25746.19212701227, 10875.598892640935, 11258.394868182526, -4473.947521918717, 15971.506055773027, -1841.9178535840338, -3152.4006309986867, 4378.4832213501, 39046.24003723145, -0.036000000000000004, 0.9590000000000001, -0.20800000000000002, 192.0, 0.0, 0.0, 0.0, 0.0, 0.0, 0.0, 0.0, 0.0, 0.0, 1.741806325408548E9, 0.0, 2025-03-12 14:05:25.408
54.0, 8460.828180411838, 12900.018739702553, 3698.565506764115, 16218.87281165991, 10925.01859963162, 41962.27097061527, -8110.866917475095, 25754.48462420519, 10876.112982763409, 11254.550368136212, -4483.938751690239, 15954.9657648761, -1846.522312941827, -3159.5308374799297, 4370.2577793905475, 39045.32361570878, -0.036000000000000004, 0.9590000000000001, -0.20800000000000002, 192.0, 0.0, 0.0, 0.0, 0.0, 0.0, 0.0, 0.0, 0.0, 0.0, 1.741806325408567E9, 0.0, 2025-03-12 14:05:25.408
56.0, 8455.016726853459, 12893.782602999521, 3693.11168111702, 16213.798965668557, 10922.962239141732, 41956.14659263451, -8111.783338997762, 25754.641086416377, 10883.220837500196, 11258.506626904802, -4467.532571260044, 15970.544930761449, -1835.2793854808076, -3155.8651513892596, 4380.159602184249, 39050.4198134446, -0.036000000000000004, 0.9585000000000001, -0.20700000000000002, 192.0, 127.0, 112.0, 14.5, 120.0, 124.5, 72.0, 0.0, 0.0, 0.0, 1.741806325408585E9, 0.0, 2025-03-12 14:05:25.408
58.0, 8456.223721054044, 12899.482297835624, 3696.39738755195, 16218.962218637733, 10921.487024007682, 41955.49839204531, -8112.073911675681, 25750.975400325704, 10873.654290873324, 11261.546464150724, -4488.543211048032, 15957.893843399746, -1839.1909407604865, -3162.0565846033796, 4370.637759046288, 39040.65210111762, -0.036000000000000004, 0.9585000000000001, -0.20700000000000002, 192.0, 0.0, 0.0, 0.0, 0.0, 0.0, 0.0, 0.0, 0.0, 0.0, 1.741806325408605E9, 0.0, 2025-03-12 14:05:25.408
60.0, 8457.117790832257, 12898.007082701575, 3697.962009663822, 16221.130337849896, 10918.8271664175, 41954.15728737799, -8113.102091920626, 25749.880164847396, 10875.218912985196, 11262.529940906757, -4470.907684672795, 15976.892826186757, -1838.2074640044527, -3147.751468151983, 4374.996349215073, 39046.30709246482, -0.036000000000000004, 0.9585000000000001, -0.20700000000000002, 192.0, 0.0, 0.0, 0.0, 0.0, 0.0, 0.0, 0.0, 0.0, 0.0, 1.741806325468267E9, 0.0, 2025-03-12 14:05:25.468
62.0, 8459.10709608878, 12898.878800735332, 3697.4702712858048, 16218.179907581796, 10918.916573395321, 41954.89489494501, -8113.504423320821, 25748.91903983582, 10876.112982763409, 11259.579510638656, -4484.050510412516, 15963.817055680402, -1839.6603273940477, -3154.725212422039, 4368.469639834123, 39039.15453423912, -0.036000000000000004, 0.9585000000000001, -0.20700000000000002, 192.0, 0.0, 0.0, 0.0, 0.0, 0.0, 0.0, 0.0, 0.0, 0.0, 1.741806325468302E9, 0.0, 2025-03-12 14:05:25.468
64.0, 8455.352003020287, 12901.516306581058, 3695.5033177737378, 16225.466576274226, 10919.743587940167, 41955.85601995659, -8113.683237276464, 25749.611943913933, 10883.086727033464, 11270.487161932846, -4457.988376377628, 15984.06773615691, -1836.329917470207, -3142.409401227165, 4375.801012015464, 39042.216723229496, -0.036000000000000004, 0.9585000000000001, -0.20700000000000002, 192.0, 0.0, 0.0, 0.0, 0.0, 0.0, 0.0, 0.0, 0.0, 0.0, 1.741806325468321E9, 0.0, 2025-03-12 14:05:25.468
66.0, 8451.753372162982, 12901.113975180862, 3691.725872960791, 16212.994302868165, 10919.676532706802, 41948.88227568654, -8114.823176243684, 25745.901554334352, 10876.269444974596, 11263.51341766279, -4480.071899899471, 15969.360288305317, -1842.1860745174974, -3153.0264798434355, 4367.352052611358, 39032.94074928055, -0.036000000000000004, 0.96025, -0.20550000000000002, 192.0, 127.0, 112.0, 15.0, 8.0, 124.5, 80.0, 0.0, 0.0, 0.0, 1.74180632546834E9, 0.0, 2025-03-12 14:05:25.468
68.0, 8457.095439087801, 12904.6455508048, 3695.8385939405675, 16221.64442797237, 10918.760111184134, 41954.134935633534, -8119.852318746129, 25744.33693222248, 10884.651349145335, 11271.42593519997, -4461.0058618790945, 15986.124096646798, -1836.8887110815897, -3142.9681948385473, 4370.526000324011, 39033.43248765856, -0.036000000000000004, 0.96025, -0.20550000000000002, 192.0, 0.0, 0.0, 0.0, 0.0, 0.0, 0.0, 0.0, 0.0, 0.0, 1.741806325468364E9, 0.0, 2025-03-12 14:05:25.468
70.0, 8452.915662874659, 12892.8438297324, 3681.377015277984, 16190.374337479394, 10908.25479129014, 41923.26717654076, -8128.6142025726085, 25707.054222471026, 10874.414250184805, 11258.216054226883, -4476.674434742265, 15965.515788259005, -1851.260882766352, -3161.5424944809074, 4352.5775495264, 39008.06325770179, -0.036000000000000004, 0.96025, -0.20550000000000002, 192.0, 0.0, 0.0, 0.0, 0.0, 0.0, 0.0, 0.0, 0.0, 0.0, 1.741806325468383E9, 0.0, 2025-03-12 14:05:25.468
72.0, 8466.371413036753, 12899.974036213642, 3700.3536463205396, 16226.382997796894, 10918.290724550572, 41952.57031352166, -8123.875632748084, 25746.147423523358, 10882.594988655448, 11262.887568818041, -4460.64823396781, 15982.50311404504, -1844.8682838521343, -3155.038136844413, 4352.823418715408, 39002.40826635459, -0.036000000000000004, 0.96025, -0.20550000000000002, 192.0, 0.0, 0.0, 0.0, 0.0, 0.0, 0.0, 0.0, 0.0, 0.0, 1.741806325468406E9, 0.0, 2025-03-12 14:05:25.468
74.0, 8455.44140999811, 12899.035262946518, 3689.401291537439, 16204.947674864254, 10910.020579102109, 41940.857999427084, -8139.074818977692, 25731.41762392731, 10880.091593276453, 11268.22963574286, -4466.8173154374745, 15984.313605345918, -1843.9071588405561, -3151.618319942751, 4360.646529274765, 39043.02138602989, -0.036000000000000004, 0.96025, -0.20550000000000002, 192.0, 0.0, 0.0, 0.0, 0.0, 0.0, 0.0, 0.0, 0.0, 0.0, 1.741806325468429E9, 0.0, 2025-03-12 14:05:25.468
76.0, 8462.839837412816, 12896.420108845248, 3702.9911521662657, 16223.745491951167, 10919.698884451258, 41947.83174369714, -8114.4655483323995, 25743.733435122187, 10881.05271828803, 11262.775810095765, -4461.564655490477, 15984.201846623642, -1843.8624553516456, -3156.200427556089, 4360.490067063578, 39015.4616851165, -0.037000000000000005, 0.959125, -0.20775, 192.0, 127.0, 104.0, 14.5, 120.0, 124.5, 56.0, 0.0, 0.0, 0.0, 1.741806325528568E9, 0.0, 2025-03-12 14:05:25.528
78.0, 8454.301471030889, 12898.454117590682, 3693.49166077276, 16202.891314374367, 10917.01667511662, 41939.13691510403, -8120.65698154652, 25736.200897240746, 10880.091593276453, 11261.300594961715, -4467.130239859848, 15975.93170117518, -1842.7895716177907, -3158.167381068156, 4377.075061449416, 39029.208007956506, -0.037000000000000005, 0.959125, -0.20775, 192.0, 0.0, 0.0, 0.0, 0.0, 0.0, 0.0, 0.0, 0.0, 0.0, 1.741806325528592E9, 0.0, 2025-03-12 14:05:25.528
80.0, 8461.588139723319, 12898.588228057413, 3701.582992265581, 16227.768805953123, 10920.682361207291, 41960.54988629221, -8117.907716978517, 25733.2728187171, 10882.48322993317, 11265.681536874956, -4458.971853133661, 15980.200884366142, -1832.9995075463662, -3155.9545583670806, 4382.43948011869, 39046.552961653826, -0.037000000000000005, 0.959125, -0.20775, 192.0, 0.0, 0.0, 0.0, 0.0, 0.0, 0.0, 0.0, 0.0, 0.0, 1.741806325528613E9, 0.0, 2025-03-12 14:05:25.528
82.0, 8451.44044774061, 12891.458021576169, 3690.474175271294, 16205.484116731182, 10911.92047738081, 41943.651967483995, -8122.579231569676, 25731.551734394045, 10874.570712395993, 11262.37347869557, -4468.2254753381585, 15971.774276706492, -1845.8741123526231, -3163.7106136930724, 4374.526962581511, 39034.460667903506, -0.037000000000000005, 0.959125, -0.20775, 192.0, 0.0, 0.0, 0.0, 0.0, 0.0, 0.0, 0.0, 0.0, 0.0, 1.741806325528643E9, 0.0, 2025-03-12 14:05:25.528
84.0, 8459.174151322146, 12893.536733810513, 3695.2350968402743, 16232.417968799828, 10916.480233249693, 41959.92403744746, -8120.634629802064, 25739.754824609143, 10874.302491462528, 11260.473580416869, -4463.889236913828, 15970.723744717092, -1851.6632141665477, -3159.2179130575555, 4369.184895656693, 39037.00876677141, -0.037000000000000005, 0.959125, -0.20775, 192.0, 0.0, 0.0, 0.0, 0.0, 0.0, 0.0, 0.0, 0.0, 0.0, 1.741806325528665E9, 0.0, 2025-03-12 14:05:25.528
86.0, 8453.317994274854, 12889.98280644212, 3685.1544600909306, 16208.836878399477, 10911.339332024972, 41941.975586649845, -8122.84745250314, 25738.05609203054, 10877.141163008353, 11263.98280429635, -4466.593797992921, 15971.081372628376, -1851.1714757885309, -3156.4462967450972, 4365.742727010575, 39034.2147987145, -0.037500000000000006, 0.9595625, -0.20887499999999998, 192.0, 127.0, 104.0, 15.0, 0.0, 124.5, 56.0, 0.0, 0.0, 0.0, 1.741806325528683E9, 0.0, 2025-03-12 14:05:25.528
88.0, 8462.213988568066, 12891.435669831715, 3694.0951578730537, 16227.634695486391, 10915.720273938212, 41954.53726703373, -8121.5063478358215, 25738.279609475092, 10879.421040942794, 11264.854522330108, -4464.917417158773, 15974.322375574397, -1851.3502897441733, -3153.71938392155, 4362.524075809011, 39025.072935232274, -0.037500000000000006, 0.9595625, -0.20887499999999998, 192.0, 0.0, 0.0, 0.0, 0.0, 0.0, 0.0, 0.0, 0.0, 0.0, 1.741806325528703E9, 0.0, 2025-03-12 14:05:25.528
90.0, 8453.407401252676, 12890.049861675485, 3686.629675224981, 16207.406366754338, 10914.401521015348, 41939.2486738263, -8121.6851617914635, 25738.167850752816, 10882.8185061, 11265.6591851305, -4462.212856079681, 15979.239759354563, -1851.3502897441733, -3160.335500280321, 4364.111049665338, 39024.53649336535, -0.037500000000000006, 0.9595625, -0.20887499999999998, 192.0, 0.0, 0.0, 0.0, 0.0, 0.0, 0.0, 0.0, 0.0, 0.0, 1.741806325588789E9, 0.0, 2025-03-12 14:05:25.588
92.0, 8455.709630931573, 12894.184934399716, 3695.078634629087, 16227.008846641642, 10918.380131528394, 41952.41385131048, -8116.611315800109, 25737.653760630343, 10880.449221187739, 11265.23450198585, -4462.972815391161, 15976.06581164191, -1852.9596153449554, -3155.8651513892596, 4362.546427553467, 39022.211911941995, -0.037500000000000006, 0.9595625, -0.20887499999999998, 192.0, 0.0, 0.0, 0.0, 0.0, 0.0, 0.0, 0.0, 0.0, 0.0, 1.741806325588813E9, 0.0, 2025-03-12 14:05:25.588
94.0, 8449.67465992864, 12888.999329686087, 3681.0640908556097, 16201.572561451503, 10913.574506470502, 41932.99018537882, -8125.4402548599555, 25721.42639415579, 10877.29762521954, 11259.065420516185, -4460.268254312069, 15977.25045409804, -1849.8527228656678, -3147.5726541963404, 4369.184895656693, 39016.266347916884, -0.037500000000000006, 0.9595625, -0.20887499999999998, 192.0, 0.0, 0.0, 0.0, 0.0, 0.0, 0.0, 0.0, 0.0, 0.0, 1.741806325588842E9, 0.0, 2025-03-12 14:05:25.588
96.0, 8454.413229753165, 12884.774849984033, 3687.657855469925, 16212.189640067774, 10913.462747748226, 41935.02419412425, -8127.630725816575, 25727.14844073635, 10869.988604782655, 11253.589243124634, -4473.925170174261, 15963.861759169313, -1859.039289836799, -3157.787401412416, 4352.398735570757, 38997.759103507895, -0.036750000000000005, 0.95978125, -0.2084375, 192.0, 127.0, 112.0, 15.0, 0.0, 124.5, 64.0, 0.0, 0.0, 0.0, 1.741806325588861E9, 0.0, 2025-03-12 14:05:25.588
98.0, 8452.222758796544, 12887.12178315184, 3691.5470590051486, 16214.15659357984, 10910.668779691314, 41946.602397752096, -8131.207004929424, 25730.098871004448, 10874.280139718074, 11260.585339139145, -4461.765821190575, 15979.329166332385, -1856.781763646813, -3161.944825881103, 4359.685404263188, 39014.455856616005, -0.036750000000000005, 0.95978125, -0.2084375, 192.0, 0.0, 0.0, 0.0, 0.0, 0.0, 0.0, 0.0, 0.0, 0.0, 1.741806325588881E9, 0.0, 2025-03-12 14:05:25.588
100.0, 8455.575520464841, 12890.742765753599, 3700.2865910871737, 16229.802814698556, 10913.619209959414, 41945.30599657369, -8123.94268798145, 25714.676167330286, 10874.347194951439, 11261.32294670617, -4464.336271802935, 15978.636262254271, -1854.524237456827, -3164.29175904891, 4364.803953743452, 39025.00587999891, -0.036750000000000005, 0.95978125, -0.2084375, 192.0, 0.0, 0.0, 0.0, 0.0, 0.0, 0.0, 0.0, 0.0, 0.0, 1.7418063255889E9, 0.0, 2025-03-12 14:05:25.588
102.0, 8455.642575698206, 12889.915751208753, 3704.9581056783327, 16227.254715830652, 10918.380131528394, 41952.34679607711, -8116.298391377734, 25743.66637988882, 10876.604721141424, 11264.429839185457, -4452.333385030435, 15986.526428046995, -1849.8750746101232, -3156.1557240671787, 4374.884590492796, 39024.40238289862, -0.036750000000000005, 0.95978125, -0.2084375, 192.0, 0.0, 0.0, 0.0, 0.0, 0.0, 0.0, 0.0, 0.0, 0.0, 1.741806325588918E9, 0.0, 2025-03-12 14:05:25.588
104.0, 8460.62701471174, 12895.034300689018, 3712.177719137397, 16231.59095425498, 10921.822300174512, 41954.64902575601, -8118.332400123168, 25737.296132719057, 10880.58333165447, 11266.106220019607, -4460.871751412363, 15978.59155876536, -1847.5951966756818, -3156.62511070074, 4383.847640019374, 39036.405269671115, -0.036750000000000005, 0.95978125, -0.2084375, 192.0, 0.0, 0.0, 0.0, 0.0, 0.0, 0.0, 0.0, 0.0, 0.0, 1.741806325588943E9, 0.0, 2025-03-12 14:05:25.588
106.0, 8450.591081451306, 12877.666995247246, 3706.1874516233747, 16224.371340795917, 10919.318904795517, 41948.479944286344, -8120.724036779886, 25729.160097737327, 10881.455049688228, 11265.212150241394, -4444.577329704443, 15986.749945491547, -1845.717650141436, -3156.1557240671787, 4384.719358053131, 39034.05833650331, -0.034375, 0.960890625, -0.20821875, 192.0, 127.5, 0.0, 15.0, 8.0, 124.5, 64.0, 0.0, 0.0, 0.0, 1.741806325649079E9, 0.0, 2025-03-12 14:05:25.649
108.0, 8453.966194864059, 12882.562027282958, 3704.8686987005117, 16223.700788462256, 10918.089558850475, 41947.83174369714, -8120.925202479983, 25731.752900094143, 10873.430773428772, 11261.278243217259, -4467.353757304401, 15968.019183638, -1853.4066502340615, -3156.714517678561, 4371.285959635492, 39023.64242358714, -0.034375, 0.960890625, -0.20821875, 192.0, 0.0, 0.0, 0.0, 0.0, 0.0, 0.0, 0.0, 0.0, 0.0, 1.741806325649156E9, 0.0, 2025-03-12 14:05:25.649
110.0, 8453.787380908416, 12881.26562610455, 3706.0086376677323, 16229.601648998458, 10916.904916394344, 41950.581008265144, -8121.886327491561, 25729.227152970692, 10876.895293819343, 11266.41914444198, -4447.728925672642, 15984.134791390275, -1851.3726414886287, -3138.0508110583796, 4377.276227149514, 39039.73567959496, -0.034375, 0.960890625, -0.20821875, 192.0, 0.0, 0.0, 0.0, 0.0, 0.0, 0.0, 0.0, 0.0, 0.0, 1.741806325649176E9, 0.0, 2025-03-12 14:05:25.649
112.0, 8450.43461924012, 12872.906073678265, 3699.1690038644083, 16217.73287269269, 10912.993361114664, 41944.32251981766, -8124.188557170458, 25726.835516313975, 10869.496866404637, 11257.970185037873, -4466.236170081636, 15966.9686516486, -1860.5145049708492, -3168.158610839678, 4363.775773498509, 39027.598682355725, -0.034375, 0.960890625, -0.20821875, 192.0, 0.0, 0.0, 0.0, 0.0, 0.0, 0.0, 0.0, 0.0, 0.0, 1.741806325649197E9, 0.0, 2025-03-12 14:05:25.649
114.0, 8451.283985529422, 12879.432783059214, 3703.080559144087, 16221.555020994547, 10914.379169270895, 41946.98237740784, -8124.166205426002, 25723.19218196776, 10876.33650020796, 11259.624214127567, -4444.398515748801, 15975.819942452901, -1856.9605776024555, -3159.1508578241896, 4372.62706430281, 39026.99518525543, -0.034375, 0.960890625, -0.20821875, 192.0, 0.0, 0.0, 0.0, 0.0, 0.0, 0.0, 0.0, 0.0, 0.0, 1.741806325649241E9, 0.0, 2025-03-12 14:05:25.649
116.0, 8453.876787886236, 12878.7398789811, 3698.4760997862936, 16208.792174910568, 10909.10415757944, 41938.287548814726, -8128.793016528251, 25719.593551110454, 10869.116886748898, 11255.287975703237, -4459.664757211775, 15964.39820103624, -1863.2414177943967, -3169.790288184916, 4368.112011922838, 39012.511254848396, -0.0331875, 0.9644453125, -0.206109375, 192.0, 127.5, 0.0, 15.0, 32.0, 124.5, 80.0, 0.0, 0.0, 0.0, 1.741806325649266E9, 0.0, 2025-03-12 14:05:25.649
118.0, 8460.62701471174, 12882.338509838404, 3705.762768478724, 16222.046759372564, 10910.221744802207, 41943.04847038371, -8135.766760798307, 25718.118335976404, 10878.705785120224, 11261.345298450626, -4437.78239939003, 15982.68192800068, -1851.7302693999136, -3160.067279346857, 4374.728128281609, 39008.28677514634, -0.0331875, 0.9644453125, -0.206109375, 192.0, 0.0, 0.0, 0.0, 0.0, 0.0, 0.0, 0.0, 0.0, 0.0, 1.741806325649287E9, 0.0, 2025-03-12 14:05:25.649
120.0, 8458.280081543933, 12888.172315141239, 3702.7005794883466, 16208.9262853773, 10903.8738493769, 41933.325461545646, -8148.70842083793, 25709.267045172102, 10878.415212442305, 11261.725278106365, -4446.745448916608, 15974.702355230136, -1863.5990457056816, -3164.850552660293, 4361.585302541888, 38995.00983893989, -0.0331875, 0.9644453125, -0.206109375, 192.0, 0.0, 0.0, 0.0, 0.0, 0.0, 0.0, 0.0, 0.0, 0.0, 1.741806325709368E9, 0.0, 2025-03-12 14:05:25.709
122.0, 8465.522046747452, 12890.36278609786, 3709.11553014702, 16230.741587965678, 10900.96812259771, 41954.49256354482, -8161.85124657765, 25718.341853420956, 10886.372433468394, 11272.968205567386, -4431.25569000908, 15987.867532714312, -1855.7759351463242, -3152.3782792542315, 4369.609578801344, 39015.57344383877, -0.0331875, 0.9644453125, -0.206109375, 192.0, 0.0, 0.0, 0.0, 0.0, 0.0, 0.0, 0.0, 0.0, 0.0, 1.741806325709398E9, 0.0, 2025-03-12 14:05:25.709
124.0, 8454.793209408905, 12885.177181384228, 3701.918268432411, 16211.854363900944, 10900.521087708603, 41944.25546458429, -8146.3391359256675, 25718.833591798975, 10881.05271828803, 11266.732068864354, -4447.952443117195, 15974.50118953004, -1865.6330544511145, -3154.9487298665917, 4365.541561310478, 39019.82027528528, -0.0331875, 0.9644453125, -0.206109375, 192.0, 0.0, 0.0, 0.0, 0.0, 0.0, 0.0, 0.0, 0.0, 0.0, 1.741806325709418E9, 0.0, 2025-03-12 14:05:25.709
126.0, 8455.597872209295, 12867.742820709089, 3699.4148730534166, 16226.427701285804, 10900.96812259771, 41953.01734841077, -8154.005784273838, 25718.207742954226, 10874.213084484707, 11261.457057172902, -4451.931053630239, 15973.696526729647, -1865.7224614289357, -3150.7689536534494, 4366.05565143295, 39015.640499072135, -0.032593750000000005, 0.9652226562499999, -0.2080546875, 192.0, 127.5, 0.0, 15.0, 24.0, 124.5, 56.0, 0.0, 0.0, 0.0, 1.741806325709458E9, 0.0, 2025-03-12 14:05:25.709
128.0, 8456.62605245424, 12871.207341099662, 3693.8939921729557, 16208.412195254827, 10904.119718565908, 41940.232150582335, -8133.643345075053, 25721.4710976447, 10862.031383756565, 11259.221882727372, -4466.593797992921, 15962.744171946548, -1868.0917463411984, -3167.8903899062148, 4362.121744408816, 39017.00395548391, -0.032593750000000005, 0.9652226562499999, -0.2080546875, 192.0, 0.0, 0.0, 0.0, 0.0, 0.0, 0.0, 0.0, 0.0, 0.0, 1.741806325709478E9, 0.0, 2025-03-12 14:05:25.709
130.0, 8459.330613533331, 12870.313271321449, 3703.9969806667546, 16231.278029832607, 10907.226611045196, 41948.79286870872, -8135.207967186924, 25727.886048303375, 10859.751505822123, 11253.991574524829, -4463.732774702642, 15967.370983048795, -1869.2540370528743, -3169.5444189959076, 4368.62610204531, 39006.74450477892, -0.032593750000000005, 0.9652226562499999, -0.2080546875, 192.0, 0.0, 0.0, 0.0, 0.0, 0.0, 0.0, 0.0, 0.0, 0.0, 1.741806325709502E9, 0.0, 2025-03-12 14:05:25.709
132.0, 8443.773799392438, 12861.573739239424, 3690.6753409713915, 16201.773727151602, 10904.343236010462, 41933.01253712327, -8133.397475886045, 25726.343777935956, 10856.95753776521, 11250.996440767818, -4457.586044977432, 15966.432209781673, -1869.4552027529721, -3167.5774654838406, 4369.654282290254, 39004.68814428904, -0.032593750000000005, 0.9652226562499999, -0.2080546875, 192.0, 0.0, 0.0, 0.0, 0.0, 0.0, 0.0, 0.0, 0.0, 0.0, 1.74180632570952E9, 0.0, 2025-03-12 14:05:25.709
134.0, 8453.273290785944, 12859.204454327162, 3701.0018469097436, 16224.348989051461, 10911.361683769428, 41950.93863617643, -8127.474263605388, 25734.211591984225, 10849.872034772878, 11249.387115167036, -4458.725983944653, 15962.58770973536, -1868.9858161194106, -3167.7339276950274, 4370.637759046288, 39003.30233613281, -0.032593750000000005, 0.9652226562499999, -0.2080546875, 192.0, 0.0, 0.0, 0.0, 0.0, 0.0, 0.0, 0.0, 0.0, 0.0, 1.741806325709539E9, 0.0, 2025-03-12 14:05:25.709
136.0, 8452.066296585357, 12858.377439782314, 3696.7103119743247, 16204.031253341587, 10905.438471488771, 41943.29433957271, -8129.418865373, 25729.33891169297, 10850.587290595447, 11247.151940721506, -4457.831914166441, 15961.02308762349, -1870.5727899757374, -3168.5832939843294, 4370.481296835101, 39007.28094664585, -0.035296875000000005, 0.968611328125, -0.20702734375, 192.0, 127.0, 104.0, 15.0, 48.0, 124.5, 72.0, 0.0, 0.0, 0.0, 1.741806325768743E9, 0.0, 2025-03-12 14:05:25.768
138.0, 8458.43654375512, 12857.013983370542, 3708.2885156021734, 16224.97483789621, 10909.841765146466, 41954.47021180036, -8129.932955495472, 25725.382652924378, 10852.040153985043, 11247.777789566255, -4454.277986798047, 15963.928814402678, -1869.2093335639638, -3171.8913521637146, 4373.610541058843, 39013.09240020423, -0.035296875000000005, 0.968611328125, -0.20702734375, 192.0, 0.0, 0.0, 0.0, 0.0, 0.0, 0.0, 0.0, 0.0, 0.0, 1.74180632576879E9, 0.0, 2025-03-12 14:05:25.768
140.0, 8453.787380908416, 12854.063553102442, 3703.080559144087, 16200.365567250916, 10904.63380868838, 41931.76083943377, -8131.1399496960585, 25715.927865019785, 10856.28698543155, 11246.213167454383, -4453.428620508745, 15965.53814000346, -1869.65636845307, -3176.562866754874, 4373.409375358746, 39010.23137691395, -0.035296875000000005, 0.968611328125, -0.20702734375, 192.0, 0.0, 0.0, 0.0, 0.0, 0.0, 0.0, 0.0, 0.0, 0.0, 1.74180632576881E9, 0.0, 2025-03-12 14:05:25.768
142.0, 8460.805828667382, 12850.30846003395, 3709.4731580583048, 16213.73191043519, 10905.125547066396, 41922.328403273634, -8129.418865373, 25694.55959732051, 10858.231587199163, 11243.195681952917, -4448.712402428675, 15964.48760801406, -1869.522257986338, -3181.3237883238544, 4362.881703720296, 38995.300411617805, -0.035296875000000005, 0.968611328125, -0.20702734375, 192.0, 0.0, 0.0, 0.0, 0.0, 0.0, 0.0, 0.0, 0.0, 0.0, 1.741806325768828E9, 0.0, 2025-03-12 14:05:25.768
144.0, 8454.323822775343, 12847.49214023258, 3711.618925526014, 16209.261561544128, 10901.169288297808, 41920.47320848384, -8133.576289841687, 25697.28651014406, 10859.125656977374, 11239.172367950961, -4440.799884891497, 15970.433172039173, -1869.1869818195084, -3183.0895761358233, 4358.254892618048, 38980.704722488495, -0.035296875000000005, 0.968611328125, -0.20702734375, 192.0, 0.0, 0.0, 0.0, 0.0, 0.0, 0.0, 0.0, 0.0, 0.0, 1.741806325768847E9, 0.0, 2025-03-12 14:05:25.768
146.0, 8465.544398491907, 12850.7331431786, 3723.174777409408, 16234.921364178821, 10905.796099400057, 41940.098040115605, -8129.3741618840895, 25711.27870217308, 10863.90893029081, 11246.906071532498, -4440.531663958033, 15974.612948252316, -1866.7059381849692, -3171.6007794857956, 4369.564875312433, 39019.552054351814, -0.029648437500000003, 0.9633056640625, -0.20451367187500002, 192.0, 127.5, 32.0, 14.5, 120.0, 124.5, 88.0, 0.0, 0.0, 0.0, 1.741806325768866E9, 0.0, 2025-03-12 14:05:25.768
148.0, 8464.851494413793, 12849.056762344451, 3715.4410738278716, 16229.579297254002, 10900.185811541774, 41954.78313622274, -8137.912528266017, 25707.344795148947, 10874.883636818366, 11255.735010592343, -4423.901966083285, 15985.989986180066, -1862.9061416275672, -3151.104229820279, 4382.193610929681, 39053.124374523686, -0.029648437500000003, 0.9633056640625, -0.20451367187500002, 192.0, 0.0, 0.0, 0.0, 0.0, 0.0, 0.0, 0.0, 0.0, 0.0, 1.741806325768886E9, 0.0, 2025-03-12 14:05:25.768
150.0, 8469.679471216139, 12859.02564037152, 3716.1339779059863, 16235.860137445945, 10904.67851217729, 41952.324444332655, -8141.980545756883, 25706.003690481626, 10878.281101975574, 11251.063496001185, -4437.648288923298, 15969.784971449968, -1870.7069004424693, -3160.3802037692317, 4372.0235672025165, 39045.94946455353, -0.029648437500000003, 0.9633056640625, -0.20451367187500002, 192.0, 0.0, 0.0, 0.0, 0.0, 0.0, 0.0, 0.0, 0.0, 0.0, 1.741806325829097E9, 0.0, 2025-03-12 14:05:25.829
152.0, 8467.287834559422, 12856.119913592329, 3708.8696609580115, 16225.958314652244, 10905.460823233227, 41945.618920996065, -8141.779380056785, 25700.303995645525, 10888.518200936103, 11260.652394372511, -4417.2187944911475, 15983.084259400877, -1863.263769538852, -3159.329671779832, 4380.427823117712, 39051.13506926716, -0.029648437500000003, 0.9633056640625, -0.20451367187500002, 192.0, 0.0, 0.0, 0.0, 0.0, 0.0, 0.0, 0.0, 0.0, 0.0, 1.741806325829181E9, 0.0, 2025-03-12 14:05:25.829
154.0, 8465.790267680915, 12850.241404800583, 3709.026123169199, 16228.506413520148, 10903.650331932347, 41942.042641883214, -8151.435333661478, 25698.33704213346, 10879.82337234299, 11250.459998900891, -4434.988431333117, 15963.861759169313, -1872.785612676813, -3164.6046834712847, 4368.491991578579, 39034.84064755925, -0.029648437500000003, 0.9633056640625, -0.20451367187500002, 192.0, 0.0, 0.0, 0.0, 0.0, 0.0, 0.0, 0.0, 0.0, 0.0, 1.7418063258292E9, 0.0, 2025-03-12 14:05:25.829
156.0, 8460.917587389658, 12847.045105343475, 3703.4828905442823, 16223.298457062061, 10901.057529575532, 41938.53341800373, -8157.537359897776, 25705.288434659058, 10878.079936275475, 11253.566891380178, -4427.657059151776, 15977.809247709423, -1868.9858161194106, -3169.075032362346, 4372.112974180338, 39032.62782485817, -0.02382421875, 0.9596528320312501, -0.20625683593750002, 192.0, 127.5, 56.0, 14.5, 112.0, 124.5, 64.0, 0.0, 0.0, 0.0, 1.741806325829219E9, 0.0, 2025-03-12 14:05:25.829
158.0, 8462.325747290342, 12847.536843721491, 3704.3099050891287, 16217.978741881698, 10900.96812259771, 41936.320595302655, -8158.587891887176, 25709.647024827842, 10870.167418738296, 11249.94590877842, -4446.723097172153, 15961.604232979327, -1873.6126272216593, -3173.4783260200415, 4367.642625289277, 39022.39072589764, -0.02382421875, 0.9596528320312501, -0.20625683593750002, 192.0, 0.0, 0.0, 0.0, 0.0, 0.0, 0.0, 0.0, 0.0, 0.0, 1.741806325829245E9, 0.0, 2025-03-12 14:05:25.829
160.0, 8463.979776380036, 12850.77784666751, 3703.572297522104, 16216.481175003193, 10897.861230118422, 41936.14178134701, -8172.71419438293, 25711.23399868417, 10875.643596129847, 11252.56106287969, -4433.200291776692, 15970.343765061352, -1869.522257986338, -3170.0585091183793, 4369.475468334612, 39009.47141760247, -0.02382421875, 0.9596528320312501, -0.20625683593750002, 192.0, 0.0, 0.0, 0.0, 0.0, 0.0, 0.0, 0.0, 0.0, 0.0, 1.741806325829268E9, 0.0, 2025-03-12 14:05:25.829
162.0, 8468.517180504463, 12857.483370004104, 3706.20980336783, 16218.425776770804, 10897.481250462683, 41942.80260119469, -8170.657833893041, 25721.89578078935, 10876.023575785586, 11254.796237325221, -4444.420867493256, 15959.972555634089, -1872.1597638320643, -3167.8009829283933, 4355.5279797945, 39014.50056010492, -0.02382421875, 0.9596528320312501, -0.20625683593750002, 192.0, 0.0, 0.0, 0.0, 0.0, 0.0, 0.0, 0.0, 0.0, 0.0, 1.741806325829287E9, 0.0, 2025-03-12 14:05:25.829
164.0, 8463.085706601823, 12845.34637276487, 3704.9804574227883, 16217.73287269269, 10898.800003385544, 41937.19231333641, -8171.082517037692, 25700.16988517879, 10870.457991416215, 11253.70100184691, -4428.975812074639, 15972.869512184801, -1864.3813567616173, -3163.241227059511, 4376.0692329489275, 39013.1594554376, -0.02382421875, 0.9596528320312501, -0.20625683593750002, 192.0, 0.0, 0.0, 0.0, 0.0, 0.0, 0.0, 0.0, 0.0, 0.0, 1.741806325829305E9, 0.0, 2025-03-12 14:05:25.829
166.0, 8462.996299624003, 12848.945003622175, 3699.5489835201483, 16201.818430640511, 10895.603703928437, 41931.269101055754, -8169.272025736813, 25722.342815678458, 10852.755409807613, 11244.961469764885, -4458.88244615584, 15948.72962817307, -1869.0752230972319, -3179.267427833966, 4364.558084554445, 38978.69306548752, -0.027912109375, 0.964826416015625, -0.21012841796875, 192.0, 127.5, 0.0, 15.0, 40.0, 124.5, 40.0, 0.0, 0.0, 0.0, 1.741806325888754E9, 0.0, 2025-03-12 14:05:25.888
168.0, 8469.143029349212, 12857.729239193111, 3709.2943441026623, 16224.348989051461, 10898.084747562974, 41958.78409848024, -8158.096153509159, 25747.71204563523, 10855.527026120071, 11259.89243506103, -4442.923300614751, 15968.555625504927, -1855.7759351463242, -3163.285930548421, 4368.357881111847, 39003.65996404409, -0.027912109375, 0.964826416015625, -0.21012841796875, 192.0, 0.0, 0.0, 0.0, 0.0, 0.0, 0.0, 0.0, 0.0, 0.0, 1.74180632588878E9, 0.0, 2025-03-12 14:05:25.888
170.0, 8470.417078783164, 12861.97607063962, 3713.004733682243, 16210.245038300161, 10899.738776652668, 41955.900723445506, -8149.446028404955, 25747.33206597949, 10851.123732462374, 11260.18300773895, -4460.670585712264, 15952.037686352454, -1854.2560165233633, -3167.9350933951255, 4372.336491624891, 39003.65996404409, -0.027912109375, 0.964826416015625, -0.21012841796875, 192.0, 0.0, 0.0, 0.0, 0.0, 0.0, 0.0, 0.0, 0.0, 0.0, 1.741806325888799E9, 0.0, 2025-03-12 14:05:25.888
172.0, 8477.256712586488, 12863.428934029214, 3724.1359024209864, 16232.820300200023, 10902.286875520573, 41978.58774406764, -8144.640403347064, 25760.407836485843, 10858.186883710252, 11273.079964289662, -4449.204140806692, 15964.867587669802, -1839.0121268048438, -3148.24320653, 4389.256762177559, 39039.758031339414, -0.027912109375, 0.964826416015625, -0.21012841796875, 192.0, 0.0, 0.0, 0.0, 0.0, 0.0, 0.0, 0.0, 0.0, 0.0, 1.741806325888829E9, 0.0, 2025-03-12 14:05:25.888
174.0, 8465.812619425371, 12868.726297465122, 3713.1611958934304, 16204.63475044188, 10895.424889972794, 41957.73356649084, -8149.378973171589, 25740.872411831908, 10854.230624941663, 11268.922539820975, -4462.481077013144, 15945.086293826855, -1840.2638244943412, -3159.5084857354746, 4384.473488864122, 39041.45676391802, -0.027912109375, 0.964826416015625, -0.21012841796875, 192.0, 0.0, 0.0, 0.0, 0.0, 0.0, 0.0, 0.0, 0.0, 0.0, 1.741806325888853E9, 0.0, 2025-03-12 14:05:25.888
176.0, 8475.468573030064, 12879.008099914563, 3721.8336727420897, 16220.817413427523, 10901.124584808897, 41970.49641257482, -8144.148664969047, 25746.61681015692, 10859.19271221074, 11273.23642650085, -4453.719193186664, 15943.409912992707, -1831.0102022898438, -3157.943863623603, 4388.228581932614, 39035.66766210409, -0.043956054687499996, 0.9664132080078125, -0.209064208984375, 192.0, 127.0, 16.0, 15.0, 32.0, 124.5, 64.0, 0.0, 0.0, 0.0, 1.741806325888871E9, 0.0, 2025-03-12 14:05:25.888
178.0, 8466.393764781209, 12877.376422569327, 3716.849233728556, 16195.314073004018, 10893.949674838743, 41954.93959843393, -8143.0534294907375, 25742.57114441051, 10856.801075554024, 11271.47063868888, -4465.498562514611, 15927.428415707162, -1829.333821455696, -3163.621206715251, 4387.558029598955, 39033.07485974728, -0.043956054687499996, 0.9664132080078125, -0.209064208984375, 192.0, 0.0, 0.0, 0.0, 0.0, 0.0, 0.0, 0.0, 0.0, 0.0, 1.741806325888891E9, 0.0, 2025-03-12 14:05:25.888
180.0, 8475.2003520966, 12878.583416769912, 3724.314716376629, 16214.8271459135, 10894.642578916857, 41964.79671773872, -8146.741467325863, 25738.257257730635, 10862.120790734387, 11276.94681608043, -4463.21868458017, 15925.930848828657, -1822.0024492743553, -3155.3510612667874, 4387.938009254695, 39031.62199635768, -0.043956054687499996, 0.9664132080078125, -0.209064208984375, 192.0, 0.0, 0.0, 0.0, 0.0, 0.0, 0.0, 0.0, 0.0, 0.0, 1.741806325949022E9, 0.0, 2025-03-12 14:05:25.949
182.0, 8461.968119379058, 12877.97991966962, 3707.394445823961, 16190.754317135135, 10887.490020691159, 41946.2000663519, -8156.3750691861005, 25718.163039465315, 10860.422058155782, 11275.42689745747, -4472.4052515513, 15918.510069669495, -1823.008277774844, -3161.9895293700138, 4371.91180848024, 39025.72113582148, -0.043956054687499996, 0.9664132080078125, -0.209064208984375, 192.0, 0.0, 0.0, 0.0, 0.0, 0.0, 0.0, 0.0, 0.0, 0.0, 1.741806325949046E9, 0.0, 2025-03-12 14:05:25.949
184.0, 8484.811602212381, 12877.21996035814, 3722.303059375651, 16214.134241835385, 10893.323825993995, 41951.96681642137, -8136.5937753431535, 25707.054222471026, 10864.110095990909, 11275.270435246282, -4471.310016072991, 15920.700540626114, -1820.3931236735732, -3160.424907258142, 4369.296654378969, 39026.548150366325, -0.043956054687499996, 0.9664132080078125, -0.209064208984375, 192.0, 0.0, 0.0, 0.0, 0.0, 0.0, 0.0, 0.0, 0.0, 0.0, 1.741806325949079E9, 0.0, 2025-03-12 14:05:25.949
186.0, 8472.518142761963, 12875.230655101617, 3705.405140567439, 16191.044889813054, 10883.019671800099, 41930.15151383299, -8157.135028497581, 25675.918242444783, 10869.407459426817, 11266.597958397622, -4473.12050737387, 15916.878392324257, -1820.3707719291178, -3167.0633753613683, 4367.933197967195, 39018.99326074043, -0.048978027343749994, 0.9642066040039062, -0.2045321044921875, 192.0, 127.0, 40.0, 15.0, 8.0, 124.5, 96.0, 0.0, 0.0, 0.0, 1.741806325949098E9, 0.0, 2025-03-12 14:05:25.949
188.0, 8491.673587760162, 12881.31032959346, 3720.693733774869, 16224.237230329185, 10889.211105014218, 41950.17867686495, -8141.600566101142, 25693.62082405339, 10870.122715249387, 11265.458019430402, -4473.411080051789, 15917.258371979997, -1822.0248010188104, -3169.499715506997, 4362.948758953662, 39024.804714298814, -0.048978027343749994, 0.9642066040039062, -0.2045321044921875, 192.0, 0.0, 0.0, 0.0, 0.0, 0.0, 0.0, 0.0, 0.0, 0.0, 1.741806325949119E9, 0.0, 2025-03-12 14:05:25.949
190.0, 8483.269331844966, 12868.88275967631, 3709.7413789917687, 16212.63667495688, 10888.026462558088, 41947.4517640414, -8130.13412119557, 25680.589757035945, 10879.398689198339, 11273.839923601143, -4464.35862354739, 15931.876412853768, -1818.3144114392296, -3154.367584510754, 4382.9982737300725, 39068.61413343121, -0.048978027343749994, 0.9642066040039062, -0.2045321044921875, 192.0, 0.0, 0.0, 0.0, 0.0, 0.0, 0.0, 0.0, 0.0, 0.0, 1.741806325949138E9, 0.0, 2025-03-12 14:05:25.949
192.0, 8493.148802894211, 12877.97991966962, 3716.8715854730112, 16233.982590911699, 10891.848610859945, 41964.282627616245, -8125.239089159858, 25697.37591712188, 10873.743697851145, 11264.966281052386, -4468.650158482809, 15923.67332263867, -1822.1589114855424, -3160.402555513687, 4377.231523660604, 39069.39644448715, -0.048978027343749994, 0.9642066040039062, -0.2045321044921875, 192.0, 0.0, 0.0, 0.0, 0.0, 0.0, 0.0, 0.0, 0.0, 0.0, 1.741806325949156E9, 0.0, 2025-03-12 14:05:25.949
194.0, 8489.863096459281, 12877.465829547147, 3709.361399336028, 16221.376207038906, 10887.400613713338, 41960.92986594795, -8128.949478739439, 25685.350678604926, 10883.44435494475, 11276.432725957959, -4459.575350233955, 15939.788930390947, -1821.6895248519809, -3147.952633852081, 4383.825288274919, 39088.59659297426, -0.048978027343749994, 0.9642066040039062, -0.2045321044921875, 192.0, 0.0, 0.0, 0.0, 0.0, 0.0, 0.0, 0.0, 0.0, 0.0, 1.741806325949178E9, 0.0, 2025-03-12 14:05:25.949
196.0, 8492.522954049464, 12878.672823747735, 3711.976553437299, 16230.562774010037, 10889.032291058576, 41967.009540439794, -8130.625859573586, 25680.723867502675, 10881.67856713278, 11277.03622305825, -4467.532571260044, 15933.508090199006, -1822.8965190525676, -3147.5055989629745, 4377.589151571889, 39079.65589519214, -0.042489013671875, 0.965103302001953, -0.20026605224609376, 192.0, 127.0, 112.0, 15.0, 24.0, 124.5, 112.0, 0.0, 0.0, 0.0, 1.741806326009292E9, 0.0, 2025-03-12 14:05:26.009
198.0, 8492.165326138178, 12877.26466384705, 3708.02029466871, 16209.64154119987, 10889.7698986256, 41952.63736875503, -8132.413999130011, 25679.628632024367, 10881.67856713278, 11277.460906202901, -4464.425678780756, 15935.72091290008, -1822.7624085858356, -3150.254863530977, 4378.930256239207, 39068.077691564285, -0.042489013671875, 0.965103302001953, -0.20026605224609376, 192.0, 0.0, 0.0, 0.0, 0.0, 0.0, 0.0, 0.0, 0.0, 0.0, 1.741806326009317E9, 0.0, 2025-03-12 14:05:26.009
200.0, 8496.121584906768, 12874.716564979144, 3714.010562182732, 16218.246962815163, 10894.955503339232, 41956.92890369045, -8130.379990384578, 25677.61697502339, 10878.325805464483, 11274.130496279062, -4472.092327128927, 15925.036779050444, -1821.8906905520787, -3141.6494419156843, 4376.695081793676, 39064.74728164045, -0.042489013671875, 0.965103302001953, -0.20026605224609376, 192.0, 0.0, 0.0, 0.0, 0.0, 0.0, 0.0, 0.0, 0.0, 0.0, 1.741806326009335E9, 0.0, 2025-03-12 14:05:26.009
202.0, 8490.198372626111, 12873.286053334004, 3706.9027074459445, 16205.081785330987, 10889.971064325699, 41951.430374554446, -8137.577252099187, 25676.231166867157, 10877.029404286075, 11274.354013723614, -4464.962120647683, 15932.546965187428, -1820.0578475067434, -3124.304488218366, 4376.046881204472, 39057.237095503464, -0.042489013671875, 0.965103302001953, -0.20026605224609376, 192.0, 0.0, 0.0, 0.0, 0.0, 0.0, 0.0, 0.0, 0.0, 0.0, 1.741806326009365E9, 0.0, 2025-03-12 14:05:26.009
204.0, 8496.2556953735, 12878.292844091993, 3710.4566348143385, 16211.899067389855, 10889.456974203227, 41945.93184541844, -8142.762856812818, 25662.41778879378, 10873.877808317877, 11271.649452644522, -4478.529629532055, 15925.193241261632, -1825.5116731538385, -3166.884561405726, 4365.318043865925, 39037.34404293824, -0.042489013671875, 0.965103302001953, -0.20026605224609376, 192.0, 0.0, 0.0, 0.0, 0.0, 0.0, 0.0, 0.0, 0.0, 0.0, 1.741806326009383E9, 0.0, 2025-03-12 14:05:26.009
206.0, 8490.019558670469, 12879.41043131476, 3707.014466168221, 16215.430643013793, 10889.501677692137, 41959.85698221409, -8148.2166824599135, 25661.858995182396, 10878.549322909037, 11277.952644580919, -4459.97768163415, 15941.15238680272, -1822.4047806745507, -3151.4171542426534, 4374.079927692405, 39059.96400832701, -0.0392445068359375, 0.9605516510009766, -0.1981330261230469, 192.0, 127.0, 112.0, 14.5, 112.0, 124.5, 112.0, 0.0, 0.0, 0.0, 1.741806326009405E9, 0.0, 2025-03-12 14:05:26.009
208.0, 8491.941808693626, 12874.269530090038, 3703.9969806667546, 16207.339311520973, 10891.759203882124, 41951.29626408771, -8143.791037057762, 25662.238974838136, 10873.073145517486, 11276.052746302217, -4478.999016165616, 15927.987209318544, -1826.4504464209613, -3157.4744769900417, 4364.938064210184, 39061.841554861254, -0.0392445068359375, 0.9605516510009766, -0.1981330261230469, 192.0, 0.0, 0.0, 0.0, 0.0, 0.0, 0.0, 0.0, 0.0, 0.0, 1.741806326009425E9, 0.0, 2025-03-12 14:05:26.009
210.0, 8491.092442404324, 12871.989652155597, 3701.7394544767685, 16208.658064443836, 10892.139183537864, 41945.127182618045, -8137.219624187902, 25660.339076559434, 10878.996357798143, 11275.695118390933, -4466.5043910151, 15937.77727338997, -1820.4825306513944, -3156.0886688338123, 4369.408413101246, 39050.64333088915, -0.0392445068359375, 0.9605516510009766, -0.1981330261230469, 192.0, 0.0, 0.0, 0.0, 0.0, 0.0, 0.0, 0.0, 0.0, 0.0, 1.741806326069592E9, 0.0, 2025-03-12 14:05:26.069
212.0, 8491.53947729343, 12874.001309156574, 3706.6791900013914, 16216.503526747649, 10891.24511375965, 41957.04066241273, -8142.360525412622, 25654.259402067593, 10877.990529297655, 11272.297653233725, -4474.2157428521805, 15930.267087252985, -1826.4504464209613, -3156.0216136004465, 4378.259703905547, 39073.598572444746, -0.0392445068359375, 0.9605516510009766, -0.1981330261230469, 192.0, 0.0, 0.0, 0.0, 0.0, 0.0, 0.0, 0.0, 0.0, 0.0, 1.741806326069672E9, 0.0, 2025-03-12 14:05:26.069
214.0, 8488.812564469883, 12875.610634757357, 3706.768596979213, 16222.024407628109, 10892.206238771229, 41954.425508311455, -8141.108827723126, 25653.07475961146, 10887.19944801324, 11279.226694014871, -4452.713364686175, 15948.707276428615, -1822.2259667189082, -3152.4229827431423, 4380.807802773453, 39075.81139514582, -0.0392445068359375, 0.9605516510009766, -0.1981330261230469, 192.0, 0.0, 0.0, 0.0, 0.0, 0.0, 0.0, 0.0, 0.0, 0.0, 1.741806326069691E9, 0.0, 2025-03-12 14:05:26.069
216.0, 8485.750375479505, 12866.289957319494, 3700.465405042816, 16208.546305721558, 10893.145012038352, 41946.53534251873, -8140.550034111743, 25649.58788747643, 10878.504619420126, 11272.387060211548, -4473.500487029611, 15932.815186120892, -1829.8255598337128, -3160.3131485358654, 4374.236389903592, 39060.29928449384, -0.03362225341796875, 0.9582758255004884, -0.20106651306152346, 192.0, 127.5, 16.0, 14.5, 112.0, 124.5, 80.0, 0.0, 0.0, 0.0, 1.741806326069724E9, 0.0, 2025-03-12 14:05:26.069
218.0, 8486.823259213359, 12868.078096875919, 3705.6510097564474, 16219.945695393766, 10895.49194520616, 41955.07370890066, -8141.04177248976, 25651.532489244044, 10885.29954973454, 11276.812705613698, -4457.206065321692, 15947.321468272385, -1824.8187690757238, -3142.5658634383517, 4377.902075994262, 39056.477136191985, -0.03362225341796875, 0.9582758255004884, -0.20106651306152346, 192.0, 0.0, 0.0, 0.0, 0.0, 0.0, 0.0, 0.0, 0.0, 0.0, 1.741806326069748E9, 0.0, 2025-03-12 14:05:26.069
220.0, 8475.803849196893, 12860.612614227846, 3694.1622131064196, 16199.851477128444, 10890.932189337276, 41944.90366517349, -8142.762856812818, 25648.582058975942, 10876.001224041132, 11274.309310234703, -4468.761917205085, 15939.386598990752, -1834.005336046855, -3157.362718267765, 4368.894322978774, 39047.53643840986, -0.03362225341796875, 0.9582758255004884, -0.20106651306152346, 192.0, 0.0, 0.0, 0.0, 0.0, 0.0, 0.0, 0.0, 0.0, 0.0, 1.741806326069767E9, 0.0, 2025-03-12 14:05:26.069
222.0, 8473.72513696255, 12851.515454234535, 3696.3526840630398, 16210.714424933723, 10889.613436414415, 41949.39636580901, -8151.055354005737, 25632.93583785723, 10872.827276328479, 11266.977938053364, -4458.12248684436, 15945.354514760318, -1834.3182604692295, -3162.7718404259494, 4367.463811333634, 39036.02529001538, -0.03362225341796875, 0.9582758255004884, -0.20106651306152346, 192.0, 0.0, 0.0, 0.0, 0.0, 0.0, 0.0, 0.0, 0.0, 0.0, 1.741806326069786E9, 0.0, 2025-03-12 14:05:26.069
224.0, 8466.349061292298, 12849.883776889299, 3687.434338025372, 16186.216913010707, 10884.316072978507, 41932.72196444535, -8154.56457788522, 25637.87557338185, 10864.087744246453, 11257.970185037873, -4472.427603295756, 15932.546965187428, -1842.811923362246, -3171.332558552332, 4352.868122204319, 39019.57440609627, -0.03362225341796875, 0.9582758255004884, -0.20106651306152346, 192.0, 0.0, 0.0, 0.0, 0.0, 0.0, 0.0, 0.0, 0.0, 0.0, 1.741806326069805E9, 0.0, 2025-03-12 14:05:26.069
226.0, 8469.478305516042, 12846.978050110109, 3693.5587160061264, 16202.153706807341, 10889.836953858967, 41938.73458370383, -8152.307051695235, 25630.946532600705, 10864.892407046844, 11259.5571588942, -4466.772611948563, 15938.045494323433, -1842.5660541732377, -3169.00797712898, 4349.649471002755, 39004.106998933195, -0.026811126708984376, 0.9611379127502442, -0.2075332565307617, 192.0, 127.5, 48.0, 15.0, 16.0, 124.5, 40.0, 0.0, 0.0, 0.0, 1.741806326129012E9, 0.0, 2025-03-12 14:05:26.129
228.0, 8465.38793628072, 12847.246271043572, 3689.5801054930816, 16191.15664853533, 10888.987587569665, 41943.093173872614, -8142.539339368265, 25656.472224768666, 10859.662098844303, 11257.903129804508, -4471.488830028633, 15935.385636733252, -1839.9509000719668, -3167.5998172282957, 4360.0430321744725, 39016.959251995, -0.026811126708984376, 0.9611379127502442, -0.2075332565307617, 192.0, 0.0, 0.0, 0.0, 0.0, 0.0, 0.0, 0.0, 0.0, 0.0, 1.741806326129088E9, 0.0, 2025-03-12 14:05:26.129
230.0, 8475.356814307788, 12855.337602536394, 3701.11360563202, 16222.024407628109, 10889.859305603422, 41959.029967669245, -8143.925147524495, 25656.42752127976, 10862.634880856858, 11265.010984541295, -4461.162324090281, 15950.9648026186, -1838.9674233159333, -3154.725212422039, 4362.501724064556, 39037.90283654962, -0.026811126708984376, 0.9611379127502442, -0.2075332565307617, 192.0, 0.0, 0.0, 0.0, 0.0, 0.0, 0.0, 0.0, 0.0, 0.0, 1.741806326129107E9, 0.0, 2025-03-12 14:05:26.129
232.0, 8470.372375294253, 12852.096599590373, 3693.134032861475, 16196.275198015595, 10887.132392779875, 41935.02419412425, -8141.265289934313, 25639.842526893917, 10863.014860512598, 11263.669879873978, -4462.950463646706, 15950.137788073755, -1840.2861762387963, -3155.842799644804, 4365.832133988397, 39032.493714391436, -0.026811126708984376, 0.9611379127502442, -0.2075332565307617, 192.0, 0.0, 0.0, 0.0, 0.0, 0.0, 0.0, 0.0, 0.0, 0.0, 1.741806326129126E9, 0.0, 2025-03-12 14:05:26.129
234.0, 8488.387881325232, 12861.439628772692, 3710.724855747802, 16227.567640253024, 10892.429756215783, 41961.51101130379, -8132.145778196547, 25653.432387522746, 10873.855456573423, 11269.682499132456, -4452.534550730533, 15957.20093932163, -1834.4076674470507, -3158.3461950237984, 4376.493916093578, 39038.26046446091, -0.026811126708984376, 0.9611379127502442, -0.2075332565307617, 192.0, 0.0, 0.0, 0.0, 0.0, 0.0, 0.0, 0.0, 0.0, 0.0, 1.741806326129144E9, 0.0, 2025-03-12 14:05:26.129
236.0, 8479.268369587466, 12862.490160762092, 3698.341989319562, 16205.104137075441, 10887.422965457794, 41948.837572197626, -8136.437313131966, 25645.36340777438, 10877.968177553199, 11276.052746302217, -4451.282853041035, 15959.167892833699, -1833.3124319687406, -3152.490037976508, 4374.884590492796, 39045.94946455353, -0.02640556335449219, 0.9655689563751221, -0.21076662826538084, 192.0, 127.5, 24.0, 15.0, 40.0, 124.5, 40.0, 0.0, 0.0, 0.0, 1.741806326129163E9, 0.0, 2025-03-12 14:05:26.129
238.0, 8481.548247521907, 12869.620367243335, 3705.7180649898132, 16224.036064629086, 10888.182924769275, 41962.44978457091, -8136.258499176324, 25643.329399028946, 10876.53766590806, 11277.192685269438, -4456.155533332292, 15950.942450874145, -1835.3240889697183, -3148.936110608114, 4367.754384011553, 39042.37318544069, -0.02640556335449219, 0.9655689563751221, -0.21076662826538084, 192.0, 0.0, 0.0, 0.0, 0.0, 0.0, 0.0, 0.0, 0.0, 0.0, 1.741806326129187E9, 0.0, 2025-03-12 14:05:26.129
240.0, 8470.394727038709, 12860.120875849829, 3691.502355516238, 16194.576465436992, 10882.460878188716, 41935.94061564691, -8138.158397455025, 25629.337206999924, 10873.095497261942, 11276.253912002316, -4458.703632200198, 15950.182491562664, -1836.5310831703048, -3150.947767609092, 4373.498782336567, 39030.6608713461, -0.02640556335449219, 0.9655689563751221, -0.21076662826538084, 192.0, 0.0, 0.0, 0.0, 0.0, 0.0, 0.0, 0.0, 0.0, 0.0, 1.741806326190211E9, 0.0, 2025-03-12 14:05:26.190
242.0, 8481.704709733094, 12866.088791619397, 3706.20980336783, 16217.241134314674, 10885.567770668004, 41947.34000531912, -8137.487845121365, 25635.41688149177, 10866.457029158715, 11268.721374120876, -4472.293492829024, 15934.603325677315, -1840.5096936833495, -3160.8272386583376, 4361.853523475352, 38999.94957446451, -0.02640556335449219, 0.9655689563751221, -0.21076662826538084, 192.0, 0.0, 0.0, 0.0, 0.0, 0.0, 0.0, 0.0, 0.0, 0.0, 1.741806326190245E9, 0.0, 2025-03-12 14:05:26.190
244.0, 8480.475363788053, 12867.809875942456, 3705.3157335896176, 16216.659988958836, 10884.830163100978, 41968.23888638483, -8136.057333476226, 25638.54612571551, 10882.930264822277, 11278.243217258838, -4453.40626876429, 15951.434189252162, -1829.9820220448998, -3148.3773169967317, 4391.111956967349, 39061.439223461064, -0.02640556335449219, 0.9655689563751221, -0.21076662826538084, 192.0, 0.0, 0.0, 0.0, 0.0, 0.0, 0.0, 0.0, 0.0, 0.0, 1.741806326190264E9, 0.0, 2025-03-12 14:05:26.190
246.0, 8480.341253321321, 12860.836131672399, 3706.500376045749, 16227.858212930943, 10884.517238678603, 41973.849174243114, -8134.962097997916, 25631.79589889001, 10878.415212442305, 11278.511438192301, -4462.726946202153, 15940.258317024509, -1829.8702633226233, -3135.659174401662, 4383.86999176383, 39065.44018571856, -0.028202781677246096, 0.964784478187561, -0.2123833141326904, 192.0, 127.5, 8.0, 15.0, 16.0, 124.5, 40.0, 0.0, 0.0, 0.0, 1.741806326190283E9, 0.0, 2025-03-12 14:05:26.190
248.0, 8470.037099127425, 12858.01981187103, 3697.358512563528, 16207.451070243249, 10876.917645563799, 41952.324444332655, -8135.878519520584, 25623.145773785804, 10870.167418738296, 11276.052746302217, -4461.899931657306, 15942.314677514396, -1833.2230249909194, -3142.1858837826117, 4382.8194597744305, 39048.16228725461, -0.028202781677246096, 0.964784478187561, -0.2123833141326904, 192.0, 0.0, 0.0, 0.0, 0.0, 0.0, 0.0, 0.0, 0.0, 0.0, 1.741806326190308E9, 0.0, 2025-03-12 14:05:26.190
250.0, 8477.659043986683, 12864.345355551883, 3708.109701646531, 16227.344122808472, 10880.113945020908, 41965.3555113501, -8138.068990477203, 25636.93680011473, 10867.351098936928, 11277.863237603098, -4474.88629518584, 15933.463386710095, -1837.5145599263383, -3156.468648489553, 4374.05757594795, 39035.75706908191, -0.028202781677246096, 0.964784478187561, -0.2123833141326904, 192.0, 0.0, 0.0, 0.0, 0.0, 0.0, 0.0, 0.0, 0.0, 0.0, 1.741806326190331E9, 0.0, 2025-03-12 14:05:26.190
252.0, 8475.91560791917, 12872.280224833516, 3704.3322568335843, 16220.795061683068, 10879.577503153982, 41964.7520142498, -8141.04177248976, 25642.41297750628, 10879.175171753785, 11286.200438284926, -4456.4237542657565, 15954.339916031351, -1831.9042720680563, -3141.805904126871, 4378.10324169436, 39051.82797334528, -0.028202781677246096, 0.964784478187561, -0.2123833141326904, 192.0, 0.0, 0.0, 0.0, 0.0, 0.0, 0.0, 0.0, 0.0, 0.0, 1.74180632619035E9, 0.0, 2025-03-12 14:05:26.190
254.0, 8482.576427766851, 12878.471658047636, 3708.422626068905, 16224.25958207364, 10877.789363597556, 41961.77923223725, -8143.56751961321, 25633.941666357718, 10878.750488609134, 11288.23444703036, -4468.493696271622, 15948.886090384256, -1835.1005715251652, -3144.979851839525, 4366.368575855324, 39037.947540038534, -0.028202781677246096, 0.964784478187561, -0.2123833141326904, 192.0, 0.0, 0.0, 0.0, 0.0, 0.0, 0.0, 0.0, 0.0, 0.0, 1.741806326190369E9, 0.0, 2025-03-12 14:05:26.190
0.0, 8481.078860888347, 12879.030451659019, 3706.2768586011957, 16217.598762225958, 10877.25292173063, 41956.88420020154, -8144.036906246771, 25634.478108224645, 10886.05950904602, 11290.357862753614, -4450.858169896384, 15961.984212635067, -1830.652574378559, -3145.695107662095, 4371.174200913215, 39036.09234524874, -0.03110139083862305, 0.9633922390937805, -0.2161916570663452, 192.0, 127.0, 120.0, 15.0, 8.0, 124.5, 16.0, 0.0, 0.0, 0.0, 1.741806326249046E9, 0.0, 2025-03-12 14:05:26.249
2.0, 8479.380128309742, 12867.251082331071, 3707.5509080351485, 16208.233381299184, 10881.030366543577, 41949.82104895366, -8135.23031893138, 25640.043692594016, 10880.940959565754, 11280.903074849019, -4463.129277602348, 15943.521671714983, -1834.6758883805144, -3152.9594246100696, 4369.184895656693, 39027.86690328919, -0.03110139083862305, 0.9633922390937805, -0.2161916570663452, 192.0, 0.0, 0.0, 0.0, 0.0, 0.0, 0.0, 0.0, 0.0, 0.0, 1.74180632624907E9, 0.0, 2025-03-12 14:05:26.249
4.0, 8479.938921921126, 12872.59314925589, 3713.5411755491705, 16222.180869839296, 10883.600817155937, 41964.908476460994, -8132.0787229631815, 25636.109785569883, 10882.170305510797, 11282.288883005249, -4449.002975106594, 15957.625622466281, -1827.7244958549138, -3150.612491442262, 4381.8806865073075, 39033.186618469554, -0.03110139083862305, 0.9633922390937805, -0.2161916570663452, 192.0, 0.0, 0.0, 0.0, 0.0, 0.0, 0.0, 0.0, 0.0, 0.0, 1.74180632624909E9, 0.0, 2025-03-12 14:05:26.249
6.0, 8473.971006151558, 12866.804047441967, 3704.2875533446736, 16202.488982974171, 10880.493924676648, 41942.66849072796, -8135.967926498405, 25620.46356445117, 10876.045927530042, 11277.192685269438, -4466.1691148482705, 15940.794758891436, -1837.6263186486149, -3159.5978927132956, 4375.532791082, 39030.951444024024, -0.03110139083862305, 0.9633922390937805, -0.2161916570663452, 192.0, 0.0, 0.0, 0.0, 0.0, 0.0, 0.0, 0.0, 0.0, 0.0, 1.741806326249116E9, 0.0, 2025-03-12 14:05:26.249
8.0, 8476.317939319366, 12859.696192705178, 3706.053341156643, 16214.558924980036, 10880.650386887835, 41952.59266526612, -8136.839644532162, 25626.297369754004, 10879.733965365169, 11278.667900403489, -4450.232321051636, 15947.947317117134, -1835.7934756032796, -3154.3452327662985, 4377.164468427238, 39024.78236255436, -0.03110139083862305, 0.9633922390937805, -0.2161916570663452, 192.0, 0.0, 0.0, 0.0, 0.0, 0.0, 0.0, 0.0, 0.0, 0.0, 1.741806326249139E9, 0.0, 2025-03-12 14:05:26.249
10.0, 8477.43552654213, 12864.144189851784, 3705.49454754526, 16206.042910342565, 10874.861285073912, 41948.904627430995, -8141.80173180124, 25622.02818656304, 10879.510447920615, 11276.678595146966, -4459.351832789402, 15940.727703658069, -1840.8896733390898, -3160.6037212137844, 4368.447288089667, 39025.38585965465, -0.03155069541931153, 0.9656961195468903, -0.2140958285331726, 192.0, 127.5, 0.0, 15.0, 32.0, 124.5, 48.0, 0.0, 0.0, 0.0, 1.741806326249159E9, 0.0, 2025-03-12 14:05:26.249
12.0, 8482.129392877745, 12865.865274174843, 3713.898803460456, 16223.477271017704, 10877.208218241718, 41961.22043862587, -8140.751199811841, 25614.31683472596, 10891.24511375965, 11283.09354580564, -4441.001050591594, 15954.094046842343, -1833.7594668578467, -3145.5833489398183, 4372.291788135981, 39039.57921738377, -0.03155069541931153, 0.9656961195468903, -0.2140958285331726, 192.0, 0.0, 0.0, 0.0, 0.0, 0.0, 0.0, 0.0, 0.0, 0.0, 1.741806326249179E9, 0.0, 2025-03-12 14:05:26.249
14.0, 8476.027366641447, 12867.11697186434, 3710.568393536615, 16214.737738935679, 10879.264578731607, 41960.72870024785, -8135.453836375933, 25631.25945702308, 10884.62899740088, 11282.065365560695, -4457.586044977432, 15943.320506014885, -1835.815827347735, -3151.6630234316617, 4376.605674815854, 39043.267255218896, -0.03155069541931153, 0.9656961195468903, -0.2140958285331726, 192.0, 0.0, 0.0, 0.0, 0.0, 0.0, 0.0, 0.0, 0.0, 0.0, 1.741806326309401E9, 0.0, 2025-03-12 14:05:26.309
16.0, 8479.558942265385, 12866.334660808405, 3708.981419680288, 16223.365512295428, 10877.722308364191, 41966.18252589495, -8142.539339368265, 25616.082622537928, 10886.8194683575, 11284.769926639787, -4445.583158204932, 15949.578994462372, -1832.5971761461708, -3145.695107662095, 4382.908866752251, 39043.334310452265, -0.03155069541931153, 0.9656961195468903, -0.2140958285331726, 192.0, 0.0, 0.0, 0.0, 0.0, 0.0, 0.0, 0.0, 0.0, 0.0, 1.741806326309436E9, 0.0, 2025-03-12 14:05:26.309
18.0, 8473.702785218095, 12864.144189851784, 3701.0241986541987, 16198.331558505484, 10873.587235639958, 41946.49063902982, -8141.242938189857, 25621.603503418388, 10889.859305603422, 11283.808801628209, -4453.07099259746, 15938.380770490263, -1837.9839465598998, -3142.9905465830025, 4374.035224203494, 39034.25950220341, -0.03155069541931153, 0.9656961195468903, -0.2140958285331726, 192.0, 0.0, 0.0, 0.0, 0.0, 0.0, 0.0, 0.0, 0.0, 0.0, 1.741806326309454E9, 0.0, 2025-03-12 14:05:26.309
20.0, 8478.307244575888, 12861.909015406254, 3704.6675330004136, 16214.000131368653, 10877.029404286075, 41950.82687745415, -8146.2273772033905, 25615.277959737537, 10888.920532336298, 11276.902112591519, -4450.411135007279, 15939.364247246296, -1836.7322488704026, -3152.579444954329, 4367.4414595891785, 39019.66381307409, -0.030775347709655763, 0.9648480597734451, -0.2130479142665863, 192.0, 127.5, 8.0, 15.0, 16.0, 124.5, 48.0, 0.0, 0.0, 0.0, 1.741806326309472E9, 0.0, 2025-03-12 14:05:26.309
22.0, 8472.92047416216, 12856.209320570151, 3695.659779984925, 16193.972968336699, 10872.469648417193, 41935.73944994682, -8142.964022512916, 25612.327529469436, 10881.566808410504, 11273.6611096455, -4461.721117701664, 15929.44007270814, -1840.0626587942434, -3167.756279439483, 4365.474506077112, 39017.49569386193, -0.030775347709655763, 0.9648480597734451, -0.2130479142665863, 192.0, 0.0, 0.0, 0.0, 0.0, 0.0, 0.0, 0.0, 0.0, 0.0, 1.741806326309492E9, 0.0, 2025-03-12 14:05:26.309
24.0, 8474.462744529576, 12851.73897167909, 3705.6733615009025, 16218.738701193179, 10875.800058341034, 41944.702499473395, -8140.818255045207, 25609.242988734604, 10877.230569986174, 11269.526036921268, -4456.669623454764, 15930.669418653182, -1838.6544988935589, -3162.1906950701114, 4365.452154332656, 39010.29843214732, -0.030775347709655763, 0.9648480597734451, -0.2130479142665863, 192.0, 0.0, 0.0, 0.0, 0.0, 0.0, 0.0, 0.0, 0.0, 0.0, 1.74180632630951E9, 0.0, 2025-03-12 14:05:26.309
26.0, 8465.812619425371, 12855.717582192134, 3698.4537480418385, 16197.68335791628, 10869.586273382458, 41929.90564464398, -8144.729810324885, 25615.32266322645, 10874.414250184805, 11268.497856676324, -4461.497600257111, 15931.742302387036, -1845.0023943188662, -3149.3160902638547, 4364.312215365436, 38998.96609770848, -0.030775347709655763, 0.9648480597734451, -0.2130479142665863, 192.0, 0.0, 0.0, 0.0, 0.0, 0.0, 0.0, 0.0, 0.0, 0.0, 1.741806326309529E9, 0.0, 2025-03-12 14:05:26.309
28.0, 8472.62990148424, 12858.556253737957, 3708.5343847911818, 16221.398558783361, 10869.67568036028, 41954.82783971165, -8153.134066240081, 25608.326567211934, 10880.024538043088, 11280.388984726547, -4455.619091465365, 15940.459482724606, -1841.7390396283913, -3159.5084857354746, 4365.139229910282, 39024.20121719852, -0.030775347709655763, 0.9648480597734451, -0.2130479142665863, 192.0, 0.0, 0.0, 0.0, 0.0, 0.0, 0.0, 0.0, 0.0, 0.0, 1.741806326309557E9, 0.0, 2025-03-12 14:05:26.309
30.0, 8462.035174612425, 12854.756457180556, 3697.7384922192687, 16191.8719043579, 10866.837008814457, 41935.49358075781, -8146.629708603587, 25609.98059630163, 10875.844761829945, 11276.544484680235, -4457.742507188619, 15934.715084399591, -1848.489266453894, -3166.7728026834493, 4358.947796696162, 39014.56761533828, -0.03038767385482788, 0.9634240298867225, -0.21252395713329314, 192.0, 127.5, 8.0, 15.0, 8.0, 124.5, 48.0, 0.0, 0.0, 0.0, 1.741806326369626E9, 0.0, 2025-03-12 14:05:26.369
32.0, 8474.261578829477, 12861.886663661799, 3706.075692901098, 16224.818375685023, 10873.274311217585, 41961.57806653715, -8149.758952827329, 25624.889209853318, 10876.671776374791, 11280.098412048628, -4454.322690286957, 15934.692732655138, -1846.2093885194527, -3161.00605261398, 4368.491991578579, 39013.49473160443, -0.03038767385482788, 0.9634240298867225, -0.21252395713329314, 192.0, 0.0, 0.0, 0.0, 0.0, 0.0, 0.0, 0.0, 0.0, 0.0, 1.74180632636965E9, 0.0, 2025-03-12 14:05:26.369
34.0, 8462.616319968261, 12858.466846760137, 3694.698654973347, 16217.665817459325, 10865.920587291788, 41965.891953217026, -8150.675374349997, 25622.4975731966, 10879.44339268725, 11286.7145284074, -4453.987414120128, 15943.29815427043, -1847.8857693536008, -3147.4385437296087, 4362.43466883119, 39038.640444116645, -0.03038767385482788, 0.9634240298867225, -0.21252395713329314, 192.0, 0.0, 0.0, 0.0, 0.0, 0.0, 0.0, 0.0, 0.0, 0.0, 1.741806326369669E9, 0.0, 2025-03-12 14:05:26.369
36.0, 8467.019613625958, 12852.856558901854, 3704.3546085780395, 16231.993285655177, 10873.564883895504, 41956.19129612343, -8139.99124050036, 25614.45094519269, 10871.642633872347, 11283.629987672566, -4462.771649691063, 15938.894860612734, -1849.942129843489, -3148.8690553747483, 4374.124631181316, 39033.83481905876, -0.03038767385482788, 0.9634240298867225, -0.21252395713329314, 192.0, 0.0, 0.0, 0.0, 0.0, 0.0, 0.0, 0.0, 0.0, 0.0, 1.741806326369698E9, 0.0, 2025-03-12 14:05:26.369
38.0, 8457.72128793255, 12851.44839900117, 3689.624808981992, 16207.428718498793, 10865.585311124958, 41934.13012434603, -8155.726868596897, 25607.007814289074, 10867.507561148115, 11281.059537060206, -4463.732774702642, 15941.532366458461, -1851.238531021897, -3150.7242501645387, 4376.762137027042, 39018.90385376261, -0.03038767385482788, 0.9634240298867225, -0.21252395713329314, 192.0, 0.0, 0.0, 0.0, 0.0, 0.0, 0.0, 0.0, 0.0, 0.0, 1.741806326369717E9, 0.0, 2025-03-12 14:05:26.369
40.0, 8474.082764873834, 12868.011041642552, 3703.818166711112, 16234.899012434365, 10871.217950727696, 41961.421604325966, -8139.320688166701, 25637.160317559283, 10870.949729794233, 11285.529885951268, -4462.928111902251, 15942.53819495895, -1853.205484533964, -3150.567787953352, 4364.982767699095, 39017.8086182843, -0.029193836927413938, 0.9627120149433612, -0.21026197856664658, 192.0, 127.5, 16.0, 15.0, 8.0, 124.5, 64.0, 0.0, 0.0, 0.0, 1.74180632636974E9, 0.0, 2025-03-12 14:05:26.369
42.0, 8467.310186303877, 12858.39979152677, 3694.050454384143, 16217.039968614576, 10866.14410473634, 41944.92601691795, -8145.623880103098, 25632.10882331238, 10881.991491555154, 11286.781583640764, -4441.962175603173, 15955.725724187581, -1851.4844002109053, -3153.942901366103, 4377.209171916148, 39032.5160661359, -0.029193836927413938, 0.9627120149433612, -0.21026197856664658, 192.0, 0.0, 0.0, 0.0, 0.0, 0.0, 0.0, 0.0, 0.0, 0.0, 1.74180632636976E9, 0.0, 2025-03-12 14:05:26.369
44.0, 8468.517180504463, 12850.375515267315, 3696.73266371878, 16221.912648905833, 10870.256825716118, 41950.715118731874, -8148.2166824599135, 25615.05444229298, 10878.169343253296, 11277.215037013893, -4464.425678780756, 15935.184471033153, -1859.687490426003, -3166.7728026834493, 4363.395793842768, 39010.18667342504, -0.029193836927413938, 0.9627120149433612, -0.21026197856664658, 192.0, 0.0, 0.0, 0.0, 0.0, 0.0, 0.0, 0.0, 0.0, 0.0, 1.741806326429946E9, 0.0, 2025-03-12 14:05:26.429
46.0, 8461.990471123514, 12849.101465833362, 3692.01644563871, 16208.68041618829, 10868.111058248409, 41947.54117101922, -8151.524740639298, 25618.4966109391, 10877.923474064288, 11280.701909148922, -4449.718230929164, 15943.67813392617, -1854.9042171125673, -3157.6085874567734, 4373.677596292209, 39019.64146132964, -0.029193836927413938, 0.9627120149433612, -0.21026197856664658, 192.0, 0.0, 0.0, 0.0, 0.0, 0.0, 0.0, 0.0, 0.0, 0.0, 1.741806326429997E9, 0.0, 2025-03-12 14:05:26.429
48.0, 8466.01378512547, 12855.73993393659, 3695.68213172938, 16211.183811567285, 10866.457029158715, 41953.41967981096, -8164.019365789815, 25609.131230012328, 10870.748564094134, 11273.482295689857, -4467.912550915784, 15921.929886571157, -1860.5815602042153, -3164.5376282379184, 4361.384136841791, 39001.78241750985, -0.029193836927413938, 0.9627120149433612, -0.21026197856664658, 192.0, 0.0, 0.0, 0.0, 0.0, 0.0, 0.0, 0.0, 0.0, 0.0, 1.741806326430016E9, 0.0, 2025-03-12 14:05:26.430
50.0, 8467.645462470706, 12859.293861304983, 3702.1641376214193, 16209.507430733138, 10867.216988470196, 41955.36428157858, -8157.738525597874, 25618.071927794448, 10874.123677506886, 11280.120763793084, -4448.935919873228, 15934.513918699495, -1857.4746677249275, -3161.8554189032816, 4364.468677576623, 39007.21389141249, -0.033596918463706965, 0.9573560074716807, -0.2111309892833233, 192.0, 127.0, 104.0, 14.5, 96.0, 124.5, 48.0, 0.0, 0.0, 0.0, 1.741806326430047E9, 0.0, 2025-03-12 14:05:26.430
52.0, 8474.552151507396, 12865.284128819005, 3715.463425572327, 16218.35872153744, 10873.430773428772, 41965.13199390555, -8145.08743823617, 25615.523828926544, 10873.564883895504, 11281.417164971492, -4456.69197519922, 15924.545040672427, -1856.491190968894, -3164.7611456824716, 4372.515305580533, 39012.82417927077, -0.033596918463706965, 0.9573560074716807, -0.2111309892833233, 192.0, 0.0, 0.0, 0.0, 0.0, 0.0, 0.0, 0.0, 0.0, 0.0, 1.741806326430072E9, 0.0, 2025-03-12 14:05:26.430
54.0, 8475.625035241252, 12873.6883847342, 3713.8764517160002, 16216.838802914477, 10868.714555348703, 41962.89681946002, -8153.581101129187, 25613.26630273656, 10880.471572932192, 11283.048842316728, -4434.988431333117, 15941.979401347568, -1850.1432955435869, -3160.983700869525, 4382.685349307698, 39010.119618191675, -0.033596918463706965, 0.9573560074716807, -0.2111309892833233, 192.0, 0.0, 0.0, 0.0, 0.0, 0.0, 0.0, 0.0, 0.0, 0.0, 1.74180632643009E9, 0.0, 2025-03-12 14:05:26.430
56.0, 8475.87090443026, 12877.376422569327, 3712.7365127487797, 16214.335407535484, 10867.8651890594, 41965.5566770502, -8148.75312432684, 25611.142887013306, 10876.53766590806, 11284.300540006227, -4452.534550730533, 15931.898764598223, -1855.2841967683075, -3159.7990584133936, 4376.762137027042, 39004.598737311215, -0.033596918463706965, 0.9573560074716807, -0.2111309892833233, 192.0, 0.0, 0.0, 0.0, 0.0, 0.0, 0.0, 0.0, 0.0, 0.0, 1.74180632643011E9, 0.0, 2025-03-12 14:05:26.430
58.0, 8478.664872487172, 12868.368669553838, 3717.8774139735, 16225.041893129575, 10875.129506007375, 41962.36037759309, -8160.465438421422, 25594.55789262747, 10878.281101975574, 11288.23444703036, -4437.357716245379, 15944.192224048642, -1851.1267722996204, -3155.7086891780723, 4381.321892895924, 39006.31982163427, -0.033596918463706965, 0.9573560074716807, -0.2111309892833233, 192.0, 0.0, 0.0, 0.0, 0.0, 0.0, 0.0, 0.0, 0.0, 0.0, 1.741806326430129E9, 0.0, 2025-03-12 14:05:26.430
60.0, 8480.944750421613, 12864.97120439663, 3717.4527308288493, 16227.12060536392, 10865.160627980307, 41962.181563637445, -8164.086421023181, 25602.11278225336, 10874.615415884902, 11285.552237695723, -4449.986451862628, 15936.950258845123, -1860.1568770595643, -3155.485171733519, 4382.305369651958, 39008.08560944624, -0.034798459231853485, 0.9616780037358403, -0.21156549464166163, 192.0, 127.0, 112.0, 15.0, 24.0, 124.5, 48.0, 0.0, 0.0, 0.0, 1.741806326489277E9, 0.0, 2025-03-12 14:05:26.489
62.0, 8485.34804407931, 12868.994518398586, 3714.234079627285, 16234.273163589618, 10859.751505822123, 41962.42743282645, -8162.544150655765, 25592.389773415303, 10876.358851952416, 11293.174182554983, -4438.162379045771, 15956.508035243516, -1861.6320921936147, -3152.199465298589, 4375.711605037643, 39014.589967082735, -0.034798459231853485, 0.9616780037358403, -0.21156549464166163, 192.0, 0.0, 0.0, 0.0, 0.0, 0.0, 0.0, 0.0, 0.0, 0.0, 1.741806326489313E9, 0.0, 2025-03-12 14:05:26.489
64.0, 8471.86994217276, 12857.349259537372, 3706.5897830235704, 16203.941846363765, 10854.700011575223, 41934.10777260158, -8165.628691390597, 25576.520034852034, 10866.837008814457, 11280.634853915555, -4459.843571167418, 15940.481834469061, -1871.109231842665, -3163.9564828820808, 4358.411354829234, 38986.38206558014, -0.034798459231853485, 0.9616780037358403, -0.21156549464166163, 192.0, 0.0, 0.0, 0.0, 0.0, 0.0, 0.0, 0.0, 0.0, 0.0, 1.741806326489333E9, 0.0, 2025-03-12 14:05:26.489
66.0, 8481.928227177648, 12858.936233393697, 3716.625716284003, 16228.618172242424, 10861.919625034288, 41955.96777867887, -8154.743391840862, 25590.713392581154, 10867.954596037222, 11282.355938238614, -4449.517065229066, 15955.323392787384, -1865.878923640123, -3160.000224113491, 4362.747593253564, 39011.86305425919, -0.034798459231853485, 0.9616780037358403, -0.21156549464166163, 192.0, 0.0, 0.0, 0.0, 0.0, 0.0, 0.0, 0.0, 0.0, 0.0, 1.741806326489351E9, 0.0, 2025-03-12 14:05:26.489
68.0, 8466.52787524794, 12846.910994876742, 3704.9357539338775, 16204.008901597132, 10861.070258744987, 41935.18065633543, -8147.769647570807, 25577.749380797075, 10866.05469775852, 11276.23156025786, -4459.620053722865, 15947.723799672582, -1867.5329527298156, -3161.877770647737, 4363.887532220785, 39017.58510083975, -0.034798459231853485, 0.9616780037358403, -0.21156549464166163, 192.0, 0.0, 0.0, 0.0, 0.0, 0.0, 0.0, 0.0, 0.0, 0.0, 1.74180632648937E9, 0.0, 2025-03-12 14:05:26.489
70.0, 8470.10415436079, 12849.213224555639, 3718.3468006070616, 16232.485024033193, 10871.083840260964, 41962.36037759309, -8140.259461433824, 25592.389773415303, 10860.645575600336, 11276.991519569341, -4455.015594365072, 15951.34478227434, -1866.5271242293268, -3156.848628145293, 4361.227674630603, 39004.68814428904, -0.03139922961592674, 0.9638390018679202, -0.2127827473208308, 192.0, 127.5, 16.0, 15.0, 24.0, 124.5, 40.0, 0.0, 0.0, 0.0, 1.741806326489389E9, 0.0, 2025-03-12 14:05:26.489
72.0, 8465.075011858346, 12848.92265187772, 3710.9036697034444, 16217.934038392788, 10869.608625126913, 41958.71704324687, -8141.824083545695, 25588.3888111578, 10862.612529112403, 11277.773830625276, -4456.043774610016, 15950.428360751674, -1863.621397450137, -3148.354965252276, 4372.224732902615, 39038.238112716455, -0.03139922961592674, 0.9638390018679202, -0.2127827473208308, 192.0, 0.0, 0.0, 0.0, 0.0, 0.0, 0.0, 0.0, 0.0, 0.0, 1.741806326489413E9, 0.0, 2025-03-12 14:05:26.489
74.0, 8469.344195049309, 12850.822550156421, 3712.110663904031, 16229.802814698556, 10871.329709449972, 41964.81906948317, -8148.484903393377, 25577.168235441237, 10867.48520940366, 11279.047880059228, -4443.973832604151, 15951.031857851965, -1861.7438509158912, -3150.3442705087987, 4368.313177622936, 39022.32367066427, -0.03139922961592674, 0.9638390018679202, -0.2127827473208308, 192.0, 0.0, 0.0, 0.0, 0.0, 0.0, 0.0, 0.0, 0.0, 0.0, 1.741806326549129E9, 0.0, 2025-03-12 14:05:26.549
76.0, 8467.734869448528, 12851.40369551226, 3712.669457515414, 16218.761052937634, 10870.726212349678, 41961.46630781487, -8130.849377018139, 25594.06615424945, 10865.9652907807, 11280.031356815261, -4452.400440263801, 15944.236927537553, -1864.0237288503324, -3147.9302821076253, 4365.407450843746, 39023.620071842684, -0.03139922961592674, 0.9638390018679202, -0.2127827473208308, 192.0, 0.0, 0.0, 0.0, 0.0, 0.0, 0.0, 0.0, 0.0, 0.0, 1.741806326549164E9, 0.0, 2025-03-12 14:05:26.549
78.0, 8471.065279372368, 12848.319154777428, 3723.4429983428718, 16242.856233460456, 10875.084802518464, 41969.73645326334, -8128.4353886169665, 25598.58120662942, 10871.128543749875, 11285.485182462357, -4440.665774424765, 15952.887052641756, -1856.8041153912684, -3148.4443722300975, 4385.501669109067, 39033.544246380836, -0.03139922961592674, 0.9638390018679202, -0.2127827473208308, 192.0, 0.0, 0.0, 0.0, 0.0, 0.0, 0.0, 0.0, 0.0, 0.0, 1.741806326549183E9, 0.0, 2025-03-12 14:05:26.549
80.0, 8466.997261881503, 12846.463959987637, 3717.6986000178576, 16219.856288415944, 10865.115924491398, 41953.19616236641, -8141.04177248976, 25581.839750032395, 10869.899197804833, 11282.80297312772, -4444.733791915631, 15951.389485763251, -1860.492153226394, -3153.9652531105585, 4378.505573094556, 39034.57242662578, -0.02869961480796337, 0.9669195009339601, -0.21239137366041538, 192.0, 127.5, 24.0, 15.0, 40.0, 124.5, 48.0, 0.0, 0.0, 0.0, 1.741806326549202E9, 0.0, 2025-03-12 14:05:26.549
82.0, 8482.710538233583, 12850.464922245137, 3725.9687454663213, 16240.68811424829, 10867.373450681383, 41960.88516245904, -8137.689010821464, 25577.458808119158, 10874.838933329456, 11279.383156226058, -4439.861111624374, 15949.713104929104, -1858.2569787808632, -3150.903064120181, 4375.622198059821, 39031.15260972412, -0.02869961480796337, 0.9669195009339601, -0.21239137366041538, 192.0, 0.0, 0.0, 0.0, 0.0, 0.0, 0.0, 0.0, 0.0, 0.0, 1.741806326549227E9, 0.0, 2025-03-12 14:05:26.549
84.0, 8472.406384039687, 12848.006230355053, 3713.8317482270895, 16217.419948270315, 10863.685412846258, 41943.517857017265, -8138.873653277595, 25573.815473772942, 10882.170305510797, 11284.6134644286, -4428.171149274248, 15957.089180599354, -1857.6087781916594, -3152.4006309986867, 4375.175163170715, 39028.62686260067, -0.02869961480796337, 0.9669195009339601, -0.21239137366041538, 192.0, 0.0, 0.0, 0.0, 0.0, 0.0, 0.0, 0.0, 0.0, 0.0, 1.741806326549249E9, 0.0, 2025-03-12 14:05:26.549
86.0, 8476.452049786098, 12848.475616988615, 3717.0727511731093, 16226.517108263626, 10867.14993323683, 41945.86479018507, -8135.632650331575, 25581.59388084339, 10874.704822862725, 11276.723298635878, -4439.97287034665, 15942.828767636869, -1862.2132375494525, -3165.811677671871, 4368.939026467684, 39005.224586155964, -0.02869961480796337, 0.9669195009339601, -0.21239137366041538, 192.0, 0.0, 0.0, 0.0, 0.0, 0.0, 0.0, 0.0, 0.0, 0.0, 1.741806326549268E9, 0.0, 2025-03-12 14:05:26.549
88.0, 8471.355852050287, 12850.576680967413, 3701.582992265581, 16211.563791223025, 10861.71845933419, 41944.72485121785, -8137.957231754927, 25574.553081339967, 10879.890427576354, 11281.99831032733, -4432.060352809472, 15951.076561340877, -1859.3298625147181, -3156.982738612025, 4375.465735848634, 39019.88733051864, -0.02869961480796337, 0.9669195009339601, -0.21239137366041538, 192.0, 0.0, 0.0, 0.0, 0.0, 0.0, 0.0, 0.0, 0.0, 0.0, 1.741806326549286E9, 0.0, 2025-03-12 14:05:26.549
90.0, 8479.87186668776, 12849.414390255737, 3708.422626068905, 16213.575448224003, 10858.924491277277, 41938.064031370166, -8143.858092291128, 25560.918517222228, 10879.398689198339, 11275.985691068852, -4445.02436459355, 15935.676209411171, -1861.6320921936147, -3167.6445207172064, 4366.05565143295, 39005.06812394478, -0.028349807403981686, 0.9624597504669801, -0.2081956868302077, 192.0, 127.5, 16.0, 14.5, 120.0, 124.5, 80.0, 0.0, 0.0, 0.0, 1.741806326610814E9, 0.0, 2025-03-12 14:05:26.610
92.0, 8467.936035148625, 12850.755494923056, 3707.4167975684168, 16221.465614016726, 10861.919625034288, 41952.59266526612, -8134.649173575542, 25579.850444775875, 10885.433660201272, 11282.534752194257, -4431.792131876008, 15947.276764783475, -1862.816734649746, -3157.2509595454885, 4373.230561403103, 39010.2090251695, -0.028349807403981686, 0.9624597504669801, -0.2081956868302077, 192.0, 0.0, 0.0, 0.0, 0.0, 0.0, 0.0, 0.0, 0.0, 0.0, 1.74180632661084E9, 0.0, 2025-03-12 14:05:26.610
94.0, 8474.552151507396, 12864.59122474089, 3711.015428425721, 16226.271239074618, 10863.350136679428, 41956.25835135679, -8138.091342221659, 25566.305287635958, 10880.359814209916, 11283.473525461379, -4447.393649505812, 15935.63150592226, -1867.331787029718, -3157.72034617905, 4368.335529367391, 39010.38783912514, -0.028349807403981686, 0.9624597504669801, -0.2081956868302077, 192.0, 0.0, 0.0, 0.0, 0.0, 0.0, 0.0, 0.0, 0.0, 0.0, 1.741806326610859E9, 0.0, 2025-03-12 14:05:26.610
96.0, 8468.695994460106, 12860.232634572105, 3708.109701646531, 16224.483099518193, 10863.350136679428, 41963.81324098269, -8141.511159123321, 25580.63275583181, 10886.975930568688, 11294.269418033293, -4432.999126076595, 15953.19997706413, -1862.1461823160867, -3143.2587675164664, 4378.796145772475, 39019.17207469608, -0.028349807403981686, 0.9624597504669801, -0.2081956868302077, 192.0, 0.0, 0.0, 0.0, 0.0, 0.0, 0.0, 0.0, 0.0, 0.0, 1.741806326610889E9, 0.0, 2025-03-12 14:05:26.610
98.0, 8470.640596227717, 12857.706887448656, 3719.106759918542, 16237.40240781336, 10865.25003495813, 41973.04451144273, -8138.627784088587, 25579.403409886767, 10884.293721234051, 11291.14017380955, -4446.4995797276, 15942.20291879212, -1863.0626038387543, -3153.428811243631, 4380.159602184249, 39025.095286976735, -0.028349807403981686, 0.9624597504669801, -0.2081956868302077, 192.0, 0.0, 0.0, 0.0, 0.0, 0.0, 0.0, 0.0, 0.0, 0.0, 1.741806326610913E9, 0.0, 2025-03-12 14:05:26.610
100.0, 8465.790267680915, 12857.125742092818, 3709.2496406137516, 16226.964143152733, 10860.220892455685, 41955.900723445506, -8138.851301533139, 25573.59195632839, 10886.886523590867, 11292.123650565583, -4430.272213253047, 15952.350610774829, -1861.296816026785, -3150.4560292310753, 4386.731015054109, 39020.62493808567, -0.027174903701990844, 0.9602298752334901, -0.20509784341510384, 192.0, 127.5, 24.0, 14.5, 120.0, 124.5, 88.0, 0.0, 0.0, 0.0, 1.741806326610937E9, 0.0, 2025-03-12 14:05:26.610
102.0, 8472.406384039687, 12868.949814909676, 3718.078579673598, 16243.8844137054, 10861.874921545377, 41979.817090012686, -8139.767723055807, 25589.17112221374, 10883.600817155937, 11293.263589532804, -4446.298414027502, 15941.465311225094, -1864.3143015282515, -3147.013860584958, 4381.053671962461, 39017.71921130648, -0.027174903701990844, 0.9602298752334901, -0.20509784341510384, 192.0, 0.0, 0.0, 0.0, 0.0, 0.0, 0.0, 0.0, 0.0, 0.0, 1.741806326610957E9, 0.0, 2025-03-12 14:05:26.610
104.0, 8477.591988753318, 12872.079059133419, 3721.408989597439, 16247.527748051614, 10857.024592998576, 41971.144613164026, -8146.249728947846, 25570.373305126825, 10889.076994547486, 11301.399624514535, -4427.768817874053, 15962.095971357343, -1853.9877955898996, -3138.0955145472903, 4388.96618949964, 39045.6141883867, -0.027174903701990844, 0.9602298752334901, -0.20509784341510384, 192.0, 0.0, 0.0, 0.0, 0.0, 0.0, 0.0, 0.0, 0.0, 0.0, 1.741806326670068E9, 0.0, 2025-03-12 14:05:26.670
106.0, 8480.453012043597, 12874.537751023503, 3723.3535913650503, 16235.994247912677, 10858.276290688073, 41960.97456943686, -8140.572385856198, 25574.77659878452, 10885.165439267808, 11301.399624514535, -4434.362582488368, 15950.003677607023, -1853.943092100989, -3147.4832472185194, 4381.835983018396, 39028.62686260067, -0.027174903701990844, 0.9602298752334901, -0.20509784341510384, 192.0, 0.0, 0.0, 0.0, 0.0, 0.0, 0.0, 0.0, 0.0, 0.0, 1.741806326670103E9, 0.0, 2025-03-12 14:05:26.670
108.0, 8484.543381278918, 12878.806934214466, 3731.5790333246036, 16250.791102742089, 10860.086781988954, 41972.93275272045, -8135.789112542762, 25591.272186192535, 10887.11004103542, 11304.171240826994, -4419.029285792028, 15960.933680645667, -1844.5106559408493, -3132.105247033268, 4383.758233041553, 39019.23912992944, -0.027174903701990844, 0.9602298752334901, -0.20509784341510384, 192.0, 0.0, 0.0, 0.0, 0.0, 0.0, 0.0, 0.0, 0.0, 0.0, 1.741806326670122E9, 0.0, 2025-03-12 14:05:26.670
110.0, 8480.229494599043, 12881.153867382272, 3732.0260682137096, 16234.988419412188, 10860.422058155782, 41969.60234279661, -8130.245879917847, 25594.513189138557, 10880.404517698827, 11308.261610062315, -4432.1274080428375, 15954.58578522036, -1839.4368099494948, -3144.5328169504187, 4390.240238933592, 39045.077746519775, -0.03158745185099542, 0.963114937616745, -0.20354892170755193, 192.0, 127.0, 112.0, 15.0, 24.0, 124.5, 88.0, 0.0, 0.0, 0.0, 1.741806326670141E9, 0.0, 2025-03-12 14:05:26.670
112.0, 8485.571561523862, 12882.047937160485, 3737.5245973497153, 16240.576355526015, 10859.438581399749, 41975.50320333281, -8135.029153231282, 25598.15652348477, 10881.611511899413, 11307.389892028557, -4425.511291684066, 15956.619793965792, -1827.6127371326372, -3139.90600584817, 4390.687273822698, 39040.473287161985, -0.03158745185099542, 0.963114937616745, -0.20354892170755193, 192.0, 0.0, 0.0, 0.0, 0.0, 0.0, 0.0, 0.0, 0.0, 0.0, 1.741806326670161E9, 0.0, 2025-03-12 14:05:26.670
114.0, 8482.129392877745, 12884.774849984033, 3732.562510080637, 16224.371340795917, 10857.538683121049, 41974.74324402133, -8122.84745250314, 25595.653128105776, 10881.008014799121, 11302.696025692943, -4438.140027301315, 15943.924003115178, -1823.432960919495, -3140.4200959706423, 4392.006026745561, 39042.10496450722, -0.03158745185099542, 0.963114937616745, -0.20354892170755193, 192.0, 0.0, 0.0, 0.0, 0.0, 0.0, 0.0, 0.0, 0.0, 0.0, 1.74180632667018E9, 0.0, 2025-03-12 14:05:26.670
116.0, 8491.49477380452, 12888.440536074702, 3739.8044752841565, 16241.224556115218, 10860.511465133604, 41980.46529060189, -8117.505385578322, 25591.272186192535, 10888.741718380657, 11311.726130452887, -4424.952498072684, 15955.926889887678, -1813.8664142926234, -3128.5066161759637, 4400.2538204495695, 39056.85711584772, -0.03158745185099542, 0.963114937616745, -0.20354892170755193, 192.0, 0.0, 0.0, 0.0, 0.0, 0.0, 0.0, 0.0, 0.0, 0.0, 1.741806326670199E9, 0.0, 2025-03-12 14:05:26.670
118.0, 8482.06233764438, 12882.383213327315, 3724.9405652213773, 16211.183811567285, 10853.135389463352, 41954.06788040017, -8127.384856627567, 25575.58126158491, 10887.020634057599, 11306.898153650542, -4445.06906808246, 15938.269011767987, -1814.0899317371766, -3140.487151204008, 4386.015759231539, 39040.115659250696, -0.03158745185099542, 0.963114937616745, -0.20354892170755193, 192.0, 0.0, 0.0, 0.0, 0.0, 0.0, 0.0, 0.0, 0.0, 0.0, 1.741806326670222E9, 0.0, 2025-03-12 14:05:26.670
120.0, 8490.556000537395, 12884.394870328293, 3738.4410188723828, 16235.413102556839, 10860.28794768905, 41978.69950278992, -8117.75125476733, 25587.405334401767, 10885.523067179092, 11304.439461760458, -4445.136123315826, 15937.531404200961, -1807.6079258451375, -3136.687354646606, 4390.128480211315, 39048.63167388817, -0.037793725925497706, 0.9635574688083726, -0.20177446085377598, 192.0, 127.0, 80.0, 15.0, 16.0, 124.5, 96.0, 0.0, 0.0, 0.0, 1.741806326729992E9, 0.0, 2025-03-12 14:05:26.729
122.0, 8486.06329990188, 12885.35599533987, 3729.3885623679835, 16215.654160458347, 10855.527026120071, 41966.093118917124, -8117.4159786005, 25586.220691945637, 10883.936093322765, 11301.958418125918, -4451.484018741134, 15928.747168630025, -1808.0326089897883, -3134.206311012067, 4392.788337801497, 39062.0203688169, -0.037793725925497706, 0.9635574688083726, -0.20177446085377598, 192.0, 0.0, 0.0, 0.0, 0.0, 0.0, 0.0, 0.0, 0.0, 0.0, 1.741806326730017E9, 0.0, 2025-03-12 14:05:26.730
124.0, 8496.702730262605, 12891.815649487455, 3738.7762950392125, 16240.084617147997, 10859.617395355392, 41975.34674112162, -8115.091397177148, 25572.36261038335, 10884.606645656426, 11304.931200138475, -4445.06906808246, 15935.676209411171, -1806.1774141999979, -3139.213101770056, 4393.637704090798, 39071.76572939941, -0.037793725925497706, 0.9635574688083726, -0.20177446085377598, 192.0, 0.0, 0.0, 0.0, 0.0, 0.0, 0.0, 0.0, 0.0, 0.0, 1.741806326730038E9, 0.0, 2025-03-12 14:05:26.730
126.0, 8495.83101222885, 12886.965320940653, 3733.590690325581, 16217.777576181601, 10859.282119188561, 41965.176697394454, -8115.203155899425, 25578.66580231974, 10886.037157301565, 11305.42293851649, -4446.074896582949, 15931.876412853768, -1803.9869432433777, -3146.0974390622905, 4395.716416325142, 39066.31190375232, -0.037793725925497706, 0.9635574688083726, -0.20177446085377598, 192.0, 0.0, 0.0, 0.0, 0.0, 0.0, 0.0, 0.0, 0.0, 0.0, 1.741806326730069E9, 0.0, 2025-03-12 14:05:26.730
128.0, 8504.168212910678, 12890.854524475877, 3741.369097396028, 16237.961201424743, 10865.160627980307, 41978.36422662309, -8113.213850642902, 25571.021505716028, 10889.635788158868, 11309.312142051715, -4443.079762825938, 15934.335104743852, -1800.0530362192437, -3132.082895288813, 4398.733901826608, 39078.18068005809, -0.037793725925497706, 0.9635574688083726, -0.20177446085377598, 192.0, 0.0, 0.0, 0.0, 0.0, 0.0, 0.0, 0.0, 0.0, 0.0, 1.741806326730087E9, 0.0, 2025-03-12 14:05:26.730
130.0, 8499.675512275162, 12884.59603602839, 3734.149483936964, 16222.538497750582, 10862.970157023688, 41967.34481660662, -8116.27603963328, 25573.055514461463, 10890.216933514706, 11308.641589718056, -4439.0564488239825, 15935.139767544242, -1800.3883123860733, -3139.503674447975, 4401.773739072531, 39070.20110728754, -0.037896862962748856, 0.9667787344041863, -0.201887230426888, 192.0, 127.0, 104.0, 15.0, 40.0, 124.5, 88.0, 0.0, 0.0, 0.0, 1.74180632673011E9, 0.0, 2025-03-12 14:05:26.730
132.0, 8512.863041503793, 12893.559085554969, 3742.956071252355, 16245.650201517368, 10870.122715249387, 41981.38171212455, -8113.437368087455, 25572.429665616713, 10892.809735871522, 11307.702816450932, -4439.0564488239825, 15937.933735601157, -1799.4718908634056, -3132.5075784334636, 4399.672675093731, 39084.48387199448, -0.037896862962748856, 0.9667787344041863, -0.201887230426888, 192.0, 0.0, 0.0, 0.0, 0.0, 0.0, 0.0, 0.0, 0.0, 0.0, 1.741806326730131E9, 0.0, 2025-03-12 14:05:26.730
134.0, 8504.324675121865, 12889.446364575191, 3727.7345332782907, 16225.35481755195, 10861.070258744987, 41964.32733110515, -8126.759007782818, 25562.706656778653, 10892.049776560043, 11313.156642098027, -4440.174036046748, 15941.197090291631, -1797.2590681623303, -3126.5396626638967, 4395.5376023695, 39080.661723692625, -0.037896862962748856, 0.9667787344041863, -0.201887230426888, 192.0, 0.0, 0.0, 0.0, 0.0, 0.0, 0.0, 0.0, 0.0, 0.0, 1.741806326790204E9, 0.0, 2025-03-12 14:05:26.790
136.0, 8514.002980471014, 12884.707794750668, 3736.116437449031, 16252.109855664952, 10866.211159969707, 41983.236906914346, -8115.136100666059, 25584.611366344856, 10892.67562540479, 11313.871897920597, -4449.02532685105, 15938.067846067888, -1799.851870519146, -3127.6348981422066, 4390.955494756162, 39088.52953774089, -0.037896862962748856, 0.9667787344041863, -0.201887230426888, 192.0, 0.0, 0.0, 0.0, 0.0, 0.0, 0.0, 0.0, 0.0, 0.0, 1.741806326790229E9, 0.0, 2025-03-12 14:05:26.790
138.0, 8507.051587945412, 12887.099431407385, 3723.1300739204976, 16229.73575946519, 10860.489113389149, 41970.094081174626, -8120.65698154652, 25574.038991217494, 10896.117794050908, 11317.358770055625, -4441.336326758424, 15940.817110635891, -1795.4709286059058, -3131.6358603997064, 4399.896192538285, 39093.89395641017, -0.037896862962748856, 0.9667787344041863, -0.201887230426888, 192.0, 0.0, 0.0, 0.0, 0.0, 0.0, 0.0, 0.0, 0.0, 0.0, 1.741806326790248E9, 0.0, 2025-03-12 14:05:26.790
140.0, 8519.747378796028, 12895.07900417793, 3734.0377252146873, 16243.504434049659, 10864.355965179917, 41978.051302200714, -8116.924240222484, 25568.741627781586, 10898.82235513, 11317.00114214434, -4444.152646559793, 15931.898764598223, -1797.7731582848023, -3130.42886619912, 4393.168317457237, 39090.49649125296, -0.03494843148137443, 0.9633893672020931, -0.202943615213444, 192.0, 127.5, 0.0, 15.0, 0.0, 124.5, 80.0, 0.0, 0.0, 0.0, 1.741806326790276E9, 0.0, 2025-03-12 14:05:26.790
142.0, 8509.979666469058, 12889.111088408363, 3727.1310361779974, 16231.076864132508, 10860.444409900238, 41969.71410151888, -8118.868841990095, 25569.322773137425, 10903.627980187892, 11316.487052021868, -4432.619146420854, 15940.213613535598, -1796.432053617484, -3133.1781307671226, 4396.945762270184, 39081.53344172638, -0.03494843148137443, 0.9633893672020931, -0.202943615213444, 192.0, 0.0, 0.0, 0.0, 0.0, 0.0, 0.0, 0.0, 0.0, 0.0, 1.7418063267903E9, 0.0, 2025-03-12 14:05:26.790
144.0, 8516.59578282783, 12904.734957782623, 3735.2000159263634, 16243.012695671643, 10862.567825623491, 41975.883182988546, -8118.84649024564, 25571.379133627313, 10900.454032475238, 11313.067235120207, -4442.275100025547, 15932.077578553866, -1800.7459402973582, -3133.982793567514, 4391.938971512195, 39082.40515976014, -0.03494843148137443, 0.9633893672020931, -0.202943615213444, 192.0, 0.0, 0.0, 0.0, 0.0, 0.0, 0.0, 0.0, 0.0, 0.0, 1.741806326790319E9, 0.0, 2025-03-12 14:05:26.790
146.0, 8506.001055956014, 12892.262684376561, 3727.823940256112, 16231.099215876964, 10861.763162823101, 41966.4060433395, -8122.422769358489, 25558.05749393195, 10898.73294815218, 11314.743615954354, -4430.696896397698, 15942.068808325388, -1798.7342832963805, -3133.3792964672207, 4391.067253478438, 39076.01256084592, -0.03494843148137443, 0.9633893672020931, -0.202943615213444, 192.0, 0.0, 0.0, 0.0, 0.0, 0.0, 0.0, 0.0, 0.0, 0.0, 1.741806326790338E9, 0.0, 2025-03-12 14:05:26.790
148.0, 8508.280933890455, 12887.859390718866, 3730.908480990944, 16237.290649091085, 10864.7135930912, 41973.62565679856, -8120.1652431685025, 25571.423837116225, 10892.809735871522, 11312.329627553181, -4447.661870439276, 15928.702465141114, -1802.6905420649698, -3139.0566395588685, 4396.051692491972, 39077.934810869076, -0.03494843148137443, 0.9633893672020931, -0.202943615213444, 192.0, 0.0, 0.0, 0.0, 0.0, 0.0, 0.0, 0.0, 0.0, 0.0, 1.741806326790361E9, 0.0, 2025-03-12 14:05:26.790
150.0, 8500.904858220203, 12882.629082516323, 3724.2476611432626, 16234.07199788952, 10860.310299433506, 41972.01633119778, -8124.009743214816, 25568.83103475941, 10893.346177738451, 11314.833022932175, -4438.788227890519, 15940.481834469061, -1799.3154286522185, -3131.2558807439664, 4398.130404726316, 39080.974648115, -0.034474215740687215, 0.9606946836010466, -0.203471807606722, 192.0, 127.0, 120.0, 14.5, 120.0, 124.5, 80.0, 0.0, 0.0, 0.0, 1.74180632685061E9, 0.0, 2025-03-12 14:05:26.850
152.0, 8508.191526912633, 12889.26755061955, 3731.9366612358886, 16242.588012526992, 10862.277252945572, 41983.59453482563, -8118.3994553565335, 25566.707619036155, 10886.037157301565, 11311.949647897442, -4454.814428664974, 15926.53434592895, -1806.0656554777213, -3133.8933865896925, 4395.984637258606, 39090.78706393088, -0.034474215740687215, 0.9606946836010466, -0.203471807606722, 192.0, 0.0, 0.0, 0.0, 0.0, 0.0, 0.0, 0.0, 0.0, 0.0, 1.741806326850645E9, 0.0, 2025-03-12 14:05:26.850
154.0, 8500.949561709114, 12881.422088315736, 3722.101893675553, 16238.609402013946, 10859.81856105549, 41975.54790682172, -8123.182728669969, 25554.369456096825, 10892.943846338254, 11317.492880522357, -4441.4033819917895, 15938.894860612734, -1798.4884141073721, -3123.209252740056, 4408.68042810922, 39099.0795611238, -0.034474215740687215, 0.9606946836010466, -0.203471807606722, 192.0, 0.0, 0.0, 0.0, 0.0, 0.0, 0.0, 0.0, 0.0, 0.0, 1.741806326850663E9, 0.0, 2025-03-12 14:05:26.850
156.0, 8496.143936651222, 12873.755439967566, 3714.502300560749, 16225.287762318583, 10855.884654031355, 41965.44491832792, -8129.240051417358, 25551.128453150806, 10884.092555533953, 11310.407377530024, -4465.520914259067, 15916.252543479508, -1808.2114229454307, -3137.4473139580864, 4395.872878536329, 39075.36436025672, -0.034474215740687215, 0.9606946836010466, -0.203471807606722, 192.0, 0.0, 0.0, 0.0, 0.0, 0.0, 0.0, 0.0, 0.0, 0.0, 1.741806326850682E9, 0.0, 2025-03-12 14:05:26.850
158.0, 8499.183773897144, 12880.103335392874, 3724.40412335445, 16247.527748051614, 10862.38901166785, 41986.34379939363, -8125.261440904313, 25573.927232495218, 10883.422003200294, 11314.497746765346, -4450.277024540547, 15930.177680275165, -1808.077312478699, -3129.758313865461, 4394.084738979905, 39078.76182541392, -0.034474215740687215, 0.9606946836010466, -0.203471807606722, 192.0, 0.0, 0.0, 0.0, 0.0, 0.0, 0.0, 0.0, 0.0, 0.0, 1.741806326850701E9, 0.0, 2025-03-12 14:05:26.850
160.0, 8490.734814493038, 12875.610634757357, 3715.150501149953, 16229.400483298361, 10858.566863365992, 41975.816127755184, -8129.195347928447, 25562.25962188955, 10879.577503153982, 11310.094453107651, -4461.989338635128, 15918.510069669495, -1811.7877020582798, -3135.167436023645, 4391.514288367544, 39086.92021214011, -0.032237107870343604, 0.9583473418005233, -0.202735903803361, 192.0, 127.5, 8.0, 14.5, 112.0, 124.5, 88.0, 0.0, 0.0, 0.0, 1.741806326850719E9, 0.0, 2025-03-12 14:05:26.850
162.0, 8489.170192381167, 12877.354070824871, 3714.3234866051066, 16236.485986290692, 10858.097476732431, 41977.3583981226, -8127.563670583209, 25564.91947947973, 10884.33842472296, 11312.217868830905, -4451.528722230044, 15925.975552317566, -1811.0947979801654, -3138.073162802835, 4388.742672055087, 39072.838613133266, -0.032237107870343604, 0.9583473418005233, -0.202735903803361, 192.0, 0.0, 0.0, 0.0, 0.0, 0.0, 0.0, 0.0, 0.0, 0.0, 1.741806326850744E9, 0.0, 2025-03-12 14:05:26.850
164.0, 8483.694014989616, 12869.106277120862, 3709.6072685250365, 16217.01761687012, 10855.728191820168, 41965.601380539105, -8128.100112450137, 25566.14882542477, 10880.315110721007, 11305.132365838572, -4465.498562514611, 15908.608246875794, -1820.1025509956542, -3147.036212329413, 4379.556105083955, 39050.0174820444, -0.032237107870343604, 0.9583473418005233, -0.202735903803361, 192.0, 0.0, 0.0, 0.0, 0.0, 0.0, 0.0, 0.0, 0.0, 0.0, 1.741806326909377E9, 0.0, 2025-03-12 14:05:26.909
166.0, 8486.018596412969, 12868.25691083156, 3720.112588419031, 16241.381018326405, 10862.120790734387, 41986.32144764918, -8122.1545484250255, 25562.25962188955, 10879.666910131802, 11307.85927866212, -4450.366431518368, 15924.947372072624, -1814.0228765038105, -3130.1606452656565, 4388.854430777363, 39063.741453139955, -0.032237107870343604, 0.9583473418005233, -0.202735903803361, 192.0, 0.0, 0.0, 0.0, 0.0, 0.0, 0.0, 0.0, 0.0, 0.0, 1.741806326909402E9, 0.0, 2025-03-12 14:05:26.909
168.0, 8477.323767819855, 12866.379364297316, 3710.9260214479, 16219.364550037928, 10857.024592998576, 41972.12808992006, -8127.630725816575, 25562.706656778653, 10873.319014706494, 11301.064348347707, -4460.02238512306, 15917.504241169006, -1820.527234140305, -3135.6368226572067, 4384.920523753229, 39051.82797334528, -0.032237107870343604, 0.9583473418005233, -0.202735903803361, 192.0, 0.0, 0.0, 0.0, 0.0, 0.0, 0.0, 0.0, 0.0, 0.0, 1.74180632690942E9, 0.0, 2025-03-12 14:05:26.909
170.0, 8488.566695280873, 12872.839018444898, 3720.425512841405, 16243.370323582927, 10860.28794768905, 41986.164985437994, -8124.523833337288, 25577.972898241627, 10877.185866497262, 11308.932162395975, -4449.137085573326, 15924.880316839257, -1816.7721410718134, -3134.8992150901813, 4387.423919132223, 39047.20116224303, -0.0311185539351718, 0.9631736709002616, -0.2003679519016805, 192.0, 127.5, 8.0, 15.0, 32.0, 124.5, 104.0, 0.0, 0.0, 0.0, 1.741806326909439E9, 0.0, 2025-03-12 14:05:26.909
172.0, 8482.53172427794, 12877.845809202887, 3713.898803460456, 16224.63956172938, 10855.705840075712, 41972.463366086886, -8128.010705472316, 25564.5842033129, 10880.516276421104, 11309.289790307259, -4449.427658251245, 15923.740377872036, -1816.1462922270648, -3136.463837202053, 4394.82234654693, 39052.81145010131, -0.0311185539351718, 0.9631736709002616, -0.2003679519016805, 192.0, 0.0, 0.0, 0.0, 0.0, 0.0, 0.0, 0.0, 0.0, 0.0, 1.741806326909472E9, 0.0, 2025-03-12 14:05:26.909
174.0, 8494.892238961726, 12875.811800457455, 3721.9007279754555, 16249.941736452787, 10856.734020320657, 41988.333104650155, -8128.1448159390475, 25562.86311898984, 10884.718404378702, 11315.347113054648, -4446.745448916608, 15928.836575607846, -1814.9840015153889, -3137.0449825578908, 4387.5356778545, 39050.464516933505, -0.0311185539351718, 0.9631736709002616, -0.2003679519016805, 192.0, 0.0, 0.0, 0.0, 0.0, 0.0, 0.0, 0.0, 0.0, 0.0, 1.741806326909495E9, 0.0, 2025-03-12 14:05:26.909
176.0, 8489.192544125623, 12877.756402225066, 3721.9677832088214, 16232.26150658864, 10854.811770297501, 41973.89387773203, -8129.0835892061705, 25572.608479572355, 10886.081860790475, 11310.452081018935, -4442.520969214555, 15931.96581983159, -1811.9218125250118, -3136.1509127796785, 4400.67850359422, 39066.91540085261, -0.0311185539351718, 0.9631736709002616, -0.2003679519016805, 192.0, 0.0, 0.0, 0.0, 0.0, 0.0, 0.0, 0.0, 0.0, 0.0, 1.741806326909514E9, 0.0, 2025-03-12 14:05:26.909
178.0, 8499.876677975259, 12876.839980702398, 3726.9969257112657, 16246.074884662019, 10858.477456388171, 41975.01146495479, -8125.79788277124, 25560.851461988863, 10885.612474156915, 11308.261610062315, -4443.415038992767, 15930.177680275165, -1809.5748793572045, -3139.2801570034217, 4391.782509301008, 39058.46644144851, -0.0311185539351718, 0.9631736709002616, -0.2003679519016805, 192.0, 0.0, 0.0, 0.0, 0.0, 0.0, 0.0, 0.0, 0.0, 0.0, 1.741806326909532E9, 0.0, 2025-03-12 14:05:26.909
180.0, 8493.551134294406, 12880.997405171085, 3722.5042250757488, 16233.423797300316, 10852.487188874149, 41970.89874397501, -8124.099150192636, 25560.3820753553, 10888.741718380657, 11311.703778708432, -4441.336326758424, 15933.262221009998, -1807.0491322337548, -3135.1897877681004, 4398.599791359877, 39063.182659528575, -0.029559276967585903, 0.9645868354501308, -0.19918397595084025, 192.0, 127.5, 16.0, 15.0, 24.0, 124.5, 104.0, 0.0, 0.0, 0.0, 1.741806326969715E9, 0.0, 2025-03-12 14:05:26.969
182.0, 8497.641503529729, 12879.49983829258, 3725.052323943654, 16246.477216062214, 10853.358906907906, 41972.57512480916, -8123.629763559075, 25550.59201128388, 10891.759203882124, 11316.576458999689, -4441.269271525058, 15934.469215210584, -1810.781873557791, -3131.1888255106005, 4398.130404726316, 39062.221534517, -0.029559276967585903, 0.9645868354501308, -0.19918397595084025, 192.0, 0.0, 0.0, 0.0, 0.0, 0.0, 0.0, 0.0, 0.0, 0.0, 1.741806326969739E9, 0.0, 2025-03-12 14:05:26.969
184.0, 8492.590009282829, 12876.080021390919, 3716.2904401171736, 16230.339256565483, 10846.09458995993, 41969.02119744077, -8134.336249153167, 25550.72612175061, 10893.547343438548, 11316.107072366129, -4437.916509856762, 15934.715084399591, -1809.1725479570089, -3133.5804621673183, 4394.978808758117, 39060.20987751602, -0.029559276967585903, 0.9645868354501308, -0.19918397595084025, 192.0, 0.0, 0.0, 0.0, 0.0, 0.0, 0.0, 0.0, 0.0, 0.0, 1.741806326969771E9, 0.0, 2025-03-12 14:05:26.969
186.0, 8505.285800133444, 12883.83607671691, 3724.5829373100923, 16243.97382068322, 10854.163569708297, 41978.69950278992, -8120.925202479983, 25556.135243908793, 10889.456974203227, 11314.363636298614, -4447.348946016901, 15925.14853777272, -1812.5029578808496, -3138.721363392039, 4384.24997141957, 39061.439223461064, -0.029559276967585903, 0.9645868354501308, -0.19918397595084025, 192.0, 0.0, 0.0, 0.0, 0.0, 0.0, 0.0, 0.0, 0.0, 0.0, 1.74180632696979E9, 0.0, 2025-03-12 14:05:26.969
188.0, 8497.239172129533, 12883.791373228, 3717.0727511731093, 16229.534593765093, 10852.487188874149, 41975.36909286608, -8120.858147246618, 25560.40442709976, 10895.804869628533, 11322.499671280346, -4434.45198946619, 15936.145596044731, -1805.462158377428, -3120.7952643388826, 4393.145965712782, 39063.69674965105, -0.029559276967585903, 0.9645868354501308, -0.19918397595084025, 192.0, 0.0, 0.0, 0.0, 0.0, 0.0, 0.0, 0.0, 0.0, 0.0, 1.741806326969814E9, 0.0, 2025-03-12 14:05:26.969
190.0, 8502.536535565441, 12884.12664939483, 3720.2914023746735, 16235.50250953466, 10849.782627795057, 41966.98718869534, -8127.295449649746, 25537.404482055248, 10894.128488794386, 11318.47635727839, -4449.204140806692, 15921.259334237497, -1812.0782747361989, -3140.8894826042037, 4383.244142919081, 39047.53643840986, -0.03377963848379295, 0.9632934177250654, -0.20059198797542013, 192.0, 127.0, 104.0, 15.0, 8.0, 124.5, 88.0, 0.0, 0.0, 0.0, 1.741806326969832E9, 0.0, 2025-03-12 14:05:26.969
192.0, 8498.848497730314, 12877.577588269423, 3722.4818733312936, 16239.011733414143, 10850.967270251187, 41981.73934003584, -8127.429560116478, 25557.208127642647, 10897.39184348486, 11322.902002680541, -4434.586099932922, 15931.809357620403, -1805.2609926773303, -3130.5182731769414, 4392.765986057042, 39064.27789500688, -0.03377963848379295, 0.9632934177250654, -0.20059198797542013, 192.0, 0.0, 0.0, 0.0, 0.0, 0.0, 0.0, 0.0, 0.0, 0.0, 1.741806326969852E9, 0.0, 2025-03-12 14:05:26.969
194.0, 8503.363550110287, 12877.689346991701, 3729.299155390162, 16246.074884662019, 10852.174264451774, 41978.744206278825, -8126.535490338265, 25542.366569324324, 10893.480288205183, 11320.53271776828, -4445.650213438298, 15924.142709272232, -1806.9150217670228, -3137.0449825578908, 4392.765986057042, 39068.435319475575, -0.03377963848379295, 0.9632934177250654, -0.20059198797542013, 192.0, 0.0, 0.0, 0.0, 0.0, 0.0, 0.0, 0.0, 0.0, 0.0, 1.741806327029957E9, 0.0, 2025-03-12 14:05:27.029
196.0, 8496.34510235132, 12872.50374227807, 3720.9619547083325, 16225.555983252048, 10848.665040572292, 41964.01440668278, -8131.050542718237, 25534.85638318734, 10893.033253316076, 11322.164395113516, -4438.251786023591, 15929.216555263587, -1803.495204865361, -3131.14412202169, 4391.894268023285, 39052.38676695666, -0.03377963848379295, 0.9632934177250654, -0.20059198797542013, 192.0, 0.0, 0.0, 0.0, 0.0, 0.0, 0.0, 0.0, 0.0, 0.0, 1.741806327029992E9, 0.0, 2025-03-12 14:05:27.029
198.0, 8491.248904615511, 12870.514437021548, 3722.1242454200087, 16220.437433771782, 10846.407514382305, 41960.996921181315, -8133.263365419312, 25533.04589188646, 10883.44435494475, 11311.614371730611, -4461.989338635128, 15907.557714886394, -1813.0841032366877, -3135.4580087015643, 4380.740747540087, 39042.0155575294, -0.03377963848379295, 0.9632934177250654, -0.20059198797542013, 192.0, 0.0, 0.0, 0.0, 0.0, 0.0, 0.0, 0.0, 0.0, 0.0, 1.741806327030011E9, 0.0, 2025-03-12 14:05:27.030
200.0, 8496.076881417857, 12871.676727733224, 3727.019277455721, 16228.484061775693, 10844.9099475038, 41962.87446771556, -8137.174920698992, 25527.659121472734, 10890.373395725894, 11317.314066566714, -4442.4539139811895, 15922.265162737986, -1809.463120634928, -3144.5998721837846, 4381.321892895924, 39027.2634061889, -0.031889819241896475, 0.9616467088625327, -0.19829599398771008, 192.0, 127.5, 8.0, 15.0, 0.0, 124.5, 112.0, 0.0, 0.0, 0.0, 1.741806327030032E9, 0.0, 2025-03-12 14:05:27.030
202.0, 8491.897105204715, 12871.430858544214, 3725.8122832551344, 16238.49764329167, 10842.898290502822, 41973.44684284292, -8138.963060255416, 25533.269409331013, 10890.060471303519, 11322.790243958265, -4450.008803607083, 15923.852136594312, -1815.1628154710313, -3132.306412733366, 4380.427823117712, 39049.59279889975, -0.031889819241896475, 0.9616467088625327, -0.19829599398771008, 192.0, 0.0, 0.0, 0.0, 0.0, 0.0, 0.0, 0.0, 0.0, 0.0, 1.741806327030051E9, 0.0, 2025-03-12 14:05:27.030
204.0, 8487.762032480483, 12865.93232940821, 3722.1913006533746, 16238.251774102662, 10843.792360281035, 41967.858906729096, -8133.978621241882, 25531.43656628568, 10883.265540989107, 11322.074988135695, -4439.637594179821, 15933.418683221184, -1813.8887660370788, -3126.9643458085475, 4382.461831863146, 39049.749261110934, -0.031889819241896475, 0.9616467088625327, -0.19829599398771008, 192.0, 0.0, 0.0, 0.0, 0.0, 0.0, 0.0, 0.0, 0.0, 0.0, 1.74180632703007E9, 0.0, 2025-03-12 14:05:27.030
206.0, 8486.823259213359, 12864.367707296338, 3722.951259964855, 16238.184718869295, 10849.804979539513, 41978.85596500111, -8119.919373979495, 25547.842746715876, 10877.409383941816, 11313.536621753767, -4457.40723102179, 15915.246714979019, -1817.8450248056681, -3132.2840609889104, 4398.689198337698, 39065.574296185296, -0.031889819241896475, 0.9616467088625327, -0.19829599398771008, 192.0, 0.0, 0.0, 0.0, 0.0, 0.0, 0.0, 0.0, 0.0, 0.0, 1.741806327030089E9, 0.0, 2025-03-12 14:05:27.030
208.0, 8485.146878379212, 12856.611651970346, 3718.950297707355, 16246.11958815093, 10850.76610455109, 41981.02408421327, -8123.361542625612, 25536.800984954953, 10883.779631111578, 11317.403473544535, -4441.761009903074, 15926.132014528754, -1814.3805044150954, -3121.175243994623, 4408.836890320407, 39082.6733806936, -0.031889819241896475, 0.9616467088625327, -0.19829599398771008, 192.0, 0.0, 0.0, 0.0, 0.0, 0.0, 0.0, 0.0, 0.0, 0.0, 1.741806327030112E9, 0.0, 2025-03-12 14:05:27.030
210.0, 8476.809677697382, 12853.214186813138, 3712.110663904031, 16231.859175188445, 10850.43082838426, 41972.5080695758, -8121.238126902357, 25546.546345537467, 10878.035232786564, 11309.312142051715, -4465.297396814513, 15911.737491099537, -1823.3435539416737, -3133.021668555936, 4394.755291313564, 39060.656912405124, -0.02894490962094824, 0.9618233544312663, -0.20114799699385505, 192.0, 127.5, 24.0, 15.0, 8.0, 124.5, 80.0, 0.0, 0.0, 0.0, 1.741806327090178E9, 0.0, 2025-03-12 14:05:27.090
212.0, 8476.63086374174, 12852.722448435123, 3714.8152249831232, 16237.201242113262, 10853.202444696719, 41982.320485391676, -8122.042789702748, 25543.14888038026, 10880.426869443283, 11312.28492406427, -4452.579254219443, 15925.77438661747, -1819.7672748288246, -3132.4181714556426, 4401.572573372433, 39069.195278787054, -0.02894490962094824, 0.9618233544312663, -0.20114799699385505, 192.0, 0.0, 0.0, 0.0, 0.0, 0.0, 0.0, 0.0, 0.0, 0.0, 1.741806327090253E9, 0.0, 2025-03-12 14:05:27.090
214.0, 8476.653215486194, 12854.801160669465, 3705.919230689911, 16213.30722729054, 10846.139293448841, 41968.909438718496, -8130.469397362399, 25538.477365789102, 10873.319014706494, 11302.248990803837, -4466.88437067084, 15908.742357342526, -1827.4339231769948, -3145.8962733621925, 4381.634817318299, 39047.35762445422, -0.02894490962094824, 0.9618233544312663, -0.20114799699385505, 192.0, 0.0, 0.0, 0.0, 0.0, 0.0, 0.0, 0.0, 0.0, 0.0, 1.741806327090271E9, 0.0, 2025-03-12 14:05:27.090
216.0, 8488.857267958792, 12865.820570685932, 3719.0620564296314, 16237.73768398019, 10851.079028973465, 41981.11349119109, -8127.183690927469, 25538.14208962227, 10883.91374157831, 11310.072101363196, -4448.600643706399, 15923.762729616492, -1820.683696351492, -3135.4133052126535, 4386.619256331833, 39049.03400528837, -0.02894490962094824, 0.9618233544312663, -0.20114799699385505, 192.0, 0.0, 0.0, 0.0, 0.0, 0.0, 0.0, 0.0, 0.0, 0.0, 1.7418063270903E9, 0.0, 2025-03-12 14:05:27.090
