%OpenBCI Raw EXG Data
%Number of channels = 16
%Sample Rate = 125 Hz
%Board = OpenBCI_GUI$BoardCytonSerialDaisy
Sample Index, EXG Channel 0, EXG Channel 1, EXG Channel 2, EXG Channel 3, EXG Channel 4, EXG Channel 5, EXG Channel 6, EXG Channel 7, EXG Channel 8, EXG Channel 9, EXG Channel 10, EXG Channel 11, EXG Channel 12, EXG Channel 13, EXG Channel 14, EXG Channel 15, Accel Channel 0, Accel Channel 1, Accel Channel 2, Not Used, Digital Channel 0 (D11), Digital Channel 1 (D12), Digital Channel 2 (D13), Digital Channel 3 (D17), Not Used, Digital Channel 4 (D18), Analog Channel 0, Analog Channel 1, Analog Channel 2, Timestamp, Marker Channel, Timestamp (Formatted)
0.0, 8636.199967408176, 13595.69443412953, 4216.0530943933845, 16530.903164255997, 15126.028970006582, 41434.74744972557, -5930.074266204151, 33468.11633922056, 0.0, 0.0, 0.0, 0.0, 0.0, 0.0, 0.0, 0.0, 0.0, 0.0, 0.0, 192.0, 0.0, 0.0, 0.0, 0.0, 0.0, 0.0, 0.0, 0.0, 0.0, 1.741806284627414E9, 0.0, 2025-03-12 14:04:44.627
14.0, 8649.298089658987, 13604.299855744823, 4231.945184701108, 16542.011981250285, 15131.080464253482, 41443.039946918485, -5925.447455101902, 33470.39621715501, 11383.832858065709, 11295.52111572279, -4187.420509746135, 18173.376402065325, -1681.4770318838398, -3042.787676189861, 4327.722409692098, 40042.92667423805, 0.0, 0.0, 0.0, 192.0, 0.0, 0.0, 0.0, 0.0, 0.0, 0.0, 0.0, 0.0, 0.0, 1.74180628462745E9, 0.0, 2025-03-12 14:04:44.627
16.0, 8635.037676696502, 13611.944152348537, 4217.55066127189, 16528.73504504383, 15129.605249119431, 41434.523932281016, -5927.369705125058, 33479.873356804055, 11387.140916245095, 11309.826232174186, -4178.68097766411, 18184.8428469709, -1671.9328370014236, -3048.308557070322, 4328.661182959221, 40037.025813701846, 0.0, 0.0, 0.0, 192.0, 0.0, 0.0, 0.0, 0.0, 0.0, 0.0, 0.0, 0.0, 0.0, 1.741806284627467E9, 0.0, 2025-03-12 14:04:44.627
18.0, 8638.323383131432, 13605.104518545213, 4220.523443284445, 16528.37741713255, 15126.543060129055, 41439.329557338904, -5941.6748215764555, 33468.42926364294, 11377.6861283405, 11305.132365838572, -4194.1036813382725, 18169.196625852182, -1670.0105869782672, -3056.533999029875, 4321.2404038000595, 40033.516589822364, 0.0, 0.0, 0.0, 192.0, 0.0, 0.0, 0.0, 0.0, 0.0, 0.0, 0.0, 0.0, 0.0, 1.741806284627483E9, 0.0, 2025-03-12 14:04:44.627
20.0, 8630.209699894154, 13608.099652302224, 4229.955879444585, 16534.054760224197, 15126.967743273706, 41446.25859812005, -5931.08009470464, 33464.80828104118, 11391.499506413878, 11330.255726606338, -4162.475962934013, 18194.677614531232, -1675.240895180809, -3046.431010536076, 4323.81085441242, 40045.273607405856, 0.0, 0.0, 0.0, 192.0, 0.0, 0.0, 0.0, 0.0, 0.0, 0.0, 0.0, 0.0, 0.0, 1.741806284627515E9, 0.0, 2025-03-12 14:04:44.627
22.0, 8634.27771738502, 13606.087995301246, 4217.081274638328, 16529.539707844222, 15128.219440963203, 41440.00010967256, -5932.197681927405, 33480.63331611554, 11376.121506228626, 11319.99627590135, -4198.864602907253, 18170.470675286135, -1676.4255376369404, -3049.5155512709084, 4316.702999675632, 40021.69251700551, -0.038, 0.9460000000000001, -0.272, 192.0, 127.0, 104.0, 14.5, 72.0, 123.5, 64.0, 0.0, 0.0, 0.0, 1.741806284627531E9, 0.0, 2025-03-12 14:04:44.627
24.0, 8626.834586481404, 13603.003454566415, 4250.854760510297, 16549.253946453806, 15136.154310244836, 41462.64242680579, -5921.468844588858, 33477.928755036446, 11394.941675059996, 11323.90783118103, -4156.955082053552, 18190.699004018188, -1668.088336955111, -3039.725487199484, 4360.937101952684, 40078.041264777334, -0.038, 0.9460000000000001, -0.272, 192.0, 0.0, 0.0, 0.0, 0.0, 0.0, 0.0, 0.0, 0.0, 0.0, 1.741806284627549E9, 0.0, 2025-03-12 14:04:44.627
26.0, 8638.435141853708, 13607.31734124629, 4240.304737127392, 16534.27827766875, 15132.443920665255, 41451.60066504487, -5921.737065522321, 33487.227080729856, 11385.86686681114, 11323.214927102916, -4188.314579524348, 18166.715582217646, -1684.2709999407532, -3050.1861036045675, 4345.827322700897, 40053.27553192086, -0.038, 0.9460000000000001, -0.272, 192.0, 0.0, 0.0, 0.0, 0.0, 0.0, 0.0, 0.0, 0.0, 0.0, 1.741806284627565E9, 0.0, 2025-03-12 14:04:44.627
28.0, 8653.880197272325, 13622.874155387182, 4232.16870214566, 16553.701943600412, 15129.627600863887, 41462.44126110569, -5930.990687726819, 33472.78785381173, 11403.97177981994, 11345.119636669117, -4144.348698180759, 18191.011928440563, -1673.9668457468565, -3040.6866122110623, 4352.376383826302, 40054.25900867689, -0.038, 0.9460000000000001, -0.272, 192.0, 0.0, 0.0, 0.0, 0.0, 0.0, 0.0, 0.0, 0.0, 0.0, 1.741806284627581E9, 0.0, 2025-03-12 14:04:44.627
30.0, 8624.822929480426, 13600.991797565437, 4228.7935887329095, 16520.487251339826, 15125.89485953985, 41439.41896431673, -5938.143245952517, 33464.40594964098, 11388.77259359033, 11328.802863216742, -4178.390404986191, 18165.285070572507, -1683.533392373728, -3030.985955117459, 4337.33365980788, 40036.26585439037, -0.038, 0.9460000000000001, -0.272, 192.0, 0.0, 0.0, 0.0, 0.0, 0.0, 0.0, 0.0, 0.0, 0.0, 1.741806284627596E9, 0.0, 2025-03-12 14:04:44.627
32.0, 8615.055217153456, 13591.268788727379, 4218.534138027923, 16521.962466473873, 15125.112548483916, 41444.82808647491, -5941.3842488985365, 33459.265048416266, 11385.285721455302, 11314.453043276435, -4173.830649117309, 18158.892471658288, -1679.7559475607811, -3047.682708225573, 4336.28312781848, 40015.05404890228, -0.04, 0.9420000000000001, -0.276, 192.0, 127.0, 96.0, 14.5, 56.0, 123.5, 48.0, 0.0, 0.0, 0.0, 1.741806284627612E9, 0.0, 2025-03-12 14:04:44.627
34.0, 8637.988106964602, 13604.769242378385, 4229.844120722309, 16511.479498324337, 15127.23596420717, 41433.249882847056, -5936.757437796287, 33463.71304556287, 11374.378070161114, 11305.020607116296, -4187.219344046038, 18147.627192452812, -1687.1543749754876, -3064.55827528933, 4330.8740056602965, 40006.53803426481, -0.04, 0.9420000000000001, -0.276, 192.0, 0.0, 0.0, 0.0, 0.0, 0.0, 0.0, 0.0, 0.0, 0.0, 1.741806284627628E9, 0.0, 2025-03-12 14:04:44.627
36.0, 8620.531394545007, 13585.770259591372, 4218.645896750199, 16519.950809472895, 15126.654818851332, 41456.00395870256, -5941.227786687349, 33457.923943748945, 11378.289625440791, 11311.234392074872, -4167.192181014083, 18156.187910579196, -1684.5392208742169, -3065.1617723896234, 4337.803046441441, 40006.98506915392, -0.04, 0.9420000000000001, -0.276, 192.0, 0.0, 0.0, 0.0, 0.0, 0.0, 0.0, 0.0, 0.0, 0.0, 1.741806284627652E9, 0.0, 2025-03-12 14:04:44.627
0.0, 4277.028653267462, 6735.921709051337, 2022.2070243605406, 8204.878354654116, 6861.829085568081, 20854.311687268222, -3418.162872572288, 15060.4042482858, 5676.672539314335, 5636.484102783693, -2094.6937316291014, 9069.689699374401, -844.538312499322, -1541.4657046157963, 2161.860723717299, 19999.871551975197, -0.02, 0.9520000000000001, -0.252, 192.0, 127.5, 48.0, 14.5, 96.0, 124.0, 16.0, 0.0, 0.0, 0.0, 1.741806284743326E9, 0.0, 2025-03-12 14:04:44.743
2.0, 8544.69192560815, 13471.642252402575, 4054.3382232592376, 16398.737299291766, 13715.320970454333, 41702.81192097806, -6839.87967251297, 30120.24970296022, 11136.95784055684, 11274.912807334997, -4273.98881602154, 17700.458192879938, -1929.6708023155693, -3081.4114906086315, 4357.986671684584, 39661.02476847467, -0.02, 0.9520000000000001, -0.252, 192.0, 0.0, 0.0, 0.0, 0.0, 0.0, 0.0, 0.0, 0.0, 0.0, 1.741806284802918E9, 0.0, 2025-03-12 14:04:44.802
4.0, 8548.759943099016, 13464.310880221234, 4057.6015779497125, 16414.696444832854, 13716.170336743635, 41715.73122927323, -6844.282966170665, 30103.061211474087, 11132.86747132152, 11275.918635835485, -4276.425156167168, 17705.50968712684, -1927.2568139143962, -3076.851734739749, 4365.698023521665, 39668.93728601185, -0.02, 0.9520000000000001, -0.252, 192.0, 0.0, 0.0, 0.0, 0.0, 0.0, 0.0, 0.0, 0.0, 0.0, 1.741806284802977E9, 0.0, 2025-03-12 14:04:44.802
6.0, 8518.316867150888, 13460.958118552939, 4035.1380747721287, 16399.81018302562, 13714.158679742657, 41722.615566565466, -6838.672678312383, 30117.679252347858, 11123.837366561576, 11272.52117067828, -4289.523278417978, 17698.401832390053, -1938.0750582307649, -3056.444592052054, 4359.797162985464, 39685.38816993096, -0.02, 0.9520000000000001, -0.252, 192.0, 0.0, 0.0, 0.0, 0.0, 0.0, 0.0, 0.0, 0.0, 0.0, 1.741806284802993E9, 0.0, 2025-03-12 14:04:44.802
8.0, 8548.335259954365, 13453.514987649321, 4040.0778102967515, 16395.943331234852, 13716.349150699276, 41711.52910131563, -6830.111960186, 30112.359537167496, 11124.507918895235, 11265.525074663768, -4301.883793101763, 17678.55348331374, -1938.81266579779, -3077.2764178844, 4355.259758861036, 39678.63794310545, -0.012, 0.9560000000000001, -0.23800000000000002, 192.0, 127.5, 80.0, 14.5, 112.0, 124.0, 72.0, 0.0, 0.0, 0.0, 1.741806284803009E9, 0.0, 2025-03-12 14:04:44.803
10.0, 8534.901861536726, 13453.76085683833, 4035.2051300054945, 16386.086211930062, 13714.650418120673, 41706.321144857546, -6828.748503774226, 30109.94554876632, 11130.989924787275, 11264.854522330108, -4280.761394591498, 17686.845980506656, -1931.1460174496196, -3071.4202608371093, 4358.366651340324, 39673.340579669544, -0.012, 0.9560000000000001, -0.23800000000000002, 192.0, 0.0, 0.0, 0.0, 0.0, 0.0, 0.0, 0.0, 0.0, 0.0, 1.741806284803032E9, 0.0, 2025-03-12 14:04:44.803
12.0, 8536.041800503946, 13445.021324756304, 4019.961240286975, 16387.002633452732, 13711.074139007824, 41703.99656343419, -6832.280079398165, 30109.94554876632, 11122.205689216338, 11252.404600668502, -4298.151051777727, 17667.087038408165, -1940.1537704651084, -3076.1811824060896, 4348.688345991176, 39662.70114930882, -0.012, 0.9560000000000001, -0.23800000000000002, 192.0, 0.0, 0.0, 0.0, 0.0, 0.0, 0.0, 0.0, 0.0, 0.0, 1.741806284803048E9, 0.0, 2025-03-12 14:04:44.803
14.0, 8523.837748031348, 13444.596641611653, 4039.4743131964583, 16385.68388052987, 13710.560048885352, 41699.325048843035, -6825.418093850386, 30106.369269653474, 11120.01521825972, 11261.524112406269, -4291.534935418956, 17676.474771079396, -1936.8233605412677, -3098.979961750503, 4357.33847109538, 39659.996588229726, -0.012, 0.9560000000000001, -0.23800000000000002, 192.0, 0.0, 0.0, 0.0, 0.0, 0.0, 0.0, 0.0, 0.0, 0.0, 1.741806284803064E9, 0.0, 2025-03-12 14:04:44.803
16.0, 8531.213823701599, 13443.300240433246, 4042.804723120299, 16383.426354339881, 13713.845755320282, 41698.05099940908, -6827.1615299179, 30103.932929507846, 11119.501128137246, 11254.37155418057, -4300.609743667811, 17666.30472735223, -1942.903035033111, -3091.983865735992, 4356.399697828258, 39654.341596882536, -0.012, 0.9560000000000001, -0.23800000000000002, 192.0, 0.0, 0.0, 0.0, 0.0, 0.0, 0.0, 0.0, 0.0, 0.0, 1.741806284863218E9, 0.0, 2025-03-12 14:04:44.863
18.0, 8532.30905917991, 13442.495577632855, 4037.1050282841957, 16390.489505587757, 13713.778700086916, 41700.19676687679, -6824.2110996497995, 30108.49268537673, 11123.524442139202, 11260.451228672413, -4290.797327851931, 17676.631233290584, -1936.0857529742425, -3081.187973164079, 4360.110087407838, 39659.68366380736, -0.004, 0.962, -0.22, 192.0, 127.5, 112.0, 15.0, 8.0, 124.5, 16.0, 0.0, 0.0, 0.0, 1.741806284863249E9, 0.0, 2025-03-12 14:04:44.863
20.0, 8528.442207389142, 13439.433388642477, 4022.4646356659696, 16381.995842694741, 13711.901153552672, 41696.62048776394, -6829.329649130064, 30097.0038887267, 11115.164889712918, 11256.6067286261, -4303.962505336107, 17668.651660520038, -1947.485142646449, -3104.8584705422486, 4352.599901270855, 39654.408652115904, -0.004, 0.962, -0.22, 192.0, 0.0, 0.0, 0.0, 0.0, 0.0, 0.0, 0.0, 0.0, 0.0, 1.741806284863292E9, 0.0, 2025-03-12 14:04:44.863
22.0, 8531.102064979323, 13436.572365352198, 4029.0807520247404, 16386.04150844115, 13713.756348342462, 41700.10735989897, -6830.0225532081795, 30098.63556607194, 11118.24943044775, 11255.690307103432, -4296.809947110409, 17671.713849510415, -1929.8049127823012, -3086.306522644344, 4347.369593068313, 39640.66232927589, -0.004, 0.962, -0.22, 192.0, 0.0, 0.0, 0.0, 0.0, 0.0, 0.0, 0.0, 0.0, 0.0, 1.741806284863309E9, 0.0, 2025-03-12 14:04:44.863
24.0, 8529.984477756558, 13428.302219903735, 4035.696868383511, 16376.81023798111, 13711.968208786036, 41708.39985709189, -6829.530814830162, 30109.16323771039, 11114.427282145893, 11250.236481456337, -4310.1539385502265, 17663.644869762047, -1955.5764741392702, -3065.1394206451682, 4353.024584415506, 39653.73809978224, -0.004, 0.962, -0.22, 192.0, 0.0, 0.0, 0.0, 0.0, 0.0, 0.0, 0.0, 0.0, 0.0, 1.741806284863325E9, 0.0, 2025-03-12 14:04:44.863
26.0, 8524.620059087285, 13442.115597977114, 4031.6512026371006, 16393.506991089223, 13708.123708739724, 41709.472740825746, -6843.3441929035425, 30099.44022887233, 11109.264029176717, 11224.822548010654, -4303.9848570805625, 17664.337773840165, -1949.4073926696055, -3084.719548788017, 4350.409430314235, 39653.60398931551, -0.004, 0.962, -0.22, 192.0, 0.0, 0.0, 0.0, 0.0, 0.0, 0.0, 0.0, 0.0, 0.0, 1.741806284863347E9, 0.0, 2025-03-12 14:04:44.863
28.0, 8528.218689944588, 13431.386760638567, 4014.552118128791, 16375.558540291613, 13705.486202893997, 41699.86149070996, -6845.5793673490725, 30093.852292758504, 11110.001636743742, 11239.820568540164, -4308.678723416177, 17668.428143075485, -1953.9447967940328, -3099.3152379173325, 4339.993517398062, 39650.83237300305, -0.008, 0.96, -0.222, 192.0, 127.5, 96.0, 15.0, 0.0, 124.5, 8.0, 0.0, 0.0, 0.0, 1.741806284863364E9, 0.0, 2025-03-12 14:04:44.863
30.0, 8519.389750884742, 13427.139929192059, 4027.136150257129, 16382.28641537266, 13712.258781463956, 41704.6447640234, -6831.631878808961, 30107.91154002089, 11104.39134888546, 11235.573737093657, -4306.868232115296, 17661.45439880543, -1944.557064122804, -3090.7098163020396, 4346.408468056735, 39643.54570431062, -0.008, 0.96, -0.222, 192.0, 0.0, 0.0, 0.0, 0.0, 0.0, 0.0, 0.0, 0.0, 0.0, 1.74180628486338E9, 0.0, 2025-03-12 14:04:44.863
32.0, 8529.135111467256, 13439.031057242282, 4016.787292574322, 16378.48661881526, 13709.151888984668, 41696.88870869741, -6830.670753797383, 30103.217673685274, 11108.973456498798, 11250.951737278907, -4319.273450287992, 17660.515625538304, -1942.0536687438093, -3090.531002346397, 4354.678613505199, 39655.28037014966, -0.008, 0.96, -0.222, 192.0, 0.0, 0.0, 0.0, 0.0, 0.0, 0.0, 0.0, 0.0, 0.0, 1.741806284922192E9, 0.0, 2025-03-12 14:04:44.922
34.0, 8553.990251301557, 13438.315801419712, 4048.8173423787766, 16402.604151082534, 13710.336531440798, 41710.03153443713, -6831.4307131088635, 30104.44701963032, 11115.790738557665, 11246.7049058324, -4305.393016981247, 17669.858654720625, -1937.3150989192843, -3099.5834588507964, 4352.532846037489, 39650.58650381405, -0.008, 0.96, -0.222, 192.0, 0.0, 0.0, 0.0, 0.0, 0.0, 0.0, 0.0, 0.0, 0.0, 1.741806284922221E9, 0.0, 2025-03-12 14:04:44.922
36.0, 8526.005867243513, 13436.393551396555, 4039.027278307352, 16376.72083100329, 13701.373481914221, 41696.039342408105, -6839.1644166904, 30101.071906217567, 11123.412683416926, 11244.98382150934, -4293.680702886665, 17668.852826220136, -1944.869988545178, -3075.7788510058945, 4355.639738516777, 39652.75462302621, -0.008, 0.96, -0.222, 192.0, 0.0, 0.0, 0.0, 0.0, 0.0, 0.0, 0.0, 0.0, 0.0, 1.741806284922238E9, 0.0, 2025-03-12 14:04:44.922
38.0, 8543.842559318848, 13444.75310382284, 4038.803760862799, 16391.741203277255, 13703.631008104207, 41700.666153510356, -6836.169282933389, 30098.9037870054, 11116.461290891326, 11253.030449513251, -4291.80315635242, 17668.361087842117, -1950.3685176811837, -3095.5154413599303, 4352.3540320818465, 39641.31052986509, -0.008, 0.962, -0.222, 192.0, 127.5, 96.0, 15.0, 8.0, 124.5, 8.0, 0.0, 0.0, 0.0, 1.741806284922254E9, 0.0, 2025-03-12 14:04:44.922
40.0, 8523.122492208779, 13436.41590314101, 4023.649278122101, 16368.540092532647, 13704.94976102707, 41696.50872904166, -6827.563861318095, 30100.513112606182, 11108.347607654048, 11264.429839185457, -4311.249174028537, 17656.916994681, -1948.803895569312, -3110.75933107845, 4351.839941959374, 39639.94707345332, -0.008, 0.962, -0.222, 192.0, 0.0, 0.0, 0.0, 0.0, 0.0, 0.0, 0.0, 0.0, 0.0, 1.741806284922271E9, 0.0, 2025-03-12 14:04:44.922
42.0, 8535.125378981278, 13429.866842015606, 4037.2391387509274, 16380.05124092713, 13701.32877842531, 41696.97811567523, -6832.816521265093, 30093.91934799187, 11105.218363430306, 11246.727257576855, -4305.303610003425, 17652.9160324235, -1953.6542241161137, -3081.1209179307125, 4353.359860582335, 39637.80130598561, -0.008, 0.962, -0.222, 192.0, 0.0, 0.0, 0.0, 0.0, 0.0, 0.0, 0.0, 0.0, 0.0, 1.741806284922311E9, 0.0, 2025-03-12 14:04:44.922
44.0, 8523.25660267551, 13427.385798381067, 4014.552118128791, 16361.90162442942, 13695.785545800394, 41695.21232786326, -6829.441407852341, 30098.09912420501, 11101.351511639537, 11244.64854534251, -4318.357028765325, 17647.97629689888, -1949.6532618586139, -3107.495976387975, 4339.0323923864835, 39634.71676525078, -0.008, 0.962, -0.222, 192.0, 0.0, 0.0, 0.0, 0.0, 0.0, 0.0, 0.0, 0.0, 0.0, 1.741806284922327E9, 0.0, 2025-03-12 14:04:44.922
46.0, 8547.396486687241, 13429.889193760062, 4012.831033805732, 16383.560464806613, 13698.065423734835, 41710.59032804851, -6821.618297292984, 30100.53546435064, 11100.300979650137, 11249.253004700304, -4326.76128468052, 17645.718770708892, -1945.0264507563652, -3093.861412270238, 4336.886624918774, 39638.404803085905, -0.008, 0.962, -0.222, 192.0, 0.0, 0.0, 0.0, 0.0, 0.0, 0.0, 0.0, 0.0, 0.0, 1.741806284976631E9, 0.0, 2025-03-12 14:04:44.976
48.0, 8536.131207481767, 13433.241955428357, 4034.5122259273803, 16372.295185601139, 13700.61352260274, 41714.88186298393, -6803.91571568438, 30110.683156333347, 11101.709139550823, 11256.27145245927, -4316.121854319794, 17655.017096402302, -1936.6445465856252, -3090.463947113031, 4353.739840238076, 39672.89354478044, -0.014, 0.964, -0.218, 192.0, 127.5, 72.0, 15.0, 16.0, 124.5, 24.0, 0.0, 0.0, 0.0, 1.741806284976662E9, 0.0, 2025-03-12 14:04:44.976
50.0, 8543.775504085483, 13437.265269430312, 4032.32175497076, 16393.462287600316, 13701.708758081051, 41721.45327585379, -6800.4958987827185, 30106.9057115204, 11101.86560176201, 11258.484275160346, -4321.799197411442, 17658.1686923705, -1942.7689245663794, -3067.84398172426, 4354.4103925717345, 39680.58254487307, -0.014, 0.964, -0.218, 192.0, 0.0, 0.0, 0.0, 0.0, 0.0, 0.0, 0.0, 0.0, 0.0, 1.741806284976701E9, 0.0, 2025-03-12 14:04:44.976
52.0, 8531.392637657242, 13433.644286828552, 4021.1235309986514, 16365.321441331083, 13696.679615578607, 41696.01699066365, -6803.222811606266, 30091.43830435733, 11100.792718028155, 11249.253004700304, -4324.5708137239, 17656.40290455853, -1934.744648306924, -3102.399778652165, 4347.883683190785, 39671.23951569075, -0.014, 0.964, -0.218, 192.0, 0.0, 0.0, 0.0, 0.0, 0.0, 0.0, 0.0, 0.0, 0.0, 1.741806284976718E9, 0.0, 2025-03-12 14:04:44.976
54.0, 8535.326544681377, 13436.304144418735, 4020.3412199427153, 16372.205778623318, 13695.316159166832, 41705.22590937924, -6801.1440993719225, 30099.708449805792, 11104.704273307834, 11238.36770515057, -4330.449322515646, 17642.63422997406, -1929.8943197601225, -3083.154926676146, 4340.485255776079, 39670.501908123726, -0.014, 0.964, -0.218, 192.0, 0.0, 0.0, 0.0, 0.0, 0.0, 0.0, 0.0, 0.0, 0.0, 1.741806284976734E9, 0.0, 2025-03-12 14:04:44.976
56.0, 8535.88533829276, 13449.648135858553, 4016.3402576852154, 16370.305880344617, 13696.031414989402, 41704.46595006776, -6792.449270778808, 30095.886301503935, 11107.498241364747, 11252.695173346421, -4329.1082178483275, 17647.52926200977, -1925.8039505248012, -3096.498918115964, 4345.000308156051, 39683.622382118985, -0.014, 0.964, -0.218, 192.0, 0.0, 0.0, 0.0, 0.0, 0.0, 0.0, 0.0, 0.0, 0.0, 1.741806285027611E9, 0.0, 2025-03-12 14:04:45.027
58.0, 8549.966937299603, 13454.252595216347, 4032.0535340372962, 16382.219360139296, 13695.740842311483, 41710.63503153742, -6791.197573089311, 30099.44022887233, 11115.120186224007, 11247.04018199923, -4328.862348659319, 17643.2153753299, -1909.1071974166869, -3094.599019837263, 4348.755401224542, 39693.18892874586, -0.01, 0.964, -0.218, 192.0, 127.5, 88.0, 15.0, 16.0, 124.5, 24.0, 0.0, 0.0, 0.0, 1.741806285027643E9, 0.0, 2025-03-12 14:04:45.027
60.0, 8534.45482664762, 13453.403228927045, 4009.1206442261514, 16362.415714551893, 13689.348243397266, 41701.24729886619, -6802.3734453169645, 30081.737647263726, 11128.665343363922, 11257.500798404313, -4309.5057379610225, 17656.02292490279, -1908.4142933385724, -3078.7516330184503, 4357.137305395282, 39700.408542204925, -0.01, 0.964, -0.218, 192.0, 0.0, 0.0, 0.0, 0.0, 0.0, 0.0, 0.0, 0.0, 0.0, 1.741806285027661E9, 0.0, 2025-03-12 14:04:45.027
62.0, 8554.526693168486, 13463.461513931932, 4018.061342008274, 16377.279624614672, 13684.09558345027, 41699.86149070996, -6806.597925019018, 30077.222594883755, 11121.19986071585, 11229.762283535276, -4340.708773220632, 17631.078378090668, -1902.0216944243546, -3085.010121465936, 4335.769037696009, 39682.48244315177, -0.01, 0.964, -0.218, 192.0, 0.0, 0.0, 0.0, 0.0, 0.0, 0.0, 0.0, 0.0, 0.0, 1.741806285027677E9, 0.0, 2025-03-12 14:04:45.027
64.0, 8533.918384780693, 13460.533435408288, 4033.2381764934275, 16374.463304813304, 13685.70490905105, 41703.28130761162, -6806.977904674757, 30080.262432129675, 11135.773198100711, 11259.579510638656, -4307.181156537671, 17660.73914298286, -1911.0517991842985, -3067.84398172426, 4352.868122204319, 39698.50864392622, -0.01, 0.964, -0.218, 192.0, 0.0, 0.0, 0.0, 0.0, 0.0, 0.0, 0.0, 0.0, 0.0, 1.741806285027692E9, 0.0, 2025-03-12 14:04:45.027
66.0, 8567.26718750801, 13461.539263908777, 4036.009792805886, 16377.324328103583, 13688.454173619053, 41696.598136019486, -6806.329704085553, 30071.455844814285, 11133.53802365518, 11231.349257391603, -4320.905127633229, 17636.19692757093, -1904.0557031697874, -3071.487316070475, 4353.270453604514, 39693.211280490315, -0.01, 0.964, -0.218, 192.0, 0.0, 0.0, 0.0, 0.0, 0.0, 0.0, 0.0, 0.0, 0.0, 1.74180628502773E9, 0.0, 2025-03-12 14:04:45.027
68.0, 8560.02522230449, 13463.059182531737, 4016.787292574322, 16370.752915233723, 13679.222903159012, 41684.48349052471, -6821.327724615065, 30055.362588806463, 11135.504977167247, 11251.912862290486, -4309.3269240053805, 17649.183291099464, -1900.8147002237679, -3101.5504123628634, 4351.996404170562, 39685.54463214215, -0.01, 0.966, -0.222, 192.0, 127.5, 88.0, 15.0, 24.0, 124.5, 8.0, 0.0, 0.0, 0.0, 1.741806285027747E9, 0.0, 2025-03-12 14:04:45.027
70.0, 8552.73855361206, 13465.18259825499, 4039.519016685369, 16383.783982251167, 13690.644644575674, 41691.54664177259, -6811.582364032551, 30061.48696678722, 11136.667267878922, 11255.84676931462, -4308.030522826973, 17648.289221321254, -1896.23259261043, -3068.6039410357407, 4354.589206527377, 39693.88183282397, -0.01, 0.966, -0.222, 192.0, 0.0, 0.0, 0.0, 0.0, 0.0, 0.0, 0.0, 0.0, 0.0, 1.741806285027763E9, 0.0, 2025-03-12 14:04:45.027
72.0, 8564.69673689565, 13458.141798751569, 4018.731894341933, 16375.267967613694, 13688.387118385688, 41678.96260964425, -6817.639686779939, 30059.899992930892, 11138.030724290697, 11256.472618159369, -4301.213240768104, 17655.73235222487, -1894.3103425872735, -3096.789490793883, 4352.868122204319, 39673.362931414005, -0.01, 0.966, -0.222, 192.0, 0.0, 0.0, 0.0, 0.0, 0.0, 0.0, 0.0, 0.0, 0.0, 1.741806285081743E9, 0.0, 2025-03-12 14:04:45.081
74.0, 8560.293443237953, 13460.309917963734, 4049.711412156989, 16384.700403773833, 13691.359900398244, 41697.26868835315, -6807.1343668859445, 30076.082655916533, 11130.498186409259, 11249.051839000207, -4329.510549248523, 17640.846090417635, -1897.171365877553, -3103.3832554081987, 4361.182971141693, 39689.25502172173, -0.01, 0.966, -0.222, 192.0, 0.0, 0.0, 0.0, 0.0, 0.0, 0.0, 0.0, 0.0, 0.0, 1.741806285081772E9, 0.0, 2025-03-12 14:04:45.081
76.0, 8578.755984158039, 13477.721926894419, 4060.484952984447, 16407.87916277399, 13695.338510911288, 41722.01206946517, -6810.48712855424, 30079.055437929088, 11136.376695201005, 11277.505609691812, -4297.8828308442635, 17661.49910229434, -1884.877906427134, -3075.7788510058945, 4378.036186460994, 39722.73793491578, -0.01, 0.966, -0.222, 192.0, 0.0, 0.0, 0.0, 0.0, 0.0, 0.0, 0.0, 0.0, 0.0, 1.741806285081789E9, 0.0, 2025-03-12 14:04:45.081
78.0, 8566.1719520297, 13469.071801790215, 4051.1419238021285, 16383.158133406418, 13691.203438187056, 41705.0917989125, -6813.951648944813, 30063.72214123275, 11141.361134214538, 11264.653356630011, -4302.017903568495, 17650.524395766784, -1887.3365983172177, -3081.0315109528915, 4377.611503316343, 39722.44736223786, -0.006, 0.9580000000000001, -0.218, 192.0, 127.5, 104.0, 14.5, 120.0, 124.5, 24.0, 0.0, 0.0, 0.0, 1.741806285081805E9, 0.0, 2025-03-12 14:04:45.081
80.0, 8568.98827183107, 13464.310880221234, 4049.353784245704, 16395.29513064565, 13693.013929487935, 41711.350287359994, -6814.041055922635, 30072.28285935913, 11143.7304191268, 11260.741801350332, -4292.965447064095, 17650.323230066686, -1880.0052261358771, -3065.0947171562575, 4379.243180661581, 39715.33950750107, -0.006, 0.9580000000000001, -0.218, 192.0, 0.0, 0.0, 0.0, 0.0, 0.0, 0.0, 0.0, 0.0, 0.0, 1.741806285081822E9, 0.0, 2025-03-12 14:04:45.081
82.0, 8566.015489818512, 13465.517874421821, 4046.381002233148, 16387.807296253122, 13689.080022463802, 41712.199653649295, -6809.436596564841, 30079.658935029383, 11134.834424833587, 11266.776772353265, -4311.763264151009, 17645.83052943117, -1884.140298860109, -3070.7050050145394, 4376.62802656031, 39716.9264813574, -0.006, 0.9580000000000001, -0.218, 192.0, 0.0, 0.0, 0.0, 0.0, 0.0, 0.0, 0.0, 0.0, 0.0, 1.741806285081838E9, 0.0, 2025-03-12 14:04:45.081
84.0, 8573.592731188863, 13460.824008086207, 4059.412069250592, 16403.16294469392, 13690.868162020226, 41725.78951427812, -6800.048863893612, 30083.637545542428, 11136.756674856744, 11271.045955544228, -4296.809947110409, 17652.513701023305, -1884.006188393377, -3063.7089090000286, 4382.953570241162, 39723.22967329379, -0.006, 0.9580000000000001, -0.218, 192.0, 0.0, 0.0, 0.0, 0.0, 0.0, 0.0, 0.0, 0.0, 0.0, 1.741806285081854E9, 0.0, 2025-03-12 14:04:45.081
86.0, 8568.094202052856, 13457.404191184545, 4045.6657464105783, 16378.598377537535, 13686.1295921957, 41711.64086003791, -6807.626105263961, 30083.034048442132, 11135.549680656157, 11265.70388861941, -4306.018865825995, 17637.940363638445, -1888.6106477511703, -3031.0306586063693, 4376.739785282586, 39714.2219202783, -0.01, 0.96, -0.215, 192.0, 127.5, 72.0, 15.0, 8.0, 124.5, 48.0, 0.0, 0.0, 0.0, 1.741806285141057E9, 0.0, 2025-03-12 14:04:45.141
88.0, 8566.417821218709, 13464.512045921332, 4053.064173825285, 16391.696499788344, 13688.208304430045, 41710.29975537059, -6812.789358233137, 30068.57246977955, 11137.628392890501, 11271.716507877887, -4295.1782697651715, 17648.915070166, -1877.4347755235167, -3061.429031065587, 4377.544448082977, 39713.64077492247, -0.01, 0.96, -0.215, 192.0, 0.0, 0.0, 0.0, 0.0, 0.0, 0.0, 0.0, 0.0, 0.0, 1.741806285141116E9, 0.0, 2025-03-12 14:04:45.141
90.0, 8534.678344092172, 13446.585946868176, 4014.46271115097, 16362.929804674364, 13676.853618246749, 41699.12388314294, -6821.461835081796, 30076.61909778346, 11123.703256094845, 11260.920615305975, -4314.020790340995, 17631.167785068486, -1888.9012204290893, -3090.531002346397, 4356.802029228453, 39692.69719036784, -0.01, 0.96, -0.215, 192.0, 0.0, 0.0, 0.0, 0.0, 0.0, 0.0, 0.0, 0.0, 0.0, 1.741806285141133E9, 0.0, 2025-03-12 14:04:45.141
92.0, 8584.254513294043, 13473.788019870284, 4062.8765896411646, 16399.899590003442, 13687.1801241851, 41723.26376715467, -6807.737863986238, 30075.970897194256, 11129.447654419859, 11263.714583362887, -4308.924592605185, 17649.049180632734, -1890.555249518782, -3085.501859843953, 4370.682462535198, 39712.634946421975, -0.01, 0.96, -0.215, 192.0, 0.0, 0.0, 0.0, 0.0, 0.0, 0.0, 0.0, 0.0, 0.0, 1.741806285141149E9, 0.0, 2025-03-12 14:04:45.141
94.0, 8544.267242463498, 13459.706420863442, 4033.8193218492656, 16377.078458914575, 13679.200551414557, 41703.54952854509, -6824.3899136054415, 30072.75224599269, 11145.563262172134, 11282.7135661499, -4293.814813353398, 17660.470922049397, -1890.4211390520502, -3073.1636969046235, 4375.778660271008, 39706.845844608055, -0.01, 0.96, -0.215, 192.0, 0.0, 0.0, 0.0, 0.0, 0.0, 0.0, 0.0, 0.0, 0.0, 1.741806285141172E9, 0.0, 2025-03-12 14:04:45.141
96.0, 8558.326489725887, 13466.836627344685, 4045.03989756583, 16390.62361605449, 13683.447382861064, 41702.78956923361, -6827.697971784827, 30054.624981239438, 11127.056017763141, 11260.18300773895, -4313.819624640897, 17646.47873002037, -1885.1461273605976, -3079.533944074386, 4356.779677483997, 39696.60874564752, -0.012, 0.965, -0.2145, 192.0, 127.5, 72.0, 15.0, 40.0, 124.5, 40.0, 0.0, 0.0, 0.0, 1.741806285141188E9, 0.0, 2025-03-12 14:04:45.141
98.0, 8571.022280576502, 13467.95421456745, 4069.0233193663744, 16380.34181360505, 13683.425031116609, 41702.67781051133, -6820.321896114576, 30079.681286773837, 11145.563262172134, 11280.277226004271, -4280.761394591498, 17666.371782585597, -1905.6426770261141, -3079.3551301187435, 4366.279168877503, 39688.69622811034, -0.012, 0.965, -0.2145, 192.0, 0.0, 0.0, 0.0, 0.0, 0.0, 0.0, 0.0, 0.0, 0.0, 1.741806285141204E9, 0.0, 2025-03-12 14:04:45.141
100.0, 8560.98634731607, 13468.71417387893, 4056.4392872380363, 16398.647892313944, 13684.117935194725, 41725.96832823376, -6816.2315268792545, 30082.877586230945, 11136.242584734271, 11269.414278198992, -4297.99458956654, 17661.1191226386, -1899.585354278726, -3050.6107867492187, 4370.883628235296, 39716.16652204592, -0.012, 0.965, -0.2145, 192.0, 0.0, 0.0, 0.0, 0.0, 0.0, 0.0, 0.0, 0.0, 0.0, 1.74180628514122E9, 0.0, 2025-03-12 14:04:45.141
102.0, 8537.852291804826, 13461.695726119964, 4040.167217274573, 16378.62072928199, 13679.625234559207, 41703.1919006338, -6828.63674505195, 30061.48696678722, 11143.082218537596, 11284.836981873153, -4293.99362730904, 17659.19687261544, -1894.6009152651925, -3053.4494582950424, 4372.180029413704, 39700.274431738195, -0.012, 0.965, -0.2145, 192.0, 0.0, 0.0, 0.0, 0.0, 0.0, 0.0, 0.0, 0.0, 0.0, 1.741806285201383E9, 0.0, 2025-03-12 14:04:45.201
104.0, 8562.50626593903, 13461.159284253035, 4070.0291478668632, 16401.06188071512, 13682.75447878295, 41727.35413638999, -6821.238317637243, 30082.318792619564, 11139.170663257917, 11270.889493333041, -4287.355159205814, 17650.099712622134, -1909.6212875391589, -3086.1277086887017, 4371.48712533559, 39702.06257129462, -0.012, 0.965, -0.2145, 192.0, 0.0, 0.0, 0.0, 0.0, 0.0, 0.0, 0.0, 0.0, 0.0, 1.741806285201413E9, 0.0, 2025-03-12 14:04:45.201
106.0, 8547.240024476056, 13462.075705775704, 4054.941720359531, 16400.368976637004, 13689.571760841818, 41730.505732358186, -6814.77866348966, 30075.367400093965, 11150.100666296563, 11295.007025600318, -4272.155972976205, 17665.678878507482, -1888.811813451268, -3055.9305019295816, 4388.608561588355, 39716.88177786848, -0.016, 0.9664999999999999, -0.21425, 192.0, 127.5, 48.0, 15.0, 32.0, 124.5, 40.0, 0.0, 0.0, 0.0, 1.74180628520143E9, 0.0, 2025-03-12 14:04:45.201
108.0, 8556.068963535901, 13462.85801683164, 4051.030165079852, 16393.886970744967, 13685.995481728969, 41726.39301137841, -6823.428788593864, 30068.460711057272, 11133.24745097726, 11270.107182277106, -4301.481461701567, 17644.288259063753, -1896.0314269103321, -3071.040281181369, 4373.945817225673, 39703.269565495204, -0.016, 0.9664999999999999, -0.21425, 192.0, 0.0, 0.0, 0.0, 0.0, 0.0, 0.0, 0.0, 0.0, 0.0, 1.741806285201447E9, 0.0, 2025-03-12 14:04:45.201
110.0, 8554.191417001655, 13461.494560419866, 4067.3022350433157, 16400.30192140364, 13684.52026659492, 41724.694278799805, -6821.283021126154, 30074.98742043822, 11148.558395929145, 11280.277226004271, -4267.931493274152, 17664.427180817984, -1904.0557031697874, -3049.5826065042743, 4389.837907533397, 39713.88664411147, -0.016, 0.9664999999999999, -0.21425, 192.0, 0.0, 0.0, 0.0, 0.0, 0.0, 0.0, 0.0, 0.0, 0.0, 1.741806285201489E9, 0.0, 2025-03-12 14:04:45.201
112.0, 8559.667594393206, 13459.013516785326, 4052.5053802139023, 16393.05995620012, 13687.716566052028, 41719.44161885281, -6814.063407667089, 30066.024370911644, 11146.434980205891, 11275.628063157566, -4286.058758027406, 17652.424294045486, -1900.4794240569383, -3065.921731701104, 4379.421994617223, 39698.463940437316, -0.016, 0.9664999999999999, -0.21425, 192.0, 0.0, 0.0, 0.0, 0.0, 0.0, 0.0, 0.0, 0.0, 0.0, 1.741806285201506E9, 0.0, 2025-03-12 14:04:45.201
114.0, 8548.871701821292, 13451.61508937062, 4057.355708760704, 16385.885046229967, 13684.319100894822, 41715.70887752878, -6814.242221622732, 30070.13709189142, 11145.49620693877, 11287.832115630164, -4286.818717338886, 17661.700267994438, -1891.1140431301646, -3063.5747985332964, 4383.86999176383, 39698.48629218177, -0.016, 0.9664999999999999, -0.21425, 192.0, 0.0, 0.0, 0.0, 0.0, 0.0, 0.0, 0.0, 0.0, 0.0, 1.741806285201521E9, 0.0, 2025-03-12 14:04:45.201
116.0, 8545.36247794181, 13448.217624213414, 4063.8600663971984, 16383.471057828792, 13685.347281139766, 41715.79828450659, -6811.090625654534, 30070.71823724726, 11135.326163211605, 11255.422086169969, -4291.914915074696, 17639.192061327944, -1904.3462758477065, -3070.235618380978, 4381.523058596023, 39699.067437537604, -0.019, 0.9652499999999999, -0.213125, 192.0, 127.5, 40.0, 15.0, 16.0, 124.5, 48.0, 0.0, 0.0, 0.0, 1.741806285261175E9, 0.0, 2025-03-12 14:04:45.261
118.0, 8554.750210613038, 13445.46835964541, 4030.6677258810673, 16376.09498215854, 13678.172371169612, 41707.17051114685, -6820.567765303585, 30057.687170229816, 11136.801378345655, 11284.457002217414, -4282.080147514361, 17654.033619646267, -1897.394883322106, -3078.7069295295396, 4385.278151664514, 39696.47463518079, -0.019, 0.9652499999999999, -0.213125, 192.0, 0.0, 0.0, 0.0, 0.0, 0.0, 0.0, 0.0, 0.0, 0.0, 1.741806285261207E9, 0.0, 2025-03-12 14:04:45.261
120.0, 8547.620004131795, 13448.32938293569, 4039.7425341299218, 16373.703345501823, 13673.970243212014, 41702.85662446697, -6822.557070560107, 30054.84849868399, 11131.191090487373, 11256.383211181548, -4304.521298947489, 17633.20179381392, -1899.361836834173, -3087.8711447562155, 4366.413279344235, 39685.1199489975, -0.019, 0.9652499999999999, -0.213125, 192.0, 0.0, 0.0, 0.0, 0.0, 0.0, 0.0, 0.0, 0.0, 0.0, 1.741806285261224E9, 0.0, 2025-03-12 14:04:45.261
122.0, 8557.231254247577, 13450.966888781417, 4046.1798365330505, 16387.29320613065, 13677.859446747238, 41713.87603448344, -6815.1139396564895, 30063.90095518839, 11143.305735982149, 11280.210170770904, -4279.956731791107, 17653.69834347944, -1885.7049209719803, -3056.399888563143, 4379.757270784053, 39702.26373699471, -0.019, 0.9652499999999999, -0.213125, 192.0, 0.0, 0.0, 0.0, 0.0, 0.0, 0.0, 0.0, 0.0, 0.0, 1.74180628526124E9, 0.0, 2025-03-12 14:04:45.261
124.0, 8537.40525691572, 13439.545147364754, 4044.6599179100895, 16368.495389043735, 13675.646624046163, 41702.40958957787, -6822.154739159911, 30049.640542225905, 11131.973401543308, 11271.09065903314, -4303.515470447001, 17634.14056708104, -1909.8671567281672, -3085.4795080994977, 4372.917636980729, 39696.54169041415, -0.019, 0.9652499999999999, -0.213125, 192.0, 0.0, 0.0, 0.0, 0.0, 0.0, 0.0, 0.0, 0.0, 0.0, 1.741806285261256E9, 0.0, 2025-03-12 14:04:45.261
126.0, 8535.527710381473, 13431.789092038762, 4034.5345776718355, 16372.697517001334, 13674.998423456958, 41715.21713915076, -6824.836948494548, 30051.9427719048, 11121.646895604956, 11271.403583455514, -4315.943040364152, 17636.44279675994, -1901.261735112874, -3062.591321777263, 4370.369538112824, 39695.53586191367, -0.018500000000000003, 0.963625, -0.2135625, 192.0, 127.5, 56.0, 15.0, 8.0, 124.5, 40.0, 0.0, 0.0, 0.0, 1.741806285261271E9, 0.0, 2025-03-12 14:04:45.261
128.0, 8530.520919623485, 13429.106882704125, 4018.731894341933, 16361.85692094051, 13678.686461292084, 41706.00822043517, -6816.700913512816, 30053.485042272216, 11118.942334525864, 11248.425990155458, -4313.99843859654, 17622.607066942106, -1912.4823108294381, -3090.2180779240225, 4367.463811333634, 39700.341486971556, -0.018500000000000003, 0.963625, -0.2135625, 192.0, 0.0, 0.0, 0.0, 0.0, 0.0, 0.0, 0.0, 0.0, 0.0, 1.741806285261288E9, 0.0, 2025-03-12 14:04:45.261
130.0, 8556.180722258177, 13434.51600486231, 4040.256624252394, 16377.547845548135, 13679.75934502594, 41720.76037177567, -6817.796148991126, 30054.781443450625, 11119.05409324814, 11250.616461112078, -4313.707865918621, 17641.315477051197, -1898.9595054339775, -3073.8342492382826, 4372.045918946972, 39698.039257292665, -0.018500000000000003, 0.963625, -0.2135625, 192.0, 0.0, 0.0, 0.0, 0.0, 0.0, 0.0, 0.0, 0.0, 0.0, 1.741806285261303E9, 0.0, 2025-03-12 14:04:45.261
132.0, 8547.150617498233, 13431.789092038762, 4030.2877462253273, 16368.785961721655, 13679.781696770395, 41706.812883235565, -6825.239279894743, 30051.071053871045, 11130.6770003649, 11273.459943945401, -4302.733159391065, 17646.63519223156, -1908.5484038053041, -3096.2530489269557, 4373.208209658648, 39697.99455380375, -0.018500000000000003, 0.963625, -0.2135625, 192.0, 0.0, 0.0, 0.0, 0.0, 0.0, 0.0, 0.0, 0.0, 0.0, 1.741806285321477E9, 0.0, 2025-03-12 14:04:45.321
134.0, 8547.463541920608, 13431.677333316486, 4037.619118406668, 16387.181447408373, 13684.52026659492, 41721.98971772072, -6826.334515373053, 30055.004960895178, 11124.284401450683, 11264.005156040806, -4307.203508282127, 17644.355314297118, -1892.1422233751089, -3085.814784266327, 4374.929293981707, 39699.82739684908, -0.018500000000000003, 0.963625, -0.2135625, 192.0, 0.0, 0.0, 0.0, 0.0, 0.0, 0.0, 0.0, 0.0, 0.0, 1.741806285321505E9, 0.0, 2025-03-12 14:04:45.321
136.0, 8541.205053473122, 13436.952345007938, 4036.3674207171707, 16362.594528507536, 13678.41824035862, 41715.03832519511, -6833.375314876475, 30048.344141047495, 11125.692561351367, 11270.665975888489, -4312.94790660714, 17636.085168848655, -1905.4191595815612, -3052.8683129392043, 4374.169334670226, 39704.05187655114, -0.01725, 0.9628125, -0.21278124999999998, 192.0, 127.5, 64.0, 15.0, 8.0, 124.5, 48.0, 0.0, 0.0, 0.0, 1.741806285321522E9, 0.0, 2025-03-12 14:04:45.321
138.0, 8564.182646773177, 13446.496539890355, 4049.04085982333, 16383.068726428597, 13679.334661881288, 41718.45814209678, -6833.062390454101, 30052.43451028282, 11136.06377077863, 11269.414278198992, -4302.576697179878, 17644.40001778603, -1906.5143950598713, -3084.496031343464, 4371.554180568955, 39696.3181729696, -0.01725, 0.9628125, -0.21278124999999998, 192.0, 0.0, 0.0, 0.0, 0.0, 0.0, 0.0, 0.0, 0.0, 0.0, 1.741806285321564E9, 0.0, 2025-03-12 14:04:45.321
140.0, 8545.429533175175, 13438.986353753371, 4029.0584002802852, 16360.225243595272, 13670.796295499362, 41700.934374443816, -6844.126503959478, 30045.594876479492, 11136.44375043437, 11274.7116416349, -4304.342484991847, 17646.72459920938, -1906.6932090155137, -3067.3522433462435, 4369.117840423327, 39688.740931599255, -0.01725, 0.9628125, -0.21278124999999998, 192.0, 0.0, 0.0, 0.0, 0.0, 0.0, 0.0, 0.0, 0.0, 0.0, 1.74180628532158E9, 0.0, 2025-03-12 14:04:45.321
142.0, 8548.134094254267, 13438.695781075452, 4036.590938161724, 16382.599339795035, 13679.781696770395, 41713.18313040533, -6830.514291586196, 30041.95154213328, 11130.58759338708, 11282.490048705346, -4309.9751245945845, 17638.49915724983, -1898.1548426335864, -3065.0947171562575, 4366.525038066511, 39687.22101297629, -0.01725, 0.9628125, -0.21278124999999998, 192.0, 0.0, 0.0, 0.0, 0.0, 0.0, 0.0, 0.0, 0.0, 0.0, 1.741806285321595E9, 0.0, 2025-03-12 14:04:45.321
144.0, 8542.099123251333, 13431.923202505495, 4035.294536983316, 16358.593566250036, 13673.18793215608, 41700.75556048818, -6838.002125978724, 30050.668722470848, 11129.112378253029, 11266.329737464159, -4303.381359980269, 17634.453491503416, -1901.5970112797036, -3093.7049500590506, 4368.2014189006595, 39681.20839371782, -0.01725, 0.9628125, -0.21278124999999998, 192.0, 0.0, 0.0, 0.0, 0.0, 0.0, 0.0, 0.0, 0.0, 0.0, 1.741806285321611E9, 0.0, 2025-03-12 14:04:45.321
146.0, 8547.351783198332, 13437.488786874866, 4033.41699044907, 16391.897665488443, 13676.451286846554, 41716.08885718451, -6840.393762635442, 30053.507394016673, 11134.275631222205, 11284.345243495136, -4291.177307507671, 17643.528299752274, -1907.877851471645, -3073.6107317937294, 4372.560009069444, 39686.349294942534, -0.018625000000000003, 0.96140625, -0.210390625, 192.0, 127.5, 48.0, 15.0, 0.0, 124.5, 64.0, 0.0, 0.0, 0.0, 1.741806285381767E9, 0.0, 2025-03-12 14:04:45.381
148.0, 8536.779408070972, 13435.588888596165, 4037.708525384489, 16368.227168110272, 13671.913882722127, 41704.2424326232, -6849.2227016952875, 30047.941809647302, 11128.128901496995, 11265.145095008027, -4299.022769811484, 17647.149282354032, -1906.0673601707651, -3095.269572170922, 4368.804916000952, 39685.790501331154, -0.018625000000000003, 0.96140625, -0.210390625, 192.0, 0.0, 0.0, 0.0, 0.0, 0.0, 0.0, 0.0, 0.0, 0.0, 1.7418062853818E9, 0.0, 2025-03-12 14:04:45.381
150.0, 8534.49953013653, 13430.380932138078, 4051.7454209024218, 16382.509932817215, 13669.097562920757, 41705.04709542359, -6859.057469255623, 30031.89325712839, 11128.642991619468, 11270.665975888489, -4295.1782697651715, 17643.952982896924, -1911.655296284592, -3094.1296332037014, 4372.3141398804355, 39672.75943431371, -0.018625000000000003, 0.96140625, -0.210390625, 192.0, 0.0, 0.0, 0.0, 0.0, 0.0, 0.0, 0.0, 0.0, 0.0, 1.741806285381817E9, 0.0, 2025-03-12 14:04:45.381
152.0, 8540.847425561837, 13430.403283882533, 4055.902845371109, 16388.880179986976, 13678.239426402979, 41718.88282524143, -6841.757219047216, 30065.93496393382, 11124.01618051722, 11265.32390896367, -4296.765243621498, 17648.803311443724, -1903.3404473472176, -3082.909057487137, 4381.970093485128, 39690.75258860023, -0.018625000000000003, 0.96140625, -0.210390625, 192.0, 0.0, 0.0, 0.0, 0.0, 0.0, 0.0, 0.0, 0.0, 0.0, 1.741806285381833E9, 0.0, 2025-03-12 14:04:45.381
154.0, 8546.189492486656, 13430.068007715703, 4069.850333911221, 16410.29315117516, 13682.687423549585, 41741.03340399664, -6830.134311930456, 30077.155539650386, 11127.63716311898, 11265.145095008027, -4288.919781317685, 17652.62545974558, -1901.418197324061, -3067.754574746439, 4399.091529737893, 39712.433780721876, -0.018625000000000003, 0.96140625, -0.210390625, 192.0, 0.0, 0.0, 0.0, 0.0, 0.0, 0.0, 0.0, 0.0, 0.0, 1.741806285381874E9, 0.0, 2025-03-12 14:04:45.381
156.0, 8546.524768653486, 13438.695781075452, 4056.126362815662, 16392.143534677452, 13673.254987389444, 41727.86822651246, -6848.418038894897, 30059.676475486336, 11128.575936386102, 11268.587263654144, -4278.548571890423, 17657.252270847832, -1906.9167264600667, -3046.7439349584506, 4389.636741833298, 39705.54944342964, -0.0203125, 0.962703125, -0.2071953125, 192.0, 127.5, 40.0, 15.0, 16.0, 124.5, 80.0, 0.0, 0.0, 0.0, 1.741806285381891E9, 0.0, 2025-03-12 14:04:45.381
158.0, 8542.836730818359, 13431.319705405202, 4045.8222086217656, 16390.176581165386, 13673.120876922712, 41722.5485113321, -6843.612413837006, 30060.123510375444, 11121.53513688268, 11271.716507877887, -4293.65835114221, 17645.383494542064, -1906.4696915709605, -3066.078193912291, 4376.382157371301, 39692.786597345665, -0.0203125, 0.962703125, -0.2071953125, 192.0, 0.0, 0.0, 0.0, 0.0, 0.0, 0.0, 0.0, 0.0, 0.0, 1.741806285381907E9, 0.0, 2025-03-12 14:04:45.381
160.0, 8542.367344184799, 13431.722036805397, 4043.5870341762347, 16378.218397881796, 13669.2763768764, 41710.16564490386, -6846.562844105107, 30058.491833030206, 11118.405892658937, 11274.28695849025, -4290.506755174012, 17649.1162358661, -1910.5600608062819, -3093.257915169944, 4379.757270784053, 39688.20448973233, -0.0203125, 0.962703125, -0.2071953125, 192.0, 0.0, 0.0, 0.0, 0.0, 0.0, 0.0, 0.0, 0.0, 0.0, 1.741806285381923E9, 0.0, 2025-03-12 14:04:45.381
162.0, 8527.570489355385, 13424.457719857422, 4043.0505923093074, 16381.727621761278, 13668.762286753928, 41718.413438607866, -6853.134256974967, 30055.42964403983, 11113.779081556688, 11269.257815987805, -4304.208374525115, 17634.520546736785, -1919.52311033286, -3080.0480341968578, 4373.2529131475585, 39679.4649576503, -0.0203125, 0.962703125, -0.2071953125, 192.0, 0.0, 0.0, 0.0, 0.0, 0.0, 0.0, 0.0, 0.0, 0.0, 1.741806285442127E9, 0.0, 2025-03-12 14:04:45.442
164.0, 8523.949506753625, 13426.670542558497, 4050.2702057683714, 16384.990976451754, 13666.102429163746, 41710.1432931594, -6858.789248322159, 30045.147841590388, 11110.895706521953, 11278.198513769927, -4302.867269857797, 17638.54386073874, -1912.974049207455, -3071.755537003939, 4374.10227943686, 39681.78953907365, -0.0203125, 0.962703125, -0.2071953125, 192.0, 0.0, 0.0, 0.0, 0.0, 0.0, 0.0, 0.0, 0.0, 0.0, 1.741806285442156E9, 0.0, 2025-03-12 14:04:45.442
166.0, 8536.511187137507, 13431.252650171835, 4052.9524151030087, 16374.552711791124, 13661.69913550605, 41695.413493563356, -6869.2945682161535, 30040.409271765864, 11117.400064158448, 11265.100391519118, -4301.28029600147, 17629.357293767607, -1915.2986306308069, -3087.491165100475, 4369.430764845702, 39658.70018705132, -0.022156250000000002, 0.9613515625, -0.20359765625, 192.0, 127.5, 32.0, 15.0, 0.0, 124.5, 96.0, 0.0, 0.0, 0.0, 1.741806285442173E9, 0.0, 2025-03-12 14:04:45.442
168.0, 8515.344085138331, 13421.70845528942, 4029.7289526139443, 16377.413735081404, 13659.84394071626, 41709.36098210347, -6866.768821092704, 30035.447184496785, 11113.332046667581, 11269.973071810375, -4298.620438411288, 17637.716846193893, -1912.459959084983, -3056.981033918981, 4370.324834623913, 39671.28421917966, -0.022156250000000002, 0.9613515625, -0.20359765625, 192.0, 0.0, 0.0, 0.0, 0.0, 0.0, 0.0, 0.0, 0.0, 0.0, 1.741806285442191E9, 0.0, 2025-03-12 14:04:45.442
170.0, 8547.731762854071, 13425.463548357911, 4050.1360953016397, 16371.579929778569, 13660.961527939025, 41705.42707507934, -6859.97389077829, 30040.118699087943, 11105.464232619313, 11242.122798219061, -4321.799197411442, 17612.63818891504, -1916.5950318092148, -3068.4474788245534, 4363.9769391986065, 39668.736120311754, -0.022156250000000002, 0.9613515625, -0.20359765625, 192.0, 0.0, 0.0, 0.0, 0.0, 0.0, 0.0, 0.0, 0.0, 0.0, 1.741806285442206E9, 0.0, 2025-03-12 14:04:45.442
172.0, 8547.128265753778, 13427.341094892157, 4042.6706126535673, 16389.975415465287, 13659.195740127057, 41710.81384549306, -6873.161420006922, 30040.968065377245, 11123.099758994551, 11284.166429539495, -4284.13650800425, 17647.149282354032, -1912.2140898959744, -3110.468758400531, 4377.499744594067, 39670.412501145904, -0.022156250000000002, 0.9613515625, -0.20359765625, 192.0, 0.0, 0.0, 0.0, 0.0, 0.0, 0.0, 0.0, 0.0, 0.0, 1.741806285442222E9, 0.0, 2025-03-12 14:04:45.442
174.0, 8545.585995386362, 13433.84545252865, 4058.2497785389164, 16388.47784858678, 13669.477542576498, 41719.039287452615, -6850.87673078498, 30042.108004344467, 11118.361189170026, 11268.587263654144, -4295.80411860992, 17635.548726981728, -1923.5464243348151, -3100.2763629289107, 4378.10324169436, 39689.59029788856, -0.022156250000000002, 0.9613515625, -0.20359765625, 192.0, 0.0, 0.0, 0.0, 0.0, 0.0, 0.0, 0.0, 0.0, 0.0, 1.741806285442238E9, 0.0, 2025-03-12 14:04:45.442
176.0, 8535.639469103751, 13421.931972733972, 4055.7910866488323, 16385.8179909966, 13664.426048329598, 41717.362906618466, -6862.633748368472, 30039.939885132302, 11121.445729904859, 11278.734955636854, -4281.342539947336, 17640.44375901744, -1914.873947486156, -3078.528115573897, 4385.188744686692, 39691.33373395607, -0.023078125, 0.96067578125, -0.202798828125, 192.0, 127.5, 32.0, 15.0, 0.0, 124.5, 88.0, 0.0, 0.0, 0.0, 1.741806285502284E9, 0.0, 2025-03-12 14:04:45.502
178.0, 8532.107893479812, 13419.719150032897, 4048.8843976121425, 16379.80537173812, 13673.143228667168, 41718.122865929945, -6852.441352896853, 30054.84849868399, 11115.34370366856, 11265.010984541295, -4306.0412175704505, 17614.783956382747, -1924.7757702798572, -3067.151077646146, 4386.842773776385, 39686.43870192036, -0.023078125, 0.96067578125, -0.202798828125, 192.0, 0.0, 0.0, 0.0, 0.0, 0.0, 0.0, 0.0, 0.0, 0.0, 1.741806285502342E9, 0.0, 2025-03-12 14:04:45.502
180.0, 8525.625887587772, 13417.841603498651, 4044.682269654545, 16391.495334088246, 13666.147132652657, 41724.0460782106, -6865.762992592215, 30045.393710779397, 11111.633314088978, 11279.830191115165, -4301.369702979291, 17628.977314111868, -1908.9283834610444, -3073.3201591158104, 4386.999235987572, 39693.47950142378, -0.023078125, 0.96067578125, -0.202798828125, 192.0, 0.0, 0.0, 0.0, 0.0, 0.0, 0.0, 0.0, 0.0, 0.0, 1.741806285502359E9, 0.0, 2025-03-12 14:04:45.502
182.0, 8533.985440014058, 13420.568516322199, 4048.124438300662, 16381.414697338903, 13663.911958207127, 41716.178264162336, -6868.780478093681, 30041.66096945536, 11101.463270361814, 11254.37155418057, -4319.13933982126, 17611.2076772699, -1927.3462208922174, -3086.75355753345, 4367.664977033732, 39677.18507971586, -0.023078125, 0.96067578125, -0.202798828125, 192.0, 0.0, 0.0, 0.0, 0.0, 0.0, 0.0, 0.0, 0.0, 0.0, 1.741806285502376E9, 0.0, 2025-03-12 14:04:45.502
184.0, 8521.915498008191, 13416.567554064699, 4054.226464536961, 16393.372880622494, 13665.633042530186, 41720.380392119936, -6866.634710625972, 30037.905876386867, 11120.216383959816, 11280.187819026449, -4282.638941125744, 17638.05212236072, -1919.5454620773153, -3081.433842353087, 4382.260666163047, 39686.773978087185, -0.023078125, 0.96067578125, -0.202798828125, 192.0, 0.0, 0.0, 0.0, 0.0, 0.0, 0.0, 0.0, 0.0, 0.0, 1.741806285502399E9, 0.0, 2025-03-12 14:04:45.502
186.0, 8540.534501139462, 13410.465527828399, 4043.095295798218, 16366.707249487312, 13657.832283715283, 41705.91881345735, -6875.486001430274, 30035.447184496785, 11106.96179949782, 11256.114990248083, -4305.080092558872, 17614.694549404925, -1925.4463226135163, -3084.048996454358, 4372.917636980729, 39671.127756968475, -0.0185390625, 0.960337890625, -0.2023994140625, 192.0, 127.5, 72.0, 15.0, 0.0, 124.5, 88.0, 0.0, 0.0, 0.0, 1.741806285502415E9, 0.0, 2025-03-12 14:04:45.502
188.0, 8533.337239424854, 13417.059292442715, 4030.935946814531, 16381.012365938708, 13660.246272116456, 41710.63503153742, -6874.614283396517, 30028.94282686029, 11109.688712321367, 11260.51828390578, -4301.637923912755, 17615.789784883236, -1927.5473865923152, -3090.016912223925, 4367.173238655715, 39672.04417849114, -0.0185390625, 0.960337890625, -0.2023994140625, 192.0, 0.0, 0.0, 0.0, 0.0, 0.0, 0.0, 0.0, 0.0, 0.0, 1.741806285502431E9, 0.0, 2025-03-12 14:04:45.502
190.0, 8539.416913916697, 13413.862992985607, 4046.8950923556204, 16365.656717497912, 13657.049972659348, 41699.92854594333, -6873.161420006922, 30032.85438213997, 11108.168793698405, 11257.433743170946, -4300.743854134543, 17615.789784883236, -1922.8311685122453, -3092.1179762027236, 4362.300558364458, 39664.77986154317, -0.0185390625, 0.960337890625, -0.2023994140625, 192.0, 0.0, 0.0, 0.0, 0.0, 0.0, 0.0, 0.0, 0.0, 0.0, 1.741806285502447E9, 0.0, 2025-03-12 14:04:45.502
192.0, 8544.781332585972, 13429.106882704125, 4044.749324887911, 16393.19406666685, 13660.581548283286, 41711.08206642653, -6874.726042118793, 30028.428736737817, 11118.450596147848, 11265.793295597232, -4290.573810407378, 17631.525412979772, -1915.7903690088237, -3070.436784081076, 4369.877799734807, 39675.240477948246, -0.0185390625, 0.960337890625, -0.2023994140625, 192.0, 0.0, 0.0, 0.0, 0.0, 0.0, 0.0, 0.0, 0.0, 0.0, 1.741806285561249E9, 0.0, 2025-03-12 14:04:45.561
194.0, 8539.796893572438, 13427.89988850354, 4059.836752395243, 16388.880179986976, 13654.211301113522, 41706.522310557644, -6887.131260291489, 30032.295588528585, 11122.764482827723, 11287.809763885709, -4288.1374702617495, 17646.29991606473, -1923.3005551458068, -3089.145194190168, 4367.039128188983, 39664.15401269842, -0.0185390625, 0.960337890625, -0.2023994140625, 192.0, 0.0, 0.0, 0.0, 0.0, 0.0, 0.0, 0.0, 0.0, 0.0, 1.741806285561278E9, 0.0, 2025-03-12 14:04:45.561
196.0, 8538.142864482745, 13433.890156017562, 4048.638528423134, 16399.29609290315, 13655.351240080743, 41714.47953158373, -6891.534553949185, 30019.778611633614, 11125.334933440083, 11277.349147480625, -4287.824545839375, 17647.30574456522, -1916.4385695980275, -3070.794411992361, 4370.235427646092, 39687.891565309954, -0.015269531250000001, 0.9611689453125, -0.20219970703125, 192.0, 127.5, 80.0, 15.0, 8.0, 124.5, 88.0, 0.0, 0.0, 0.0, 1.741806285561295E9, 0.0, 2025-03-12 14:04:45.561
198.0, 8528.822187044882, 13416.634609298064, 4032.768789859866, 16364.337964575048, 13648.399847555143, 41692.41835980635, -6900.3411412645755, 29997.49392241167, 11122.026875260697, 11262.909920562497, -4289.836202840353, 17643.327134052175, -1922.294726645318, -3095.873069271215, 4362.613482786833, 39674.03348374766, -0.015269531250000001, 0.9611689453125, -0.20219970703125, 192.0, 0.0, 0.0, 0.0, 0.0, 0.0, 0.0, 0.0, 0.0, 0.0, 1.741806285561313E9, 0.0, 2025-03-12 14:04:45.561
200.0, 8523.614230586796, 13407.716263260398, 4031.3159264702713, 16375.916168202899, 13651.059705145324, 41704.19772913429, -6894.50733596174, 30021.902027356868, 11105.955970997331, 11262.12760950656, -4305.035389069962, 17622.763529153293, -1936.8233605412677, -3085.144231932668, 4358.299596106958, 39660.26480916319, -0.015269531250000001, 0.9611689453125, -0.20219970703125, 192.0, 0.0, 0.0, 0.0, 0.0, 0.0, 0.0, 0.0, 0.0, 0.0, 1.741806285561347E9, 0.0, 2025-03-12 14:04:45.561
202.0, 8543.641393618751, 13417.79690000974, 4037.3956009621147, 16373.613938524002, 13655.865330203216, 41711.976136204736, -6890.752242893249, 30034.79898390758, 11106.179488441883, 11255.980879781351, -4306.75647339302, 17626.92095362198, -1930.2072441824967, -3084.428976110098, 4367.620273544821, 39678.66029484991, -0.015269531250000001, 0.9611689453125, -0.20219970703125, 192.0, 0.0, 0.0, 0.0, 0.0, 0.0, 0.0, 0.0, 0.0, 0.0, 1.741806285561364E9, 0.0, 2025-03-12 14:04:45.561
204.0, 8544.110780252311, 13420.255591899824, 4038.2449672514163, 16385.23684564076, 13664.314289607322, 41724.40370612189, -6882.280931744687, 30044.52199274564, 11108.593476843058, 11267.983766553853, -4306.130624548272, 17628.664389689493, -1937.8515407862117, -3087.334702889288, 4370.146020668271, 39691.28903046716, -0.015269531250000001, 0.9611689453125, -0.20219970703125, 192.0, 0.0, 0.0, 0.0, 0.0, 0.0, 0.0, 0.0, 0.0, 0.0, 1.741806285561379E9, 0.0, 2025-03-12 14:04:45.561
206.0, 8533.672515591683, 13417.148699420537, 4038.312022484782, 16380.319461860594, 13659.218091871511, 41712.28906062711, -6891.065167315623, 30040.431623510318, 11112.929715267386, 11268.028470042762, -4293.568944164389, 17640.39905552853, -1919.7913312663236, -3090.106319201746, 4371.554180568955, 39693.61361189051, -0.011634765625000001, 0.96458447265625, -0.204099853515625, 192.0, 127.5, 96.0, 15.0, 32.0, 124.5, 72.0, 0.0, 0.0, 0.0, 1.741806285621555E9, 0.0, 2025-03-12 14:04:45.621
208.0, 8533.292535935943, 13407.60450453812, 4041.3295079862487, 16383.739278762256, 13660.201568627546, 41712.758447260676, -6884.270237001209, 30036.9894548642, 11108.682883820878, 11268.162580509494, -4311.115063561805, 17634.54289848124, -1937.7844855528458, -3069.0956794137574, 4362.233503131092, 39685.9693152868, -0.011634765625000001, 0.96458447265625, -0.204099853515625, 192.0, 0.0, 0.0, 0.0, 0.0, 0.0, 0.0, 0.0, 0.0, 0.0, 1.741806285621588E9, 0.0, 2025-03-12 14:04:45.621
210.0, 8524.575355598374, 13405.257571370314, 4028.477254924447, 16365.410848308904, 13654.27835634689, 41703.54952854509, -6894.015597583723, 30035.402481007874, 11106.604171586534, 11258.03724027124, -4302.956676835618, 17637.314514793696, -1939.9302530205553, -3101.6398193406844, 4363.373442098313, 39678.92851578337, -0.011634765625000001, 0.96458447265625, -0.204099853515625, 192.0, 0.0, 0.0, 0.0, 0.0, 0.0, 0.0, 0.0, 0.0, 0.0, 1.741806285621604E9, 0.0, 2025-03-12 14:04:45.621
212.0, 8532.107893479812, 13405.838716726152, 4030.84653983671, 16369.031830910664, 13656.692344748062, 41706.85758672447, -6890.618132426516, 30049.595838736994, 11099.898648249942, 11249.297708189215, -4323.632040456777, 17626.608029199604, -1941.517226876882, -3106.1325199762014, 4350.320023336413, 39668.64671333393, -0.011634765625000001, 0.96458447265625, -0.204099853515625, 192.0, 0.0, 0.0, 0.0, 0.0, 0.0, 0.0, 0.0, 0.0, 0.0, 1.741806285621621E9, 0.0, 2025-03-12 14:04:45.621
214.0, 8524.68711432065, 13393.880533442562, 4025.325658956249, 16363.756819219212, 13658.435780815576, 41700.59909827699, -6891.534553949185, 30035.357777518962, 11110.24750593275, 11261.546464150724, -4311.562098450911, 17637.82860491617, -1932.0847907167424, -3079.600999307752, 4362.546427553467, 39678.07914949407, -0.011634765625000001, 0.96458447265625, -0.204099853515625, 192.0, 0.0, 0.0, 0.0, 0.0, 0.0, 0.0, 0.0, 0.0, 0.0, 1.741806285621636E9, 0.0, 2025-03-12 14:04:45.621
216.0, 8526.095274221334, 13403.760004491807, 4028.097275268707, 16360.180540106363, 13651.372629567699, 41692.463063295254, -6906.577277967606, 30023.824277380023, 11100.122165694496, 11250.974089023362, -4326.649525958243, 17618.3602354956, -1947.9321775355552, -3063.016004921914, 4340.976994154095, 39665.718634810284, -0.006817382812500001, 0.967292236328125, -0.20004992675781252, 192.0, 127.5, 120.0, 15.0, 40.0, 124.5, 112.0, 0.0, 0.0, 0.0, 1.741806285621652E9, 0.0, 2025-03-12 14:04:45.621
218.0, 8541.339163939854, 13411.449004584432, 4037.5297114288464, 16375.871464713988, 13665.36482159672, 41697.04517090859, -6885.700748646349, 30029.345158260487, 11117.400064158448, 11266.083868275151, -4294.015979053495, 17641.516642751296, -1931.0789622162538, -3101.7739298074166, 4365.787430499486, 39677.00626576022, -0.006817382812500001, 0.967292236328125, -0.20004992675781252, 192.0, 0.0, 0.0, 0.0, 0.0, 0.0, 0.0, 0.0, 0.0, 0.0, 1.741806285621669E9, 0.0, 2025-03-12 14:04:45.621
220.0, 8537.82994006037, 13408.476222571877, 4043.7881998763323, 16376.497313558737, 13658.3240220933, 41691.65840049487, -6902.531612221195, 30019.26452151114, 11114.941372268364, 11271.89532183353, -4307.650543171232, 17637.560383982705, -1931.548348849815, -3116.2131567255446, 4359.461886818634, 39661.98589348625, -0.006817382812500001, 0.967292236328125, -0.20004992675781252, 192.0, 0.0, 0.0, 0.0, 0.0, 0.0, 0.0, 0.0, 0.0, 0.0, 1.741806285621684E9, 0.0, 2025-03-12 14:04:45.621
222.0, 8526.139977710245, 13402.821231224685, 4025.6832868675338, 16373.390421079448, 13660.51449304992, 41700.95672618827, -6905.772615167215, 30018.638672666395, 11110.225154188294, 11268.587263654144, -4301.012075068006, 17635.749892681826, -1932.9788604949547, -3091.7379965469836, 4361.71941300862, 39670.09957672353, -0.006817382812500001, 0.967292236328125, -0.20004992675781252, 192.0, 0.0, 0.0, 0.0, 0.0, 0.0, 0.0, 0.0, 0.0, 0.0, 1.741806285682506E9, 0.0, 2025-03-12 14:04:45.682
224.0, 8514.45001536012, 13397.79208872224, 4051.3654412466817, 16365.366144819993, 13660.536844794375, 41701.20259537728, -6902.330446521098, 30023.936036102303, 11102.022063973196, 11244.380324409047, -4314.0878455743605, 17609.419537713475, -1943.6853460890468, -3088.720511045517, 4366.05565143295, 39658.70018705132, -0.006817382812500001, 0.967292236328125, -0.20004992675781252, 192.0, 0.0, 0.0, 0.0, 0.0, 0.0, 0.0, 0.0, 0.0, 0.0, 1.741806285682535E9, 0.0, 2025-03-12 14:04:45.682
226.0, 8537.762884827005, 13418.959190721416, 4050.449019724014, 16384.901569473932, 13662.593205284264, 41722.16853167636, -6906.957257623346, 30018.41515522184, 11105.307770408126, 11258.03724027124, -4308.276392015981, 17616.68385466145, -1937.3150989192843, -3098.8011477948608, 4381.366596384835, 39671.15010871293, -0.011408691406250001, 0.9626461181640625, -0.20002496337890627, 192.0, 127.5, 64.0, 14.5, 120.0, 124.5, 96.0, 0.0, 0.0, 0.0, 1.741806285682551E9, 0.0, 2025-03-12 14:04:45.682
228.0, 8521.06613171889, 13418.288638387758, 4045.866912110676, 16376.43025832537, 13659.687478505073, 41723.46493285477, -6913.79689142667, 30031.17800130582, 11106.984151242275, 11274.108144534606, -4317.977049109584, 17617.265000017287, -1943.4841803889492, -3085.814784266327, 4380.651340562265, 39665.78569004365, -0.011408691406250001, 0.9626461181640625, -0.20002496337890627, 192.0, 0.0, 0.0, 0.0, 0.0, 0.0, 0.0, 0.0, 0.0, 0.0, 1.741806285682594E9, 0.0, 2025-03-12 14:04:45.682
230.0, 8550.033992532968, 13423.407187868022, 4026.7561706013885, 16391.093002688052, 13659.486312804976, 41735.758392305186, -6911.829937914603, 30032.496754228683, 11106.268895419706, 11269.458981687902, -4305.191851281149, 17622.00356984181, -1931.6377558276363, -3088.6758075566063, 4382.774756285519, 39674.07818723657, -0.011408691406250001, 0.9626461181640625, -0.20002496337890627, 192.0, 0.0, 0.0, 0.0, 0.0, 0.0, 0.0, 0.0, 0.0, 0.0, 1.74180628568261E9, 0.0, 2025-03-12 14:04:45.682
232.0, 8539.439265661153, 13424.748292535342, 4047.900920856109, 16371.222301867283, 13649.584490011275, 41719.598081063996, -6917.84255717308, 30022.349062245976, 11101.977360484287, 11280.523095193279, -4320.972182866595, 17612.034691814744, -1928.933194748544, -3079.5786475632963, 4376.940950982685, 39654.900390493916, -0.011408691406250001, 0.9626461181640625, -0.20002496337890627, 192.0, 0.0, 0.0, 0.0, 0.0, 0.0, 0.0, 0.0, 0.0, 0.0, 1.741806285682626E9, 0.0, 2025-03-12 14:04:45.682
234.0, 8539.998059272535, 13438.56167060872, 4050.024336579363, 16400.190162681363, 13651.618498756707, 41752.79042158013, -6912.098158848066, 30046.556001491073, 11108.235848931772, 11289.32968250867, -4291.84785984133, 17623.992875098334, -1945.5628926232926, -3080.495069085964, 4381.321892895924, 39658.05198646212, -0.011408691406250001, 0.9626461181640625, -0.20002496337890627, 192.0, 0.0, 0.0, 0.0, 0.0, 0.0, 0.0, 0.0, 0.0, 0.0, 1.741806285682641E9, 0.0, 2025-03-12 14:04:45.682
236.0, 8546.055382019924, 13432.70551356143, 4055.7463831599216, 16389.215456153805, 13648.422199299599, 41747.87303779996, -6903.828013399603, 30050.221687581743, 11107.610000087023, 11291.408394743014, -4302.487290202056, 17619.410767484995, -1926.2062819249968, -3077.7458045179615, 4384.562895841944, 39679.19673671684, -0.017704345703125, 0.9643230590820313, -0.20301248168945313, 192.0, 127.5, 32.0, 15.0, 24.0, 124.5, 72.0, 0.0, 0.0, 0.0, 1.741806285741415E9, 0.0, 2025-03-12 14:04:45.741
238.0, 8546.569472142395, 13423.876574501584, 4065.871723398176, 16394.222246911795, 13642.811911441317, 41739.938168518325, -6906.621981456517, 30036.631826952915, 11105.330122152582, 11285.820458629187, -4298.396920966736, 17617.24264827283, -1931.3024796608067, -3065.65351076764, 4380.897209751273, 39670.56896335709, -0.017704345703125, 0.9643230590820313, -0.20301248168945313, 192.0, 0.0, 0.0, 0.0, 0.0, 0.0, 0.0, 0.0, 0.0, 0.0, 1.741806285741448E9, 0.0, 2025-03-12 14:04:45.741
240.0, 8540.445094161641, 13429.240993170857, 4052.281862769349, 16374.6644705134, 13639.637963728663, 41724.20254042179, -6904.342103522075, 30034.50841122966, 11096.05414820363, 11284.680519661966, -4311.606801939822, 17607.63139815705, -1939.974956509466, -3081.0985661862574, 4369.766041012531, 39659.25898066271, -0.017704345703125, 0.9643230590820313, -0.20301248168945313, 192.0, 0.0, 0.0, 0.0, 0.0, 0.0, 0.0, 0.0, 0.0, 0.0, 1.741806285741465E9, 0.0, 2025-03-12 14:04:45.741
242.0, 8571.715184654617, 13444.641345100565, 4081.1826683500612, 16398.402023124938, 13652.378458068188, 41737.904159772894, -6886.326597491097, 30046.533649746616, 11108.414662887415, 11287.161563296506, -4293.591295908845, 17617.801441884214, -1920.5065870888934, -3083.7360720319834, 4380.986616729095, 39666.8138702886, -0.017704345703125, 0.9643230590820313, -0.20301248168945313, 192.0, 0.0, 0.0, 0.0, 0.0, 0.0, 0.0, 0.0, 0.0, 0.0, 1.741806285741481E9, 0.0, 2025-03-12 14:04:45.741
244.0, 8565.277882251488, 13444.350772422646, 4073.2925025573377, 16376.117333902996, 13645.203548098034, 41722.749677032196, -6897.457766229841, 30031.80385015057, 11121.378674671492, 11286.759231896309, -4282.70599635911, 17628.843203645134, -1907.3861130936282, -3091.626237824707, 4395.068215735939, 39686.4163501759, -0.017704345703125, 0.9643230590820313, -0.20301248168945313, 192.0, 0.0, 0.0, 0.0, 0.0, 0.0, 0.0, 0.0, 0.0, 0.0, 1.74180628574152E9, 0.0, 2025-03-12 14:04:45.741
246.0, 8567.133077041279, 13441.534452621276, 4076.7570229479106, 16382.219360139296, 13652.13258887918, 41727.89057825692, -6885.119603290511, 30033.591989706994, 11115.187241457372, 11281.595978927135, -4293.144261019738, 17617.91320060649, -1897.2831245998293, -3080.629179552696, 4388.29563716598, 39676.26865819319, -0.0288521728515625, 0.9671615295410156, -0.20650624084472657, 192.0, 127.0, 96.0, 15.0, 40.0, 124.5, 56.0, 0.0, 0.0, 0.0, 1.741806285741537E9, 0.0, 2025-03-12 14:04:45.741
248.0, 8552.202111745133, 13441.668563088007, 4082.926104417575, 16372.630461767969, 13648.288088832867, 41721.408572364875, -6884.4937544457625, 30031.312111772553, 11116.260125191227, 11277.75147888082, -4292.406653452713, 17616.572095939173, -1898.4454153115053, -3087.46881335602, 4391.782509301008, 39679.6661233504, -0.0288521728515625, 0.9671615295410156, -0.20650624084472657, 192.0, 0.0, 0.0, 0.0, 0.0, 0.0, 0.0, 0.0, 0.0, 0.0, 1.741806285741554E9, 0.0, 2025-03-12 14:04:45.741
250.0, 8567.401297974742, 13444.32842067819, 4087.5976190087345, 16393.73050853378, 13656.066495903313, 41732.00329923669, -6870.680376372383, 30026.75235590367, 11110.359264655026, 11281.439516715947, -4306.957639093118, 17607.05025280121, -1888.23066809543, -3080.6962347860617, 4394.509422124555, 39688.07037926559, -0.0288521728515625, 0.9671615295410156, -0.20650624084472657, 192.0, 0.0, 0.0, 0.0, 0.0, 0.0, 0.0, 0.0, 0.0, 0.0, 1.741806285741576E9, 0.0, 2025-03-12 14:04:45.741
252.0, 8557.544178669952, 13433.018437983805, 4065.4917437424356, 16366.327269831572, 13646.254080087434, 41724.001374721694, -6873.653158384938, 30021.902027356868, 11119.970514770808, 11283.831153372665, -4292.272542985981, 17613.01816857078, -1887.7389297174134, -3056.9363304300705, 4392.341302912391, 39687.35512344303, -0.0288521728515625, 0.9671615295410156, -0.20650624084472657, 192.0, 0.0, 0.0, 0.0, 0.0, 0.0, 0.0, 0.0, 0.0, 0.0, 1.741806285801705E9, 0.0, 2025-03-12 14:04:45.801
254.0, 8558.50530368153, 13445.155435223036, 4059.792048906332, 16386.220322396795, 13644.55534750883, 41733.34440390401, -6884.113774790022, 30012.581349919004, 11113.53321236768, 11273.28112998976, -4313.931383363174, 17592.543970649716, -1897.32782808874, -3082.6631882981287, 4385.278151664514, 39702.06257129462, -0.0288521728515625, 0.9671615295410156, -0.20650624084472657, 192.0, 0.0, 0.0, 0.0, 0.0, 0.0, 0.0, 0.0, 0.0, 0.0, 1.741806285801734E9, 0.0, 2025-03-12 14:04:45.801
0.0, 8546.457713420119, 13439.90277527604, 4045.0846010547402, 16369.903548944421, 13644.398885297644, 41721.25211015369, -6862.633748368472, 30013.922454586325, 11119.098796737051, 11293.956493610918, -4306.085921059361, 17615.968598838877, -1884.0285401378324, -3078.1704876626122, 4378.684387050198, 39697.882795081474, -0.02842608642578125, 0.9655807647705078, -0.2052531204223633, 192.0, 127.5, 16.0, 15.0, 16.0, 124.5, 80.0, 0.0, 0.0, 0.0, 1.74180628580175E9, 0.0, 2025-03-12 14:04:45.801
2.0, 8563.892074095258, 13437.444083385955, 4062.2730925408714, 16381.660566527913, 13643.683629475074, 41731.690374814316, -6865.897103058947, 30014.011861564144, 11123.055055505642, 11274.108144534606, -4311.8526711288305, 17597.707223618894, -1884.2520575823853, -3081.0091592084364, 4388.116823210338, 39700.94498407185, -0.02842608642578125, 0.9655807647705078, -0.2052531204223633, 192.0, 0.0, 0.0, 0.0, 0.0, 0.0, 0.0, 0.0, 0.0, 0.0, 1.741806285801768E9, 0.0, 2025-03-12 14:04:45.801
4.0, 8580.544123714462, 13443.210833455425, 4073.2030955795167, 16381.52645606118, 13645.091789375758, 41728.73994454622, -6863.281948957676, 29998.61150963444, 11135.884956822987, 11285.03814757325, -4288.740967362042, 17617.220296528376, -1890.4434907965053, -3079.84686849676, 4397.4375006482005, 39723.18496980488, -0.02842608642578125, 0.9655807647705078, -0.2052531204223633, 192.0, 0.0, 0.0, 0.0, 0.0, 0.0, 0.0, 0.0, 0.0, 0.0, 1.741806285801784E9, 0.0, 2025-03-12 14:04:45.801
6.0, 8575.760850401026, 13444.149606722547, 4061.2002088070167, 16386.645005541446, 13647.08109463228, 41732.383278892434, -6865.0700885141005, 30001.807809091548, 11135.035590533686, 11289.016758086296, -4302.1073105463165, 17607.229066756852, -1889.169441362553, -3088.407586623143, 4382.931218496707, 39709.28218475368, -0.02842608642578125, 0.9655807647705078, -0.2052531204223633, 192.0, 0.0, 0.0, 0.0, 0.0, 0.0, 0.0, 0.0, 0.0, 0.0, 1.7418062858018E9, 0.0, 2025-03-12 14:04:45.801
8.0, 8569.994100331558, 13438.56167060872, 4052.4383249805364, 16390.064822443106, 13645.784693453872, 41728.203502679295, -6871.775611850693, 29995.616375877427, 11141.24937549226, 11289.933179608963, -4290.417348196191, 17619.94720935192, -1876.361891789662, -3073.342510860266, 4392.073081978927, 39724.57077796111, -0.02842608642578125, 0.9655807647705078, -0.2052531204223633, 192.0, 0.0, 0.0, 0.0, 0.0, 0.0, 0.0, 0.0, 0.0, 0.0, 1.741806285801816E9, 0.0, 2025-03-12 14:04:45.801
10.0, 8584.858010394337, 13448.888176547072, 4066.2740547983713, 16394.62457831199, 13653.18312086858, 41724.06842995506, -6863.97485303579, 29988.46381765173, 11141.58465165909, 11286.982749340863, -4297.815775610898, 17614.42632847146, -1881.2122203364636, -3063.5747985332964, 4384.048805719472, 39715.74183890127, -0.024213043212890625, 0.9627903823852539, -0.20562656021118164, 192.0, 127.5, 48.0, 15.0, 0.0, 124.5, 72.0, 0.0, 0.0, 0.0, 1.741806285863446E9, 0.0, 2025-03-12 14:04:45.863
12.0, 8557.812399603416, 13438.986353753371, 4044.034069065341, 16386.6673572859, 13641.113178862714, 41712.51257807166, -6882.88442884498, 29977.35500065744, 11146.792608117177, 11291.900133121031, -4284.918819060185, 17627.189174555442, -1869.365795775151, -3029.8460161502385, 4388.720320310631, 39709.46099870932, -0.024213043212890625, 0.9627903823852539, -0.20562656021118164, 192.0, 0.0, 0.0, 0.0, 0.0, 0.0, 0.0, 0.0, 0.0, 0.0, 1.741806285863502E9, 0.0, 2025-03-12 14:04:45.863
14.0, 8592.0776238534, 13447.5247201353, 4078.925142160075, 16398.37967138048, 13652.914899935115, 41726.236549167224, -6867.1264490039885, 29996.17516948881, 11130.833462576087, 11272.364708467092, -4312.836147884864, 17615.029825571757, -1875.780746433824, -3105.9313542761033, 4381.1207271958265, 39714.2219202783, -0.024213043212890625, 0.9627903823852539, -0.20562656021118164, 192.0, 0.0, 0.0, 0.0, 0.0, 0.0, 0.0, 0.0, 0.0, 0.0, 1.741806285863519E9, 0.0, 2025-03-12 14:04:45.863
16.0, 8576.833734134882, 13430.604449582632, 4066.944607132031, 16391.45063059934, 13649.360972566721, 41725.0966102, -6873.02730954019, 29985.26751819462, 11140.86939583652, 11287.027452829774, -4280.13554574675, 17630.988971112845, -1881.8157174367568, -3092.8332320252935, 4390.463756378145, 39722.067382582114, -0.024213043212890625, 0.9627903823852539, -0.20562656021118164, 192.0, 0.0, 0.0, 0.0, 0.0, 0.0, 0.0, 0.0, 0.0, 0.0, 1.741806285863534E9, 0.0, 2025-03-12 14:04:45.863
18.0, 8573.883303866782, 13432.303182161235, 4065.670557698078, 16377.346679848039, 13647.550481265842, 41721.699145042796, -6878.570542165106, 29986.876843795402, 11132.86747132152, 11279.60667367061, -4304.744816392043, 17611.67706390346, -1888.6329994956257, -3082.5737813203077, 4381.210134173648, 39709.59510917606, -0.024213043212890625, 0.9627903823852539, -0.20562656021118164, 192.0, 0.0, 0.0, 0.0, 0.0, 0.0, 0.0, 0.0, 0.0, 0.0, 1.741806285863557E9, 0.0, 2025-03-12 14:04:45.863
20.0, 8571.022280576502, 13432.660810072519, 4059.389717506137, 16387.069688686097, 13648.802178955339, 41732.40563063689, -6870.792135094659, 29995.929300299802, 11133.15804399944, 11270.08483053265, -4297.905182588718, 17616.66150291699, -1877.0324441233213, -3087.424109867109, 4378.259703905547, 39711.942042343864, -0.020106521606445313, 0.961395191192627, -0.2078132801055908, 192.0, 127.5, 64.0, 15.0, 0.0, 124.5, 56.0, 0.0, 0.0, 0.0, 1.741806285863573E9, 0.0, 2025-03-12 14:04:45.863
22.0, 8569.41295497572, 13421.999027967338, 4054.449981981514, 16372.451647812326, 13642.320173063299, 41722.52615958764, -6883.331463734086, 29983.948765271758, 11130.788759087178, 11270.397754955025, -4304.387188480758, 17614.225162771363, -1884.3861680491173, -3083.825479009805, 4374.973997470617, 39703.6718968954, -0.020106521606445313, 0.961395191192627, -0.2078132801055908, 192.0, 0.0, 0.0, 0.0, 0.0, 0.0, 0.0, 0.0, 0.0, 0.0, 1.74180628586359E9, 0.0, 2025-03-12 14:04:45.863
24.0, 8575.425574234197, 13442.450874143944, 4056.774563404866, 16395.853924257033, 13647.550481265842, 41721.25211015369, -6879.866943343514, 29988.620279862917, 11135.63908763398, 11274.197551512427, -4288.9644848065955, 17630.698398434924, -1876.0266156228324, -3071.5543713038414, 4377.097413193871, 39702.576661417086, -0.020106521606445313, 0.961395191192627, -0.2078132801055908, 192.0, 0.0, 0.0, 0.0, 0.0, 0.0, 0.0, 0.0, 0.0, 0.0, 1.741806285863606E9, 0.0, 2025-03-12 14:04:45.863
26.0, 8582.1758010597, 13436.393551396555, 4048.392659234126, 16377.547845548135, 13636.84399567175, 41711.417342593355, -6893.568562694617, 29982.94293677127, 11133.403913188447, 11266.03916478624, -4299.916839589696, 17623.747005909325, -1881.0557581252765, -3097.9070780166485, 4365.899189221763, 39699.80504510463, -0.020106521606445313, 0.961395191192627, -0.2078132801055908, 192.0, 0.0, 0.0, 0.0, 0.0, 0.0, 0.0, 0.0, 0.0, 0.0, 1.741806285922283E9, 0.0, 2025-03-12 14:04:45.922
28.0, 8585.796783661459, 13447.055333501738, 4050.1137435571845, 16398.849058014042, 13644.93532716457, 41729.4999038577, -6882.593856167061, 29993.805884576548, 11139.10360802455, 11272.543522422735, -4287.46691792809, 17635.39226477054, -1874.0149586218547, -3079.332778374288, 4365.228636888103, 39692.04898977864, -0.020106521606445313, 0.961395191192627, -0.2078132801055908, 192.0, 0.0, 0.0, 0.0, 0.0, 0.0, 0.0, 0.0, 0.0, 0.0, 1.741806285922311E9, 0.0, 2025-03-12 14:04:45.922
30.0, 8563.26622525051, 13435.18655719597, 4049.8008191348104, 16379.783019993667, 13635.122911348692, 41720.76037177567, -6888.964103336823, 29991.950689786758, 11138.29894522416, 11266.732068864354, -4292.786633108453, 17636.2639828043, -1877.300665056785, -3052.17540886109, 4374.146982925771, 39699.916803826905, -0.015053260803222657, 0.9636975955963134, -0.21390664005279542, 192.0, 127.5, 88.0, 15.0, 24.0, 124.5, 16.0, 0.0, 0.0, 0.0, 1.741806285922328E9, 0.0, 2025-03-12 14:04:45.922
32.0, 8579.068908580412, 13443.724923577896, 4052.1254005581623, 16402.224171426795, 13641.31434456281, 41733.657328326386, -6885.499582946251, 30002.165437002834, 11133.985058544285, 11262.060554273196, -4301.526165190478, 17629.20083155642, -1883.0897668707094, -3080.7632900194276, 4373.2529131475585, 39694.731199113274, -0.015053260803222657, 0.9636975955963134, -0.21390664005279542, 192.0, 0.0, 0.0, 0.0, 0.0, 0.0, 0.0, 0.0, 0.0, 0.0, 1.741806285922345E9, 0.0, 2025-03-12 14:04:45.922
34.0, 8564.562626428919, 13428.033998970272, 4065.1564675756063, 16385.370956107494, 13637.536899749864, 41719.01693570816, -6891.869830116014, 29992.710649098237, 11137.337820212582, 11278.220865514382, -4289.702092373621, 17642.522471251785, -1888.7671099623574, -3090.4862988574864, 4378.460869605645, 39699.60387940453, -0.015053260803222657, 0.9636975955963134, -0.21390664005279542, 192.0, 0.0, 0.0, 0.0, 0.0, 0.0, 0.0, 0.0, 0.0, 0.0, 1.741806285922387E9, 0.0, 2025-03-12 14:04:45.922
36.0, 8561.41103046072, 13434.203080439936, 4074.074813613274, 16411.96953200931, 13646.70111497654, 41734.841970782516, -6886.393652724463, 30000.243186979675, 11128.10654975254, 11250.124722734061, -4296.139394776749, 17625.848069888125, -1889.3482553181955, -3087.6029238227516, 4374.169334670226, 39686.90808855392, -0.015053260803222657, 0.9636975955963134, -0.21390664005279542, 192.0, 0.0, 0.0, 0.0, 0.0, 0.0, 0.0, 0.0, 0.0, 0.0, 1.741806285922404E9, 0.0, 2025-03-12 14:04:45.922
38.0, 8536.265317948499, 13425.32943789118, 4050.873702868665, 16385.348604363036, 13644.756513208928, 41728.15879919038, -6892.249809771754, 29993.515311898627, 11127.7265700968, 11278.980824825863, -4296.049987798928, 17645.942288153445, -1881.3239790587402, -3040.194873833045, 4388.1615266992485, 39695.82643459159, -0.015053260803222657, 0.9636975955963134, -0.21390664005279542, 192.0, 0.0, 0.0, 0.0, 0.0, 0.0, 0.0, 0.0, 0.0, 0.0, 1.74180628592242E9, 0.0, 2025-03-12 14:04:45.922
40.0, 8560.002870560034, 13422.691932045453, 4057.9592058609974, 16389.32721487608, 13645.516472520409, 41729.61166257998, -6898.083615074589, 29987.122712984412, 11121.624543860502, 11261.524112406269, -4310.176290294682, 17626.451566988417, -1879.3570255466732, -3106.7583688209497, 4377.320930638424, 39683.220050718795, -0.015526630401611329, 0.9658487977981567, -0.22095332002639773, 192.0, 127.5, 64.0, 15.0, 32.0, 124.0, 112.0, 0.0, 0.0, 0.0, 1.741806285982574E9, 0.0, 2025-03-12 14:04:45.982
42.0, 8543.842559318848, 13429.486862359867, 4064.642377453134, 16372.04931641213, 13639.392094539655, 41718.59225256351, -6907.627809957005, 29983.814654805024, 11121.222212460305, 11245.69907733191, -4294.932400576163, 17620.86363087459, -1893.1704036200529, -3105.976057765014, 4374.638721303788, 39673.42998664737, -0.015526630401611329, 0.9658487977981567, -0.22095332002639773, 192.0, 0.0, 0.0, 0.0, 0.0, 0.0, 0.0, 0.0, 0.0, 0.0, 1.741806285982607E9, 0.0, 2025-03-12 14:04:45.982
44.0, 8550.50337916653, 13423.831871012673, 4050.359612746193, 16386.600302052535, 13639.637963728663, 41735.758392305186, -6904.230344799798, 29992.531835142596, 11116.684808335878, 11251.08584774564, -4310.332752505869, 17615.029825571757, -1880.4746127694384, -3087.5805720782964, 4369.833096245897, 39680.627248361976, -0.015526630401611329, 0.9658487977981567, -0.22095332002639773, 192.0, 0.0, 0.0, 0.0, 0.0, 0.0, 0.0, 0.0, 0.0, 0.0, 1.741806285982624E9, 0.0, 2025-03-12 14:04:45.982
46.0, 8543.350820940832, 13420.032074455272, 4055.9922523489304, 16376.944348447842, 13636.218146827001, 41729.79047653562, -6896.027254584701, 29989.760218830135, 11121.177508971396, 11254.595071625123, -4303.2248977690815, 17619.94720935192, -1892.23163035293, -3061.920769443604, 4379.980788228606, 39686.86338506501, -0.015526630401611329, 0.9658487977981567, -0.22095332002639773, 192.0, 0.0, 0.0, 0.0, 0.0, 0.0, 0.0, 0.0, 0.0, 0.0, 1.74180628598264E9, 0.0, 2025-03-12 14:04:45.982
48.0, 8555.241948991055, 13428.928068748482, 4063.5694937192793, 16383.00167119523, 13637.671010216596, 41728.2482061682, -6893.121527805511, 29988.55322462955, 11114.092005979062, 11244.93911802043, -4310.399807739235, 17607.162011523487, -1886.5766390057372, -3110.0887787447905, 4369.944854968173, 39671.08305347956, -0.015526630401611329, 0.9658487977981567, -0.22095332002639773, 192.0, 0.0, 0.0, 0.0, 0.0, 0.0, 0.0, 0.0, 0.0, 0.0, 1.741806285982656E9, 0.0, 2025-03-12 14:04:45.982
50.0, 8543.194358729645, 13425.284734402268, 4055.7016796710113, 16381.57115955009, 13632.999495625436, 41723.82256076605, -6882.6162079115165, 29983.56878561602, 11120.864584549021, 11268.52020842078, -4299.022769811484, 17626.138642566042, -1887.3142465727624, -3107.0265897544136, 4383.19943943017, 39679.0626262501, -0.019763315200805664, 0.9659243988990783, -0.22347666001319888, 192.0, 127.5, 32.0, 15.0, 24.0, 124.0, 120.0, 0.0, 0.0, 0.0, 1.741806285982671E9, 0.0, 2025-03-12 14:04:45.982
52.0, 8558.013565303512, 13426.782301280773, 4065.3352815312487, 16387.740241019757, 13634.206489826023, 41724.60487182199, -6883.689091645371, 29974.203404689244, 11122.58566887208, 11260.630042628056, -4296.541726176944, 17616.48268896135, -1901.8652322131672, -3104.344380419777, 4382.551238840966, 39676.80510006012, -0.019763315200805664, 0.9659243988990783, -0.22347666001319888, 192.0, 0.0, 0.0, 0.0, 0.0, 0.0, 0.0, 0.0, 0.0, 0.0, 1.741806285982689E9, 0.0, 2025-03-12 14:04:45.982
54.0, 8552.112704767313, 13426.536432091765, 4031.427685192548, 16384.23101714027, 13630.518451990898, 41720.60390956449, -6882.50444918924, 29976.773855301602, 11129.425302675403, 11267.581435153656, -4286.461089427601, 17627.077415833166, -1882.1286418591312, -3088.787566278883, 4379.466698106134, 39676.5145273822, -0.019763315200805664, 0.9659243988990783, -0.22347666001319888, 192.0, 0.0, 0.0, 0.0, 0.0, 0.0, 0.0, 0.0, 0.0, 0.0, 1.741806285982704E9, 0.0, 2025-03-12 14:04:45.982
56.0, 8561.41103046072, 13438.584022353176, 4087.9552469200194, 16407.521534862703, 13632.373646780688, 41743.849723798005, -6875.910684574925, 29995.12463749941, 11125.379636928992, 11270.04012704374, -4294.530069175968, 17617.846145373125, -1894.6456187541032, -3077.9022667291483, 4377.499744594067, 39681.94600128484, -0.019763315200805664, 0.9659243988990783, -0.22347666001319888, 192.0, 0.0, 0.0, 0.0, 0.0, 0.0, 0.0, 0.0, 0.0, 0.0, 1.741806286042779E9, 0.0, 2025-03-12 14:04:46.042
58.0, 8557.901806581236, 13439.858071787128, 4072.733708945955, 16406.605113340036, 13631.390170024655, 41743.67090984237, -6877.02827179769, 29981.758294315136, 11136.980192301296, 11287.809763885709, -4271.887752042741, 17642.097788107134, -1886.4648802834608, -3066.592284034763, 4397.079872736916, 39713.10433305554, -0.019763315200805664, 0.9659243988990783, -0.22347666001319888, 192.0, 0.0, 0.0, 0.0, 0.0, 0.0, 0.0, 0.0, 0.0, 0.0, 1.741806286042808E9, 0.0, 2025-03-12 14:04:46.042
60.0, 8564.607329917828, 13428.011647225816, 4071.3255490452707, 16402.33593014907, 13633.670047959096, 41742.70978483079, -6872.334405462076, 29991.436599664285, 11129.268840464216, 11267.51437992029, -4293.9489238201295, 17620.10367156311, -1886.4425285390055, -3070.36972884771, 4383.333549896902, 39688.69622811034, -0.019881657600402832, 0.9689621994495392, -0.21873833000659942, 192.0, 127.5, 48.0, 15.0, 48.0, 124.5, 40.0, 0.0, 0.0, 0.0, 1.741806286042825E9, 0.0, 2025-03-12 14:04:46.042
62.0, 8562.193341516655, 13438.271097930801, 4080.065081127296, 16422.564258881124, 13637.514548005409, 41758.64657862742, -6869.473382171796, 29991.54835838656, 11130.29702070916, 11282.758269638809, -4279.554400390912, 17634.520546736785, -1878.485307512916, -3081.7020632865506, 4405.77470133003, 39727.4765047403, -0.019881657600402832, 0.9689621994495392, -0.21873833000659942, 192.0, 0.0, 0.0, 0.0, 0.0, 0.0, 0.0, 0.0, 0.0, 0.0, 1.741806286042867E9, 0.0, 2025-03-12 14:04:46.042
64.0, 8559.824056604393, 13423.787167523762, 4069.0680228552847, 16400.033700470176, 13635.257021815423, 41747.11307848848, -6871.954425806335, 29980.03720999208, 11130.341724198071, 11277.304443991714, -4289.2550574845145, 17628.57498271167, -1890.6223047521478, -3081.523249330908, 4402.198422217181, 39734.00321412125, -0.019881657600402832, 0.9689621994495392, -0.21873833000659942, 192.0, 0.0, 0.0, 0.0, 0.0, 0.0, 0.0, 0.0, 0.0, 0.0, 1.741806286042883E9, 0.0, 2025-03-12 14:04:46.042
66.0, 8558.460600192619, 13425.597658824643, 4057.869798883176, 16399.519610347703, 13636.59812648274, 41739.669947584865, -6873.9884345517685, 29971.744712799158, 11131.414607931925, 11257.053763515207, -4288.942133062141, 17621.847107630623, -1884.7884994493127, -3070.146211403157, 4391.670750578732, 39711.09267605456, -0.019881657600402832, 0.9689621994495392, -0.21873833000659942, 192.0, 0.0, 0.0, 0.0, 0.0, 0.0, 0.0, 0.0, 0.0, 0.0, 1.7418062860429E9, 0.0, 2025-03-12 14:04:46.042
68.0, 8542.814379073903, 13423.18367042347, 4057.065136082785, 16386.600302052535, 13633.178309581079, 41728.49407535721, -6879.241094498765, 29967.78845403057, 11129.693523608867, 11275.583359668655, -4307.069397815394, 17621.06479657469, -1887.5377640173156, -3071.174391648101, 4380.360767884346, 39704.63302190698, -0.019881657600402832, 0.9689621994495392, -0.21873833000659942, 192.0, 0.0, 0.0, 0.0, 0.0, 0.0, 0.0, 0.0, 0.0, 0.0, 1.741806286042916E9, 0.0, 2025-03-12 14:04:46.042
70.0, 8543.30611745192, 13431.051484471738, 4019.2459844644054, 16385.66152878541, 13626.36102752221, 41718.97223221925, -6887.3100742471315, 29954.869145735403, 11122.943296783364, 11260.026545527762, -4307.47172921559, 17612.302912748208, -1892.0304646528323, -3087.5805720782964, 4370.794221257475, 39690.70788511132, -0.015940828800201416, 0.9674810997247696, -0.21436916500329972, 192.0, 127.5, 80.0, 15.0, 24.0, 124.5, 56.0, 0.0, 0.0, 0.0, 1.741806286102769E9, 0.0, 2025-03-12 14:04:46.102
72.0, 8553.677326879184, 13439.165167709014, 4055.098182570718, 16379.961833949308, 13625.2657920439, 41708.131636158425, -6881.856248600036, 29954.265648635108, 11135.080294022597, 11271.492990433335, -4309.0363513274615, 17616.86266861709, -1898.7359879894243, -3099.6058105952516, 4372.24708464707, 39681.29780069564, -0.015940828800201416, 0.9674810997247696, -0.21436916500329972, 192.0, 0.0, 0.0, 0.0, 0.0, 0.0, 0.0, 0.0, 0.0, 0.0, 1.741806286102801E9, 0.0, 2025-03-12 14:04:46.102
74.0, 8555.152542013233, 13431.342057149657, 4057.9815576054525, 16400.167810936906, 13627.523318233887, 41725.40953462238, -6888.181792280888, 29962.424035361295, 11146.25616625025, 11277.393850969536, -4286.505792916512, 17637.940363638445, -1901.2393833684187, -3093.257915169944, 4373.38702361429, 39693.12187351249, -0.015940828800201416, 0.9674810997247696, -0.21436916500329972, 192.0, 0.0, 0.0, 0.0, 0.0, 0.0, 0.0, 0.0, 0.0, 0.0, 1.741806286102818E9, 0.0, 2025-03-12 14:04:46.102
76.0, 8546.54712039794, 13436.550013607743, 4051.7230691579666, 16379.850075227032, 13627.500966489431, 41716.20061590679, -6889.41113822593, 29957.864279492413, 11134.856776578043, 11263.759286851799, -4300.52033668999, 17620.550706452217, -1906.5814502932371, -3072.1578684041347, 4369.430764845702, 39695.33469621357, -0.015940828800201416, 0.9674810997247696, -0.21436916500329972, 192.0, 0.0, 0.0, 0.0, 0.0, 0.0, 0.0, 0.0, 0.0, 0.0, 1.741806286102834E9, 0.0, 2025-03-12 14:04:46.102
78.0, 8572.497495710551, 13441.534452621276, 4070.3420722892374, 16406.42629938439, 13634.184138081568, 41734.39493589341, -6883.867905601014, 29960.412378360317, 11146.613794161534, 11283.09354580564, -4287.042234783439, 17634.811119414702, -1896.523165288349, -3084.786604021383, 4376.426860860212, 39695.938193313865, -0.015940828800201416, 0.9674810997247696, -0.21436916500329972, 192.0, 0.0, 0.0, 0.0, 0.0, 0.0, 0.0, 0.0, 0.0, 0.0, 1.741806286102873E9, 0.0, 2025-03-12 14:04:46.102
80.0, 8549.83282683287, 13430.269173415802, 4042.13417078664, 16396.278607401684, 13630.719617690995, 41726.77299103415, -6893.41210048343, 29956.277305636086, 11138.969497557819, 11275.695118390933, -4301.28029600147, 17623.769357653782, -1898.5348222893265, -3071.152039903646, 4376.113936437838, 39703.962469573315, -0.014970414400100707, 0.9637405498623848, -0.21218458250164984, 192.0, 127.5, 72.0, 15.0, 0.0, 124.5, 56.0, 0.0, 0.0, 0.0, 1.741806286102889E9, 0.0, 2025-03-12 14:04:46.102
82.0, 8552.962071056614, 13428.682199559475, 4050.024336579363, 16412.5730291096, 13635.569946237798, 41737.45712488379, -6883.242056756265, 29969.97892498719, 11137.784855101689, 11268.542560165235, -4292.004322052518, 17628.798500156227, -1881.0334063808211, -3095.9624762490366, 4373.834058503397, 39703.2248620063, -0.014970414400100707, 0.9637405498623848, -0.21218458250164984, 192.0, 0.0, 0.0, 0.0, 0.0, 0.0, 0.0, 0.0, 0.0, 0.0, 1.741806286102905E9, 0.0, 2025-03-12 14:04:46.102
84.0, 8538.679306349672, 13425.843528013651, 4070.610293222701, 16389.282511387173, 13628.909126390115, 41723.01789796566, -6893.143879549966, 29957.8195760035, 11124.217346217316, 11278.399679470025, -4298.396920966736, 17625.445738487928, -1901.842880468712, -3091.4474238690646, 4394.084738979905, 39706.19764401885, -0.014970414400100707, 0.9637405498623848, -0.21218458250164984, 192.0, 0.0, 0.0, 0.0, 0.0, 0.0, 0.0, 0.0, 0.0, 0.0, 1.741806286102928E9, 0.0, 2025-03-12 14:04:46.102
86.0, 8550.369268699798, 13420.143833177548, 4073.158392090606, 16403.29705516065, 13638.296859061344, 41742.30745343059, -6883.532629434184, 29977.1761867018, 11116.48364263578, 11268.386097954048, -4309.3269240053805, 17611.38649122554, -1900.3900170791171, -3087.46881335602, 4387.356863898857, 39688.383303687966, -0.014970414400100707, 0.9637405498623848, -0.21218458250164984, 192.0, 0.0, 0.0, 0.0, 0.0, 0.0, 0.0, 0.0, 0.0, 0.0, 1.741806286161981E9, 0.0, 2025-03-12 14:04:46.161
88.0, 8535.460655148108, 13416.65696104252, 4059.814400650788, 16386.980281708275, 13636.59812648274, 41744.09559298702, -6885.745452135259, 29967.766102286114, 11122.563317127624, 11267.536731664746, -4299.827432611875, 17614.515735449284, -1893.975066420444, -3085.792432521872, 4398.555087870966, 39711.159731287924, -0.014970414400100707, 0.9637405498623848, -0.21218458250164984, 192.0, 0.0, 0.0, 0.0, 0.0, 0.0, 0.0, 0.0, 0.0, 0.0, 1.74180628616201E9, 0.0, 2025-03-12 14:04:46.162
90.0, 8539.238099961054, 13422.84839425664, 4059.792048906332, 16396.43506961287, 13631.211356069012, 41739.98287200724, -6890.260504515231, 29960.50178533814, 11116.43893914687, 11274.599882912622, -4309.438682727657, 17606.558514423195, -1904.5027380588936, -3094.4202058816204, 4387.826250532419, 39696.966373558804, -0.019485207200050356, 0.9648702749311924, -0.2120922912508249, 192.0, 127.5, 32.0, 15.0, 24.0, 124.5, 48.0, 0.0, 0.0, 0.0, 1.741806286162035E9, 0.0, 2025-03-12 14:04:46.162
92.0, 8526.54230911044, 13420.322647133191, 4047.4985894559136, 16386.71206077481, 13619.923725119083, 41743.8050203091, -6892.786251638681, 29967.855509263936, 11118.517651381213, 11267.827304342665, -4303.09078730235, 17607.743156879325, -1901.3734938351506, -3084.2948656433664, 4386.082814464905, 39690.70788511132, -0.019485207200050356, 0.9648702749311924, -0.2120922912508249, 192.0, 0.0, 0.0, 0.0, 0.0, 0.0, 0.0, 0.0, 0.0, 0.0, 1.741806286162052E9, 0.0, 2025-03-12 14:04:46.162
94.0, 8538.142864482745, 13424.882403002073, 4055.7910866488323, 16404.63815982797, 13620.907201875116, 41753.52802914716, -6891.1769260379, 29970.962401743225, 11117.377712413992, 11275.89628409103, -4310.600973439333, 17605.373871967062, -1918.1596539210861, -3061.853714210238, 4378.706738794654, 39692.85365257903, -0.019485207200050356, 0.9648702749311924, -0.2120922912508249, 192.0, 0.0, 0.0, 0.0, 0.0, 0.0, 0.0, 0.0, 0.0, 0.0, 1.741806286162068E9, 0.0, 2025-03-12 14:04:46.162
96.0, 8536.488835393053, 13427.788129781262, 4052.0806970692515, 16397.39619462445, 13615.632190183664, 41748.6553488559, -6892.160402793933, 29971.677657565793, 11128.464177663825, 11282.46769696089, -4297.033464554962, 17618.136718051042, -1911.4094270955834, -3076.628217295196, 4382.573590585422, 39694.731199113274, -0.019485207200050356, 0.9648702749311924, -0.2120922912508249, 192.0, 0.0, 0.0, 0.0, 0.0, 0.0, 0.0, 0.0, 0.0, 0.0, 1.741806286162084E9, 0.0, 2025-03-12 14:04:46.162
98.0, 8537.06998074889, 13425.552955335732, 4045.062249310285, 16402.827668527087, 13612.570001193286, 41749.34825293401, -6898.083615074589, 29965.01683771811, 11123.211517716827, 11288.547371452734, -4304.141319291749, 17610.559476680693, -1918.8302062547455, -3089.748691290461, 4374.169334670226, 39685.70109435333, -0.019485207200050356, 0.9648702749311924, -0.2120922912508249, 192.0, 0.0, 0.0, 0.0, 0.0, 0.0, 0.0, 0.0, 0.0, 0.0, 1.741806286162099E9, 0.0, 2025-03-12 14:04:46.162
100.0, 8538.12051273829, 13422.088434945159, 4032.165292759573, 16395.563351579112, 13616.481556472965, 41745.14612497642, -6889.008806825735, 29968.25784066413, 11123.367979928014, 11280.791316126742, -4296.653484899221, 17619.54487795173, -1910.716523017469, -3088.8993250011595, 4381.947741740673, 39692.76424560121, -0.023742603600025176, 0.9644351374655962, -0.21604614562541247, 192.0, 127.5, 16.0, 15.0, 16.0, 124.5, 16.0, 0.0, 0.0, 0.0, 1.741806286222254E9, 0.0, 2025-03-12 14:04:46.222
102.0, 8537.964050527102, 13426.13410069157, 4047.5209412003687, 16393.082307944573, 13613.397015738132, 41742.1509912194, -6889.835821370581, 29963.496919095152, 11120.663418848922, 11274.823400357176, -4306.555307692923, 17607.229066756852, -1913.4210840965611, -3079.4892405854753, 4375.3092736374465, 39678.101501238525, -0.023742603600025176, 0.9644351374655962, -0.21604614562541247, 192.0, 0.0, 0.0, 0.0, 0.0, 0.0, 0.0, 0.0, 0.0, 0.0, 1.741806286222286E9, 0.0, 2025-03-12 14:04:46.222
104.0, 8506.001055956014, 13416.053463942226, 4037.2391387509274, 16380.945310705343, 13606.624437168175, 41724.493113099714, -6902.822184899114, 29947.090738664956, 11108.347607654048, 11277.304443991714, -4307.628191426777, 17610.358310980595, -1921.288898144829, -3099.6281623397067, 4366.9720729556175, 39663.88579176495, -0.023742603600025176, 0.9644351374655962, -0.21604614562541247, 192.0, 0.0, 0.0, 0.0, 0.0, 0.0, 0.0, 0.0, 0.0, 0.0, 1.741806286222303E9, 0.0, 2025-03-12 14:04:46.222
106.0, 8546.79298958695, 13418.959190721416, 4063.033051852352, 16392.81408701111, 13614.335789005256, 41727.53295034563, -6900.587010453583, 29951.672846278292, 11109.174622198894, 11266.508551419802, -4312.299706017936, 17605.1056510336, -1919.009020210388, -3097.102415216257, 4372.716471280632, 39672.155937213414, -0.023742603600025176, 0.9644351374655962, -0.21604614562541247, 192.0, 0.0, 0.0, 0.0, 0.0, 0.0, 0.0, 0.0, 0.0, 0.0, 1.741806286222319E9, 0.0, 2025-03-12 14:04:46.222
108.0, 8545.697754108638, 13420.99319946685, 4052.3936214916257, 16395.853924257033, 13608.501983702421, 41725.43188636683, -6902.956295365846, 29962.80401501704, 11117.578878114091, 11276.052746302217, -4292.049025541428, 17616.996779083824, -1908.4366450830275, -3079.4221853521094, 4364.535732809989, 39658.387262628945, -0.023742603600025176, 0.9644351374655962, -0.21604614562541247, 192.0, 0.0, 0.0, 0.0, 0.0, 0.0, 0.0, 0.0, 0.0, 0.0, 1.741806286222363E9, 0.0, 2025-03-12 14:04:46.222
110.0, 8550.637489633262, 13413.930048218972, 4064.865894897687, 16403.16294469392, 13618.090882073748, 41733.59027309302, -6881.36451022202, 29958.06544519251, 11113.935543767875, 11263.826342085165, -4307.538784448956, 17613.174630781967, -1919.8360347552343, -3098.465871628031, 4375.1304596818045, 39673.497041880735, -0.02587130180001259, 0.9652175687327981, -0.21802307281270622, 192.0, 127.5, 16.0, 15.0, 24.0, 124.5, 16.0, 0.0, 0.0, 0.0, 1.741806286222379E9, 0.0, 2025-03-12 14:04:46.222
112.0, 8552.31387046741, 13417.103995931626, 4069.6715199555783, 16412.707139576334, 13618.783786151862, 41743.715613331275, -6881.565675922117, 29961.574669071993, 11123.323276439105, 11269.682499132456, -4285.634074882755, 17629.58081121216, -1901.1946798795082, -3090.1733744351122, 4394.755291313564, 39695.28999272466, -0.02587130180001259, 0.9652175687327981, -0.21802307281270622, 192.0, 0.0, 0.0, 0.0, 0.0, 0.0, 0.0, 0.0, 0.0, 0.0, 1.741806286222396E9, 0.0, 2025-03-12 14:04:46.222
114.0, 8531.482044635064, 13408.342112105145, 4046.9397958445306, 16395.831572512576, 13613.642884927141, 41728.67288931285, -6886.997149824757, 29939.245276361144, 11120.43990140437, 11265.435667685946, -4302.777862879975, 17616.192116283433, -1914.3375056192288, -3095.6942553155727, 4391.4472331341785, 39692.585431645566, -0.02587130180001259, 0.9652175687327981, -0.21802307281270622, 192.0, 0.0, 0.0, 0.0, 0.0, 0.0, 0.0, 0.0, 0.0, 0.0, 1.741806286222412E9, 0.0, 2025-03-12 14:04:46.222
116.0, 8549.139922754755, 13420.926144233483, 4065.223522808972, 16400.972473737296, 13615.699245417029, 41743.581502864545, -6882.236228255776, 29948.297732865543, 11122.183337471884, 11265.435667685946, -4298.083996544361, 17616.0580058167, -1910.2694881283628, -3080.4503655970534, 4390.664922078243, 39682.728312340776, -0.02587130180001259, 0.9652175687327981, -0.21802307281270622, 192.0, 0.0, 0.0, 0.0, 0.0, 0.0, 0.0, 0.0, 0.0, 0.0, 1.741806286282561E9, 0.0, 2025-03-12 14:04:46.282
118.0, 8546.79298958695, 13423.138966934559, 4049.934929601542, 16395.786869023665, 13613.50877446041, 41737.278310928144, -6878.347024720553, 29949.21415438821, 11128.195956730362, 11275.739821879843, -4295.938229076652, 17610.71593889188, -1915.6339067976364, -3088.7652145344277, 4387.759195299053, 39684.538803641655, -0.02587130180001259, 0.9652175687327981, -0.21802307281270622, 192.0, 0.0, 0.0, 0.0, 0.0, 0.0, 0.0, 0.0, 0.0, 0.0, 1.74180628628259E9, 0.0, 2025-03-12 14:04:46.282
120.0, 8555.018431546501, 13429.33040014868, 4051.700717413511, 16406.96274125132, 13611.74298664844, 41741.01105225218, -6881.878600344491, 29943.425052574286, 11138.611869646535, 11284.099374306128, -4288.271580728481, 17624.43990998744, -1909.4424735835164, -3081.0315109528915, 4382.238314418592, 39685.1199489975, -0.023935650900006294, 0.963608784366399, -0.21701153640635312, 192.0, 127.5, 40.0, 15.0, 8.0, 124.5, 32.0, 0.0, 0.0, 0.0, 1.741806286282607E9, 0.0, 2025-03-12 14:04:46.282
122.0, 8530.073884734378, 13414.555897063721, 4048.415010978581, 16376.05027866963, 13605.55155343432, 41723.12965668794, -6885.812507368625, 29937.032453660067, 11135.862605078531, 11273.75051662332, -4300.8779646012745, 17611.96763658138, -1919.1207789326645, -3082.909057487137, 4370.190724157182, 39672.84884129153, -0.023935650900006294, 0.963608784366399, -0.21701153640635312, 192.0, 0.0, 0.0, 0.0, 0.0, 0.0, 0.0, 0.0, 0.0, 0.0, 1.741806286282624E9, 0.0, 2025-03-12 14:04:46.282
124.0, 8537.74053308255, 13427.497557103343, 4048.482066211947, 16397.686767302366, 13604.232800511456, 41732.539741103625, -6885.097251546055, 29939.11116589441, 11133.91800331092, 11275.873932346574, -4287.869249328286, 17614.046348815722, -1921.423008611561, -3095.3589791487434, 4369.698985779165, 39666.03155923266, -0.023935650900006294, 0.963608784366399, -0.21701153640635312, 192.0, 0.0, 0.0, 0.0, 0.0, 0.0, 0.0, 0.0, 0.0, 0.0, 1.741806286282664E9, 0.0, 2025-03-12 14:04:46.282
126.0, 8540.489797650553, 13416.947533720439, 4030.645374136612, 16381.995842694741, 13599.628341153662, 41725.87892125594, -6885.991321324268, 29940.944008939747, 11128.01714277472, 11265.525074663768, -4304.18602278066, 17611.252380758808, -1927.4132761255833, -3095.113109959735, 4360.780639741497, 39666.38918714395, -0.023935650900006294, 0.963608784366399, -0.21701153640635312, 192.0, 0.0, 0.0, 0.0, 0.0, 0.0, 0.0, 0.0, 0.0, 0.0, 1.74180628628268E9, 0.0, 2025-03-12 14:04:46.282
128.0, 8535.706524337116, 13419.473280843888, 4041.7541911308995, 16398.536133591668, 13598.086070786247, 41730.103400957996, -6884.65021665695, 29934.618465258893, 11134.834424833587, 11275.873932346574, -4287.153993505716, 17624.93164836546, -1922.6970580455136, -3086.4853365999866, 4361.406488586246, 39661.85178301952, -0.023935650900006294, 0.963608784366399, -0.21701153640635312, 192.0, 0.0, 0.0, 0.0, 0.0, 0.0, 0.0, 0.0, 0.0, 0.0, 1.741806286282696E9, 0.0, 2025-03-12 14:04:46.282
130.0, 8533.516053380496, 13404.587019036653, 4035.361592216682, 16379.425392082381, 13594.420384695577, 41718.59225256351, -6891.020463826712, 29933.187953613753, 11129.06767476412, 11263.781638596254, -4296.072339543383, 17611.431194714452, -1935.9292907630554, -3063.619502022207, 4356.422049572712, 39664.35517839852, -0.019967825450003147, 0.9658043921831995, -0.21850576820317658, 192.0, 127.5, 64.0, 15.0, 32.0, 124.5, 16.0, 0.0, 0.0, 0.0, 1.741806286342724E9, 0.0, 2025-03-12 14:04:46.342
132.0, 8530.20799520111, 13413.37125460759, 4046.090429555229, 16398.96081673632, 13597.326111474767, 41725.96832823376, -6892.294513260665, 29923.710813964706, 11119.478776392792, 11252.51635939078, -4299.13452853376, 17603.362214966084, -1921.5571190782928, -3083.490202842975, 4359.327776351903, 39660.26480916319, -0.019967825450003147, 0.9658043921831995, -0.21850576820317658, 192.0, 0.0, 0.0, 0.0, 0.0, 0.0, 0.0, 0.0, 0.0, 0.0, 1.741806286342756E9, 0.0, 2025-03-12 14:04:46.342
134.0, 8534.946565025635, 13422.22254541189, 4045.9786708329525, 16391.7188515328, 13595.001530051415, 41716.35707811798, -6897.79304239667, 29948.141270654356, 11119.456424648337, 11285.529885951268, -4301.6155721683, 17618.71786340688, -1927.0109447253878, -3110.491110144986, 4346.721392479109, 39628.45827680329, -0.019967825450003147, 0.9658043921831995, -0.21850576820317658, 192.0, 0.0, 0.0, 0.0, 0.0, 0.0, 0.0, 0.0, 0.0, 0.0, 1.741806286342773E9, 0.0, 2025-03-12 14:04:46.342
136.0, 8540.936832539659, 13429.75508329333, 4068.911560644098, 16432.15315725245, 13601.59529466573, 41758.71363386079, -6898.485946474785, 29956.053788191533, 11133.985058544285, 11301.109051836616, -4280.85080156932, 17636.800424671226, -1923.747590034913, -3089.9051535016483, 4369.497820079067, 39688.13743449896, -0.019967825450003147, 0.9658043921831995, -0.21850576820317658, 192.0, 0.0, 0.0, 0.0, 0.0, 0.0, 0.0, 0.0, 0.0, 0.0, 1.741806286342789E9, 0.0, 2025-03-12 14:04:46.342
138.0, 8528.866890533793, 13414.064158685704, 4054.226464536961, 16394.825744012087, 13603.696358644529, 41736.227778938744, -6888.740585892271, 29931.668034990795, 11127.547756141157, 11289.843772631142, -4287.3775109502685, 17626.429215243963, -1914.292802130318, -3087.4464616115647, 4376.158639926749, 39679.59906811704, -0.019967825450003147, 0.9658043921831995, -0.21850576820317658, 192.0, 0.0, 0.0, 0.0, 0.0, 0.0, 0.0, 0.0, 0.0, 0.0, 1.741806286342805E9, 0.0, 2025-03-12 14:04:46.342
140.0, 8539.26045170551, 13418.646266299042, 4063.636548952645, 16405.085194717074, 13605.752719134418, 41745.43669765433, -6889.701710903849, 29935.154907125823, 11117.042436247164, 11276.902112591519, -4294.775938364975, 17605.77620336726, -1918.3161161322732, -3085.5689150773187, 4384.4064336307565, 39680.15786172842, -0.016983912725001573, 0.9659021960915997, -0.21825288410158827, 192.0, 127.5, 72.0, 15.0, 24.0, 124.5, 24.0, 0.0, 0.0, 0.0, 1.74180628634282E9, 0.0, 2025-03-12 14:04:46.342
142.0, 8537.427608660175, 13414.041806941248, 4051.23133077995, 16382.711098517311, 13597.795498108328, 41734.95372950479, -6889.3664347370195, 29934.171430369788, 11125.670209606911, 11293.643569188544, -4289.9032580737185, 17611.900581348014, -1918.80785451029, -3098.242354183478, 4386.127517953815, 39677.29683843814, -0.016983912725001573, 0.9659021960915997, -0.21825288410158827, 192.0, 0.0, 0.0, 0.0, 0.0, 0.0, 0.0, 0.0, 0.0, 0.0, 1.741806286342838E9, 0.0, 2025-03-12 14:04:46.342
144.0, 8532.264355690999, 13424.122443690592, 4041.217749263972, 16394.646930056446, 13595.3591579627, 41741.189866207824, -6886.728928891293, 29937.457136804718, 11120.238735704272, 11290.827249387175, -4302.2861245019585, 17598.40012769701, -1926.295688902818, -3100.5669356068297, 4363.641663031776, 39660.75654754121, -0.016983912725001573, 0.9659021960915997, -0.21825288410158827, 192.0, 0.0, 0.0, 0.0, 0.0, 0.0, 0.0, 0.0, 0.0, 0.0, 1.741806286342853E9, 0.0, 2025-03-12 14:04:46.342
146.0, 8517.243983417033, 13420.210888410913, 4048.057383067296, 16378.643081026446, 13594.062756784291, 41734.97608124925, -6882.660911400428, 29942.955665940724, 11126.743093340767, 11293.174182554983, -4293.792461608942, 17601.037633542735, -1923.166444679075, -3093.593191336774, 4371.174200913215, 39659.728367296266, -0.016983912725001573, 0.9659021960915997, -0.21825288410158827, 192.0, 0.0, 0.0, 0.0, 0.0, 0.0, 0.0, 0.0, 0.0, 0.0, 1.741806286403282E9, 0.0, 2025-03-12 14:04:46.403
148.0, 8547.664707620706, 13417.327513376178, 4048.549121445313, 16396.703290546335, 13592.364024205688, 41736.69716557231, -6885.052548057145, 29939.40173857233, 11129.045323019664, 11296.325778523182, -4304.275429758481, 17594.086241017132, -1921.3112498892845, -3096.297752415866, 4367.57557005591, 39654.967445727285, -0.016983912725001573, 0.9659021960915997, -0.21825288410158827, 192.0, 0.0, 0.0, 0.0, 0.0, 0.0, 0.0, 0.0, 0.0, 0.0, 1.741806286403312E9, 0.0, 2025-03-12 14:04:46.403
150.0, 8526.274088176977, 13407.291580115747, 4034.020487549363, 16379.403040337926, 13583.06569851228, 41725.25307241119, -6891.556905693639, 29934.26083734761, 11129.291192208671, 11297.532772723767, -4286.595199894333, 17602.66931088797, -1926.3850958806393, -3084.7419005324723, 4364.491029321079, 39654.18513467135, -0.013491956362500786, 0.9649510980457998, -0.21712644205079412, 192.0, 127.5, 88.0, 15.0, 16.0, 124.5, 32.0, 0.0, 0.0, 0.0, 1.741806286403329E9, 0.0, 2025-03-12 14:04:46.403
152.0, 8545.474236664086, 13414.13121391907, 4051.030165079852, 16384.588645051557, 13585.12205900217, 41732.07035447006, -6884.940789334869, 29938.954703683223, 11125.089064251073, 11296.504592478823, -4294.1277377757715, 17591.694604360415, -1939.2597006868962, -3072.2472753819557, 4355.3491658388575, 39651.74879452572, -0.013491956362500786, 0.9649510980457998, -0.21712644205079412, 192.0, 0.0, 0.0, 0.0, 0.0, 0.0, 0.0, 0.0, 0.0, 0.0, 1.741806286403373E9, 0.0, 2025-03-12 14:04:46.403
154.0, 8531.414989401697, 13414.399434852534, 4034.087542782729, 16385.48271482977, 13583.199808979012, 41726.236549167224, -6891.646312671461, 29937.412433315807, 11130.498186409259, 11295.94579886744, -4285.857592327308, 17603.51867717727, -1929.4696366154715, -3103.2938484303772, 4354.745668738565, 39652.37464337047, -0.013491956362500786, 0.9649510980457998, -0.21712644205079412, 192.0, 0.0, 0.0, 0.0, 0.0, 0.0, 0.0, 0.0, 0.0, 0.0, 1.74180628640339E9, 0.0, 2025-03-12 14:04:46.403
156.0, 8529.939774267646, 13414.801766252729, 4040.0778102967515, 16390.467153843303, 13586.731384602952, 41731.35509864749, -6880.626902654994, 29935.959569926214, 11124.172642728407, 11287.474487718879, -4300.632095412266, 17595.852028829104, -1933.3364884062396, -3111.3628281787433, 4348.911863435729, 39646.607893301, -0.013491956362500786, 0.9649510980457998, -0.21712644205079412, 192.0, 0.0, 0.0, 0.0, 0.0, 0.0, 0.0, 0.0, 0.0, 0.0, 1.741806286403405E9, 0.0, 2025-03-12 14:04:46.403
158.0, 8532.219652202088, 13418.288638387758, 4043.0282405648522, 16390.847133499043, 13581.92575954506, 41724.47076135525, -6894.50733596174, 29926.39302329934, 11127.7265700968, 11278.310272492203, -4289.389167951246, 17603.697491132916, -1933.649412828614, -3095.3813308931985, 4355.5279797945, 39644.01509094419, -0.013491956362500786, 0.9649510980457998, -0.21712644205079412, 192.0, 0.0, 0.0, 0.0, 0.0, 0.0, 0.0, 0.0, 0.0, 0.0, 1.741806286403421E9, 0.0, 2025-03-12 14:04:46.403
160.0, 8528.106931222312, 13409.280885372269, 4045.0175458213744, 16390.75772652122, 13588.11719275918, 41734.59610159351, -6879.486963687774, 29941.54750604004, 11121.356322927037, 11280.724260893378, -4298.776900622475, 17602.356386465595, -1934.81170354029, -3099.0023134949583, 4349.403601813746, 39636.303739107105, -0.013745978181250392, 0.9644755490228999, -0.21756322102539705, 192.0, 127.5, 72.0, 15.0, 16.0, 124.5, 24.0, 0.0, 0.0, 0.0, 1.741806286462598E9, 0.0, 2025-03-12 14:04:46.462
162.0, 8505.68813153364, 13398.17206837798, 4029.5277869138467, 16395.652758556935, 13582.26103571189, 41733.07618297055, -6898.776519152703, 29917.429973772763, 11111.208630944328, 11276.298615491225, -4296.094691287839, 17611.028863314255, -1939.1255902201642, -3094.621371581718, 4359.618349029822, 39648.46308809079, -0.013745978181250392, 0.9644755490228999, -0.21756322102539705, 192.0, 0.0, 0.0, 0.0, 0.0, 0.0, 0.0, 0.0, 0.0, 0.0, 1.741806286462631E9, 0.0, 2025-03-12 14:04:46.462
164.0, 8537.248794704532, 13404.072928914182, 4034.13224627164, 16396.94915973534, 13589.368890448677, 41741.83806679703, -6879.084632287578, 29938.887648449858, 11111.789776300166, 11268.050821787218, -4303.381359980269, 17600.568246909173, -1933.6941163175245, -3086.530040088897, 4360.020680430017, 39659.68366380736, -0.013745978181250392, 0.9644755490228999, -0.21756322102539705, 192.0, 0.0, 0.0, 0.0, 0.0, 0.0, 0.0, 0.0, 0.0, 0.0, 1.741806286462649E9, 0.0, 2025-03-12 14:04:46.462
166.0, 8537.517015637995, 13405.79401323724, 4053.131229058651, 16400.413680125916, 13590.933512560548, 41736.18307544984, -6876.782402608682, 29936.87599144888, 11124.06088400613, 11273.906978834508, -4283.756528348509, 17621.176555296966, -1930.2742994158625, -3079.1316126741904, 4380.204305673159, 39666.34448365503, -0.013745978181250392, 0.9644755490228999, -0.21756322102539705, 192.0, 0.0, 0.0, 0.0, 0.0, 0.0, 0.0, 0.0, 0.0, 0.0, 1.741806286462665E9, 0.0, 2025-03-12 14:04:46.462
168.0, 8536.73470458206, 13411.963094706905, 4050.2031505350055, 16387.53907531966, 13593.660425384096, 41730.081049213535, -6880.31397823262, 29934.238485603153, 11125.24552646226, 11271.001252055317, -4288.673912128676, 17614.649845916014, -1938.6115000976922, -3089.99456047947, 4376.985654471595, 39656.308550394606, -0.013745978181250392, 0.9644755490228999, -0.21756322102539705, 192.0, 0.0, 0.0, 0.0, 0.0, 0.0, 0.0, 0.0, 0.0, 0.0, 1.741806286462707E9, 0.0, 2025-03-12 14:04:46.462
170.0, 8537.137035982256, 13422.4684146009, 4050.4043162351036, 16403.565276094112, 13592.609893394696, 41737.278310928144, -6875.240132241265, 29924.671938976284, 11129.782930586689, 11275.940987579941, -4284.516487659989, 17626.496270477328, -1931.7718662943682, -3081.165621419623, 4379.265532406036, 39668.57965810056, -0.011872989090625195, 0.96523777451145, -0.2187816105126985, 192.0, 127.5, 88.0, 15.0, 24.0, 124.5, 16.0, 0.0, 0.0, 0.0, 1.741806286462723E9, 0.0, 2025-03-12 14:04:46.462
172.0, 8509.644390302228, 13418.378045365578, 4026.9573363014865, 16381.705270016822, 13585.323224702266, 41724.6495753109, -6877.117678775511, 29925.230732587665, 11127.525404396702, 11276.6115399136, -4290.484403429557, 17621.24361053033, -1942.4336483995496, -3091.313313402333, 4376.315102137935, 39666.38918714395, -0.011872989090625195, 0.96523777451145, -0.2187816105126985, 192.0, 0.0, 0.0, 0.0, 0.0, 0.0, 0.0, 0.0, 0.0, 0.0, 1.74180628646274E9, 0.0, 2025-03-12 14:04:46.462
174.0, 8548.558777398917, 13440.908603776528, 4051.61131043569, 16406.49335461776, 13594.845067840228, 41740.27344468516, -6868.1769809933885, 29933.21030535821, 11137.695448123866, 11285.820458629187, -4291.557287163411, 17631.30189553522, -1927.9944214814213, -3085.077176699302, 4380.986616729095, 39662.12000395299, -0.011872989090625195, 0.96523777451145, -0.2187816105126985, 192.0, 0.0, 0.0, 0.0, 0.0, 0.0, 0.0, 0.0, 0.0, 0.0, 1.741806286462763E9, 0.0, 2025-03-12 14:04:46.462
176.0, 8541.45092266213, 13430.04565597125, 4019.8271298202435, 16379.648909526935, 13579.042384510325, 41718.39108686341, -6880.1575160214325, 29917.899360406325, 11150.659459907945, 11301.846659403642, -4274.212333466093, 17635.280506048264, -1931.548348849815, -3078.1257841737015, 4381.433651618201, 39660.46597486329, -0.011872989090625195, 0.96523777451145, -0.2187816105126985, 192.0, 0.0, 0.0, 0.0, 0.0, 0.0, 0.0, 0.0, 0.0, 0.0, 1.741806286522464E9, 0.0, 2025-03-12 14:04:46.522
178.0, 8526.430550388164, 13438.427560141989, 4038.0214498068635, 16401.57597083759, 13582.909236301093, 41736.96538650577, -6868.735774604771, 29932.897380935836, 11138.969497557819, 11287.273322018782, -4284.069452770884, 17629.044369345233, -1929.6931540600247, -3101.3268949183102, 4365.876837477307, 39650.45239334731, -0.011872989090625195, 0.96523777451145, -0.2187816105126985, 192.0, 0.0, 0.0, 0.0, 0.0, 0.0, 0.0, 0.0, 0.0, 0.0, 1.741806286522494E9, 0.0, 2025-03-12 14:04:46.522
180.0, 8542.747323840538, 13434.381894395578, 4021.1235309986514, 16379.38068859347, 13577.164837976079, 41727.3988398789, -6867.886408315469, 29925.275436076576, 11133.761541099733, 11289.508496464312, -4294.731234876065, 17620.416595985484, -1933.291784917329, -3096.431862882598, 4358.970148440618, 39647.99370145723, -0.011936494545312598, 0.969618887255725, -0.21839080525634924, 192.0, 127.5, 80.0, 15.0, 56.0, 124.5, 24.0, 0.0, 0.0, 0.0, 1.741806286522511E9, 0.0, 2025-03-12 14:04:46.522
182.0, 8558.348841470342, 13446.161263723525, 4048.035031322841, 16397.843229513554, 13579.623529866163, 41748.856514556, -6854.184788964366, 29944.29677060804, 11139.10360802455, 11301.980769870373, -4287.042234783439, 17625.49044197684, -1928.7096773039912, -3091.715644802528, 4364.9157124657295, 39650.072413691574, -0.011936494545312598, 0.969618887255725, -0.21839080525634924, 192.0, 0.0, 0.0, 0.0, 0.0, 0.0, 0.0, 0.0, 0.0, 0.0, 1.741806286522528E9, 0.0, 2025-03-12 14:04:46.522
184.0, 8548.625832632284, 13450.922185292506, 4047.1856650335394, 16378.441915326348, 13574.460276896987, 41733.32205215956, -6850.697916829338, 29930.751613468125, 11146.412628461436, 11303.835964660164, -4285.835240582853, 17626.831546644156, -1925.2898604023292, -3071.3308538592883, 4371.800049757963, 39662.38822488645, -0.011936494545312598, 0.969618887255725, -0.21839080525634924, 192.0, 0.0, 0.0, 0.0, 0.0, 0.0, 0.0, 0.0, 0.0, 0.0, 1.741806286522544E9, 0.0, 2025-03-12 14:04:46.522
186.0, 8562.640376405761, 13444.350772422646, 4049.711412156989, 16400.547790592645, 13575.041422252825, 41742.1509912194, -6847.59102435005, 29934.149078625334, 11141.629355148001, 11307.032264117273, -4286.70695861661, 17626.004532099312, -1914.42691259705, -3075.980016705992, 4373.521134081022, 39666.25507667722, -0.011936494545312598, 0.969618887255725, -0.21839080525634924, 192.0, 0.0, 0.0, 0.0, 0.0, 0.0, 0.0, 0.0, 0.0, 0.0, 1.74180628652256E9, 0.0, 2025-03-12 14:04:46.522
188.0, 8542.032068017968, 13444.015496255815, 4046.8503888667096, 16387.248502641738, 13565.608986092686, 41738.01591849517, -6855.570597120595, 29930.10341287892, 11132.934526554887, 11271.202417755416, -4300.721502390087, 17604.97154056687, -1915.745665519913, -3083.0878714427795, 4367.463811333634, 39668.266733678196, -0.011936494545312598, 0.969618887255725, -0.21839080525634924, 192.0, 0.0, 0.0, 0.0, 0.0, 0.0, 0.0, 0.0, 0.0, 0.0, 1.741806286522575E9, 0.0, 2025-03-12 14:04:46.522
190.0, 8558.92998682618, 13450.341039936668, 4063.8600663971984, 16408.460308129826, 13579.489419399431, 41745.77197382116, -6849.5132743732065, 29914.770116182583, 11145.272689494215, 11291.721319165388, -4290.506755174012, 17612.59348542613, -1902.6028397801924, -3050.789600704861, 4382.528887096511, 39688.13743449896, -0.011968247272656298, 0.9698094436278625, -0.2171954026281746, 192.0, 127.5, 80.0, 15.0, 40.0, 124.5, 32.0, 0.0, 0.0, 0.0, 1.741806286583275E9, 0.0, 2025-03-12 14:04:46.583
192.0, 8559.64524264875, 13444.32842067819, 4059.2109035504945, 16394.08813644506, 13586.440811925033, 41745.950787776805, -6839.54439634614, 29939.11116589441, 11141.227023747806, 11310.027397874284, -4292.652522641722, 17608.614874913084, -1886.9789704059328, -3056.6010542632407, 4395.425843647224, 39691.33373395607, -0.011968247272656298, 0.9698094436278625, -0.2171954026281746, 192.0, 0.0, 0.0, 0.0, 0.0, 0.0, 0.0, 0.0, 0.0, 0.0, 1.741806286583308E9, 0.0, 2025-03-12 14:04:46.583
194.0, 8568.183609030677, 13450.09517074766, 4075.415918280592, 16410.360206408528, 13589.413593937588, 41752.79042158013, -6833.420018365386, 29926.661244232804, 11149.273651751715, 11315.436520032468, -4286.37168244978, 17602.401089954506, -1880.4522610249833, -3040.7313156999726, 4404.545355384988, 39716.63590867948, -0.011968247272656298, 0.9698094436278625, -0.2171954026281746, 192.0, 0.0, 0.0, 0.0, 0.0, 0.0, 0.0, 0.0, 0.0, 0.0, 1.741806286583325E9, 0.0, 2025-03-12 14:04:46.583
196.0, 8557.298309480942, 13449.178749224991, 4080.914447416598, 16398.42437486939, 13585.747907846917, 41750.51054364569, -6829.5531665746175, 29930.371633812385, 11144.333916227093, 11302.04782510374, -4290.03736854045, 17593.61685438357, -1875.8701534116453, -3073.700138771551, 4405.77470133003, 39712.5231876997, -0.011968247272656298, 0.9698094436278625, -0.2171954026281746, 192.0, 0.0, 0.0, 0.0, 0.0, 0.0, 0.0, 0.0, 0.0, 0.0, 1.741806286583368E9, 0.0, 2025-03-12 14:04:46.583
198.0, 8558.371193214798, 13444.149606722547, 4076.1758775920725, 16398.44672661385, 13587.156067747603, 41746.19665696581, -6831.765989275693, 29918.2122848287, 11147.239643006284, 11305.601752472134, -4291.691397630143, 17591.113459004577, -1883.4697465264496, -3084.0936999432683, 4404.366541429346, 39719.40752499193, -0.011968247272656298, 0.9698094436278625, -0.2171954026281746, 192.0, 0.0, 0.0, 0.0, 0.0, 0.0, 0.0, 0.0, 0.0, 0.0, 1.741806286583384E9, 0.0, 2025-03-12 14:04:46.583
200.0, 8559.55583567093, 13436.661772330019, 4061.9825198629524, 16383.202836895329, 13579.288253699335, 41735.15489520489, -6837.465684111797, 29914.278377804563, 11147.01612556173, 11302.919543137497, -4288.584505150856, 17581.14458097751, -1873.746737688391, -3073.0966416712577, 4394.196497702182, 39708.790446375664, -0.01398412363632815, 0.9639047218139313, -0.2115977013140873, 192.0, 127.5, 64.0, 14.5, 120.0, 124.5, 72.0, 0.0, 0.0, 0.0, 1.741806286583399E9, 0.0, 2025-03-12 14:04:46.583
202.0, 8575.000891089547, 13460.66754587502, 4078.031072381863, 16402.20181968234, 13580.227026966457, 41747.22483721076, -6834.805826521615, 29918.324043550976, 11151.486474452791, 11293.509458721812, -4296.407615710213, 17575.221368696853, -1880.7651854473575, -3055.3493565737435, 4394.4423668911895, 39712.009097577225, -0.01398412363632815, 0.9639047218139313, -0.2115977013140873, 192.0, 0.0, 0.0, 0.0, 0.0, 0.0, 0.0, 0.0, 0.0, 0.0, 1.741806286583416E9, 0.0, 2025-03-12 14:04:46.583
204.0, 8553.990251301557, 13448.821121313707, 4072.0408048678405, 16394.73633703427, 13570.794590806318, 41735.15489520489, -6845.266442926699, 29902.655470687805, 11159.108419312051, 11317.470528777902, -4268.199714207615, 17593.773316594757, -1879.7370052024135, -3080.3833103636875, 4398.286866937503, 39715.58537669008, -0.01398412363632815, 0.9639047218139313, -0.2115977013140873, 192.0, 0.0, 0.0, 0.0, 0.0, 0.0, 0.0, 0.0, 0.0, 0.0, 1.741806286583432E9, 0.0, 2025-03-12 14:04:46.583
206.0, 8582.13109757079, 13455.504292905844, 4066.631682709656, 16390.534209076668, 13570.21344545048, 41735.31135741608, -6836.839835267047, 29907.371688767875, 11141.405837703447, 11296.504592478823, -4301.570868679389, 17567.778237793238, -1884.9002581715893, -3084.6748452991064, 4383.020625474528, 39699.17919625988, -0.01398412363632815, 0.9639047218139313, -0.2115977013140873, 192.0, 0.0, 0.0, 0.0, 0.0, 0.0, 0.0, 0.0, 0.0, 0.0, 1.741806286644803E9, 0.0, 2025-03-12 14:04:46.644
208.0, 8573.391565488764, 13453.738505093874, 4044.9281388435534, 16386.376784607983, 13563.038535480326, 41728.203502679295, -6848.30628017262, 29894.34062175043, 11153.699297153868, 11317.448177033446, -4274.145278232727, 17581.546912377707, -1869.879885897623, -3076.1811824060896, 4390.709625567153, 39707.31523124161, -0.01398412363632815, 0.9639047218139313, -0.2115977013140873, 192.0, 0.0, 0.0, 0.0, 0.0, 0.0, 0.0, 0.0, 0.0, 0.0, 1.741806286644832E9, 0.0, 2025-03-12 14:04:46.644
210.0, 8548.983460543568, 13453.179711482491, 4074.5665519912905, 16389.662491042913, 13564.49139886992, 41733.21029343728, -6844.819408037592, 29895.927595606758, 11150.01125931874, 11313.067235120207, -4288.249228984026, 17576.13779021952, -1888.811813451268, -3079.0645574408245, 4379.556105083955, 39697.748684614744, -0.014992061818164076, 0.9579523609069657, -0.20479885065704367, 192.0, 127.5, 64.0, 14.5, 96.0, 124.5, 104.0, 0.0, 0.0, 0.0, 1.741806286644848E9, 0.0, 2025-03-12 14:04:46.644
212.0, 8593.999873876557, 13459.259385974336, 4085.675368985578, 16399.05022371414, 13568.224140193957, 41737.81475279507, -6844.618242337495, 29888.037429814034, 11161.701221668867, 11319.236316589871, -4261.896522271219, 17587.04544151371, -1879.1782115910307, -3049.850827437738, 4393.593000601888, 39703.00134456174, -0.014992061818164076, 0.9579523609069657, -0.20479885065704367, 192.0, 0.0, 0.0, 0.0, 0.0, 0.0, 0.0, 0.0, 0.0, 0.0, 1.741806286644891E9, 0.0, 2025-03-12 14:04:46.644
214.0, 8582.153449315245, 13459.482903418888, 4079.327473560271, 16399.20668592533, 13572.560378618286, 41739.13350571794, -6849.267405184199, 29895.63702292884, 11159.711916412345, 11316.308238066225, -4272.625359609766, 17580.585787366126, -1880.6310749806257, -3042.407696534121, 4389.2791139220135, 39712.1208562995, -0.014992061818164076, 0.9579523609069657, -0.20479885065704367, 192.0, 0.0, 0.0, 0.0, 0.0, 0.0, 0.0, 0.0, 0.0, 0.0, 1.741806286644908E9, 0.0, 2025-03-12 14:04:46.644
216.0, 8576.78903064597, 13453.4255806715, 4085.0048166519186, 16419.63618035748, 13579.26590195488, 41750.421136667865, -6843.567710348095, 29899.526226464062, 11154.213387276339, 11319.504537523335, -4271.887752042741, 17596.366118951573, -1868.874057397134, -3078.237542895978, 4395.962285514151, 39718.73697265828, -0.014992061818164076, 0.9579523609069657, -0.20479885065704367, 192.0, 0.0, 0.0, 0.0, 0.0, 0.0, 0.0, 0.0, 0.0, 0.0, 1.741806286644924E9, 0.0, 2025-03-12 14:04:46.644
218.0, 8570.821114876404, 13445.624821856598, 4079.8415636827426, 16405.711043561823, 13580.204675222001, 41750.845819812515, -6843.098323714534, 29905.896473633824, 11151.911157597442, 11316.375293299592, -4272.334786931848, 17595.606159640094, -1876.2501330673854, -3046.8333419362716, 4409.0604077649605, 39731.99155712027, -0.014992061818164076, 0.9579523609069657, -0.20479885065704367, 192.0, 0.0, 0.0, 0.0, 0.0, 0.0, 0.0, 0.0, 0.0, 0.0, 1.741806286644939E9, 0.0, 2025-03-12 14:04:46.644
