%OpenBCI Raw EXG Data
%Number of channels = 16
%Sample Rate = 125 Hz
%Board = OpenBCI_GUI$BoardCytonSerialDaisy
Sample Index, EXG Channel 0, EXG Channel 1, EXG Channel 2, EXG Channel 3, EXG Channel 4, EXG Channel 5, EXG Channel 6, EXG Channel 7, EXG Channel 8, EXG Channel 9, EXG Channel 10, EXG Channel 11, EXG Channel 12, EXG Channel 13, EXG Channel 14, EXG Channel 15, Accel Channel 0, Accel Channel 1, Accel Channel 2, Not Used, Digital Channel 0 (D11), Digital Channel 1 (D12), Digital Channel 2 (D13), Digital Channel 3 (D17), Not Used, Digital Channel 4 (D18), Analog Channel 0, Analog Channel 1, Analog Channel 2, Timestamp, Marker Channel, Timestamp (Formatted)
198.0, -22240.790395830918, -3560.0070428856666, 29774.46821623662, -17461.87567256399, -50622.78963599082, 40563.2752851576, -28569.306858695374, 61525.970581289606, -8392.454194123053, -22571.484455047186, -10319.532194081807, 7898.011255027206, 3392.81599435997, 4425.1983672616925, 11227.460053856381, -187500.02235174447, 0.0, 0.0, 0.0, 192.0, 0.0, 0.0, 0.0, 0.0, 0.0, 0.0, 0.0, 0.0, 0.0, 1.7447422968996215E9, 0.0, 2025-04-15 13:38:16.899
0.0, -10821.887650714832, -2043.0164984484315, 14647.746342151922, -8595.206868077144, -24249.809890962828, 20219.544496481954, -14325.79181501768, 30976.52268129858, -4177.898666608175, -11269.369574710081, -5160.526056352384, 3958.136315123596, 1697.8161570806692, 2207.793558572955, 5593.456994707227, -93750.01117587223, -0.064, 0.9400000000000001, 0.25, 192.0, 127.0, 0.0, 14.5, 48.0, 3.5, 104.0, 0.0, 0.0, 0.0, 1.7447422969860663E9, 0.0, 2025-04-15 13:38:16.986
2.0, -21641.450720006316, -4078.835735182254, 29320.794859027254, -17183.17177095077, -48614.59715540375, 40452.34357742591, -28615.485562740036, 61853.401285815395, -8304.634190158153, -22247.4512156786, -10206.454718882409, 8146.361487670123, 3439.642898993838, 4568.271883520113, 11227.035370711728, -187500.02235174447, -0.064, 0.9400000000000001, 0.25, 192.0, 0.0, 0.0, 0.0, 0.0, 0.0, 0.0, 0.0, 0.0, 0.0, 1.744742296993096E9, 0.0, 2025-04-15 13:38:16.993
4.0, -21633.761719913688, -4073.381909535159, 29324.684062562475, -17180.154285449302, -48672.51052528746, 40467.11808051087, -28614.390327261728, 61781.49572390268, -8292.228971985456, -22241.68446560913, -10168.210884119379, 8166.835685591184, 3467.2025999072316, 4597.5973722454755, 11290.223752286882, -187500.02235174447, -0.064, 0.9400000000000001, 0.25, 192.0, 0.0, 0.0, 0.0, 0.0, 0.0, 0.0, 0.0, 0.0, 0.0, 1.7447422970001185E9, 0.0, 2025-04-15 13:38:17.000
6.0, -21634.298161780618, -4082.18849685055, 29330.69668182095, -17185.518704118575, -48849.581044862396, 40447.56030411247, -28597.648870664703, 61641.41734140126, -8295.537030164842, -22241.773872586953, -10187.835715751138, 8160.219569232413, 3455.803210235025, 4571.28936902158, 11245.363801165082, -187500.02235174447, -0.064, 0.9400000000000001, 0.25, 192.0, 0.0, 0.0, 0.0, 0.0, 0.0, 0.0, 0.0, 0.0, 0.0, 1.7447422970081823E9, 0.0, 2025-04-15 13:38:17.008
8.0, -21635.348693770015, -4085.5859620077567, 29327.142754452558, -17199.60030312542, -48776.96022712711, 40468.32507471145, -28608.735335914535, 61651.67679210625, -8306.779957625862, -22262.181015274648, -10168.881436453037, 8154.2069499739355, 3462.3075678715195, 4584.990988372682, 11309.446252518446, -187500.02235174447, -0.088, 0.9440000000000001, 0.224, 192.0, 126.5, 32.0, 14.5, 64.0, 3.5, 0.0, 0.0, 0.0, 0.0, 1.7447422970162048E9, 0.0, 2025-04-15 13:38:17.016
10.0, -21618.629588917447, -4089.050482398329, 29334.451774889443, -17201.276683959568, -48916.72568520614, 40445.28042617803, -28593.24557700701, 61541.259174497034, -8301.460242445499, -22258.604736161797, -10195.412957121487, 8135.923223009494, 3456.0714311684887, 4555.620796158409, 11261.166484494983, -187500.02235174447, -0.088, 0.9440000000000001, 0.224, 192.0, 0.0, 0.0, 0.0, 0.0, 0.0, 0.0, 0.0, 0.0, 0.0, 1.7447422970242465E9, 0.0, 2025-04-15 13:38:17.024
12.0, -21599.94353055281, -4073.6948339575333, 29348.131042496094, -17198.728585091663, -48793.20994534611, 40482.18315627374, -28588.28348973793, 61598.457288558166, -8307.875193104172, -22265.69023915413, -10175.117573156069, 8137.286679421268, 3471.4047278648295, 4578.263113291635, 11319.549241012244, -187500.02235174447, -0.088, 0.9440000000000001, 0.224, 192.0, 0.0, 0.0, 0.0, 0.0, 0.0, 0.0, 0.0, 0.0, 0.0, 1.7447422970322852E9, 0.0, 2025-04-15 13:38:17.032
14.0, -21569.098123204487, -4052.4383249805364, 29361.922068825017, -17180.601320338406, -48927.387467311324, 40450.48838263612, -28574.827739575834, 61508.44681363664, -8299.180364511058, -22248.21117499008, -10185.980520961348, 8136.70553406543, 3465.6156260509047, 4562.885113106384, 11281.573627182679, -187500.02235174447, -0.088, 0.9440000000000001, 0.224, 192.0, 0.0, 0.0, 0.0, 0.0, 0.0, 0.0, 0.0, 0.0, 0.0, 1.7447422970413506E9, 0.0, 2025-04-15 13:38:17.041
16.0, -21570.08159996052, -4045.151656288106, 29374.819025375728, -17175.706288302696, -48784.82804117537, 40492.04027557853, -28573.911318053168, 61593.763422222546, -8285.009358526393, -22241.103320253293, -10148.608404232074, 8161.560673899731, 3490.6272280963935, 4593.350540798967, 11325.137177126071, -187500.02235174447, -0.088, 0.9440000000000001, 0.224, 192.0, 0.0, 0.0, 0.0, 0.0, 0.0, 0.0, 0.0, 0.0, 0.0, 1.7447422970473793E9, 0.0, 2025-04-15 13:38:17.047
18.0, -21548.623925283424, -4035.1380747721287, 29373.388513730588, -17157.891947971817, -48926.98513591113, 40453.9976065156, -28580.013344289466, 61512.58188636087, -8270.950111264005, -22220.226790932036, -10149.547177499197, 8179.777345630807, 3478.6913965572594, 4585.460375006244, 11291.14017380955, -187500.02235174447, -0.108, 0.9580000000000001, 0.20600000000000002, 192.0, 126.0, 80.0, 14.5, 120.0, 3.0, 56.0, 0.0, 0.0, 0.0, 1.7447422970564308E9, 0.0, 2025-04-15 13:38:17.056
20.0, -21551.08261717351, -4030.801836347799, 29386.4866359814, -17157.511968316077, -48792.65115173473, 40492.86729012338, -28572.011419774466, 61595.32804433442, -8269.653710085597, -22221.210267688068, -10130.548194712186, 8194.596552204675, 3489.576696106994, 4603.878212437417, 11320.108034623629, -187500.02235174447, -0.108, 0.9580000000000001, 0.20600000000000002, 192.0, 0.0, 0.0, 0.0, 0.0, 0.0, 0.0, 0.0, 0.0, 0.0, 1.7447422970645845E9, 0.0, 2025-04-15 13:38:17.064
22.0, -21550.702637517767, -4035.2051300054945, 29371.399208474068, -17160.685916028728, -48917.37388579534, 40460.05492926299, -28593.826722362846, 61537.7275988731, -8272.201808953501, -22216.494049607998, -10145.210939074866, 8187.24282827888, 3469.437774352762, 4598.782014701607, 11293.844734888642, -187500.02235174447, -0.108, 0.9580000000000001, 0.20600000000000002, 192.0, 0.0, 0.0, 0.0, 0.0, 0.0, 0.0, 0.0, 0.0, 0.0, 1.744742297072585E9, 0.0, 2025-04-15 13:38:17.072
24.0, -21549.65210552837, -4023.60457463319, 29393.99682211838, -17158.093113671912, -48805.34694258535, 40511.218072321186, -28573.240765719507, 61626.1958034272, -8267.26207342888, -22216.762270541465, -10135.711447681362, 8190.126203313614, 3482.826469281491, 4614.361180586956, 11317.604639244633, -187500.02235174447, -0.108, 0.9580000000000001, 0.20600000000000002, 192.0, 0.0, 0.0, 0.0, 0.0, 0.0, 0.0, 0.0, 0.0, 0.0, 1.7447422970805745E9, 0.0, 2025-04-15 13:38:17.080
26.0, -21555.30709687556, -4029.840711336221, 29369.253441006356, -17164.239843397125, -48964.42430787376, 40470.470842179166, -28587.724696126545, 61554.46905547012, -8271.397146153111, -22215.689386807608, -10147.066133864659, 8191.66847368103, 3472.611722065416, 4610.740197985197, 11309.870935663097, -187500.02235174447, -0.108, 0.9580000000000001, 0.20600000000000002, 192.0, 0.0, 0.0, 0.0, 0.0, 0.0, 0.0, 0.0, 0.0, 0.0, 1.744742297087613E9, 0.0, 2025-04-15 13:38:17.087
28.0, -21558.548099821583, -4026.3314874567377, 29382.128045812613, -17166.899700987306, -48924.68290623223, 40512.78269443306, -28574.98420178702, 61599.843096714394, -8273.408803154089, -22215.220000174046, -10148.071962365148, 8193.098985326169, 3477.864382012413, 4615.76934048764, 11313.626028731589, -187500.02235174447, -0.11800000000000001, 0.962, 0.196, 192.0, 126.0, 40.0, 15.0, 8.0, 3.0, 16.0, 0.0, 0.0, 0.0, 1.7447422970956416E9, 0.0, 2025-04-15 13:38:17.095
30.0, -21558.972782966233, -4034.713391627478, 29366.95121132746, -17169.894834744315, -49114.33745793551, 40481.44554870672, -28583.9472513136, 61501.897752511235, -8270.436021141531, -22213.610674573265, -10149.502474010287, 8194.90947662705, 3478.1102512014213, 4615.612878276454, 11312.396682786546, -187500.02235174447, -0.11800000000000001, 0.962, 0.196, 192.0, 0.0, 0.0, 0.0, 0.0, 0.0, 0.0, 0.0, 0.0, 0.0, 1.744742297104728E9, 0.0, 2025-04-15 13:38:17.104
32.0, -21571.534463350115, -4037.842635851221, 29384.273813280324, -17179.997823238115, -49114.113940490955, 40526.97605216218, -28559.583849857314, 61516.42638640719, -8269.54195136332, -22217.25400891948, -10154.911596168471, 8189.6568166800525, 3486.380396649885, 4610.695494496285, 11306.85345016163, -187500.02235174447, -0.11800000000000001, 0.962, 0.196, 192.0, 0.0, 0.0, 0.0, 0.0, 0.0, 0.0, 0.0, 0.0, 0.0, 1.7447422971117284E9, 0.0, 2025-04-15 13:38:17.111
34.0, -21577.41297214186, -4051.3654412466817, 29351.170879742014, -17196.895742046327, -49267.53631443218, 40494.230746535155, -28580.41567568966, 61429.96983885406, -8282.327149191755, -22233.81665156086, -10160.320718326655, 8171.194275759969, 3478.467879112706, 4610.1590526293585, 11320.644476490555, -187500.02235174447, -0.11800000000000001, 0.962, 0.196, 192.0, 0.0, 0.0, 0.0, 0.0, 0.0, 0.0, 0.0, 0.0, 0.0, 1.7447422971197824E9, 0.0, 2025-04-15 13:38:17.119
36.0, -21583.17972221133, -4049.04085982333, 29367.778225872305, -17203.511858405098, -49287.09409083058, 40521.29870907053, -28567.36225692776, 61425.34302775181, -8284.003530025904, -22229.189840458614, -10173.284730110732, 8165.76280185733, 3481.6194750809045, 4603.609991503953, 11291.274284276282, -187500.02235174447, -0.11800000000000001, 0.962, 0.196, 192.0, 0.0, 0.0, 0.0, 0.0, 0.0, 0.0, 0.0, 0.0, 0.0, 1.7447422971278036E9, 0.0, 2025-04-15 13:38:17.127
38.0, -21585.303137934585, -4054.964072103986, 29354.81421408823, -17214.59832365493, -49382.156059999, 40495.68360992475, -28580.52743441194, 61383.746431320484, -8280.49430614642, -22236.74473008451, -10160.208959604379, 8166.612168146631, 3482.1335652033767, 4614.5623462870535, 11322.074988135695, -187500.02235174447, -0.108, 0.9580000000000001, 0.194, 192.0, 126.0, 80.0, 14.5, 120.0, 3.0, 8.0, 0.0, 0.0, 0.0, 1.7447422971358695E9, 0.0, 2025-04-15 13:38:17.135
40.0, -21576.921233763842, -4041.4636184529804, 29390.264080794346, -17197.812163568993, -49425.898423898034, 40523.086848626954, -28551.604277086768, 61384.752259820976, -8269.676061830052, -22236.185936473124, -10165.551026529196, 8164.846380334661, 3481.5300681030835, 4601.2407065916905, 11292.973016854885, -187500.02235174447, -0.108, 0.9580000000000001, 0.194, 192.0, 0.0, 0.0, 0.0, 0.0, 0.0, 0.0, 0.0, 0.0, 0.0, 1.744742297143878E9, 0.0, 2025-04-15 13:38:17.143
42.0, -21574.596652340493, -4043.9446620875196, 29371.980353829906, -17195.35347167891, -49488.349197906166, 40515.39784853433, -28576.03473377642, 61382.986472009005, -8261.003584981392, -22228.11695672476, -10135.398523258988, 8187.868677123628, 3496.6845508437814, 4633.293108140601, 11340.738694755877, -187500.02235174447, -0.108, 0.9580000000000001, 0.194, 192.0, 0.0, 0.0, 0.0, 0.0, 0.0, 0.0, 0.0, 0.0, 0.0, 1.7447422971519313E9, 0.0, 2025-04-15 13:38:17.151
44.0, -21577.725896564236, -4036.590938161724, 29380.25049927837, -17188.06680298648, -49542.48512297692, 40526.50666552862, -28555.247611432984, 61394.76584133695, -8262.63526232663, -22222.55137235539, -10148.876625165538, 8183.063052065737, 3487.028597239089, 4620.932593456816, 11301.489031492358, -187500.02235174447, -0.108, 0.9580000000000001, 0.194, 192.0, 0.0, 0.0, 0.0, 0.0, 0.0, 0.0, 0.0, 0.0, 0.0, 1.7447422971609895E9, 0.0, 2025-04-15 13:38:17.160
46.0, -21577.837655286512, -4035.5180544278687, 29361.787958358284, -17188.938521020238, -49541.412239243065, 40525.83611319496, -28594.832550863335, 61444.520824494466, -8261.271805914856, -22228.698102080598, -10129.341200511599, 8187.4886974678875, 3485.732196060681, 4642.770247789651, 11348.003011703851, -187500.02235174447, -0.108, 0.9580000000000001, 0.194, 192.0, 0.0, 0.0, 0.0, 0.0, 0.0, 0.0, 0.0, 0.0, 0.0, 1.744742297167029E9, 0.0, 2025-04-15 13:38:17.167
48.0, -21564.40425686887, -4023.895147311109, 29379.267022522334, -17172.97937547915, -49636.25069096693, 40519.175293347274, -28564.07655049283, 61434.440187745124, -8261.271805914856, -22220.338549654312, -10154.621023490552, 8185.119412555625, 3474.0422337105556, 4622.832491735518, 11293.867086633098, -187500.02235174447, -0.10200000000000001, 0.9560000000000001, 0.202, 192.0, 126.0, 104.0, 14.5, 112.0, 3.0, 40.0, 0.0, 0.0, 0.0, 1.7447422971760468E9, 0.0, 2025-04-15 13:38:17.176
50.0, -21565.343030135995, -4025.996211289908, 29372.539147441286, -17174.83457026894, -49615.843548279234, 40533.949796432236, -28570.40209417368, 61491.414784361696, -8242.697506272496, -22209.117973937748, -10117.561831183653, 8207.828784922218, 3503.211260224731, 4660.8751607984495, 11351.042848949774, -187500.02235174447, -0.10200000000000001, 0.9560000000000001, 0.202, 192.0, 0.0, 0.0, 0.0, 0.0, 0.0, 0.0, 0.0, 0.0, 0.0, 1.744742297184102E9, 0.0, 2025-04-15 13:38:17.184
52.0, -21574.551948851582, -4033.41699044907, 29370.259269506845, -17180.28839591603, -49720.80734024136, 40518.124761357874, -28571.586736629815, 61470.02416491797, -8251.682907543529, -22210.3920233717, -10149.614232732563, 8193.121337070625, 3479.83133552448, 4629.426256349833, 11291.698967420933, -187500.02235174447, -0.10200000000000001, 0.9560000000000001, 0.202, 192.0, 0.0, 0.0, 0.0, 0.0, 0.0, 0.0, 0.0, 0.0, 0.0, 1.7447422971921327E9, 0.0, 2025-04-15 13:38:17.192
54.0, -21576.630661085925, -4034.713391627478, 29358.122272267614, -17177.852055770403, -49647.4712666835, 40535.11208714391, -28591.70330663959, 61543.69551464266, -8266.390355395122, -22227.26759043546, -10135.778502914727, 8194.4847934824, 3487.028597239089, 4644.424276879344, 11336.223642375904, -187500.02235174447, -0.10200000000000001, 0.9560000000000001, 0.202, 192.0, 0.0, 0.0, 0.0, 0.0, 0.0, 0.0, 0.0, 0.0, 0.0, 1.7447422971992073E9, 0.0, 2025-04-15 13:38:17.199
56.0, -21579.201111698283, -4045.442228966025, 29357.988161800884, -17183.372936650867, -49764.5944076293, 40503.462016995196, -28596.37482123075, 61491.07950819487, -8260.355384392189, -22219.846811276297, -10158.309061325677, 8183.063052065737, 3475.0033587221337, 4624.195948147291, 11278.980824825863, -187500.02235174447, -0.10200000000000001, 0.9560000000000001, 0.202, 192.0, 0.0, 0.0, 0.0, 0.0, 0.0, 0.0, 0.0, 0.0, 0.0, 1.7447422972082157E9, 0.0, 2025-04-15 13:38:17.208
58.0, -21575.870701774445, -4042.491798697925, 29359.888060079586, -17185.92103551877, -49651.785153363366, 40523.84680793843, -28580.214509989564, 61572.32809928991, -8271.330090919744, -22232.184974215626, -10141.522901239741, 8186.415813734033, 3480.747757047148, 4638.121084942947, 11328.780511472287, -187500.02235174447, -0.10300000000000001, 0.96, 0.2, 192.0, 126.0, 96.0, 15.0, 16.0, 3.0, 24.0, 0.0, 0.0, 0.0, 1.7447422972162642E9, 0.0, 2025-04-15 13:38:17.216
60.0, -21562.30319289007, -4035.7639236168775, 29367.733522383398, -17178.20968368169, -49795.68568416664, 40487.234650520644, -28567.56342262786, 61490.40895586121, -8255.169779678557, -22221.992578744004, -10153.414029289965, 8182.861886365639, 3472.7458325321477, 4612.193061374791, 11286.42395572948, -187500.02235174447, -0.10300000000000001, 0.96, 0.2, 192.0, 0.0, 0.0, 0.0, 0.0, 0.0, 0.0, 0.0, 0.0, 0.0, 1.7447422972232983E9, 0.0, 2025-04-15 13:38:17.223
62.0, -21566.08063770302, -4035.741571872422, 29373.85790036415, -17182.143590705826, -49674.94156061907, 40524.919691672294, -28571.40792267417, 61564.41558175273, -8261.674137315053, -22225.278285178934, -10130.324677267632, 8191.310845769745, 3487.3638734059186, 4635.975317475238, 11341.096322667161, -187500.02235174447, -0.10300000000000001, 0.96, 0.2, 192.0, 0.0, 0.0, 0.0, 0.0, 0.0, 0.0, 0.0, 0.0, 0.0, 1.7447422972313664E9, 0.0, 2025-04-15 13:38:17.231
64.0, -21560.604460311468, -4036.8144556062766, 29369.72282763992, -17176.712116803184, -49832.54371077344, 40482.272563251565, -28571.47497790754, 61463.27393809247, -8254.543930833808, -22218.170430442147, -10153.212863589868, 8180.179677031002, 3475.539800589061, 4616.797520732584, 11299.23150530237, -187500.02235174447, -0.10300000000000001, 0.96, 0.2, 192.0, 0.0, 0.0, 0.0, 0.0, 0.0, 0.0, 0.0, 0.0, 0.0, 1.7447422972403867E9, 0.0, 2025-04-15 13:38:17.240
66.0, -21571.735629050214, -4039.4743131964583, 29381.166920801035, -17184.311709917987, -49685.625694468705, 40527.73601147366, -28569.329210439828, 61544.45547395414, -8255.572111078753, -22218.751575797985, -10131.174043556935, 8194.261276037845, 3492.504774630639, 4638.925747743338, 11336.603622031644, -187500.02235174447, -0.10300000000000001, 0.96, 0.2, 192.0, 0.0, 0.0, 0.0, 0.0, 0.0, 0.0, 0.0, 0.0, 0.0, 1.7447422972474408E9, 0.0, 2025-04-15 13:38:17.247
68.0, -21569.56750983805, -4048.7949906343215, 29365.788920615785, -17188.267968686578, -49800.31249526888, 40475.34352247042, -28595.27958575244, 61459.45178979061, -8269.184323452035, -22226.73114856853, -10153.190511845412, 8177.2739502518125, 3464.520390572595, 4613.377703830923, 11295.007025600318, -187500.02235174447, -0.10450000000000001, 0.96, 0.2, 192.0, 126.0, 88.0, 15.0, 0.0, 3.0, 32.0, 0.0, 0.0, 0.0, 1.7447422972554617E9, 0.0, 2025-04-15 13:38:17.255
70.0, -21576.027163985633, -4046.381002233148, 29382.396266746076, -17186.435125641245, -49631.221548464484, 40518.43768578025, -28589.445780449605, 61533.570174404405, -8268.692585074019, -22235.224811461547, -10137.790159915705, 8187.220476534424, 3473.058756954522, 4619.747951000685, 11309.155679840527, -187500.02235174447, -0.10450000000000001, 0.96, 0.2, 192.0, 0.0, 0.0, 0.0, 0.0, 0.0, 0.0, 0.0, 0.0, 0.0, 1.744742297263574E9, 0.0, 2025-04-15 13:38:17.263
72.0, -21580.072829732042, -4053.354746503204, 29360.491557179877, -17193.83355305595, -49722.46136933105, 40466.62634213285, -28610.411716748684, 61438.50820523599, -8272.49238163142, -22227.200535202093, -10150.016564132759, 8182.593665432176, 3464.6992045282373, 4608.974410173227, 11292.66009243251, -187500.02235174447, -0.10450000000000001, 0.96, 0.2, 192.0, 0.0, 0.0, 0.0, 0.0, 0.0, 0.0, 0.0, 0.0, 0.0, 1.744742297272566E9, 0.0, 2025-04-15 13:38:17.272
74.0, -21591.807495571076, -4057.8921506276315, 29373.72378989742, -17203.91418980529, -49559.785373185325, 40511.24042406564, -28587.009440303977, 61494.901656496724, -8279.68964334603, -22232.095567237804, -10153.034049634225, 8180.5596566867425, 3473.997530221645, 4608.7508927286735, 11308.932162395975, -187500.02235174447, -0.10450000000000001, 0.96, 0.2, 192.0, 0.0, 0.0, 0.0, 0.0, 0.0, 0.0, 0.0, 0.0, 0.0, 1.7447422972796216E9, 0.0, 2025-04-15 13:38:17.279
76.0, -21590.17581822584, -4070.4091275226033, 29349.941533796973, -17206.4622886732, -49626.907661784615, 40476.41640620428, -28591.971527573056, 61408.62392289924, -8291.893695818628, -22238.30935219638, -10171.273073109756, 8168.713232125429, 3458.865399225402, 4597.932648412305, 11294.738804666855, -187500.02235174447, -0.10450000000000001, 0.96, 0.2, 192.0, 0.0, 0.0, 0.0, 0.0, 0.0, 0.0, 0.0, 0.0, 0.0, 1.7447422972876537E9, 0.0, 2025-04-15 13:38:17.287
78.0, -21607.297254478606, -4080.3780055496704, 29360.491557179877, -17222.08615804746, -49449.09953464264, 40514.81670317849, -28585.623632147748, 61468.839522461836, -8302.622533157175, -22248.88172732374, -10173.77646848875, 8161.985357044382, 3461.346442859941, 4596.949171656272, 11295.699929678432, -187500.02235174447, -0.11125000000000002, 0.9590000000000001, 0.202, 192.0, 126.0, 40.0, 14.5, 120.0, 3.0, 48.0, 0.0, 0.0, 0.0, 1.7447422972956836E9, 0.0, 2025-04-15 13:38:17.295
80.0, -21603.922141065854, -4086.3682730636924, 29344.152431983046, -17229.819861628996, -49459.6272062811, 40473.53303116954, -28618.346586030315, 61408.646274643696, -8308.36693148219, -22255.386084960235, -10175.654015022996, 8147.680240592986, 3456.294948613042, 4595.317494311034, 11300.371444269591, -187500.02235174447, -0.11125000000000002, 0.9590000000000001, 0.202, 192.0, 0.0, 0.0, 0.0, 0.0, 0.0, 0.0, 0.0, 0.0, 0.0, 1.7447422973037293E9, 0.0, 2025-04-15 13:38:17.303
82.0, -21608.5489521681, -4081.7414619614437, 29370.728656140407, -17233.150271552833, -49305.13194860601, 40502.478540239164, -28604.04146957892, 61457.61894674527, -8300.588524411742, -22253.620297148263, -10172.994157432813, 8151.323574939201, 3464.5874458059607, 4589.4389855192885, 11282.333586494158, -187500.02235174447, -0.11125000000000002, 0.9590000000000001, 0.202, 192.0, 0.0, 0.0, 0.0, 0.0, 0.0, 0.0, 0.0, 0.0, 0.0, 1.74474229731175E9, 0.0, 2025-04-15 13:38:17.311
84.0, -21614.80744061559, -4098.639380769656, 29340.889077292573, -17248.282402549077, -49268.6315499105, 40466.08990026592, -28647.359150333305, 61442.129187837745, -8307.517565192886, -22265.399666476213, -10165.908654440482, 8148.574310371198, 3455.8479137239356, 4587.807308174051, 11294.269418033293, -187500.02235174447, -0.11125000000000002, 0.9590000000000001, 0.202, 192.0, 0.0, 0.0, 0.0, 0.0, 0.0, 0.0, 0.0, 0.0, 0.0, 1.7447422973197944E9, 0.0, 2025-04-15 13:38:17.319
86.0, -21630.341903012028, -4112.8103867543205, 29350.81325183073, -17255.345553796953, -49132.68824013332, 40483.881888852346, -28639.804260707413, 61486.47504883708, -8312.099672806224, -22269.065352566882, -10182.068965681668, 8143.500464379843, 3452.673966011282, 4569.300063765057, 11255.422086169969, -187500.02235174447, -0.11125000000000002, 0.9590000000000001, 0.202, 192.0, 0.0, 0.0, 0.0, 0.0, 0.0, 0.0, 0.0, 0.0, 0.0, 1.7447422973278255E9, 0.0, 2025-04-15 13:38:17.327
88.0, -21634.320513525072, -4118.644192057156, 29323.633530573075, -17261.961670155724, -49048.578625748, 40465.75462409909, -28670.314391888907, 61504.40114789023, -8327.45532124702, -22278.251919538012, -10180.660805780984, 8145.1097899806255, 3447.890692697846, 4577.927837124806, 11281.506571949312, -187500.02235174447, -0.115625, 0.9565000000000001, 0.202, 192.0, 126.0, 32.0, 14.5, 104.0, 3.0, 40.0, 0.0, 0.0, 0.0, 1.7447422973358812E9, 0.0, 2025-04-15 13:38:17.335
90.0, -21645.228164819262, -4122.689857803566, 29332.909504522027, -17270.053001648546, -48938.67509826125, 40469.263847978575, -28656.612772537803, 61532.60904939283, -8338.519434752398, -22279.92830037216, -10206.678236326961, 8137.219624187902, 3429.450503522218, 4554.167932768814, 11237.160710949984, -187500.02235174447, -0.115625, 0.9565000000000001, 0.202, 192.0, 0.0, 0.0, 0.0, 0.0, 0.0, 0.0, 0.0, 0.0, 0.0, 1.7447422973439264E9, 0.0, 2025-04-15 13:38:17.343
92.0, -21648.7597404432, -4132.077590474795, 29310.155428666527, -17273.316356339023, -48823.653021294245, 40461.016054274565, -28674.42711286868, 61565.64492769777, -8343.056838876824, -22293.87578891227, -10191.367291375076, 8130.581156084676, 3424.510767997595, 4571.088203321481, 11278.489086447846, -187500.02235174447, -0.115625, 0.9565000000000001, 0.202, 192.0, 0.0, 0.0, 0.0, 0.0, 0.0, 0.0, 0.0, 0.0, 0.0, 1.7447422973519635E9, 0.0, 2025-04-15 13:38:17.351
94.0, -21642.367141528983, -4125.617936327211, 29334.071795233704, -17261.805207944537, -48787.13027085427, 40455.96456002767, -28658.847946983333, 61537.01234305053, -8341.112237109213, -22288.421963265177, -10211.483861384853, 8128.077760705682, 3412.060846335989, 4552.156275767837, 11222.565021820668, -187500.02235174447, -0.115625, 0.9565000000000001, 0.202, 192.0, 0.0, 0.0, 0.0, 0.0, 0.0, 0.0, 0.0, 0.0, 0.0, 1.7447422973610072E9, 0.0, 2025-04-15 13:38:17.361
96.0, -21650.32436255507, -4128.76953229541, 29326.338091652167, -17267.169626613813, -48675.79623172239, 40461.239571719125, -28683.92660426219, 61553.485578714084, -8339.748780697439, -22290.45597201061, -10184.482954082841, 8144.081609735681, 3430.7916081895364, 4580.610046459442, 11277.796182369731, -187500.02235174447, -0.115625, 0.9565000000000001, 0.202, 192.0, 0.0, 0.0, 0.0, 0.0, 0.0, 0.0, 0.0, 0.0, 0.0, 1.7447422973680372E9, 0.0, 2025-04-15 13:38:17.368
98.0, -21642.76947292918, -4111.581040809278, 29348.063987262725, -17245.980172870182, -48718.53276712093, 40460.0996327519, -28659.652609783723, 61486.27388313698, -8336.463074262509, -22276.374373003768, -10210.478032884364, 8144.483941135877, 3421.1133028403883, 4563.645072417864, 11217.826451996143, -187500.02235174447, -0.1178125, 0.95225, 0.199, 192.0, 126.0, 32.0, 14.5, 80.0, 3.0, 16.0, 0.0, 0.0, 0.0, 1.7447422973760853E9, 0.0, 2025-04-15 13:38:17.376
100.0, -21636.08630133704, -4104.696703517045, 29342.56545812672, -17229.238716273157, -48629.081085810794, 40481.26673475108, -28665.15113891973, 61510.45847063762, -8341.715734209507, -22280.420038750177, -10185.82405875016, 8161.85124657765, 3433.518521013084, 4595.093976866481, 11279.584321926157, -187500.02235174447, -0.1178125, 0.95225, 0.199, 192.0, 0.0, 0.0, 0.0, 0.0, 0.0, 0.0, 0.0, 0.0, 0.0, 1.7447422973831215E9, 0.0, 2025-04-15 13:38:17.383
102.0, -21632.822946646567, -4102.752101749433, 29345.96292328393, -17212.1619835093, -48738.761095852984, 40473.890659080826, -28645.213382865597, 61416.37997822523, -8324.706056679017, -22254.26849773747, -10201.380872891054, 8171.574255415709, 3435.9995646476227, 4591.450642520266, 11229.538766090724, -187500.02235174447, -0.1178125, 0.95225, 0.199, 192.0, 0.0, 0.0, 0.0, 0.0, 0.0, 0.0, 0.0, 0.0, 0.0, 1.7447422973911836E9, 0.0, 2025-04-15 13:38:17.391
104.0, -21646.6586764644, -4117.1466251786505, 29332.529524866288, -17225.617733671395, -48620.38625721768, 40504.66901119578, -28651.874202713276, 61471.991118430036, -8347.102504623235, -22277.69312592663, -10193.155430931502, 8157.47030466441, 3437.832407692958, 4612.885965452906, 11284.702871406422, -187500.02235174447, -0.1178125, 0.95225, 0.199, 192.0, 0.0, 0.0, 0.0, 0.0, 0.0, 0.0, 0.0, 0.0, 0.0, 1.7447422973992145E9, 0.0, 2025-04-15 13:38:17.399
106.0, -21631.86182163499, -4109.681142530578, 29348.5780773852, -17228.41170172831, -48741.75622961, 40472.23662999113, -28640.13953687424, 61381.98064350851, -8336.731295195972, -22269.17711128916, -10217.317666687688, 8148.015516759815, 3427.349439543419, 4587.539087240588, 11233.495024859312, -187500.02235174447, -0.1178125, 0.95225, 0.199, 192.0, 0.0, 0.0, 0.0, 0.0, 0.0, 0.0, 0.0, 0.0, 0.0, 1.7447422974092972E9, 0.0, 2025-04-15 13:38:17.409
108.0, -21635.23693504774, -4107.535375062868, 29357.563478656233, -17245.913117636814, -48609.45625417904, 40494.47661572416, -28654.422301581184, 61458.40125780121, -8328.93053638107, -22269.579442689355, -10183.052442437702, 8157.000918030849, 3454.484457312162, 4612.327171841523, 11288.837944130653, -187500.02235174447, -0.11990624999999999, 0.951125, 0.1955, 192.0, 126.0, 24.0, 14.5, 88.0, 3.0, 0.0, 0.0, 0.0, 0.0, 1.744742297416289E9, 0.0, 2025-04-15 13:38:17.416
110.0, -21619.9036383514, -4098.997008680941, 29366.90650783855, -17238.000600099636, -48759.79408738543, 40444.00637674408, -28639.536039773946, 61367.20614042356, -8324.415484001098, -22260.92931758515, -10201.984369991347, 8149.6248423605975, 3442.7497914731257, 4587.024997118116, 11243.061571486185, -187500.02235174447, -0.11990624999999999, 0.951125, 0.1955, 192.0, 0.0, 0.0, 0.0, 0.0, 0.0, 0.0, 0.0, 0.0, 0.0, 1.7447422974233506E9, 0.0, 2025-04-15 13:38:17.423
112.0, -21629.604295445002, -4105.121386661695, 29368.33701948369, -17241.822748401493, -48634.266690524426, 40472.348388713406, -28643.604057264813, 61459.69765897962, -8330.159882326112, -22279.995355605526, -10179.409108091488, 8152.642327862064, 3456.697280013237, 4602.112424625448, 11292.57068545469, -187500.02235174447, -0.11990624999999999, 0.951125, 0.1955, 192.0, 0.0, 0.0, 0.0, 0.0, 0.0, 0.0, 0.0, 0.0, 0.0, 1.74474229743239E9, 0.0, 2025-04-15 13:38:17.432
114.0, -21617.266132505672, -4102.550936049335, 29357.786996100785, -17229.194012784246, -48801.88242219477, 40427.22021665814, -28645.6604177547, 61379.41019289615, -8326.02480960188, -22274.966213103082, -10198.564553089685, 8139.924185266994, 3437.2736140815755, 4580.386529014889, 11250.594109367623, -187500.02235174447, -0.11990624999999999, 0.951125, 0.1955, 192.0, 0.0, 0.0, 0.0, 0.0, 0.0, 0.0, 0.0, 0.0, 0.0, 1.744742297439477E9, 0.0, 2025-04-15 13:38:17.439
116.0, -21607.31960622306, -4088.37993006467, 29379.892871367083, -17213.704253876716, -48722.17610146715, 40470.62730439035, -28618.391289519226, 61445.88428090624, -8314.424254229576, -22265.69023915413, -10176.145753401011, 8159.526665154299, 3466.3085301290193, 4600.81602344704, 11292.90596162152, -187500.02235174447, -0.11990624999999999, 0.951125, 0.1955, 192.0, 0.0, 0.0, 0.0, 0.0, 0.0, 0.0, 0.0, 0.0, 0.0, 1.7447422974475112E9, 0.0, 2025-04-15 13:38:17.447
118.0, -21616.729690638746, -4103.534412805368, 29358.703417623452, -17213.54779166553, -48899.38073150882, 40438.95488249718, -28630.796507691924, 61368.10021020177, -8311.853803617216, -22254.894346582216, -10185.801707005705, 8161.180694243992, 3461.0558701820223, 4599.743139713185, 11275.784525368754, -187500.02235174447, -0.11495312499999999, 0.9555625, 0.19075, 192.0, 126.0, 72.0, 15.0, 0.0, 2.5, 104.0, 0.0, 0.0, 0.0, 1.744742297455564E9, 0.0, 2025-04-15 13:38:17.455
120.0, -21625.402167487406, -4100.00283718143, 29374.215528275436, -17214.307750977012, -48824.88236723928, 40482.58548767394, -28626.460269267594, 61444.16319658318, -8320.839204888249, -22265.10909379829, -10181.130192414546, 8162.767668100318, 3466.0179574511003, 4603.140604870392, 11289.128516808572, -187500.02235174447, -0.11495312499999999, 0.9555625, 0.19075, 192.0, 0.0, 0.0, 0.0, 0.0, 0.0, 0.0, 0.0, 0.0, 0.0, 1.7447422974646032E9, 0.0, 2025-04-15 13:38:17.464
122.0, -21616.103841793996, -4102.662694771611, 29360.849185091163, -17208.608056140907, -49005.50681418262, 40440.96653949816, -28641.81591770839, 61360.21004440905, -8314.066626318292, -22260.057599551394, -10185.555837816697, 8159.347851198656, 3454.7526782456257, 4593.752872199163, 11268.743725865332, -187500.02235174447, -0.11495312499999999, 0.9555625, 0.19075, 192.0, 0.0, 0.0, 0.0, 0.0, 0.0, 0.0, 0.0, 0.0, 0.0, 1.7447422974716222E9, 0.0, 2025-04-15 13:38:17.471
124.0, -21609.24185624622, -4083.5296015178683, 29389.86174939415, -17198.750936836117, -48964.80428752951, 40483.52426094106, -28607.126010313754, 61399.213838483556, -8301.750815123418, -22252.12273026976, -10172.547122543709, 8172.893008338572, 3470.287140642064, 4604.638171748898, 11278.846714359132, -187500.02235174447, -0.11495312499999999, 0.9555625, 0.19075, 192.0, 0.0, 0.0, 0.0, 0.0, 0.0, 0.0, 0.0, 0.0, 0.0, 1.7447422974796653E9, 0.0, 2025-04-15 13:38:17.479
126.0, -21614.673330148857, -4091.643284755145, 29369.05227530626, -17200.427317670266, -49114.78449282462, 40450.62249310285, -28614.412679006182, 61328.38116030469, -8301.616704656686, -22244.567840643864, -10166.623910263052, 8171.551903671254, 3465.190942906254, 4611.142529385392, 11291.922484865485, -187500.02235174447, -0.11495312499999999, 0.9555625, 0.19075, 192.0, 0.0, 0.0, 0.0, 0.0, 0.0, 0.0, 0.0, 0.0, 0.0, 1.7447422974877E9, 0.0, 2025-04-15 13:38:17.487
128.0, -21623.36815874197, -4093.8561074562203, 29388.967679615937, -17190.525494876565, -49072.874971970916, 40489.58158368845, -28584.483693180526, 61366.37912587871, -8302.488422690443, -22251.586288402832, -10177.978596446348, 8159.683127365485, 3465.9732539621896, 4606.873346194428, 11289.307330764215, -187500.02235174447, -0.11495312499999999, 0.9555625, 0.19075, 192.0, 0.0, 0.0, 0.0, 0.0, 0.0, 0.0, 0.0, 0.0, 0.0, 1.7447422974957604E9, 0.0, 2025-04-15 13:38:17.495
130.0, -21609.37596671295, -4091.419767310592, 29374.506100953353, -17169.537206833033, -49189.64048500544, 40468.302722967, -28596.911263097678, 61311.03620660737, -8306.869364603683, -22249.351113957302, -10178.470334824364, 8161.918301811016, 3463.872189983391, 4617.5574800440645, 11307.658112962023, -187500.02235174447, -0.10400000000000001, 0.966, 0.186, 192.0, 126.0, 96.0, 15.0, 24.0, 2.5, 104.0, 0.0, 0.0, 0.0, 1.7447422975037825E9, 0.0, 2025-04-15 13:38:17.503
132.0, -21606.51494342267, -4077.025243881374, 29403.697479211987, -17161.468227084664, -49159.77855441315, 40502.45618849471, -28563.249535947984, 61359.13716067519, -8290.26201847339, -22231.313256181867, -10171.20601787639, 8175.150534528558, 3482.826469281491, 4622.944250457794, 11306.920505394997, -187500.02235174447, -0.10400000000000001, 0.966, 0.186, 192.0, 0.0, 0.0, 0.0, 0.0, 0.0, 0.0, 0.0, 0.0, 0.0, 1.744742297511838E9, 0.0, 2025-04-15 13:38:17.511
134.0, -21596.07667876204, -4075.3041595583154, 29391.62753720612, -17165.133913175334, -49218.138959185955, 40477.84691784941, -28591.882120595234, 61353.45981758354, -8284.159992237092, -22222.5960758443, -10148.407238531976, 8186.57227594522, 3487.609742594927, 4640.736239044219, 11341.38689534508, -187500.02235174447, -0.10400000000000001, 0.966, 0.186, 192.0, 0.0, 0.0, 0.0, 0.0, 0.0, 0.0, 0.0, 0.0, 0.0, 1.7447422975188675E9, 0.0, 2025-04-15 13:38:17.518
136.0, -21572.205015683772, -4051.901883113609, 29435.816935994262, -17142.335133830922, -49246.63743336647, 40491.88381336735, -28551.358407897762, 61359.628899053205, -8257.91904424656, -22208.15684892617, -10145.255642563778, 8196.809374905752, 3499.053835756044, 4635.885910497416, 11315.592982243656, -187500.02235174447, -0.10400000000000001, 0.966, 0.186, 192.0, 0.0, 0.0, 0.0, 0.0, 0.0, 0.0, 0.0, 0.0, 0.0, 1.7447422975268877E9, 0.0, 2025-04-15 13:38:17.526
138.0, -21577.189454697305, -4064.575322219768, 29416.505028784875, -17159.59068055042, -49268.60919816604, 40475.74585387061, -28573.26311746396, 61378.091439973294, -8254.834503511727, -22211.040223960903, -10112.063302047647, 8207.113529099648, 3514.3647807079296, 4658.841152053017, 11369.304224169759, -187500.02235174447, -0.10400000000000001, 0.966, 0.186, 192.0, 0.0, 0.0, 0.0, 0.0, 0.0, 0.0, 0.0, 0.0, 0.0, 1.74474229753593E9, 0.0, 2025-04-15 13:38:17.535
140.0, -21575.6918878188, -4059.8591041396985, 29426.4962585564, -17152.572232791452, -49293.576096722616, 40489.64863892182, -28542.574172326826, 61395.30228320388, -8247.39137260811, -22209.721471038043, -10130.235270289812, 8200.76563367434, 3507.055760271044, 4632.801369762584, 11327.327648082692, -187500.02235174447, -0.096, 0.968, 0.188, 192.0, 126.5, 0.0, 15.0, 32.0, 2.5, 112.0, 0.0, 0.0, 0.0, 1.7447422975439625E9, 0.0, 2025-04-15 13:38:17.543
142.0, -21590.980481026232, -4081.517944516891, 29409.777153703828, -17160.909433473284, -49249.945491545855, 40497.807025648006, -28559.56149811286, 61455.54023451093, -8259.662480314075, -22220.360901398766, -10116.2877817497, 8196.250581294367, 3509.6485626278595, 4654.907245028883, 11378.200218462971, -187500.02235174447, -0.096, 0.968, 0.188, 192.0, 0.0, 0.0, 0.0, 0.0, 0.0, 0.0, 0.0, 0.0, 0.0, 1.744742297551051E9, 0.0, 2025-04-15 13:38:17.551
144.0, -21599.384736941425, -4081.875572428176, 29418.986072419415, -17156.86376772687, -49263.445945196865, 40512.08979035495, -28545.591657828292, 61487.726746526576, -8264.244587927413, -22215.48822110751, -10144.026296618737, 8188.315712012734, 3495.3657979209183, 4635.684744797319, 11322.700836980443, -187500.02235174447, -0.096, 0.968, 0.188, 192.0, 0.0, 0.0, 0.0, 0.0, 0.0, 0.0, 0.0, 0.0, 0.0, 1.744742297559058E9, 0.0, 2025-04-15 13:38:17.559
146.0, -21598.8482950745, -4079.1486596046284, 29406.245578079892, -17152.10284615789, -49167.3557957835, 40528.02658415158, -28567.429312161126, 61567.678936443204, -8270.01133799688, -22216.069366463347, -10122.300401008177, 8194.104813826658, 3501.6913416017705, 4665.323157945056, 11365.459724123446, -187500.02235174447, -0.096, 0.968, 0.188, 192.0, 0.0, 0.0, 0.0, 0.0, 0.0, 0.0, 0.0, 0.0, 0.0, 1.7447422975680988E9, 0.0, 2025-04-15 13:38:17.568
148.0, -21644.535260741148, -4122.041657214362, 29395.695554696984, -17156.372029348855, -49193.61909551849, 40516.1131043569, -28557.393378900695, 61565.309651530944, -8277.029785755847, -22200.289034877904, -10154.710430468373, 8177.966854329927, 3481.4630128697177, 4640.266852410657, 11302.271342548293, -187500.02235174447, -0.096, 0.968, 0.188, 192.0, 0.0, 0.0, 0.0, 0.0, 0.0, 0.0, 0.0, 0.0, 0.0, 1.744742297575152E9, 0.0, 2025-04-15 13:38:17.575
150.0, -21725.8285553251, -4207.894707667197, 29381.05516207876, -17176.041564469524, -49031.45718949523, 40539.045994168046, -28581.46620767906, 61669.78170511505, -8324.773111912384, -22266.293736254425, -10154.799837446195, 8151.077705750193, 3487.185059450276, 4648.559349603575, 11357.681317052999, -187500.02235174447, -0.1, 0.962, 0.186, 192.0, 126.0, 112.0, 15.0, 8.0, 2.5, 104.0, 0.0, 0.0, 0.0, 1.7447422975831783E9, 0.0, 2025-04-15 13:38:17.583
152.0, -21793.80021021369, -4272.044214253929, 29385.57021445873, -17171.88414000084, -49078.127631917916, 40523.086848626954, -28542.529468837914, 61637.61754484386, -8357.18314137258, -22268.037172321936, -10201.067948468679, 8129.105940950626, 3465.548570817539, 4624.754741758674, 11308.529830995778, -187500.02235174447, -0.1, 0.962, 0.186, 192.0, 0.0, 0.0, 0.0, 0.0, 0.0, 0.0, 0.0, 0.0, 0.0, 1.7447422975912092E9, 0.0, 2025-04-15 13:38:17.591
154.0, -21881.53080720077, -4356.354994339346, 29366.682990393998, -17190.234922198644, -48897.14555706329, 40546.511476816115, -28562.78014931442, 61741.620211794405, -8401.618409349729, -22314.193524622147, -10211.729730573861, 8098.08171964666, 3471.7847075205696, 4640.289204155112, 11362.10696245515, -187500.02235174447, -0.1, 0.962, 0.186, 192.0, 0.0, 0.0, 0.0, 0.0, 0.0, 0.0, 0.0, 0.0, 0.0, 1.7447422976002665E9, 0.0, 2025-04-15 13:38:17.600
156.0, -21944.540374820277, -4422.784378860519, 29365.25247874886, -17186.904512274803, -49008.971334573194, 40508.82643566447, -28558.26509693445, 61653.50963515158, -8427.278211984421, -22321.122565403293, -10260.50123697534, 8065.962262864383, 3458.4407160807514, 4614.182366631314, 11310.04974961874, -187500.02235174447, -0.1, 0.962, 0.186, 192.0, 0.0, 0.0, 0.0, 0.0, 0.0, 0.0, 0.0, 0.0, 0.0, 1.7447422976073031E9, 0.0, 2025-04-15 13:38:17.607
158.0, -22011.997939586396, -4491.068958171482, 29360.782129857795, -17207.334006706955, -48849.42458265121, 40546.82440123849, -28566.803463316377, 61741.26258388312, -8463.577444979841, -22355.834824542384, -10262.378783509586, 8047.320907988657, 3469.9071609863236, 4633.874253496439, 11363.358660144648, -187500.02235174447, -0.1, 0.962, 0.186, 192.0, 0.0, 0.0, 0.0, 0.0, 0.0, 0.0, 0.0, 0.0, 0.0, 1.7447422976153271E9, 0.0, 2025-04-15 13:38:17.615
160.0, -22014.836611132218, -4513.644220071343, 29352.623743131608, -17212.877239331872, -48979.26586619209, 40501.27154603857, -28574.358352942272, 61656.03538227503, -8478.195485853612, -22381.159351010247, -10299.348568838665, 8014.486195383811, 3442.8391984509467, 4599.1843461018025, 11314.05071187624, -187500.02235174447, -0.10200000000000001, 0.96, 0.19, 192.0, 126.0, 104.0, 15.0, 0.0, 2.5, 120.0, 0.0, 0.0, 0.0, 1.7447422976233666E9, 0.0, 2025-04-15 13:38:17.623
162.0, -22002.40904121507, -4496.388673351846, 29358.52460366781, -17219.69452139074, -48838.78515229048, 40539.85065696844, -28584.930728069634, 61736.993400692154, -8470.662947972172, -22390.30121449247, -10277.063879616724, 8021.750512331786, 3454.6856230122594, 4614.763511987151, 11341.208081389437, -187500.02235174447, -0.10200000000000001, 0.96, 0.19, 192.0, 0.0, 0.0, 0.0, 0.0, 0.0, 0.0, 0.0, 0.0, 0.0, 1.7447422976314027E9, 0.0, 2025-04-15 13:38:17.631
164.0, -21997.44695394599, -4500.479042587166, 29326.494553863355, -17245.354324025433, -48954.388374613336, 40492.286144767546, -28589.736353127522, 61673.78266737255, -8464.091535102312, -22391.73172613761, -10295.593475770173, 8013.636829094509, 3439.77700946057, 4592.121194853926, 11297.80099365723, -187500.02235174447, -0.10200000000000001, 0.96, 0.19, 192.0, 0.0, 0.0, 0.0, 0.0, 0.0, 0.0, 0.0, 0.0, 0.0, 1.744742297639438E9, 0.0, 2025-04-15 13:38:17.639
166.0, -21984.997032284384, -4482.55294353401, 29337.223391201904, -17256.686658464274, -48782.190535329646, 40524.562063761005, -28592.396210717707, 61788.02243328362, -8462.90689264618, -22421.05721486297, -10291.346644323665, 8003.332674900613, 3437.519483270584, 4585.616837217431, 11318.990447400862, -187500.02235174447, -0.10200000000000001, 0.96, 0.19, 192.0, 0.0, 0.0, 0.0, 0.0, 0.0, 0.0, 0.0, 0.0, 0.0, 1.7447422976474917E9, 0.0, 2025-04-15 13:38:17.647
168.0, -21967.719133820432, -4473.299321329513, 29315.09516419115, -17276.400897073854, -48898.173737308236, 40462.37951068634, -28620.648815709214, 61717.92736267178, -8434.162549276656, -22415.066947348947, -10294.498240291863, 8005.433738879412, 3435.1054948694104, 4569.680043420797, 11281.953606838419, -187500.02235174447, -0.10200000000000001, 0.96, 0.19, 192.0, 0.0, 0.0, 0.0, 0.0, 0.0, 0.0, 0.0, 0.0, 0.0, 1.7447422976555605E9, 0.0, 2025-04-15 13:38:17.655
170.0, -21965.372200652626, -4472.762879462585, 29326.98629224137, -17294.23758914919, -48708.4968338605, 40499.058723337504, -28616.692556940623, 61834.268192561656, -8438.722305145538, -22453.82487223445, -10297.1804496265, 7980.19861938937, 3438.6370704933493, 4551.888054834372, 11279.874894604076, -187500.02235174447, -0.10200000000000001, 0.9560000000000001, 0.196, 192.0, 126.0, 104.0, 14.5, 112.0, 3.0, 16.0, 0.0, 0.0, 0.0, 1.7447422976625807E9, 0.0, 2025-04-15 13:38:17.662
172.0, -21935.733787504887, -4450.142914073815, 29313.195265912447, -17294.41640310483, -48756.37427048377, 40452.500039637096, -28634.171621104673, 61796.40433745436, -8423.679581127117, -22459.278697881546, -10301.293170606277, 7980.511543811745, 3429.1599308442987, 4536.152426737836, 11268.22963574286, -187500.02235174447, -0.10200000000000001, 0.9560000000000001, 0.196, 192.0, 0.0, 0.0, 0.0, 0.0, 0.0, 0.0, 0.0, 0.0, 0.0, 1.744742297671595E9, 0.0, 2025-04-15 13:38:17.671
174.0, -21913.538505260767, -4430.428675464234, 29329.489687620367, -17294.81873450503, -48595.888745294666, 40474.76237711458, -28621.8558099098, 61874.166056414375, -8409.083891997801, -22464.754875273095, -10293.738280980382, 7984.311340369147, 3443.420343806785, 4529.402199912333, 11264.452190929913, -187500.02235174447, -0.10200000000000001, 0.9560000000000001, 0.196, 192.0, 0.0, 0.0, 0.0, 0.0, 0.0, 0.0, 0.0, 0.0, 0.0, 1.7447422976796668E9, 0.0, 2025-04-15 13:38:17.679
176.0, -21878.133342043562, -4399.158584971259, 29305.550969308733, -17286.32507161201, -48646.44839125257, 40431.51175159356, -28641.48064154156, 61814.0398638296, -8384.362862630232, -22468.845244508415, -10283.300016319754, 7989.429889849412, 3448.87416945388, 4525.84827254394, 11266.262682230794, -187500.02235174447, -0.10200000000000001, 0.9560000000000001, 0.196, 192.0, 0.0, 0.0, 0.0, 0.0, 0.0, 0.0, 0.0, 0.0, 0.0, 1.744742297686682E9, 0.0, 2025-04-15 13:38:17.686
178.0, -21864.074094781172, -4380.383119628802, 29317.71031829242, -17283.553455299552, -48539.115314378185, 40470.62730439035, -28605.8519608798, 61860.755009741195, -8355.104429138235, -22468.085285196936, -10278.069708117213, 7996.828317264119, 3463.961596961212, 4528.552833623032, 11258.528978649258, -187500.02235174447, -0.10200000000000001, 0.9560000000000001, 0.196, 192.0, 0.0, 0.0, 0.0, 0.0, 0.0, 0.0, 0.0, 0.0, 0.0, 1.7447422976947188E9, 0.0, 2025-04-15 13:38:17.694
180.0, -21833.005169988297, -4366.368575855324, 29306.959129209416, -17267.75077196965, -48597.274553450894, 40444.63222558883, -28596.061896808376, 61821.86297438896, -8337.55830974082, -22471.01336372058, -10267.810257412226, 7994.660198051954, 3462.3075678715195, 4532.486740647166, 11286.42395572948, -187500.02235174447, -0.098, 0.962, 0.202, 192.0, 126.0, 120.0, 15.0, 8.0, 3.0, 40.0, 0.0, 0.0, 0.0, 1.744742297703763E9, 0.0, 2025-04-15 13:38:17.703
182.0, -21835.12858571155, -4359.238369374081, 29325.354614896136, -17279.574844786508, -48532.342735808226, 40473.600086402905, -28588.41760020466, 61866.23118713274, -8329.332867781266, -22476.69070681223, -10272.213551069923, 7994.257866651758, 3468.342538874452, 4519.522728863088, 11282.020662071785, -187500.02235174447, -0.098, 0.962, 0.202, 192.0, 0.0, 0.0, 0.0, 0.0, 0.0, 0.0, 0.0, 0.0, 0.0, 1.744742297710812E9, 0.0, 2025-04-15 13:38:17.710
184.0, -21820.443489604415, -4353.113991393327, 29319.36434738211, -17287.330900112498, -48566.33973912475, 40452.544743126, -28604.13087655674, 61845.086436878024, -8326.069513090792, -22475.103732955904, -10259.2718910303, 8005.791366790697, 3471.985873220667, 4531.592670868954, 11311.48026126388, -187500.02235174447, -0.098, 0.962, 0.202, 192.0, 0.0, 0.0, 0.0, 0.0, 0.0, 0.0, 0.0, 0.0, 0.0, 1.744742297718844E9, 0.0, 2025-04-15 13:38:17.718
186.0, -21804.529047552234, -4334.182063839682, 29345.605295372643, -17289.834295491495, -48569.67014904859, 40467.028673533045, -28572.860786063768, 61832.72592219424, -8312.390245484143, -22472.39917187681, -10269.106658590634, 8004.852593523574, 3473.8187162660024, 4512.101949703926, 11279.450211459423, -187500.02235174447, -0.098, 0.962, 0.202, 192.0, 0.0, 0.0, 0.0, 0.0, 0.0, 0.0, 0.0, 0.0, 0.0, 1.7447422977268865E9, 0.0, 2025-04-15 13:38:17.726
188.0, -21790.402745056483, -4324.324944534891, 29323.208847428425, -17285.60981578944, -48561.04237568884, 40457.104498994886, -28615.507914484493, 61820.7900906551, -8314.670123418586, -22471.549805587507, -10246.911376346514, 8023.493948399299, 3476.9479604897456, 4528.709295834219, 11319.348075312148, -187500.02235174447, -0.098, 0.962, 0.202, 192.0, 0.0, 0.0, 0.0, 0.0, 0.0, 0.0, 0.0, 0.0, 0.0, 1.7447422977359374E9, 0.0, 2025-04-15 13:38:17.735
190.0, -21761.345477264582, -4286.841069083342, 29351.304990208744, -17262.721629467207, -48627.136484043185, 40461.41838567476, -28593.51379794047, 61749.08569444248, -8294.642960386629, -22443.565421529463, -10251.78405663777, 8036.368553205557, 3476.3221116449968, 4519.343914907446, 11263.80399034071, -187500.02235174447, -0.101, 0.9550000000000001, 0.203, 192.0, 126.0, 96.0, 14.5, 80.0, 3.0, 48.0, 0.0, 0.0, 0.0, 1.7447422977429779E9, 0.0, 2025-04-15 13:38:17.742
192.0, -21760.31729701964, -4284.829412082364, 29325.98046374088, -17280.960652942736, -48595.55346912784, 40453.86349604887, -28638.150231617718, 61738.15569140383, -8293.570076652775, -22439.698569738695, -10223.844376068637, 8051.299518501702, 3488.7720333066027, 4552.133924023381, 11309.133328096072, -187500.02235174447, -0.101, 0.9550000000000001, 0.203, 192.0, 0.0, 0.0, 0.0, 0.0, 0.0, 0.0, 0.0, 0.0, 0.0, 1.7447422977510364E9, 0.0, 2025-04-15 13:38:17.751
194.0, -21748.649686413966, -4274.301740443914, 29336.932818523983, -17281.497094809663, -48667.950769418574, 40452.76826057056, -28605.829609135344, 61661.60096664441, -8287.110422505191, -22426.57809574343, -10247.69368740245, 8048.349088233601, 3478.6913965572594, 4526.675287088787, 11239.7535133068, -187500.02235174447, -0.101, 0.9550000000000001, 0.203, 192.0, 0.0, 0.0, 0.0, 0.0, 0.0, 0.0, 0.0, 0.0, 0.0, 1.74474229775904E9, 0.0, 2025-04-15 13:38:17.759
196.0, -21745.185166023395, -4269.429060152657, 29325.55578059623, -17287.956748957247, -48601.70019885305, 40466.08990026592, -28622.883990154744, 61664.88667307934, -8282.573018380765, -22424.655845720274, -10217.943515532437, 8063.995309352316, 3496.081053743488, 4558.146543281859, 11301.71254893691, -187500.02235174447, -0.101, 0.9550000000000001, 0.203, 192.0, 0.0, 0.0, 0.0, 0.0, 0.0, 0.0, 0.0, 0.0, 0.0, 1.7447422977670877E9, 0.0, 2025-04-15 13:38:17.767
198.0, -21751.935392848896, -4279.621455624278, 29318.872609004095, -17304.586446831996, -48675.639769511195, 40432.51758009405, -28630.86356292529, 61590.88004718781, -8284.316454448277, -22425.43815677621, -10247.581928680174, 8045.689230643419, 3471.382376120374, 4524.03778124306, 11239.46294062888, -187500.02235174447, -0.101, 0.9550000000000001, 0.203, 192.0, 0.0, 0.0, 0.0, 0.0, 0.0, 0.0, 0.0, 0.0, 0.0, 1.7447422977751749E9, 0.0, 2025-04-15 13:38:17.775
200.0, -21753.835291127598, -4281.007263780506, 29307.09323967615, -17318.444528394288, -48554.67212851908, 40440.92183600925, -28653.148252147228, 61630.42028312926, -8298.554515666308, -22448.281639609533, -10235.377876207576, 8036.435608438923, 3475.539800589061, 4530.430380157278, 11279.964301581897, -187500.02235174447, -0.10350000000000001, 0.9495, 0.20350000000000001, 192.0, 126.0, 88.0, 14.5, 64.0, 3.0, 48.0, 0.0, 0.0, 0.0, 1.7447422977831879E9, 0.0, 2025-04-15 13:38:17.783
202.0, -21745.05105555666, -4272.692414843133, 29307.94260596545, -17303.67002530933, -48687.97793245053, 40409.87526296083, -28641.123013630273, 61530.39622669175, -8289.099727761713, -22436.05523539248, -10257.03671658477, 8027.53961414571, 3466.219123151198, 4508.883298502362, 11216.619457795556, -187500.02235174447, -0.10350000000000001, 0.9495, 0.20350000000000001, 192.0, 0.0, 0.0, 0.0, 0.0, 0.0, 0.0, 0.0, 0.0, 0.0, 1.744742297792214E9, 0.0, 2025-04-15 13:38:17.792
204.0, -21760.45140748637, -4287.332807461358, 29292.206977868915, -17316.835202793503, -48567.43497460306, 40430.14829518179, -28656.94804870463, 61603.50878280506, -8302.443719201532, -22450.762683244073, -10245.659678657017, 8028.053704268183, 3481.060681469522, 4532.173816224792, 11264.27337697427, -187500.02235174447, -0.10350000000000001, 0.9495, 0.20350000000000001, 192.0, 0.0, 0.0, 0.0, 0.0, 0.0, 0.0, 0.0, 0.0, 0.0, 1.744742297798266E9, 0.0, 2025-04-15 13:38:17.798
206.0, -21738.50199443126, -4272.088917742839, 29298.331355849667, -17303.133583442403, -48739.006965042, 40389.289306317485, -28639.178411862664, 61505.98812174656, -8293.92770456406, -22437.083415637426, -10272.682937703483, 8026.489082156311, 3463.469858583195, 4509.352685135923, 11205.823565223644, -187500.02235174447, -0.10350000000000001, 0.9495, 0.20350000000000001, 192.0, 0.0, 0.0, 0.0, 0.0, 0.0, 0.0, 0.0, 0.0, 0.0, 1.7447422978072813E9, 0.0, 2025-04-15 13:38:17.807
208.0, -21747.59915442457, -4277.006301523006, 29308.881379232575, -17314.935304514802, -48609.5233094124, 40430.17064692624, -28644.587534020848, 61601.51947754854, -8292.944227808026, -22445.91235469727, -10241.88223384407, 8035.899166571995, 3486.4921553721615, 4531.257394702125, 11266.530903164257, -187500.02235174447, -0.10350000000000001, 0.9495, 0.20350000000000001, 192.0, 0.0, 0.0, 0.0, 0.0, 0.0, 0.0, 0.0, 0.0, 0.0, 1.7447422978153312E9, 0.0, 2025-04-15 13:38:17.815
210.0, -21749.40964572545, -4287.444566183635, 29298.84544597214, -17319.405653405865, -48755.88253210575, 40388.70816096165, -28655.271667870486, 61529.725674358095, -8294.710015619996, -22442.559593028975, -10265.351565522144, 8020.051779753182, 3465.436812095262, 4506.826938012474, 11218.407597351981, -187500.02235174447, -0.10675000000000001, 0.9477500000000001, 0.20275, 192.0, 126.0, 72.0, 14.5, 72.0, 3.0, 40.0, 0.0, 0.0, 0.0, 1.744742297823371E9, 0.0, 2025-04-15 13:38:17.823
212.0, -21745.54279393468, -4278.012130023495, 29315.117515935603, -17316.790499304592, -48650.15878083215, 40422.23577764461, -28643.648760753724, 61602.927637449226, -8308.277524504367, -22453.847223978904, -10256.612033440118, 8018.621268108042, 3473.7740127770917, 4515.4770631166775, 11249.342411678126, -187500.02235174447, -0.10675000000000001, 0.9477500000000001, 0.20275, 192.0, 0.0, 0.0, 0.0, 0.0, 0.0, 0.0, 0.0, 0.0, 0.0, 1.7447422978304288E9, 0.0, 2025-04-15 13:38:17.830
214.0, -21739.083139787097, -4278.123888745772, 29306.243873386848, -17319.47270863923, -48821.261384637524, 40375.2300590551, -28650.57780153487, 61505.69754906864, -8299.090957533235, -22442.20196511769, -10269.061955101724, 8026.287916456213, 3467.3367103739633, 4508.928001991272, 11225.694266044411, -187500.02235174447, -0.10675000000000001, 0.9477500000000001, 0.20275, 192.0, 0.0, 0.0, 0.0, 0.0, 0.0, 0.0, 0.0, 0.0, 0.0, 1.7447422978394368E9, 0.0, 2025-04-15 13:38:17.839
216.0, -21746.459215457347, -4277.185115478649, 29317.4197456145, -17334.2919152131, -48706.753397792985, 40420.64880378828, -28645.8615834548, 61576.19495108068, -8299.090957533235, -22448.63926752082, -10258.489579974364, 8026.958468789872, 3476.3891668783626, 4516.75111255063, 11244.514434875779, -187500.02235174447, -0.10675000000000001, 0.9477500000000001, 0.20275, 192.0, 0.0, 0.0, 0.0, 0.0, 0.0, 0.0, 0.0, 0.0, 0.0, 1.7447422978475049E9, 0.0, 2025-04-15 13:38:17.847
218.0, -21737.429110697405, -4279.956731791107, 29295.447980814934, -17337.354104203478, -48850.989204763086, 40382.33791379189, -28661.798377251434, 61488.17378141568, -8298.845088344227, -22444.928877941238, -10271.274777802799, 8020.051779753182, 3457.0996114134327, 4509.240926413647, 11221.156861919984, -187500.02235174447, -0.10675000000000001, 0.9477500000000001, 0.20275, 192.0, 0.0, 0.0, 0.0, 0.0, 0.0, 0.0, 0.0, 0.0, 0.0, 1.7447422978566206E9, 0.0, 2025-04-15 13:38:17.856
220.0, -21744.64872415647, -4274.212333466093, 29302.37702159608, -17335.94594430279, -48762.051613575415, 40423.46512358965, -28647.91794394469, 61531.625572636796, -8307.606972170708, -22451.612049533374, -10271.855923158637, 8015.626134351031, 3461.7264225156814, 4513.957144493716, 11228.599992823601, -187500.02235174447, -0.111375, 0.9528750000000001, 0.20537500000000003, 192.0, 126.0, 48.0, 14.5, 120.0, 3.0, 64.0, 0.0, 0.0, 0.0, 1.7447422978625903E9, 0.0, 2025-04-15 13:38:17.862
222.0, -21744.984000323297, -4278.615627123789, 29284.137998120546, -17336.28122046962, -48899.62660069783, 40389.490472017584, -28670.604964566824, 61435.24485054551, -8298.68862613304, -22440.05619764998, -10271.610053969629, 8019.247116952792, 3460.16180040381, 4522.964897509205, 11215.41246359497, -187500.02235174447, -0.111375, 0.9528750000000001, 0.20537500000000003, 192.0, 0.0, 0.0, 0.0, 0.0, 0.0, 0.0, 0.0, 0.0, 0.0, 1.7447422978716116E9, 0.0, 2025-04-15 13:38:17.871
224.0, -21756.897480117976, -4283.756528348509, 29305.08158267517, -17338.404636192874, -48800.161337871716, 40441.77120229855, -28631.601170492315, 61499.68492981016, -8303.561306424297, -22450.047427421505, -10274.962815637924, 8019.0235995082385, 3462.933416716268, 4517.5334236065655, 11213.60197229409, -187500.02235174447, -0.111375, 0.9528750000000001, 0.20537500000000003, 192.0, 0.0, 0.0, 0.0, 0.0, 0.0, 0.0, 0.0, 0.0, 0.0, 1.744742297878666E9, 0.0, 2025-04-15 13:38:17.878
226.0, -21748.49322420278, -4286.416385938691, 29282.707486475407, -17332.302609956576, -48878.90653358776, 40408.82473097143, -28662.066598184898, 61448.54413849642, -8307.249344259422, -22453.981334445638, -10272.03473711428, 8021.415236164956, 3458.9771579476787, 4521.4673306306995, 11230.164614935473, -187500.02235174447, -0.111375, 0.9528750000000001, 0.20537500000000003, 192.0, 0.0, 0.0, 0.0, 0.0, 0.0, 0.0, 0.0, 0.0, 0.0, 1.744742297886695E9, 0.0, 2025-04-15 13:38:17.886
228.0, -21745.20751776785, -4273.966464277085, 29306.109762920114, -17322.244324951687, -48847.412925650235, 40434.462181861665, -28636.56325776139, 61462.603385758805, -8292.608951641198, -22441.978447673137, -10272.973510381402, 8023.11396874356, 3465.436812095262, 4519.813301541007, 11199.989759920807, -187500.02235174447, -0.111375, 0.9528750000000001, 0.20537500000000003, 192.0, 0.0, 0.0, 0.0, 0.0, 0.0, 0.0, 0.0, 0.0, 0.0, 1.7447422978967383E9, 0.0, 2025-04-15 13:38:17.896
230.0, -21751.77893063771, -4289.635037140255, 29279.645297485033, -17322.445490651786, -48898.643123941794, 40409.96466993865, -28666.134615675765, 61433.188490055625, -8292.02780628536, -22446.068816908457, -10256.07559157319, 8023.292782699202, 3466.0179574511003, 4532.687906347264, 11235.953716749396, -187500.02235174447, -0.1116875, 0.9574375, 0.20568750000000002, 192.0, 126.0, 64.0, 15.0, 8.0, 3.0, 56.0, 0.0, 0.0, 0.0, 1.7447422979038131E9, 0.0, 2025-04-15 13:38:17.903
232.0, -21757.277459773715, -4286.818717338886, 29298.152541894025, -17312.94599925828, -48898.53136521952, 40432.76344928306, -28635.28920832744, 61440.22928955904, -8288.74209985043, -22443.230145362635, -10268.190237067967, 8016.408445406967, 3463.0004719496337, 4522.4061038978225, 11206.73998674631, -187500.02235174447, -0.1116875, 0.9574375, 0.20568750000000002, 192.0, 0.0, 0.0, 0.0, 0.0, 0.0, 0.0, 0.0, 0.0, 0.0, 1.7447422979108152E9, 0.0, 2025-04-15 13:38:17.910
234.0, -21773.773047181734, -4308.276392015981, 29271.956297392408, -17333.174327990335, -48913.77525493804, 40411.21636762814, -28670.940240733653, 61446.73364719554, -8298.68862613304, -22451.075607666447, -10255.092114817156, 8018.353047174579, 3467.4931725851507, 4534.453694159233, 11249.185949466939, -187500.02235174447, -0.1116875, 0.9574375, 0.20568750000000002, 192.0, 0.0, 0.0, 0.0, 0.0, 0.0, 0.0, 0.0, 0.0, 0.0, 1.7447422979188592E9, 0.0, 2025-04-15 13:38:17.918
236.0, -21770.30852679116, -4296.429967454668, 29297.057306415714, -17330.693284355795, -48936.52933079354, 40418.07835317592, -28649.639028267746, 61442.97855412705, -8299.448585444521, -22446.53820354202, -10273.55465573724, 8022.801044321185, 3455.5573410460165, 4507.564545579498, 11195.497059285291, -187500.02235174447, -0.1116875, 0.9574375, 0.20568750000000002, 192.0, 0.0, 0.0, 0.0, 0.0, 0.0, 0.0, 0.0, 0.0, 0.0, 1.7447422979278944E9, 0.0, 2025-04-15 13:38:17.927
238.0, -21764.854701144064, -4297.905182588718, 29285.50145453232, -17332.168499489846, -48929.53323477903, 40405.9860594256, -28669.129749432774, 61448.633545474244, -8306.578791925764, -22460.77626476005, -10250.062972314712, 8022.532823387722, 3454.395050334341, 4521.601441097431, 11239.306478417693, -187500.02235174447, -0.1116875, 0.9574375, 0.20568750000000002, 192.0, 0.0, 0.0, 0.0, 0.0, 0.0, 0.0, 0.0, 0.0, 0.0, 1.7447422979359612E9, 0.0, 2025-04-15 13:38:17.935
240.0, -21763.11126507655, -4297.011112810506, 29313.731707779374, -17330.894450055894, -48991.67108436479, 40408.444751315685, -28643.9616851761, 61405.82995484233, -8285.009358526393, -22441.06202615047, -10260.769457908806, 8024.723294344341, 3464.3192248724968, 4509.1962229247365, 11189.372681304536, -187500.02235174447, -0.11384375, 0.9587187500000001, 0.20584375000000002, 192.0, 126.0, 48.0, 15.0, 0.0, 3.0, 56.0, 0.0, 0.0, 0.0, 1.7447422979429843E9, 0.0, 2025-04-15 13:38:17.942
242.0, -21767.514558734245, -4305.638886170254, 29300.767695995295, -17343.38907520641, -48926.67221148875, 40412.646879273285, -28670.694371544647, 61438.86583314727, -8296.140527265135, -22455.411846090778, -10242.999821066836, 8019.9623727753615, 3470.8682859979017, 4522.5178626201, 11247.397809910513, -187500.02235174447, -0.11384375, 0.9587187500000001, 0.20584375000000002, 192.0, 0.0, 0.0, 0.0, 0.0, 0.0, 0.0, 0.0, 0.0, 0.0, 1.7447422979510095E9, 0.0, 2025-04-15 13:38:17.951
244.0, -21775.605890227067, -4311.986781595562, 29305.930948964473, -17346.518319430153, -48997.50488966762, 40400.2863645895, -28659.29498187244, 61393.38003318072, -8296.341692965234, -22447.476976809143, -10267.966719623413, 8012.96627676085, 3459.4688963256954, 4497.528612319066, 11192.658387739468, -187500.02235174447, -0.11384375, 0.9587187500000001, 0.20584375000000002, 192.0, 0.0, 0.0, 0.0, 0.0, 0.0, 0.0, 0.0, 0.0, 0.0, 1.744742297959051E9, 0.0, 2025-04-15 13:38:17.959
246.0, -21757.322163262626, -4295.938229076652, 29302.93581520746, -17339.723389115738, -48941.44671457371, 40404.287326847, -28670.67201980019, 61413.58601016832, -8301.616704656686, -22459.189290903723, -10248.520701947296, 8010.999323248783, 3467.4931725851507, 4512.124301448382, 11246.771961065766, -187500.02235174447, -0.11384375, 0.9587187500000001, 0.20584375000000002, 192.0, 0.0, 0.0, 0.0, 0.0, 0.0, 0.0, 0.0, 0.0, 0.0, 1.744742297967111E9, 0.0, 2025-04-15 13:38:17.967
248.0, -21756.249279528773, -4294.977104065073, 29307.160294909514, -17325.79825232008, -49074.14902140487, 40391.70329471866, -28647.157984633206, 61332.85150919575, -8281.410727669088, -22439.76562497206, -10260.07655383069, 8015.134395973015, 3464.54274231705, 4495.204030895714, 11191.02671039423, -187500.02235174447, -0.11384375, 0.9587187500000001, 0.20584375000000002, 192.0, 0.0, 0.0, 0.0, 0.0, 0.0, 0.0, 0.0, 0.0, 0.0, 1.7447422979751732E9, 0.0, 2025-04-15 13:38:17.975
250.0, -21762.396009253982, -4295.915877332196, 29301.639414029054, -17324.412444163852, -48978.841183047436, 40429.74596378159, -28654.802281236924, 61401.85134432928, -8294.553553408809, -22453.176671645248, -10240.831701854671, 8021.124663487038, 3471.225913909187, 4522.495510875644, 11256.673783859467, -187500.02235174447, -0.11384375, 0.9587187500000001, 0.20584375000000002, 192.0, 0.0, 0.0, 0.0, 0.0, 0.0, 0.0, 0.0, 0.0, 0.0, 1.744742297983179E9, 0.0, 2025-04-15 13:38:17.983
252.0, -21771.35905878056, -4308.030522826973, 29291.5140737908, -17326.737025587205, -49123.345210950996, 40400.2863645895, -28655.159909148206, 61325.40837829213, -8287.445698672022, -22442.96192442917, -10268.525513234796, 8013.078035483127, 3456.9431492022454, 4501.373112365379, 11198.112213386561, -187500.02235174447, -0.12, 0.9580000000000001, 0.20400000000000001, 192.0, 126.0, 32.0, 14.5, 120.0, 3.0, 48.0, 0.0, 0.0, 0.0, 1.744742297990238E9, 0.0, 2025-04-15 13:38:17.990
254.0, -21777.17051233894, -4310.80213913943, 29291.357611579613, -17332.3920169344, -49006.93732582776, 40432.13760043831, -28661.61956329579, 61406.36639670926, -8309.484518704954, -22468.129988685847, -10261.976452109391, 8005.701959812875, 3455.087954412455, 4514.448882871733, 11242.189853452428, -187500.02235174447, -0.12, 0.9580000000000001, 0.20400000000000001, 192.0, 0.0, 0.0, 0.0, 0.0, 0.0, 0.0, 0.0, 0.0, 0.0, 1.7447422979992697E9, 0.0, 2025-04-15 13:38:17.999
0.0, -21756.070465573128, -4300.743854134543, 29303.449905329933, -17315.270580681634, -49193.30617109611, 40390.00456214006, -28663.854737741323, 61293.020700576395, -8294.531201664353, -22439.855031949883, -10275.521609249308, 8008.786500547708, 3449.120038642888, 4499.920248975784, 11196.301722085682, -187500.02235174447, -0.12, 0.9580000000000001, 0.20400000000000001, 192.0, 0.0, 0.0, 0.0, 0.0, 0.0, 0.0, 0.0, 0.0, 0.0, 1.744742298007288E9, 0.0, 2025-04-15 13:38:18.007
2.0, -21757.702142918366, -4298.709845389109, 29314.71518453541, -17316.276409182123, -49093.17035593634, 40432.45052486069, -28645.168679376686, 61353.30335537236, -8293.100690019213, -22445.867651208362, -10245.369105979098, 8021.862271054062, 3475.7856697780694, 4522.428455642278, 11244.514434875779, -187500.02235174447, -0.12, 0.9580000000000001, 0.20400000000000001, 192.0, 0.0, 0.0, 0.0, 0.0, 0.0, 0.0, 0.0, 0.0, 0.0, 1.7447422980153437E9, 0.0, 2025-04-15 13:38:18.015
4.0, -21753.432959727405, -4297.256981999514, 29301.214730884403, -17316.723444071227, -49259.735555617284, 40390.1833760957, -28658.892650472244, 61251.3570489117, -8282.327149191755, -22433.10480512438, -10255.226225283888, 8026.086750756115, 3466.800268507036, 4510.89495550334, 11213.73608276082, -187500.02235174447, -0.12, 0.9580000000000001, 0.20400000000000001, 192.0, 0.0, 0.0, 0.0, 0.0, 0.0, 0.0, 0.0, 0.0, 0.0, 1.7447422980223775E9, 0.0, 2025-04-15 13:38:18.022
6.0, -21763.96063136585, -4303.2248977690815, 29317.307986892225, -17320.94792377328, -49140.66781290386, 40425.56618756845, -28648.320275344882, 61323.73199745799, -8282.997701525415, -22453.1990233897, -10243.469207700397, 8028.21016647937, 3476.3221116449968, 4514.739455549652, 11241.452245885403, -187500.02235174447, -0.11800000000000001, 0.9560000000000001, 0.20600000000000002, 192.0, 126.0, 40.0, 14.5, 112.0, 3.0, 56.0, 0.0, 0.0, 0.0, 1.7447422980314343E9, 0.0, 2025-04-15 13:38:18.031
8.0, -21756.986887095798, -4305.415368725702, 29307.987309454362, -17317.41634814934, -49290.69272168788, 40384.4836812596, -28654.846984725835, 61231.24047890193, -8280.650768357607, -22444.079511651937, -10253.907472361025, 8021.325829187135, 3468.0072627076224, 4504.167080422292, 11220.262792141772, -187500.02235174447, -0.11800000000000001, 0.9560000000000001, 0.20600000000000002, 192.0, 0.0, 0.0, 0.0, 0.0, 0.0, 0.0, 0.0, 0.0, 0.0, 1.744742298038457E9, 0.0, 2025-04-15 13:38:18.038
10.0, -21765.502901733267, -4302.308476246414, 29322.784164283774, -17319.696226083783, -49175.17890634286, 40427.75665852507, -28649.214345123095, 61299.01096809041, -8283.288274203334, -22451.76851174456, -10244.318573989698, 8023.91863154395, 3475.7186145447035, 4512.571336337488, 11239.194719695417, -187500.02235174447, -0.11800000000000001, 0.9560000000000001, 0.20600000000000002, 192.0, 0.0, 0.0, 0.0, 0.0, 0.0, 0.0, 0.0, 0.0, 0.0, 1.7447422980465028E9, 0.0, 2025-04-15 13:38:18.046
12.0, -21771.96255588085, -4317.217089798104, 29296.677326759975, -17323.898354041383, -49301.890945659994, 40386.60709698285, -28669.15210117723, 61221.53982180832, -8286.372814938166, -22448.996895432105, -10253.303975260733, 8017.414273907456, 3464.54274231705, 4508.883298502362, 11223.45909159888, -187500.02235174447, -0.11800000000000001, 0.9560000000000001, 0.20600000000000002, 192.0, 0.0, 0.0, 0.0, 0.0, 0.0, 0.0, 0.0, 0.0, 0.0, 1.744742298054608E9, 0.0, 2025-04-15 13:38:18.054
14.0, -21774.622413471036, -4312.299706017936, 29317.062117703215, -17319.942095272792, -49211.724008527286, 40425.18620791271, -28647.42620556667, 61273.03824103335, -8289.189134739534, -22451.030904177536, -10256.388515995564, 8022.935154787917, 3464.0063004501226, 4509.933830491761, 11222.542670076213, -187500.02235174447, -0.11800000000000001, 0.9560000000000001, 0.20600000000000002, 192.0, 0.0, 0.0, 0.0, 0.0, 0.0, 0.0, 0.0, 0.0, 0.0, 1.7447422980636067E9, 0.0, 2025-04-15 13:38:18.063
16.0, -21773.8401024151, -4317.887642131763, 29291.491722046343, -17326.111176742455, -49294.269000800734, 40388.663457472736, -28672.840139012354, 61223.663237531575, -8298.420405199577, -22457.401151347298, -10260.456533486431, 8014.285029683713, 3454.1044776564217, 4508.548022335533, 11225.470748599857, -187500.02235174447, -0.108, 0.9540000000000001, 0.20400000000000001, 192.0, 126.0, 80.0, 14.5, 104.0, 3.0, 48.0, 0.0, 0.0, 0.0, 1.744742298070613E9, 0.0, 2025-04-15 13:38:18.070
18.0, -21768.900366890477, -4310.086883316861, 29322.04655671675, -17326.692322098294, -49236.91442452841, 40421.20759739967, -28642.307656086406, 61257.52613038137, -8284.271750959368, -22447.700494253695, -10256.299109017744, 8021.974029776339, 3467.11319292941, 4507.229269412669, 11210.964466448364, -187500.02235174447, -0.108, 0.9540000000000001, 0.20400000000000001, 192.0, 0.0, 0.0, 0.0, 0.0, 0.0, 0.0, 0.0, 0.0, 0.0, 1.744742298078728E9, 0.0, 2025-04-15 13:38:18.078
20.0, -21766.39697151148, -4312.657333929221, 29301.840579729153, -17335.27539196913, -49293.33022753361, 40390.71981796263, -28672.236641912063, 61225.78665325483, -8296.006416798404, -22461.759741516085, -10250.241786270355, 8007.467747624844, 3458.1948468917426, 4508.413911868801, 11234.836129526631, -187500.02235174447, -0.108, 0.9540000000000001, 0.20400000000000001, 192.0, 0.0, 0.0, 0.0, 0.0, 0.0, 0.0, 0.0, 0.0, 0.0, 1.744742298086799E9, 0.0, 2025-04-15 13:38:18.086
22.0, -21773.661288459458, -4308.94694434964, 29321.778335783285, -17331.38618843391, -49239.86485479651, 40416.71489676415, -28634.059862382397, 61259.42602866007, -8279.935512535038, -22445.308857596978, -10250.308841503722, 8023.87392805504, 3468.119021429899, 4503.2730106440795, 11219.055797941184, -187500.02235174447, -0.108, 0.9540000000000001, 0.20400000000000001, 192.0, 0.0, 0.0, 0.0, 0.0, 0.0, 0.0, 0.0, 0.0, 0.0, 1.7447422980947669E9, 0.0, 2025-04-15 13:38:18.094
24.0, -21772.566052981147, -4316.390075253257, 29289.45771330091, -17328.435758165808, -49253.11943925851, 40389.40106503976, -28671.074351200386, 61244.83033953075, -8298.420405199577, -22460.239822893123, -10250.97939383738, 8018.978896019327, 3462.0393469380556, 4510.783196781063, 11244.715600575877, -187500.02235174447, -0.108, 0.9540000000000001, 0.20400000000000001, 192.0, 0.0, 0.0, 0.0, 0.0, 0.0, 0.0, 0.0, 0.0, 0.0, 1.744742298102787E9, 0.0, 2025-04-15 13:38:18.102
26.0, -21769.012125612753, -4307.605839682322, 29319.85608576013, -17315.963484759748, -49242.480008897786, 40406.05311465897, -28635.400967049714, 61243.735104052445, -8286.17164923807, -22441.01732266156, -10257.50610321833, 8025.393846678001, 3467.8508004964356, 4502.267182143591, 11207.187021635416, -187500.02235174447, -0.106, 0.9560000000000001, 0.202, 192.0, 126.0, 88.0, 14.5, 112.0, 3.0, 40.0, 0.0, 0.0, 0.0, 1.7447422981108236E9, 0.0, 2025-04-15 13:38:18.110
28.0, -21768.386276768004, -4313.193775796149, 29309.015489699304, -17313.683606825307, -49231.59470934805, 40396.218347098635, -28654.355246347815, 61238.57185108327, -8283.3553294367, -22449.600392532397, -10233.12035001759, 8028.076056012637, 3474.891599999857, 4527.502301633633, 11259.981842038851, -187500.02235174447, -0.106, 0.9560000000000001, 0.202, 192.0, 0.0, 0.0, 0.0, 0.0, 0.0, 0.0, 0.0, 0.0, 0.0, 1.7447422981188717E9, 0.0, 2025-04-15 13:38:18.118
30.0, -21763.759465665757, -4304.700112903132, 29328.819135286707, -17301.52425784162, -49271.693738900874, 40402.655649501765, -28633.456365282105, 61201.155030865084, -8276.023957255358, -22435.384683058823, -10251.180559537479, 8026.869061812051, 3469.6612917973152, 4514.918269505295, 11210.539783303713, -187500.02235174447, -0.106, 0.9560000000000001, 0.202, 192.0, 0.0, 0.0, 0.0, 0.0, 0.0, 0.0, 0.0, 0.0, 0.0, 1.7447422981259048E9, 0.0, 2025-04-15 13:38:18.125
32.0, -21774.577709982124, -4313.931383363174, 29310.13307692207, -17308.788574789593, -49212.93100272787, 40410.1881873832, -28645.302789843416, 61235.57671732626, -8283.198867225512, -22444.951229685692, -10230.2146232384, 8029.953602546883, 3479.406652379829, 4539.684002361775, 11267.939063064941, -187500.02235174447, -0.106, 0.9560000000000001, 0.202, 192.0, 0.0, 0.0, 0.0, 0.0, 0.0, 0.0, 0.0, 0.0, 0.0, 1.744742298134949E9, 0.0, 2025-04-15 13:38:18.134
34.0, -21769.79443666869, -4312.500871718034, 29318.827905515183, -17303.200638675768, -49274.84533486907, 40403.773236724526, -28638.99959790702, 61190.78382143782, -8286.506925404898, -22438.849203449394, -10257.193178795957, 8021.437587909411, 3463.5592655610167, 4515.32060090549, 11207.589353035612, -187500.02235174447, -0.106, 0.9560000000000001, 0.202, 192.0, 0.0, 0.0, 0.0, 0.0, 0.0, 0.0, 0.0, 0.0, 0.0, 1.7447422981429975E9, 0.0, 2025-04-15 13:38:18.142
36.0, -21763.468892987836, -4317.239441542559, 29318.336167137168, -17308.475650367218, -49196.23424961975, 40415.59730954139, -28651.494223057536, 61236.00140047091, -8285.903428304604, -22440.25736335008, -10230.415788938499, 8030.355933947079, 3472.8575912544243, 4536.510054649121, 11261.300594961715, -187500.02235174447, -0.108, 0.9560000000000001, 0.194, 192.0, 126.0, 80.0, 14.5, 112.0, 3.0, 8.0, 0.0, 0.0, 0.0, 1.7447422981500363E9, 0.0, 2025-04-15 13:38:18.150
38.0, -21773.59423322609, -4322.670915445199, 29320.258417160323, -17322.914877285348, -49280.52267796072, 40390.02691388451, -28647.381502077762, 61182.17839982252, -8279.242608456923, -22437.217526104156, -10249.526530447785, 8022.421064665445, 3467.0684894405, 4506.603420567921, 11201.93436168842, -187500.02235174447, -0.108, 0.9560000000000001, 0.194, 192.0, 0.0, 0.0, 0.0, 0.0, 0.0, 0.0, 0.0, 0.0, 0.0, 1.7447422981580565E9, 0.0, 2025-04-15 13:38:18.158
40.0, -21771.336707036106, -4323.4755782455895, 29326.00281548534, -17327.85461280997, -49156.559903211586, 40414.83735022991, -28650.890725957244, 61260.722429838475, -8286.842201571728, -22458.518738570063, -10232.539204661753, 8020.1411867310035, 3474.578675577483, 4518.539252107054, 11256.763190837288, -187500.02235174447, -0.108, 0.9560000000000001, 0.194, 192.0, 0.0, 0.0, 0.0, 0.0, 0.0, 0.0, 0.0, 0.0, 0.0, 1.7447422981671207E9, 0.0, 2025-04-15 13:38:18.167
42.0, -21764.139445321496, -4315.205432797126, 29333.580056855688, -17315.38233940391, -49267.357500476544, 40393.11145461934, -28635.602132749813, 61197.377586052135, -8273.766431065373, -22438.983313916127, -10250.755876392828, 8021.68345709842, 3472.3658528764076, 4501.887202487851, 11204.773033234243, -187500.02235174447, -0.108, 0.9560000000000001, 0.194, 192.0, 0.0, 0.0, 0.0, 0.0, 0.0, 0.0, 0.0, 0.0, 0.0, 1.7447422981751533E9, 0.0, 2025-04-15 13:38:18.175
44.0, -21755.60107893957, -4307.829357126875, 29341.738443581875, -17311.64959807987, -49164.42771725985, 40424.98504221261, -28633.27755132646, 61257.32496468127, -8266.01037573938, -22434.53531676952, -10219.508137644309, 8041.218881752358, 3488.503812373139, 4536.264185460113, 11262.351126951115, -187500.02235174447, -0.108, 0.9560000000000001, 0.194, 192.0, 0.0, 0.0, 0.0, 0.0, 0.0, 0.0, 0.0, 0.0, 0.0, 1.744742298182211E9, 0.0, 2025-04-15 13:38:18.182
46.0, -21772.96838438134, -4323.453226501135, 29316.905655492028, -17335.834185580516, -49270.576151678106, 40382.76259693654, -28667.587479065358, 61201.222086098445, -8276.046308999814, -22439.58681101642, -10247.224300768888, 8020.1411867310035, 3462.799306249536, 4511.7219700481855, 11216.5971060511, -187500.02235174447, -0.114, 0.9580000000000001, 0.194, 192.0, 126.0, 56.0, 14.5, 120.0, 3.0, 8.0, 0.0, 0.0, 0.0, 1.7447422981902485E9, 0.0, 2025-04-15 13:38:18.190
48.0, -21772.23077681432, -4315.85363338633, 29330.71903356541, -17328.838089566005, -49144.55701643909, 40420.00060319908, -28655.852813226324, 61271.40656368811, -8275.822791555262, -22443.990104674114, -10230.706361616418, 8022.532823387722, 3474.221047666198, 4528.910461534317, 11249.163597722483, -187500.02235174447, -0.114, 0.9580000000000001, 0.194, 192.0, 0.0, 0.0, 0.0, 0.0, 0.0, 0.0, 0.0, 0.0, 0.0, 1.7447422981993124E9, 0.0, 2025-04-15 13:38:18.199
50.0, -21790.425096800936, -4340.1499796092485, 29307.5179228208, -17334.068397768548, -49243.21761646481, 40393.357323808355, -28657.842118482844, 61223.037388686826, -8285.948131793515, -22455.098921668403, -10255.874425873093, 8012.899221527484, 3454.7526782456257, 4507.65395255732, 11213.624324038545, -187500.02235174447, -0.114, 0.9580000000000001, 0.194, 192.0, 0.0, 0.0, 0.0, 0.0, 0.0, 0.0, 0.0, 0.0, 0.0, 1.744742298206316E9, 0.0, 2025-04-15 13:38:18.206
52.0, -21784.859512431565, -4324.302592790436, 29322.292425905758, -17319.67387433933, -49095.584344337505, 40434.99862372859, -28653.10354865832, 61307.32581702779, -8298.755681366407, -22455.92593621325, -10246.844321113149, 8018.2636401967575, 3456.250245124131, 4520.640316085854, 11247.353106421604, -187500.02235174447, -0.114, 0.9580000000000001, 0.194, 192.0, 0.0, 0.0, 0.0, 0.0, 0.0, 0.0, 0.0, 0.0, 0.0, 1.7447422982143502E9, 0.0, 2025-04-15 13:38:18.214
54.0, -21785.17243685394, -4336.171369096204, 29310.84833274464, -17319.204487705767, -49218.138959185955, 40390.31748656243, -28665.508766831015, 61230.27935389035, -8290.396128940121, -22444.280677352035, -10255.896777617549, 8020.118834986549, 3449.410611320807, 4513.577164837976, 11216.17242290645, -187500.02235174447, -0.114, 0.9580000000000001, 0.194, 192.0, 0.0, 0.0, 0.0, 0.0, 0.0, 0.0, 0.0, 0.0, 0.0, 1.7447422982223747E9, 0.0, 2025-04-15 13:38:18.222
56.0, -21789.195750855895, -4327.387133525269, 29334.317664422713, -17313.840069036494, -49062.54846603257, 40437.01028072957, -28637.14440311723, 61323.12850035769, -8286.194000982523, -22447.83460472043, -10239.468245442897, 8029.484215913322, 3469.9518644752343, 4526.027086499583, 11248.023658755263, -187500.02235174447, -0.112, 0.9520000000000001, 0.194, 192.0, 126.0, 64.0, 14.5, 96.0, 3.0, 8.0, 0.0, 0.0, 0.0, 1.744742298230461E9, 0.0, 2025-04-15 13:38:18.230
58.0, -21780.299756562683, -4330.8740056602965, 29319.94549273795, -17309.548534101075, -49168.33927253953, 40395.458387787156, -28647.9626474336, 61260.25304320491, -8292.83246908575, -22450.405055332787, -10243.558614678219, 8026.220861222847, 3457.8148672360026, 4514.18066193827, 11242.994516252818, -187500.02235174447, -0.112, 0.9520000000000001, 0.194, 192.0, 0.0, 0.0, 0.0, 0.0, 0.0, 0.0, 0.0, 0.0, 0.0, 1.7447422982384737E9, 0.0, 2025-04-15 13:38:18.238
60.0, -21789.732192722822, -4327.051857358439, 29337.80453655774, -17312.878944024917, -49037.492160498165, 40432.87520800534, -28629.99184489153, 61340.31699184382, -8280.4048991686, -22446.82877621994, -10227.063027270202, 8036.055628783182, 3472.701129043237, 4524.127188220881, 11254.438609413935, -187500.02235174447, -0.112, 0.9520000000000001, 0.194, 192.0, 0.0, 0.0, 0.0, 0.0, 0.0, 0.0, 0.0, 0.0, 0.0, 1.7447422982466025E9, 0.0, 2025-04-15 13:38:18.246
62.0, -21782.624337986035, -4331.9915928830615, 29317.866780503606, -17314.868249281437, -49142.90298734939, 40384.90836440425, -28645.68276949916, 61272.83707533325, -8285.814021326783, -22452.30495361149, -10234.863786085103, 8026.802006578685, 3461.7934777490473, 4514.94062124975, 11244.849711042609, -187500.02235174447, -0.112, 0.9520000000000001, 0.194, 192.0, 0.0, 0.0, 0.0, 0.0, 0.0, 0.0, 0.0, 0.0, 0.0, 1.7447422982545924E9, 0.0, 2025-04-15 13:38:18.254
64.0, -21799.432849816425, -4336.5066452630335, 29332.19424869946, -17317.86338303845, -49024.774017903095, 40424.448600345684, -28626.61673147878, 61341.747503488965, -8290.530239406853, -22456.01534319107, -10235.35552446312, 8027.986649034817, 3469.9742162196894, 4512.459577615211, 11241.295783674215, -187500.02235174447, -0.112, 0.9520000000000001, 0.194, 192.0, 0.0, 0.0, 0.0, 0.0, 0.0, 0.0, 0.0, 0.0, 0.0, 1.7447422982615867E9, 0.0, 2025-04-15 13:38:18.261
66.0, -21788.7934194557, -4340.485255776079, 29313.2176176569, -17311.71665331324, -49087.403605866864, 40398.40881805525, -28650.466042812594, 61298.78745064586, -8298.06277728829, -22460.39628510431, -10240.87640534358, 8022.152843731981, 3454.775029990081, 4514.739455549652, 11255.980879781351, -187500.02235174447, -0.113, 0.956, 0.194, 192.0, 126.0, 56.0, 15.0, 0.0, 3.0, 8.0, 0.0, 0.0, 0.0, 1.7447422982706306E9, 0.0, 2025-04-15 13:38:18.270
68.0, -21791.92266367944, -4330.918709149207, 29341.67138834851, -17303.22299042022, -49025.6233841924, 40442.709975565675, -28612.177504560652, 61333.075026640305, -8281.164858480079, -22438.983313916127, -10240.652887899028, 8030.043009524705, 3469.0130912081113, 4520.550909108032, 11240.625231340557, -187500.02235174447, -0.113, 0.956, 0.194, 192.0, 0.0, 0.0, 0.0, 0.0, 0.0, 0.0, 0.0, 0.0, 0.0, 1.744742298278688E9, 0.0, 2025-04-15 13:38:18.278
70.0, -21804.596102785603, -4352.912825693229, 29309.440172843955, -17312.566019602542, -49074.193724893776, 40415.70906826366, -28636.540906016937, 61300.016796590906, -8286.462221915986, -22451.075607666447, -10235.400227952032, 8021.638753609509, 3465.0344806950666, 4527.591708611454, 11270.420106699481, -187500.02235174447, -0.113, 0.956, 0.194, 192.0, 0.0, 0.0, 0.0, 0.0, 0.0, 0.0, 0.0, 0.0, 0.0, 1.7447422982867312E9, 0.0, 2025-04-15 13:38:18.286
72.0, -21811.592198800114, -4352.3540320818465, 29321.420707872, -17319.070377239033, -49047.483390269685, 40430.28240564852, -28621.43112676515, 61313.785471175375, -8294.911181320093, -22458.87636648135, -10257.953138107436, 8003.690302811898, 3454.059774167511, 4507.2069176682135, 11227.50475734529, -187500.02235174447, -0.113, 0.956, 0.194, 192.0, 0.0, 0.0, 0.0, 0.0, 0.0, 0.0, 0.0, 0.0, 0.0, 1.7447422982937536E9, 0.0, 2025-04-15 13:38:18.293
74.0, -21808.41825108746, -4354.253930360547, 29303.13698090756, -17319.85268829497, -49090.39873962387, 40404.55554778046, -28639.29017058494, 61283.76707837189, -8298.733329621951, -22462.2514798941, -10245.614975168106, 8010.284067426213, 3459.580655047972, 4518.114568962404, 11255.17621698096, -187500.02235174447, -0.113, 0.956, 0.194, 192.0, 0.0, 0.0, 0.0, 0.0, 0.0, 0.0, 0.0, 0.0, 0.0, 1.7447422983027925E9, 0.0, 2025-04-15 13:38:18.302
76.0, -21817.247190147304, -4361.205322886148, 29322.448888116945, -17321.484365640208, -49109.509481133166, 40413.71976300714, -28623.196914577118, 61274.133476511655, -8297.526335421364, -22455.992991446616, -10263.451667243442, 8010.708750570864, 3453.2551113671198, 4499.048530942026, 11217.93821071842, -187500.02235174447, -0.1145, 0.958, 0.196, 192.0, 126.0, 48.0, 15.0, 0.0, 3.0, 24.0, 0.0, 0.0, 0.0, 1.7447422983108432E9, 0.0, 2025-04-15 13:38:18.310
78.0, -21824.98089372884, -4370.481296835101, 29305.79683849774, -17332.637886123408, -49064.85069571146, 40406.16487338125, -28657.19391789364, 61298.76509890141, -8299.180364511058, -22470.476921853653, -10247.045486813246, 8005.5231458572325, 3457.0772596689776, 4511.833728770463, 11254.572719880667, -187500.02235174447, -0.1145, 0.958, 0.196, 192.0, 0.0, 0.0, 0.0, 0.0, 0.0, 0.0, 0.0, 0.0, 0.0, 1.744742298317892E9, 0.0, 2025-04-15 13:38:18.317
80.0, -21809.35702435458, -4358.143133895771, 29332.95420801094, -17313.840069036494, -49093.46092861425, 40409.227062371625, -28630.349472802816, 61267.45030491952, -8297.503983676908, -22472.242709665625, -10271.006556869335, 7987.395881103979, 3450.9081781993127, 4485.83864996894, 11198.872172698042, -187500.02235174447, -0.1145, 0.958, 0.196, 192.0, 0.0, 0.0, 0.0, 0.0, 0.0, 0.0, 0.0, 0.0, 0.0, 1.7447422983259227E9, 0.0, 2025-04-15 13:38:18.325
82.0, -21817.40365235849, -4368.62610204531, 29319.632568315577, -17329.218069221744, -49010.55830842952, 40414.85970197436, -28647.7614817335, 61300.37442450219, -8292.877172574661, -22463.43612235023, -10239.535300676263, 8009.2782389257245, 3477.7302715456813, 4522.540214364554, 11267.357917709103, -187500.02235174447, -0.1145, 0.958, 0.196, 192.0, 0.0, 0.0, 0.0, 0.0, 0.0, 0.0, 0.0, 0.0, 0.0, 1.7447422983349755E9, 0.0, 2025-04-15 13:38:18.334
84.0, -21796.951806181885, -4351.4152588147235, 29327.94741725295, -17325.127699986424, -49067.15292539036, 40396.26305058754, -28637.837307195343, 61241.566984840276, -8306.243515758933, -22461.35741011589, -10276.773306938805, 7994.123756185027, 3452.808076478014, 4485.592780779932, 11209.913934458964, -187500.02235174447, -0.1145, 0.958, 0.196, 192.0, 0.0, 0.0, 0.0, 0.0, 0.0, 0.0, 0.0, 0.0, 0.0, 1.7447422983420064E9, 0.0, 2025-04-15 13:38:18.342
86.0, -21795.02955615873, -4357.182008884193, 29321.621873572098, -17330.112138999957, -48938.697450005704, 40417.65367003127, -28648.43203406716, 61298.65334017913, -8294.26298073089, -22463.659639794787, -10243.804483867227, 8012.362779660557, 3476.2997599005416, 4513.532461349066, 11264.631004885556, -187500.02235174447, -0.11525, 0.961, 0.195, 192.0, 126.0, 48.0, 15.0, 16.0, 3.0, 8.0, 0.0, 0.0, 0.0, 1.74474229835004E9, 0.0, 2025-04-15 13:38:18.350
88.0, -21769.369753524035, -4337.9148051637185, 29332.12719346609, -17314.354159158964, -49033.446494751755, 40390.496300518076, -28627.913132657188, 61225.96546721047, -8291.759585351896, -22450.06977916596, -10266.379745767086, 7997.409462619957, 3459.4018410923295, 4487.716196503186, 11199.07333839814, -187500.02235174447, -0.11525, 0.961, 0.195, 192.0, 0.0, 0.0, 0.0, 0.0, 0.0, 0.0, 0.0, 0.0, 0.0, 1.7447422983590724E9, 0.0, 2025-04-15 13:38:18.359
90.0, -21778.55632049517, -4347.213130857126, 29315.76571652481, -17324.81477556405, -48885.90262960227, 40428.22604515863, -28632.85286818181, 61323.486128268974, -8298.576867410764, -22456.507081569085, -10235.444931440941, 8022.197547220892, 3473.25992265462, 4519.098045718437, 11263.312251962692, -187500.02235174447, -0.11525, 0.961, 0.195, 192.0, 0.0, 0.0, 0.0, 0.0, 0.0, 0.0, 0.0, 0.0, 0.0, 1.7447422983671243E9, 0.0, 2025-04-15 13:38:18.367
92.0, -21778.086933861607, -4345.201473856148, 29304.925120463984, -17333.2413832237, -48983.33388368296, 40397.38063781031, -28632.986978648543, 61284.86231385021, -8307.919896593083, -22460.77626476005, -10268.614920212618, 7998.147070186981, 3445.677869996771, 4488.498507559122, 11208.773995491743, -187500.02235174447, -0.11525, 0.961, 0.195, 192.0, 0.0, 0.0, 0.0, 0.0, 0.0, 0.0, 0.0, 0.0, 0.0, 1.744742298374149E9, 0.0, 2025-04-15 13:38:18.374
94.0, -21762.373657509524, -4333.578566739388, 29325.108745707126, -17327.51933664314, -48882.05812955596, 40421.07348693293, -28632.204667592607, 61348.453026825555, -8301.326131978767, -22459.703381026196, -10248.140722291557, 8010.373474404035, 3469.437774352762, 4514.426531127278, 11254.03627801374, -187500.02235174447, -0.11525, 0.961, 0.195, 192.0, 0.0, 0.0, 0.0, 0.0, 0.0, 0.0, 0.0, 0.0, 0.0, 1.7447422983822837E9, 0.0, 2025-04-15 13:38:18.382
96.0, -21747.06271255764, -4327.4094852697235, 29327.05334747474, -17322.400787162875, -49034.16175057433, 40386.51769000503, -28621.76640293198, 61267.293842708335, -8285.814021326783, -22441.68787499522, -10258.467228229909, 8019.090654741604, 3465.3250533729856, 4501.574278065476, 11216.910030473475, -187500.02235174447, -0.112625, 0.9615, 0.1965, 192.0, 126.0, 72.0, 15.0, 8.0, 3.0, 24.0, 0.0, 0.0, 0.0, 1.7447422983912473E9, 0.0, 2025-04-15 13:38:18.391
98.0, -21741.58653516609, -4309.192813538649, 29342.163126726526, -17317.930438271815, -48901.57120246544, 40434.99862372859, -28615.642024951223, 61345.32378260181, -8281.768355580372, -22441.553764528486, -10233.053294784224, 8031.898204314495, 3482.73706230367, 4525.200071954736, 11264.318080463181, -187500.02235174447, -0.112625, 0.9615, 0.1965, 192.0, 0.0, 0.0, 0.0, 0.0, 0.0, 0.0, 0.0, 0.0, 0.0, 1.7447422983973024E9, 0.0, 2025-04-15 13:38:18.397
100.0, -21737.719683375322, -4316.479482231079, 29334.585885356177, -17318.779804561116, -49036.933366886784, 40403.37090532433, -28617.51957148547, 61255.91680478059, -8278.929684034549, -22430.936685912216, -10248.118370547101, 8029.037181024216, 3474.6233790663937, 4515.767635794597, 11233.115045203573, -187500.02235174447, -0.112625, 0.9615, 0.1965, 192.0, 0.0, 0.0, 0.0, 0.0, 0.0, 0.0, 0.0, 0.0, 0.0, 1.7447422984063592E9, 0.0, 2025-04-15 13:38:18.406
102.0, -21746.12393929052, -4315.741874664053, 29345.627647117097, -17335.52126115814, -48877.25250449807, 40450.108402980375, -28620.51470524248, 61333.29854408486, -8281.902466047104, -22443.74423548511, -10235.042600040746, 8032.501701414789, 3489.576696106994, 4529.581013867976, 11271.649452644522, -187500.02235174447, -0.112625, 0.9615, 0.1965, 192.0, 0.0, 0.0, 0.0, 0.0, 0.0, 0.0, 0.0, 0.0, 0.0, 1.74474229841437E9, 0.0, 2025-04-15 13:38:18.414
104.0, -21742.59236366658, -4322.223880556093, 29327.701548063942, -17337.823490837036, -48981.97042727118, 40401.35924832335, -28653.081196913863, 61248.65248783261, -8290.709053362496, -22441.86668895086, -10247.98426008037, 8025.349143189091, 3468.2754836410863, 4513.152481693325, 11242.100446474606, -187500.02235174447, -0.112625, 0.9615, 0.1965, 192.0, 0.0, 0.0, 0.0, 0.0, 0.0, 0.0, 0.0, 0.0, 0.0, 1.7447422984224076E9, 0.0, 2025-04-15 13:38:18.422
106.0, -21743.486433444792, -4317.306496775925, 29344.800632572253, -17335.09657801349, -48844.37308840431, 40438.75371679708, -28635.177449605162, 61299.726223912985, -8293.4583179305, -22441.665523250762, -10241.792826866249, 8027.338448445613, 3475.7633180336143, 4517.421664884289, 11251.421123912469, -187500.02235174447, -0.11331250000000001, 0.9597500000000001, 0.19825, 192.0, 126.0, 56.0, 14.5, 120.0, 3.0, 32.0, 0.0, 0.0, 0.0, 1.7447422984294555E9, 0.0, 2025-04-15 13:38:18.429
108.0, -21745.6322009125, -4328.080037603383, 29325.55578059623, -17335.409502435865, -48925.35345856589, 40407.17070188173, -28644.6098857653, 61227.46303408898, -8291.580771396253, -22440.324418583445, -10247.581928680174, 8029.439512424411, 3466.1967714067428, 4516.952278250727, 11255.109161747594, -187500.02235174447, -0.11331250000000001, 0.9597500000000001, 0.19825, 192.0, 0.0, 0.0, 0.0, 0.0, 0.0, 0.0, 0.0, 0.0, 0.0, 1.7447422984385023E9, 0.0, 2025-04-15 13:38:18.438
110.0, -21740.603058410055, -4309.729255405576, 29347.169917484513, -17324.591258119497, -48807.000971675036, 40453.885847793325, -28612.244559794017, 61270.713659609995, -8290.574942895764, -22443.63247676283, -10248.520701947296, 8036.592070650109, 3476.992663978656, 4518.986286996161, 11258.238405971339, -187500.02235174447, -0.11331250000000001, 0.9597500000000001, 0.19825, 192.0, 0.0, 0.0, 0.0, 0.0, 0.0, 0.0, 0.0, 0.0, 0.0, 1.7447422984465976E9, 0.0, 2025-04-15 13:38:18.446
112.0, -21744.69342764538, -4324.146130579249, 29324.14762069555, -17327.072301754037, -48886.50612670257, 40424.98504221261, -28632.539943759435, 61203.79253671081, -8280.807230568795, -22430.869630678848, -10237.054257041724, 8041.464750941366, 3483.83229778198, 4531.2126912132135, 11265.100391519118, -187500.02235174447, -0.11331250000000001, 0.9597500000000001, 0.19825, 192.0, 0.0, 0.0, 0.0, 0.0, 0.0, 0.0, 0.0, 0.0, 0.0, 1.7447422984536033E9, 0.0, 2025-04-15 13:38:18.453
114.0, -21753.187090538395, -4324.771979423997, 29343.48187964939, -17330.603877377973, -48781.78820392945, 40449.683719835724, -28615.28439703994, 61255.51447338039, -8289.725576606463, -22439.34094182741, -10245.41380946801, 8030.78061709173, 3477.2608849121198, 4520.506205619122, 11254.058629758196, -187500.02235174447, -0.11331250000000001, 0.9597500000000001, 0.19825, 192.0, 0.0, 0.0, 0.0, 0.0, 0.0, 0.0, 0.0, 0.0, 0.0, 1.744742298461606E9, 0.0, 2025-04-15 13:38:18.461
116.0, -21766.106398833563, -4343.368630810814, 29301.28178611777, -17354.76611313416, -48784.82804117537, 40408.89178620479, -28664.413531352704, 61264.477522906964, -8305.50590819191, -22459.59162230392, -10249.772399636793, 8015.536727373211, 3462.7769545050805, 4520.03681898556, 11270.956548566408, -187500.02235174447, -0.11565625000000002, 0.957875, 0.195125, 192.0, 126.0, 40.0, 14.5, 112.0, 3.0, 0.0, 0.0, 0.0, 0.0, 1.7447422984706569E9, 0.0, 2025-04-15 13:38:18.470
118.0, -21748.96261083634, -4327.521243992001, 29331.456641132434, -17339.522223415643, -48735.02835452895, 40426.90729223577, -28629.097775113318, 61306.23058154948, -8295.224105742467, -22452.237898378124, -10264.144571321556, 8019.761207075264, 3459.670062025793, 4502.960086221706, 11227.102425945095, -187500.02235174447, -0.11565625000000002, 0.957875, 0.195125, 192.0, 0.0, 0.0, 0.0, 0.0, 0.0, 0.0, 0.0, 0.0, 0.0, 1.7447422984776993E9, 0.0, 2025-04-15 13:38:18.477
120.0, -21739.12784327601, -4331.8127789274195, 29321.308949149723, -17329.598048877484, -48757.447154217625, 40409.27176586053, -28644.98986542104, 61311.5726484743, -8287.713919605485, -22447.476976809143, -10239.289431487256, 8031.697038614398, 3471.292969142553, 4526.407066155322, 11271.738859622343, -187500.02235174447, -0.11565625000000002, 0.957875, 0.195125, 192.0, 0.0, 0.0, 0.0, 0.0, 0.0, 0.0, 0.0, 0.0, 0.0, 1.7447422984867504E9, 0.0, 2025-04-15 13:38:18.486
122.0, -21751.242488770782, -4330.538729493467, 29329.355577153634, -17335.3424472025, -48735.475389418054, 40425.655594546275, -28639.603095007315, 61343.490939556475, -8288.540934150331, -22439.273886594045, -10255.203873539433, 8031.182948491925, 3464.520390572595, 4513.398350882334, 11231.259850413782, -187500.02235174447, -0.11565625000000002, 0.957875, 0.195125, 192.0, 0.0, 0.0, 0.0, 0.0, 0.0, 0.0, 0.0, 0.0, 0.0, 1.744742298493801E9, 0.0, 2025-04-15 13:38:18.493
124.0, -21752.516538204734, -4335.344354551358, 29304.500437319333, -17341.578583905528, -48719.046857243404, 40421.60992879986, -28652.745920747035, 61373.86696027124, -8305.058873302803, -22457.378799602844, -10250.353544992631, 8019.0235995082385, 3456.987852691156, 4521.199109697236, 11274.532827679257, -187500.02235174447, -0.11565625000000002, 0.957875, 0.195125, 192.0, 0.0, 0.0, 0.0, 0.0, 0.0, 0.0, 0.0, 0.0, 0.0, 1.7447422985018296E9, 0.0, 2025-04-15 13:38:18.501
126.0, -21742.77117762222, -4326.671877702699, 29330.85314403214, -17324.591258119497, -48752.77563962647, 40433.16578068326, -28621.967568632077, 61359.27127114192, -8298.912143577594, -22446.806424475482, -10271.632405714085, 8021.057608253671, 3449.522370043084, 4504.636467055853, 11226.118949189062, -187500.02235174447, -0.11565625000000002, 0.957875, 0.195125, 192.0, 0.0, 0.0, 0.0, 0.0, 0.0, 0.0, 0.0, 0.0, 0.0, 1.7447422985108612E9, 0.0, 2025-04-15 13:38:18.510
128.0, -21738.05495954215, -4325.151959079738, 29326.203981185437, -17321.70788308476, -48722.10904623378, 40437.9937574856, -28641.011254907997, 61367.42965786811, -8295.335864464745, -22447.901659953794, -10242.97746932238, 8033.485178170822, 3465.9509022177344, 4535.079543003982, 11278.75730738131, -187500.02235174447, -0.11800000000000001, 0.962, 0.194, 192.0, 126.0, 40.0, 15.0, 8.0, 3.0, 8.0, 0.0, 0.0, 0.0, 1.7447422985178974E9, 0.0, 2025-04-15 13:38:18.517
130.0, -21737.183241508395, -4321.66508694471, 29339.74913832535, -17320.85851679546, -48774.501535237025, 40436.16091444027, -28612.95981561659, 61320.26747706741, -8284.271750959368, -22438.268058093556, -10257.796675896248, 8032.591108392609, 3463.156934160821, 4516.192318939247, 11228.734103290333, -187500.02235174447, -0.11800000000000001, 0.962, 0.194, 192.0, 0.0, 0.0, 0.0, 0.0, 0.0, 0.0, 0.0, 0.0, 0.0, 1.744742298525957E9, 0.0, 2025-04-15 13:38:18.525
132.0, -21749.946087592376, -4338.04891563045, 29315.22927465788, -17341.019790294147, -48677.472612556536, 40442.844086032404, -28639.9607229186, 61358.7795327639, -8290.485535917942, -22453.243726878613, -10235.55669016322, 8026.5337856452215, 3469.773050519592, 4536.934737793772, 11286.267493518293, -187500.02235174447, -0.11800000000000001, 0.962, 0.194, 192.0, 0.0, 0.0, 0.0, 0.0, 0.0, 0.0, 0.0, 0.0, 0.0, 1.7447422985339928E9, 0.0, 2025-04-15 13:38:18.533
134.0, -21749.25318351426, -4330.38226728228, 29329.33322540918, -17332.682589612315, -48751.83686635934, 40428.80719051447, -28623.688652955134, 61293.6689011656, -8290.418480684577, -22448.326343098444, -10270.067783602213, 8021.996381520794, 3458.932454458768, 4504.815281011496, 11225.694266044411, -187500.02235174447, -0.11800000000000001, 0.962, 0.194, 192.0, 0.0, 0.0, 0.0, 0.0, 0.0, 0.0, 0.0, 0.0, 0.0, 1.7447422985430868E9, 0.0, 2025-04-15 13:38:18.543
136.0, -21747.10741604655, -4326.850691658341, 29324.639359073564, -17332.213202978757, -48634.333745757795, 40453.77408907105, -28631.33294955885, 61355.1809019066, -8301.527297678864, -22460.999782204603, -10247.336059491165, 8023.2480792102915, 3470.8235825089914, 4532.37498192489, 11280.94777833793, -187500.02235174447, -0.11800000000000001, 0.962, 0.194, 192.0, 0.0, 0.0, 0.0, 0.0, 0.0, 0.0, 0.0, 0.0, 0.0, 1.7447422985500686E9, 0.0, 2025-04-15 13:38:18.550
138.0, -21743.68759914489, -4332.013944627517, 29326.539257352266, -17324.81477556405, -48755.88253210575, 40433.56811208345, -28624.783888433445, 61280.10139228123, -8278.616759612174, -22435.04940689199, -10259.227187541388, 8027.003172278783, 3468.409594107818, 4523.590746353954, 11227.683571300933, -187500.02235174447, -0.114, 0.9580000000000001, 0.194, 192.0, 126.0, 56.0, 14.5, 120.0, 3.0, 8.0, 0.0, 0.0, 0.0, 1.7447422985581765E9, 0.0, 2025-04-15 13:38:18.558
140.0, -21762.150140064972, -4346.00613665654, 29315.832771758174, -17339.23165073772, -48607.28813496687, 40456.72451933915, -28641.882972941756, 61380.125448718725, -8293.994759797426, -22456.64119203582, -10239.512948931808, 8030.2888787137135, 3473.1705156767985, 4539.929871550783, 11284.546409195234, -187500.02235174447, -0.114, 0.9580000000000001, 0.194, 192.0, 0.0, 0.0, 0.0, 0.0, 0.0, 0.0, 0.0, 0.0, 0.0, 1.7447422985661502E9, 0.0, 2025-04-15 13:38:18.566
142.0, -21762.060733087153, -4339.769999953509, 29313.508190334822, -17337.018828036646, -48745.198398256114, 40413.36213509586, -28651.04718816843, 61307.75050017244, -8288.49623066142, -22448.21458437617, -10266.022117855802, 8027.718428101352, 3459.290082370053, 4512.906612504317, 11223.526146832246, -187500.02235174447, -0.114, 0.9580000000000001, 0.194, 192.0, 0.0, 0.0, 0.0, 0.0, 0.0, 0.0, 0.0, 0.0, 0.0, 1.7447422985741801E9, 0.0, 2025-04-15 13:38:18.574
144.0, -21775.427076271426, -4358.411354829234, 29311.18360891147, -17353.067380555556, -48593.69827433804, 40443.17936219923, -28662.200708651628, 61416.22351601405, -8303.203678513013, -22467.72765728565, -10252.208739782422, 8020.387055920012, 3463.7827830055694, 4526.004734755127, 11256.51732164828, -187500.02235174447, -0.114, 0.9580000000000001, 0.194, 192.0, 0.0, 0.0, 0.0, 0.0, 0.0, 0.0, 0.0, 0.0, 0.0, 1.7447422985822427E9, 0.0, 2025-04-15 13:38:18.582
146.0, -21764.005334854763, -4352.868122204319, 29309.306062377225, -17345.646601396395, -48730.379191682245, 40396.53127152101, -28644.587534020848, 61340.51815754392, -8292.54189640783, -22463.234956650133, -10275.722774949405, 8006.77484354673, 3448.0248031645783, 4501.998961210127, 11207.298780357693, -187500.02235174447, -0.114, 0.9580000000000001, 0.194, 192.0, 0.0, 0.0, 0.0, 0.0, 0.0, 0.0, 0.0, 0.0, 0.0, 1.7447422985902677E9, 0.0, 2025-04-15 13:38:18.590
148.0, -21785.150085109482, -4355.90795945024, 29336.61989410161, -17333.219031479246, -48583.215306188504, 40456.277484450045, -28618.592455219325, 61426.885298119225, -8296.49815517642, -22456.171805402257, -10247.917204847003, 8026.891413556506, 3472.6564255543267, 4533.961955781217, 11265.055688030207, -187500.02235174447, -0.11, 0.962, 0.194, 192.0, 126.0, 72.0, 15.0, 8.0, 3.0, 8.0, 0.0, 0.0, 0.0, 1.7447422985983093E9, 0.0, 2025-04-15 13:38:18.598
150.0, -21798.181152126926, -4376.784488771497, 29308.90373097703, -17344.685476384817, -48686.480365572024, 40415.66436477475, -28647.023874166476, 61355.315012373336, -8315.810062385806, -22456.194157146714, -10275.02987087129, 8009.010017992261, 3454.5738642899832, 4513.286592160058, 11235.439626626925, -187500.02235174447, -0.11, 0.962, 0.194, 192.0, 0.0, 0.0, 0.0, 0.0, 0.0, 0.0, 0.0, 0.0, 0.0, 1.7447422986053631E9, 0.0, 2025-04-15 13:38:18.605
152.0, -21789.8439514451, -4359.059555418438, 29330.629626587586, -17333.4425489238, -48552.548712795826, 40462.89360080881, -28612.08809758283, 61413.116623534755, -8316.570021697285, -22449.890965210318, -10266.446801000453, 8022.06343675416, 3465.772088262092, 4523.747208565141, 11252.136379735039, -187500.02235174447, -0.11, 0.962, 0.194, 192.0, 0.0, 0.0, 0.0, 0.0, 0.0, 0.0, 0.0, 0.0, 0.0, 1.7447422986144092E9, 0.0, 2025-04-15 13:38:18.614
154.0, -21795.70010849239, -4368.179067156204, 29306.51209432031, -17330.447415166786, -48676.77970847842, 40429.991832970605, -28626.013234378486, 61325.2742678254, -8316.435911230554, -22429.48382252262, -10270.291301046766, 8033.239308981813, 3459.737117259159, 4529.13397897887, 11240.312306918182, -187500.02235174447, -0.11, 0.962, 0.194, 192.0, 0.0, 0.0, 0.0, 0.0, 0.0, 0.0, 0.0, 0.0, 0.0, 1.7447422986224372E9, 0.0, 2025-04-15 13:38:18.622
156.0, -21812.88859997852, -4390.3296459114135, 29312.23414090087, -17335.47655766923, -48532.99093639743, 40468.48153692264, -28602.633309678236, 61409.80856535537, -8333.13266433867, -22442.693703495708, -10276.974472638902, 8019.537689630711, 3452.182227633265, 4529.737476079164, 11252.784580324244, -187500.02235174447, -0.11, 0.962, 0.194, 192.0, 0.0, 0.0, 0.0, 0.0, 0.0, 0.0, 0.0, 0.0, 0.0, 1.744742298629484E9, 0.0, 2025-04-15 13:38:18.629
158.0, -21798.807000971676, -4382.8194597744305, 29303.159332652016, -17322.177269718322, -48637.23947253698, 40428.67308004774, -28641.34653107483, 61346.62018378022, -8336.552481240331, -22446.20292737519, -10282.875333175103, 8008.004189491772, 3435.574881502972, 4522.94254576475, 11244.357972664593, -187500.02235174447, -0.10400000000000001, 0.96, 0.194, 192.0, 126.0, 96.0, 15.0, 0.0, 3.0, 8.0, 0.0, 0.0, 0.0, 1.7447422986375096E9, 0.0, 2025-04-15 13:38:18.637
160.0, -21793.911968935965, -4366.614445044333, 29337.558667368732, -17309.57088584553, -48555.00740468591, 40469.50971716759, -28597.626518920246, 61402.94657980759, -8314.558364696308, -22428.165069599756, -10265.820952155704, 8031.026486280738, 3455.8702654683907, 4540.823941328996, 11248.850673300109, -187500.02235174447, -0.10400000000000001, 0.96, 0.194, 192.0, 0.0, 0.0, 0.0, 0.0, 0.0, 0.0, 0.0, 0.0, 0.0, 1.7447422986466105E9, 0.0, 2025-04-15 13:38:18.646
162.0, -21796.683585248422, -4376.113936437838, 29312.882341490073, -17314.15299345887, -48636.52421671441, 40437.63612957432, -28634.506897271505, 61369.46366661354, -8313.083149562259, -22428.276828322036, -10262.624652698596, 8028.1207595015485, 3450.7517159881254, 4547.641223387865, 11264.27337697427, -187500.02235174447, -0.10400000000000001, 0.96, 0.194, 192.0, 0.0, 0.0, 0.0, 0.0, 0.0, 0.0, 0.0, 0.0, 0.0, 1.7447422986546185E9, 0.0, 2025-04-15 13:38:18.654
164.0, -21791.140352623504, -4362.5687792979215, 29335.636417345577, -17311.604894590964, -48570.31834963779, 40463.94413279821, -28622.57106573237, 61426.77353939695, -8313.016094328892, -22426.354578298877, -10269.106658590634, 8031.719390358853, 3450.3940880768405, 4539.706354106231, 11237.473635372358, -187500.02235174447, -0.10400000000000001, 0.96, 0.194, 192.0, 0.0, 0.0, 0.0, 0.0, 0.0, 0.0, 0.0, 0.0, 0.0, 1.7447422986626832E9, 0.0, 2025-04-15 13:38:18.662
166.0, -21785.395954298492, -4368.000253200562, 29313.32937637918, -17323.20544996327, -48632.12092305672, 40424.873283490335, -28645.325141587873, 61400.57729489533, -8312.010265828403, -22433.01539814656, -10256.947309606947, 8028.388980435012, 3448.896521198335, 4546.054249531538, 11254.595071625123, -187500.02235174447, -0.10400000000000001, 0.96, 0.194, 192.0, 0.0, 0.0, 0.0, 0.0, 0.0, 0.0, 0.0, 0.0, 0.0, 1.7447422986696894E9, 0.0, 2025-04-15 13:38:18.669
168.0, -21795.253073603282, -4370.05661369045, 29336.977522012894, -17321.640827851395, -48597.5204226399, 40453.21529545967, -28606.120181813265, 61432.92026912216, -8309.640980916141, -22426.175764343236, -10265.217455055412, 8029.841843824607, 3457.054907924522, 4534.833673814974, 11230.544594591212, -187500.02235174447, -0.11, 0.966, 0.196, 192.0, 126.0, 72.0, 15.0, 24.0, 3.0, 16.0, 0.0, 0.0, 0.0, 1.7447422986787376E9, 0.0, 2025-04-15 13:38:18.678
170.0, -21791.7438497238, -4374.0128724590395, 29313.351728123635, -17326.2899906981, -48603.44363492056, 40427.533141080516, -28641.19006886364, 61430.43922548762, -8323.052027589325, -22437.798671459994, -10253.639251427561, 8031.54057640321, 3455.1773613902765, 4541.740362851663, 11271.537693922246, -187500.02235174447, -0.11, 0.966, 0.196, 192.0, 0.0, 0.0, 0.0, 0.0, 0.0, 0.0, 0.0, 0.0, 0.0, 1.7447422986857646E9, 0.0, 2025-04-15 13:38:18.685
172.0, -21795.387184070016, -4370.414241601735, 29327.142754452558, -17328.14518548789, -48604.38240818768, 40434.1939609282, -28621.788754676432, 61421.83380387233, -8316.614725186197, -22427.181592843725, -10267.832609156681, 8036.659125883476, 3452.472800311184, 4519.455673629722, 11219.681646785933, -187500.02235174447, -0.11, 0.966, 0.196, 192.0, 0.0, 0.0, 0.0, 0.0, 0.0, 0.0, 0.0, 0.0, 0.0, 1.7447422986938148E9, 0.0, 2025-04-15 13:38:18.693
174.0, -21810.519315066256, -4387.312160409947, 29304.813361741708, -17340.86332808296, -48561.42235534458, 40429.567149825954, -28640.94419967463, 61442.1515395822, -8324.706056679017, -22445.465319808165, -10252.588719438163, 8030.4676926693555, 3459.7818207480695, 4532.240871458158, 11270.397754955025, -187500.02235174447, -0.11, 0.966, 0.196, 192.0, 0.0, 0.0, 0.0, 0.0, 0.0, 0.0, 0.0, 0.0, 0.0, 1.7447422987018385E9, 0.0, 2025-04-15 13:38:18.701
176.0, -21796.88475094852, -4371.040090446483, 29326.338091652167, -17323.719540085738, -48609.05392277884, 40437.50201910758, -28602.543902700414, 61402.365434451756, -8325.488367734953, -22436.368159814854, -10279.388461040076, 8022.152843731981, 3445.4543525522176, 4511.565507836999, 11219.79340550821, -187500.02235174447, -0.11, 0.966, 0.196, 192.0, 0.0, 0.0, 0.0, 0.0, 0.0, 0.0, 0.0, 0.0, 0.0, 1.74474229870989E9, 0.0, 2025-04-15 13:38:18.709
178.0, -21792.481457290825, -4356.354994339346, 29325.287559662767, -17317.885734782903, -48556.28145411986, 40448.58848435742, -28618.413641263684, 61422.48200446153, -8315.541841452341, -22427.00277888808, -10246.911376346514, 8045.73393413233, 3462.933416716268, 4549.272900733102, 11279.383156226058, -187500.02235174447, -0.114, 0.9560000000000001, 0.198, 192.0, 126.0, 56.0, 14.5, 112.0, 3.0, 24.0, 0.0, 0.0, 0.0, 1.7447422987179415E9, 0.0, 2025-04-15 13:38:18.717
180.0, -21791.49798053479, -4364.871008976818, 29339.078585991694, -17310.04027247909, -48626.354172987245, 40428.82954225893, -28624.381557033248, 61373.03994572639, -8308.009303570903, -22418.039729361502, -10261.641175942561, 8043.699925386897, 3450.34938458793, 4529.536310379066, 11226.096597444606, -187500.02235174447, -0.114, 0.9560000000000001, 0.198, 192.0, 0.0, 0.0, 0.0, 0.0, 0.0, 0.0, 0.0, 0.0, 0.0, 1.7447422987259684E9, 0.0, 2025-04-15 13:38:18.725
182.0, -21799.768125983253, -4374.258741648047, 29319.94549273795, -17319.316246428043, -48519.28931704633, 40438.038460974516, -28650.39898757923, 61433.23319354453, -8317.195870542035, -22426.68985446571, -10237.389533208554, 8050.539559190222, 3458.418364336296, 4552.089220534471, 11275.561007924201, -187500.02235174447, -0.114, 0.9560000000000001, 0.198, 192.0, 0.0, 0.0, 0.0, 0.0, 0.0, 0.0, 0.0, 0.0, 0.0, 1.7447422987350082E9, 0.0, 2025-04-15 13:38:18.735
184.0, -21785.418306042946, -4365.250988632559, 29326.919237008005, -17302.127754941914, -48632.12092305672, 40414.43501882971, -28628.56133324639, 61359.651250797666, -8312.16672803959, -22419.20202007318, -10269.754859179839, 8036.100332272093, 3448.1142101423993, 4523.27782193158, 11211.769129248754, -187500.02235174447, -0.114, 0.9560000000000001, 0.198, 192.0, 0.0, 0.0, 0.0, 0.0, 0.0, 0.0, 0.0, 0.0, 0.0, 1.7447422987410488E9, 0.0, 2025-04-15 13:38:18.741
186.0, -21799.611663772066, -4367.217942144625, 29314.871646746597, -17318.2880661831, -48498.45749121398, 40448.81200180197, -28640.564220018892, 61447.851234418304, -8316.570021697285, -22422.241857319103, -10247.403114724531, 8049.377268478545, 3466.6438062958487, 4553.475028690699, 11275.449249201924, -187500.02235174447, -0.114, 0.9560000000000001, 0.198, 192.0, 0.0, 0.0, 0.0, 0.0, 0.0, 0.0, 0.0, 0.0, 0.0, 1.744742298750119E9, 0.0, 2025-04-15 13:38:18.750
188.0, -21791.229759601327, -4366.726203766609, 29311.965919967406, -17320.165612717345, -48621.749713629455, 40408.42239957123, -28637.792603706435, 61372.14587594818, -8312.837280373249, -22414.977540371125, -10278.784963939783, 8032.5240531592435, 3445.4767042966732, 4525.84827254394, 11213.870193227553, -187500.02235174447, -0.114, 0.9570000000000001, 0.2, 192.0, 126.0, 56.0, 14.5, 120.0, 3.0, 40.0, 0.0, 0.0, 0.0, 1.7447422987581203E9, 0.0, 2025-04-15 13:38:18.758
190.0, -21797.823524215644, -4367.664977033732, 29330.674330076497, -17325.015941264148, -48487.90746783107, 40448.923760524245, -28617.743088930023, 61456.92604266716, -8312.099672806224, -22424.409976531268, -10255.293280517255, 8031.227651980836, 3470.421251108796, 4547.507112921133, 11265.614481641589, -187500.02235174447, -0.114, 0.9570000000000001, 0.2, 192.0, 0.0, 0.0, 0.0, 0.0, 0.0, 0.0, 0.0, 0.0, 0.0, 1.7447422987661695E9, 0.0, 2025-04-15 13:38:18.766
192.0, -21802.316224851158, -4387.021587732028, 29332.015434743815, -17325.977066275726, -48606.90815531113, 40413.071562417936, -28622.95104538811, 61391.726004091026, -8314.960696096503, -22423.314741052956, -10272.615882470118, 8023.046913510194, 3455.5349893015614, 4524.015429498605, 11232.511548103279, -187500.02235174447, -0.114, 0.9570000000000001, 0.2, 192.0, 0.0, 0.0, 0.0, 0.0, 0.0, 0.0, 0.0, 0.0, 0.0, 1.7447422987732124E9, 0.0, 2025-04-15 13:38:18.773
194.0, -21808.17238189845, -4382.8194597744305, 29337.223391201904, -17332.973162290236, -48477.2903892148, 40448.27555993504, -28621.94521688762, 61466.26907184948, -8314.73717865195, -22434.311799324965, -10253.75101014984, 8035.608593894076, 3471.2035621647315, 4537.4935314051545, 11266.285033975248, -187500.02235174447, -0.114, 0.9570000000000001, 0.2, 192.0, 0.0, 0.0, 0.0, 0.0, 0.0, 0.0, 0.0, 0.0, 0.0, 1.744742298782244E9, 0.0, 2025-04-15 13:38:18.782
196.0, -21806.585408042123, -4384.562895841944, 29313.66465254601, -17332.548479145586, -48619.939222328576, 40406.500149548076, -28632.42818503716, 61385.020480754436, -8311.585582683752, -22425.348749798388, -10275.812181927227, 8023.963335032861, 3457.5913497914494, 4522.2272899421805, 11224.330809632636, -187500.02235174447, -0.114, 0.9570000000000001, 0.2, 192.0, 0.0, 0.0, 0.0, 0.0, 0.0, 0.0, 0.0, 0.0, 0.0, 1.7447422987902966E9, 0.0, 2025-04-15 13:38:18.790
198.0, -21818.118908181063, -4386.149869698271, 29310.17778041098, -17335.253040224678, -48476.70924385897, 40456.702167594696, -28632.159964103696, 61472.035821918944, -8321.800329899828, -22435.272924336547, -10270.090135346669, 8015.961410517862, 3458.5077713141172, 4533.604327869932, 11246.727257576855, -187500.02235174447, -0.113, 0.9575, 0.201, 192.0, 126.0, 64.0, 14.5, 120.0, 3.0, 40.0, 0.0, 0.0, 0.0, 1.7447422987973197E9, 0.0, 2025-04-15 13:38:18.797
200.0, -21815.19082965742, -4395.8505267918745, 29295.962070937407, -17326.893487798392, -48595.106434238725, 40420.76056251056, -28631.020025136477, 61400.733757106515, -8333.31147829431, -22438.379816815832, -10288.597379755662, 8012.2733726827355, 3435.194901847232, 4517.444016628744, 11223.660257298978, -187500.02235174447, -0.113, 0.9575, 0.201, 192.0, 0.0, 0.0, 0.0, 0.0, 0.0, 0.0, 0.0, 0.0, 0.0, 1.744742298805398E9, 0.0, 2025-04-15 13:38:18.805
202.0, -21823.79625127271, -4398.398625659779, 29313.597597312644, -17339.879851326925, -48459.45369713947, 40459.49613565161, -28619.821801164366, 61481.132981912255, -8322.269716533388, -22440.145604627804, -10278.114411606122, 8019.448282652889, 3446.7284019861704, 4526.094141732949, 11248.291879688726, -187500.02235174447, -0.113, 0.9575, 0.201, 192.0, 0.0, 0.0, 0.0, 0.0, 0.0, 0.0, 0.0, 0.0, 0.0, 1.7447422988144047E9, 0.0, 2025-04-15 13:38:18.814
204.0, -21815.99549245781, -4405.305314696469, 29303.293443118746, -17339.1422437599, -48586.52336436789, 40410.121132149834, -28623.71100469959, 61401.784289095915, -8323.677876434074, -22444.30302909649, -10287.636254744084, 8004.874945268029, 3441.6322042503602, 4509.553850836021, 11238.74768480631, -187500.02235174447, -0.113, 0.9575, 0.201, 192.0, 0.0, 0.0, 0.0, 0.0, 0.0, 0.0, 0.0, 0.0, 0.0, 1.7447422988214314E9, 0.0, 2025-04-15 13:38:18.821
206.0, -21818.968274470364, -4391.022549989528, 29323.499420106345, -17333.934287301814, -48494.68004640103, 40442.17353369875, -28601.918053855665, 61453.327411809856, -8318.000533342425, -22442.850165706895, -10278.472039517408, 8016.251983195781, 3456.406707335318, 4517.689885817753, 11249.968260522874, -187500.02235174447, -0.113, 0.9575, 0.201, 192.0, 0.0, 0.0, 0.0, 0.0, 0.0, 0.0, 0.0, 0.0, 0.0, 1.744742298829504E9, 0.0, 2025-04-15 13:38:18.829
208.0, -21826.009073973786, -4402.265477450547, 29297.929024449473, -17339.499871671185, -48564.28337863486, 40403.52736753552, -28637.524382772972, 61414.72594913554, -8330.450455004031, -22446.33703784192, -10281.08719361868, 8014.508547128266, 3442.6603844953042, 4518.963935251705, 11252.873987302064, -187500.02235174447, -0.1135, 0.95975, 0.2025, 192.0, 126.0, 56.0, 15.0, 8.0, 3.0, 48.0, 0.0, 0.0, 0.0, 1.7447422988375196E9, 0.0, 2025-04-15 13:38:18.837
210.0, -21822.008111716284, -4389.927314511217, 29329.400280642545, -17326.312342442554, -48467.74619433239, 40436.18326618472, -28622.79458317692, 61472.2593393635, -8322.716751422495, -22437.01636040406, -10274.806353426738, 8021.884622798518, 3447.935396186757, 4518.159272451315, 11237.540690605723, -187500.02235174447, -0.1135, 0.95975, 0.2025, 192.0, 0.0, 0.0, 0.0, 0.0, 0.0, 0.0, 0.0, 0.0, 0.0, 1.7447422988455994E9, 0.0, 2025-04-15 13:38:18.845
212.0, -21810.586370299625, -4389.882611022307, 29311.65299554503, -17321.506717384662, -48524.005535126395, 40405.516672792044, -28659.876127228275, 61430.86390863227, -8321.2638880329, -22434.401206302788, -10260.545940464252, 8030.914727558462, 3448.9859281761564, 4528.128150478381, 11253.365725680082, -187500.02235174447, -0.1135, 0.95975, 0.2025, 192.0, 0.0, 0.0, 0.0, 0.0, 0.0, 0.0, 0.0, 0.0, 0.0, 1.7447422988535953E9, 0.0, 2025-04-15 13:38:18.853
214.0, -21814.207352901383, -4382.417128374234, 29329.690853320462, -17317.41634814934, -48455.229217437416, 40441.033594731525, -28627.488449512537, 61476.461467321096, -8318.335809509255, -22432.456604535175, -10269.55369347974, 8033.440474681912, 3448.449486309229, 4519.478025374177, 11233.405617881492, -187500.02235174447, -0.1135, 0.95975, 0.2025, 192.0, 0.0, 0.0, 0.0, 0.0, 0.0, 0.0, 0.0, 0.0, 0.0, 1.744742298861631E9, 0.0, 2025-04-15 13:38:18.861
216.0, -21816.55428606919, -4388.317988910436, 29308.881379232575, -17318.600990605475, -48475.74811884739, 40429.969481226144, -28646.28626659945, 61469.13009513976, -8319.07341707628, -22435.809366203473, -10256.120295062101, 8031.473521169844, 3444.8285037074693, 4533.894900547851, 11267.067345031184, -187500.02235174447, -0.1135, 0.95975, 0.2025, 192.0, 0.0, 0.0, 0.0, 0.0, 0.0, 0.0, 0.0, 0.0, 0.0, 1.7447422988696747E9, 0.0, 2025-04-15 13:38:18.869
218.0, -21820.778765771243, -4389.592038344388, 29330.428460887488, -17315.203525448265, -48455.27392092632, 40451.583618114426, -28616.960777874086, 61482.69760402413, -8315.944172852538, -22425.795784687496, -10270.336004535677, 8031.451169425389, 3446.415477563796, 4522.2272899421805, 11234.523205104257, -187500.02235174447, -0.11375, 0.959875, 0.20025, 192.0, 126.0, 56.0, 15.0, 0.0, 3.0, 24.0, 0.0, 0.0, 0.0, 1.7447422988767197E9, 0.0, 2025-04-15 13:38:18.876
220.0, -21829.31713215317, -4403.5395268844995, 29321.51011484982, -17326.558211631564, -48451.63058658011, 40433.85868476137, -28633.456365282105, 61484.61985404728, -8318.02288508688, -22434.736482469616, -10254.958004350425, 8027.941945545906, 3449.164742131799, 4536.264185460113, 11271.783563111254, -187500.02235174447, -0.11375, 0.959875, 0.20025, 192.0, 0.0, 0.0, 0.0, 0.0, 0.0, 0.0, 0.0, 0.0, 0.0, 1.74474229888575E9, 0.0, 2025-04-15 13:38:18.885
222.0, -21812.26275113377, -4383.959398741651, 29346.90169655105, -17313.10246146947, -48486.611066652666, 40433.45635336117, -28617.385461018737, 61461.418743302675, -8321.397998499633, -22437.239877848613, -10275.074574360202, 8018.509509385766, 3438.435904793251, 4505.530536834066, 11226.565984078168, -187500.02235174447, -0.11375, 0.959875, 0.20025, 192.0, 0.0, 0.0, 0.0, 0.0, 0.0, 0.0, 0.0, 0.0, 0.0, 1.7447422988937955E9, 0.0, 2025-04-15 13:38:18.893
224.0, -21812.106288922583, -4386.082814464905, 29334.38471965608, -17319.42800515032, -48440.29825214127, 40444.14048721081, -28610.85875163779, 61501.830697277874, -8298.77803311086, -22428.075662621937, -10232.650963384029, 8039.654259640487, 3467.9849109631673, 4541.494493662655, 11292.213057543404, -187500.02235174447, -0.11375, 0.959875, 0.20025, 192.0, 0.0, 0.0, 0.0, 0.0, 0.0, 0.0, 0.0, 0.0, 0.0, 1.7447422989019203E9, 0.0, 2025-04-15 13:38:18.901
226.0, -21808.865285976564, -4386.731015054109, 29339.972655769907, -17313.66125508085, -48486.52165967484, 40431.95878648267, -28598.475885209547, 61471.432324818656, -8299.470937188977, -22435.563497014464, -10262.736411420872, 8019.940021030906, 3450.2599776101088, 4502.580106565965, 11241.742818563322, -187500.02235174447, -0.11375, 0.959875, 0.20025, 192.0, 0.0, 0.0, 0.0, 0.0, 0.0, 0.0, 0.0, 0.0, 0.0, 1.7447422989088883E9, 0.0, 2025-04-15 13:38:18.908
228.0, -21830.300608909205, -4398.666846593243, 29323.18649568397, -17311.604894590964, -48405.653048235545, 40446.08508897842, -28615.61967320677, 61519.533278886476, -8318.469919975987, -22435.33997956991, -10245.436161212465, 8031.518224658755, 3459.290082370053, 4535.772447082097, 11297.130441323572, -187500.02235174447, -0.109875, 0.9629375, 0.203125, 192.0, 126.0, 88.0, 15.0, 24.0, 3.0, 56.0, 0.0, 0.0, 0.0, 1.74474229891793E9, 0.0, 2025-04-15 13:38:18.917
230.0, -21837.877850279554, -4404.210079218159, 29329.243818431358, -17307.80509803356, -48480.21846773845, 40434.14925743929, -28589.8481118498, 61474.74038299804, -8317.93347810906, -22416.475107249633, -10280.46134477393, 8025.639715867009, 3445.0743728964776, 4519.969763752194, 11236.624269083057, -187500.02235174447, -0.109875, 0.9629375, 0.203125, 192.0, 0.0, 0.0, 0.0, 0.0, 0.0, 0.0, 0.0, 0.0, 0.0, 1.7447422989259841E9, 0.0, 2025-04-15 13:38:18.925
232.0, -21841.767053814776, -4404.902983296273, 29334.451774889443, -17302.17245843082, -48360.144896524536, 40469.19679274521, -28603.214455034074, 61547.04827631096, -8337.714771952007, -22423.091223608404, -10261.283548031277, 8030.1771199914365, 3453.8586084674134, 4545.696621620253, 11297.443365745947, -187500.02235174447, -0.109875, 0.9629375, 0.203125, 192.0, 0.0, 0.0, 0.0, 0.0, 0.0, 0.0, 0.0, 0.0, 0.0, 1.7447422989329834E9, 0.0, 2025-04-15 13:38:18.932
234.0, -21830.211201931383, -4397.281038437014, 29357.85405133415, -17289.968405958225, -48470.02607226683, 40447.29208317901, -28599.459361965583, 61470.381792829256, -8324.527242723376, -22387.19432201318, -10267.564388223218, 8048.729067889341, 3445.230835107665, 4536.286537204568, 11239.239423184326, -187500.02235174447, -0.109875, 0.9629375, 0.203125, 192.0, 0.0, 0.0, 0.0, 0.0, 0.0, 0.0, 0.0, 0.0, 0.0, 1.7447422989410408E9, 0.0, 2025-04-15 13:38:18.941
236.0, -21829.585353086633, -4390.284942422502, 29360.223336246414, -17293.969368215727, -48321.29756466122, 40481.24438300662, -28605.494332968516, 61551.809197879935, -8340.218167331, -22392.58109242691, -10241.390495466054, 8063.101239574104, 3452.092820655444, 4560.04644156056, 11299.969112869396, -187500.02235174447, -0.109875, 0.9629375, 0.203125, 192.0, 0.0, 0.0, 0.0, 0.0, 0.0, 0.0, 0.0, 0.0, 0.0, 1.744742298950071E9, 0.0, 2025-04-15 13:38:18.950
238.0, -21824.98089372884, -4390.910791267252, 29355.261248977335, -17289.968405958225, -48436.45375209496, 40446.30860642298, -28609.09296382582, 61465.84438870483, -8333.155016083123, -22366.00486826955, -10258.310766018722, 8067.012794853783, 3442.705087984215, 4545.651918131342, 11246.503740132302, -187500.02235174447, -0.10793749999999999, 0.96046875, 0.2025625, 192.0, 126.0, 88.0, 14.5, 120.0, 3.0, 40.0, 0.0, 0.0, 0.0, 1.7447422989571114E9, 0.0, 2025-04-15 13:38:18.957
240.0, -21816.822507002653, -4366.167410155226, 29364.917202582026, -17282.257054121143, -48298.00704693879, 40477.82456610496, -28606.589568446827, 61529.770377847, -8341.335754553766, -22361.981554267593, -10238.820044853694, 8061.491913973322, 3454.8197334789916, 4569.52358120961, 11291.207229042915, -187500.02235174447, -0.10793749999999999, 0.96046875, 0.2025625, 192.0, 0.0, 0.0, 0.0, 0.0, 0.0, 0.0, 0.0, 0.0, 0.0, 1.7447422989651551E9, 0.0, 2025-04-15 13:38:18.965
242.0, -21809.111155165574, -4379.623160317321, 29365.00660955985, -17278.300795352556, -48439.96297597444, 40432.58463532742, -28616.42433600716, 61430.77450165445, -8331.657449204618, -22334.55596382093, -10246.509044946319, 8059.279091272247, 3448.0248031645783, 4554.637319402375, 11253.879815802553, -187500.02235174447, -0.10793749999999999, 0.96046875, 0.2025625, 192.0, 0.0, 0.0, 0.0, 0.0, 0.0, 0.0, 0.0, 0.0, 0.0, 1.7447422989732025E9, 0.0, 2025-04-15 13:38:18.973
244.0, -21804.484344063323, -4373.007043958551, 29384.407923747054, -17274.45629530624, -48313.22858491285, 40472.86247883588, -28603.08034456734, 61499.64022632125, -8347.907167423626, -22344.927173248194, -10227.107730759113, 8091.443251543433, 3458.8877509698573, 4567.355461997445, 11295.342301767148, -187500.02235174447, -0.10793749999999999, 0.96046875, 0.2025625, 192.0, 0.0, 0.0, 0.0, 0.0, 0.0, 0.0, 0.0, 0.0, 0.0, 1.7447422989822464E9, 0.0, 2025-04-15 13:38:18.982
246.0, -21811.83806798912, -4379.958436484151, 29365.699513637963, -17270.18711211528, -48452.09997321367, 40445.19101920021, -28590.719829883557, 61421.654989916686, -8329.444626503542, -22337.752263278042, -10232.628611639573, 8095.265399845291, 3448.3377275869525, 4561.342842738967, 11271.202417755416, -187500.02235174447, -0.10793749999999999, 0.96046875, 0.2025625, 192.0, 0.0, 0.0, 0.0, 0.0, 0.0, 0.0, 0.0, 0.0, 0.0, 1.7447422989892817E9, 0.0, 2025-04-15 13:38:18.989
248.0, -21816.487230835824, -4388.094471465883, 29376.830682376705, -17269.918891181816, -48306.83598599863, 40486.42998772025, -28579.52160591145, 61512.44777589414, -8334.74198993945, -22353.197318696657, -10227.085379014658, 8080.692062460431, 3452.6516142668265, 4570.216485287725, 11300.550258225234, -187500.02235174447, -0.10696875, 0.958234375, 0.20228125000000002, 192.0, 126.0, 88.0, 14.5, 112.0, 3.0, 40.0, 0.0, 0.0, 0.0, 1.7447422989973085E9, 0.0, 2025-04-15 13:38:18.997
