%OpenBCI Raw EXG Data
%Number of channels = 16
%Sample Rate = 125 Hz
%Board = OpenBCI_GUI$BoardCytonSerialDaisy
Sample Index, EXG Channel 0, EXG Channel 1, EXG Channel 2, EXG Channel 3, EXG Channel 4, EXG Channel 5, EXG Channel 6, EXG Channel 7, EXG Channel 8, EXG Channel 9, EXG Channel 10, EXG Channel 11, EXG Channel 12, EXG Channel 13, EXG Channel 14, EXG Channel 15, Accel Channel 0, Accel Channel 1, Accel Channel 2, Not Used, Digital Channel 0 (D11), Digital Channel 1 (D12), Digital Channel 2 (D13), Digital Channel 3 (D17), Not Used, Digital Channel 4 (D18), Analog Channel 0, Analog Channel 1, Analog Channel 2, Timestamp, Marker Channel, Timestamp (Formatted)
0.0, -27642.022388222504, -30715.633120016235, -45296.63715322461, -19034.879688606226, -11568.793543433374, -1255.67630001024, -17729.426053694016, -36209.066058285964, 0.0, 0.0, 0.0, 0.0, 0.0, 0.0, 0.0, 0.0, 0.0, 0.0, 0.0, 192.0, 0.0, 0.0, 0.0, 0.0, 0.0, 0.0, 0.0, 0.0, 0.0, 1.742425126529574E9, 0.0, 2025-03-19 17:58:46.529
28.0, -27637.350873631345, -30712.392117070212, -45290.46807175494, -19030.878726348725, -11567.541845743877, -1246.9591196726703, -17713.757480830845, -36203.36636344986, 5609.192622803763, -26864.65106781138, -11094.28836039166, 16911.933351985615, -14962.168331404726, -22477.696535312716, -20205.57465619739, -33698.94280421052, 0.0, 0.0, 0.0, 192.0, 0.0, 0.0, 0.0, 0.0, 0.0, 0.0, 0.0, 0.0, 0.0, 1.742425126529639E9, 0.0, 2025-03-19 17:58:46.529
30.0, -27640.927152744192, -30716.191913627616, -45292.63619096711, -19033.89621185019, -11567.206569577047, -1253.4411255647094, -17737.025646808823, -36208.06022978547, 5612.701846683246, -26863.913460244356, -11094.176601669384, 16905.227828649025, -14948.086732397884, -22477.473017868164, -20202.020728828997, -33702.250862389905, 0.019, 0.494, 0.041, 192.0, 0.5, 24.0, 15.0, 112.0, 1.0, 72.0, 0.0, 0.0, 0.0, 1.742425126529679E9, 0.0, 2025-03-19 17:58:46.529
32.0, -27656.863946540827, -30731.547562068412, -45306.69543822949, -19048.938935868613, -11577.108392370748, -1261.5771605464413, -17718.98778903339, -36218.163218279275, 5607.180965802785, -26876.69865807279, -11101.48562210627, 16899.885761724207, -14962.794180249475, -22484.26794818258, -20208.79330739895, -33708.822275259765, 0.019, 0.494, 0.041, 192.0, 0.0, 0.0, 0.0, 0.0, 0.0, 0.0, 0.0, 0.0, 0.0, 1.742425126529729E9, 0.0, 2025-03-19 17:58:46.529
34.0, -27653.734702317084, -30730.497030079012, -45299.386417792615, -19047.28490677892, -11574.873217925218, -1271.8813147403378, -17749.31910625924, -36227.84152362842, 5594.306360996528, -26888.41097216737, -11115.29900017965, 16883.501933038468, -14969.030316952505, -22501.858771068906, -20218.09163309236, -33722.747412055425, 0.019, 0.494, 0.041, 192.0, 0.0, 0.0, 0.0, 0.0, 0.0, 0.0, 0.0, 0.0, 0.0, 1.742425126529768E9, 0.0, 2025-03-19 17:58:46.529
36.0, -27645.822184779907, -30722.159829397184, -45288.255249053866, -19034.410301972664, -11564.211435820036, -1251.6306342638295, -17712.528134885804, -36213.201131010195, 5606.912744869322, -26876.89982377289, -11100.81506977261, 16898.410546590156, -14953.227633622604, -22487.531302873052, -20206.647539931244, -33712.97969972846, 0.019, 0.494, 0.041, 192.0, 0.0, 0.0, 0.0, 0.0, 0.0, 0.0, 0.0, 0.0, 0.0, 1.742425126529807E9, 0.0, 2025-03-19 17:58:46.529
38.0, -27646.783309791484, -30722.785678241933, -45294.71490320145, -19035.125557795236, -11577.823648193318, -1260.5042768125866, -17755.287022028806, -36216.755058378585, 5606.77863440259, -26877.92800401783, -11102.916133751409, 16897.06944192284, -14956.826264479909, -22486.145494716824, -20209.84383938835, -33710.72217353847, 0.019, 0.494, 0.041, 192.0, 0.0, 0.0, 0.0, 0.0, 0.0, 0.0, 0.0, 0.0, 0.0, 1.742425126529846E9, 0.0, 2025-03-19 17:58:46.529
40.0, -27642.20120217815, -30720.014061929473, -45294.267868312345, -19032.86803160525, -11577.175447604115, -1254.7822302320278, -17723.61460013564, -36210.36245946437, 5604.63286693488, -26872.943565004298, -11101.10564245053, 16901.651549536175, -14967.666860540732, -22488.470076140176, -20214.42594700169, -33714.74548754042, 0.028499999999999998, 0.735, 0.0595, 192.0, 0.5, 24.0, 15.0, 64.0, 1.0, 56.0, 0.0, 0.0, 0.0, 1.742425126529885E9, 0.0, 2025-03-19 17:58:46.529
42.0, -27635.719196286107, -30712.950910681597, -45284.16487981855, -19026.453080946576, -11558.95877587304, -1257.1738668887458, -17727.66026588205, -36207.63554664082, 5613.059474594531, -26868.853195768977, -11094.176601669384, 16904.400814104178, -14957.25094762456, -22485.318480171976, -20202.33365325137, -33709.00108921541, 0.028499999999999998, 0.735, 0.0595, 192.0, 0.0, 0.0, 0.0, 0.0, 0.0, 0.0, 0.0, 0.0, 0.0, 1.742425126529927E9, 0.0, 2025-03-19 17:58:46.529
0.0, -13810.762919278493, -15331.866184695506, -22519.091966043947, -9451.368087693225, -5763.442011289837, -592.4776902768243, -8832.291821514586, -17989.443896942605, 2805.725074496874, -13438.22639444189, -5549.580520341458, 8449.227625039533, -7474.982139466065, -11243.195681952917, -10104.553115910663, -16856.165749569627, 0.036000000000000004, 0.976, 0.088, 192.0, 0.5, 16.0, 15.0, 64.0, 1.0, 96.0, 0.0, 0.0, 0.0, 1.742425126687102E9, 0.0, 2025-03-19 17:58:46.687
2.0, -27621.436431579168, -30661.966581579043, -45028.95266162785, -18897.908198584104, -11525.095883023248, -1185.0000840425591, -17686.64481480656, -35982.486424742514, 5601.123643055397, -26797.64053793437, -11010.581077406536, 16766.043515925827, -14990.376232907323, -22248.322933712356, -20086.618672206245, -33431.3924230805, 0.036000000000000004, 0.976, 0.088, 192.0, 0.0, 0.0, 0.0, 0.0, 0.0, 0.0, 0.0, 0.0, 0.0, 1.742425126687186E9, 0.0, 2025-03-19 17:58:46.687
4.0, -27622.509315313022, -30661.050160056373, -45026.09163833757, -18898.131716028656, -11529.208604003026, -1177.7804705834951, -17689.729355541393, -35981.88292764222, 5599.737834899168, -26794.198369288253, -11015.677275142345, 16761.64022226813, -14990.599750351877, -22252.458006436587, -20085.54578847239, -33438.25440862828, 0.036000000000000004, 0.976, 0.088, 192.0, 0.0, 0.0, 0.0, 0.0, 0.0, 0.0, 0.0, 0.0, 0.0, 1.74242512668726E9, 0.0, 2025-03-19 17:58:46.687
6.0, -27624.342158358355, -30664.201756024573, -45026.784542415684, -18897.908198584104, -11533.433083705078, -1188.0846247773916, -17700.458192879938, -35992.634116725225, 5598.128509298385, -26797.193503045262, -11009.50819367268, 16769.79860899432, -14994.176029464727, -22249.06054127938, -20086.372803017235, -33435.70630976037, 0.036000000000000004, 0.976, 0.088, 192.0, 0.0, 0.0, 0.0, 0.0, 0.0, 0.0, 0.0, 0.0, 0.0, 1.742425126687307E9, 0.0, 2025-03-19 17:58:46.687
8.0, -27630.28772238347, -30670.996686338985, -45033.28890005218, -18898.69050964004, -11537.702266896042, -1192.554973668453, -17696.300768411253, -35988.96843063455, 5601.771843644601, -26794.421886732805, -11015.967847820264, 16757.952184433005, -15005.977750537128, -22253.955573315096, -20088.250349551483, -33450.25729540078, 0.028, 0.978, 0.08600000000000001, 192.0, 0.0, 112.0, 15.0, 72.0, 1.0, 88.0, 0.0, 0.0, 0.0, 1.742425126687353E9, 0.0, 2025-03-19 17:58:46.687
10.0, -27638.08848119837, -30677.098712575284, -45036.21697857582, -18903.809059120307, -11540.876214608696, -1201.0486365614697, -17699.98880624638, -35995.53984350441, 5592.808794118023, -26804.16724731532, -11016.70545538729, 16761.282594356846, -14996.657073099266, -22254.916698326673, -20094.12885834323, -33448.02212095525, 0.028, 0.978, 0.08600000000000001, 192.0, 0.0, 0.0, 0.0, 0.0, 0.0, 0.0, 0.0, 0.0, 0.0, 1.742425126687394E9, 0.0, 2025-03-19 17:58:46.687
12.0, -27646.358626646834, -30687.156997580172, -45034.16061808594, -18905.328977743266, -11535.221223261504, -1200.2886772499892, -17699.94410275747, -35991.427122524634, 5579.129526511375, -26813.554979986548, -11029.602411938002, 16740.048437124307, -15009.35286394988, -22265.779646131952, -20096.02875662193, -33460.6955600614, 0.028, 0.978, 0.08600000000000001, 192.0, 0.0, 0.0, 0.0, 0.0, 0.0, 0.0, 0.0, 0.0, 0.0, 1.742425126687433E9, 0.0, 2025-03-19 17:58:46.687
14.0, -27665.402312922757, -30704.59135825531, -45047.61636824803, -18917.443623238043, -11543.021982076405, -1208.8493953763718, -17697.418355634018, -36001.999497651996, 5576.022634032087, -26824.55203825856, -11035.771493407667, 16742.708294714488, -15022.138061778316, -22267.07604731036, -20098.062765367362, -33455.66641755896, 0.028, 0.978, 0.08600000000000001, 192.0, 0.0, 0.0, 0.0, 0.0, 0.0, 0.0, 0.0, 0.0, 0.0, 1.742425126687472E9, 0.0, 2025-03-19 17:58:46.687
16.0, -27667.10104550136, -30708.145285623705, -45045.314138569134, -18909.396995234132, -11535.534147683877, -1199.1487382827686, -17704.83913479318, -35991.20360508008, 5569.741793840146, -26825.155535358852, -11044.958060378798, 16726.749149173396, -15001.596808623888, -22273.98273634705, -20099.40387003468, -33465.34472290811, 0.028, 0.978, 0.08600000000000001, 192.0, 0.0, 0.0, 0.0, 0.0, 0.0, 0.0, 0.0, 0.0, 0.0, 1.742425126747119E9, 0.0, 2025-03-19 17:58:46.747
18.0, -27676.846406083874, -30716.79541072791, -45040.30734781115, -18910.201658034523, -11541.837339620273, -1190.6997788786625, -17692.635082320583, -35985.436855010616, 5561.739869325146, -26829.06709063853, -11037.559632964092, 16736.11453010017, -15020.707550133176, -22266.56195718789, -20096.855771166775, -33449.9443709784, 0.022, 0.98, 0.09, 192.0, 0.0, 88.0, 15.0, 80.0, 1.0, 104.0, 0.0, 0.0, 0.0, 1.742425126747173E9, 0.0, 2025-03-19 17:58:46.747
20.0, -27675.52765316101, -30714.180256626638, -45037.289862309684, -18905.753660887916, -11536.204700017537, -1188.3304939664, -17706.94019877198, -35977.74785491799, 5556.218988444685, -26819.187619589284, -11042.56642372208, 16727.017370106863, -15004.971922036639, -22264.170320531168, -20094.039451365406, -33456.49343210381, 0.022, 0.98, 0.09, 192.0, 0.0, 0.0, 0.0, 0.0, 0.0, 0.0, 0.0, 0.0, 0.0, 1.742425126747215E9, 0.0, 2025-03-19 17:58:46.747
22.0, -27690.928005090715, -30739.99652147252, -45045.604711247055, -18917.957713360516, -11539.780979130386, -1189.3586742113441, -17695.920788755513, -35981.368837519745, 5566.992529272143, -26832.196334862274, -11042.477016744258, 16730.50424224189, -15028.128329292338, -22264.88557635374, -20099.336814801314, -33451.508993090276, 0.022, 0.98, 0.09, 192.0, 0.0, 0.0, 0.0, 0.0, 0.0, 0.0, 0.0, 0.0, 0.0, 1.742425126747254E9, 0.0, 2025-03-19 17:58:46.747
24.0, -27701.96976685164, -30739.03539646094, -45044.88945542448, -18913.487364469453, -11538.28341225188, -1191.2585724900453, -17707.051957494255, -35982.575831720336, 5547.568863340481, -26837.605457020458, -11056.200987839817, 16715.081538567727, -15012.839736084909, -22274.005088091504, -20100.9461404021, -33454.012388469266, 0.022, 0.98, 0.09, 192.0, 0.0, 0.0, 0.0, 0.0, 0.0, 0.0, 0.0, 0.0, 0.0, 1.74242512674733E9, 0.0, 2025-03-19 17:58:46.747
26.0, -27702.99794709658, -30747.529059353958, -45039.81560943313, -18912.190963291047, -11532.539013926866, -1188.777528855506, -17675.69246002346, -35977.189061306606, 5550.541645353037, -26835.8843726974, -11051.261252315195, 16728.202012562993, -15015.007855297072, -22264.863224609286, -20094.017099620953, -33444.55760056467, 0.022, 0.98, 0.09, 192.0, 0.0, 0.0, 0.0, 0.0, 0.0, 0.0, 0.0, 0.0, 0.0, 1.742425126747379E9, 0.0, 2025-03-19 17:58:46.747
28.0, -27711.58101696742, -30753.34051291234, -45035.21115007534, -18906.603027177218, -11526.235821990469, -1193.5160986800313, -17699.07238472371, -35972.40578799317, 5553.357965154406, -26840.377073332915, -11054.390496538937, 16717.45082347999, -15002.043843512994, -22271.27817526796, -20089.077364096327, -33449.13970817801, 0.036000000000000004, 0.974, 0.094, 192.0, 0.5, 16.0, 15.0, 56.0, 1.0, 120.0, 0.0, 0.0, 0.0, 1.74242512674741E9, 0.0, 2025-03-19 17:58:46.747
30.0, -27723.71801420665, -30764.38227467326, -45047.52696127021, -18917.510678471408, -11530.348542970247, -1193.784319613495, -17680.855712992634, -35980.07243634134, 5551.994508742632, -26837.784270976103, -11054.479903516758, 16721.92117237105, -15013.532640163023, -22260.616393162774, -20083.31061402686, -33444.222324397844, 0.036000000000000004, 0.974, 0.094, 192.0, 0.0, 0.0, 0.0, 0.0, 0.0, 0.0, 0.0, 0.0, 0.0, 1.742425126808471E9, 0.0, 2025-03-19 17:58:46.808
32.0, -27733.910409678272, -30772.451254421623, -45067.39766209098, -18922.293951784846, -11540.831511119784, -1203.7084941516512, -17716.059710509744, -35985.079227099326, 5537.33176437995, -26851.55294556057, -11075.199970626829, 16705.045605307296, -15023.546221679, -22275.189730547638, -20100.722622957543, -33454.772347780745, 0.036000000000000004, 0.974, 0.094, 192.0, 0.0, 0.0, 0.0, 0.0, 0.0, 0.0, 0.0, 0.0, 0.0, 1.742425126808545E9, 0.0, 2025-03-19 17:58:46.808
34.0, -27736.97259866865, -30778.79914984693, -45046.67759498091, -18919.321169772287, -11543.066685565316, -1200.5568981834529, -17689.058803207732, -35993.70700045908, 5534.850720745411, -26852.201146149775, -11081.838438730054, 16705.93967508551, -15021.489861189111, -22275.83793113684, -20104.388309048212, -33456.605190826085, 0.036000000000000004, 0.974, 0.094, 192.0, 0.0, 0.0, 0.0, 0.0, 0.0, 0.0, 0.0, 0.0, 0.0, 1.742425126808572E9, 0.0, 2025-03-19 17:58:46.808
36.0, -27740.839450459418, -30780.65434463672, -45052.332586328106, -18914.247323780935, -11546.106522811238, -1205.6977994081735, -17710.78469881829, -35987.78378817842, 5524.94889795171, -26848.848384481476, -11069.969662424286, 16710.07474780974, -15025.289657746514, -22269.98177408955, -20101.30376831338, -33454.52647859174, 0.036000000000000004, 0.974, 0.094, 192.0, 0.0, 0.0, 0.0, 0.0, 0.0, 0.0, 0.0, 0.0, 0.0, 1.742425126808599E9, 0.0, 2025-03-19 17:58:46.808
38.0, -27735.385624812323, -30774.507614911512, -45052.667862494935, -18911.20748653501, -11544.251328021446, -1196.555935925953, -17692.657434065037, -35984.252212554486, 5534.694258534224, -26852.64818103888, -11075.959929938308, 16707.370186730648, -15017.555954164978, -22272.105189812803, -20105.751765459987, -33459.80149028319, 0.034, 0.98, 0.092, 192.0, 0.5, 8.0, 15.0, 80.0, 1.0, 112.0, 0.0, 0.0, 0.0, 1.742425126808625E9, 0.0, 2025-03-19 17:58:46.808
40.0, -27729.417709042755, -30766.84096656334, -45041.60374898955, -18904.546666687333, -11546.799426889353, -1198.656999904752, -17714.763309331334, -35984.36397127676, 5529.776874754057, -26843.79689023458, -11070.886083946954, 16716.17677404604, -15019.992294310607, -22268.55126244441, -20106.60113174929, -33457.14163269301, 0.034, 0.98, 0.092, 192.0, 0.0, 0.0, 0.0, 0.0, 0.0, 0.0, 0.0, 0.0, 0.0, 1.742425126808654E9, 0.0, 2025-03-19 17:58:46.808
42.0, -27732.614008499862, -30766.41628341869, -45042.877798423506, -18907.854724866716, -11546.352392000246, -1190.2750957340118, -17697.731280056392, -35985.54861373289, 5541.735058037646, -26832.97864591821, -11064.784057710654, 16716.78027114633, -15006.78241333752, -22263.723285642063, -20100.588512490813, -33457.32044664866, 0.034, 0.98, 0.092, 192.0, 0.0, 0.0, 0.0, 0.0, 0.0, 0.0, 0.0, 0.0, 0.0, 1.74242512680868E9, 0.0, 2025-03-19 17:58:46.808
44.0, -27749.668389519262, -30782.308373726413, -45056.24414160778, -18914.180268547567, -11553.661412437132, -1199.5957731718747, -17723.391082691083, -35988.76726493445, 5527.8546247309005, -26846.344989102483, -11076.474020060781, 16713.427509478035, -15031.615201427365, -22266.293736254425, -20111.496163785003, -33455.04056871421, 0.034, 0.98, 0.092, 192.0, 0.0, 0.0, 0.0, 0.0, 0.0, 0.0, 0.0, 0.0, 0.0, 1.742425126808708E9, 0.0, 2025-03-19 17:58:46.808
46.0, -27749.69074126372, -30778.95561205812, -45041.33552805609, -18907.206524277513, -11543.513720454423, -1188.6657701332297, -17688.343547385164, -35982.32996253132, 5522.780778739546, -26845.786195491102, -11078.731546250767, 16704.665625651556, -15012.884439573818, -22267.903061855206, -20106.89170442721, -33463.06484497367, 0.034, 0.98, 0.092, 192.0, 0.0, 0.0, 0.0, 0.0, 0.0, 0.0, 0.0, 0.0, 0.0, 1.742425126867379E9, 0.0, 2025-03-19 17:58:46.867
48.0, -27749.176651141246, -30780.922565570185, -45041.35787980055, -18906.245399265936, -11541.18913903107, -1190.006874800548, -17705.88966678258, -35981.05591309737, 5519.182147882241, -26844.84742222398, -11072.540113036646, 16713.829840878232, -15025.848451357897, -22261.42105596317, -20103.337777058816, -33452.06778670166, 0.03, 0.986, 0.09, 192.0, 0.0, 120.0, 15.0, 104.0, 1.0, 104.0, 0.0, 0.0, 0.0, 1.742425126867428E9, 0.0, 2025-03-19 17:58:46.867
50.0, -27759.54786056851, -30791.517292442, -45047.01287114774, -18906.87124811068, -11533.14251102716, -1180.1497554957575, -17666.796465730247, -35968.91891585814, 5522.065522916976, -26838.298361098572, -11071.824857214076, 16705.984378574416, -15002.44617491319, -22260.147006529216, -20093.592416476302, -33452.76069077977, 0.03, 0.986, 0.09, 192.0, 0.0, 0.0, 0.0, 0.0, 0.0, 0.0, 0.0, 0.0, 0.0, 1.74242512686746E9, 0.0, 2025-03-19 17:58:46.867
52.0, -27778.613898588887, -30808.19169380566, -45069.90105746997, -18924.082091341268, -11556.969470616517, -1194.432520202699, -17691.472791608907, -35988.63315446772, 5505.502880275593, -26855.710370029257, -11083.42541258638, 16700.39644246059, -15014.024378541038, -22268.864186866784, -20107.159925360673, -33457.34279839311, 0.03, 0.986, 0.09, 192.0, 0.0, 0.0, 0.0, 0.0, 0.0, 0.0, 0.0, 0.0, 0.0, 1.742425126867491E9, 0.0, 2025-03-19 17:58:46.867
54.0, -27779.195043944725, -30811.410345007225, -45068.805821991664, -18925.087919841757, -11558.847017150763, -1188.2410869885787, -17679.53696006977, -35984.05104685439, 5491.376577779839, -26860.806567765067, -11102.223229673295, 16679.944596283985, -15014.382006452324, -22277.69312592663, -20116.32414058735, -33473.12312997856, 0.03, 0.986, 0.09, 192.0, 0.0, 0.0, 0.0, 0.0, 0.0, 0.0, 0.0, 0.0, 0.0, 1.742425126867518E9, 0.0, 2025-03-19 17:58:46.867
56.0, -27770.16493918478, -30801.19559779115, -45062.167353888435, -18915.141393559148, -11547.313517011824, -1177.6463601167632, -17683.24734964935, -35968.985971091504, 5497.568010993959, -26862.952335232778, -11082.017252685697, 16694.719099368944, -15014.717282619153, -22266.15962578769, -20106.332910815825, -33455.420548369955, 0.03, 0.986, 0.09, 192.0, 0.0, 0.0, 0.0, 0.0, 0.0, 0.0, 0.0, 0.0, 0.0, 1.742425126867546E9, 0.0, 2025-03-19 17:58:46.867
58.0, -27781.87725327936, -30805.24126353756, -45069.96811270334, -18921.869268640196, -11541.390304731167, -1173.5783426258972, -17669.1210471536, -35965.34263674529, 5492.382406280328, -26850.03302693761, -11085.682938776366, 16690.516971411344, -15005.217791225648, -22261.73398038554, -20100.856733424276, -33455.57701058114, 0.03, 0.98, 0.088, 192.0, 0.0, 120.0, 15.0, 80.0, 1.0, 96.0, 0.0, 0.0, 0.0, 1.742425126867574E9, 0.0, 2025-03-19 17:58:46.867
60.0, -27789.58860511644, -30821.446278267656, -45084.29558089919, -18940.93530666057, -11551.470941480511, -1187.749348610562, -17669.433971575974, -35982.79934916489, 5487.576781222437, -26866.148634689886, -11088.745127766744, 16694.07089877974, -15011.230410484126, -22265.086742053838, -20104.03068113693, -33450.01142621177, 0.03, 0.98, 0.088, 192.0, 0.0, 0.0, 0.0, 0.0, 0.0, 0.0, 0.0, 0.0, 0.0, 1.742425126927707E9, 0.0, 2025-03-19 17:58:46.927
62.0, -27785.65469809231, -30814.181961319682, -45083.62502856553, -18934.36389379071, -11545.391266988669, -1178.3169124504225, -17678.35231761364, -35980.63122995272, 5489.677845201236, -26874.619945838447, -11094.087194691563, 16669.193407200983, -14997.171163221738, -22274.11684681378, -20114.424242308647, -33468.29515317621, 0.03, 0.98, 0.088, 192.0, 0.0, 0.0, 0.0, 0.0, 0.0, 0.0, 0.0, 0.0, 0.0, 1.742425126927778E9, 0.0, 2025-03-19 17:58:46.927
64.0, -27791.130875483857, -30820.798077678453, -45093.16922344795, -18937.73900720346, -11544.586604188276, -1176.1487932382577, -17658.660430748514, -35972.137567059704, 5486.660359699769, -26865.254564911673, -11078.91036020641, 16688.30414871027, -15005.843640070396, -22256.324858227355, -20106.154096860184, -33447.15040292149, 0.03, 0.98, 0.088, 192.0, 0.0, 0.0, 0.0, 0.0, 0.0, 0.0, 0.0, 0.0, 0.0, 1.742425126927805E9, 0.0, 2025-03-19 17:58:46.927
66.0, -27787.286375437543, -30812.371470018803, -45089.65999956847, -18930.94407688905, -11537.501101195945, -1168.0351100009811, -17662.840206961657, -35962.52631694393, 5480.156002063275, -26865.813358523057, -11093.349587124538, 16673.976680514417, -15002.177953979726, -22270.31705025638, -20109.663320739666, -33453.27478090224, 0.03, 0.98, 0.088, 192.0, 0.0, 0.0, 0.0, 0.0, 0.0, 0.0, 0.0, 0.0, 0.0, 1.742425126927852E9, 0.0, 2025-03-19 17:58:46.927
68.0, -27783.73244806915, -30810.829199651387, -45086.59781057809, -18934.02861762388, -11539.356295985735, -1164.7717553105063, -17650.926727166978, -35955.30670348486, 5495.824574926445, -26851.999980449677, -11074.887046204454, 16696.708404625464, -14988.185761950705, -22250.803977346895, -20101.527285757933, -33435.72866150483, 0.034, 0.972, 0.092, 192.0, 0.5, 8.0, 15.0, 48.0, 1.0, 112.0, 0.0, 0.0, 0.0, 1.74242512692788E9, 0.0, 2025-03-19 17:58:46.927
70.0, -27785.25236669211, -30809.44339149516, -45097.84073803911, -18935.25796356892, -11539.088075052272, -1169.8903047907716, -17665.477712807384, -35967.957790846565, 5488.1132230893645, -26856.135053173908, -11084.7665172537, 16680.34692768418, -14999.24987545608, -22263.566823430876, -20107.606960249777, -33446.9939407103, 0.034, 0.972, 0.092, 192.0, 0.0, 0.0, 0.0, 0.0, 0.0, 0.0, 0.0, 0.0, 0.0, 1.742425126928806E9, 0.0, 2025-03-19 17:58:46.928
72.0, -27788.53807312704, -30810.940958373663, -45108.92720328894, -18939.862422926715, -11539.780979130386, -1168.1915722121682, -17645.383494542064, -35972.852822882276, 5487.80029866699, -26856.55973631856, -11078.463325317303, 16688.929997555017, -15011.610390139866, -22259.07412279536, -20108.813954450365, -33440.84721098509, 0.034, 0.972, 0.092, 192.0, 0.0, 0.0, 0.0, 0.0, 0.0, 0.0, 0.0, 0.0, 0.0, 1.742425126928836E9, 0.0, 2025-03-19 17:58:46.928
74.0, -27787.778113815562, -30809.66690893971, -45096.16435720496, -18939.236574081966, -11546.844130378262, -1173.2207147146123, -17677.145323413053, -35970.952924603575, 5487.196801566697, -26859.353704375473, -11086.28643587666, 16676.12244798213, -15006.625951126332, -22267.99246883303, -20115.005387664485, -33449.36322562256, 0.034, 0.972, 0.092, 192.0, 0.0, 0.0, 0.0, 0.0, 0.0, 0.0, 0.0, 0.0, 0.0, 1.742425126928867E9, 0.0, 2025-03-19 17:58:46.928
76.0, -27784.626517847362, -30805.777705404485, -45105.32857243164, -18941.2705828274, -11547.492330967467, -1168.5715518679085, -17659.040410404257, -35969.5894681918, 5494.37171153685, -26859.309000886562, -11076.451668316326, 16690.11464001115, -15008.794070338497, -22258.69414313962, -20112.099660885295, -33444.512897075765, 0.034, 0.972, 0.092, 192.0, 0.0, 0.0, 0.0, 0.0, 0.0, 0.0, 0.0, 0.0, 0.0, 1.742425126989411E9, 0.0, 2025-03-19 17:58:46.989
78.0, -27771.193119429725, -30793.8195221209, -45092.61042983657, -18934.78857693536, -11538.305763996335, -1173.4442321591655, -17661.476750549882, -35964.58267743381, 5493.030606869532, -26853.65400953937, -11085.459421331814, 16684.034965519306, -14998.601674866877, -22264.818521120374, -20111.98790216302, -33452.2466006573, 0.034, 0.974, 0.092, 192.0, 0.5, 8.0, 15.0, 56.0, 1.0, 112.0, 0.0, 0.0, 0.0, 1.742425126989448E9, 0.0, 2025-03-19 17:58:46.989
80.0, -27774.456474120198, -30792.5678244314, -45096.857261283076, -18935.83910892476, -11539.75862738593, -1167.878647789794, -17643.103616607623, -35964.78384313391, 5496.472775515649, -26848.848384481476, -11072.741278736745, 16696.350776714182, -15000.903904545774, -22255.475491938054, -20104.20949509257, -33445.51872557625, 0.034, 0.974, 0.092, 192.0, 0.0, 0.0, 0.0, 0.0, 0.0, 0.0, 0.0, 0.0, 0.0, 1.742425126989478E9, 0.0, 2025-03-19 17:58:46.989
82.0, -27762.095959436414, -30781.570766159388, -45090.419958879946, -18929.848841410738, -11539.468054708012, -1168.6609588457297, -17679.805181003238, -35969.12008155824, 5503.178298852241, -26846.45674782476, -11075.959929938308, 16694.182657502017, -15004.167259236248, -22258.94001232863, -20107.808125949876, -33447.798603510695, 0.034, 0.974, 0.092, 192.0, 0.0, 0.0, 0.0, 0.0, 0.0, 0.0, 0.0, 0.0, 0.0, 1.742425126989505E9, 0.0, 2025-03-19 17:58:46.989
84.0, -27751.0989011644, -30770.216079976093, -45082.999179720784, -18920.796384906338, -11534.684781394575, -1157.842714529361, -17641.695456706937, -35961.811061121356, 5511.716665234168, -26840.846459966477, -11064.113505376996, 16703.905666340073, -14999.987483023106, -22251.698047125108, -20104.388309048212, -33444.647007542495, 0.034, 0.974, 0.092, 192.0, 0.0, 0.0, 0.0, 0.0, 0.0, 0.0, 0.0, 0.0, 0.0, 1.742425126989532E9, 0.0, 2025-03-19 17:58:46.989
86.0, -27752.641171531817, -30767.444463663636, -45081.83688900911, -18919.812908150307, -11534.595374416755, -1162.4695256316097, -17659.599204015638, -35958.39124421969, 5516.723455992157, -26832.777480218112, -11064.560540266102, 16709.091271053705, -14991.203247452171, -22250.51340466898, -20096.36403278876, -33437.38269059452, 0.030000000000000002, 0.98, 0.094, 192.0, 0.0, 104.0, 15.0, 104.0, 1.5, 0.0, 0.0, 0.0, 0.0, 1.742425126989559E9, 0.0, 2025-03-19 17:58:46.989
88.0, -27737.598447513396, -30761.32008568288, -45072.180935404416, -18921.802213406827, -11538.462226207523, -1151.6736330596964, -17649.898546922035, -35952.62449415022, 5515.561165280481, -26832.12927962891, -11062.19125535384, 16710.566486187756, -15002.602637124377, -22244.858413321785, -20101.460230524568, -33431.303016102676, 0.030000000000000002, 0.98, 0.094, 192.0, 0.0, 0.0, 0.0, 0.0, 0.0, 0.0, 0.0, 0.0, 0.0, 1.742425126989607E9, 0.0, 2025-03-19 17:58:46.989
90.0, -27737.97842716914, -30763.33174268386, -45077.72416802933, -18926.27256229789, -11533.298973238347, -1161.1507727087467, -17652.290183578752, -35958.01126456395, 5522.490206061627, -26835.996131419677, -11059.017307641187, 16709.426547220533, -14993.259607942058, -22245.97600054455, -20098.710965956565, -33427.14559163399, 0.030000000000000002, 0.98, 0.094, 192.0, 0.0, 0.0, 0.0, 0.0, 0.0, 0.0, 0.0, 0.0, 0.0, 1.742425127048237E9, 0.0, 2025-03-19 17:58:47.048
92.0, -27738.984255669628, -30763.354094428316, -45084.09441519909, -18931.435815267065, -11536.182348273082, -1161.620159342308, -17646.07639862018, -35961.14050878769, 5520.858528716389, -26835.750262230667, -11071.020194413686, 16695.523762169334, -14985.861180527352, -22252.010971547483, -20102.399003791692, -33440.91426621846, 0.030000000000000002, 0.98, 0.094, 192.0, 0.0, 0.0, 0.0, 0.0, 0.0, 0.0, 0.0, 0.0, 0.0, 1.742425127048322E9, 0.0, 2025-03-19 17:58:47.048
94.0, -27727.517810764053, -30750.23362043305, -45076.092490684096, -18921.779861662373, -11526.079359779282, -1162.9389122651712, -17670.864483221114, -35960.604066920765, 5530.71564802118, -26833.69390174078, -11060.313708819594, 16707.191372775003, -15001.619160368344, -22248.993486046016, -20099.225056079038, -33435.30397836018, 0.030000000000000002, 0.98, 0.094, 192.0, 0.0, 0.0, 0.0, 0.0, 0.0, 0.0, 0.0, 0.0, 0.0, 1.742425127048354E9, 0.0, 2025-03-19 17:58:47.048
96.0, -27721.795764183495, -30743.975131985564, -45078.595886063085, -18924.640884952652, -11529.56623191431, -1161.75426980904, -17648.11040736561, -35960.26879075394, 5538.449351602716, -26825.31199757004, -11057.944423907331, 16705.984378574416, -15004.122555747337, -22248.859375579283, -20096.185218833118, -33439.77432725124, 0.03, 0.98, 0.094, 192.0, 0.0, 120.0, 15.0, 80.0, 1.0, 120.0, 0.0, 0.0, 0.0, 1.742425127048386E9, 0.0, 2025-03-19 17:58:47.048
98.0, -27724.165049095758, -30745.22682967506, -45078.037092451705, -18934.118024601703, -11541.837339620273, -1176.0146827715257, -17670.55155879874, -35972.36108450426, 5535.14129342333, -26827.994206904677, -11060.358412308504, 16713.338102500213, -14984.654186326765, -22252.16743375867, -20101.08025086883, -33440.891914474, 0.03, 0.98, 0.094, 192.0, 0.0, 0.0, 0.0, 0.0, 0.0, 0.0, 0.0, 0.0, 0.0, 1.742425127048415E9, 0.0, 2025-03-19 17:58:47.048
100.0, -27711.849237900882, -30735.302655136904, -45077.746519773784, -18931.592277478252, -11539.356295985735, -1171.7678513250175, -17666.88587270807, -35972.562250204355, 5535.118941678875, -26828.910628427344, -11061.967737909286, 16703.525686684334, -15001.35093943488, -22261.17518677416, -20109.328044572838, -33455.01821696976, 0.03, 0.98, 0.094, 192.0, 0.0, 0.0, 0.0, 0.0, 0.0, 0.0, 0.0, 0.0, 0.0, 1.742425127048442E9, 0.0, 2025-03-19 17:58:47.048
102.0, -27707.445944243187, -30730.474678334558, -45074.17024066094, -18929.491213499452, -11540.42917971959, -1171.9913687695705, -17675.513646067815, -35971.2882007704, 5545.490151106138, -26825.826087692512, -11049.13783659194, 16720.177736303536, -15003.764927836053, -22250.714570369073, -20103.02485263644, -33441.04837668519, 0.03, 0.98, 0.094, 192.0, 0.0, 0.0, 0.0, 0.0, 0.0, 0.0, 0.0, 0.0, 0.0, 1.742425127048469E9, 0.0, 2025-03-19 17:58:47.048
104.0, -27694.481932459108, -30719.298806106905, -45063.4861068113, -18924.327960530278, -11530.929688326083, -1158.6026738408416, -17653.810102201714, -35956.9383808301, 5549.312299407995, -26817.466535266227, -11051.060086615096, 16715.17094554555, -14997.6405498553, -22250.31223896888, -20100.11912585725, -33440.13195516252, 0.03, 0.98, 0.094, 192.0, 0.0, 0.0, 0.0, 0.0, 0.0, 0.0, 0.0, 0.0, 0.0, 1.742425127048496E9, 0.0, 2025-03-19 17:58:47.048
106.0, -27702.86383662985, -30730.429974845647, -45073.566743560645, -18936.196736836046, -11542.798464631853, -1165.2187901996124, -17668.9198814535, -35970.4388344811, 5552.888578520844, -26822.138049857385, -11048.71315344729, 16719.596590947698, -14995.450078898679, -22252.41330294768, -20103.494239270003, -33428.95608293487, 0.028, 0.979, 0.094, 192.0, 0.0, 104.0, 15.0, 72.0, 1.0, 120.0, 0.0, 0.0, 0.0, 1.742425127107152E9, 0.0, 2025-03-19 17:58:47.107
108.0, -27688.536368433997, -30721.109297407784, -45068.314083613644, -18929.55826873282, -11533.410731960623, -1167.6104268563304, -17678.464076335917, -35977.56904096235, 5554.341441910439, -26822.473326024214, -11052.937633149342, 16704.375052973635, -14994.01956725354, -22259.677619895654, -20103.516591014457, -33444.55760056467, 0.028, 0.979, 0.094, 192.0, 0.0, 0.0, 0.0, 0.0, 0.0, 0.0, 0.0, 0.0, 0.0, 1.742425127107202E9, 0.0, 2025-03-19 17:58:47.107
110.0, -27681.897900330772, -30714.001442670997, -45068.82817373612, -18924.707940186017, -11534.125987783193, -1168.4374414011768, -17670.015116931812, -35975.713846172555, 5570.188828729252, -26821.713366712735, -11037.939612619832, 16720.91534387056, -14979.692099057687, -22249.529927912943, -20099.225056079038, -33439.84138248461, 0.028, 0.979, 0.094, 192.0, 0.0, 0.0, 0.0, 0.0, 0.0, 0.0, 0.0, 0.0, 0.0, 1.742425127107249E9, 0.0, 2025-03-19 17:58:47.107
112.0, -27668.91153680224, -30699.74102970851, -45054.18778111789, -18909.911085356605, -11526.057008034828, -1159.6308540857858, -17654.92768942448, -35961.27461925443, 5574.525067153581, -26803.16141881483, -11038.319592275571, 16721.898820626597, -14983.849523526374, -22245.39485518871, -20094.084154854318, -33442.836516241616, 0.028, 0.979, 0.094, 192.0, 0.0, 0.0, 0.0, 0.0, 0.0, 0.0, 0.0, 0.0, 0.0, 1.742425127107287E9, 0.0, 2025-03-19 17:58:47.107
114.0, -27681.540272419486, -30712.7497449815, -45073.67850228292, -18925.825527408782, -11546.486502466978, -1175.1876682266795, -17662.147302883543, -35977.949020618085, 5568.8253723174785, -26809.598721217957, -11028.708342159789, 16735.6004399777, -14996.92529403273, -22236.431805662134, -20094.17356183214, -33432.28649285871, 0.028, 0.979, 0.094, 192.0, 0.0, 0.0, 0.0, 0.0, 0.0, 0.0, 0.0, 0.0, 0.0, 1.742425127107322E9, 0.0, 2025-03-19 17:58:47.107
116.0, -27667.43632166819, -30698.98107039703, -45058.188743375395, -18915.230800536967, -11538.573984929799, -1173.1760112257018, -17677.905282724536, -35975.37857000573, 5554.609662843903, -26812.862075908433, -11046.902662146409, 16716.8473263797, -15000.523924890034, -22260.057599551394, -20106.802297449387, -33447.70919653287, 0.026000000000000002, 0.9815, 0.094, 192.0, 0.0, 96.0, 15.0, 96.0, 1.0, 120.0, 0.0, 0.0, 0.0, 1.742425127107349E9, 0.0, 2025-03-19 17:58:47.107
118.0, -27662.69775184366, -30697.505855262978, -45056.26649335224, -18913.71088191401, -11530.348542970247, -1162.0001389980482, -17648.199814343432, -35964.49327045599, 5574.681529364769, -26802.580273458992, -11024.215641524273, 16735.086349855228, -14982.888398514797, -22242.846756320807, -20091.536055986413, -33428.17377187893, 0.026000000000000002, 0.9815, 0.094, 192.0, 0.0, 0.0, 0.0, 0.0, 0.0, 0.0, 0.0, 0.0, 0.0, 1.742425127107381E9, 0.0, 2025-03-19 17:58:47.107
120.0, -27650.069016226415, -30685.413561512658, -45038.92153965492, -18905.105460298713, -11524.492385922955, -1162.8942087762605, -17667.154093641533, -35964.40386347817, 5575.687357865258, -26798.244035034662, -11024.193289779818, 16728.000846862895, -14972.785410020997, -22242.578535387343, -20085.21051230556, -33432.71117600336, 0.026000000000000002, 0.9815, 0.094, 192.0, 0.0, 0.0, 0.0, 0.0, 0.0, 0.0, 0.0, 0.0, 0.0, 1.742425127167382E9, 0.0, 2025-03-19 17:58:47.167
122.0, -27657.80271980795, -30694.153093594683, -45050.32092932713, -18918.3153412718, -11536.830548862285, -1168.0574617454365, -17656.648773747536, -35972.428139737625, 5577.520200910592, -26806.49182873867, -11020.684065900334, 16735.846309166707, -14988.543389861989, -22244.12080575476, -20090.664337952654, -33429.80544922417, 0.026000000000000002, 0.9815, 0.094, 192.0, 0.0, 0.0, 0.0, 0.0, 0.0, 0.0, 0.0, 0.0, 0.0, 1.742425127167416E9, 0.0, 2025-03-19 17:58:47.167
124.0, -27649.264353426024, -30683.759532422966, -45040.59792048907, -18908.36881498919, -11527.152243513137, -1170.359691424333, -17666.483541307873, -35972.428139737625, 5579.3306922114725, -26797.372317000907, -11019.588830422024, 16733.87935565464, -14980.988500236095, -22245.79718658891, -20086.842189650797, -33434.94635044889, 0.026000000000000002, 0.9815, 0.094, 192.0, 0.0, 0.0, 0.0, 0.0, 0.0, 0.0, 0.0, 0.0, 0.0, 1.742425127167444E9, 0.0, 2025-03-19 17:58:47.167
126.0, -27646.962123747126, -30684.050105100883, -45050.03035664921, -18908.033538822358, -11530.505005181432, -1163.9894442545706, -17646.92576490948, -35965.65556116767, 5584.225724247185, -26796.813523389523, -11014.626743152947, 16745.16698660457, -14970.460828597645, -22238.53286964093, -20086.484561739515, -33428.30788234567, 0.028, 0.97975, 0.095, 192.0, 0.0, 120.0, 15.0, 72.0, 1.5, 0.0, 0.0, 0.0, 0.0, 1.742425127167472E9, 0.0, 2025-03-19 17:58:47.167
128.0, -27639.31782714341, -30674.59531719629, -45028.84090290558, -18898.109364284202, -11532.203737760037, -1161.9554355091377, -17678.151151913542, -35961.47578495453, 5577.855477077423, -26799.40632574634, -11014.269115241661, 16737.053303367295, -14983.268378170536, -22243.74082609902, -20091.44664900859, -33426.92207418944, 0.028, 0.97975, 0.095, 192.0, 0.0, 0.0, 0.0, 0.0, 0.0, 0.0, 0.0, 0.0, 0.0, 1.742425127167501E9, 0.0, 2025-03-19 17:58:47.167
130.0, -27637.306170142434, -30671.399017739182, -45032.48423725179, -18895.762431116396, -11521.184327743571, -1151.2265981705903, -17648.646849232537, -35957.7877471194, 5590.126584783386, -26778.954479569733, -11000.835716824022, 16755.493492542922, -14978.529808346011, -22224.317160167357, -20079.220244791537, -33418.24959734078, 0.028, 0.97975, 0.095, 192.0, 0.0, 0.0, 0.0, 0.0, 0.0, 0.0, 0.0, 0.0, 0.0, 1.742425127167528E9, 0.0, 2025-03-19 17:58:47.167
132.0, -27645.308094657434, -30677.299878275382, -45036.82047567612, -18903.853762609215, -11530.080322036782, -1167.3869094117772, -17687.181256673488, -35978.105482829276, 5587.511430682115, -26787.850473862945, -11008.189440749818, 16747.379809305647, -14976.920482745229, -22229.055729991884, -20081.723640170534, -33420.529475275216, 0.028, 0.97975, 0.095, 192.0, 0.0, 0.0, 0.0, 0.0, 0.0, 0.0, 0.0, 0.0, 0.0, 1.742425127167564E9, 0.0, 2025-03-19 17:58:47.167
134.0, -27639.831917265885, -30677.568099208846, -45039.949719899865, -18903.22791376447, -11531.399074959645, -1156.2110371841238, -17646.590488742648, -35959.06179655335, 5587.265561493106, -26786.35290698444, -11011.095167529007, 16746.753960460897, -14977.121648445327, -22231.40266315969, -20084.20468380507, -33423.85988519906, 0.028, 0.97975, 0.095, 192.0, 0.0, 0.0, 0.0, 0.0, 0.0, 0.0, 0.0, 0.0, 0.0, 1.742425127167598E9, 0.0, 2025-03-19 17:58:47.167
136.0, -27642.17885043369, -30679.31153527636, -45047.79518220368, -18904.747832387427, -11531.354371470736, -1169.8903047907716, -17672.809084988723, -35966.57198269034, 5575.799116587534, -26792.83491287648, -11017.644228654413, 16737.12035860066, -14998.601674866877, -22242.623238876255, -20093.480657754026, -33422.22820785382, 0.028999999999999998, 0.9788749999999999, 0.0935, 192.0, 0.0, 120.0, 15.0, 72.0, 1.0, 112.0, 0.0, 0.0, 0.0, 1.742425127229081E9, 0.0, 2025-03-19 17:58:47.229
138.0, -27629.214838649612, -30668.15801479316, -45029.71262093933, -18890.733288613952, -11521.586659143766, -1150.6454528147524, -17645.20468058642, -35950.21050574905, 5591.691206895257, -26784.095380794453, -11004.344940703504, 16751.246661096415, -14970.10320068636, -22230.15096547019, -20077.968547102042, -33417.377879307016, 0.028999999999999998, 0.9788749999999999, 0.0935, 192.0, 0.0, 0.0, 0.0, 0.0, 0.0, 0.0, 0.0, 0.0, 0.0, 1.742425127229148E9, 0.0, 2025-03-19 17:58:47.229
140.0, -27640.815394021916, -30679.11036957626, -45043.637757734985, -18898.69050964004, -11534.304801738836, -1165.263493688523, -17685.34841362815, -35968.82950888032, 5588.740776627157, -26787.269328507107, -11010.89400182891, 16752.386600063634, -14994.041918997995, -22231.6485323487, -20087.49039024, -33413.533379260705, 0.028999999999999998, 0.9788749999999999, 0.0935, 192.0, 0.0, 0.0, 0.0, 0.0, 0.0, 0.0, 0.0, 0.0, 0.0, 1.742425127229185E9, 0.0, 2025-03-19 17:58:47.229
142.0, -27625.75031825904, -30666.861613614754, -45032.66305120743, -18885.74884960042, -11523.061874277815, -1146.8456562573501, -17657.609898759114, -35954.21146800655, 5599.402558732339, -26779.200348758743, -11006.8483360825, 16750.88903318513, -14977.613386823343, -22224.563029356366, -20081.54482621489, -33416.126181617525, 0.028999999999999998, 0.9788749999999999, 0.0935, 192.0, 0.0, 0.0, 0.0, 0.0, 0.0, 0.0, 0.0, 0.0, 0.0, 1.742425127229212E9, 0.0, 2025-03-19 17:58:47.229
144.0, -27637.08265269788, -30677.903375375674, -45043.14601935697, -18902.669120153085, -11533.23191800498, -1168.9291797791934, -17673.300823366742, -35969.83533738081, 5594.641637163358, -26784.788284872568, -11003.205001736284, 16751.805454707795, -14985.01181423805, -22227.82638404684, -20083.243558793492, -33412.37108854903, 0.028999999999999998, 0.9788749999999999, 0.0935, 192.0, 0.0, 0.0, 0.0, 0.0, 0.0, 0.0, 0.0, 0.0, 0.0, 1.742425127229239E9, 0.0, 2025-03-19 17:58:47.229
146.0, -27629.66187353872, -30671.711942161557, -45035.16644658642, -18901.104498041215, -11524.224164989491, -1162.6706913317075, -17667.288204108263, -35966.57198269034, 5590.730081883679, -26787.090514551463, -11013.620914652458, 16739.22142257946, -14994.86893354284, -22236.901192295696, -20086.417506506146, -33430.18542887991, 0.0305, 0.9804375, 0.09275, 192.0, 0.5, 0.0, 15.0, 88.0, 1.0, 112.0, 0.0, 0.0, 0.0, 1.742425127229268E9, 0.0, 2025-03-19 17:58:47.229
148.0, -27635.070995696904, -30679.959735865563, -45048.42103104843, -18912.50388771342, -11529.65563889213, -1172.3713484253108, -17685.1248961836, -35973.52337521593, 5595.982741830676, -26791.314994253516, -11011.072815784551, 16744.18350984854, -15005.977750537128, -22237.5493928849, -20089.278529796426, -33426.609149767064, 0.0305, 0.9804375, 0.09275, 192.0, 0.0, 0.0, 0.0, 0.0, 0.0, 0.0, 0.0, 0.0, 0.0, 1.742425127229297E9, 0.0, 2025-03-19 17:58:47.229
150.0, -27634.735719530076, -30680.183253310115, -45052.28788283919, -18910.40282373462, -11533.321324982802, -1160.815496541917, -17667.623480275095, -35966.8402036238, 5592.205297017729, -26799.272215279605, -11022.293391501116, 16725.385692761625, -14988.96807300664, -22240.03043651944, -20094.26296880996, -33433.98522543731, 0.0305, 0.9804375, 0.09275, 192.0, 0.0, 0.0, 0.0, 0.0, 0.0, 0.0, 0.0, 0.0, 0.0, 1.742425127288011E9, 0.0, 2025-03-19 17:58:47.288
152.0, -27633.819298007405, -30678.842148642798, -45042.877798423506, -18909.911085356605, -11535.08711279477, -1162.491877376065, -17681.615672304117, -35974.55155546088, 5589.5454394275475, -26794.153665799342, -11017.018379809664, 16736.31569580027, -14984.5871310934, -22238.73403534103, -20096.699308955587, -33430.028966668724, 0.0305, 0.9804375, 0.09275, 192.0, 0.0, 0.0, 0.0, 0.0, 0.0, 0.0, 0.0, 0.0, 0.0, 1.742425127288052E9, 0.0, 2025-03-19 17:58:47.288
154.0, -27631.829992750885, -30675.556442207868, -45046.29761532517, -18908.16764928909, -11530.013266803417, -1156.8592377733275, -17681.39215485956, -35965.49909895648, 5594.999265074643, -26787.78341862958, -11019.18649902183, 16728.26906779636, -14996.724128332631, -22238.130538240737, -20091.22313156404, -33435.23692312681, 0.0305, 0.9804375, 0.09275, 192.0, 0.0, 0.0, 0.0, 0.0, 0.0, 0.0, 0.0, 0.0, 0.0, 1.7424251272881E9, 0.0, 2025-03-19 17:58:47.288
156.0, -27645.308094657434, -30687.91695689165, -45052.51140028374, -18918.98589360546, -11539.624516919199, -1166.6269501002969, -17690.399907875053, -35973.92570661613, 5592.3617592289165, -26792.097305309453, -11023.858013612988, 16734.16992833256, -15002.021491768539, -22233.660189349677, -20098.710965956565, -33427.34675733409, 0.03025, 0.98121875, 0.091375, 192.0, 0.0, 120.0, 15.0, 88.0, 1.0, 104.0, 0.0, 0.0, 0.0, 1.742425127288137E9, 0.0, 2025-03-19 17:58:47.288
158.0, -27635.94271373066, -30679.13272132072, -45044.9341589134, -18908.391166733643, -11527.264002235413, -1159.1838191966797, -17668.02581167529, -35954.97142731803, 5587.891410337855, -26792.87961636539, -11027.031961325642, 16720.98239910393, -15010.82807908393, -22235.984770773026, -20091.916035642153, -33436.68978651641, 0.03025, 0.98121875, 0.091375, 192.0, 0.0, 0.0, 0.0, 0.0, 0.0, 0.0, 0.0, 0.0, 0.0, 1.742425127288171E9, 0.0, 2025-03-19 17:58:47.288
160.0, -27640.055434710437, -30684.184215567617, -45048.04105139268, -18913.196791791535, -11536.964659329016, -1165.4199558997102, -17678.64289029156, -35966.348465245785, 5590.618323161402, -26798.266386779116, -11021.600487423002, 16739.064960368272, -14999.383985922812, -22227.602866602287, -20094.464134510057, -33430.05131841318, 0.03025, 0.98121875, 0.091375, 192.0, 0.0, 0.0, 0.0, 0.0, 0.0, 0.0, 0.0, 0.0, 0.0, 1.742425127288202E9, 0.0, 2025-03-19 17:58:47.288
162.0, -27637.41792886471, -30680.764398665953, -45049.67272873792, -18912.66034992461, -11530.348542970247, -1167.297502433956, -17677.145323413053, -35969.008322835965, 5589.5454394275475, -26788.990412830164, -11024.439158968826, 16729.31959978576, -14989.258645684558, -22230.77681431494, -20095.15703858817, -33438.94731270639, 0.03025, 0.98121875, 0.091375, 192.0, 0.0, 0.0, 0.0, 0.0, 0.0, 0.0, 0.0, 0.0, 0.0, 1.742425127288229E9, 0.0, 2025-03-19 17:58:47.288
164.0, -27647.31975165841, -30690.934442393118, -45063.32964460011, -18924.886754141662, -11546.195929789059, -1179.970941540115, -17686.041317706266, -35988.78961667891, 5581.588218401458, -26799.518084468615, -11029.46830147127, 16736.092178355717, -15019.478204188134, -22237.817613818363, -20109.26098933947, -33438.25440862828, 0.03025, 0.98121875, 0.091375, 192.0, 0.0, 0.0, 0.0, 0.0, 0.0, 0.0, 0.0, 0.0, 0.0, 1.742425127288257E9, 0.0, 2025-03-19 17:58:47.288
166.0, -27624.833896736374, -30670.169671794138, -45036.35108904256, -18906.625378921675, -11537.255232006935, -1169.5103251350315, -17696.859562022633, -35970.684703670115, 5580.470631178693, -26794.131314054885, -11032.530490461648, 16727.330294529234, -15001.507401646068, -22239.941029541616, -20110.378576562238, -33447.55273432168, 0.031125, 0.982609375, 0.0906875, 192.0, 0.5, 0.0, 15.0, 96.0, 1.0, 104.0, 0.0, 0.0, 0.0, 1.742425127348285E9, 0.0, 2025-03-19 17:58:47.348
168.0, -27627.046719437447, -30672.56130845086, -45042.11783911203, -18911.520410957386, -11534.058932549828, -1168.8174210569168, -17676.78769550177, -35970.28237226992, 5592.384110973372, -26785.704706395234, -11011.8998303294, 16746.999829649907, -15000.948608034685, -22225.613561345766, -20095.626425221733, -33433.56054229266, 0.031125, 0.982609375, 0.0906875, 192.0, 0.0, 0.0, 0.0, 0.0, 0.0, 0.0, 0.0, 0.0, 0.0, 1.742425127348319E9, 0.0, 2025-03-19 17:58:47.348
170.0, -27622.08463216837, -30666.54868919238, -45036.75342044275, -18904.88194285416, -11528.359237713723, -1168.0798134898919, -17686.264835150818, -35967.6895699131, 5597.033273820076, -26786.35290698444, -11015.520812931158, 16740.36136154668, -14994.399546909279, -22229.92744802564, -20091.804276919876, -33438.05324292818, 0.031125, 0.982609375, 0.0906875, 192.0, 0.0, 0.0, 0.0, 0.0, 0.0, 0.0, 0.0, 0.0, 0.0, 1.742425127348346E9, 0.0, 2025-03-19 17:58:47.348
172.0, -27628.924265971695, -30670.192023538595, -45042.07313562312, -18910.469878967986, -11528.940383069561, -1169.197400712657, -17665.79063722976, -35971.668180426146, 5597.1226807978965, -26786.30820349553, -11012.905658829888, 16751.11255062968, -15005.307198203469, -22227.11112822427, -20092.005442619975, -33430.61011202456, 0.031125, 0.982609375, 0.0906875, 192.0, 0.0, 0.0, 0.0, 0.0, 0.0, 0.0, 0.0, 0.0, 0.0, 1.742425127348374E9, 0.0, 2025-03-19 17:58:47.348
174.0, -27617.03313792147, -30661.117215289738, -45032.79716167416, -18904.747832387427, -11519.485595164966, -1168.6386071012744, -17685.415468861516, -35961.811061121356, 5590.081881294475, -26785.592947672958, -11020.03586531113, 16737.947373145507, -14999.383985922812, -22231.73793932652, -20092.541884486902, -33435.348681849086, 0.031125, 0.982609375, 0.0906875, 192.0, 0.0, 0.0, 0.0, 0.0, 0.0, 0.0, 0.0, 0.0, 0.0, 1.7424251273484E9, 0.0, 2025-03-19 17:58:47.348
176.0, -27621.41407983471, -30664.69349440259, -45041.67080422292, -18907.27357951088, -11530.057970292328, -1165.7328803220846, -17670.797427987745, -35965.47674721202, 5602.554154700537, -26778.954479569733, -11007.451833182793, 16750.50905352939, -14993.192552708693, -22220.53971535441, -20087.915073384655, -33426.18446662241, 0.0285625, 0.9823046875, 0.09234375, 192.0, 0.0, 104.0, 15.0, 88.0, 1.0, 120.0, 0.0, 0.0, 0.0, 1.742425127348435E9, 0.0, 2025-03-19 17:58:47.348
178.0, -27616.921379199193, -30661.340732734294, -45033.780638430195, -18902.64676840863, -11525.922897568094, -1169.4209181572103, -17689.88581775258, -35964.58267743381, 5597.189736031263, -26785.704706395234, -11016.057254798086, 16740.763692946875, -15001.865029557352, -22232.45319514909, -20093.033622864918, -33437.04741442769, 0.0285625, 0.9823046875, 0.09234375, 192.0, 0.0, 0.0, 0.0, 0.0, 0.0, 0.0, 0.0, 0.0, 0.0, 1.742425127348477E9, 0.0, 2025-03-19 17:58:47.348
180.0, -27621.23526587907, -30665.7887298809, -45038.742725699274, -18905.50779169891, -11535.176519772593, -1170.359691424333, -17681.570968815206, -35973.25515428247, 5605.884564624377, -26782.173130771298, -11009.50819367268, 16747.178643605548, -14994.466602142646, -22227.49110788001, -20090.329061785826, -33432.51001030326, 0.0285625, 0.9823046875, 0.09234375, 192.0, 0.0, 0.0, 0.0, 0.0, 0.0, 0.0, 0.0, 0.0, 0.0, 1.742425127409087E9, 0.0, 2025-03-19 17:58:47.409
182.0, -27623.157515902225, -30667.062779314852, -45031.92544364041, -18901.37271897468, -11531.75670287093, -1175.3888339267771, -17690.176390430497, -35962.54866868838, 5602.330637255984, -26779.937956325764, -11015.096129786507, 16741.769521447364, -14999.607503367366, -22231.4473666486, -20094.039451365406, -33436.71213826086, 0.0285625, 0.9823046875, 0.09234375, 192.0, 0.0, 0.0, 0.0, 0.0, 0.0, 0.0, 0.0, 0.0, 0.0, 1.742425127409132E9, 0.0, 2025-03-19 17:58:47.409
184.0, -27629.326597371888, -30671.667238672646, -45038.474504765814, -18906.781841132863, -11527.308705724325, -1175.2770752045008, -17661.49910229434, -35967.98014259102, 5603.939962856765, -26787.24697676265, -11015.878440842444, 16741.568355747266, -15009.308160460969, -22230.285075936925, -20088.295053040394, -33437.315635361156, 0.0285625, 0.9823046875, 0.09234375, 192.0, 0.0, 0.0, 0.0, 0.0, 0.0, 0.0, 0.0, 0.0, 0.0, 1.74242512740916E9, 0.0, 2025-03-19 17:58:47.409
186.0, -27622.017576935003, -30664.626439169224, -45037.73689719879, -18900.948035830028, -11527.509871424421, -1181.6696741187184, -17691.718660797913, -35966.03554082341, 5594.462823207716, -26793.05843032103, -11020.527603689146, 16739.17671909055, -15001.529753390521, -22238.17524172965, -20090.485523997013, -33442.5906470526, 0.02828125, 0.9801523437499999, 0.093171875, 192.0, 0.0, 112.0, 15.0, 72.0, 1.0, 120.0, 0.0, 0.0, 0.0, 1.742425127409186E9, 0.0, 2025-03-19 17:58:47.409
188.0, -27627.717271771107, -30669.521471204935, -45025.80106565965, -18903.250265508923, -11535.37768547269, -1179.7697758400175, -17675.64775653455, -35971.06468332585, 5612.25481179414, -26778.48509293617, -11010.446966939804, 16746.88807092763, -14988.521038117533, -22227.647570091198, -20080.471942481036, -33436.958007449866, 0.02828125, 0.9801523437499999, 0.093171875, 192.0, 0.0, 0.0, 0.0, 0.0, 0.0, 0.0, 0.0, 0.0, 0.0, 1.742425127409214E9, 0.0, 2025-03-19 17:58:47.409
190.0, -27634.646312552253, -30676.763436408455, -45030.27141455071, -18906.69243415504, -11537.434045962578, -1192.3538079683553, -17706.917847027522, -35976.11617757275, 5586.863230092911, -26793.080782065488, -11023.343923490516, 16739.78021619084, -15014.314951218958, -22243.427901676645, -20096.386384533213, -33442.9929784528, 0.02828125, 0.9801523437499999, 0.093171875, 192.0, 0.0, 0.0, 0.0, 0.0, 0.0, 0.0, 0.0, 0.0, 0.0, 1.742425127409241E9, 0.0, 2025-03-19 17:58:47.409
192.0, -27637.060300953424, -30681.770227166442, -45038.25098732126, -18912.526239457875, -11531.510833681921, -1192.174994012713, -17675.044259434257, -35976.87613688423, 5590.998302817143, -26795.29360476656, -11026.875499114454, 16730.5489457308, -15016.192497753203, -22245.573669144353, -20093.32419554284, -33447.172754665946, 0.02828125, 0.9801523437499999, 0.093171875, 192.0, 0.0, 0.0, 0.0, 0.0, 0.0, 0.0, 0.0, 0.0, 0.0, 1.742425127409271E9, 0.0, 2025-03-19 17:58:47.409
194.0, -27630.779460761485, -30675.17646255213, -45035.00998437524, -18901.864457352694, -11527.554574913333, -1182.072005518914, -17684.29788163875, -35964.537973944905, 5593.635808662869, -26804.79309616007, -11019.633533910936, 16737.053303367295, -15013.4432331852, -22243.763177843473, -20088.697384440587, -33441.24954238529, 0.02828125, 0.9801523437499999, 0.093171875, 192.0, 0.0, 0.0, 0.0, 0.0, 0.0, 0.0, 0.0, 0.0, 0.0, 1.742425127409302E9, 0.0, 2025-03-19 17:58:47.409
196.0, -27632.500545084542, -30672.762474150953, -45033.24419656327, -18898.89167534014, -11534.349505227747, -1176.2605519605343, -17682.576797315694, -35967.55545944637, 5604.141128556863, -26792.164360542818, -11025.109711302484, 16737.254469067393, -15005.687177859209, -22233.771948071953, -20085.724602428032, -33437.76267025026, 0.027140625, 0.978076171875, 0.0935859375, 192.0, 0.0, 104.0, 15.0, 64.0, 1.0, 120.0, 0.0, 0.0, 0.0, 1.742425127468836E9, 0.0, 2025-03-19 17:58:47.468
198.0, -27623.984530447073, -30662.748892634976, -45028.43857150538, -18886.508808911898, -11528.85097609174, -1171.7231478361068, -17700.525248113307, -35962.705130899565, 5580.940017812254, -26788.54337794106, -11017.107786787485, 16751.581937263243, -15011.789204095508, -22230.64270384821, -20089.814971663352, -33430.945388191394, 0.027140625, 0.978076171875, 0.0935859375, 192.0, 0.0, 0.0, 0.0, 0.0, 0.0, 0.0, 0.0, 0.0, 0.0, 1.742425127468892E9, 0.0, 2025-03-19 17:58:47.468
200.0, -27630.71240552812, -30673.701247418077, -45032.48423725179, -18897.59527416173, -11537.277583751391, -1173.623046114808, -17694.40087013255, -35971.33290425932, 5598.530840698581, -26786.330555239983, -11018.739464132723, 16744.764655204377, -14994.958340520661, -22229.905096281185, -20089.278529796426, -33434.09698415959, 0.027140625, 0.978076171875, 0.0935859375, 192.0, 0.0, 0.0, 0.0, 0.0, 0.0, 0.0, 0.0, 0.0, 0.0, 1.742425127468944E9, 0.0, 2025-03-19 17:58:47.468
202.0, -27625.057414180927, -30659.39613096668, -45032.84186516308, -18889.727460113463, -11530.773226114898, -1168.7950693124617, -17695.74197479987, -35962.88394485521, 5605.549288457548, -26787.045811062555, -11015.945496075808, 16752.61011750819, -15007.251799971082, -22229.59217185881, -20095.067631610353, -33427.436164311905, 0.027140625, 0.978076171875, 0.0935859375, 192.0, 0.0, 0.0, 0.0, 0.0, 0.0, 0.0, 0.0, 0.0, 0.0, 1.742425127468975E9, 0.0, 2025-03-19 17:58:47.468
204.0, -27619.536533300467, -30653.3835117082, -45013.97699284279, -18877.590462874232, -11518.055083519826, -1159.9214267637046, -17672.54086405526, -35953.272694739426, 5601.190698288763, -26766.01281953011, -11007.60829539398, 16760.58969027873, -15006.313026703958, -22215.82349727434, -20077.186236046105, -33417.4896380293, 0.027140625, 0.978076171875, 0.0935859375, 192.0, 0.0, 0.0, 0.0, 0.0, 0.0, 0.0, 0.0, 0.0, 0.0, 1.742425127469007E9, 0.0, 2025-03-19 17:58:47.469
206.0, -27629.99714970555, -30662.07834030132, -45023.18591155838, -18887.045250778825, -11533.56719417181, -1170.493801891065, -17687.851809007145, -35967.2872385129, 5590.8194888615, -26778.73096212518, -11011.631609395936, 16766.714068259487, -15014.694930874699, -22223.60190434479, -20089.54675072989, -33416.79673395118, 0.0275703125, 0.9750380859375, 0.09479296875, 192.0, 0.0, 112.0, 15.0, 48.0, 1.5, 0.0, 0.0, 0.0, 0.0, 1.742425127469033E9, 0.0, 2025-03-19 17:58:47.469
208.0, -27619.60358853383, -30654.612857653246, -45015.02752483219, -18877.478704151956, -11528.202775502537, -1159.1167639633136, -17701.21815219142, -35964.537973944905, 5594.798099374545, -26768.896194564844, -11009.441138439315, 16761.37200133467, -14996.344148676892, -22220.562067098865, -20083.82470414933, -33421.62471075353, 0.0275703125, 0.9750380859375, 0.09479296875, 192.0, 0.0, 0.0, 0.0, 0.0, 0.0, 0.0, 0.0, 0.0, 0.0, 1.742425127469136E9, 0.0, 2025-03-19 17:58:47.469
210.0, -27623.805716491428, -30661.676008901122, -45019.83314989009, -18884.161875744092, -11530.437949948067, -1163.2965401764561, -17684.87902699459, -35962.772186132934, 5603.090596567464, -26770.416113187806, -11002.288580213617, 16769.239815382938, -15002.06619525745, -22213.96830248455, -20083.623538449232, -33414.40509729446, 0.0275703125, 0.9750380859375, 0.09479296875, 192.0, 0.0, 0.0, 0.0, 0.0, 0.0, 0.0, 0.0, 0.0, 0.0, 1.742425127527798E9, 0.0, 2025-03-19 17:58:47.527
212.0, -27627.31494037091, -30667.64392467069, -45020.28018477919, -18890.107439769203, -11524.470034178501, -1164.8835140327828, -17677.36884085761, -35954.36793021774, 5598.083805809475, -26777.076933035485, -11012.056292540587, 16747.335105816735, -15008.168221493748, -22224.115994467258, -20082.103619826274, -33423.56931252114, 0.0275703125, 0.9750380859375, 0.09479296875, 192.0, 0.0, 0.0, 0.0, 0.0, 0.0, 0.0, 0.0, 0.0, 0.0, 1.742425127527853E9, 0.0, 2025-03-19 17:58:47.527
214.0, -27643.072920211904, -30683.558366722868, -45034.80881867514, -18905.664253910098, -11534.483615694478, -1173.5112873925314, -17681.92859672649, -35963.889773355695, 5594.820451119001, -26792.611395431926, -11014.850260597499, 16743.580012748243, -15000.121593489837, -22229.055729991884, -20083.981166360518, -33423.01051890976, 0.0275703125, 0.9750380859375, 0.09479296875, 192.0, 0.0, 0.0, 0.0, 0.0, 0.0, 0.0, 0.0, 0.0, 0.0, 1.74242512752788E9, 0.0, 2025-03-19 17:58:47.527
216.0, -27639.85426901034, -30678.6409829427, -45036.90988265394, -18907.094765555237, -11536.942307584563, -1179.7027206066514, -17710.78469881829, -35974.21627929405, 5579.263636978107, -26798.02051759011, -11033.290449773127, 16722.278800282336, -15013.577343651932, -22243.74082609902, -20100.655567724178, -33449.273818644746, 0.027785156249999998, 0.97251904296875, 0.092396484375, 192.0, 0.0, 112.0, 15.0, 40.0, 1.0, 104.0, 0.0, 0.0, 0.0, 1.742425127527908E9, 0.0, 2025-03-19 17:58:47.527
218.0, -27634.668664296707, -30675.891718374696, -45034.205321574846, -18907.161820788602, -11535.958830828527, -1176.975807783104, -17688.611768318628, -35976.87613688423, 5589.031349305075, -26794.757162899634, -11016.481937942737, 16742.149501103104, -15026.451948458189, -22231.82734630434, -20093.68182345412, -33439.21553363986, 0.027785156249999998, 0.97251904296875, 0.092396484375, 192.0, 0.0, 0.0, 0.0, 0.0, 0.0, 0.0, 0.0, 0.0, 0.0, 1.742425127527952E9, 0.0, 2025-03-19 17:58:47.527
220.0, -27628.79015550496, -30672.337791006303, -45027.79037091618, -18903.83141086476, -11534.61772616121, -1177.0205112720146, -17712.237562207887, -35972.986933349006, 5588.897238838344, -26794.77951464409, -11019.767644377667, 16730.325428286247, -15007.16239299326, -22237.236468462524, -20094.844114165797, -33448.424452355444, 0.027785156249999998, 0.97251904296875, 0.092396484375, 192.0, 0.0, 0.0, 0.0, 0.0, 0.0, 0.0, 0.0, 0.0, 0.0, 1.742425127527986E9, 0.0, 2025-03-19 17:58:47.527
222.0, -27631.29355088396, -30676.338753263804, -45033.802990174656, -18909.687567912053, -11535.4223889616, -1178.0486915169588, -17695.65256782205, -35977.16670956215, 5591.378282472883, -26801.395631002863, -11016.459586198282, 16732.515899242866, -15008.30233196048, -22235.001294016995, -20096.855771166775, -33444.98228370932, 0.027785156249999998, 0.97251904296875, 0.092396484375, 192.0, 0.0, 0.0, 0.0, 0.0, 0.0, 0.0, 0.0, 0.0, 0.0, 1.742425127528016E9, 0.0, 2025-03-19 17:58:47.528
224.0, -27614.976777431584, -30661.608953667757, -45015.63102193249, -18895.628320649663, -11524.80531034533, -1177.6240083723078, -17697.55246610075, -35973.21045079356, 5593.9487330852435, -26791.113828553418, -11011.475147184748, 16733.924059143552, -15008.503497660578, -22232.87787829374, -20089.21147456306, -33446.03281569872, 0.027785156249999998, 0.97251904296875, 0.092396484375, 192.0, 0.0, 0.0, 0.0, 0.0, 0.0, 0.0, 0.0, 0.0, 0.0, 1.742425127528048E9, 0.0, 2025-03-19 17:58:47.528
226.0, -27629.41600434971, -30675.623497441233, -45030.718449439824, -18912.70505341352, -11537.881080851685, -1183.5695723974195, -17690.51166659733, -35982.12879683123, 5594.194602274251, -26794.846569877456, -11013.41974895236, 16737.880317912142, -15019.344093721402, -22234.621314361255, -20094.10650659877, -33443.55177206419, 0.026892578125, 0.974259521484375, 0.0911982421875, 192.0, 0.0, 104.0, 15.0, 64.0, 1.0, 104.0, 0.0, 0.0, 0.0, 1.742425127588058E9, 0.0, 2025-03-19 17:58:47.588
228.0, -27624.342158358355, -30672.9412881066, -45028.416219760926, -18904.45725970951, -11529.85680459223, -1185.357711953844, -17713.489259897382, -35980.49711948599, 5590.864192350411, -26802.267349036618, -11022.159281034385, 16723.619904949654, -15012.392701195802, -22242.891459809718, -20098.733317701022, -33450.68197854543, 0.026892578125, 0.974259521484375, 0.0911982421875, 192.0, 0.0, 0.0, 0.0, 0.0, 0.0, 0.0, 0.0, 0.0, 0.0, 1.742425127588097E9, 0.0, 2025-03-19 17:58:47.588
230.0, -27627.203181648634, -30674.908241618665, -45035.881702408995, -18905.68660565455, -11535.042409305861, -1180.5520868959532, -17694.40087013255, -35984.654543954675, 5592.853497606933, -26797.953462356745, -11018.426539710348, 16733.78994867682, -14999.24987545608, -22232.58730561582, -20091.759573430965, -33448.893838989, 0.026892578125, 0.974259521484375, 0.0911982421875, 192.0, 0.0, 0.0, 0.0, 0.0, 0.0, 0.0, 0.0, 0.0, 0.0, 1.742425127588126E9, 0.0, 2025-03-19 17:58:47.588
232.0, -27625.839725236863, -30673.455378229068, -45017.62032718901, -18899.852800351717, -11536.830548862285, -1188.1293282663023, -17729.962495560943, -35985.83918641081, 5589.0760527939865, -26801.954424614243, -11021.55578393409, 16727.710274184978, -15014.046730285494, -22241.528003397943, -20104.567123003857, -33453.028911713234, 0.026892578125, 0.974259521484375, 0.0911982421875, 192.0, 0.0, 0.0, 0.0, 0.0, 0.0, 0.0, 0.0, 0.0, 0.0, 1.742425127588152E9, 0.0, 2025-03-19 17:58:47.588
234.0, -27627.694920026654, -30674.483558474014, -45019.92255686791, -18897.88584683965, -11529.990915058961, -1170.069118746414, -17678.64289029156, -35960.335845987305, 5592.115890039908, -26796.612357689424, -11015.878440842444, 16731.890050398117, -15009.062291271961, -22233.615485860766, -20091.111372841762, -33445.58578080962, 0.026892578125, 0.974259521484375, 0.0911982421875, 192.0, 0.0, 0.0, 0.0, 0.0, 0.0, 0.0, 0.0, 0.0, 0.0, 1.742425127588179E9, 0.0, 2025-03-19 17:58:47.588
236.0, -27625.213876392114, -30674.237689285004, -45018.760266156234, -18895.1589340161, -11527.398112702145, -1172.7289763365957, -17693.886780010078, -35954.07735753982, 5593.412291218316, -26799.048697835053, -11020.214679266774, 16728.872564896654, -15009.106994760872, -22232.475546893544, -20090.150247830185, -33440.0425481847, 0.025446289062500002, 0.9731297607421875, 0.09059912109375, 192.0, 0.0, 96.0, 15.0, 48.0, 1.0, 104.0, 0.0, 0.0, 0.0, 1.742425127588206E9, 0.0, 2025-03-19 17:58:47.588
238.0, -27626.37616710379, -30673.455378229068, -45026.53867322668, -18894.22016074898, -11523.151281255638, -1161.9330837646824, -17680.45338159244, -35949.67406388212, 5600.274276766095, -26794.31012801053, -11014.22441175275, 16730.705407941987, -15006.558895892966, -22223.378386900233, -20082.41654424865, -33434.25344637078, 0.025446289062500002, 0.9731297607421875, 0.09059912109375, 192.0, 0.0, 0.0, 0.0, 0.0, 0.0, 0.0, 0.0, 0.0, 0.0, 1.742425127588234E9, 0.0, 2025-03-19 17:58:47.588
240.0, -27627.76197526002, -30672.7401224065, -45014.71460040982, -18893.21433224849, -11529.745045869953, -1166.4481361446544, -17706.470812138417, -35954.30087498437, 5587.53378242657, -26801.172113558307, -11018.89592634391, 16731.77829167584, -15019.29939023249, -22231.02268350395, -20091.26783505295, -33433.38172833702, 0.025446289062500002, 0.9731297607421875, 0.09059912109375, 192.0, 0.0, 0.0, 0.0, 0.0, 0.0, 0.0, 0.0, 0.0, 0.0, 1.74242512764965E9, 0.0, 2025-03-19 17:58:47.649
242.0, -27636.300341641945, -30681.12202657724, -45022.314193524624, -18897.327053228266, -11532.963697071516, -1160.457868630632, -17682.800314760247, -35953.965598817544, 5588.785480116067, -26795.830046633488, -11019.633533910936, 16726.5479834733, -15002.78145108002, -22226.798203801896, -20090.127896085727, -33435.348681849086, 0.025446289062500002, 0.9731297607421875, 0.09059912109375, 192.0, 0.0, 0.0, 0.0, 0.0, 0.0, 0.0, 0.0, 0.0, 0.0, 1.742425127649734E9, 0.0, 2025-03-19 17:58:47.649
244.0, -27634.80277476344, -30680.272660287937, -45020.12372256801, -18897.21529450599, -11529.610935403221, -1174.3830054262885, -17692.612730576126, -35959.08414829781, 5583.979855058176, -26806.40242176085, -11025.310877002583, 16724.581029961235, -15025.915506591262, -22233.280209693934, -20094.754707187978, -33433.02410042573, 0.025446289062500002, 0.9731297607421875, 0.09059912109375, 192.0, 0.0, 0.0, 0.0, 0.0, 0.0, 0.0, 0.0, 0.0, 0.0, 1.742425127649768E9, 0.0, 2025-03-19 17:58:47.649
246.0, -27635.4733270971, -30680.56323296586, -45024.25879529224, -18899.74104162944, -11531.220261004002, -1177.489897905576, -17677.72646876889, -35961.36402623225, 5588.919590582799, -26804.97191011571, -11024.528565946648, 16718.367245002657, -15007.810593582464, -22235.29186669491, -20086.797486161886, -33440.0425481847, 0.02672314453125, 0.9725648803710938, 0.09229956054687499, 192.0, 0.0, 112.0, 15.0, 48.0, 1.0, 120.0, 0.0, 0.0, 0.0, 1.742425127649795E9, 0.0, 2025-03-19 17:58:47.649
248.0, -27625.52680081449, -30669.767340393944, -45012.412370730926, -18892.92375957057, -11524.782958600874, -1173.488935648076, -17690.779887530793, -35951.46220343855, 5590.752433628134, -26809.419907262316, -11020.32643798905, 16726.88325964013, -15016.930105320229, -22233.50372713849, -20092.340718786803, -33435.92982720493, 0.02672314453125, 0.9725648803710938, 0.09229956054687499, 192.0, 0.0, 0.0, 0.0, 0.0, 0.0, 0.0, 0.0, 0.0, 0.0, 1.742425127649827E9, 0.0, 2025-03-19 17:58:47.649
250.0, -27621.65994902372, -30664.157052535662, -45009.28312650718, -18889.995681046927, -11526.861670835218, -1167.364557667322, -17674.172541400498, -35950.65754063815, 5596.25096276414, -26790.487979708672, -11012.995065807709, 16731.040684108815, -15007.050634270983, -22224.473622378544, -20083.668241938143, -33433.672301014936, 0.02672314453125, 0.9725648803710938, 0.09229956054687499, 192.0, 0.0, 0.0, 0.0, 0.0, 0.0, 0.0, 0.0, 0.0, 0.0, 1.742425127649853E9, 0.0, 2025-03-19 17:58:47.649
252.0, -27628.633693293774, -30674.93059336312, -45020.302536523646, -18900.232780007456, -11534.327153483291, -1176.6181798718192, -17686.890683995567, -35965.87907861222, 5592.115890039908, -26797.081744322986, -11012.592734407513, 16738.752035945898, -15010.626913383832, -22227.35699741328, -20090.194951319096, -33435.43808882691, 0.02672314453125, 0.9725648803710938, 0.09229956054687499, 192.0, 0.0, 0.0, 0.0, 0.0, 0.0, 0.0, 0.0, 0.0, 0.0, 1.74242512764988E9, 0.0, 2025-03-19 17:58:47.649
254.0, -27621.905818212726, -30666.79455838139, -45024.281147036694, -18892.29791072582, -11530.348542970247, -1161.910732020227, -17680.54278857026, -35949.20467724856, 5592.697035395746, -26795.338308255472, -11020.125272288951, 16723.73166367193, -15004.703701103175, -22227.69227358011, -20094.061803109864, -33448.17858316643, 0.02672314453125, 0.9725648803710938, 0.09229956054687499, 192.0, 0.0, 0.0, 0.0, 0.0, 0.0, 0.0, 0.0, 0.0, 0.0, 1.742425127649908E9, 0.0, 2025-03-19 17:58:47.649
0.0, -27626.33146361488, -30671.376665994725, -45032.5289407407, -18901.30566374131, -11536.204700017537, -1169.912656535227, -17678.955814713932, -35961.945171588086, 5591.624151661891, -26802.44616299226, -11016.70545538729, 16732.538250987323, -15012.146832006792, -22223.512497366966, -20095.581721732822, -33434.25344637078, 0.026361572265625, 0.9732824401855469, 0.0931497802734375, 192.0, 0.0, 104.0, 15.0, 56.0, 1.0, 120.0, 0.0, 0.0, 0.0, 1.742425127708491E9, 0.0, 2025-03-19 17:58:47.708
2.0, -27619.067146666905, -30662.234802512507, -45037.66984196542, -18896.477686938964, -11533.500138938445, -1164.3694239103108, -17671.758552999327, -35949.003511548464, 5586.349139970439, -26795.271253022107, -11016.526641431647, 16725.542154972813, -15007.92235230474, -22229.055729991884, -20093.905340898677, -33442.81416449716, 0.026361572265625, 0.9732824401855469, 0.0931497802734375, 192.0, 0.0, 0.0, 0.0, 0.0, 0.0, 0.0, 0.0, 0.0, 0.0, 1.742425127708526E9, 0.0, 2025-03-19 17:58:47.708
4.0, -27619.60358853383, -30661.02780831192, -45042.743687956776, -18899.428117207066, -11539.646868663654, -1165.5764181108973, -17663.331945339676, -35955.35140697377, 5582.996378302143, -26798.624014690402, -11011.18457450683, 16739.6014022352, -14995.718299832142, -22227.26759043546, -20096.96752988905, -33432.64412077, 0.026361572265625, 0.9732824401855469, 0.0931497802734375, 192.0, 0.0, 0.0, 0.0, 0.0, 0.0, 0.0, 0.0, 0.0, 0.0, 1.742425127708552E9, 0.0, 2025-03-19 17:58:47.708
6.0, -27617.614283277308, -30658.658523399656, -45046.69994672536, -18896.321224727777, -11533.835415105274, -1160.6143308418193, -17674.574872800695, -35956.558401174356, 5582.303474224028, -26791.605566931437, -11012.212754751774, 16729.029027107837, -14998.691081844698, -22228.72045382505, -20097.63808222271, -33439.43905108441, 0.026361572265625, 0.9732824401855469, 0.0931497802734375, 192.0, 0.0, 0.0, 0.0, 0.0, 0.0, 0.0, 0.0, 0.0, 0.0, 1.74242512770859E9, 0.0, 2025-03-19 17:58:47.708
8.0, -27611.825181463384, -30652.042407040884, -45039.39092628848, -18893.281387481857, -11529.029790047383, -1153.5064761050317, -17654.50300627983, -35950.85870633825, 5586.706767881724, -26791.739677398167, -11001.32745520204, 16743.49060577042, -14996.835887054907, -22218.81863103135, -20090.194951319096, -33425.558617777664, 0.026361572265625, 0.9732824401855469, 0.0931497802734375, 192.0, 0.0, 0.0, 0.0, 0.0, 0.0, 0.0, 0.0, 0.0, 0.0, 1.742425127708625E9, 0.0, 2025-03-19 17:58:47.708
10.0, -27611.80282971893, -30651.617723896234, -45046.54348451418, -18892.32026247028, -11525.22999348998, -1150.3548801368333, -17655.754703969324, -35941.85095332276, 5593.166422029308, -26782.754276127136, -11002.199173235795, 16742.26125982538, -14989.258645684558, -22216.605808330278, -20084.02586984943, -33425.46921079984, 0.0261807861328125, 0.9736412200927734, 0.09357489013671874, 192.0, 0.0, 104.0, 15.0, 56.0, 1.0, 120.0, 0.0, 0.0, 0.0, 1.742425127708659E9, 0.0, 2025-03-19 17:58:47.708
12.0, -27615.781440231975, -30658.30089548837, -45052.5337520282, -18903.3620242312, -11530.750874370442, -1150.690156303663, -17630.54193622374, -35944.68962486859, 5582.9740265576875, -26791.896139609355, -11006.423652937849, 16745.41285579358, -15001.462698157156, -22213.029529217427, -20086.30574778387, -33422.87640844302, 0.0261807861328125, 0.9736412200927734, 0.09357489013671874, 192.0, 0.0, 0.0, 0.0, 0.0, 0.0, 0.0, 0.0, 0.0, 0.0, 1.742425127708687E9, 0.0, 2025-03-19 17:58:47.708
14.0, -27604.60556800432, -30648.466127928037, -45049.98565316029, -18897.2599979949, -11525.811138845818, -1152.947682493649, -17653.474826034882, -35947.818869092334, 5588.651369649336, -26789.415095974815, -11003.294408714106, 16736.06982661126, -14977.121648445327, -22220.942046754604, -20090.776096674934, -33431.25831261377, 0.0261807861328125, 0.9736412200927734, 0.09357489013671874, 192.0, 0.0, 0.0, 0.0, 0.0, 0.0, 0.0, 0.0, 0.0, 0.0, 1.742425127767986E9, 0.0, 2025-03-19 17:58:47.767
16.0, -27610.975815174083, -30652.623552396723, -45050.18681886039, -18898.958730573504, -11530.683819137075, -1139.55898756492, -17634.34173278114, -35945.18136324661, 5597.368549986905, -26778.26157549162, -10988.296388184595, 16754.688829742532, -14980.116782202338, -22208.11214543726, -20084.65171869418, -33415.790905450696, 0.0261807861328125, 0.9736412200927734, 0.09357489013671874, 192.0, 0.0, 0.0, 0.0, 0.0, 0.0, 0.0, 0.0, 0.0, 0.0, 1.74242512776802E9, 0.0, 2025-03-19 17:58:47.768
18.0, -27605.298472082435, -30649.047273283875, -45044.17419960192, -18893.996643304425, -11513.763548584408, -1141.168313165702, -17654.167730113, -35941.02393877792, 5588.852535349433, -26780.16147377032, -10999.293446456606, 16740.674285969053, -14983.15661944826, -22212.2919216504, -20091.06666935285, -33422.87640844302, 0.0261807861328125, 0.9736412200927734, 0.09357489013671874, 192.0, 0.0, 0.0, 0.0, 0.0, 0.0, 0.0, 0.0, 0.0, 0.0, 1.742425127768046E9, 0.0, 2025-03-19 17:58:47.768
20.0, -27609.90293144023, -30654.724616375523, -45055.528885785214, -18901.97621607497, -11518.457414920023, -1137.9049584752272, -17637.20275607142, -35943.81790683483, 5604.118776812408, -26772.517177166603, -10984.720109071744, 16751.26901284087, -14969.097372185872, -22200.177276155624, -20081.54482621489, -33417.53434151821, 0.030090393066406252, 0.9708206100463868, 0.09478744506835937, 192.0, 0.5, 8.0, 15.0, 32.0, 1.5, 0.0, 0.0, 0.0, 0.0, 1.742425127768074E9, 0.0, 2025-03-19 17:58:47.768
22.0, -27615.42381232069, -30657.831508854808, -45067.889400468994, -18908.99466383394, -11523.017170788906, -1153.7299935495846, -17666.528244796784, -35957.45247095257, 5595.15572728583, -26783.58129067198, -10997.348844688993, 16740.4507685245, -14983.760116548554, -22211.531962338922, -20093.16773333165, -33430.163077135454, 0.030090393066406252, 0.9708206100463868, 0.09478744506835937, 192.0, 0.0, 0.0, 0.0, 0.0, 0.0, 0.0, 0.0, 0.0, 0.0, 1.742425127768102E9, 0.0, 2025-03-19 17:58:47.768
24.0, -27614.4179838202, -30656.222183254027, -45061.63091202151, -18906.87124811068, -11521.497252165944, -1143.5375980779647, -17642.76834044079, -35948.802345848366, 5592.853497606933, -26787.44814246275, -11002.288580213617, 16737.54504174531, -14986.799953794474, -22209.430898360122, -20096.341681044305, -33431.28066435822, 0.030090393066406252, 0.9708206100463868, 0.09478744506835937, 192.0, 0.0, 0.0, 0.0, 0.0, 0.0, 0.0, 0.0, 0.0, 0.0, 1.742425127768128E9, 0.0, 2025-03-19 17:58:47.768
26.0, -27611.60166401883, -30650.142508762183, -45045.80587694715, -18893.326090970768, -11518.144490497649, -1142.174141666191, -17639.43793051695, -35935.05602300835, 5593.3005324960395, -26775.422903945793, -10993.906676042876, 16745.904594171596, -14982.664881070243, -22207.59805531479, -20087.11041058426, -33422.42937355392, 0.030090393066406252, 0.9708206100463868, 0.09478744506835937, 192.0, 0.0, 0.0, 0.0, 0.0, 0.0, 0.0, 0.0, 0.0, 0.0, 1.742425127768155E9, 0.0, 2025-03-19 17:58:47.768
28.0, -27615.200294876136, -30650.96952330703, -45051.03618514969, -18896.812963105796, -11518.412711431112, -1132.4734845725877, -17622.808232642205, -35940.17457248862, 5601.593029688958, -26771.041962032556, -10996.208905721773, 16749.12324537316, -14965.968127962129, -22201.071345933837, -20076.180407545617, -33414.49450427228, 0.030090393066406252, 0.9708206100463868, 0.09478744506835937, 192.0, 0.0, 0.0, 0.0, 0.0, 0.0, 0.0, 0.0, 0.0, 0.0, 1.742425127768192E9, 0.0, 2025-03-19 17:58:47.768
30.0, -27611.266387852003, -30647.996741294475, -45045.24708333577, -18889.816867091282, -11517.295124208347, -1134.6639555292077, -17651.2172998449, -35941.26980796693, 5599.380206987883, -26768.96324979821, -10989.659844596368, 16750.956088418494, -14973.120686187827, -22199.193799399593, -20081.34366051479, -33409.42065828093, 0.033045196533203126, 0.9704103050231934, 0.09539372253417969, 192.0, 0.5, 16.0, 15.0, 40.0, 1.5, 0.0, 0.0, 0.0, 0.0, 1.742425127828949E9, 0.0, 2025-03-19 17:58:47.828
32.0, -27609.724117484584, -30647.169726749627, -45054.768926473735, -18891.73911711444, -11523.240688233458, -1135.8709497297943, -17646.54578525374, -35943.281464967906, 5596.094500552953, -26771.220775988197, -10990.59861786349, 16745.904594171596, -14978.462753112646, -22199.462020333056, -20085.389326261204, -33415.209760094855, 0.033045196533203126, 0.9704103050231934, 0.09539372253417969, 192.0, 0.0, 0.0, 0.0, 0.0, 0.0, 0.0, 0.0, 0.0, 0.0, 1.742425127828996E9, 0.0, 2025-03-19 17:58:47.828
34.0, -27617.14489664375, -30654.746968119976, -45054.634816007, -18900.32218698528, -11524.201813245036, -1154.6687668167076, -17649.250346332832, -35948.13179351471, 5596.519183697604, -26779.44621794775, -10997.259437711173, 16746.21751859397, -14990.376232907323, -22206.502819836478, -20089.814971663352, -33413.04164088269, 0.033045196533203126, 0.9704103050231934, 0.09539372253417969, 192.0, 0.0, 0.0, 0.0, 0.0, 0.0, 0.0, 0.0, 0.0, 0.0, 1.742425127829027E9, 0.0, 2025-03-19 17:58:47.829
36.0, -27612.048698907936, -30652.489441929993, -45043.74951645727, -18901.12684978567, -11522.257211477425, -1149.1478859362467, -17630.027846101268, -35947.84122083679, 5590.998302817143, -26778.01570630261, -11002.735615102723, 16735.846309166707, -14979.20036067967, -22208.514476837456, -20085.92576812813, -33424.70925148836, 0.033045196533203126, 0.9704103050231934, 0.09539372253417969, 192.0, 0.0, 0.0, 0.0, 0.0, 0.0, 0.0, 0.0, 0.0, 0.0, 1.742425127829054E9, 0.0, 2025-03-19 17:58:47.829
38.0, -27612.831009963873, -30654.121119275227, -45051.885551438994, -18902.423250964075, -11522.972467299995, -1154.400545883244, -17655.240613846854, -35951.01516854944, 5593.389939473861, -26779.96030807022, -10999.069929012052, 16739.82491967975, -14980.787334535997, -22204.82643900233, -20084.45055299408, -33418.67428048543, 0.033045196533203126, 0.9704103050231934, 0.09539372253417969, 192.0, 0.0, 0.0, 0.0, 0.0, 0.0, 0.0, 0.0, 0.0, 0.0, 1.74242512782908E9, 0.0, 2025-03-19 17:58:47.829
40.0, -27607.868922694794, -30651.081282029307, -45039.10035361056, -18898.60110266222, -11517.652752119631, -1147.4044498687329, -17647.193985842943, -35945.62839813571, 5593.501698196137, -26773.947688811742, -11003.383815691926, 16732.426492265047, -14974.506494344056, -22211.129630938725, -20083.22120704904, -33422.675242742924, 0.03252259826660156, 0.9732051525115967, 0.09369686126708984, 192.0, 0.5, 0.0, 15.0, 64.0, 1.0, 112.0, 0.0, 0.0, 0.0, 1.742425127829108E9, 0.0, 2025-03-19 17:58:47.829
42.0, -27608.584178517365, -30651.14833726267, -45041.827266434106, -18897.997605561926, -11514.054121262327, -1150.0196039700036, -17646.434026531464, -35942.45445042306, 5593.054663307031, -26776.607546401927, -11000.723958101746, 16744.854062182196, -14975.333508888902, -22208.514476837456, -20082.17067505964, -33414.49450427228, 0.03252259826660156, 0.9732051525115967, 0.09369686126708984, 192.0, 0.0, 0.0, 0.0, 0.0, 0.0, 0.0, 0.0, 0.0, 0.0, 1.742425127829137E9, 0.0, 2025-03-19 17:58:47.829
44.0, -27607.64540525024, -30652.467090185535, -45041.08965886708, -18900.92568408557, -11512.601257872731, -1141.8612172438166, -17647.573965498683, -35944.600217890766, 5596.094500552953, -26771.980735299676, -11003.316760458561, 16736.338047544723, -14984.765945049043, -22205.094659935792, -20077.83443663531, -33419.23307409681, 0.03252259826660156, 0.9732051525115967, 0.09369686126708984, 192.0, 0.0, 0.0, 0.0, 0.0, 0.0, 0.0, 0.0, 0.0, 0.0, 1.74242512788943E9, 0.0, 2025-03-19 17:58:47.889
46.0, -27612.80865821942, -30659.932572833608, -45044.24125483528, -18904.63607366515, -11523.017170788906, -1150.5113423480204, -17663.35429708413, -35945.717805113534, 5597.34619824245, -26778.44038944726, -10998.600542378492, 16744.049399381805, -14980.183837435705, -22208.000386714983, -20083.377669260226, -33416.99789965128, 0.03252259826660156, 0.9732051525115967, 0.09369686126708984, 192.0, 0.0, 0.0, 0.0, 0.0, 0.0, 0.0, 0.0, 0.0, 0.0, 1.742425127889464E9, 0.0, 2025-03-19 17:58:47.889
48.0, -27613.3674518308, -30660.379607722716, -45035.85935066454, -18900.992739318935, -11519.08326376477, -1146.5997870683418, -17651.463169033905, -35945.91897081363, 5588.025520804586, -26781.54728192655, -11008.457661683282, 16728.98432361893, -14979.178008935216, -22214.30357865138, -20084.294090782892, -33424.08340264361, 0.03252259826660156, 0.9732051525115967, 0.09369686126708984, 192.0, 0.0, 0.0, 0.0, 0.0, 0.0, 0.0, 0.0, 0.0, 0.0, 1.742425127889491E9, 0.0, 2025-03-19 17:58:47.889
50.0, -27611.624015763286, -30656.40099720967, -45032.26071980724, -18897.952902073015, -11514.23293521797, -1148.2538161580344, -17641.82956717367, -35936.01714801993, 5597.256791264629, -26780.653212148336, -10999.494612156703, 16744.295268570815, -14989.951549762673, -22202.032470945414, -20075.84513137879, -33409.24184432529, 0.03026129913330078, 0.9756025762557983, 0.09284843063354492, 192.0, 0.0, 112.0, 15.0, 72.0, 1.0, 112.0, 0.0, 0.0, 0.0, 1.742425127889529E9, 0.0, 2025-03-19 17:58:47.889
52.0, -27613.814486719908, -30659.887869344697, -45030.02554536171, -18897.59527416173, -11518.859746320219, -1150.8689702593053, -17656.33584932516, -35940.912180055646, 5588.204334760229, -26775.065276034507, -11009.910525072877, 16733.83465216573, -14981.636700825298, -22209.430898360122, -20081.7906954039, -33423.61401601005, 0.03026129913330078, 0.9756025762557983, 0.09284843063354492, 192.0, 0.0, 0.0, 0.0, 0.0, 0.0, 0.0, 0.0, 0.0, 0.0, 1.742425127889567E9, 0.0, 2025-03-19 17:58:47.889
54.0, -27614.70855649812, -30659.485537944503, -45033.40065877446, -18896.58944566124, -11517.161013741616, -1148.3208713914003, -17639.77320668378, -35940.912180055646, 5594.619285418902, -26780.25088074814, -10999.27109471215, 16745.524614515856, -14982.776639792519, -22208.492125093, -20080.941329114597, -33418.38370780751, 0.03026129913330078, 0.9756025762557983, 0.09284843063354492, 192.0, 0.0, 0.0, 0.0, 0.0, 0.0, 0.0, 0.0, 0.0, 0.0, 1.742425127889598E9, 0.0, 2025-03-19 17:58:47.889
56.0, -27613.948597186638, -30657.406825710157, -45038.29569081017, -18894.421326449075, -11517.116310252704, -1150.3548801368333, -17658.01223015931, -35942.14152600068, 5586.237381248162, -26777.25574699113, -11010.156394261885, 16732.672361454053, -14992.231427697114, -22213.275398406437, -20083.578834960324, -33421.98233866481, 0.03026129913330078, 0.9756025762557983, 0.09284843063354492, 192.0, 0.0, 0.0, 0.0, 0.0, 0.0, 0.0, 0.0, 0.0, 0.0, 1.742425127889629E9, 0.0, 2025-03-19 17:58:47.889
58.0, -27610.640539007254, -30656.535107676402, -45030.919615139916, -18889.347480457724, -11509.22614445998, -1141.168313165702, -17634.25232580332, -35935.994796275474, 5599.670779665802, -26776.272270235095, -10994.800745821089, 16749.83850119573, -14972.517189087534, -22200.73606976701, -20073.565253444347, -33404.883254156506, 0.03026129913330078, 0.9756025762557983, 0.09284843063354492, 192.0, 0.0, 0.0, 0.0, 0.0, 0.0, 0.0, 0.0, 0.0, 0.0, 1.742425127889655E9, 0.0, 2025-03-19 17:58:47.889
60.0, -27617.301358854933, -30660.58077342281, -45038.96624314383, -18895.78478286085, -11516.132833496671, -1149.8407900143611, -17656.469959791895, -35945.80721209136, 5590.10423303893, -26781.748447626647, -11007.742405860712, 16734.996942877406, -14984.363613648846, -22212.31427339486, -20077.655622679667, -33410.27002457023, 0.02713064956665039, 0.9788012881278991, 0.09342421531677246, 192.0, 0.0, 96.0, 15.0, 88.0, 1.0, 120.0, 0.0, 0.0, 0.0, 1.742425127948219E9, 0.0, 2025-03-19 17:58:47.948
62.0, -27616.3178820989, -30661.810119367856, -45042.319004812125, -18899.472820695977, -11520.603182387733, -1144.4540196006321, -17638.655619461017, -35940.84512482228, 5590.998302817143, -26784.45300870574, -11004.993141292709, 16740.853099924698, -14994.556009120466, -22210.414375116157, -20081.03073609242, -33408.6830507139, 0.02713064956665039, 0.9788012881278991, 0.09342421531677246, 192.0, 0.0, 0.0, 0.0, 0.0, 0.0, 0.0, 0.0, 0.0, 0.0, 1.742425127948297E9, 0.0, 2025-03-19 17:58:47.948
64.0, -27610.104097140327, -30653.763491363945, -45033.69123145238, -18891.806172347806, -11515.395225929646, -1142.3529556218334, -17663.98014592888, -35941.69449111158, 5592.0711865509975, -26776.987526057666, -11005.574286648547, 16737.388579534123, -14984.989462493595, -22207.933331481618, -20079.60022444728, -33411.76759144874, 0.02713064956665039, 0.9788012881278991, 0.09342421531677246, 192.0, 0.0, 0.0, 0.0, 0.0, 0.0, 0.0, 0.0, 0.0, 0.0, 1.742425127948329E9, 0.0, 2025-03-19 17:58:47.948
66.0, -27618.284835610968, -30660.848994356274, -45039.927368155404, -18900.813925363294, -11526.235821990469, -1142.040031199459, -17640.53316599526, -35946.92479931412, 5590.1936400167515, -26776.987526057666, -11003.696740114301, 16745.99400114942, -14989.39275615129, -22204.2899971354, -20079.957852358562, -33406.134951846, 0.02713064956665039, 0.9788012881278991, 0.09342421531677246, 192.0, 0.0, 0.0, 0.0, 0.0, 0.0, 0.0, 0.0, 0.0, 0.0, 1.742425127948363E9, 0.0, 2025-03-19 17:58:47.948
68.0, -27609.724117484584, -30650.701302373567, -45031.970147129316, -18895.561265416298, -11512.690664850554, -1148.3208713914003, -17652.40194230103, -35946.567171402836, 5587.220858004196, -26776.428732446282, -11007.98827504972, 16736.852137667196, -14983.402488637268, -22209.76617452695, -20080.02490759193, -33420.64123399749, 0.02713064956665039, 0.9788012881278991, 0.09342421531677246, 192.0, 0.0, 0.0, 0.0, 0.0, 0.0, 0.0, 0.0, 0.0, 0.0, 1.742425127948403E9, 0.0, 2025-03-19 17:58:47.948
70.0, -27610.70759424062, -30651.64007564069, -45036.57460648711, -18893.147277015123, -11517.585696886266, -1140.6989265321406, -17636.331038037664, -35938.67700561011, 5590.797137117045, -26774.14885451184, -10999.516963901158, 16748.69856222851, -14996.455907399168, -22203.06065119036, -20073.632308677712, -33413.466324027344, 0.026565324783325198, 0.9814006440639496, 0.09271210765838622, 192.0, 0.0, 104.0, 15.0, 96.0, 1.0, 112.0, 0.0, 0.0, 0.0, 1.742425127948458E9, 0.0, 2025-03-19 17:58:47.948
72.0, -27609.545303528943, -30650.54484016238, -45040.44145827788, -18891.783820603352, -11513.94236254005, -1149.0808307028808, -17657.945174925946, -35945.53899115789, 5588.874887093889, -26771.0196102881, -11003.786147092122, 16746.016352893872, -14984.989462493595, -22205.027604702427, -20082.39419250419, -33416.64027174, 0.026565324783325198, 0.9814006440639496, 0.09271210765838622, 192.0, 0.0, 0.0, 0.0, 0.0, 0.0, 0.0, 0.0, 0.0, 0.0, 1.742425127948498E9, 0.0, 2025-03-19 17:58:47.948
74.0, -27613.009823919514, -30655.484575687, -45034.09356285257, -18891.51559966989, -11514.143528240149, -1139.1343044202692, -17623.612895442595, -35937.87234280972, 5591.288875495062, -26769.991430043156, -11001.215696479761, 16748.720913972964, -14980.697927558176, -22199.77494475543, -20076.02394533443, -33413.4886757718, 0.026565324783325198, 0.9814006440639496, 0.09271210765838622, 192.0, 0.0, 0.0, 0.0, 0.0, 0.0, 0.0, 0.0, 0.0, 0.0, 1.742425128008517E9, 0.0, 2025-03-19 17:58:48.008
76.0, -27612.3169198414, -30654.121119275227, -45036.95458614285, -18889.347480457724, -11512.42244391709, -1142.7329352775737, -17652.69251497895, -35931.34563342877, 5584.069262035998, -26776.339325468463, -11005.887211070922, 16746.999829649907, -15000.076890000928, -22203.48533433501, -20080.695459925588, -33408.928919902915, 0.026565324783325198, 0.9814006440639496, 0.09271210765838622, 192.0, 0.0, 0.0, 0.0, 0.0, 0.0, 0.0, 0.0, 0.0, 0.0, 1.742425128008565E9, 0.0, 2025-03-19 17:58:48.008
78.0, -27609.299434339933, -30652.847069841275, -45036.5299029982, -18892.968463059482, -11512.355388683724, -1136.8097229969171, -17633.9617531254, -35933.22317996302, 5592.339407484461, -26776.361677212917, -11005.395472692904, 16747.245698838913, -14981.30142465847, -22202.725375023532, -20079.39905874718, -33412.37108854903, 0.026565324783325198, 0.9814006440639496, 0.09271210765838622, 192.0, 0.0, 0.0, 0.0, 0.0, 0.0, 0.0, 0.0, 0.0, 0.0, 1.742425128008598E9, 0.0, 2025-03-19 17:58:48.008
80.0, -27609.925283184682, -30654.903430331164, -45035.41231577544, -18897.88584683965, -11514.054121262327, -1150.3101766479226, -17657.87811969258, -35945.650749880166, 5594.373416229894, -26775.221738245695, -10996.70064409979, 16751.157254118592, -14984.96711074914, -22205.184066913615, -20078.437933735604, -33409.04067862519, 0.0282826623916626, 0.9807003220319748, 0.09135605382919311, 192.0, 0.0, 120.0, 15.0, 80.0, 1.0, 104.0, 0.0, 0.0, 0.0, 1.742425128008625E9, 0.0, 2025-03-19 17:58:48.008
82.0, -27606.438411049654, -30653.428215197113, -45035.255853564246, -18897.729384628463, -11513.495327650944, -1142.2635486440122, -17642.991857885347, -35941.62743587821, 5592.518221440104, -26777.971002813698, -11002.065062769063, 16743.088274370228, -14991.024433496528, -22210.481430349522, -20082.6400616932, -33418.294300829686, 0.0282826623916626, 0.9807003220319748, 0.09135605382919311, 192.0, 0.0, 0.0, 0.0, 0.0, 0.0, 0.0, 0.0, 0.0, 0.0, 1.742425128008654E9, 0.0, 2025-03-19 17:58:48.008
84.0, -27605.432582549165, -30651.34950296277, -45022.180083057894, -18892.432021192555, -11515.149356740638, -1145.0798684453807, -17674.619576289606, -35938.520543398925, 5592.2500005066395, -26779.11094178092, -10990.017472507652, 16752.274841341357, -14983.938930504195, -22207.642758803697, -20076.940366857096, -33409.21949258083, 0.0282826623916626, 0.9807003220319748, 0.09135605382919311, 192.0, 0.0, 0.0, 0.0, 0.0, 0.0, 0.0, 0.0, 0.0, 0.0, 1.742425128008681E9, 0.0, 2025-03-19 17:58:48.008
86.0, -27611.825181463384, -30656.959790821053, -45030.629042462, -18897.952902073015, -11515.70815035202, -1147.56091207992, -17645.361142797607, -35941.649787622664, 5589.858363849922, -26783.357773227428, -11001.461565668771, 16738.684980712533, -14990.040956740495, -22210.950816983084, -20084.87523613873, -33417.62374849603, 0.0282826623916626, 0.9807003220319748, 0.09135605382919311, 192.0, 0.0, 0.0, 0.0, 0.0, 0.0, 0.0, 0.0, 0.0, 0.0, 1.742425128008708E9, 0.0, 2025-03-19 17:58:48.008
88.0, -27605.70080348263, -30647.549706405367, -45026.583376715585, -18891.94028281454, -11507.415653159102, -1149.8854935032718, -17649.943250410946, -35942.78972658989, 5593.635808662869, -26783.15660752733, -10995.27013245465, 16750.821977951764, -14997.595846366388, -22206.413412858656, -20079.868445380744, -33410.96292864835, 0.0282826623916626, 0.9807003220319748, 0.09135605382919311, 192.0, 0.0, 0.0, 0.0, 0.0, 0.0, 0.0, 0.0, 0.0, 0.0, 1.742425128008735E9, 0.0, 2025-03-19 17:58:48.008
90.0, -27610.685242496165, -30654.478747186513, -45031.29959479566, -18895.58361716075, -11513.405920673124, -1148.3432231358556, -17646.07639862018, -35940.621607377725, 5593.278180751584, -26775.311145223517, -10999.98635053472, 16746.753960460897, -14979.11095370185, -22205.944026225094, -20080.717811670045, -33418.3390043186, 0.0271413311958313, 0.9803501610159874, 0.08967802691459656, 192.0, 0.0, 104.0, 15.0, 80.0, 1.0, 96.0, 0.0, 0.0, 0.0, 1.742425128070318E9, 0.0, 2025-03-19 17:58:48.070
92.0, -27620.56471354541, -30663.777072879922, -45038.80978093264, -18907.161820788602, -11521.810176588318, -1158.6920808186628, -17665.008326173822, -35951.39514820518, 5591.4229859617935, -26780.854377848435, -10999.382853434427, 16751.201957607504, -14983.536599104, -22206.25695064747, -20084.539959971902, -33411.32055655963, 0.0271413311958313, 0.9803501610159874, 0.08967802691459656, 192.0, 0.0, 0.0, 0.0, 0.0, 0.0, 0.0, 0.0, 0.0, 0.0, 1.742425128070364E9, 0.0, 2025-03-19 17:58:48.070
94.0, -27612.875713452784, -30659.105558288764, -45029.9808418728, -18898.377585217666, -11519.910278309617, -1145.616310312308, -17655.218262102397, -35936.978273031506, 5582.77286085759, -26788.006936074133, -11014.067949541564, 16729.252544552393, -14997.774660322031, -22217.902209508684, -20094.30767229887, -33425.37980382202, 0.0271413311958313, 0.9803501610159874, 0.08967802691459656, 192.0, 0.0, 0.0, 0.0, 0.0, 0.0, 0.0, 0.0, 0.0, 0.0, 1.742425128070391E9, 0.0, 2025-03-19 17:58:48.070
96.0, -27609.612358762308, -30652.35533146326, -45028.86325465003, -18890.666233380583, -11516.378702685679, -1140.9671474656043, -17654.25713709082, -35934.38547067469, 5600.5201459551035, -26777.121636524396, -10992.45381265328, 16751.760751218888, -14995.628892854322, -22197.62917728772, -20077.476808724023, -33403.810370422645, 0.0271413311958313, 0.9803501610159874, 0.08967802691459656, 192.0, 0.0, 0.0, 0.0, 0.0, 0.0, 0.0, 0.0, 0.0, 0.0, 1.742425128070429E9, 0.0, 2025-03-19 17:58:48.070
98.0, -27613.23334136407, -30655.21635475354, -45027.72331568281, -18889.83921883574, -11515.641095118654, -1144.3422608783558, -17661.588509272162, -35941.35921494475, 5591.668855150802, -26776.02640104609, -11009.75406286169, 16739.623753979653, -14985.615311338344, -22209.40854661567, -20086.573968717334, -33418.3390043186, 0.0271413311958313, 0.9803501610159874, 0.08967802691459656, 192.0, 0.0, 0.0, 0.0, 0.0, 0.0, 0.0, 0.0, 0.0, 0.0, 1.742425128070463E9, 0.0, 2025-03-19 17:58:48.070
100.0, -27613.3674518308, -30655.8869070872, -45026.33750752658, -18889.570997902276, -11513.987066028962, -1137.972013708593, -17656.939346425457, -35929.155162472154, 5597.7708813871, -26773.34419171145, -10991.671501597346, 16758.823902466764, -15000.121593489837, -22200.266683133446, -20076.605090690267, -33399.74235293178, 0.02557066559791565, 0.9781750805079936, 0.08983901345729828, 192.0, 0.0, 96.0, 15.0, 64.0, 1.0, 104.0, 0.0, 0.0, 0.0, 1.74242512807051E9, 0.0, 2025-03-19 17:58:48.070
102.0, -27606.974852916584, -30651.908296574155, -45016.90507136644, -18884.519503655374, -11514.925839296084, -1139.6483945427412, -17663.041372661755, -35930.138639228186, 5595.893334852855, -26774.10415102293, -10999.516963901158, 16741.74716970291, -14992.119668974838, -22207.15102042568, -20082.41654424865, -33409.621823981026, 0.02557066559791565, 0.9781750805079936, 0.08983901345729828, 192.0, 0.0, 0.0, 0.0, 0.0, 0.0, 0.0, 0.0, 0.0, 0.0, 1.742425128070541E9, 0.0, 2025-03-19 17:58:48.070
104.0, -27615.736736743063, -30659.418482711135, -45029.667917450424, -18890.3086054693, -11516.42340617459, -1148.5443888359534, -17659.286279593263, -35937.02297652042, 5598.843765120955, -26778.73096212518, -10993.526696387136, 16754.062980897783, -14991.627930596822, -22201.5407325674, -20077.11918081274, -33402.22339656632, 0.02557066559791565, 0.9781750805079936, 0.08983901345729828, 192.0, 0.0, 0.0, 0.0, 0.0, 0.0, 0.0, 0.0, 0.0, 0.0, 1.742425128129131E9, 0.0, 2025-03-19 17:58:48.129
106.0, -27619.89416121175, -30660.960753078554, -45031.45605700684, -18893.37079445968, -11520.491423665455, -1154.266435416512, -17682.040355448768, -35944.75668010196, 5598.307323254028, -26780.87672959289, -11011.050464040098, 16736.002771377895, -14992.522000375033, -22213.25304666198, -20085.74695417249, -33420.77534446423, 0.02557066559791565, 0.9781750805079936, 0.08983901345729828, 192.0, 0.0, 0.0, 0.0, 0.0, 0.0, 0.0, 0.0, 0.0, 0.0, 1.742425128129169E9, 0.0, 2025-03-19 17:58:48.129
108.0, -27620.65412052323, -30664.760549635954, -45032.55129248516, -18894.488381682444, -11520.066740520804, -1156.0322232284814, -17673.25611987783, -35945.80721209136, 5592.562924929014, -26784.788284872568, -11003.160298247374, 16745.54696626031, -15000.5909801234, -22209.497953593487, -20087.333928028816, -33414.315690316645, 0.02557066559791565, 0.9781750805079936, 0.08983901345729828, 192.0, 0.0, 0.0, 0.0, 0.0, 0.0, 0.0, 0.0, 0.0, 0.0, 1.742425128129201E9, 0.0, 2025-03-19 17:58:48.129
110.0, -27609.03121340647, -30653.741139619488, -45013.08292306458, -18885.391221689133, -11516.51281315241, -1156.814534284417, -17677.9723379579, -35938.34172944328, 5591.937076084266, -26783.62599416089, -11006.356597704482, 16736.159233589082, -14998.020529511039, -22213.63302631772, -20083.26591053795, -33417.78021070721, 0.024785332798957824, 0.9760875402539968, 0.09291950672864914, 192.0, 0.0, 96.0, 15.0, 56.0, 1.5, 0.0, 0.0, 0.0, 0.0, 1.742425128129229E9, 0.0, 2025-03-19 17:58:48.129
112.0, -27612.495733797045, -30656.758625120954, -45017.48621672228, -18888.095782768225, -11517.5186416529, -1153.2159034271126, -17646.009343386813, -35936.352424186756, 5610.936058871277, -26775.221738245695, -10985.010681749663, 16755.47114079847, -14988.096354972882, -22204.53586632441, -20072.604128432766, -33406.47022801283, 0.024785332798957824, 0.9760875402539968, 0.09291950672864914, 192.0, 0.0, 0.0, 0.0, 0.0, 0.0, 0.0, 0.0, 0.0, 0.0, 1.742425128129261E9, 0.0, 2025-03-19 17:58:48.129
114.0, -27611.020518662994, -30658.30089548837, -45017.150940555446, -18887.78285834585, -11512.400092172635, -1160.9719587531042, -17673.92667221149, -35946.634226636204, 5600.117814554908, -26784.542415683558, -11000.858068568477, 16740.048437124307, -15008.21292498266, -22216.426994374633, -20078.281471524417, -33417.75785896276, 0.024785332798957824, 0.9760875402539968, 0.09291950672864914, 192.0, 0.0, 0.0, 0.0, 0.0, 0.0, 0.0, 0.0, 0.0, 0.0, 1.742425128129305E9, 0.0, 2025-03-19 17:58:48.129
116.0, -27610.4170215627, -30661.541898434392, -45015.80983588813, -18884.966538544482, -11508.399129915135, -1149.527865591987, -17650.859671933613, -35930.004528761456, 5608.8573466369335, -26782.53075868258, -10990.531562630125, 16749.726742473453, -14989.169238706738, -22206.659282047665, -20071.017154576442, -33412.348736804575, 0.024785332798957824, 0.9760875402539968, 0.09291950672864914, 192.0, 0.0, 0.0, 0.0, 0.0, 0.0, 0.0, 0.0, 0.0, 0.0, 1.742425128129342E9, 0.0, 2025-03-19 17:58:48.129
118.0, -27613.41215531971, -30661.743064134487, -45017.53092021119, -18883.200750732514, -11507.348597925735, -1156.65807207323, -17684.45434384994, -35933.625511363214, 5604.9234396127995, -26783.06720054951, -10998.980522034231, 16738.12618710115, -14992.5890556084, -22210.950816983084, -20076.158055801163, -33416.37205080653, 0.024785332798957824, 0.9760875402539968, 0.09291950672864914, 192.0, 0.0, 0.0, 0.0, 0.0, 0.0, 0.0, 0.0, 0.0, 0.0, 1.742425128129374E9, 0.0, 2025-03-19 17:58:48.129
120.0, -27621.83876297936, -30667.487462459503, -45029.802027917154, -18891.82852409226, -11520.245554476447, -1151.0924877038585, -17655.039448146756, -35938.31937769883, 5606.488061724671, -26780.988488315164, -10995.963036532765, 16743.200033092504, -14990.73386081861, -22203.351223868278, -20074.88400636721, -33411.029983881715, 0.022392666399478914, 0.9790437701269984, 0.09245975336432458, 192.0, 0.0, 80.0, 15.0, 88.0, 1.0, 112.0, 0.0, 0.0, 0.0, 1.742425128187914E9, 0.0, 2025-03-19 17:58:48.187
122.0, -27616.362585587813, -30660.44666295608, -45026.806894160145, -18884.25128272191, -11512.690664850554, -1156.7698307955063, -17682.129762426586, -35937.24649396497, 5604.431701234782, -26788.319860496507, -11008.748234361201, 16730.906573642085, -14989.772735807031, -22213.364805384255, -20085.70225068358, -33422.071745642636, 0.022392666399478914, 0.9790437701269984, 0.09245975336432458, 192.0, 0.0, 0.0, 0.0, 0.0, 0.0, 0.0, 0.0, 0.0, 0.0, 1.74242512818797E9, 0.0, 2025-03-19 17:58:48.187
124.0, -27617.5695797884, -30660.312552489348, -45021.7777516577, -18884.36304144419, -11514.635266618165, -1150.488990603565, -17655.06179989121, -35940.465145166534, 5607.046855336053, -26772.517177166603, -10999.092280756508, 16743.73647495943, -15003.317892946947, -22199.573779055332, -20076.739201157, -33415.54503626168, 0.022392666399478914, 0.9790437701269984, 0.09245975336432458, 192.0, 0.0, 0.0, 0.0, 0.0, 0.0, 0.0, 0.0, 0.0, 0.0, 1.742425128188002E9, 0.0, 2025-03-19 17:58:48.188
126.0, -27617.88250421077, -30663.531203690913, -45022.26949003572, -18886.665271123085, -11515.864612563208, -1160.5025721195427, -17681.280396137285, -35937.73823234299, 5594.686340652268, -26784.698877894745, -11007.340074460517, 16734.393445777114, -14992.29848293048, -22208.939159982107, -20083.847055893788, -33420.95415841987, 0.022392666399478914, 0.9790437701269984, 0.09245975336432458, 192.0, 0.0, 0.0, 0.0, 0.0, 0.0, 0.0, 0.0, 0.0, 0.0, 1.742425128188029E9, 0.0, 2025-03-19 17:58:48.188
128.0, -27610.171152373692, -30655.596334409278, -45007.69615265085, -18877.344593685222, -11507.840336303752, -1141.525941076987, -17657.02875340328, -35928.01522350493, 5607.1586140583295, -26773.947688811742, -10995.448946410294, 16738.5508702458, -14999.272227200536, -22198.612654043754, -20072.78294238841, -33416.32734731762, 0.022392666399478914, 0.9790437701269984, 0.09245975336432458, 192.0, 0.0, 0.0, 0.0, 0.0, 0.0, 0.0, 0.0, 0.0, 0.0, 1.742425128188055E9, 0.0, 2025-03-19 17:58:48.188
130.0, -27620.94469320115, -30663.419444968637, -45020.95073711285, -18884.87713156666, -11514.74702534044, -1155.9651679951153, -17687.918864240513, -35939.45931666605, 5607.337428013972, -26778.976831314187, -11001.215696479761, 16738.997905134907, -15001.596808623888, -22202.121877923237, -20075.107523811763, -33409.86769317004, 0.025196333199739455, 0.9805218850634991, 0.09122987668216229, 192.0, 0.0, 112.0, 15.0, 88.0, 1.0, 104.0, 0.0, 0.0, 0.0, 1.742425128188083E9, 0.0, 2025-03-19 17:58:48.188
132.0, -27618.106021655327, -30659.753758877967, -45013.12762655349, -18877.590462874232, -11500.397205400135, -1146.331566134878, -17648.624497488083, -35929.82571480581, 5607.784462903079, -26774.215909745206, -11006.378949448937, 16733.052341109793, -14995.338320176403, -22199.10439242177, -20069.318421997836, -33415.768553706235, 0.025196333199739455, 0.9805218850634991, 0.09122987668216229, 192.0, 0.0, 0.0, 0.0, 0.0, 0.0, 0.0, 0.0, 0.0, 0.0, 1.742425128188111E9, 0.0, 2025-03-19 17:58:48.188
134.0, -27628.65604503823, -30669.70028516058, -45027.499798238256, -18886.64291937863, -11514.679970107076, -1162.9389122651712, -17676.519474568304, -35938.453488165556, 5601.995361089153, -26781.122598781898, -11010.245801239706, 16737.45563476749, -14984.900055515775, -22204.379404113224, -20073.520549955436, -33414.27098682773, 0.025196333199739455, 0.9805218850634991, 0.09122987668216229, 192.0, 0.0, 0.0, 0.0, 0.0, 0.0, 0.0, 0.0, 0.0, 0.0, 1.742425128248469E9, 0.0, 2025-03-19 17:58:48.248
136.0, -27629.192486905158, -30669.968506094043, -45014.96046959883, -18887.31347171229, -11516.445757919046, -1157.7533075515398, -17662.884910450568, -35938.76641258793, 5597.994398831654, -26783.916566838812, -11015.140833275418, 16729.252544552393, -15001.797974323987, -22207.240427403503, -20076.515683712445, -33424.91041718846, 0.025196333199739455, 0.9805218850634991, 0.09122987668216229, 192.0, 0.0, 0.0, 0.0, 0.0, 0.0, 0.0, 0.0, 0.0, 0.0, 1.742425128248514E9, 0.0, 2025-03-19 17:58:48.248
138.0, -27625.593856047853, -30665.36404673625, -45021.75539991324, -18881.21144547599, -11506.678045592076, -1154.4452493721544, -17673.703154766936, -35929.11045898324, 5596.675645908791, -26783.40247671634, -11013.531507674636, 16738.662628968075, -15006.693006359697, -22204.24529364649, -20076.158055801163, -33418.85309444107, 0.025196333199739455, 0.9805218850634991, 0.09122987668216229, 192.0, 0.0, 0.0, 0.0, 0.0, 0.0, 0.0, 0.0, 0.0, 0.0, 1.74242512824855E9, 0.0, 2025-03-19 17:58:48.248
140.0, -27624.006882191527, -30665.140529291693, -45015.76513239922, -18884.45244842201, -11513.383568928668, -1147.4044498687329, -17667.06468666371, -35928.57401711631, 5600.006055832631, -26770.88549982137, -11009.821118095055, 16736.53921324482, -14996.992349266095, -22202.144229667694, -20072.648831921677, -33419.79186770819, 0.02659816659986973, 0.9822609425317496, 0.09061493834108114, 192.0, 0.0, 112.0, 15.0, 96.0, 1.0, 104.0, 0.0, 0.0, 0.0, 1.742425128248584E9, 0.0, 2025-03-19 17:58:48.248
142.0, -27630.310074127923, -30669.744988649487, -45026.71748718232, -18891.426192692066, -11525.028827789884, -1160.748441308551, -17688.54471308526, -35942.25328472296, 5592.093538295453, -26781.189654015263, -11010.871650084455, 16736.31569580027, -15011.722148862142, -22203.306520379367, -20087.378631517724, -33418.11548687404, 0.02659816659986973, 0.9822609425317496, 0.09061493834108114, 192.0, 0.0, 0.0, 0.0, 0.0, 0.0, 0.0, 0.0, 0.0, 0.0, 1.742425128248613E9, 0.0, 2025-03-19 17:58:48.248
144.0, -27615.781440231975, -30656.848032098776, -45001.281201992184, -18878.775105330362, -11508.667350848598, -1152.4782958600874, -17677.078268179688, -35935.21248521954, 5606.10808206893, -26769.902023065333, -11004.859030825977, 16731.82299516475, -14994.980692265117, -22202.546561067888, -20077.432105235115, -33420.14949561948, 0.02659816659986973, 0.9822609425317496, 0.09061493834108114, 192.0, 0.0, 0.0, 0.0, 0.0, 0.0, 0.0, 0.0, 0.0, 0.0, 1.742425128248643E9, 0.0, 2025-03-19 17:58:48.248
146.0, -27623.001053691038, -30663.64296241319, -45009.461940462825, -18886.59821588972, -11514.054121262327, -1155.4734296170986, -17665.433009318473, -35925.95886301504, 5607.002151847142, -26775.467607434704, -10996.030091766132, 16746.93277441654, -14991.225599196625, -22199.506723821967, -20069.988974331496, -33408.10190535807, 0.02659816659986973, 0.9822609425317496, 0.09061493834108114, 192.0, 0.0, 0.0, 0.0, 0.0, 0.0, 0.0, 0.0, 0.0, 0.0, 1.74242512824867E9, 0.0, 2025-03-19 17:58:48.248
148.0, -27620.207085634123, -30660.714883889545, -45014.20051028735, -18883.245454221422, -11517.22806897498, -1150.7125080481183, -17674.798390245247, -35930.65272935066, 5600.587201188469, -26776.83106384648, -11006.580115149036, 16729.878393397143, -14997.931122533219, -22206.994558214494, -20072.5370731994, -33418.31665257414, 0.02659816659986973, 0.9822609425317496, 0.09061493834108114, 192.0, 0.0, 0.0, 0.0, 0.0, 0.0, 0.0, 0.0, 0.0, 0.0, 1.742425128248697E9, 0.0, 2025-03-19 17:58:48.248
150.0, -27623.2692746245, -30661.966581579043, -45022.09067608007, -18892.096745025727, -11518.703284109031, -1163.721223321107, -17680.922768226003, -35942.81207833434, 5603.112948311919, -26779.53562492557, -11006.401301193393, 16741.63541098063, -15006.469488915145, -22205.67580529163, -20082.148323315185, -33418.67428048543, 0.025299083299934865, 0.9811304712658748, 0.09930746917054056, 192.0, 0.0, 96.0, 15.0, 80.0, 1.5, 48.0, 0.0, 0.0, 0.0, 1.742425128310087E9, 0.0, 2025-03-19 17:58:48.310
152.0, -27619.916512956206, -30662.50302344597, -45014.73695215428, -18886.59821588972, -11514.188231729058, -1170.493801891065, -17684.409640361027, -35946.567171402836, 5601.436567477771, -26780.407342959326, -11013.777376863645, 16731.241849808914, -15011.453927928678, -22215.48822110751, -20081.83539889281, -33434.5440190487, 0.025299083299934865, 0.9811304712658748, 0.09930746917054056, 192.0, 0.0, 0.0, 0.0, 0.0, 0.0, 0.0, 0.0, 0.0, 0.0, 1.742425128310161E9, 0.0, 2025-03-19 17:58:48.310
154.0, -27627.829030493383, -30664.984067080506, -45018.98378360079, -18888.900445568615, -11518.859746320219, -1166.2246187001012, -17678.620538547104, -35943.81790683483, 5603.58233494548, -26783.0224970606, -11007.56359190507, 16742.663591225577, -15009.68814011671, -22206.994558214494, -20083.981166360518, -33423.815181710146, 0.025299083299934865, 0.9811304712658748, 0.09930746917054056, 192.0, 0.0, 0.0, 0.0, 0.0, 0.0, 0.0, 0.0, 0.0, 0.0, 1.742425128310188E9, 0.0, 2025-03-19 17:58:48.310
156.0, -27623.671606024698, -30660.60312516727, -45019.184949300885, -18884.385393188644, -11520.916106810106, -1165.3752524107997, -17689.863466008122, -35945.44958418007, 5594.06049180752, -26778.01570630261, -11021.242859511716, 16729.945448630508, -15002.803802824475, -22209.095622193294, -20086.484561739515, -33426.1397631335, 0.025299083299934865, 0.9811304712658748, 0.09930746917054056, 192.0, 0.0, 0.0, 0.0, 0.0, 0.0, 0.0, 0.0, 0.0, 0.0, 1.742425128310216E9, 0.0, 2025-03-19 17:58:48.310
158.0, -27624.47626882509, -30664.35821823576, -45021.80010340215, -18885.72649785596, -11524.42533068959, -1159.2061709411348, -17686.15307642854, -35942.365043445236, 5600.788366888567, -26781.457874948726, -11011.631609395936, 16740.4507685245, -15004.368424936347, -22198.322081365834, -20084.45055299408, -33414.80742869466, 0.025299083299934865, 0.9811304712658748, 0.09930746917054056, 192.0, 0.0, 0.0, 0.0, 0.0, 0.0, 0.0, 0.0, 0.0, 0.0, 1.742425128310252E9, 0.0, 2025-03-19 17:58:48.310
160.0, -27618.88833271126, -30659.038503055395, -45012.5241294532, -18878.998622774914, -11514.903487551628, -1160.077888974892, -17695.004367232843, -35936.844162564776, 5603.090596567464, -26776.00404930163, -11015.051426297598, 16727.93379162953, -15004.793108080998, -22206.860447747764, -20084.428201249626, -33420.95415841987, 0.026649541649967433, 0.9785652356329374, 0.09865373458527028, 192.0, 0.0, 112.0, 15.0, 64.0, 1.5, 8.0, 0.0, 0.0, 0.0, 1.742425128310288E9, 0.0, 2025-03-19 17:58:48.310
162.0, -27632.27702763999, -30673.701247418077, -45020.90603362394, -18893.773125859872, -11524.984124300972, -1168.7950693124617, -17682.666204293517, -35951.26103773845, 5605.504584968637, -26788.275157007596, -11010.156394261885, 16733.924059143552, -15003.407299924767, -22205.20641865807, -20083.422372749137, -33416.30499557316, 0.026649541649967433, 0.9785652356329374, 0.09865373458527028, 192.0, 0.0, 0.0, 0.0, 0.0, 0.0, 0.0, 0.0, 0.0, 0.0, 1.742425128310321E9, 0.0, 2025-03-19 17:58:48.310
164.0, -27637.46263235362, -30677.88102363122, -45022.96239411383, -18896.16476251659, -11521.318438210303, -1179.1215752508135, -17696.926617256002, -35951.21633424954, 5590.931247583777, -26797.081744322986, -11028.909507859888, 16715.081538567727, -15008.369387193847, -22225.546506112398, -20093.279492053927, -33431.88416145851, 0.026649541649967433, 0.9785652356329374, 0.09865373458527028, 192.0, 0.0, 0.0, 0.0, 0.0, 0.0, 0.0, 0.0, 0.0, 0.0, 1.74242512836879E9, 0.0, 2025-03-19 17:58:48.368
166.0, -27639.04960620995, -30681.5914132108, -45028.48327499429, -18899.338710229244, -11522.23485973297, -1171.656092602741, -17687.36007062913, -35953.31739822834, 5594.015788318609, -26794.01955533261, -11022.136929289929, 16724.78219566133, -15010.224581983637, -22214.92942749613, -20085.612843705756, -33426.877370700524, 0.026649541649967433, 0.9785652356329374, 0.09865373458527028, 192.0, 0.0, 0.0, 0.0, 0.0, 0.0, 0.0, 0.0, 0.0, 0.0, 1.742425128368844E9, 0.0, 2025-03-19 17:58:48.368
168.0, -27632.634655551276, -30673.36597125125, -45018.91672836742, -18893.080221781758, -11516.535164896866, -1173.8018600704504, -17699.430012634995, -35947.21537199204, 5590.886544094867, -26797.931110612288, -11025.176766535851, 16713.15928854457, -15016.036035542016, -22220.31619790986, -20092.69834669809, -33431.3924230805, 0.026649541649967433, 0.9785652356329374, 0.09865373458527028, 192.0, 0.0, 0.0, 0.0, 0.0, 0.0, 0.0, 0.0, 0.0, 0.0, 1.742425128368871E9, 0.0, 2025-03-19 17:58:48.368
170.0, -27633.595780562853, -30672.87423287323, -45021.978917357796, -18895.002471804914, -11521.161975999115, -1164.4364791436767, -17663.376648828584, -35945.516639413436, 5594.48517495217, -26789.906834352834, -11013.687969885823, 16727.822032907254, -15023.322704234446, -22209.565008826856, -20082.930634371118, -33418.920149674435, 0.025324770824983717, 0.9762826178164687, 0.10032686729263515, 192.0, 0.0, 96.0, 15.0, 56.0, 1.5, 24.0, 0.0, 0.0, 0.0, 1.742425128368898E9, 0.0, 2025-03-19 17:58:48.368
172.0, -27631.539420072964, -30671.35431425027, -45016.90507136644, -18892.387317703644, -11516.80338583033, -1177.1546217387465, -17703.27451268131, -35957.1395465302, 5593.881677851878, -26792.700802409745, -11018.717112388267, 16722.278800282336, -15005.955398792674, -22216.40464263018, -20084.24938729398, -33423.52460903223, 0.025324770824983717, 0.9762826178164687, 0.10032686729263515, 192.0, 0.0, 0.0, 0.0, 0.0, 0.0, 0.0, 0.0, 0.0, 0.0, 1.742425128368926E9, 0.0, 2025-03-19 17:58:48.368
174.0, -27634.489850341066, -30676.361105008258, -45017.150940555446, -18894.823657849272, -11527.152243513137, -1179.970941540115, -17687.2259601624, -35964.69443615609, 5600.363683743916, -26792.67845066529, -11016.481937942737, 16723.17287006055, -15008.570552893943, -22218.505706608976, -20086.328099528328, -33429.98426317981, 0.025324770824983717, 0.9762826178164687, 0.10032686729263515, 192.0, 0.0, 0.0, 0.0, 0.0, 0.0, 0.0, 0.0, 0.0, 0.0, 1.742425128368952E9, 0.0, 2025-03-19 17:58:48.368
176.0, -27627.56080955992, -30667.64392467069, -45007.025600317196, -18885.100649011212, -11518.27860096438, -1184.5083456645425, -17707.253123194354, -35959.128851786714, 5594.909858096821, -26795.517122211117, -11012.302161729594, 16722.949352615997, -15009.531677905523, -22221.880820021728, -20089.747916429988, -33435.32633010463, 0.025324770824983717, 0.9762826178164687, 0.10032686729263515, 192.0, 0.0, 0.0, 0.0, 0.0, 0.0, 0.0, 0.0, 0.0, 0.0, 1.742425128368979E9, 0.0, 2025-03-19 17:58:48.368
178.0, -27622.688129268663, -30664.671142658135, -45001.95175432584, -18876.785800073838, -11510.32137993829, -1168.6609588457297, -17668.852826220136, -35949.696415626575, 5614.4899862396705, -26780.630860403882, -11000.723958101746, 16736.092178355717, -14996.120631232337, -22204.893494235694, -20071.77711388792, -33426.02800441122, 0.025324770824983717, 0.9762826178164687, 0.10032686729263515, 192.0, 0.0, 0.0, 0.0, 0.0, 0.0, 0.0, 0.0, 0.0, 0.0, 1.742425128369006E9, 0.0, 2025-03-19 17:58:48.369
180.0, -27631.2711991395, -30670.326134005325, -45008.85844336253, -18883.245454221422, -11518.23389747547, -1182.8096130859392, -17707.096660983167, -35960.71582564304, 5605.817509391011, -26790.756200642136, -11006.960094804776, 16732.962934131974, -15007.005930782072, -22212.470735606043, -20080.226073292026, -33425.60332126657, 0.027662385412491858, 0.9751413089082344, 0.10216343364631758, 192.0, 0.0, 120.0, 15.0, 56.0, 1.5, 32.0, 0.0, 0.0, 0.0, 1.742425128429211E9, 0.0, 2025-03-19 17:58:48.429
182.0, -27637.306170142434, -30677.92572712013, -45017.709734166834, -18892.54377991483, -11522.458377177523, -1176.0146827715257, -17693.886780010078, -35955.574924418324, 5599.20139303224, -26791.896139609355, -11014.157356519385, 16725.095120083704, -15024.239125757114, -22216.382290885722, -20087.35627977327, -33437.0921179166, 0.027662385412491858, 0.9751413089082344, 0.10216343364631758, 192.0, 0.0, 0.0, 0.0, 0.0, 0.0, 0.0, 0.0, 0.0, 0.0, 1.742425128429287E9, 0.0, 2025-03-19 17:58:48.429
184.0, -27628.36547236031, -30668.02390432643, -45006.66797240591, -18885.637090878143, -11517.675103864087, -1175.6570548602408, -17707.387233661084, -35948.802345848366, 5600.318980255006, -26796.031212333586, -11013.375045463448, 16725.385692761625, -15016.885401831318, -22214.504744351478, -20089.83732340781, -33429.2913591017, 0.027662385412491858, 0.9751413089082344, 0.10216343364631758, 192.0, 0.0, 0.0, 0.0, 0.0, 0.0, 0.0, 0.0, 0.0, 0.0, 1.742425128429317E9, 0.0, 2025-03-19 17:58:48.429
186.0, -27620.877637967784, -30662.234802512507, -45000.61064965852, -18877.21048321849, -11515.685798607565, -1163.363595409822, -17687.248311906853, -35942.61091263425, 5611.8524803939445, -26777.658078391323, -11003.137946502919, 16728.626695707644, -14994.153677720271, -22204.4911628355, -20078.05795407986, -33428.95608293487, 0.027662385412491858, 0.9751413089082344, 0.10216343364631758, 192.0, 0.0, 0.0, 0.0, 0.0, 0.0, 0.0, 0.0, 0.0, 0.0, 1.742425128429346E9, 0.0, 2025-03-19 17:58:48.429
188.0, -27623.17986764668, -30664.000590324475, -45002.15292002594, -18878.484532652445, -11522.681894622076, -1175.1653164822242, -17709.17537321751, -35956.066662796344, 5608.455015236737, -26788.36456398542, -11000.768661590655, 16733.83465216573, -14999.853372556374, -22206.92750298113, -20081.63423319271, -33422.02704215372, 0.027662385412491858, 0.9751413089082344, 0.10216343364631758, 192.0, 0.0, 0.0, 0.0, 0.0, 0.0, 0.0, 0.0, 0.0, 0.0, 1.742425128429373E9, 0.0, 2025-03-19 17:58:48.429
190.0, -27613.970948931095, -30654.4340436976, -44997.302591479136, -18870.16968371507, -11514.814080573808, -1159.1614674522243, -17692.657434065037, -35941.44862192257, 5613.908840883832, -26781.189654015263, -10999.382853434427, 16730.191317819514, -15008.771718594042, -22203.977072713027, -20078.54969245788, -33421.80352470917, 0.027831192706245927, 0.9745706544541172, 0.09808171682315879, 192.0, 0.0, 112.0, 15.0, 56.0, 1.0, 120.0, 0.0, 0.0, 0.0, 1.7424251284294E9, 0.0, 2025-03-19 17:58:48.429
192.0, -27622.621074035298, -30664.31351474685, -45001.772940370196, -18877.434000663045, -11519.530298653877, -1166.3810809112886, -17688.45530610744, -35946.18719174709, 5614.44528275076, -26787.470494207206, -10998.757004589677, 16739.444940024012, -15013.01855004055, -22203.01594770145, -20080.471942481036, -33409.24184432529, 0.027831192706245927, 0.9745706544541172, 0.09808171682315879, 192.0, 0.0, 0.0, 0.0, 0.0, 0.0, 0.0, 0.0, 0.0, 0.0, 1.742425128429429E9, 0.0, 2025-03-19 17:58:48.429
194.0, -27614.775611731486, -30656.91508733214, -44991.491137920755, -18870.25909069289, -11505.627513602676, -1152.746516793551, -17665.16478838501, -35927.23291244899, 5610.533727471081, -26778.172168513796, -11003.22735348074, 16731.241849808914, -15012.236238984615, -22208.603883815274, -20074.504026711467, -33417.601396751576, 0.027831192706245927, 0.9745706544541172, 0.09808171682315879, 192.0, 0.0, 0.0, 0.0, 0.0, 0.0, 0.0, 0.0, 0.0, 0.0, 1.742425128490053E9, 0.0, 2025-03-19 17:58:48.490
196.0, -27622.554018801933, -30666.861613614754, -45000.09655953605, -18883.916006555082, -11521.072569021293, -1167.1186884783135, -17692.0762887092, -35941.56038064485, 5616.523994985103, -26783.96127032772, -10998.444080167304, 16740.964858646974, -15009.77754709453, -22204.580569813323, -20075.21928253404, -33410.314728059144, 0.027831192706245927, 0.9745706544541172, 0.09808171682315879, 192.0, 0.0, 0.0, 0.0, 0.0, 0.0, 0.0, 0.0, 0.0, 0.0, 1.742425128490094E9, 0.0, 2025-03-19 17:58:48.490
198.0, -27618.03896642196, -30658.814985610843, -44997.52610892369, -18876.27170995137, -11517.161013741616, -1161.4413453866655, -17685.035489205777, -35937.51471489843, 5610.645486193358, -26783.58129067198, -11011.050464040098, 16725.07276833925, -14992.25377944157, -22209.944988482595, -20078.952023858074, -33425.692728244394, 0.027831192706245927, 0.9745706544541172, 0.09808171682315879, 192.0, 0.0, 0.0, 0.0, 0.0, 0.0, 0.0, 0.0, 0.0, 0.0, 1.742425128490122E9, 0.0, 2025-03-19 17:58:48.490
200.0, -27624.118640913803, -30663.151224035173, -45009.68545790738, -18881.59142513173, -11529.521528425399, -1165.7999355554505, -17693.327986398697, -35943.750851601464, 5601.973009344699, -26787.135218040374, -11012.615086151969, 16739.02025687936, -15009.956361050174, -22203.507686079465, -20086.193989061594, -33416.21558859535, 0.028915596353122963, 0.9762853272270586, 0.09804085841157939, 192.0, 0.0, 120.0, 15.0, 72.0, 1.5, 8.0, 0.0, 0.0, 0.0, 1.74242512849015E9, 0.0, 2025-03-19 17:58:48.490
202.0, -27613.546265786445, -30652.802366352367, -44995.31328622261, -18877.67986985205, -11524.09005452276, -1167.9904065120706, -17681.63802404857, -35941.56038064485, 5599.447262221249, -26784.475360450193, -11012.726844874245, 16729.207841063482, -15013.35382620738, -22211.10727919427, -20091.06666935285, -33428.39728932349, 0.028915596353122963, 0.9762853272270586, 0.09804085841157939, 192.0, 0.0, 0.0, 0.0, 0.0, 0.0, 0.0, 0.0, 0.0, 0.0, 1.742425128490198E9, 0.0, 2025-03-19 17:58:48.490
204.0, -27617.52487629949, -30657.473880943526, -45005.32686773859, -18884.653614122108, -11521.743121354953, -1163.1624297097242, -17666.43883781896, -35939.52637189941, 5609.572602459503, -26781.59198541546, -10999.248742967695, 16744.205861592993, -14992.030261997017, -22201.5407325674, -20079.577872702823, -33418.38370780751, 0.028915596353122963, 0.9762853272270586, 0.09804085841157939, 192.0, 0.0, 0.0, 0.0, 0.0, 0.0, 0.0, 0.0, 0.0, 0.0, 1.74242512849024E9, 0.0, 2025-03-19 17:58:48.490
206.0, -27616.60845477682, -30655.93161057611, -45005.66214390542, -18883.06664026578, -11517.94332479755, -1158.3568046518333, -17675.781867001282, -35930.92095028412, 5600.587201188469, -26787.895177351857, -11011.475147184748, 16728.380826518634, -15016.818346597953, -22206.34635762529, -20081.813047148353, -33424.12810613252, 0.028915596353122963, 0.9762853272270586, 0.09804085841157939, 192.0, 0.0, 0.0, 0.0, 0.0, 0.0, 0.0, 0.0, 0.0, 0.0, 1.742425128490274E9, 0.0, 2025-03-19 17:58:48.490
208.0, -27614.59679777584, -30651.058930284853, -45007.56204218412, -18880.384430931143, -11514.23293521797, -1145.8621795013166, -17652.670163234492, -35934.474877652516, 5602.375340744894, -26783.134255782876, -10997.907638300376, 16745.077579626748, -14981.591997336389, -22194.25406387497, -20074.25815752246, -33409.44301002539, 0.028915596353122963, 0.9762853272270586, 0.09804085841157939, 192.0, 0.0, 0.0, 0.0, 0.0, 0.0, 0.0, 0.0, 0.0, 0.0, 1.742425128490324E9, 0.0, 2025-03-19 17:58:48.490
210.0, -27598.905873168216, -30635.97150277752, -45003.38226597098, -18872.650727349606, -11506.476879891978, -1139.9836707095708, -17660.82854996068, -35926.696470582065, 5608.924401870299, -26774.97586905669, -10993.07966149803, 16740.07078886876, -14972.494837343078, -22197.07038367634, -20069.69840165358, -33410.22532108132, 0.022, 0.974, 0.1, 192.0, 0.0, 88.0, 15.0, 56.0, 1.5, 16.0, 0.0, 0.0, 0.0, 1.742425128549804E9, 0.0, 2025-03-19 17:58:48.549
212.0, -27603.93501567066, -30642.386453436193, -45018.201472544846, -18885.68179436705, -11516.71397885251, -1136.8991299747383, -17636.353389782118, -35931.43504040659, 5614.020599606109, -26769.924374809787, -10982.954321259776, 16754.152387875605, -14974.461790855144, -22185.3357178373, -20067.172654530128, -33401.53049248821, 0.022, 0.974, 0.1, 192.0, 0.0, 0.0, 0.0, 0.0, 0.0, 0.0, 0.0, 0.0, 0.0, 1.742425128549867E9, 0.0, 2025-03-19 17:58:48.549
214.0, -27595.32959405537, -30635.569171377323, -45014.96046959883, -18881.345555942724, -11510.433138660568, -1135.982708452071, -17648.445683532438, -35926.80822930434, 5609.706712926235, -26770.68433412127, -10989.123402729441, 16741.07661736925, -14977.501628101067, -22193.851732474774, -20073.36408774425, -33408.95127164737, 0.022, 0.974, 0.1, 192.0, 0.0, 0.0, 0.0, 0.0, 0.0, 0.0, 0.0, 0.0, 0.0, 1.742425128549894E9, 0.0, 2025-03-19 17:58:48.549
216.0, -27601.118695869292, -30641.06770051333, -45019.028487089694, -18890.21919849148, -11514.165879984605, -1130.2159583826017, -17629.87138389008, -35928.663424094135, 5615.96520137372, -26767.376275941882, -10980.003890991675, 16750.218480851472, -14985.481200871613, -22185.402773070666, -20073.051163321874, -33399.60824246505, 0.022, 0.974, 0.1, 192.0, 0.0, 0.0, 0.0, 0.0, 0.0, 0.0, 0.0, 0.0, 0.0, 1.742425128549921E9, 0.0, 2025-03-19 17:58:48.549
218.0, -27602.973890659083, -30645.001607537462, -45025.10816158154, -18896.254169494412, -11515.059949762815, -1135.2451008850458, -17660.49327379385, -35930.02688050591, 5602.867079122911, -26772.74069461116, -10986.59765560599, 16736.718027200466, -14971.511360587045, -22193.672918519133, -20078.68380292461, -33406.42552452392, 0.022, 0.974, 0.1, 192.0, 0.0, 0.0, 0.0, 0.0, 0.0, 0.0, 0.0, 0.0, 0.0, 1.742425128549948E9, 0.0, 2025-03-19 17:58:48.549
220.0, -27604.247940093035, -30650.142508762183, -45027.29863253816, -18899.204599762514, -11520.446720176546, -1132.9205194616939, -17630.340770523642, -35926.20473220405, 5607.516241969614, -26779.200348758743, -10986.307082928071, 16736.69567545601, -14978.418049623735, -22191.236578373504, -20081.947157615086, -33402.64807971097, 0.026000000000000002, 0.976, 0.094, 192.0, 0.0, 104.0, 15.0, 64.0, 1.0, 120.0, 0.0, 0.0, 0.0, 1.742425128549975E9, 0.0, 2025-03-19 17:58:48.549
