%OpenBCI Raw EXG Data
%Number of channels = 16
%Sample Rate = 125 Hz
%Board = OpenBCI_GUI$BoardCytonSerialDaisy
Sample Index, EXG Channel 0, EXG Channel 1, EXG Channel 2, EXG Channel 3, EXG Channel 4, EXG Channel 5, EXG Channel 6, EXG Channel 7, EXG Channel 8, EXG Channel 9, EXG Channel 10, EXG Channel 11, EXG Channel 12, EXG Channel 13, EXG Channel 14, EXG Channel 15, Accel Channel 0, Accel Channel 1, Accel Channel 2, Not Used, Digital Channel 0 (D11), Digital Channel 1 (D12), Digital Channel 2 (D13), Digital Channel 3 (D17), Not Used, Digital Channel 4 (D18), Analog Channel 0, Analog Channel 1, Analog Channel 2, Timestamp, Marker Channel, Timestamp (Formatted)
0.0, 45029.69026919488, 5642.004983664154, -35826.448896700014, -16491.31822482565, -10513.522984209418, -23585.784266684564, -12238.876490459024, 23998.777448985275, 0.0, 0.0, 0.0, 0.0, 0.0, 0.0, 0.0, 0.0, 0.0, 0.0, 0.0, 192.0, 0.0, 0.0, 0.0, 0.0, 0.0, 0.0, 0.0, 0.0, 0.0, 1.741890889370429E9, 0.0, 2025-03-13 13:34:49.370
234.0, 45011.563004441625, 5636.618213250425, -35833.444992714525, -16492.256998092773, -10514.931144110102, -23582.699725949733, -12242.430417827418, 24000.833809475163, -3562.2869208201078, 3771.275731477229, -19911.157478232086, 55205.43369119569, -19893.253730923385, -28064.872689828004, 6243.937461845572, 17021.725120750085, 0.0, 0.0, 0.0, 192.0, 0.0, 0.0, 0.0, 0.0, 0.0, 0.0, 0.0, 0.0, 0.0, 1.741890889370635E9, 0.0, 2025-03-13 13:34:49.370
236.0, 45024.9293476259, 5633.444265537771, -35818.91635881858, -16487.22785559033, -10504.917562594124, -23577.7152869362, -12232.908574689458, 24007.628739789576, -3562.7786591981244, 3763.6314348735136, -19911.380995676638, 55200.71747311563, -19891.309129155772, -28064.090378772067, 6244.675069412598, 17019.780518982472, 0.0, 0.0, 0.0, 192.0, 0.0, 0.0, 0.0, 0.0, 0.0, 0.0, 0.0, 0.0, 0.0, 1.741890889370926E9, 0.0, 2025-03-13 13:34:49.370
238.0, 45003.89635609345, 5629.130378857896, -35826.583007166744, -16479.20357933087, -10498.234391001986, -23569.89217637684, -12223.140862362488, 24017.32939688318, -3574.178048870331, 3759.9657487828435, -19921.126356259152, 55189.18397297669, -19896.628844336134, -28067.01845729571, 6246.530264202388, 17024.854364973828, 0.0, 0.0, 0.0, 192.0, 0.0, 0.0, 0.0, 0.0, 0.0, 0.0, 0.0, 0.0, 0.0, 1.741890889371181E9, 0.0, 2025-03-13 13:34:49.371
240.0, 45006.936193339374, 5611.628962949391, -35820.52568441936, -16480.00824213126, -10495.798050856358, -23573.110827578406, -12223.677304229415, 24016.390623616055, -3571.3617290689626, 3761.2174464723407, -19914.823164322755, 55200.04692078196, -19884.693012797, -28054.121500745, 6258.421392252611, 17039.22653665859, 0.0, 0.0, 0.0, 192.0, 0.0, 0.0, 14.5, 120.0, 124.0, 112.0, 0.0, 0.0, 0.0, 1.741890889371468E9, 0.0, 2025-03-13 13:34:49.371
242.0, 44960.9139515059, 5590.528916183582, -35833.1097165477, -16483.763335199754, -10505.0293213164, -23573.446103745235, -12227.566507764639, 24014.200152659436, -3585.018644931155, 3748.2757864327177, -19924.52382141636, 55185.16065897473, -19893.27608266784, -28061.40816943743, 6253.235787538981, 17041.081731448383, 0.0, 0.0, 0.0, 192.0, 0.0, 0.0, 0.0, 0.0, 0.0, 0.0, 0.0, 0.0, 0.0, 1.741890889371731E9, 0.0, 2025-03-13 13:34:49.371
244.0, 44953.62728281347, 5565.919645538288, -35819.78807685233, -16486.78082070122, -10500.648379403161, -23577.89410089184, -12225.241926341287, 24016.256513149325, -3591.411243845373, 3731.6460885579695, -19928.41302495158, 55161.08783019637, -19898.17111470355, -28069.186576507876, 6250.151246804148, 17038.623039558297, 0.0, 0.0, 0.0, 192.0, 0.0, 0.0, 0.0, 0.0, 0.0, 0.0, 0.0, 0.0, 0.0, 1.74189088937197E9, 0.0, 2025-03-13 13:34:49.371
246.0, 44923.72064873227, 5558.834142545956, -35827.007690311395, -16484.50094276678, -10493.585228155283, -23566.293545519537, -12211.473251756817, 24030.18164994498, -3600.2625346496743, 3725.275841388207, -19929.932943574542, 55154.20349290413, -19901.36741416066, -28071.712323631327, 6254.934520117584, 17041.75228378204, 0.0, 0.0, 0.0, 192.0, 0.0, 0.0, 0.0, 0.0, 0.0, 0.0, 0.0, 0.0, 0.0, 1.741890889372218E9, 0.0, 2025-03-13 13:34:49.372
248.0, 44928.928605190355, 5544.797247028023, -35827.365318222684, -16498.627245262534, -10504.761100382937, -23579.793999170543, -12224.41491179644, 24017.508210838823, -3603.9505724848, 3721.1854721528857, -19933.24100175393, 55148.14617015674, -19899.55692285978, -28071.645268397962, 6255.38155500669, 17042.04285645996, 0.0, 0.0, 0.0, 192.0, 0.0, 0.0, 0.0, 0.0, 0.0, 0.0, 0.0, 0.0, 0.0, 1.741890889372425E9, 0.0, 2025-03-13 13:34:49.372
0.0, 22392.603444171364, 2553.8656179744744, -17752.80597839427, -8283.802364325806, -5098.052930599801, -11745.171158930203, -6099.92517232003, 11999.712824787239, -1812.5700131142157, 1853.7642781453465, -9976.209399248291, 27567.41226523069, -9957.456285650289, -14045.746808737136, 3118.5153864044414, 8510.024369957968, 0.0, 0.0, 0.0, 192.0, 0.0, 0.0, 14.5, 104.0, 124.5, 8.0, 0.0, 0.0, 0.0, 1.741890889547553E9, 0.0, 2025-03-13 13:34:49.547
2.0, 44796.71803673721, 5105.004323125401, -35500.42635207491, -16571.739801375843, -10199.100994956612, -23494.008003951076, -12207.204068565854, 23995.290576850246, -3716.201033139352, 3876.418337394993, -19962.23121431246, 54910.792995785836, -19889.543341343804, -27944.888525591916, 6341.100494992793, 17055.856234533338, 0.0, 0.0, 0.0, 192.0, 0.0, 0.0, 0.0, 0.0, 0.0, 0.0, 0.0, 0.0, 0.0, 1.741890889547791E9, 0.0, 2025-03-13 13:34:49.547
4.0, 44784.37987379788, 5120.292916332832, -35492.60324151555, -16550.416237165482, -10185.265265138778, -23477.311250842962, -12190.015577079723, 24013.619007303598, -3712.647105770958, 3887.7283200893785, -19954.721028175478, 54906.56851608378, -19882.07785869573, -27936.506621421177, 6351.985794542527, 17066.24979570506, 0.0, 0.0, 0.0, 192.0, 0.0, 0.0, 0.0, 0.0, 0.0, 0.0, 0.0, 0.0, 0.0, 1.741890889547985E9, 0.0, 2025-03-13 13:34:49.547
6.0, 44799.53435653858, 5109.027637127357, -35480.130968109486, -16558.842844825132, -10190.696739041417, -23486.050782924987, -12199.380958006497, 24005.505324066322, -3701.985323665777, 3889.3152939457054, -19943.567507692278, 54913.96694349849, -19873.338326613706, -27934.80788884257, 6367.587312172332, 17076.799819087963, 0.0, 0.0, 0.0, 192.0, 0.0, 0.0, 0.0, 0.0, 0.0, 0.0, 0.0, 0.0, 0.0, 1.74189088954815E9, 0.0, 2025-03-13 13:34:49.548
8.0, 44791.44302504576, 5124.584451268251, -35484.71307572282, -16546.79525456372, -10195.435308865943, -23470.717486228645, -12203.471327241818, 24011.964978213906, -3715.3516668500506, 3878.2511804403284, -19952.642315941135, 54905.69679805003, -19887.621091320645, -27941.736929623716, 6350.085896263826, 17066.89799629426, -0.002, 0.9580000000000001, -0.222, 192.0, 127.5, 120.0, 14.5, 120.0, 124.5, 8.0, 0.0, 0.0, 0.0, 1.741890889548363E9, 0.0, 2025-03-13 13:34:49.548
10.0, 44825.954118484755, 5134.910957206602, -35468.26219180372, -16537.474577125857, -10187.96982621787, -23460.078055867918, -12198.732757417292, 24017.396452116544, -3694.5198410177045, 3905.8332330981775, -19930.983475563942, 54925.902775037626, -19869.426771334027, -27918.66992934584, 6363.49694293701, 17087.14867677077, -0.002, 0.9580000000000001, -0.222, 192.0, 0.0, 0.0, 0.0, 0.0, 0.0, 0.0, 0.0, 0.0, 0.0, 1.741890889548549E9, 0.0, 2025-03-13 13:34:49.548
12.0, 44799.35554258294, 5126.082018146756, -35484.73542746728, -16546.147053974517, -10185.82405875016, -23468.527015272026, -12195.245885282266, 24013.03786194776, -3691.8376316830677, 3907.4649104434147, -19933.464519198482, 54926.10394073772, -19866.923375955033, -27915.540685122098, 6362.334652225334, 17086.344013970378, -0.002, 0.9580000000000001, -0.222, 192.0, 0.0, 0.0, 0.0, 0.0, 0.0, 0.0, 0.0, 0.0, 0.0, 1.741890889548742E9, 0.0, 2025-03-13 13:34:49.548
14.0, 44789.23020234468, 5104.5796399807505, -35496.73831423978, -16566.196568750926, -10199.436271123443, -23495.25970164057, -12215.071882614122, 23986.97572791287, -3714.3458383495617, 3883.906171787521, -19957.582051465757, 54896.666693290084, -19880.759105772868, -27939.52410692264, 6342.262785704468, 17061.622984602807, -0.002, 0.9580000000000001, -0.222, 192.0, 0.0, 0.0, 0.0, 0.0, 0.0, 0.0, 0.0, 0.0, 0.0, 1.741890889548905E9, 0.0, 2025-03-13 13:34:49.548
16.0, 44784.64809473135, 5107.753587693404, -35503.488541065286, -16562.597937893624, -10200.464451368387, -23491.683422527723, -12209.79687092267, 23987.3110040797, -3715.463425572327, 3886.744843333345, -19958.565528221792, 54903.68514104905, -19882.860169751664, -27938.652388888884, 6334.529082122932, 17055.52095836651, -0.002, 0.9580000000000001, -0.222, 192.0, 0.0, 0.0, 0.0, 0.0, 0.0, 0.0, 0.0, 0.0, 0.0, 1.741890889610106E9, 0.0, 2025-03-13 13:34:49.610
18.0, 44794.88519369187, 5108.58060223825, -35493.050276404654, -16558.641679125034, -10200.911486257493, -23488.21890213715, -12211.316789545632, 23990.194379114437, -3722.794797753668, 3884.4426136544485, -19964.309926546804, 54891.078757176256, -19886.816428520255, -27941.2451912457, 6329.812864042862, 17050.80474028644, -0.002, 0.9580000000000001, -0.218, 192.0, 127.5, 120.0, 14.5, 120.0, 124.5, 24.0, 0.0, 0.0, 0.0, 1.741890889610305E9, 0.0, 2025-03-13 13:34:49.610
20.0, 44793.96877216921, 5120.8964134331245, -35485.093055378566, -16553.120798244574, -10187.88041924005, -23487.794218992498, -12198.732757417292, 23995.312928594703, -3705.6063062675366, 3893.8079945812224, -19944.573336192767, 54912.15645219761, -19872.064277179754, -27929.778746340126, 6346.844893317806, 17062.405295658744, -0.002, 0.9580000000000001, -0.218, 192.0, 0.0, 0.0, 0.0, 0.0, 0.0, 0.0, 0.0, 0.0, 0.0, 1.741890889610493E9, 0.0, 2025-03-13 13:34:49.610
22.0, 44800.00374317214, 5121.656372744605, -35478.34282855306, -16550.79621682122, -10190.11559368558, -23490.61053879387, -12202.42079525242, 23990.999041914827, -3713.4517685713495, 3895.260857970817, -19944.841557126234, 54903.39456837113, -19876.244053392897, -27935.72431036524, 6344.8779398057395, 17058.873720034804, -0.002, 0.9580000000000001, -0.218, 192.0, 0.0, 0.0, 0.0, 0.0, 0.0, 0.0, 0.0, 0.0, 0.0, 1.741890889610672E9, 0.0, 2025-03-13 13:34:49.610
24.0, 44794.974600669695, 5120.091750632733, -35483.64019198897, -16555.154806990005, -10190.696739041417, -23492.93512021722, -12202.309036530141, 23989.36736456959, -3706.9921144237655, 3900.781738851278, -19945.04272282633, 54912.178803942064, -19878.50157958288, -27932.885638819414, 6348.789495085418, 17062.002964258547, -0.002, 0.9580000000000001, -0.218, 192.0, 0.0, 0.0, 0.0, 0.0, 0.0, 0.0, 0.0, 0.0, 0.0, 1.741890889610835E9, 0.0, 2025-03-13 13:34:49.610
26.0, 44802.39537982886, 5121.455207044507, -35476.24176457426, -16549.298649942713, -10185.332320372143, -23490.342317860406, -12196.810507394137, 23994.955300683418, -3698.990189908766, 3898.2783434722837, -19940.974705335466, 54891.43638508754, -19871.12550391263, -27939.837031345014, 6356.9702335560605, 17066.115685238325, -0.002, 0.9580000000000001, -0.218, 192.0, 0.0, 0.0, 0.0, 0.0, 0.0, 0.0, 0.0, 0.0, 0.0, 1.741890889610998E9, 0.0, 2025-03-13 13:34:49.610
28.0, 44799.377894327394, 5129.904166448613, -35476.152357596446, -16546.728199330355, -10179.722032513862, -23483.9944224351, -12189.277969512697, 24004.253626376823, -3715.4857773167823, 3896.7584248493226, -19943.768673392377, 54909.518946351884, -19877.87573073813, -27936.931304565827, 6362.714631881075, 17070.921310296217, -0.002, 0.966, -0.218, 192.0, 127.5, 120.0, 15.0, 24.0, 124.5, 24.0, 0.0, 0.0, 0.0, 1.741890889611156E9, 0.0, 2025-03-13 13:34:49.611
30.0, 44801.03192341708, 5123.936250679047, -35482.45554953284, -16560.38511519255, -10188.081584940146, -23492.733954517123, -12197.548114961162, 23993.971823927383, -3708.333219091084, 3897.4513289274373, -19943.455748970002, 54901.67348404807, -19879.328594127728, -27939.56881041155, 6358.668966134664, 17064.19343521517, -0.002, 0.966, -0.218, 192.0, 0.0, 0.0, 0.0, 0.0, 0.0, 0.0, 0.0, 0.0, 0.0, 1.741890889668875E9, 0.0, 2025-03-13 13:34:49.668
32.0, 44800.83075771699, 5128.1160268921885, -35481.248555332255, -16557.94877504692, -10179.319701113665, -23481.245157867095, -12188.339196245575, 24003.56072229871, -3715.1281494054974, 3894.5679538927025, -19953.93871711954, 54899.035978202344, -19882.65900405157, -27942.653351146386, 6355.83029458884, 17059.365458412824, -0.002, 0.966, -0.218, 192.0, 0.0, 0.0, 0.0, 0.0, 0.0, 0.0, 0.0, 0.0, 0.0, 1.741890889669063E9, 0.0, 2025-03-13 13:34:49.669
34.0, 44803.11063565143, 5134.955660695513, -35471.7714156832, -16553.16550173348, -10169.574340531151, -23474.584338019413, -12180.270216497209, 24010.333300868668, -3701.180660865386, 3916.0479803142525, -19944.52863270386, 54886.22842862945, -19864.73290499841, -27923.117926492447, 6369.040175561926, 17075.414010931734, -0.002, 0.966, -0.218, 192.0, 0.0, 0.0, 0.0, 0.0, 0.0, 0.0, 0.0, 0.0, 0.0, 1.741890889669252E9, 0.0, 2025-03-13 13:34:49.669
36.0, 44792.49355703516, 5112.469805773474, -35491.93268918189, -16579.294691001738, -10197.73753854484, -23494.387983606815, -12213.775481435714, 23982.23715808835, -3716.178681394897, 3894.1656224925073, -19961.18068232306, 54890.095280420224, -19880.423829606036, -27939.21118250027, 6352.119905009259, 17053.53165310999, -0.002, 0.966, -0.218, 192.0, 0.0, 0.0, 0.0, 0.0, 0.0, 0.0, 0.0, 0.0, 0.0, 1.741890889669414E9, 0.0, 2025-03-13 13:34:49.669
38.0, 44783.99989414214, 5112.179233095555, -35499.129950896495, -16578.691193901443, -10205.135965959546, -23495.55027431849, -12223.252621084765, 23975.375172540567, -3721.408989597439, 3894.612657381613, -19967.372115537182, 54870.24693134391, -19885.45297210848, -27945.96140932577, 6334.439675145111, 17039.964144225614, -0.002, 0.966, -0.218, 192.0, 0.0, 0.0, 14.5, 120.0, 124.5, 24.0, 0.0, 0.0, 0.0, 1.741890889669582E9, 0.0, 2025-03-13 13:34:49.669
40.0, 44795.93572568127, 5114.570869752272, -35481.06974137661, -16567.872949585075, -10186.896942484014, -23487.369535847847, -12202.1302225745, 23989.45677154741, -3725.7675797662237, 3892.6010003806355, -19966.23217656996, 54880.81930647127, -19883.46366685196, -27941.647522645897, 6333.277384433435, 17044.85917626133, -0.002, 0.966, -0.218, 192.0, 0.0, 0.0, 0.0, 0.0, 0.0, 0.0, 0.0, 0.0, 0.0, 1.741890889669761E9, 0.0, 2025-03-13 13:34:49.669
42.0, 44786.39153079886, 5125.009134412901, -35474.319514551105, -16552.13732148854, -10182.717166270873, -23478.920576443743, -12194.240056781777, 23999.336242596655, -3705.2486783562517, 3909.007180810831, -19947.74728390542, 54881.44515531602, -19872.22073939094, -27925.129583493424, 6349.504750907988, 17059.141940968268, -0.002, 0.966, -0.218, 192.0, 0.0, 0.0, 0.0, 0.0, 0.0, 0.0, 0.0, 0.0, 0.0, 1.741890889669926E9, 0.0, 2025-03-13 13:34:49.669
44.0, 44790.638362245365, 5109.228802827454, -35473.11252035052, -16556.540615146234, -10191.59080881963, -23486.430762580727, -12207.025254610213, 23993.94947218293, -3716.536309306182, 3903.9556865639315, -19951.211804295996, 54890.07292867576, -19876.758143515366, -27935.143165009402, 6354.086858521326, 17064.349897426357, -0.002, 0.966, -0.218, 192.0, 0.0, 0.0, 0.0, 0.0, 0.0, 0.0, 0.0, 0.0, 0.0, 1.741890889670102E9, 0.0, 2025-03-13 13:34:49.670
46.0, 44768.93481837926, 5103.39499752462, -35483.86370943352, -16557.188815735437, -10192.462526853387, -23490.56583530496, -12205.751205176259, 23995.469390805887, -3724.5829373100923, 3889.3152939457054, -19965.181644580563, 54867.47531503145, -19884.871826752642, -27947.838955860014, 6349.325936952346, 17061.824150302906, -0.002, 0.966, -0.218, 192.0, 0.0, 0.0, 0.0, 0.0, 0.0, 0.0, 0.0, 0.0, 0.0, 1.741890889727798E9, 0.0, 2025-03-13 13:34:49.727
48.0, 44796.449815803746, 5118.281259331854, -35455.92402886439, -16542.637830095035, -10167.875607952548, -23474.517282786048, -12181.611321164528, 24015.94358872695, -3717.206861639841, 3901.5640499072138, -19952.99994385242, 54882.02630067185, -19874.142989414097, -27939.412348200363, 6364.525123181954, 17072.57533938591, -0.002, 0.9560000000000001, -0.218, 192.0, 127.5, 120.0, 14.5, 112.0, 124.5, 24.0, 0.0, 0.0, 0.0, 1.741890889727978E9, 0.0, 2025-03-13 13:34:49.727
50.0, 44768.823059656985, 5113.408579040597, -35478.25342157524, -16557.166463990983, -10178.425631335454, -23485.335527102416, -12192.407213736442, 24006.89113222255, -3722.5265768202044, 3909.878898844588, -19956.889147387643, 54884.9543791955, -19876.82519874873, -27934.606723142475, 6369.666024406675, 17075.279900465, -0.002, 0.9560000000000001, -0.218, 192.0, 0.0, 0.0, 0.0, 0.0, 0.0, 0.0, 0.0, 0.0, 0.0, 1.741890889728147E9, 0.0, 2025-03-13 13:34:49.728
52.0, 44789.945458167254, 5112.782730195848, -35477.62757273049, -16563.022621038275, -10179.54321855822, -23486.475466069638, -12193.815373637126, 24008.791030501252, -3724.717047776824, 3912.6728669015015, -19960.95716487851, 54884.03795767283, -19881.764934273357, -27941.826336601538, 6362.982852814538, 17070.653089362753, -0.002, 0.9560000000000001, -0.218, 192.0, 0.0, 0.0, 0.0, 0.0, 0.0, 0.0, 0.0, 0.0, 0.0, 1.741890889728329E9, 0.0, 2025-03-13 13:34:49.728
54.0, 44777.09320510545, 5113.341523807231, -35501.78980848668, -16573.57264442118, -10187.209866906389, -23486.609576536368, -12197.637521938983, 24006.913483967008, -3727.041629200176, 3908.358980221627, -19965.740438191944, 54877.13126863614, -19888.448105865493, -27946.96723782626, 6347.11311425127, 17065.646298604763, -0.002, 0.9560000000000001, -0.218, 192.0, 0.0, 0.0, 0.0, 0.0, 0.0, 0.0, 0.0, 0.0, 0.0, 1.741890889728498E9, 0.0, 2025-03-13 13:34:49.728
56.0, 44781.76471969661, 5104.065549858278, -35495.03958166118, -16582.468638714392, -10187.63455005104, -23492.085753927917, -12201.102042329556, 24002.063155420205, -3721.6325070419916, 3911.041189556264, -19962.14180733464, 54879.880533204145, -19885.69884129749, -27943.793290113605, 6339.379410669734, 17064.148731726258, -0.002, 0.9560000000000001, -0.218, 192.0, 0.0, 0.0, 0.0, 0.0, 0.0, 0.0, 0.0, 0.0, 0.0, 1.741890889728681E9, 0.0, 2025-03-13 13:34:49.728
58.0, 44756.97663509568, 5103.529107991351, -35500.26988986372, -16577.685365400954, -10186.762832017283, -23481.245157867095, -12197.995149850269, 24012.747289269842, -3721.788969253179, 3905.944991820454, -19962.477083501468, 54885.73669025143, -19885.45297210848, -27942.541592424106, 6327.354172152779, 17056.862063033826, 0.002, 0.96, -0.222, 192.0, 0.0, 8.0, 15.0, 0.0, 124.5, 8.0, 0.0, 0.0, 0.0, 1.741890889728847E9, 0.0, 2025-03-13 13:34:49.728
60.0, 44750.49462920363, 5081.758508891882, -35487.21647110182, -16574.37730722157, -10182.158372659489, -23479.546425288492, -12192.831896881093, 24015.76477477131, -3719.4196843409163, 3902.3687127076046, -19953.961068864, 54890.0058734424, -19880.93791972851, -27937.08776677701, 6331.7351140660185, 17065.75805732704, 0.002, 0.96, -0.222, 192.0, 0.0, 0.0, 0.0, 0.0, 0.0, 0.0, 0.0, 0.0, 0.0, 1.741890889788098E9, 0.0, 2025-03-13 13:34:49.788
62.0, 44712.16138746279, 5052.723592844438, -35497.96766018482, -16572.74562987633, -10186.092279683624, -23480.12757064433, -12193.860077126035, 24015.876533493585, -3737.748114794268, 3871.6797675704684, -19967.305060303817, 54882.80861172779, -19887.263463409363, -27945.804947114582, 6331.019858243449, 17066.85329280535, 0.002, 0.96, -0.222, 192.0, 0.0, 0.0, 0.0, 0.0, 0.0, 0.0, 0.0, 0.0, 0.0, 1.74189088978828E9, 0.0, 2025-03-13 13:34:49.788
64.0, 44702.93011700274, 5043.313508428754, -35473.40309302844, -16560.921557059475, -10173.754116744294, -23476.819512464943, -12184.874675855002, 24022.380891130077, -3745.50417012026, 3866.8070872792114, -19963.61702246869, 54876.37130932466, -19885.408268619572, -27943.927400580338, 6338.552396124887, 17071.480103907597, 0.002, 0.96, -0.222, 192.0, 0.0, 0.0, 0.0, 0.0, 0.0, 0.0, 0.0, 0.0, 0.0, 1.741890889788456E9, 0.0, 2025-03-13 13:34:49.788
66.0, 44666.11679388485, 5020.782950017804, -35484.176633855895, -16564.85546408361, -10178.000948190804, -23482.899186956787, -12186.416946222418, 24019.542219584255, -3754.5119231357485, 3857.2181889078847, -19965.71808644749, 54887.52482980786, -19884.98358547492, -27943.90504883588, 6349.013012529971, 17078.252682477556, 0.002, 0.96, -0.222, 192.0, 0.0, 0.0, 0.0, 0.0, 0.0, 0.0, 0.0, 0.0, 0.0, 1.741890889788634E9, 0.0, 2025-03-13 13:34:49.788
68.0, 44668.8437067084, 5015.507938326352, -35472.79959592815, -16563.13437976055, -10176.324567356654, -23477.490064798603, -12187.847457867558, 24018.737556783864, -3760.211617971852, 3846.6011102916136, -19969.607289982712, 54870.29163483282, -19890.16919018855, -27950.76703438366, 6353.170436998658, 17077.51507491053, 0.002, 0.96, -0.222, 192.0, 0.0, 0.0, 14.5, 112.0, 124.5, 24.0, 0.0, 0.0, 0.0, 1.741890889788787E9, 0.0, 2025-03-13 13:34:49.788
70.0, 44649.2412268211, 5005.516708554829, -35483.68489547788, -16565.257795483805, -10173.418840577466, -23480.596957277892, -12182.773611876204, 24020.23512366237, -3763.1620482399526, 3843.7400870013344, -19977.00571739742, 54877.220675613964, -19892.27025416735, -27947.81660411556, 6355.450314933099, 17077.80564758845, 0.002, 0.96, -0.222, 192.0, 0.0, 0.0, 0.0, 0.0, 0.0, 0.0, 0.0, 0.0, 0.0, 1.741890889788966E9, 0.0, 2025-03-13 13:34:49.788
72.0, 44645.866113408345, 4996.307789839243, -35479.95215415384, -16566.777714106764, -10175.54225630072, -23481.245157867095, -12186.260484011233, 24020.101013195635, -3771.6110076440586, 3833.748857229812, -19987.6674995026, 54857.81936142676, -19895.466553624457, -27951.504641950687, 6358.132524267737, 17077.358612699343, 0.002, 0.96, -0.222, 192.0, 0.0, 0.0, 0.0, 0.0, 0.0, 0.0, 0.0, 0.0, 0.0, 1.74189088978912E9, 0.0, 2025-03-13 13:34:49.789
74.0, 44656.88552342481, 5000.241696863377, -35478.25342157524, -16559.468693669878, -10171.340128343121, -23478.31707934345, -12180.605492664039, 24022.582056830175, -3777.17659201343, 3827.7138862268794, -19989.008604169918, 54865.88834117512, -19896.204161191483, -27952.309304751077, 6363.7204603815635, 17083.460638935645, 0.002, 0.96, -0.222, 192.0, 0.0, 0.0, 0.0, 0.0, 0.0, 0.0, 0.0, 0.0, 0.0, 1.741890889789303E9, 0.0, 2025-03-13 13:34:49.789
76.0, 44649.66590996575, 4997.067749150723, -35491.64211650397, -16573.08090604316, -10180.05730868069, -23485.201416635682, -12188.674472412406, 24015.205981159925, -3765.2631122187513, 3833.1900636184296, -19987.44398205805, 54855.695945703505, -19895.399498391092, -27951.750511139693, 6361.373527213756, 17079.124400511315, 0.002, 0.96, -0.222, 192.0, 0.0, 0.0, 0.0, 0.0, 0.0, 0.0, 0.0, 0.0, 0.0, 1.74189088984979E9, 0.0, 2025-03-13 13:34:49.849
78.0, 44660.685319982214, 4999.928772441002, -35503.24267187627, -16585.016737582297, -10186.002872705803, -23490.69994577169, -12193.815373637126, 24008.053422934227, -3769.308777965162, 3825.4116565479826, -19997.412860085115, 54854.935986392025, -19897.679376325534, -27953.650409418395, 6349.97413754155, 17066.495664894064, -0.002, 0.9540000000000001, -0.216, 192.0, 127.5, 120.0, 14.5, 104.0, 124.5, 32.0, 0.0, 0.0, 0.0, 1.741890889850002E9, 0.0, 2025-03-13 13:34:49.850
80.0, 44661.75820371607, 5003.549755042763, -35509.65762253495, -16588.727127161877, -10191.747271030818, -23495.50557082958, -12198.017501594722, 24002.912521709506, -3766.425402930427, 3830.463150794882, -19993.456601316524, 54842.37430600814, -19903.155553717086, -27961.71938916676, 6337.613622857764, 17060.61715610232, -0.002, 0.9540000000000001, -0.216, 192.0, 0.0, 0.0, 0.0, 0.0, 0.0, 0.0, 0.0, 0.0, 0.0, 1.741890889850184E9, 0.0, 2025-03-13 13:34:49.850
82.0, 44645.441430263694, 4989.870487436115, -35523.247483163774, -16604.641569214054, -10204.085433970145, -23511.71058555968, -12209.349836033563, 23989.65793724751, -3773.17562975593, 3817.9685256443654, -20003.403127599136, 54856.21003582598, -19913.303245699793, -27972.001191616204, 6321.96740173905, 17045.32856289489, -0.002, 0.9540000000000001, -0.216, 192.0, 0.0, 0.0, 0.0, 0.0, 0.0, 0.0, 0.0, 0.0, 0.0, 1.741890889850351E9, 0.0, 2025-03-13 13:34:49.850
84.0, 44651.02936637752, 5010.054112679257, -35510.328174868606, -16585.508475960312, -10196.843468766627, -23496.17612316324, -12201.325559774108, 24004.767716499297, -3771.8121733441562, 3814.7498744428012, -19999.558627552822, 54840.40735249608, -19910.106946242686, -27970.168348570867, 6319.799282526885, 17047.295516406957, -0.002, 0.9540000000000001, -0.216, 192.0, 0.0, 0.0, 0.0, 0.0, 0.0, 0.0, 0.0, 0.0, 0.0, 1.741890889850521E9, 0.0, 2025-03-13 13:34:49.850
86.0, 44669.80483171998, 5019.195976161477, -35501.34277359757, -16580.18876077995, -10197.983407733847, -23497.65133829729, -12202.040815596678, 24002.04080367575, -3756.7470975812794, 3829.6361362500356, -19982.28072908887, 54873.26441684538, -19903.960216517477, -27959.685380421328, 6324.403741884678, 17056.392676400268, -0.002, 0.9540000000000001, -0.216, 192.0, 0.0, 0.0, 0.0, 0.0, 0.0, 0.0, 0.0, 0.0, 0.0, 1.741890889850688E9, 0.0, 2025-03-13 13:34:49.850
88.0, 44657.26550308055, 5014.27859238131, -35507.84713123407, -16584.100316059626, -10205.78416654875, -23500.445306354202, -12213.663722713438, 23996.27405360628, -3757.5070568927595, 3833.4135810629823, -19979.978499409975, 54864.077849874244, -19898.5957978482, -27953.918630351858, 6326.795378541396, 17059.544272368465, 0.002, 0.9560000000000001, -0.214, 192.0, 0.0, 8.0, 14.5, 112.0, 124.5, 40.0, 0.0, 0.0, 0.0, 1.741890889850855E9, 0.0, 2025-03-13 13:34:49.850
90.0, 44677.873811468344, 5025.4544646089635, -35496.1795206284, -16577.439496211948, -10188.081584940146, -23494.70090802919, -12198.59864695056, 24004.074812421182, -3760.591597627592, 3834.3076508411946, -19984.96293842351, 54874.851390701704, -19903.088498483718, -27966.54736596911, 6325.387218640712, 17054.76099905503, 0.002, 0.9560000000000001, -0.214, 192.0, 0.0, 0.0, 0.0, 0.0, 0.0, 0.0, 0.0, 0.0, 0.0, 1.741890889908669E9, 0.0, 2025-03-13 13:34:49.908
92.0, 44654.33742455691, 5015.507938326352, -35512.04925919166, -16587.162505050004, -10201.291465913233, -23503.68630930022, -12212.054397112655, 23992.89894019353, -3751.762658567746, 3835.2240723638624, -19982.414839555604, 54865.46365803047, -19895.51125711337, -27960.62415368845, 6329.63405008722, 17060.259528191036, 0.002, 0.9560000000000001, -0.214, 192.0, 0.0, 0.0, 0.0, 0.0, 0.0, 0.0, 0.0, 0.0, 0.0, 1.741890889908855E9, 0.0, 2025-03-13 13:34:49.908
94.0, 44677.8961632128, 5022.235813407399, -35496.96183168433, -16587.69894691693, -10197.670483311473, -23501.093506943405, -12206.466460998829, 23996.072887906183, -3757.305891192662, 3832.2736420957617, -19985.655842501623, 54862.44617252901, -19903.826106050743, -27963.663990934372, 6319.911041249161, 17049.016600730014, 0.002, 0.9560000000000001, -0.214, 192.0, 0.0, 0.0, 0.0, 0.0, 0.0, 0.0, 0.0, 0.0, 0.0, 1.741890889909024E9, 0.0, 2025-03-13 13:34:49.909
96.0, 44675.571581789445, 5032.897595512581, -35493.340849082575, -16572.365650220592, -10187.58984656213, -23488.06243992596, -12193.837725381582, 24008.3663473566, -3746.59940559857, 3831.916014184477, -19977.832731942264, 54861.641509728615, -19896.31591991376, -27961.272354277655, 6331.0869134768145, 17055.029219988493, 0.002, 0.9560000000000001, -0.214, 192.0, 0.0, 0.0, 0.0, 0.0, 0.0, 0.0, 0.0, 0.0, 0.0, 1.741890889909197E9, 0.0, 2025-03-13 13:34:49.909
98.0, 44698.81739602297, 5034.708086813461, -35480.08626462058, -16569.41521995249, -10187.723957028862, -23490.096448671397, -12196.676396927405, 24002.689004264954, -3740.653841573458, 3847.9198632144767, -19968.489702759947, 54880.97576868246, -19887.777553531832, -27945.223801758744, 6349.124771252248, 17069.5802056289, 0.002, 0.9560000000000001, -0.214, 192.0, 0.0, 8.0, 14.5, 112.0, 124.5, 40.0, 0.0, 0.0, 0.0, 1.74189088990937E9, 0.0, 2025-03-13 13:34:49.909
100.0, 44698.5491750895, 5046.018069507846, -35493.69847699386, -16562.977917549364, -10181.800744748205, -23485.514341058057, -12186.059318311134, 24005.147696155036, -3749.9074637779554, 3845.9976131913204, -19977.832731942264, 54872.59386451171, -19896.494733869404, -27948.353045982487, 6345.369678183756, 17061.019487502515, 0.002, 0.9560000000000001, -0.214, 192.0, 0.0, 0.0, 0.0, 0.0, 0.0, 0.0, 0.0, 0.0, 0.0, 1.741890889909564E9, 0.0, 2025-03-13 13:34:49.909
102.0, 44720.587995122434, 5048.208540464466, -35486.65767749044, -16567.3588594626, -10185.332320372143, -23487.68246027022, -12193.74831840376, 24000.632643775065, -3735.177664181908, 3856.815857507689, -19966.634507970157, 54884.216771628475, -19887.017594220353, -27937.355987710478, 6354.8021143438955, 17068.842598061874, 0.002, 0.9560000000000001, -0.214, 192.0, 0.0, 0.0, 0.0, 0.0, 0.0, 0.0, 0.0, 0.0, 0.0, 1.741890889909725E9, 0.0, 2025-03-13 13:34:49.909
104.0, 44708.294535672016, 5051.024860265835, -35495.3301543391, -16568.8117228522, -10185.935817472437, -23483.34622184589, -12190.954350346847, 24004.499495565833, -3740.698545062369, 3849.372726604072, -19974.971708651985, 54872.86208544518, -19894.527780357337, -27938.13829876641, 6343.8274078163395, 17060.751266569052, 0.002, 0.9560000000000001, -0.214, 192.0, 0.0, 0.0, 0.0, 0.0, 0.0, 0.0, 0.0, 0.0, 0.0, 1.741890889909884E9, 0.0, 2025-03-13 13:34:49.909
106.0, 44717.659916598794, 5046.107476485668, -35489.96573566982, -16578.780600879265, -10194.474183854365, -23496.98078596363, -12200.118565573523, 23991.46842854839, -3745.593577098081, 3841.0802294111527, -19978.592691253747, 54865.7989341973, -19895.17598094654, -27945.559077925573, 6340.675811848141, 17058.47138863461, 0.002, 0.9560000000000001, -0.214, 192.0, 0.0, 0.0, 0.0, 0.0, 0.0, 0.0, 0.0, 0.0, 0.0, 1.741890889967455E9, 0.0, 2025-03-13 13:34:49.967
108.0, 44711.312021173486, 5064.301796472287, -35494.12316013851, -16570.577510664167, -10192.440175108932, -23495.25970164057, -12194.59768469306, 23997.905730951516, -3736.3176031491284, 3849.4397818374377, -19972.892996417642, 54867.944701665016, -19894.773649546343, -27952.91280185137, 6337.255994946479, 17050.46946411961, 0.002, 0.9560000000000001, -0.214, 192.0, 0.0, 0.0, 14.5, 112.0, 124.5, 40.0, 0.0, 0.0, 0.0, 1.741890889967638E9, 0.0, 2025-03-13 13:34:49.967
110.0, 44736.323623218974, 5071.722575631449, -35478.90162216445, -16564.743705361332, -10193.602465820608, -23493.493913828603, -12200.431489995897, 23996.475219306376, -3726.4828355887935, 3861.5991308211246, -19957.872624143678, 54871.58803601123, -19884.916530241553, -27941.781633112627, 6343.134503738225, 17060.03601074648, 0.002, 0.9560000000000001, -0.214, 192.0, 0.0, 0.0, 0.0, 0.0, 0.0, 0.0, 0.0, 0.0, 0.0, 1.741890889967818E9, 0.0, 2025-03-13 13:34:49.967
112.0, 44721.97380327866, 5073.980101821435, -35495.75483748375, -16570.577510664167, -10201.090300213134, -23495.55027431849, -12204.678321442405, 23996.676385006474, -3734.5965188260698, 3855.8100290072002, -19962.8123596683, 54877.98063492544, -19895.153629202086, -27947.48132794873, 6332.20450069958, 17053.196376943157, 0.002, 0.9560000000000001, -0.214, 192.0, 0.0, 0.0, 0.0, 0.0, 0.0, 0.0, 0.0, 0.0, 0.0, 1.741890889967983E9, 0.0, 2025-03-13 13:34:49.967
114.0, 44743.34207097794, 5083.300779259298, -35476.59939248555, -16569.146999019027, -10187.746308773316, -23489.872931226844, -12196.564638205129, 24001.32554785318, -3725.007620454743, 3868.617578580091, -19957.559699721303, 54880.014643670875, -19884.26832965235, -27942.2957232351, 6333.858529789273, 17056.683249078185, 0.002, 0.9560000000000001, -0.214, 192.0, 0.0, 0.0, 0.0, 0.0, 0.0, 0.0, 0.0, 0.0, 0.0, 1.741890889968152E9, 0.0, 2025-03-13 13:34:49.968
116.0, 44729.551044649015, 5077.221104767455, -35490.01043915873, -16577.685365400954, -10196.530544344252, -23501.294672643504, -12206.645274954471, 23989.27795759177, -3723.2641843872293, 3859.453363353415, -19958.453769499512, 54885.51317280688, -19884.693012797, -27951.124662294944, 6337.479512391033, 17050.04478097496, 0.002, 0.9560000000000001, -0.214, 192.0, 0.0, 0.0, 0.0, 0.0, 0.0, 0.0, 0.0, 0.0, 0.0, 1.741890889968315E9, 0.0, 2025-03-13 13:34:49.968
118.0, 44746.180742523764, 5084.708939159982, -35478.32047680861, -16567.895301329532, -10189.288579140733, -23489.13532365982, -12199.492716728773, 24001.861989720106, -3723.957088465344, 3866.8517907681216, -19961.33714453425, 54873.867913945665, -19880.64734705059, -27946.43079595933, 6336.987774013016, 17054.448074632655, -0.004, 0.9560000000000001, -0.212, 192.0, 127.5, 112.0, 14.5, 112.0, 124.5, 48.0, 0.0, 0.0, 0.0, 1.741890889968486E9, 0.0, 2025-03-13 13:34:49.968
120.0, 44736.8600650859, 5084.351311248697, -35497.945308440365, -16579.94289159094, -10198.139869945035, -23493.002175450587, -12204.566562720129, 23995.98348092836, -3725.4099518549388, 3869.8022210362224, -19960.04074335584, 54885.02143442887, -19885.989413975407, -27941.535763923617, 6336.473683890544, 17058.739609568074, -0.004, 0.9560000000000001, -0.212, 192.0, 0.0, 0.0, 0.0, 0.0, 0.0, 0.0, 0.0, 0.0, 0.0, 1.741890890027944E9, 0.0, 2025-03-13 13:34:50.027
122.0, 44751.6122164264, 5084.6195321821615, -35488.98225891379, -16578.400621223525, -10185.980520961348, -23489.73882076011, -12195.804678893648, 24000.967919941893, -3721.207823897341, 3872.842058282144, -19958.8113974108, 54867.698832476, -19879.775629016833, -27941.334598223522, 6335.467855390055, 17056.19151070017, -0.004, 0.9560000000000001, -0.212, 192.0, 0.0, 0.0, 0.0, 0.0, 0.0, 0.0, 0.0, 0.0, 0.0, 1.741890890028162E9, 0.0, 2025-03-13 13:34:50.028
124.0, 44742.51505643309, 5082.7419856479155, -35493.54201478267, -16580.27816775777, -10186.718128528373, -23494.767963262555, -12201.504373729751, 23995.17881812797, -3720.3137541191286, 3867.075308212675, -19965.67338295858, 54874.851390701704, -19880.624995306134, -27948.934191338325, 6336.406628657178, 17050.04478097496, -0.004, 0.9560000000000001, -0.212, 192.0, 0.0, 0.0, 0.0, 0.0, 0.0, 0.0, 0.0, 0.0, 0.0, 1.741890890028334E9, 0.0, 2025-03-13 13:34:50.028
126.0, 44738.31292847549, 5082.33965424772, -35494.63725026098, -16580.09935380213, -10192.507230342297, -23496.287881885517, -12212.434376768397, 23988.74151572484, -3723.6441640429694, 3870.3163111586946, -19967.28270855936, 54866.044803386314, -19884.760068030366, -27946.855479103982, 6331.377486154734, 17050.67062981971, -0.004, 0.9560000000000001, -0.212, 192.0, 0.0, 0.0, 0.0, 0.0, 0.0, 0.0, 0.0, 0.0, 0.0, 1.741890890028494E9, 0.0, 2025-03-13 13:34:50.028
128.0, 44737.21769299718, 5081.914971103069, -35499.71109625234, -16583.60857768161, -10194.96592223238, -23494.03035569553, -12213.574315735617, 23986.148713368024, -3734.5518153371595, 3865.398927378527, -19977.788028453353, 54876.1030883912, -19892.65023382309, -27946.63196165943, 6320.112206949259, 17043.965106483116, -0.002, 0.96, -0.216, 192.0, 127.5, 120.0, 15.0, 0.0, 124.5, 32.0, 0.0, 0.0, 0.0, 1.741890890028662E9, 0.0, 2025-03-13 13:34:50.028
130.0, 44740.74926862112, 5084.775994393349, -35492.133854881984, -16579.160580535005, -10195.859992010593, -23489.6941172712, -12211.763824434736, 23988.517998280287, -3719.442036085372, 3873.0208722377865, -19967.70739170401, 54875.43253605754, -19878.099248182687, -27934.00322604218, 6330.662230332164, 17056.66089733373, -0.002, 0.96, -0.216, 192.0, 0.0, 0.0, 0.0, 0.0, 0.0, 0.0, 0.0, 0.0, 0.0, 1.741890890028841E9, 0.0, 2025-03-13 13:34:50.028
132.0, 44753.69092866075, 5085.066567071267, -35495.844244461565, -16580.479333457868, -10198.586904834141, -23491.258739383073, -12212.70259770186, 23984.87466393407, -3731.6684403024246, 3860.6380058095465, -19977.229234841972, 54874.80668721279, -19893.901931512588, -27942.519240679652, 6322.01210522796, 17047.116702451312, -0.002, 0.96, -0.216, 192.0, 0.0, 0.0, 0.0, 0.0, 0.0, 0.0, 0.0, 0.0, 0.0, 1.74189089002902E9, 0.0, 2025-03-13 13:34:50.029
134.0, 44759.14475430784, 5095.571886965262, -35489.25047984725, -16573.796161865732, -10194.585942576641, -23489.381192848825, -12209.126318589011, 23991.803704715217, -3723.085370431587, 3871.009215236809, -19963.639374213144, 54865.5977684972, -19885.02828896383, -27939.881734833925, 6332.58448035532, 17058.627850845798, -0.002, 0.96, -0.216, 192.0, 0.0, 0.0, 0.0, 0.0, 0.0, 0.0, 0.0, 0.0, 0.0, 1.741890890029173E9, 0.0, 2025-03-13 13:34:50.029
136.0, 44772.68991144776, 5095.191907309521, -35487.41763680192, -16581.865141614097, -10197.894000756027, -23502.926349988742, -12217.50822275975, 23981.566605754688, -3713.205899382341, 3866.33770064565, -19955.81626365379, 54881.28869310483, -19881.60847206217, -27938.80885110007, 6337.546567624398, 17057.532615367487, -0.002, 0.96, -0.216, 192.0, 0.0, 0.0, 0.0, 0.0, 0.0, 0.0, 0.0, 0.0, 0.0, 1.741890890089419E9, 0.0, 2025-03-13 13:34:50.089
138.0, 44743.878512844865, 5088.240514783921, -35499.71109625234, -16588.481257972868, -10199.548029845719, -23507.195533179707, -12219.452824527363, 23975.732800451853, -3724.761751265735, 3866.4494593679265, -19966.455694014516, 54866.871817931155, -19887.97871923193, -27951.683455906328, 6328.605869842276, 17044.747417539053, -0.002, 0.96, -0.216, 192.0, 0.0, 0.0, 15.0, 0.0, 124.5, 48.0, 0.0, 0.0, 0.0, 1.741890890089615E9, 0.0, 2025-03-13 13:34:50.089
140.0, 44754.51794320559, 5083.0325583258345, -35494.50313979425, -16587.94481610594, -10199.033939723247, -23504.468620356158, -12218.312885560143, 23977.297422563723, -3721.5654518086258, 3858.0899069416414, -19970.411952783103, 54872.72797497845, -19891.6444053226, -27953.471595462754, 6326.929489008127, 17041.349952381846, -0.002, 0.96, -0.216, 192.0, 0.0, 0.0, 0.0, 0.0, 0.0, 0.0, 0.0, 0.0, 0.0, 1.741890890089808E9, 0.0, 2025-03-13 13:34:50.089
142.0, 44739.609329653904, 5088.508735717384, -35501.722753253314, -16581.596920680633, -10193.222486164866, -23494.164466162263, -12208.455766255353, 23986.75221046832, -3731.6907920468802, 3860.481543598359, -19977.81038019781, 54857.81936142676, -19893.834876279223, -27950.90114485039, 6323.934355251116, 17043.115740193814, -0.002, 0.96, -0.216, 192.0, 0.0, 0.0, 0.0, 0.0, 0.0, 0.0, 0.0, 0.0, 0.0, 1.741890890089981E9, 0.0, 2025-03-13 13:34:50.089
144.0, 44744.303195989516, 5073.890694843614, -35499.73344799679, -16593.443345241947, -10201.313817657689, -23504.51332384507, -12219.341065805087, 23977.722105708373, -3721.5878035530814, 3869.489296613848, -19966.969784136985, 54877.310082591786, -19885.721193041943, -27941.42400520134, 6333.702067578086, 17050.827092030893, -0.002, 0.96, -0.216, 192.0, 0.0, 0.0, 0.0, 0.0, 0.0, 0.0, 0.0, 0.0, 0.0, 1.741890890090172E9, 0.0, 2025-03-13 13:34:50.090
146.0, 44734.82605634047, 5079.702148401993, -35507.5789103006, -16591.699909174433, -10194.474183854365, -23498.053669697485, -12206.287647043187, 23985.27699533427, -3738.753943294757, 3853.1948749059293, -19983.554778522823, 54845.16827406506, -19892.627882078636, -27954.365665240966, 6318.636991815209, 17036.47727209059, -0.002, 0.96, -0.216, 192.0, 0.0, 0.0, 0.0, 0.0, 0.0, 0.0, 0.0, 0.0, 0.0, 1.741890890090342E9, 0.0, 2025-03-13 13:34:50.090
148.0, 44754.227370527675, 5078.00341582339, -35498.437046818384, -16591.67755742998, -10198.698663556417, -23503.216922666663, -12216.815318681636, 23976.492759763332, -3727.6451263004697, 3860.168619175985, -19981.72193547749, 54850.6444514566, -19888.001070976385, -27949.71650239426, 6325.767198296452, 17040.56764132591, -0.002, 0.962, -0.218, 192.0, 127.5, 120.0, 15.0, 8.0, 124.5, 24.0, 0.0, 0.0, 0.0, 1.741890890090506E9, 0.0, 2025-03-13 13:34:50.090
150.0, 44742.71622213319, 5079.970369335458, -35507.735372511794, -16587.430725983468, -10204.68893107044, -23501.51819008806, -12223.297324573676, 23973.497626006323, -3729.567376323626, 3857.6875755414458, -19980.716106977, 54848.85631190018, -19888.537512843315, -27948.777729127138, 6321.363904638756, 17042.489891349065, -0.002, 0.962, -0.218, 192.0, 0.0, 0.0, 0.0, 0.0, 0.0, 0.0, 0.0, 0.0, 0.0, 1.741890890148308E9, 0.0, 2025-03-13 13:34:50.148
152.0, 44767.75017592313, 5092.263828785876, -35488.60227925805, -16580.52403694678, -10202.721977558373, -23499.61829180936, -12217.84349892658, 23977.833864430653, -3731.5790333246036, 3859.7662877757894, -19974.189397596052, 54853.527826491336, -19891.867922767153, -27945.983761070223, 6321.162738938659, 17044.121568694303, -0.002, 0.962, -0.218, 192.0, 0.0, 0.0, 0.0, 0.0, 0.0, 0.0, 0.0, 0.0, 0.0, 1.741890890148514E9, 0.0, 2025-03-13 13:34:50.148
154.0, 44753.35565249391, 5101.740968434927, -35499.755799741244, -16583.697984659433, -10211.103881729112, -23505.40739362328, -12222.537365262195, 23971.776541683263, -3726.5498908221593, 3868.8410960246442, -19964.175816080075, 54863.8990359186, -19894.036041979318, -27946.453147703785, 6323.576727339831, 17042.914574493716, -0.002, 0.962, -0.218, 192.0, 0.0, 0.0, 0.0, 0.0, 0.0, 0.0, 0.0, 0.0, 0.0, 1.741890890148704E9, 0.0, 2025-03-13 13:34:50.148
156.0, 44775.617989971404, 5106.904221404102, -35485.96477341232, -16581.32869974717, -10202.856088025104, -23505.295634901006, -12215.764786692238, 23974.771675440275, -3724.627640799003, 3872.5067821153143, -19957.827920654767, 54861.39564053961, -19893.387841390115, -27947.257810504176, 6325.163701196158, 17042.892222749262, -0.002, 0.962, -0.218, 192.0, 0.0, 0.0, 0.0, 0.0, 0.0, 0.0, 0.0, 0.0, 0.0, 1.741890890148859E9, 0.0, 2025-03-13 13:34:50.148
158.0, 44752.23806527115, 5101.383340523642, -35494.4807880498, -16582.513342203303, -10201.760852546795, -23508.8495622694, -12215.250696569765, 23973.207053328402, -3720.9396029638774, 3869.846924525133, -19956.57622296527, 54864.7484022079, -19890.70563205548, -27950.945848339303, 6332.0256867439375, 17043.98745822757, -0.002, 0.962, -0.218, 192.0, 127.5, 120.0, 15.0, 8.0, 124.5, 24.0, 0.0, 0.0, 0.0, 1.741890890149028E9, 0.0, 2025-03-13 13:34:50.149
160.0, 44776.735577194166, 5101.62920971265, -35477.31464830812, -16579.7640776353, -10197.312855400189, -23512.89522801581, -12213.775481435714, 23974.36934404008, -3728.583899567592, 3864.013119222298, -19956.62092645418, 54857.52878874884, -19886.861132009166, -27951.996380328703, 6333.076218733338, 17042.892222749262, -0.002, 0.962, -0.218, 192.0, 0.0, 0.0, 0.0, 0.0, 0.0, 0.0, 0.0, 0.0, 0.0, 1.741890890149196E9, 0.0, 2025-03-13 13:34:50.149
162.0, 44776.6685219608, 5114.548518007818, -35474.2748110622, -16558.105237258107, -10186.315797128176, -23491.571663805447, -12203.56073421964, 23986.50634127931, -3718.235041884785, 3870.204552436418, -19950.921231618075, 54871.923312178056, -19881.496713339893, -27948.777729127138, 6341.994564771005, 17049.284821663477, -0.002, 0.962, -0.218, 192.0, 0.0, 0.0, 0.0, 0.0, 0.0, 0.0, 0.0, 0.0, 0.0, 1.741890890149381E9, 0.0, 2025-03-13 13:34:50.149
164.0, 44786.27977207658, 5118.0800936317555, -35467.36812202551, -16561.36859194858, -10199.63743682354, -23493.069230683952, -12218.961086149346, 23979.420838286977, -3711.618925526014, 3886.6107328666135, -19944.75215014841, 54875.119611635164, -19875.8417219927, -27934.785537098116, 6344.8779398057395, 17054.85040603285, -0.002, 0.962, -0.218, 192.0, 0.0, 0.0, 0.0, 0.0, 0.0, 0.0, 0.0, 0.0, 0.0, 1.741890890149549E9, 0.0, 2025-03-13 13:34:50.149
166.0, 44783.6199144864, 5117.096616875722, -35467.83750865907, -16555.08775175664, -10198.564553089685, -23480.798122977987, -12220.190432094389, 23985.70167847892, -3704.846346956056, 3898.3453987056496, -19939.097158801218, 54887.7036437635, -19877.27223363784, -27926.04600501609, 6344.1179804942585, 17058.761961312528, -0.002, 0.962, -0.218, 192.0, 0.0, 0.0, 0.0, 0.0, 0.0, 0.0, 0.0, 0.0, 0.0, 1.741890890208718E9, 0.0, 2025-03-13 13:34:50.208
168.0, 44783.306990064026, 5110.324038305765, -35465.49057549126, -16554.350144189615, -10190.070890196668, -23475.210186864162, -12212.747301190771, 23992.116629137592, -3707.819128968612, 3899.977076050887, -19943.03106582535, 54868.704660976495, -19872.80188474678, -27916.74767932268, 6348.767143340962, 17067.255624205547, -0.002, 0.964, -0.212, 192.0, 127.5, 120.0, 15.0, 16.0, 124.5, 48.0, 0.0, 0.0, 0.0, 1.741890890208904E9, 0.0, 2025-03-13 13:34:50.208
170.0, 44761.46933573119, 5098.097634088711, -35486.344753068064, -16566.442437939935, -10193.378948376054, -23485.201416635682, -12209.79687092267, 23986.12636162357, -3719.6208500410144, 3886.7671950778004, -19962.298269545827, 54865.19543709701, -19881.697879039988, -27924.324920693034, 6337.434808902122, 17059.61132760183, -0.002, 0.964, -0.212, 192.0, 0.0, 0.0, 0.0, 0.0, 0.0, 0.0, 0.0, 0.0, 0.0, 1.741890890209084E9, 0.0, 2025-03-13 13:34:50.209
172.0, 44771.92995213628, 5098.835241655736, -35482.38849429947, -16574.37730722157, -10196.150564688513, -23489.13532365982, -12212.501432001762, 23982.103047621615, -3723.1971291538634, 3886.1860497219623, -19966.813321925798, 54852.209073568476, -19880.535588328315, -27928.035310272615, 6336.808960057373, 17056.504435122544, -0.002, 0.964, -0.212, 192.0, 0.0, 0.0, 0.0, 0.0, 0.0, 0.0, 0.0, 0.0, 0.0, 1.741890890209254E9, 0.0, 2025-03-13 13:34:50.209
174.0, 44775.77445218259, 5097.047102099312, -35488.15524436894, -16586.156676549515, -10205.203021192912, -23497.94191097521, -12220.70452221686, 23972.760018439298, -3725.678172788402, 3880.4863548858593, -19967.640336470646, 54858.26639631586, -19889.565693088258, -27937.803022599583, 6329.097608220292, 17042.311077393424, -0.002, 0.964, -0.212, 192.0, 0.0, 0.0, 0.0, 0.0, 0.0, 0.0, 0.0, 0.0, 0.0, 1.741890890209419E9, 0.0, 2025-03-13 13:34:50.209
176.0, 44774.634513215366, 5105.25019231441, -35479.99685764276, -16575.450190955424, -10194.138907687535, -23488.151846903784, -12206.354702276552, 23988.98738491385, -3724.8958617324665, 3881.4027764085267, -19964.555795735814, 54846.397620010095, -19887.241111664905, -27939.457051689275, 6329.924622765139, 17043.85334776084, -0.002, 0.964, -0.212, 192.0, 0.0, 0.0, 0.0, 0.0, 0.0, 0.0, 0.0, 0.0, 0.0, 1.741890890209596E9, 0.0, 2025-03-13 13:34:50.209
178.0, 44775.752100438134, 5110.0334656278455, -35481.181500098886, -16577.685365400954, -10197.871649011571, -23496.623158052345, -12207.98637962179, 23982.058344132703, -3725.9016902329554, 3886.588381122158, -19962.298269545827, 54862.42382078455, -19888.716326798956, -27934.070281275548, 6338.261823446968, 17049.03895247447, -0.002, 0.968, -0.21, 192.0, 127.5, 120.0, 15.0, 32.0, 124.5, 56.0, 0.0, 0.0, 0.0, 1.741890890209755E9, 0.0, 2025-03-13 13:34:50.209
180.0, 44776.15443183833, 5117.096616875722, -35480.71211346533, -16575.60665316661, -10198.229276922855, -23500.93704473222, -12211.540306990184, 23976.89509116353, -3720.2690506302183, 3890.4775846573816, -19956.643278198633, 54851.67263170155, -19886.972890731442, -27936.976008054735, 6334.909061778672, 17044.747417539053, -0.002, 0.968, -0.21, 192.0, 0.0, 0.0, 0.0, 0.0, 0.0, 0.0, 0.0, 0.0, 0.0, 1.74189089026939E9, 0.0, 2025-03-13 13:34:50.269
182.0, 44804.11646415192, 5130.753532737915, -35468.30689529263, -16566.95652806241, -10190.584980319141, -23496.198474907695, -12207.22642031031, 23980.583128998653, -3710.8366144700785, 3898.8594888281214, -19943.835728625745, 54870.805724955295, -19886.190579675505, -27935.120813264944, 6338.418285658156, 17043.741589038564, -0.002, 0.968, -0.21, 192.0, 0.0, 0.0, 0.0, 0.0, 0.0, 0.0, 0.0, 0.0, 0.0, 1.741890890269624E9, 0.0, 2025-03-13 13:34:50.269
184.0, 44793.67819949129, 5121.522262277873, -35473.425444772896, -16571.829208353665, -10196.374082133065, -23499.752402276088, -12214.960123891846, 23972.424742272466, -3705.3827888229835, 3906.1461575205517, -19939.410083223593, 54869.732841221434, -19876.46757083745, -27928.035310272615, 6344.028573516438, 17048.904842007738, -0.002, 0.968, -0.21, 192.0, 0.0, 0.0, 0.0, 0.0, 0.0, 0.0, 0.0, 0.0, 0.0, 1.74189089026981E9, 0.0, 2025-03-13 13:34:50.269
186.0, 44793.76760646911, 5103.417349269074, -35473.60425872854, -16578.646490412535, -10197.20109667791, -23508.60369308039, -12218.782272193703, 23965.383942769044, -3717.9891726957767, 3883.9955787653425, -19952.418798496583, 54865.553065008295, -19885.408268619572, -27949.96237158327, 6335.534910623421, 17036.812548257418, -0.002, 0.968, -0.21, 192.0, 0.0, 0.0, 0.0, 0.0, 0.0, 0.0, 0.0, 0.0, 0.0, 1.741890890269979E9, 0.0, 2025-03-13 13:34:50.269
188.0, 44760.15058280833, 5103.059721357789, -35478.365180297515, -16576.679536900465, -10187.746308773316, -23499.685347042723, -12205.930019131902, 23976.716277207885, -3724.694696032369, 3872.4397268819484, -19961.292441045338, 54844.162445564565, -19885.36356513066, -27955.416197230363, 6334.976117012038, 17034.59972555634, -0.002, 0.97, -0.212, 192.0, 127.5, 120.0, 15.0, 40.0, 124.5, 48.0, 0.0, 0.0, 0.0, 1.741890890270166E9, 0.0, 2025-03-13 13:34:50.270
190.0, 44764.93385612177, 5085.267732771365, -35479.9745058983, -16591.163467307506, -10197.044634466725, -23509.07307971395, -12218.581106493606, 23968.133207337047, -3721.5654518086258, 3880.8886862860545, -19958.14084507714, 54860.099239361196, -19876.84755049319, -27949.180060527335, 6343.872111305251, 17044.210975672126, -0.002, 0.97, -0.212, 192.0, 0.0, 0.0, 0.0, 0.0, 0.0, 0.0, 0.0, 0.0, 0.0, 1.741890890270352E9, 0.0, 2025-03-13 13:34:50.270
192.0, 44757.89305661834, 5083.636055426127, -35488.40111355795, -16592.012833596807, -10196.999930977814, -23503.820419766955, -12214.669551213927, 23972.961184139396, -3735.9152717489333, 3866.4941628568367, -19978.771505209388, 54830.863157613654, -19893.052565223286, -27961.83114788904, 6326.929489008127, 17031.448129588145, -0.002, 0.97, -0.212, 192.0, 0.0, 0.0, 0.0, 0.0, 0.0, 0.0, 0.0, 0.0, 0.0, 1.741890890270519E9, 0.0, 2025-03-13 13:34:50.270
194.0, 44774.54510623754, 5083.881924615136, -35477.538165752674, -16585.575531193677, -10191.389643119532, -23497.78544876402, -12208.65693195545, 23977.74445745283, -3737.390486882983, 3867.678805312968, -19980.9172726771, 54841.23436704092, -19890.727983799934, -27961.29470602211, 6331.355134410279, 17034.97970521208, -0.002, 0.97, -0.212, 192.0, 0.0, 0.0, 0.0, 0.0, 0.0, 0.0, 0.0, 0.0, 0.0, 1.741890890270686E9, 0.0, 2025-03-13 13:34:50.270
196.0, 44764.59857995494, 5084.306607759787, -35485.853014690045, -16581.440458469446, -10196.843468766627, -23496.578454563434, -12212.233211068298, 23978.280899319758, -3729.2544519012517, 3884.7555380768226, -19968.199130082026, 54841.94962286349, -19881.630823806623, -27946.43079595933, 6347.917777051661, 17053.84457753236, -0.004, 0.969, -0.213, 192.0, 127.5, 104.0, 15.0, 32.0, 124.5, 40.0, 0.0, 0.0, 0.0, 1.741890890328278E9, 0.0, 2025-03-13 13:34:50.328
198.0, 44768.0183968566, 5072.929569832036, -35492.24561360426, -16589.688252173455, -10210.522736373274, -23507.5978645799, -12228.058246142657, 23966.859157903094, -3742.4419811298826, 3869.28813091375, -19983.53242677837, 54836.42874198303, -19900.406289149083, -27961.71938916676, 6329.6787535761305, 17038.354818624834, -0.004, 0.969, -0.213, 192.0, 0.0, 0.0, 0.0, 0.0, 0.0, 0.0, 0.0, 0.0, 0.0, 1.741890890328522E9, 0.0, 2025-03-13 13:34:50.328
200.0, 44767.437251500756, 5095.348369520709, -35491.172729870406, -16573.61734791009, -10195.63647456604, -23493.82918999543, -12210.22155406732, 23981.678364476964, -3748.3875451549943, 3877.5359246177586, -19983.800647711832, 54831.71252390296, -19896.94176875851, -27959.57362169905, 6326.124826207737, 17037.28193489098, -0.004, 0.969, -0.213, 192.0, 0.0, 0.0, 0.0, 0.0, 0.0, 0.0, 0.0, 0.0, 0.0, 1.741890890328693E9, 0.0, 2025-03-13 13:34:50.328
202.0, 44806.73161825319, 5107.597125482217, -35466.719921436306, -16566.889472829043, -10185.958169216892, -23490.208207393673, -12201.929056874402, 23987.17689361297, -3711.954201692844, 3905.2073842534287, -19949.557775206304, 54858.10993410468, -19873.56184405826, -27937.19952549929, 6346.420210173155, 17059.85719679084, -0.004, 0.969, -0.213, 192.0, 0.0, 0.0, 0.0, 0.0, 0.0, 0.0, 0.0, 0.0, 0.0, 1.741890890328848E9, 0.0, 2025-03-13 13:34:50.328
204.0, 44776.869687660896, 5099.684607945038, -35480.98033439879, -16571.493932186833, -10188.908599484992, -23495.863198740866, -12205.997074365268, 23983.578262755665, -3723.3535913650503, 3889.874087557088, -19961.627717212166, 54845.68236418752, -19883.329556385226, -27953.046912318103, 6336.8983670351945, 17046.46850186211, -0.004, 0.969, -0.213, 192.0, 0.0, 0.0, 0.0, 0.0, 0.0, 0.0, 0.0, 0.0, 0.0, 1.741890890329005E9, 0.0, 2025-03-13 13:34:50.329
206.0, 44797.500347793146, 5099.863421900681, -35466.80932841412, -16569.079943785662, -10183.119497671069, -23498.098373186396, -12206.868792399026, 23982.572434255177, -3723.6441640429694, 3900.58057315118, -19956.509167731903, 54840.742628662905, -19881.004974961874, -27947.458976204274, 6341.458122904078, 17051.22942343109, -0.006, 0.9695, -0.21050000000000002, 192.0, 127.5, 96.0, 15.0, 40.0, 124.5, 64.0, 0.0, 0.0, 0.0, 1.741890890329184E9, 0.0, 2025-03-13 13:34:50.329
208.0, 44782.07764411899, 5102.031541112846, -35473.693665706356, -16568.99053680784, -10183.34301511562, -23499.148905175796, -12208.455766255353, 23985.03112614526, -3727.2204431558184, 3901.206421995929, -19957.89497588813, 54853.30430904678, -19876.244053392897, -27953.38218848493, 6343.559186882876, 17055.051571732947, -0.006, 0.9695, -0.21050000000000002, 192.0, 0.0, 0.0, 0.0, 0.0, 0.0, 0.0, 0.0, 0.0, 0.0, 1.741890890329369E9, 0.0, 2025-03-13 13:34:50.329
210.0, 44789.43136804478, 5100.735139934438, -35459.88028763298, -16570.264586241792, -10176.97276794586, -23496.13141967433, -12204.946542375868, 23988.875626191573, -3720.559623308137, 3907.1966895099513, -19953.983420608452, 54853.57252998025, -19872.243091135395, -27955.1479762969, 6345.0567537613815, 17058.069057234414, -0.006, 0.9695, -0.21050000000000002, 192.0, 0.0, 0.0, 0.0, 0.0, 0.0, 0.0, 0.0, 0.0, 0.0, 1.741890890388104E9, 0.0, 2025-03-13 13:34:50.388
212.0, 44774.43334751527, 5102.098596346212, -35474.14070059547, -16576.18779852245, -10179.565570302675, -23491.661070783266, -12207.22642031031, 23992.49660879333, -3719.732608763291, 3903.6651138860125, -19954.698676431024, 54857.9981753824, -19875.707611525966, -27954.745644896706, 6339.781742069929, 17058.694906079163, -0.006, 0.9695, -0.21050000000000002, 192.0, 0.0, 0.0, 0.0, 0.0, 0.0, 0.0, 0.0, 0.0, 0.0, 1.74189089038839E9, 0.0, 2025-03-13 13:34:50.388
214.0, 44784.91631566481, 5097.58354396624, -35470.050331360144, -16577.6630136565, -10167.227407363345, -23485.44728582469, -12193.904780614947, 24002.487838564855, -3726.5498908221593, 3898.5689161502028, -19963.639374213144, 54838.66391642856, -19879.194483660995, -27955.080921063534, 6337.166587968659, 17059.4772171351, -0.006, 0.9695, -0.21050000000000002, 192.0, 0.0, 0.0, 0.0, 0.0, 0.0, 0.0, 0.0, 0.0, 0.0, 1.74189089038856E9, 0.0, 2025-03-13 13:34:50.388
216.0, 44759.14475430784, 5088.53108746184, -35489.45164554735, -16586.26843527179, -10180.236122636334, -23487.03425968102, -12204.566562720129, 23996.743440239843, -3721.744265764268, 3896.266686471306, -19963.885243402154, 54848.789256666816, -19877.51810282685, -27949.06830180506, 6346.219044473058, 17069.736667840083, -0.007, 0.96475, -0.21125, 192.0, 127.5, 96.0, 15.0, 0.0, 124.5, 48.0, 0.0, 0.0, 0.0, 1.741890890388726E9, 0.0, 2025-03-13 13:34:50.388
218.0, 44766.7666991671, 5092.129718319145, -35486.903546679445, -16580.166409035493, -10184.371195360565, -23481.289861356006, -12206.689978443383, 24001.772582742284, -3736.9658037383324, 3888.3541689341273, -19977.51980751989, 54838.26158502836, -19894.103097212686, -27952.845746618004, 6331.7351140660185, 17064.75222882655, -0.007, 0.96475, -0.21125, 192.0, 0.0, 0.0, 0.0, 0.0, 0.0, 0.0, 0.0, 0.0, 0.0, 1.741890890388906E9, 0.0, 2025-03-13 13:34:50.388
220.0, 44786.99502789915, 5114.213241840987, -35476.554688996635, -16557.70290585791, -10170.356651587088, -23462.313230313448, -12188.36154799003, 24017.463507349912, -3722.2807076311956, 3901.9663813074094, -19959.683115444557, 54870.69396623301, -19887.062297709264, -27938.58533365552, 6339.625279858742, 17073.536464397486, -0.007, 0.96475, -0.21125, 192.0, 0.0, 0.0, 0.0, 0.0, 0.0, 0.0, 0.0, 0.0, 0.0, 1.741890890389079E9, 0.0, 2025-03-13 13:34:50.389
222.0, 44781.74236795215, 5106.77011093737, -35466.58581096957, -16558.619327380577, -10174.424669077955, -23469.42108505024, -12192.429565480896, 24011.450888091433, -3702.4547102993383, 3913.946916335454, -19938.448958212015, 54881.065175660275, -19871.75135275738, -27922.76029858116, 6353.237492232024, 17089.115630282835, -0.007, 0.96475, -0.21125, 192.0, 0.0, 0.0, 0.0, 0.0, 0.0, 0.0, 0.0, 0.0, 0.0, 1.741890890389242E9, 0.0, 2025-03-13 13:34:50.389
224.0, 44777.42848127228, 5110.368741794675, -35471.816119172116, -16558.239347724837, -10175.363442345077, -23471.812721706956, -12193.681263170394, 24007.494629322842, -3718.816187240623, 3896.691369615957, -19948.75311240591, 54881.66867276057, -19884.871826752642, -27937.981836555224, 6343.11215199377, 17074.13996149778, -0.007, 0.96475, -0.21125, 192.0, 0.0, 0.0, 0.0, 0.0, 0.0, 0.0, 0.0, 0.0, 0.0, 1.741890890389401E9, 0.0, 2025-03-13 13:34:50.389
226.0, 44786.39153079886, 5115.464939530485, -35462.45073824534, -16556.294745957228, -10168.657919008485, -23470.44926529518, -12191.155516046943, 24007.47227757839, -3701.7171027323134, 3909.275401744295, -19937.152557033605, 54870.98453891093, -19871.058448679265, -27936.081938276522, 6345.861416561773, 17080.398449945267, -0.0075, 0.964375, -0.215625, 192.0, 127.5, 96.0, 15.0, 16.0, 124.5, 16.0, 0.0, 0.0, 0.0, 1.741890890450226E9, 0.0, 2025-03-13 13:34:50.450
228.0, 44775.17095508229, 5103.7526254359045, -35465.42352025789, -16562.061496026694, -10176.145753401011, -23479.74759098859, -12200.99028360728, 23997.190475128948, -3699.4372247978717, 3906.816709854211, -19934.447995954513, 54890.54231530933, -19868.666812022544, -27932.23743823021, 6352.052849775893, 17081.76190635704, -0.0075, 0.964375, -0.215625, 192.0, 0.0, 0.0, 0.0, 0.0, 0.0, 0.0, 0.0, 0.0, 0.0, 1.741890890450457E9, 0.0, 2025-03-13 13:34:50.450
230.0, 44767.83958290095, 5096.555363721295, -35462.0707585896, -16560.966260548386, -10175.385794089532, -23480.55225378898, -12197.88339112799, 23997.190475128948, -3719.2855738741846, 3881.2239624528843, -19951.6588391851, 54862.37911729564, -19885.184751175017, -27950.811737872573, 6338.842968802806, 17065.400429415757, -0.0075, 0.964375, -0.215625, 192.0, 0.0, 0.0, 0.0, 0.0, 0.0, 0.0, 0.0, 0.0, 0.0, 1.741890890450624E9, 0.0, 2025-03-13 13:34:50.450
232.0, 44778.79193768406, 5095.147203820611, -35460.908467877925, -16561.815626837688, -10172.927102199448, -23482.519207301048, -12197.659873683438, 23994.061230905205, -3716.0669226726204, 3888.9353142899654, -19945.869737371177, 54885.759041995894, -19878.233358649417, -27943.413310457865, 6356.277329477946, 17075.749287098562, -0.0075, 0.964375, -0.215625, 192.0, 0.0, 0.0, 0.0, 0.0, 0.0, 0.0, 0.0, 0.0, 0.0, 1.741890890450819E9, 0.0, 2025-03-13 13:34:50.450
234.0, 44768.59954221243, 5097.494136988418, -35467.457529003324, -16566.57654840667, -10176.883360968037, -23483.569739290448, -12201.325559774108, 23992.65307100452, -3718.9055942184445, 3887.2142299669067, -19950.787121151345, 54873.91261743458, -19876.31110862626, -27945.804947114582, 6349.25888171898, 17071.94949054116, -0.0075, 0.964375, -0.215625, 192.0, 0.0, 0.0, 0.0, 0.0, 0.0, 0.0, 0.0, 0.0, 0.0, 1.74189089045099E9, 0.0, 2025-03-13 13:34:50.450
236.0, 44770.99117886915, 5085.446546727007, -35477.62757273049, -16586.491952716347, -10189.556800074197, -23490.56583530496, -12211.450900012363, 23989.389716314046, -3717.519786062215, 3878.38529090706, -19956.19624330953, 54883.36740533917, -19885.095344197198, -27955.036217574623, 6340.228776959036, 17061.51122588053, -0.00575, 0.9591875000000001, -0.21381250000000002, 192.0, 127.5, 112.0, 14.5, 104.0, 124.5, 48.0, 0.0, 0.0, 0.0, 1.741890890451151E9, 0.0, 2025-03-13 13:34:50.451
238.0, 44751.969844337684, 5087.167631050066, -35490.14454962547, -16589.911769618007, -10187.992177962326, -23487.973032948143, -12205.572391220618, 23989.16619886949, -3729.2544519012517, 3871.970340248387, -19968.57910973777, 54856.63471897063, -19896.919417014054, -27964.62511594595, 6326.34834365229, 17050.916499008716, -0.00575, 0.9591875000000001, -0.21381250000000002, 192.0, 0.0, 0.0, 0.0, 0.0, 0.0, 0.0, 0.0, 0.0, 0.0, 1.741890890451332E9, 0.0, 2025-03-13 13:34:50.451
240.0, 44769.42655675728, 5092.9567328639905, -35482.05321813264, -16579.585263679655, -10184.706471527395, -23479.099390399384, -12201.593780707572, 23998.553931540722, -3716.2904401171736, 3887.10247124463, -19960.599536967224, 54873.82321045676, -19887.442277365004, -27951.10231055049, 6332.316259421857, 17062.494702636566, -0.00575, 0.9591875000000001, -0.21381250000000002, 192.0, 0.0, 0.0, 0.0, 0.0, 0.0, 0.0, 0.0, 0.0, 0.0, 1.741890890510142E9, 0.0, 2025-03-13 13:34:50.510
242.0, 44769.046577101544, 5113.25211682941, -35479.415712286915, -16565.011926294796, -10175.877532467548, -23465.286012326003, -12188.540361945674, 24012.166143914004, -3711.8424429705674, 3889.158831734518, -19958.699638688522, 54872.99619591191, -19887.777553531832, -27945.469670947754, 6332.472721633044, 17067.61325211683, -0.00575, 0.9591875000000001, -0.21381250000000002, 192.0, 0.0, 0.0, 0.0, 0.0, 0.0, 0.0, 0.0, 0.0, 0.0, 1.741890890510346E9, 0.0, 2025-03-13 13:34:50.510
244.0, 44789.9231064228, 5109.184099338544, -35469.8715174045, -16562.955565804907, -10175.29638711171, -23470.873948439832, -12194.84355388207, 24001.280844364268, -3701.4041783099387, 3914.7962826247553, -19943.589859436735, 54900.48884159194, -19875.03705919231, -27925.531914893618, 6347.4483904181, 17083.997080802572, -0.00575, 0.9591875000000001, -0.21381250000000002, 192.0, 0.0, 0.0, 0.0, 0.0, 0.0, 0.0, 0.0, 0.0, 0.0, 1.741890890510519E9, 0.0, 2025-03-13 13:34:50.510
246.0, 44761.62579794238, 5101.070416101267, -35487.21647110182, -16572.008022309306, -10184.997044205315, -23481.06634391145, -12206.466460998829, 23989.635585503052, -3714.859928472034, 3894.2550294703283, -19961.359496278703, 54875.074908146256, -19890.437411122013, -27947.1460517819, 6331.645707088198, 17065.981574771595, -0.00575, 0.9591875000000001, -0.21381250000000002, 192.0, 0.0, 0.0, 15.0, 8.0, 124.5, 32.0, 0.0, 0.0, 0.0, 1.741890890510685E9, 0.0, 2025-03-13 13:34:50.510
248.0, 44778.14373709485, 5097.8294131552475, -35473.894831406455, -16571.918615331488, -10177.352747601599, -23481.401620078283, -12201.347911518564, 23990.12732388107, -3708.757902235735, 3892.332779447172, -19957.38088576566, 54871.87860868915, -19879.574463316734, -27944.933229080827, 6339.044134502904, 17067.70265909465, -0.00575, 0.9591875000000001, -0.21381250000000002, 192.0, 0.0, 0.0, 0.0, 0.0, 0.0, 0.0, 0.0, 0.0, 0.0, 1.741890890510846E9, 0.0, 2025-03-13 13:34:50.510
250.0, 44777.00379812763, 5109.474672016463, -35471.458491260826, -16568.677612385465, -10170.53546554273, -23476.461884553657, -12195.983492849291, 23996.072887906183, -3705.7404167342684, 3891.5281166467807, -19953.603440952713, 54872.951492423, -19871.393724846093, -27944.888525591916, 6344.609718872276, 17067.814417816928, -0.00575, 0.9591875000000001, -0.21381250000000002, 192.0, 0.0, 0.0, 0.0, 0.0, 0.0, 0.0, 0.0, 0.0, 0.0, 1.741890890511033E9, 0.0, 2025-03-13 13:34:50.511
252.0, 44774.567457982004, 5094.5437067203175, -35463.99300861276, -16575.98663282235, -10177.44215457942, -23485.939024202708, -12207.092309843578, 23984.31587032269, -3702.119434132509, 3896.6019626381353, -19945.154481548605, 54878.11474539218, -19866.655155021566, -27938.38416795542, 6347.850721818295, 17069.04376376197, -0.00575, 0.9591875000000001, -0.21381250000000002, 192.0, 0.0, 0.0, 0.0, 0.0, 0.0, 0.0, 0.0, 0.0, 0.0, 1.741890890511248E9, 0.0, 2025-03-13 13:34:50.511
254.0, 44766.34201602245, 5100.891602145624, -35470.475014504795, -16572.34329847614, -10180.593750547618, -23479.188797377206, -12206.444109254375, 23987.914501179996, -3712.691809259869, 3890.6116951241133, -19951.52472871837, 54873.95732092349, -19875.88642548161, -27943.68153139133, 6338.842968802806, 17063.120551481315, -0.00575, 0.9591875000000001, -0.21381250000000002, 192.0, 0.0, 0.0, 0.0, 0.0, 0.0, 0.0, 0.0, 0.0, 0.0, 1.741890890511429E9, 0.0, 2025-03-13 13:34:50.511
0.0, 44771.19234456925, 5089.0228258398565, -35465.06589234661, -16580.18876077995, -10184.661768038484, -23488.26360562606, -12208.65693195545, 23978.50441676431, -3721.9230797199107, 3889.404700923527, -19949.7589409064, 54863.67551847405, -19880.043849950296, -27944.508545936176, 6339.178244969636, 17060.393638657766, -0.005875, 0.96059375, -0.21590625000000002, 192.0, 127.5, 104.0, 15.0, 8.0, 124.5, 24.0, 0.0, 0.0, 0.0, 1.741890890568934E9, 0.0, 2025-03-13 13:34:50.568
2.0, 44760.172934552786, 5088.173459550555, -35478.25342157524, -16578.914711346, -10178.850314480105, -23478.20532062117, -12198.285722528188, 23991.155504126014, -3714.9716871943106, 3884.1296892320743, -19956.397409009627, 54855.87475965915, -19881.83198950672, -27946.073168048046, 6337.904195535683, 17057.24204268957, -0.005875, 0.96059375, -0.21590625000000002, 192.0, 0.0, 0.0, 0.0, 0.0, 0.0, 0.0, 0.0, 0.0, 0.0, 1.741890890569198E9, 0.0, 2025-03-13 13:34:50.569
4.0, 44747.2089227687, 5062.580712149228, -35479.907450664934, -16594.113897575608, -10191.59080881963, -23491.906939972276, -12209.729815689305, 23977.789160941742, -3720.8948994749667, 3867.2541221683173, -19960.197205567027, 54841.70375367448, -19876.959309215465, -27944.821470358547, 6341.614585115264, 17059.276051435, -0.005875, 0.96059375, -0.21590625000000002, 192.0, 0.0, 0.0, 0.0, 0.0, 0.0, 0.0, 0.0, 0.0, 0.0, 1.741890890569364E9, 0.0, 2025-03-13 13:34:50.569
6.0, 44726.690021358736, 5052.902406800081, -35493.609070016035, -16594.918560375998, -10200.665617068484, -23496.399640607793, -12214.803661680658, 23978.75028595332, -3752.2320452013073, 3846.2881858692394, -19986.974595424486, 54827.28687850081, -19901.36741416066, -27976.15861608489, 6321.028628471927, 17035.627905801288, -0.005875, 0.96059375, -0.21590625000000002, 192.0, 0.0, 0.0, 0.0, 0.0, 0.0, 0.0, 0.0, 0.0, 0.0, 1.741890890569529E9, 0.0, 2025-03-13 13:34:50.569
8.0, 44724.49955040211, 5034.931604258014, -35488.19994785785, -16595.09737433164, -10197.871649011571, -23498.143076675307, -12211.495603501273, 23974.324640551167, -3746.5770538541146, 3845.8635027245887, -19976.849255186233, 54821.36366622015, -19896.248864680394, -27968.58137471454, 6329.142311709204, 17046.93788849567, -0.005875, 0.96059375, -0.21590625000000002, 192.0, 0.0, 0.0, 0.0, 0.0, 0.0, 0.0, 0.0, 0.0, 0.0, 1.741890890569704E9, 0.0, 2025-03-13 13:34:50.569
10.0, 44714.150692719304, 5035.937432758503, -35481.092093121064, -16575.271376999783, -10185.935817472437, -23479.434666566216, -12199.917399873424, 23990.104972136614, -3757.0823737481087, 3840.4767323108595, -19976.916310419598, 54821.56483192025, -19895.533608857826, -27966.994400858213, 6330.930451265628, 17051.587051342376, -0.0079375, 0.964296875, -0.21895312500000003, 192.0, 127.5, 88.0, 15.0, 32.0, 124.5, 8.0, 0.0, 0.0, 0.0, 1.741890890569865E9, 0.0, 2025-03-13 13:34:50.569
12.0, 44683.9981894491, 5001.761615486338, -35487.14941586845, -16585.32966200467, -10192.015491964281, -23492.063402183463, -12208.455766255353, 23982.08069587716, -3763.5420278956926, 3830.686668239435, -19979.48676103196, 54807.37147419113, -19896.31591991376, -27969.184871814832, 6332.696239077597, 17056.102103722347, -0.0079375, 0.964296875, -0.21895312500000003, 192.0, 0.0, 0.0, 0.0, 0.0, 0.0, 0.0, 0.0, 0.0, 0.0, 1.741890890570034E9, 0.0, 2025-03-13 13:34:50.570
14.0, 44669.38014857533, 4999.079406151701, -35486.7247327238, -16574.287900243748, -10183.387718604532, -23483.07800091243, -12203.65014119746, 23987.400411057522, -3777.0648332911533, 3827.3786100600496, -19983.040688400353, 54813.94288706099, -19897.433507136528, -27968.246098547712, 6334.998468756494, 17057.778484556497, -0.0079375, 0.964296875, -0.21895312500000003, 192.0, 0.0, 0.0, 0.0, 0.0, 0.0, 0.0, 0.0, 0.0, 0.0, 1.74189089062841E9, 0.0, 2025-03-13 13:34:50.628
16.0, 44654.60564549037, 4989.445804291464, -35482.142625110464, -16573.773810121278, -10180.325529614154, -23477.870044454343, -12202.84547839707, 23989.23325410286, -3786.4525659623823, 3826.618650748569, -19988.04747915834, 54799.45895665395, -19896.56178910277, -27962.881679878436, 6334.193805956103, 17057.711429323128, -0.0079375, 0.964296875, -0.21895312500000003, 192.0, 0.0, 0.0, 0.0, 0.0, 0.0, 0.0, 0.0, 0.0, 0.0, 1.741890890628632E9, 0.0, 2025-03-13 13:34:50.628
18.0, 44647.92247389823, 4985.288379822777, -35479.88509892048, -16577.640661912046, -10179.20794239139, -23478.160617132264, -12206.801737165659, 23986.93102442396, -3788.0618915631644, 3826.2833745817397, -19984.650014001134, 54815.61926789514, -19890.23624542192, -27958.500737965198, 6340.519349636955, 17061.198301458156, -0.0079375, 0.964296875, -0.21895312500000003, 192.0, 0.0, 0.0, 0.0, 0.0, 0.0, 0.0, 0.0, 0.0, 0.0, 1.741890890628809E9, 0.0, 2025-03-13 13:34:50.628
20.0, 44650.60468323287, 4986.3612635566315, -35467.09990109204, -16580.255816013316, -10168.099125397102, -23477.445361309692, -12199.64917893996, 23989.65793724751, -3762.3126819506506, 3829.6137845055805, -19970.501359760925, 54805.18100323451, -19872.22073939094, -27953.046912318103, 6348.320108451857, 17063.36642067032, -0.01096875, 0.9671484375, -0.22047656250000003, 192.0, 127.5, 72.0, 15.0, 40.0, 124.5, 8.0, 0.0, 0.0, 0.0, 1.741890890628992E9, 0.0, 2025-03-13 13:34:50.628
22.0, 44644.90498839677, 4971.542056982763, -35476.755854696734, -16597.734880177366, -10179.744384258316, -23494.164466162263, -12213.306094802154, 23972.447094016923, -3769.8005163431785, 3824.8752146810552, -19982.57130176679, 54810.79129109279, -19878.25571039387, -27962.43464498933, 6341.413419415167, 17053.53165310999, -0.01096875, 0.9671484375, -0.22047656250000003, 192.0, 0.0, 0.0, 0.0, 0.0, 0.0, 0.0, 0.0, 0.0, 0.0, 1.741890890629172E9, 0.0, 2025-03-13 13:34:50.629
24.0, 44636.277215037015, 4962.422545244997, -35490.90450893695, -16607.68140645998, -10189.690910540929, -23504.93800698972, -12225.107815874555, 23964.22165205737, -3775.231990245818, 3804.825699904645, -19997.792839740854, 54782.89631401257, -19887.285815153817, -27982.35004929901, 6326.2142331855575, 17038.958315725125, -0.01096875, 0.9671484375, -0.22047656250000003, 192.0, 0.0, 0.0, 0.0, 0.0, 0.0, 0.0, 0.0, 0.0, 0.0, 1.741890890629337E9, 0.0, 2025-03-13 13:34:50.629
26.0, 44640.85932265036, 4962.310786522721, -35489.898680436454, -16603.32281629119, -10190.83084950815, -23502.725184288644, -12215.094234358578, 23970.54719573822, -3779.0317868032203, 3799.4836329798263, -19999.20099964154, 54792.32875017271, -19894.32661465724, -27988.049744135114, 6323.152044195181, 17035.04676044545, -0.01096875, 0.9671484375, -0.22047656250000003, 192.0, 0.0, 0.0, 0.0, 0.0, 0.0, 0.0, 0.0, 0.0, 0.0, 1.741890890629497E9, 0.0, 2025-03-13 13:34:50.629
28.0, 44630.7339824121, 4967.585798214173, -35495.710133994835, -16599.90299938953, -10194.183611176446, -23499.819457509453, -12216.211821581343, 23971.68713470544, -3781.624589160036, 3807.8431854061114, -19994.730650750476, 54793.80396530676, -19898.372280403648, -27979.86900566447, 6326.370695396745, 17043.56277508292, -0.01096875, 0.9671484375, -0.22047656250000003, 192.0, 0.0, 0.0, 0.0, 0.0, 0.0, 0.0, 0.0, 0.0, 0.0, 1.741890890629666E9, 0.0, 2025-03-13 13:34:50.629
30.0, 44620.273366007015, 4949.033850316268, -35500.56046254164, -16606.139136092563, -10200.911486257493, -23508.581341335936, -12224.191394351888, 23966.03214335825, -3792.375778243039, 3794.0968625660976, -20004.408956099625, 54802.565849133236, -19912.78915557732, -27997.68334599535, 6316.379465625223, 17036.23140290158, -0.010484375, 0.9645742187499999, -0.22123828125, 192.0, 127.5, 88.0, 15.0, 8.0, 124.5, 8.0, 0.0, 0.0, 0.0, 1.741890890689155E9, 0.0, 2025-03-13 13:34:50.689
32.0, 44601.52025240901, 4949.100905549634, -35509.65762253495, -16605.781508181277, -10196.552896088708, -23500.244140654104, -12214.870716914025, 23973.74349519533, -3800.8023859026894, 3783.1221560385416, -20014.8248690158, 54775.54259008677, -19910.688091598524, -27998.867988451482, 6311.752654522974, 17034.286801133967, -0.010484375, 0.9645742187499999, -0.22123828125, 192.0, 0.0, 0.0, 0.0, 0.0, 0.0, 0.0, 0.0, 0.0, 0.0, 1.741890890689367E9, 0.0, 2025-03-13 13:34:50.689
34.0, 44617.94878458366, 4950.531417194774, -35493.81023571613, -16593.800973153233, -10189.869724496572, -23487.50364631458, -12204.879487142503, 23983.622966244577, -3785.55849618417, 3791.302894509184, -19998.932778708077, 54787.50077337036, -19905.03310025133, -27984.38405804444, 6323.755541295474, 17048.502510607545, -0.010484375, 0.9645742187499999, -0.22123828125, 192.0, 0.0, 0.0, 0.0, 0.0, 0.0, 0.0, 0.0, 0.0, 0.0, 1.74189089068953E9, 0.0, 2025-03-13 13:34:50.689
36.0, 44601.45319717565, 4941.948347323936, -35511.42341034691, -16602.7193191909, -10203.794861292226, -23497.60663480838, -12222.984400151301, 23969.45196025991, -3792.8451648766, 3790.744100897801, -20000.43034558658, 54777.62130232112, -19908.18469621953, -27983.087656866035, 6321.542718594399, 17051.005905986538, -0.010484375, 0.9645742187499999, -0.22123828125, 192.0, 0.0, 0.0, 0.0, 0.0, 0.0, 0.0, 0.0, 0.0, 0.0, 1.741890890689684E9, 0.0, 2025-03-13 13:34:50.689
38.0, 44609.63393564629, 4937.276832732777, -35502.281546864695, -16602.227580812883, -10195.16708793248, -23500.132381931828, -12216.882373915003, 23968.06615210368, -3813.1181970975636, 3776.6177984020474, -20017.395319628158, 54776.19079067597, -19914.443184667016, -27990.642546491927, 6317.228831914525, 17041.841690759862, -0.010484375, 0.9645742187499999, -0.22123828125, 192.0, 0.0, 0.0, 0.0, 0.0, 0.0, 0.0, 0.0, 0.0, 0.0, 1.741890890689866E9, 0.0, 2025-03-13 13:34:50.689
40.0, 44591.9760575266, 4947.022193315291, -35502.61682303152, -16593.599807453134, -10186.2040384059, -23492.04105043901, -12206.913495887935, 23974.726971951364, -3803.9539818708877, 3787.2795805072287, -20018.66936906211, 54777.956578487945, -19912.9009142996, -27989.860235435994, 6322.325029650335, 17045.88735650627, -0.008242187500000001, 0.964287109375, -0.21761914062499998, 192.0, 127.5, 104.0, 15.0, 16.0, 124.5, 40.0, 0.0, 0.0, 0.0, 1.741890890690031E9, 0.0, 2025-03-13 13:34:50.690
42.0, 44603.12957800979, 4941.411905457009, -35483.193157099864, -16592.348109763636, -10182.359538359588, -23499.819457509453, -12211.361493034541, 23970.413085271488, -3796.4437957339046, 3790.3417694976056, -20009.01341545742, 54791.83701179469, -19899.422812393048, -27982.05947662109, 6332.293907677402, 17049.75420829704, -0.008242187500000001, 0.964287109375, -0.21761914062499998, 192.0, 0.0, 0.0, 0.0, 0.0, 0.0, 0.0, 0.0, 0.0, 0.0, 1.741890890690232E9, 0.0, 2025-03-13 13:34:50.690
44.0, 44587.19278421316, 4937.656812388517, -35492.06679964862, -16593.599807453134, -10183.275959882256, -23498.567759819958, -12209.0816151001, 23974.525806251266, -3804.199851059896, 3772.1921529998963, -20012.254418403438, 54775.162610431034, -19902.060318238775, -27991.670726736873, 6326.884785519217, 17040.74645528155, -0.008242187500000001, 0.964287109375, -0.21761914062499998, 192.0, 0.0, 0.0, 0.0, 0.0, 0.0, 0.0, 0.0, 0.0, 0.0, 1.741890890749705E9, 0.0, 2025-03-13 13:34:50.749
46.0, 44615.42303746021, 4938.6402891445505, -35476.06295061862, -16589.487086473357, -10171.317776598666, -23493.583320806425, -12198.062205083634, 23982.103047621615, -3791.36994974255, 3784.9326473394212, -20000.43034558658, 54780.66113956704, -19885.87765525313, -27984.0040783887, 6344.252090960991, 17056.079751977893, -0.008242187500000001, 0.964287109375, -0.21761914062499998, 192.0, 0.0, 0.0, 0.0, 0.0, 0.0, 0.0, 0.0, 0.0, 0.0, 1.741890890749909E9, 0.0, 2025-03-13 13:34:50.749
48.0, 44603.19663324316, 4937.232129243866, -35495.285450850184, -16597.153734821528, -10175.944587700915, -23490.18585564922, -12197.436356238886, 23983.5112075223, -3795.460318977871, 3779.6129321590583, -20004.54306656636, 54770.11111618413, -19894.773649546343, -27992.96712791528, 6336.607794357275, 17049.441283874665, -0.008242187500000001, 0.964287109375, -0.21761914062499998, 192.0, 0.0, 0.0, 0.0, 0.0, 0.0, 0.0, 0.0, 0.0, 0.0, 1.741890890750074E9, 0.0, 2025-03-13 13:34:50.750
50.0, 44611.42207520272, 4928.045562272735, -35498.03471541819, -16604.32864479168, -10183.499477326808, -23493.248044639593, -12205.035949353689, 23981.387791799047, -3798.8130806461672, 3777.847144347089, -20010.86861024721, 54755.98481368838, -19897.947597258997, -27992.92242442637, 6330.326954165334, 17049.12835945229, -0.007121093750000001, 0.9631435546875, -0.21580957031249998, 192.0, 127.5, 104.0, 15.0, 8.0, 124.5, 40.0, 0.0, 0.0, 0.0, 1.741890890750242E9, 0.0, 2025-03-13 13:34:50.750
52.0, 44593.04894126045, 4923.664620359495, -35515.9831662158, -16611.056519872727, -10197.335207144644, -23504.08864070042, -12210.355664534052, 23974.771675440275, -3803.194022559407, 3768.8170395871452, -20014.57899982679, 54757.057697422235, -19907.871771797156, -28000.276148352164, 6322.302677905879, 17042.735760538075, -0.007121093750000001, 0.9631435546875, -0.21580957031249998, 192.0, 0.0, 0.0, 0.0, 0.0, 0.0, 0.0, 0.0, 0.0, 0.0, 1.741890890750436E9, 0.0, 2025-03-13 13:34:50.750
54.0, 44607.66698213422, 4935.801617598727, -35505.54490155517, -16603.32281629119, -10194.004797220803, -23498.388945864313, -12211.65206571246, 23974.682268462453, -3809.1172348400637, 3771.7004146218796, -20020.90454350764, 54754.10726715413, -19913.258542210882, -28001.326680341564, 6319.553413337876, 17038.444225602656, -0.007121093750000001, 0.9631435546875, -0.21580957031249998, 192.0, 0.0, 0.0, 0.0, 0.0, 0.0, 0.0, 0.0, 0.0, 0.0, 1.741890890750594E9, 0.0, 2025-03-13 13:34:50.750
56.0, 44610.68446763569, 4942.082457790668, -35510.77520975771, -16600.305330789724, -10194.138907687535, -23494.544445818003, -12209.327484289108, 23978.32560280867, -3815.8004064322004, 3786.27375200674, -20021.306874907837, 54779.25297966635, -19914.33142594474, -27992.4083343039, 6322.950878495083, 17043.361609382824, -0.007121093750000001, 0.9631435546875, -0.21580957031249998, 192.0, 0.0, 0.0, 0.0, 0.0, 0.0, 0.0, 0.0, 0.0, 0.0, 1.741890890750757E9, 0.0, 2025-03-13 13:34:50.750
58.0, 44629.52698821152, 4954.800600385738, -35494.4807880498, -16592.549275463734, -10192.082547197646, -23488.017736437054, -12210.93680988989, 23978.616175486586, -3805.0939208381083, 3796.019112589254, -20013.863744004222, 54770.80402026225, -19906.687129341022, -27985.322831311565, 6323.9790587400275, 17047.071998962405, -0.007121093750000001, 0.9631435546875, -0.21580957031249998, 192.0, 0.0, 0.0, 0.0, 0.0, 0.0, 0.0, 0.0, 0.0, 0.0, 1.741890890750912E9, 0.0, 2025-03-13 13:34:50.750
60.0, 44631.3374795124, 4958.198065542944, -35506.43897133338, -16593.175124308484, -10200.531506601752, -23489.18002714873, -12215.317751803132, 23974.816378929187, -3807.172633072452, 3791.3252462536393, -20016.00951147193, 54779.34238664417, -19920.679321370044, -27991.558968014597, 6318.279363903924, 17039.964144225614, -0.006560546875, 0.96457177734375, -0.21690478515625, 192.0, 127.5, 104.0, 15.0, 24.0, 124.5, 24.0, 0.0, 0.0, 0.0, 1.741890890808651E9, 0.0, 2025-03-13 13:34:50.808
62.0, 44667.681415996725, 4988.507031024341, -35471.63730521647, -16573.99732756583, -10182.851276737605, -23467.275317582527, -12198.196315550365, 23995.044707661236, -3781.021092059743, 3822.2600605797843, -19986.304043090826, 54794.20629670695, -19892.829047778734, -27967.57554621405, 6343.179207227136, 17065.735705582585, -0.006560546875, 0.96457177734375, -0.21690478515625, 192.0, 0.0, 0.0, 0.0, 0.0, 0.0, 0.0, 0.0, 0.0, 0.0, 1.741890890808898E9, 0.0, 2025-03-13 13:34:50.808
64.0, 44672.30822709897, 4994.430243304997, -35470.9220493939, -16576.8136473672, -10184.77352676076, -23457.909936655753, -12199.582123706596, 24003.337204854157, -3776.371929213039, 3825.590470503625, -19981.67723198858, 54812.69118937149, -19892.829047778734, -27961.451168233296, 6346.73313459553, 17067.009755016537, -0.006560546875, 0.96457177734375, -0.21690478515625, 192.0, 0.0, 0.0, 0.0, 0.0, 0.0, 0.0, 0.0, 0.0, 0.0, 1.741890890809087E9, 0.0, 2025-03-13 13:34:50.809
66.0, 44683.66291328227, 4999.794661974271, -35458.62858994348, -16568.878778085564, -10176.190456889923, -23459.92159365673, -12196.609341694038, 24002.867818220595, -3757.9987952707766, 3840.7002497554126, -19967.506226003912, 54812.5347271603, -19880.043849950296, -27955.19267978581, 6361.64174814722, 17083.415935446734, -0.006560546875, 0.96457177734375, -0.21690478515625, 192.0, 0.0, 0.0, 0.0, 0.0, 0.0, 0.0, 0.0, 0.0, 0.0, 1.741890890809263E9, 0.0, 2025-03-13 13:34:50.809
68.0, 44666.67558749623, 4978.0240628748015, -35470.36325578252, -16588.794182395242, -10183.54418081572, -23483.83796022391, -12206.555867976651, 23983.488855777843, -3768.9958535427877, 3824.4505315364045, -19980.87256918819, 54815.30634347277, -19892.47141986745, -27975.01867711767, 6351.203483486591, 17061.645336347265, -0.006560546875, 0.96457177734375, -0.21690478515625, 192.0, 0.0, 0.0, 0.0, 0.0, 0.0, 0.0, 0.0, 0.0, 0.0, 1.741890890809423E9, 0.0, 2025-03-13 13:34:50.809
70.0, 44661.110003126865, 4975.36420528462, -35471.793767427655, -16592.05753708572, -10180.906674969992, -23493.002175450587, -12205.572391220618, 23975.64339347403, -3779.70233913688, 3820.0025343897983, -19990.14854313714, 54787.0313867368, -19895.466553624457, -27985.412238289387, 6346.219044473058, 17047.496682107056, -0.0072802734375, 0.9652858886718749, -0.21645239257812499, 192.0, 127.5, 96.0, 15.0, 24.0, 124.5, 32.0, 0.0, 0.0, 0.0, 1.741890890809585E9, 0.0, 2025-03-13 13:34:50.809
72.0, 44669.58131427543, 4978.515801252818, -35475.928840151886, -16597.109031332617, -10184.572361060664, -23499.797105765, -12211.56265873464, 23968.781407926253, -3784.4185572169495, 3811.173595329952, -19996.96582519601, 54791.032348994304, -19900.719213571458, -28000.343203585533, 6338.507692635977, 17035.762016268018, -0.0072802734375, 0.9652858886718749, -0.21645239257812499, 192.0, 0.0, 0.0, 0.0, 0.0, 0.0, 0.0, 0.0, 0.0, 0.0, 1.741890890809763E9, 0.0, 2025-03-13 13:34:50.809
74.0, 44674.722215500144, 5001.448691063963, -35463.36715976801, -16576.344260733636, -10172.413012076977, -23487.995384692596, -12196.229362038299, 23984.181759855957, -3774.203810000874, 3830.9995926618094, -19983.71124073401, 54798.34136943119, -19887.464629109458, -27988.452075535308, 6348.118942751759, 17050.402408886242, -0.0072802734375, 0.9652858886718749, -0.21645239257812499, 192.0, 0.0, 0.0, 0.0, 0.0, 0.0, 0.0, 0.0, 0.0, 0.0, 1.741890890868934E9, 0.0, 2025-03-13 13:34:50.868
76.0, 44681.76301500357, 4996.374845072609, -35470.966752882814, -16585.977862593874, -10188.05923319569, -23491.41520159426, -12212.479080257306, 23974.011716128793, -3772.1027460220753, 3833.3465258296164, -19983.845351200744, 54821.162500520055, -19894.773649546343, -27980.67366846486, 6346.107285750782, 17049.821263530404, -0.0072802734375, 0.9652858886718749, -0.21645239257812499, 192.0, 0.0, 0.0, 0.0, 0.0, 0.0, 0.0, 0.0, 0.0, 0.0, 1.741890890869132E9, 0.0, 2025-03-13 13:34:50.869
78.0, 44677.15855564577, 5007.75188300036, -35482.67906697739, -16580.680499157967, -10193.624817565062, -23490.141152160308, -12217.061187870644, 23971.709486449898, -3775.8354873461117, 3842.533092800748, -19984.940586679055, 54810.90304981507, -19901.9485595165, -27977.231499818743, 6337.59127111331, 17049.463635619122, -0.0072802734375, 0.9652858886718749, -0.21645239257812499, 192.0, 0.0, 0.0, 0.0, 0.0, 0.0, 0.0, 0.0, 0.0, 0.0, 1.741890890869307E9, 0.0, 2025-03-13 13:34:50.869
80.0, 44708.361590905384, 5021.609964562651, -35475.63826747397, -16574.153789777018, -10189.623855307562, -23486.542521303003, -12214.870716914025, 23974.257585317802, -3771.789821599701, 3851.5631975606916, -19983.510075033915, 54828.292707001296, -19901.523876371848, -27974.59399397302, 6334.886710034217, 17050.38005714179, -0.00564013671875, 0.9686429443359375, -0.21422619628906248, 192.0, 127.5, 112.0, 15.0, 48.0, 124.5, 48.0, 0.0, 0.0, 0.0, 1.741890890869468E9, 0.0, 2025-03-13 13:34:50.869
82.0, 44703.06422746948, 5029.6789443110165, -35476.06295061862, -16573.416182209992, -10177.86683772407, -23477.244195609594, -12198.620998695016, 23985.79108545674, -3756.1883039698964, 3861.912055243499, -19968.37794403767, 54822.972991820934, -19891.59970183369, -27960.11006356598, 6346.889596806717, 17061.846502047363, -0.00564013671875, 0.9686429443359375, -0.21422619628906248, 192.0, 0.0, 0.0, 0.0, 0.0, 0.0, 0.0, 0.0, 0.0, 0.0, 1.741890890869662E9, 0.0, 2025-03-13 13:34:50.869
84.0, 44719.44805615521, 5032.070580967735, -35475.59356398506, -16580.077002057675, -10180.392584847521, -23474.13730313031, -12197.302245772153, 23989.523826780776, -3766.2912924636953, 3853.7760202617674, -19981.14079012165, 54825.90107034458, -19901.32271067175, -27975.085732351035, 6346.420210173155, 17058.359629912335, -0.00564013671875, 0.9686429443359375, -0.21422619628906248, 192.0, 0.0, 0.0, 0.0, 0.0, 0.0, 0.0, 0.0, 0.0, 0.0, 1.74189089086983E9, 0.0, 2025-03-13 13:34:50.869
86.0, 44721.012678267085, 5042.195921205988, -35486.702380979346, -16585.91080736051, -10181.06313718118, -23471.65625949577, -12197.391652749975, 23990.373193070078, -3759.7645830827455, 3864.370747133583, -19978.682098231566, 54819.620230152635, -19896.628844336134, -27967.57554621405, 6344.185035727624, 17061.75709506954, -0.00564013671875, 0.9686429443359375, -0.21422619628906248, 192.0, 0.0, 0.0, 0.0, 0.0, 0.0, 0.0, 0.0, 0.0, 0.0, 1.741890890870011E9, 0.0, 2025-03-13 13:34:50.870
88.0, 44741.55393142151, 5038.463179881952, -35475.861784918525, -16595.34324352065, -10183.722994771362, -23484.486160813114, -12202.443146996875, 23983.55591101121, -3751.1815132119077, 3864.6389680670463, -19973.51884526239, 54827.35393373417, -19892.98550998992, -27969.296630537112, 6340.094666492304, 17057.219690945112, -0.00564013671875, 0.9686429443359375, -0.21422619628906248, 192.0, 0.0, 0.0, 0.0, 0.0, 0.0, 0.0, 0.0, 0.0, 0.0, 1.74189089087018E9, 0.0, 2025-03-13 13:34:50.870
90.0, 44738.93877732024, 5052.231854466421, -35473.09016860607, -16579.249987512827, -10171.2507213653, -23466.627116993324, -12194.396518992964, 23993.636547760554, -3751.2932719341843, 3864.5942645781356, -19973.317679562293, 54819.75434061937, -19891.68910881151, -27973.29759279461, 6339.088837991815, 17051.877624020293, -0.0068200683593750006, 0.9643214721679687, -0.21611309814453122, 192.0, 127.5, 96.0, 15.0, 0.0, 124.5, 24.0, 0.0, 0.0, 0.0, 1.741890890930694E9, 0.0, 2025-03-13 13:34:50.930
92.0, 44743.587940166944, 5043.961709017958, -35473.872479662, -16590.42585974048, -10187.411032606487, -23483.21211137916, -12214.51308900274, 23974.995192884828, -3755.0707167471314, 3868.4834681133593, -19974.70348771852, 54826.21399476696, -19888.55986458777, -27967.709656680785, 6344.944995039105, 17057.75613281204, -0.0068200683593750006, 0.9643214721679687, -0.21611309814453122, 192.0, 0.0, 0.0, 0.0, 0.0, 0.0, 0.0, 0.0, 0.0, 0.0, 1.7418908909309E9, 0.0, 2025-03-13 13:34:50.930
94.0, 44739.36346046489, 5059.652633625583, -35487.10471237954, -16582.356879992116, -10190.92025648597, -23479.680535755222, -12216.122414603522, 23976.917442907983, -3753.8190190576343, 3873.6914245714456, -19982.57130176679, 54823.84470985469, -19899.51221937087, -27969.520147981664, 6328.7399803090075, 17047.586089084874, -0.0068200683593750006, 0.9643214721679687, -0.21611309814453122, 192.0, 0.0, 0.0, 0.0, 0.0, 0.0, 0.0, 0.0, 0.0, 0.0, 1.741890890931081E9, 0.0, 2025-03-13 13:34:50.931
96.0, 44763.77156541009, 5061.172552248544, -35477.71697970831, -16584.90497886002, -10187.858067495594, -23485.514341058057, -12211.65206571246, 23974.995192884828, -3744.431286386405, 3879.0558432407197, -19977.028069141874, 54823.0400470543, -19891.376184389137, -27966.14503456891, 6331.623355343742, 17049.1730629412, -0.0068200683593750006, 0.9643214721679687, -0.21611309814453122, 192.0, 0.0, 0.0, 0.0, 0.0, 0.0, 0.0, 0.0, 0.0, 0.0, 1.741890890931262E9, 0.0, 2025-03-13 13:34:50.931
98.0, 44750.22640827017, 5067.81102035177, -35480.93563090988, -16585.217903282395, -10182.627759293051, -23484.061477668463, -12210.579181978606, 23973.251756817313, -3751.69560333438, 3881.4474798974375, -19978.838560442753, 54820.64841039758, -19892.180847189527, -27961.67468567785, 6328.628221586731, 17039.69592329215, -0.0068200683593750006, 0.9643214721679687, -0.21611309814453122, 192.0, 0.0, 0.0, 0.0, 0.0, 0.0, 0.0, 0.0, 0.0, 0.0, 1.741890890931425E9, 0.0, 2025-03-13 13:34:50.931
100.0, 44759.92706536377, 5067.296930229299, -35472.46431976132, -16585.4637724714, -10186.405204105999, -23486.87779746983, -12218.312885560143, 23968.40142827051, -3742.0620014741426, 3890.879916057577, -19968.355592293214, 54819.26260224135, -19884.581254074725, -27957.87488912045, 6334.014992000461, 17045.485025106078, -0.0074100341796875, 0.9621607360839843, -0.21805654907226563, 192.0, 127.5, 96.0, 15.0, 0.0, 124.5, 16.0, 0.0, 0.0, 0.0, 1.741890890931584E9, 0.0, 2025-03-13 13:34:50.931
102.0, 44747.030108813065, 5070.537933175317, -35485.89771817896, -16587.877760872576, -10190.2050006634, -23481.60278577838, -12222.716179217838, 23972.156521339002, -3755.920083036433, 3880.665168841502, -19979.8667406877, 54813.87583182762, -19897.120582714153, -27966.39090375792, 6323.152044195181, 17035.04676044545, -0.0074100341796875, 0.9621607360839843, -0.21805654907226563, 192.0, 0.0, 0.0, 0.0, 0.0, 0.0, 0.0, 0.0, 0.0, 0.0, 1.741890890931756E9, 0.0, 2025-03-13 13:34:50.931
104.0, 44772.48874574766, 5077.109346045178, -35472.73254069478, -16590.023528340284, -10184.728823271851, -23482.474503812136, -12219.117548360533, 23974.16817833998, -3738.306908405651, 3893.1597939920184, -19966.27688005887, 54816.91566907355, -19884.491847096902, -27958.187813542823, 6324.269631417947, 17042.109911693326, -0.0074100341796875, 0.9621607360839843, -0.21805654907226563, 192.0, 0.0, 0.0, 0.0, 0.0, 0.0, 0.0, 0.0, 0.0, 0.0, 1.741890890989505E9, 0.0, 2025-03-13 13:34:50.989
106.0, 44763.033957843065, 5082.764337392371, -35479.79569194266, -16590.403507996023, -10182.381890104043, -23476.528939787026, -12217.597629737573, 23980.40431504301, -3742.307870663151, 3889.2482387123396, -19966.29923180333, 54829.18677677951, -19889.58804483271, -27959.90889786588, 6323.643782573197, 17042.668705304706, -0.0074100341796875, 0.9621607360839843, -0.21805654907226563, 192.0, 0.0, 0.0, 0.0, 0.0, 0.0, 0.0, 0.0, 0.0, 0.0, 1.741890890989698E9, 0.0, 2025-03-13 13:34:50.989
108.0, 44784.64809473135, 5098.634075955639, -35460.50613647773, -16581.14988579153, -10171.228369620845, -23466.02361989303, -12211.160327334444, 23990.015565158792, -3727.68982978938, 3914.9527448359427, -19953.08935083024, 54833.679477415026, -19875.573501059236, -27951.81756637306, 6332.629183844231, 17056.75030431155, -0.0074100341796875, 0.9621607360839843, -0.21805654907226563, 192.0, 0.0, 0.0, 0.0, 0.0, 0.0, 0.0, 0.0, 0.0, 0.0, 1.741890890989889E9, 0.0, 2025-03-13 13:34:50.989
110.0, 44774.634513215366, 5102.389169024131, -35457.10867132052, -16579.85348461312, -10166.020413162758, -23461.73208495761, -12202.621960952516, 23996.899902451027, -3717.475082573305, 3919.646611171557, -19950.42949324006, 54853.30430904678, -19871.93016671302, -27945.38026396993, 6337.524215879944, 17063.277013692503, -0.00670501708984375, 0.9620803680419922, -0.22202827453613283, 192.0, 127.5, 104.0, 15.0, 8.0, 124.0, 120.0, 0.0, 0.0, 0.0, 1.741890890990058E9, 0.0, 2025-03-13 13:34:50.990
112.0, 44773.20400157023, 5093.046139841812, -35464.10476733503, -16593.778621408776, -10173.217674877367, -23475.16548337525, -12214.669551213927, 23984.785256956253, -3713.1835476378856, 3921.5465094502583, -19945.266240270885, 54843.06721008626, -19865.35875384316, -27942.943923824303, 6339.692335092108, 17064.640470104274, -0.00670501708984375, 0.9620803680419922, -0.22202827453613283, 192.0, 0.0, 0.0, 0.0, 0.0, 0.0, 0.0, 0.0, 0.0, 0.0, 1.741890890990234E9, 0.0, 2025-03-13 13:34:50.990
114.0, 44769.20303931273, 5096.220087554466, -35467.09990109204, -16587.542484705744, -10174.58113128914, -23472.103294384873, -12212.054397112655, 23989.724992480875, -3720.760789008235, 3910.2141750114174, -19953.245813041427, 54853.460771257975, -19877.205178404474, -27950.834089617027, 6330.930451265628, 17057.957298512138, -0.00670501708984375, 0.9620803680419922, -0.22202827453613283, 192.0, 0.0, 0.0, 0.0, 0.0, 0.0, 0.0, 0.0, 0.0, 0.0, 1.741890890990404E9, 0.0, 2025-03-13 13:34:50.990
116.0, 44762.273998531586, 5096.130680576644, -35468.84333715956, -16581.75338289182, -10169.529637042242, -23471.87977694032, -12206.131184832, 23988.115666880094, -3718.9726494518104, 3911.622334912102, -19949.66953392858, 54847.8951868886, -19875.774666759335, -27947.838955860014, 6332.6738873331415, 17060.170121213214, -0.00670501708984375, 0.9620803680419922, -0.22202827453613283, 192.0, 0.0, 0.0, 0.0, 0.0, 0.0, 0.0, 0.0, 0.0, 0.0, 1.741890890990574E9, 0.0, 2025-03-13 13:34:50.990
118.0, 44757.20015254023, 5090.878020629647, -35480.30978206513, -16585.217903282395, -10179.722032513862, -23479.45701831067, -12214.669551213927, 23983.332393566656, -3732.2272339138076, 3906.3473232206493, -19960.644240456135, 54861.57445449525, -19885.832951764223, -27942.63099940193, 6327.555337852877, 17056.973821756106, -0.00670501708984375, 0.9620803680419922, -0.22202827453613283, 192.0, 0.0, 0.0, 0.0, 0.0, 0.0, 0.0, 0.0, 0.0, 0.0, 1.741890890990743E9, 0.0, 2025-03-13 13:34:50.990
120.0, 44753.89209436085, 5093.783747408837, -35475.3253430516, -16578.445324712437, -10177.285692368234, -23475.724276986635, -12213.41785352443, 23983.84648368913, -3727.4439606003716, 3907.4649104434147, -19958.43141775506, 54848.31987003325, -19883.284852896315, -27938.540630166608, 6325.63308782972, 17058.359629912335, -0.004352508544921875, 0.9650401840209961, -0.2210141372680664, 192.0, 127.5, 120.0, 15.0, 32.0, 124.5, 16.0, 0.0, 0.0, 0.0, 1.74189089104844E9, 0.0, 2025-03-13 13:34:51.048
122.0, 44761.558742709014, 5087.86053512818, -35469.11155809302, -16580.121705546582, -10168.97084343086, -23471.812721706956, -12205.0806528426, 23988.22742560237, -3724.694696032369, 3899.4406341839594, -19962.722952690478, 54856.72412594845, -19882.435486607013, -27938.451223188786, 6326.549509352388, 17056.057400233436, -0.004352508544921875, 0.9650401840209961, -0.2210141372680664, 192.0, 0.0, 0.0, 0.0, 0.0, 0.0, 0.0, 0.0, 0.0, 0.0, 1.741890891048655E9, 0.0, 2025-03-13 13:34:51.048
124.0, 44747.83477161345, 5078.629264668139, -35471.7714156832, -16587.72129866139, -10177.643320279518, -23484.21793987965, -12216.882373915003, 23977.65505047501, -3726.952222222355, 3891.4387096689597, -19962.56649047929, 54847.40344851059, -19880.535588328315, -27945.134394780922, 6329.812864042862, 17058.829016545897, -0.004352508544921875, 0.9650401840209961, -0.2210141372680664, 192.0, 0.0, 0.0, 0.0, 0.0, 0.0, 0.0, 0.0, 0.0, 0.0, 1.741890891048812E9, 0.0, 2025-03-13 13:34:51.048
126.0, 44764.57622821048, 5086.295913016309, -35459.92499112189, -16583.407411981512, -10174.91640745597, -23484.307346857473, -12212.970818635324, 23980.896053421027, -3725.0970274325646, 3899.3512272061384, -19959.95133637802, 54862.759096951384, -19881.720230784445, -27945.58142967003, 6332.6738873331415, 17055.81153104443, -0.004352508544921875, 0.9650401840209961, -0.2210141372680664, 192.0, 0.0, 0.0, 0.0, 0.0, 0.0, 0.0, 0.0, 0.0, 0.0, 1.741890891048991E9, 0.0, 2025-03-13 13:34:51.048
128.0, 44760.70937641971, 5081.467936213963, -35464.41769175741, -16589.978824851372, -10175.899884212004, -23485.626099780333, -12213.350798291063, 23979.040858631237, -3720.693733774869, 3890.9246195464875, -19953.849310141723, 54848.05164909979, -19877.339288871204, -27950.2976477501, 6331.802169299384, 17055.029219988493, -0.004352508544921875, 0.9650401840209961, -0.2210141372680664, 192.0, 0.0, 0.0, 0.0, 0.0, 0.0, 0.0, 0.0, 0.0, 0.0, 1.741890891049163E9, 0.0, 2025-03-13 13:34:51.049
130.0, 44766.565533467, 5076.371738478153, -35462.33897952306, -16599.768888922797, -10179.766736002772, -23492.130457416828, -12219.743397205282, 23971.575375983164, -3729.0532862011537, 3876.9547792619205, -19954.229289797462, 54849.57156772275, -19879.641518550103, -27960.4006362439, 6325.476625618533, 17048.36840014081, -0.004176254272460937, 0.967520092010498, -0.2205070686340332, 192.0, 127.5, 112.0, 15.0, 40.0, 124.5, 16.0, 0.0, 0.0, 0.0, 1.741890891049349E9, 0.0, 2025-03-13 13:34:51.049
132.0, 44752.52863794907, 5085.513601960373, -35470.184441826874, -16593.510400475312, -10178.000948190804, -23487.25777712557, -12214.75895819175, 23979.018506886783, -3718.6373732849806, 3883.8167648097, -19953.04464734133, 54844.27420428684, -19875.372335359138, -27954.522127452154, 6329.075256475837, 17050.290650163966, -0.004176254272460937, 0.967520092010498, -0.2205070686340332, 192.0, 0.0, 0.0, 0.0, 0.0, 0.0, 0.0, 0.0, 0.0, 0.0, 1.741890891049531E9, 0.0, 2025-03-13 13:34:51.049
134.0, 44757.60248394043, 5083.8595728706805, -35465.647037702445, -16595.18678130946, -10171.675404509951, -23485.40258233578, -12209.551001733662, 23981.968937154885, -3727.890995489478, 3881.8274595531775, -19961.5606619788, 54851.38205902363, -19885.922358742042, -27961.67468567785, 6326.549509352388, 17046.222632673103, -0.004176254272460937, 0.967520092010498, -0.2205070686340332, 192.0, 0.0, 0.0, 0.0, 0.0, 0.0, 0.0, 0.0, 0.0, 0.0, 1.741890891108722E9, 0.0, 2025-03-13 13:34:51.108
136.0, 44741.33041397696, 5086.474726971952, -35474.7218459513, -16591.878723130074, -10171.138962643023, -23482.966242190152, -12206.42175750992, 23986.774562212773, -3723.174777409408, 3891.0587300132192, -19956.598574709722, 54850.66680320106, -19874.858245236665, -27950.990551828214, 6339.692335092108, 17057.62202234531, -0.004176254272460937, 0.967520092010498, -0.2205070686340332, 192.0, 0.0, 0.0, 0.0, 0.0, 0.0, 0.0, 0.0, 0.0, 0.0, 1.741890891108953E9, 0.0, 2025-03-13 13:34:51.108
138.0, 44752.57334143798, 5075.38826172212, -35474.16305233992, -16597.600769710632, -10176.97276794586, -23490.16350390476, -12215.1836413364, 23978.996155142326, -3729.8355972570894, 3881.916866530999, -19962.454731757014, 54847.4928554884, -19886.659966309067, -27952.689284406817, 6331.489244877011, 17048.658972818732, -0.004176254272460937, 0.967520092010498, -0.2205070686340332, 192.0, 0.0, 0.0, 0.0, 0.0, 0.0, 0.0, 0.0, 0.0, 0.0, 1.741890891109126E9, 0.0, 2025-03-13 13:34:51.109
140.0, 44748.907655347306, 5084.306607759787, -35476.375875041, -16590.448211484934, -10170.043727164713, -23479.591128777403, -12206.041777854178, 23986.439286045945, -3729.8355972570894, 3876.5300961172697, -19961.7618276789, 54841.70375367448, -19884.22362616344, -27952.935153595827, 6334.819654800851, 17050.84944377535, -0.004088127136230468, 0.967760046005249, -0.2182535343170166, 192.0, 127.5, 112.0, 15.0, 32.0, 124.5, 32.0, 0.0, 0.0, 0.0, 1.741890891109305E9, 0.0, 2025-03-13 13:34:51.109
142.0, 44763.2127717987, 5076.483497200429, -35463.81419465711, -16596.90786563252, -10171.138962643023, -23484.03912592401, -12208.209897066343, 23984.114704622592, -3719.2632221297295, 3884.4649653989036, -19951.211804295996, 54849.19158806701, -19876.556977815268, -27949.180060527335, 6341.234605459525, 17056.526786866998, -0.004088127136230468, 0.967760046005249, -0.2182535343170166, 192.0, 0.0, 0.0, 0.0, 0.0, 0.0, 0.0, 0.0, 0.0, 0.0, 1.741890891109482E9, 0.0, 2025-03-13 13:34:51.109
144.0, 44748.81824836949, 5075.611779166673, -35467.43517725887, -16594.695042931442, -10169.887264953526, -23483.74855324609, -12208.008731366246, 23985.433457545456, -3727.8462920005672, 3870.4504216254263, -19957.67145844358, 54842.217843796956, -19882.12256218464, -27956.377322241944, 6339.222948458547, 17051.385885642278, -0.004088127136230468, 0.967760046005249, -0.2182535343170166, 192.0, 0.0, 0.0, 0.0, 0.0, 0.0, 0.0, 0.0, 0.0, 0.0, 1.741890891109643E9, 0.0, 2025-03-13 13:34:51.109
146.0, 44755.90375136182, 5072.415479709563, -35455.946380608846, -16595.5667609652, -10169.730802742339, -23485.78256199152, -12208.79104242218, 23982.4606755329, -3734.5518153371595, 3872.9538170044207, -19961.38184802316, 54836.87577687213, -19886.101172697687, -27954.924458852347, 6336.049000745893, 17047.854310018338, -0.004088127136230468, 0.967760046005249, -0.2182535343170166, 192.0, 0.0, 0.0, 0.0, 0.0, 0.0, 0.0, 0.0, 0.0, 0.0, 1.741890891109802E9, 0.0, 2025-03-13 13:34:51.109
148.0, 44741.55393142151, 5076.036462311324, -35464.596505713045, -16591.18581905196, -10171.384831832032, -23483.41327707926, -12208.455766255353, 23981.946585410427, -3718.7491320072572, 3881.5368868752585, -19951.8600048852, 54849.45980900047, -19877.160474915563, -27941.356949967976, 6343.067448504859, 17052.86110077633, -0.004088127136230468, 0.967760046005249, -0.2182535343170166, 192.0, 0.0, 0.0, 0.0, 0.0, 0.0, 0.0, 0.0, 0.0, 0.0, 1.741890891109975E9, 0.0, 2025-03-13 13:34:51.109
150.0, 44755.814344384, 5073.063680298767, -35456.8180986426, -16594.784449909264, -10169.3508230866, -23482.40744857877, -12207.025254610213, 23983.198283099926, -3724.8064547546455, 3879.8381542966554, -19959.683115444557, 54845.7941229098, -19878.12159992714, -27951.191717528312, 6341.7710473264515, 17050.782388541986, -0.005044063568115234, 0.9608800230026245, -0.21912676715850832, 192.0, 127.5, 104.0, 14.5, 104.0, 124.5, 16.0, 0.0, 0.0, 0.0, 1.741890891170418E9, 0.0, 2025-03-13 13:34:51.170
152.0, 44752.93096934926, 5084.217200781965, -35458.4721277323, -16589.822362640185, -10162.06415439417, -23476.484236298114, -12201.034987096189, 23988.78621921375, -3723.68886753188, 3874.2725699272837, -19960.13015033366, 54845.347088020695, -19876.51227432636, -27947.86130760447, 6339.848797303295, 17048.1225309518, -0.005044063568115234, 0.9608800230026245, -0.21912676715850832, 192.0, 0.0, 0.0, 0.0, 0.0, 0.0, 0.0, 0.0, 0.0, 0.0, 1.741890891170656E9, 0.0, 2025-03-13 13:34:51.170
154.0, 44762.899847376335, 5067.386337207119, -35464.797671413144, -16601.42291801249, -10177.77743074625, -23491.5940155499, -12218.201126837866, 23969.89899514902, -3711.64127727047, 3877.9382560179542, -19951.211804295996, 54840.65322168508, -19872.332498113217, -27942.2957232351, 6345.682602606131, 17053.062266476427, -0.005044063568115234, 0.9608800230026245, -0.21912676715850832, 192.0, 0.0, 0.0, 0.0, 0.0, 0.0, 0.0, 0.0, 0.0, 0.0, 1.741890891170835E9, 0.0, 2025-03-13 13:34:51.170
156.0, 44746.38190822386, 5067.274578484843, -35484.243689089264, -16599.455964500423, -10183.700643026907, -23491.348146360895, -12220.995094894779, 23966.993268369828, -3731.824902513612, 3857.866389497088, -19970.903691161122, 54837.25575652788, -19892.09144021171, -27958.90306936539, 6327.06359947486, 17034.17504241169, -0.005044063568115234, 0.9608800230026245, -0.21912676715850832, 192.0, 0.0, 0.0, 0.0, 0.0, 0.0, 0.0, 0.0, 0.0, 0.0, 1.741890891171003E9, 0.0, 2025-03-13 13:34:51.171
158.0, 44749.9134838478, 5070.917912831058, -35477.98520064178, -16596.661996443512, -10187.478087839852, -23490.96816670515, -12220.972743150323, 23965.830977658152, -3736.8316932716007, 3859.6768807979684, -19973.831769684766, 54832.38307623662, -19891.867922767153, -27953.270429762655, 6328.650573331186, 17038.064245946916, -0.005044063568115234, 0.9608800230026245, -0.21912676715850832, 192.0, 0.0, 0.0, 0.0, 0.0, 0.0, 0.0, 0.0, 0.0, 0.0, 1.741890891171168E9, 0.0, 2025-03-13 13:34:51.171
160.0, 44754.3167775055, 5078.875133857147, -35465.803499913636, -16591.208170796417, -10176.056346423191, -23487.056611425473, -12210.690940700882, 23970.726009693863, -3724.1806059098967, 3868.662282069002, -19961.627717212166, 54848.699849688994, -19889.565693088258, -27946.38609247042, 6332.472721633044, 17040.18766167017, -0.005522031784057618, 0.9584400115013123, -0.21956338357925415, 192.0, 127.5, 104.0, 14.5, 112.0, 124.5, 16.0, 0.0, 0.0, 0.0, 1.741890891171343E9, 0.0, 2025-03-13 13:34:51.171
162.0, 44753.176838538275, 5075.969407077958, -35467.34577028105, -16598.62894995558, -10179.587922047129, -23493.8962452288, -12220.41394953894, 23961.27122178927, -3718.9279459628997, 3865.9577209899094, -19957.984382865954, 54835.691134416, -19876.534626070814, -27949.85061286099, 6333.523253622443, 17039.76297852552, -0.005522031784057618, 0.9584400115013123, -0.21956338357925415, 192.0, 0.0, 0.0, 0.0, 0.0, 0.0, 0.0, 0.0, 0.0, 0.0, 1.741890891171525E9, 0.0, 2025-03-13 13:34:51.171
164.0, 44752.17101003778, 5083.926628104046, -35467.748101681245, -16592.43751674146, -10177.240988879323, -23487.50364631458, -12218.22347858232, 23968.93787013744, -3720.78314075269, 3873.5349623602588, -19961.493606745436, 54846.50937873237, -19879.239187149906, -27939.233534244722, 6335.512558878966, 17039.025370958494, -0.005522031784057618, 0.9584400115013123, -0.21956338357925415, 192.0, 0.0, 0.0, 0.0, 0.0, 0.0, 0.0, 0.0, 0.0, 0.0, 1.741890891229415E9, 0.0, 2025-03-13 13:34:51.229
166.0, 44756.0155100841, 5077.95871233448, -35471.54789823865, -16598.24897029984, -10176.033994678735, -23492.93512021722, -12214.826013425114, 23967.08267534765, -3730.796722268668, 3865.1530581895186, -19971.44013302805, 54818.770863863334, -19884.849475008188, -27948.755377382684, 6328.203538442081, 17034.689132534164, -0.005522031784057618, 0.9584400115013123, -0.21956338357925415, 192.0, 0.0, 0.0, 0.0, 0.0, 0.0, 0.0, 0.0, 0.0, 0.0, 1.741890891229628E9, 0.0, 2025-03-13 13:34:51.229
168.0, 44755.344957750436, 5078.092822801212, -35474.87830816249, -16600.975883123385, -10184.907637227492, -23494.298576628993, -12219.721045460827, 23966.725047436365, -3725.074675688109, 3871.210380936907, -19962.700600946024, 54835.422913482544, -19882.189617418007, -27949.448281460798, 6337.032477501926, 17043.763940783017, -0.005522031784057618, 0.9584400115013123, -0.21956338357925415, 192.0, 0.0, 0.0, 0.0, 0.0, 0.0, 0.0, 0.0, 0.0, 0.0, 1.741890891229797E9, 0.0, 2025-03-13 13:34:51.229
170.0, 44771.23704805816, 5098.34350327772, -35456.05813933112, -16581.32869974717, -10166.534503285231, -23474.651393252778, -12201.929056874402, 23984.27116683378, -3717.8997657179557, 3891.5281166467807, -19952.15057756312, 54825.565794177746, -19876.758143515366, -27934.830240587027, 6344.16268398317, 17055.163330455223, -0.005761015892028809, 0.9612200057506561, -0.2217816917896271, 192.0, 127.5, 104.0, 15.0, 16.0, 124.5, 0.0, 0.0, 0.0, 0.0, 1.74189089122998E9, 0.0, 2025-03-13 13:34:51.229
172.0, 44773.67338820379, 5094.29783753131, -35448.50324970523, -16580.14405729104, -10162.757058472283, -23474.49493104159, -12198.755109161748, 23983.287690077745, -3718.0338761846874, 3890.298770701739, -19952.172929307573, 54846.688192688016, -19872.086628924208, -27931.1422027519, 6351.337593953323, 17061.198301458156, -0.005761015892028809, 0.9612200057506561, -0.2217816917896271, 192.0, 0.0, 0.0, 0.0, 0.0, 0.0, 0.0, 0.0, 0.0, 0.0, 1.741890891230162E9, 0.0, 2025-03-13 13:34:51.230
174.0, 44747.454791957716, 5076.975235578446, -35469.20096507084, -16592.728089419375, -10175.564608045175, -23485.581396291425, -12212.970818635324, 23971.79889342772, -3723.7782745097015, 3884.1073374876187, -19964.131112591163, 54831.019619824845, -19872.913643469055, -27930.53870565161, 6347.470742162555, 17054.71629556612, -0.005761015892028809, 0.9612200057506561, -0.2217816917896271, 192.0, 0.0, 0.0, 0.0, 0.0, 0.0, 0.0, 0.0, 0.0, 0.0, 1.741890891230352E9, 0.0, 2025-03-13 13:34:51.230
176.0, 44747.96888208019, 5072.616645409661, -35465.13294757998, -16593.443345241947, -10179.811439491683, -23482.92153870124, -12216.502394259262, 23976.291594063234, -3730.819074013123, 3883.8614682986104, -19970.210787083004, 54829.25383201287, -19887.241111664905, -27939.747624367195, 6341.212253715069, 17051.43058913119, -0.005761015892028809, 0.9612200057506561, -0.2217816917896271, 192.0, 0.0, 0.0, 0.0, 0.0, 0.0, 0.0, 0.0, 0.0, 0.0, 1.74189089123052E9, 0.0, 2025-03-13 13:34:51.230
178.0, 44742.336242477446, 5077.779898378837, -35475.03477037368, -16590.895246374042, -10179.2526458803, -23480.55225378898, -12215.250696569765, 23979.93492840945, -3729.522672834715, 3880.2404856968506, -19971.99892663943, 54817.00507605137, -19889.65510006608, -27939.613513900462, 6334.774951311941, 17051.967030998116, -0.005761015892028809, 0.9612200057506561, -0.2217816917896271, 192.0, 0.0, 0.0, 0.0, 0.0, 0.0, 0.0, 0.0, 0.0, 0.0, 1.741890891230686E9, 0.0, 2025-03-13 13:34:51.230
180.0, 44749.33233849196, 5069.688566886016, -35480.041561131664, -16597.466659243903, -10184.550009316208, -23491.482256827625, -12220.212783838842, 23969.921346893472, -3743.4031061414607, 3880.1510787190296, -19982.213673855505, 54822.54830867628, -19895.824181535743, -27943.3462552245, 6329.6787535761305, 17049.933022252684, -0.004880507946014405, 0.962610002875328, -0.22189084589481356, 192.0, 127.5, 112.0, 15.0, 16.0, 124.5, 8.0, 0.0, 0.0, 0.0, 1.74189089128952E9, 0.0, 2025-03-13 13:34:51.289
182.0, 44746.404259968316, 5075.075337299745, -35483.68489547788, -16591.878723130074, -10181.197247647911, -23486.341355602905, -12216.971780892824, 23970.94952713842, -3726.281669888696, 3881.4027764085267, -19975.932833663563, 54813.115872516144, -19890.7950390333, -27944.888525591916, 6333.344439666801, 17048.726028052097, -0.004880507946014405, 0.962610002875328, -0.22189084589481356, 192.0, 0.0, 0.0, 0.0, 0.0, 0.0, 0.0, 0.0, 0.0, 0.0, 1.74189089128973E9, 0.0, 2025-03-13 13:34:51.289
184.0, 44763.324530520986, 5076.215276266966, -35469.133909837474, -16591.699909174433, -10180.504343569797, -23485.000250935587, -12217.910554159947, 23970.726009693863, -3726.9969257112657, 3879.2793606852724, -19969.18260683806, 54826.52691918933, -19889.476286110435, -27932.3939004414, 6334.149102467192, 17048.904842007738, -0.004880507946014405, 0.962610002875328, -0.22189084589481356, 192.0, 0.0, 0.0, 0.0, 0.0, 0.0, 0.0, 0.0, 0.0, 0.0, 1.741890891289904E9, 0.0, 2025-03-13 13:34:51.289
186.0, 44748.72884139167, 5081.087956558223, -35468.44100575936, -16586.491952716347, -10172.748288243805, -23478.83116946592, -12208.835745911092, 23975.710448707396, -3723.6441640429694, 3895.0820440151747, -19962.722952690478, 54834.931175104524, -19882.770762773845, -27934.964351053757, 6341.391067670712, 17056.57149035591, -0.004880507946014405, 0.962610002875328, -0.22189084589481356, 192.0, 0.0, 0.0, 0.0, 0.0, 0.0, 0.0, 0.0, 0.0, 0.0, 1.741890891290069E9, 0.0, 2025-03-13 13:34:51.290
188.0, 44753.9144461053, 5068.570979663251, -35458.76270041021, -16596.460830743414, -10180.481991825342, -23491.012870194063, -12219.698693716371, 23964.065189846184, -3738.1280944500086, 3883.2132677094064, -19969.94256614954, 54826.14693953359, -19889.61039657717, -27944.441490702808, 6338.7759135694405, 17046.915536751218, -0.004880507946014405, 0.962610002875328, -0.22189084589481356, 192.0, 0.0, 0.0, 0.0, 0.0, 0.0, 0.0, 0.0, 0.0, 0.0, 1.741890891290233E9, 0.0, 2025-03-13 13:34:51.290
190.0, 44739.94460582073, 5068.615683152161, -35466.071720847096, -16595.410298754014, -10182.426593592954, -23492.331623116926, -12217.955257648857, 23967.440303258933, -3730.8414257575782, 3872.864410026599, -19964.399333524627, 54813.965238805446, -19887.41992562055, -27944.53089768063, 6338.664154847164, 17044.70271405014, -0.0044402539730072025, 0.9653050014376641, -0.21994542294740677, 192.0, 127.5, 112.0, 15.0, 32.0, 124.5, 24.0, 0.0, 0.0, 0.0, 1.741890891290398E9, 0.0, 2025-03-13 13:34:51.290
192.0, 44765.93968462225, 5078.964540834969, -35446.62570317098, -16582.468638714392, -10165.618081762563, -23481.98276543412, -12201.280856285199, 23977.587995241644, -3732.0707717026203, 3889.650570112535, -19956.263298542894, 54825.67755290003, -19879.12742842763, -27941.893391834903, 6346.241396217513, 17054.38101939929, -0.0044402539730072025, 0.9653050014376641, -0.21994542294740677, 192.0, 0.0, 0.0, 0.0, 0.0, 0.0, 0.0, 0.0, 0.0, 0.0, 1.741890891290591E9, 0.0, 2025-03-13 13:34:51.290
194.0, 44742.78327736656, 5073.510715187874, -35462.786014412166, -16582.401583481023, -10170.446058564909, -23478.07121015444, -12202.465498741329, 23983.622966244577, -3721.990134953277, 3893.5174219033033, -19953.491682230437, 54833.03127682582, -19878.07689643823, -27936.260752232167, 6347.627204373742, 17058.56079561243, -0.0044402539730072025, 0.9653050014376641, -0.21994542294740677, 192.0, 0.0, 0.0, 0.0, 0.0, 0.0, 0.0, 0.0, 0.0, 0.0, 1.741890891350332E9, 0.0, 2025-03-13 13:34:51.350
196.0, 44731.83092258345, 5049.214368964955, -35469.715055193315, -16602.89813314654, -10186.248741894811, -23495.84084699641, -12219.072844871622, 23964.445169501923, -3734.2165391703297, 3882.00627350882, -19968.020316126385, 54820.64841039758, -19887.8446087652, -27942.586295913017, 6340.139369981214, 17051.09531296436, -0.0044402539730072025, 0.9653050014376641, -0.21994542294740677, 192.0, 0.0, 0.0, 0.0, 0.0, 0.0, 0.0, 0.0, 0.0, 0.0, 1.741890891350566E9, 0.0, 2025-03-13 13:34:51.350
198.0, 44715.96118402018, 5052.410668422064, -35480.80152044314, -16599.791240667255, -10182.851276737605, -23491.97399520564, -12211.540306990184, 23970.83776841614, -3748.0299172437094, 3864.393098878038, -19981.47606628848, 54808.019674780335, -19894.93011175753, -27959.238345532223, 6328.024724486438, 17035.404388356732, -0.0044402539730072025, 0.9653050014376641, -0.21994542294740677, 192.0, 0.0, 0.0, 0.0, 0.0, 0.0, 0.0, 0.0, 0.0, 0.0, 1.741890891350739E9, 0.0, 2025-03-13 13:34:51.350
200.0, 44735.1613325073, 5060.278482470332, -35458.42742424338, -16587.69894691693, -10168.881436453037, -23481.759247989565, -12201.236152796288, 23978.07973361966, -3735.3564781375503, 3872.9985204933314, -19967.819150426287, 54809.42783468102, -19880.870864495144, -27944.73206338073, 6342.978041527038, 17051.631754831287, -0.006220126986503601, 0.964652500718832, -0.2209727114737034, 192.0, 127.5, 96.0, 15.0, 16.0, 124.5, 8.0, 0.0, 0.0, 0.0, 1.741890891350915E9, 0.0, 2025-03-13 13:34:51.350
202.0, 44727.56173939249, 5061.7313458599265, -35469.156261581935, -16589.397679495534, -10178.403279590999, -23485.961375947165, -12209.863926156037, 23973.855253917605, -3741.9055392629552, 3874.876067027577, -19966.94743239253, 54822.95064007648, -19885.475323852937, -27943.994455813703, 6340.139369981214, 17046.580260584386, -0.006220126986503601, 0.964652500718832, -0.2209727114737034, 192.0, 0.0, 0.0, 0.0, 0.0, 0.0, 0.0, 0.0, 0.0, 0.0, 1.741890891351089E9, 0.0, 2025-03-13 13:34:51.351
204.0, 44750.561684437, 5073.041328554312, -35450.82783112858, -16577.104220045116, -10170.334299842632, -23479.74759098859, -12207.27112379922, 23977.65505047501, -3732.271937402718, 3885.135517732563, -19958.990211366443, 54812.80294809377, -19880.245015650395, -27939.43469994482, 6344.296794449901, 17050.60357458634, -0.006220126986503601, 0.964652500718832, -0.2209727114737034, 192.0, 0.0, 0.0, 0.0, 0.0, 0.0, 0.0, 0.0, 0.0, 0.0, 1.741890891351261E9, 0.0, 2025-03-13 13:34:51.351
206.0, 44750.18170478126, 5080.596218180206, -35447.609179927014, -16580.65814741351, -10167.58503527463, -23486.22959688063, -12203.627789453005, 23974.615213229088, -3719.9337744633885, 3890.656398613024, -19944.126301303662, 54832.47248321444, -19868.666812022544, -27936.685435376818, 6353.930396310138, 17056.504435122544, -0.006220126986503601, 0.964652500718832, -0.2209727114737034, 192.0, 0.0, 0.0, 0.0, 0.0, 0.0, 0.0, 0.0, 0.0, 0.0, 1.741890891351431E9, 0.0, 2025-03-13 13:34:51.351
208.0, 44747.499495446624, 5077.109346045178, -35447.36331073801, -16586.983691094363, -10172.323605099155, -23492.510437072568, -12207.315827288132, 23972.13416959455, -3727.1533879224526, 3883.5038403873255, -19949.84834788422, 54817.40740745156, -19878.36746911615, -27951.10231055049, 6344.609718872276, 17044.27803090549, -0.006220126986503601, 0.964652500718832, -0.2209727114737034, 192.0, 0.0, 0.0, 0.0, 0.0, 0.0, 0.0, 0.0, 0.0, 0.0, 1.741890891351597E9, 0.0, 2025-03-13 13:34:51.351
210.0, 44771.840545158455, 5097.985875366435, -35431.538275663646, -16570.577510664167, -10161.214788104868, -23477.02067816504, -12195.469402726818, 23983.26533833329, -3725.7452280217685, 3896.937238804965, -19938.068978556275, 54843.96127986447, -19874.61237604766, -27939.18883075581, 6355.003280043993, 17053.53165310999, -0.008110063493251801, 0.965326250359416, -0.2204863557368517, 192.0, 127.5, 88.0, 15.0, 24.0, 124.5, 16.0, 0.0, 0.0, 0.0, 1.74189089141107E9, 0.0, 2025-03-13 13:34:51.411
212.0, 44774.634513215366, 5092.822622397259, -35432.90173207542, -16573.61734791009, -10168.43440156393, -23484.35205034638, -12204.544210975673, 23974.190530084437, -3706.1874516233747, 3910.7953203672555, -19924.590876649723, 54845.66001244307, -19868.197425388986, -27929.10819400647, 6362.558169669887, 17062.025316003004, -0.008110063493251801, 0.965326250359416, -0.2204863557368517, 192.0, 0.0, 0.0, 0.0, 0.0, 0.0, 0.0, 0.0, 0.0, 0.0, 1.741890891411263E9, 0.0, 2025-03-13 13:34:51.411
214.0, 44759.90471361932, 5069.7109186304715, -35449.0173398277, -16589.308272517716, -10184.25943663829, -23500.42295460975, -12221.665647228438, 23959.55013746621, -3717.3856755954835, 3886.9236572889877, -19936.7055221445, 54846.129399076635, -19876.624033048636, -27945.424967458843, 6350.711745108574, 17047.228461173592, -0.008110063493251801, 0.965326250359416, -0.2204863557368517, 192.0, 0.0, 0.0, 0.0, 0.0, 0.0, 0.0, 0.0, 0.0, 0.0, 1.741890891411441E9, 0.0, 2025-03-13 13:34:51.411
216.0, 44768.130155578874, 5083.479593214941, -35444.256418258716, -16578.490028201348, -10178.649148780007, -23483.74855324609, -12217.240001826287, 23971.396562027523, -3724.02414369871, 3883.682654342968, -19948.954278106008, 54822.52595693183, -19880.73675402841, -27951.10231055049, 6339.4464659031, 17042.244022160055, -0.008110063493251801, 0.965326250359416, -0.2204863557368517, 192.0, 0.0, 0.0, 0.0, 0.0, 0.0, 0.0, 0.0, 0.0, 0.0, 1.741890891411615E9, 0.0, 2025-03-13 13:34:51.411
218.0, 44774.32158879299, 5085.871229871658, -35443.407051969414, -16572.611519409602, -10179.923198213959, -23471.65625949577, -12219.542231505184, 23977.52094000828, -3705.405140567439, 3907.3084482322274, -19932.682208142545, 54845.81647465426, -19870.052620178776, -27926.47068816074, 6353.796285843407, 17061.3771154138, -0.008110063493251801, 0.965326250359416, -0.2204863557368517, 192.0, 0.0, 0.0, 0.0, 0.0, 0.0, 0.0, 0.0, 0.0, 0.0, 1.741890891411801E9, 0.0, 2025-03-13 13:34:51.411
220.0, 44764.30800727702, 5082.898447859103, -35452.05717707362, -16573.19266476544, -10185.39937560551, -23469.756361217067, -12220.950391405868, 23978.146788853024, -3715.150501149953, 3908.9624773219202, -19945.89208911563, 54829.92438434654, -19875.6405562926, -27926.113060249456, 6348.610681129776, 17060.70656308014, -0.0080550317466259, 0.9616631251797081, -0.22424317786842585, 192.0, 127.5, 96.0, 14.5, 120.0, 124.0, 112.0, 0.0, 0.0, 0.0, 1.74189089141197E9, 0.0, 2025-03-13 13:34:51.411
222.0, 44772.17582132528, 5079.076299557245, -35442.84825835803, -16576.880702600563, -10178.090355168624, -23477.42300956524, -12218.93873440489, 23973.31881205068, -3713.585879038081, 3907.48726218787, -19944.260411770396, 54838.082771072724, -19876.244053392897, -27923.609664870462, 6346.9343002956275, 17057.599670600852, -0.0080550317466259, 0.9616631251797081, -0.22424317786842585, 192.0, 0.0, 0.0, 0.0, 0.0, 0.0, 0.0, 0.0, 0.0, 0.0, 1.741890891412151E9, 0.0, 2025-03-13 13:34:51.412
224.0, 44755.09908856143, 5068.213351751966, -35459.90263937743, -16588.74947890633, -10182.180724403945, -23490.5434835605, -12220.838632683592, 23960.69007643343, -3719.9784779522993, 3898.9935992948535, -19949.736589161945, 54824.291744743794, -19876.98166095992, -27935.254923731678, 6342.240433960013, 17046.401446628744, -0.0080550317466259, 0.9616631251797081, -0.22424317786842585, 192.0, 0.0, 0.0, 0.0, 0.0, 0.0, 0.0, 0.0, 0.0, 0.0, 1.741890891412315E9, 0.0, 2025-03-13 13:34:51.412
226.0, 44768.37602476788, 5069.532104674829, -35454.337055008065, -16589.80001089573, -10178.313872613176, -23493.806838250977, -12218.335237304598, 23959.617192699578, -3729.634431556992, 3887.9294857894765, -19958.02908635486, 54825.074055799734, -19886.481152353426, -27950.521165194652, 6335.981945512527, 17035.60555405683, -0.0080550317466259, 0.9616631251797081, -0.22424317786842585, 192.0, 0.0, 0.0, 0.0, 0.0, 0.0, 0.0, 0.0, 0.0, 0.0, 1.741890891469988E9, 0.0, 2025-03-13 13:34:51.469
228.0, 44757.37896649587, 5075.723537888949, -35455.387586997465, -16589.263569028804, -10171.2507213653, -23487.615405036857, -12207.137013332489, 23971.329506794158, -3730.908480990944, 3896.490203915859, -19956.75503692091, 54818.68145688552, -19878.859207494166, -27946.922534337347, 6343.067448504859, 17042.579298326888, -0.0080550317466259, 0.9616631251797081, -0.22424317786842585, 192.0, 0.0, 0.0, 0.0, 0.0, 0.0, 0.0, 0.0, 0.0, 0.0, 1.741890891470169E9, 0.0, 2025-03-13 13:34:51.470
