%OpenBCI Raw EXG Data
%Number of channels = 16
%Sample Rate = 125 Hz
%Board = OpenBCI_GUI$BoardCytonSerialDaisy
Sample Index, EXG Channel 0, EXG Channel 1, EXG Channel 2, EXG Channel 3, EXG Channel 4, EXG Channel 5, EXG Channel 6, EXG Channel 7, EXG Channel 8, EXG Channel 9, EXG Channel 10, EXG Channel 11, EXG Channel 12, EXG Channel 13, EXG Channel 14, EXG Channel 15, Accel Channel 0, Accel Channel 1, Accel Channel 2, Not Used, Digital Channel 0 (D11), Digital Channel 1 (D12), Digital Channel 2 (D13), Digital Channel 3 (D17), Not Used, Digital Channel 4 (D18), Analog Channel 0, Analog Channel 1, Analog Channel 2, Timestamp, Marker Channel, Timestamp (Formatted)
196.0, -22210.280264649424, -7734.418837358813, -29217.127468243536, -24698.431753925295, -11282.870028361087, -18079.94611024214, -13290.660177547954, -9047.539120619193, -23014.74189934038, -25360.043389802384, -28090.577195951606, -6311.238564400503, -26187.840245704683, -19079.49377053902, -28819.422879150257, -24264.60674579224, 0.0, 0.0, 0.0, 192.0, 0.0, 0.0, 0.0, 0.0, 0.0, 0.0, 0.0, 0.0, 0.0, 1.74162904396281E9, 0.0, 2025-03-10 12:50:43.962
198.0, -22222.52902061093, -7733.7482850251545, -29215.987529276317, -24682.98669850668, -11285.775755140276, -18104.39891867625, -13292.314206637646, -9056.904501545967, -23001.084983478187, -25338.518659891924, -28074.103960288045, -6296.173488637625, -26125.63534088556, -19137.854175311826, -28794.925367227243, -24252.045065408358, 0.0, 0.0, 0.0, 192.0, 0.0, 0.0, 0.0, 0.0, 0.0, 0.0, 0.0, 0.0, 0.0, 1.74162904396323E9, 0.0, 2025-03-10 12:50:43.963
200.0, -22228.45223289159, -7750.936776511286, -29221.55311364569, -24703.438544683286, -11286.222790029382, -18106.25411346604, -13296.605741573065, -9062.246568470784, -23016.574742385717, -25356.243593244984, -28099.428486755907, -6317.273535403435, -26190.298937594765, -19237.408845115762, -28830.732861844645, -24260.94105970157, 0.024, 1.006, 0.156, 192.0, 0.0, 96.0, 15.5, 56.0, 2.0, 112.0, 0.0, 0.0, 0.0, 1.741629043963638E9, 0.0, 2025-03-10 12:50:43.963
202.0, -22219.19861068709, -7736.385790870881, -29199.246072679292, -24698.18588473629, -11274.912807334997, -18092.15016271474, -13273.874017462018, -9037.369076892028, -23002.090811978676, -25353.7849013549, -28086.017440082724, -6311.05975044486, -26130.664483388005, -19145.87845157128, -28795.014774205065, -24250.65925725213, 0.024, 1.006, 0.156, 192.0, 0.0, 0.0, 0.0, 0.0, 0.0, 0.0, 0.0, 0.0, 0.0, 1.741629043964048E9, 0.0, 2025-03-10 12:50:43.964
204.0, -22220.11503220976, -7733.681229791789, -29201.861226780562, -24698.834085325492, -11269.168409009982, -18079.186150930662, -13264.821560957618, -9032.205823922852, -23007.768155070324, -25343.34663669427, -28099.853169900558, -6313.741959779497, -26149.439948730465, -19141.005771280023, -28816.450097137702, -24255.286068354377, 0.024, 1.006, 0.156, 192.0, 0.0, 0.0, 0.0, 0.0, 0.0, 0.0, 0.0, 0.0, 0.0, 1.741629043964951E9, 0.0, 2025-03-10 12:50:43.964
206.0, -22223.870125278252, -7736.855177504442, -29208.63380535052, -24698.78938183658, -11269.458981687902, -18081.82365677639, -13290.190790914392, -9053.238815455295, -23004.41539340203, -25349.560421652845, -28098.802637911158, -6309.048093443882, -26130.910352577015, -19100.616169049285, -28782.78836998801, -24252.961486931024, 0.024, 1.006, 0.156, 192.0, 0.0, 0.0, 0.0, 0.0, 0.0, 0.0, 0.0, 0.0, 0.0, 1.741629043965234E9, 0.0, 2025-03-10 12:50:43.965
208.0, -22228.854564291785, -7746.801703787054, -29214.02057576425, -24694.095515500965, -11278.80201087022, -18097.894561039753, -13298.48328810731, -9052.344745677085, -23011.992634772378, -25347.191136740585, -28111.99016713979, -6311.707951034064, -26160.906393636036, -19230.300990378975, -28818.52880937205, -24257.208318377536, 0.024, 1.006, 0.156, 192.0, 0.0, 0.0, 0.0, 0.0, 0.0, 0.0, 0.0, 0.0, 0.0, 1.741629043965519E9, 0.0, 2025-03-10 12:50:43.965
210.0, -22217.321064152846, -7742.957203740741, -29209.25965419527, -24699.75050684816, -11281.618330671588, -18089.713822569112, -13287.307415879657, -9063.341803949095, -23008.59516961517, -25348.129910007705, -28097.729754177304, -6303.996599196983, -26129.278675231777, -19166.106780303333, -28792.287861381516, -24258.90705095614, 0.016, 1.01, 0.16, 192.0, 0.0, 64.0, 15.5, 72.0, 2.5, 0.0, 0.0, 0.0, 0.0, 1.741629043965785E9, 0.0, 2025-03-10 12:50:43.965
212.0, -22226.73114856853, -7748.634546832389, -29221.17313398995, -24710.74756512017, -11285.060499317706, -18110.232723979083, -13298.237418918303, -9064.168818493941, -23016.910018552546, -25365.005477071463, -28117.779268953716, -6323.666134317653, -26161.21931805841, -19134.188489221156, -28831.112841500384, -24279.135379688192, 0.016, 1.01, 0.16, 192.0, 0.0, 0.0, 0.0, 0.0, 0.0, 0.0, 0.0, 0.0, 0.0, 1.741629043966053E9, 0.0, 2025-03-10 12:50:43.966
0.0, -10937.602631759957, -4894.093262445123, -14449.53107232226, -12429.291001473786, -5535.655383545803, -9430.223337438505, -2943.9035587195826, -4326.76128468052, -11505.806327558319, -12682.871542319244, -14052.318221606998, -3160.559017724874, -13067.25449171716, -9581.70110961212, -14396.780955407734, -12142.87574802348, 0.005, 1.013, 0.157, 192.0, 127.5, 104.0, 15.5, 96.0, 2.0, 104.0, 0.0, 0.0, 0.0, 1.741629044134115E9, 0.0, 2025-03-10 12:50:44.134
2.0, -21869.572623917178, -9787.024234178572, -28893.653022486335, -24864.125235572486, -11072.51776129219, -18878.328070441257, -5911.03057992823, -8686.647854643805, -22920.19402029443, -25113.704814160446, -27077.79730293719, -4535.638336615364, -26114.146544235533, -19567.67822118738, -28447.31103745831, -24921.45746010035, 0.005, 1.013, 0.157, 192.0, 0.0, 0.0, 0.0, 0.0, 0.0, 0.0, 0.0, 0.0, 0.0, 1.74162904413443E9, 0.0, 2025-03-10 12:50:44.134
4.0, -21882.268414767794, -9795.115565671393, -28905.67826100329, -24870.45077925334, -11037.693743430824, -18785.165999551537, -5856.425268223914, -8698.337816993931, -22925.15610756351, -25119.583322952192, -27083.07231462864, -4543.796723341551, -26091.72774454686, -19370.915814747314, -28396.796094989313, -24924.31848339063, 0.005, 1.013, 0.157, 192.0, 0.0, 0.0, 0.0, 0.0, 0.0, 0.0, 0.0, 0.0, 0.0, 1.741629044134706E9, 0.0, 2025-03-10 12:50:44.134
6.0, -21875.98757457585, -9796.121394171882, -28902.99605166865, -24863.03000009418, -11050.411886025893, -18804.187334083002, -5929.694286548411, -8683.898590075802, -22926.34075001964, -25118.10810781814, -27093.398820566992, -4549.451714688744, -26142.376797482586, -19699.732327429334, -28453.23424973896, -24928.252390414764, 0.005, 1.013, 0.157, 192.0, 0.0, 0.0, 0.0, 0.0, 0.0, 0.0, 0.0, 0.0, 0.0, 1.741629044134968E9, 0.0, 2025-03-10 12:50:44.134
8.0, -21870.66785939549, -9789.639388279842, -28891.373144551893, -24868.237956552264, -11054.099923861018, -18778.974566337416, -5817.2426601937605, -8649.655717570271, -22919.97050284988, -25128.814593412233, -27078.31139305966, -4542.4779704186885, -26061.262316854278, -19597.026061657198, -28400.57353980226, -24921.189239166884, -0.016, 1.014, 0.152, 192.0, 127.5, 64.0, 15.5, 88.0, 2.0, 96.0, 0.0, 0.0, 0.0, 1.741629044135248E9, 0.0, 2025-03-10 12:50:44.135
10.0, -21891.47733348338, -9804.659760553808, -28910.170961638807, -24885.292337571664, -11069.85790370201, -18846.566241570265, -5873.122021332028, -8698.784851883036, -22924.44085174094, -25127.853468400655, -27092.996489166795, -4551.888054834372, -26105.988157509346, -19520.24781945322, -28442.57246763378, -24932.566277094636, -0.016, 1.014, 0.152, 192.0, 0.0, 0.0, 0.0, 0.0, 0.0, 0.0, 0.0, 0.0, 0.0, 1.741629044135518E9, 0.0, 2025-03-10 12:50:44.135
12.0, -21877.552196687724, -9785.213742877691, -28892.89306317485, -24876.217529322807, -11037.783150408644, -18826.53907853831, -5774.103793395018, -8699.991846083623, -22927.10070933112, -25133.240238814386, -27091.87890194403, -4549.4070111998335, -26074.762770505284, -19499.639511065427, -28413.403441119608, -24951.431149414915, -0.016, 1.014, 0.152, 192.0, 0.0, 0.0, 0.0, 0.0, 0.0, 0.0, 0.0, 0.0, 0.0, 1.741629044135756E9, 0.0, 2025-03-10 12:50:44.135
14.0, -21896.350013774638, -9796.009635449605, -28897.497522532645, -24884.465323026816, -11040.800635910111, -18768.469246443423, -5851.351422232559, -8676.254293472088, -22921.848049384123, -25120.455040985948, -27095.477532801335, -4545.249586731146, -26090.587805579642, -19628.899649250467, -28431.888333784143, -24947.69840809088, -0.016, 1.014, 0.152, 192.0, 0.0, 0.0, 0.0, 0.0, 0.0, 0.0, 0.0, 0.0, 0.0, 1.74162904413603E9, 0.0, 2025-03-10 12:50:44.136
16.0, -21877.84276936564, -9795.808469749507, -28882.991240381154, -24885.58291024958, -11041.381781265949, -18833.71398850846, -5766.817124702588, -8681.685767374727, -22923.524430218273, -25134.1343085926, -27092.616509511055, -4545.406048942334, -26062.312848843678, -19591.9745674103, -28403.881597981646, -24944.770329567236, -0.016, 1.014, 0.152, 192.0, 0.0, 0.0, 0.0, 0.0, 0.0, 0.0, 0.0, 0.0, 0.0, 1.741629044194781E9, 0.0, 2025-03-10 12:50:44.194
18.0, -21896.75234517483, -9796.993112205639, -28887.305127061027, -24876.39634327845, -11071.869560702988, -18812.748052209387, -5844.735305873788, -8672.85682831488, -22914.02493882477, -25132.614389969636, -27091.677736243935, -4544.869607075406, -26055.58497376263, -19521.208944464797, -28440.24788621043, -24941.104643476563, -0.036000000000000004, 1.018, 0.148, 192.0, 127.0, 112.0, 15.5, 104.0, 2.0, 80.0, 0.0, 0.0, 0.0, 1.741629044195105E9, 0.0, 2025-03-10 12:50:44.195
20.0, -21896.70764168592, -9790.354644102412, -28895.932900420776, -24879.39147703546, -11037.023191097163, -18816.43609004451, -5779.043528919641, -8683.67507263125, -22923.34561626263, -25126.7805846668, -27099.232625869827, -4541.114514006915, -26059.96591567587, -19525.925162544867, -28413.112868441687, -24935.11437596254, -0.036000000000000004, 1.018, 0.148, 192.0, 0.0, 0.0, 0.0, 0.0, 0.0, 0.0, 0.0, 0.0, 0.0, 1.741629044195388E9, 0.0, 2025-03-10 12:50:44.195
22.0, -21878.535673443756, -9779.31288234149, -28887.37218229439, -24869.467302497305, -11025.065007813575, -18822.694578491995, -5879.335806290604, -8668.319424190453, -22910.649825412016, -25124.45600324345, -27100.640785770513, -4543.28263321908, -26118.281616959768, -19614.59453279907, -28438.48209839846, -24943.518631877738, -0.036000000000000004, 1.018, 0.148, 192.0, 0.0, 0.0, 0.0, 0.0, 0.0, 0.0, 0.0, 0.0, 0.0, 1.741629044195657E9, 0.0, 2025-03-10 12:50:44.195
24.0, -21857.14505400003, -9773.50142878311, -28877.559766478513, -24867.947383874343, -11037.313763775082, -18844.956915969484, -5802.691674553356, -8686.714909877172, -22895.76356360478, -25107.759250135336, -27080.12188436054, -4531.257394702125, -26038.932924143428, -19508.1555257029, -28397.645461278615, -24922.530343834205, -0.036000000000000004, 1.018, 0.148, 192.0, 0.0, 0.0, 0.0, 0.0, 0.0, 0.0, 0.0, 0.0, 0.0, 1.741629044195902E9, 0.0, 2025-03-10 12:50:44.195
26.0, -21862.576527902667, -9764.560731000987, -28884.377048537383, -24859.364314003506, -11050.61305172599, -18834.25043037539, -5879.425213268425, -8665.637214855817, -22886.331127444642, -25110.329700747694, -27077.10439885907, -4530.318621435002, -26073.287555371233, -19593.40507905544, -28422.14297320163, -24916.964759464834, -0.036000000000000004, 1.018, 0.148, 192.0, 0.0, 0.0, 0.0, 0.0, 0.0, 0.0, 0.0, 0.0, 0.0, 1.741629044196201E9, 0.0, 2025-03-10 12:50:44.196
28.0, -21847.913783539985, -9754.368335529369, -28870.206042552716, -24844.902735340922, -11019.27590599965, -18829.310694850767, -5816.147424715451, -8650.080400714922, -22879.8491215526, -25103.91475008902, -27068.767198177244, -4523.724856820686, -26080.574224063665, -19453.885490165412, -28403.434563092538, -24903.576064536104, -0.02, 1.016, 0.146, 192.0, 127.5, 48.0, 15.5, 96.0, 2.0, 72.0, 0.0, 0.0, 0.0, 1.741629044196468E9, 0.0, 2025-03-10 12:50:44.196
30.0, -21879.29563275524, -9789.706443513209, -28901.29731909005, -24859.185500047864, -11075.311729349105, -18856.579823086242, -5903.878021702531, -8694.225096014154, -22885.19118847742, -25116.49878221736, -27077.864358170555, -4533.403162169834, -26080.01543045228, -19603.172791382407, -28413.20227541951, -24912.673224529415, -0.02, 1.016, 0.146, 192.0, 0.0, 0.0, 0.0, 0.0, 0.0, 0.0, 0.0, 0.0, 0.0, 1.741629044253473E9, 0.0, 2025-03-10 12:50:44.253
32.0, -21882.402525234524, -9788.253580123614, -28893.653022486335, -24869.288488541664, -11040.733580676744, -18828.282514605824, -5813.4205118919035, -8653.209644938666, -22909.24166551133, -25143.007951141353, -27094.427000811935, -4558.727688637697, -26103.64122434154, -19549.796825623136, -28422.81352553529, -24919.60226531056, -0.02, 1.016, 0.146, 192.0, 0.0, 0.0, 0.0, 0.0, 0.0, 0.0, 0.0, 0.0, 0.0, 1.741629044253769E9, 0.0, 2025-03-10 12:50:44.253
34.0, -21889.040993337752, -9790.13112665786, -28893.76478120861, -24869.266136797207, -11048.28847030264, -18888.319300212777, -5857.676965913412, -8674.264988215566, -22900.658595640492, -25126.132384077595, -27082.558224506167, -4545.227234986691, -26095.281671915254, -19543.739502875746, -28405.96031021599, -24918.797602510167, -0.02, 1.016, 0.146, 192.0, 0.0, 0.0, 0.0, 0.0, 0.0, 0.0, 0.0, 0.0, 0.0, 1.741629044254019E9, 0.0, 2025-03-10 12:50:44.254
36.0, -21901.155638832526, -9813.55575484702, -28892.401324796836, -24889.136837617974, -11035.503272474203, -18859.507901609886, -5833.090047012573, -8675.00259578259, -22912.125040546067, -25137.77764293881, -27094.941090934408, -4557.364232225923, -26057.596630763608, -19638.287381921695, -28420.37718538966, -24945.351474923074, -0.02, 1.016, 0.146, 192.0, 0.0, 0.0, 0.0, 0.0, 0.0, 0.0, 0.0, 0.0, 0.0, 1.741629044254283E9, 0.0, 2025-03-10 12:50:44.254
38.0, -21907.637644724568, -9793.573295303977, -28896.156417865328, -24881.53724450317, -11042.029981855152, -18796.14070607909, -5845.741134374277, -8657.85880778537, -22911.96857833488, -25131.474451002414, -27095.924567690443, -4551.619833900909, -26059.273011597757, -19501.874685510957, -28399.81358049078, -24941.79754755468, -0.05, 1.006, 0.14, 192.0, 127.0, 56.0, 15.5, 56.0, 2.0, 48.0, 0.0, 0.0, 0.0, 1.74162904425455E9, 0.0, 2025-03-10 12:50:44.254
40.0, -21910.38690929257, -9791.449879580723, -28894.43533354227, -24879.547939246648, -11033.022228839664, -18827.09787214969, -5801.57408733059, -8669.90639804678, -22902.71495613038, -25121.55027646426, -27095.20931186787, -4541.025107029093, -26081.468293841877, -19522.751214832213, -28417.89614175512, -24948.972457524833, -0.05, 1.006, 0.14, 192.0, 0.0, 0.0, 0.0, 0.0, 0.0, 0.0, 0.0, 0.0, 0.0, 1.741629044254826E9, 0.0, 2025-03-10 12:50:44.254
42.0, -21925.831964711186, -9803.050434953027, -28915.378918096892, -24901.273834857206, -11075.445839815837, -18853.271764906858, -5797.796642517644, -8697.53315419354, -22916.997720837324, -25138.60465748366, -27111.615492298068, -4556.80543861454, -26045.236116079825, -19588.64415748646, -28405.20035090451, -24982.99181258581, -0.05, 1.006, 0.14, 192.0, 0.0, 0.0, 0.0, 0.0, 0.0, 0.0, 0.0, 0.0, 0.0, 1.74162904425507E9, 0.0, 2025-03-10 12:50:44.255
44.0, -21899.881589398574, -9784.02910042156, -28903.711307491223, -24888.332174817584, -11058.994955896731, -18873.902425039105, -5812.861718280521, -8670.28637770252, -22907.38647072154, -25121.751442164357, -27113.247169643306, -4551.932758323283, -25981.176016470912, -19497.024356964157, -28438.10211874272, -24980.063734062165, -0.05, 1.006, 0.14, 192.0, 0.0, 0.0, 0.0, 0.0, 0.0, 0.0, 0.0, 0.0, 0.0, 1.74162904425534E9, 0.0, 2025-03-10 12:50:44.255
46.0, -21914.63374073908, -9779.178771874758, -28931.874505504908, -24895.909416187933, -11082.19606664134, -18894.93541657155, -5814.202822947839, -8683.183334253232, -22901.19503750742, -25113.615407182624, -27121.49496334731, -4548.378830954889, -25990.47434216432, -19584.285567317675, -28403.993356703922, -24971.190091513407, -0.05, 1.006, 0.14, 192.0, 0.0, 0.0, 0.0, 0.0, 0.0, 0.0, 0.0, 0.0, 0.0, 1.741629044313735E9, 0.0, 2025-03-10 12:50:44.313
48.0, -21886.828170636676, -9771.847399693419, -28934.82493577301, -24905.31950060362, -11070.260235102205, -18832.93167745253, -5837.113361014529, -8674.466153915662, -22893.416630436976, -25126.087680588687, -27139.152841467007, -4570.641168432376, -26032.92030488495, -19503.86399076748, -28449.00977003691, -24972.978231069832, -0.05, 1.008, 0.134, 192.0, 127.0, 56.0, 15.5, 64.0, 2.0, 24.0, 0.0, 0.0, 0.0, 1.741629044314048E9, 0.0, 2025-03-10 12:50:44.314
50.0, -21884.771810146787, -9766.773553702064, -28949.152403968863, -24898.412811566926, -11097.059976704119, -18803.852057916174, -5748.712211693789, -8668.453534657185, -22866.19220569041, -25130.20040156846, -27126.144126194016, -4576.787898157585, -25983.299432194166, -19530.999008536222, -28402.24992063641, -24941.55167836567, -0.05, 1.008, 0.134, 192.0, 0.0, 0.0, 0.0, 0.0, 0.0, 0.0, 0.0, 0.0, 0.0, 1.741629044314337E9, 0.0, 2025-03-10 12:50:44.314
52.0, -21891.410278250012, -9774.909588683795, -28959.858889562955, -24899.575102278603, -11076.272854360683, -18946.165614863112, -5801.57408733059, -8675.471982416151, -22868.785008047227, -25139.07404411722, -27145.56779212568, -4608.080340395015, -25985.24403396178, -19554.9153751034, -28444.047682767832, -24910.572160550615, -0.05, 1.008, 0.134, 192.0, 0.0, 0.0, 0.0, 0.0, 0.0, 0.0, 0.0, 0.0, 0.0, 1.74162904431461E9, 0.0, 2025-03-10 12:50:44.314
54.0, -21877.79806587673, -9762.683184466743, -28957.534308139602, -24905.83359072609, -11092.790793513155, -18859.798474287807, -5744.018345358175, -8713.537003223539, -22883.604214621093, -25166.03024793032, -27171.13818778255, -4640.266852410657, -26016.022386076736, -19513.43053739435, -28415.705670798503, -24917.25533214275, -0.05, 1.008, 0.134, 192.0, 0.0, 0.0, 0.0, 0.0, 0.0, 0.0, 0.0, 0.0, 0.0, 1.741629044314858E9, 0.0, 2025-03-10 12:50:44.314
56.0, -21853.255850464804, -9725.623992159843, -28930.376938626403, -24879.659697968924, -11087.269912632693, -18743.390589164566, -5822.5176718852135, -8614.138795630788, -22841.0911966671, -25124.277189287805, -27134.816603042676, -4619.412674833855, -25982.919452538426, -19565.085418830564, -28422.277083668363, -24871.9706978763, -0.05, 1.008, 0.134, 192.0, 0.0, 0.0, 0.0, 0.0, 0.0, 0.0, 0.0, 0.0, 0.0, 1.741629044315106E9, 0.0, 2025-03-10 12:50:44.315
58.0, -21879.27328101078, -9748.892158137818, -28958.383674428904, -24889.986203907276, -11041.940574877332, -18968.38324885169, -5778.462383563803, -8687.050186044, -22856.71506604136, -25134.581343481703, -27144.09257699163, -4630.67795403933, -25971.207138443846, -19519.130232230455, -28386.447237306507, -24876.932785145378, -0.024, 1.018, 0.116, 192.0, 127.5, 32.0, 15.5, 104.0, 1.5, 80.0, 0.0, 0.0, 0.0, 1.741629044315378E9, 0.0, 2025-03-10 12:50:44.315
60.0, -21899.90394114303, -9750.903815138796, -28968.754883856167, -24887.907491672933, -11066.080458889062, -18933.335713545766, -5902.35810307957, -8627.840414981893, -22874.887034283525, -25155.368465825137, -27169.551213926225, -4658.751745075196, -26006.880522594514, -19568.661697943415, -28436.44808965303, -24904.380727336495, -0.024, 1.018, 0.116, 192.0, 0.0, 0.0, 0.0, 0.0, 0.0, 0.0, 0.0, 0.0, 0.0, 1.741629044376054E9, 0.0, 2025-03-10 12:50:44.376
62.0, -21872.545405929734, -9723.12059678085, -28930.086365948486, -24869.757875175226, -11028.194252037318, -18857.58565158673, -5785.90551446742, -8616.396321820775, -22857.497377097294, -25132.167355080528, -27143.69024559143, -4627.101674926481, -25960.500652849754, -19467.05066764959, -28374.623164489647, -24871.188386820366, -0.024, 1.018, 0.116, 192.0, 0.0, 0.0, 0.0, 0.0, 0.0, 0.0, 0.0, 0.0, 0.0, 1.741629044376378E9, 0.0, 2025-03-10 12:50:44.376
64.0, -21883.274243268283, -9735.838739375919, -28948.303037679558, -24879.324421802095, -11095.897685992442, -18887.11230601219, -5881.861553414054, -8675.941369049713, -22836.933772198412, -25115.6270641836, -27134.83895478713, -4613.3330003420115, -25954.376274869, -19556.01061058171, -28407.81550500578, -24901.139724390476, -0.024, 1.018, 0.116, 192.0, 0.0, 0.0, 0.0, 0.0, 0.0, 0.0, 0.0, 0.0, 0.0, 1.741629044376621E9, 0.0, 2025-03-10 12:50:44.376
66.0, -21890.225635793882, -9760.492713510122, -28955.656761605354, -24881.179616591886, -11053.272909316172, -18902.64676840863, -5798.467194851303, -8649.47690361463, -22856.268031152253, -25134.55899173725, -27147.713559593387, -4619.591488789498, -25954.510385335732, -19606.145573394966, -28391.074048408755, -24913.83551524109, -0.024, 1.018, 0.116, 192.0, 0.0, 0.0, 0.0, 0.0, 0.0, 0.0, 0.0, 0.0, 0.0, 1.741629044376892E9, 0.0, 2025-03-10 12:50:44.376
68.0, -21875.540539686746, -9749.40624826029, -28957.19903197277, -24868.081494341077, -11087.42637484388, -18877.29989019631, -5865.656538683956, -8667.693575345704, -22865.499301612297, -25149.579364011213, -27157.302457964714, -4638.076381454037, -25990.85432182006, -19491.65993829488, -28416.935016743544, -24903.374898836006, -0.016, 1.02, 0.124, 192.0, 127.5, 64.0, 15.5, 112.0, 1.5, 112.0, 0.0, 0.0, 0.0, 1.741629044377155E9, 0.0, 2025-03-10 12:50:44.377
70.0, -21854.820472576677, -9753.675431451253, -28947.699540579266, -24850.66948541039, -11070.90843569141, -18832.328180352233, -5778.015348674697, -8628.488615571096, -22838.788966988202, -25139.185802839496, -27121.226742413848, -4617.311610855057, -25957.930202237392, -19557.150549548933, -28379.47349303645, -24871.478959498283, -0.016, 1.02, 0.124, 192.0, 0.0, 0.0, 0.0, 0.0, 0.0, 0.0, 0.0, 0.0, 0.0, 1.74162904437745E9, 0.0, 2025-03-10 12:50:44.377
72.0, -21875.071153053184, -9770.238074092636, -28982.74707588519, -24841.929953328367, -11105.240715174761, -18973.32298437631, -5836.912195314431, -8654.729563561626, -22850.613039805063, -25148.618238999636, -27127.686396561432, -4645.765381546662, -25959.628934815995, -19553.507215202717, -28403.501618325907, -24857.44206398035, -0.016, 1.02, 0.124, 192.0, 0.0, 0.0, 0.0, 0.0, 0.0, 0.0, 0.0, 0.0, 0.0, 1.741629044377719E9, 0.0, 2025-03-10 12:50:44.377
74.0, -21877.529844943267, -9790.064071424493, -28998.952090615287, -24863.275869283185, -11092.075537690585, -18914.180268547567, -5747.639327959934, -8651.175636193233, -22867.890938269014, -25167.97484969793, -27138.839917044632, -4663.244445710712, -26017.47524946633, -19522.192421220832, -28404.9544817155, -24868.416770507905, -0.016, 1.02, 0.124, 192.0, 0.0, 0.0, 0.0, 0.0, 0.0, 0.0, 0.0, 0.0, 0.0, 1.741629044377984E9, 0.0, 2025-03-10 12:50:44.377
76.0, -21898.67459519799, -9793.059205181504, -29009.233893064727, -24848.411959220408, -11080.564389296102, -18956.40271382364, -5812.705256069334, -8658.28349093002, -22860.55956608767, -25171.908756722067, -27128.289893661728, -4659.735221831229, -25989.602624130563, -19527.646246867927, -28403.635728792637, -24861.443026237852, -0.016, 1.02, 0.124, 192.0, 0.0, 0.0, 0.0, 0.0, 0.0, 0.0, 0.0, 0.0, 0.0, 1.741629044435013E9, 0.0, 2025-03-10 12:50:44.435
78.0, -21879.630908922067, -9781.525705042566, -28980.154273528373, -24830.508211911707, -11051.440066270838, -18831.81409022976, -5749.785095427644, -8621.1348916453, -22856.2456794078, -25153.937954179997, -27102.093649160106, -4637.696401798296, -25966.155644196948, -19643.584745357603, -28390.33644084173, -24861.845357638045, -0.02, 0.994, 0.138, 192.0, 127.5, 48.0, 15.5, 8.0, 2.0, 40.0, 0.0, 0.0, 0.0, 1.741629044435299E9, 0.0, 2025-03-10 12:50:44.435
80.0, -21904.866028412107, -9787.672434767775, -28990.234910277715, -24831.402281689916, -11101.060938961618, -18917.98006510497, -5817.890860782964, -8641.162054677256, -22845.9415252139, -25133.30729404775, -27093.287061844716, -4619.457378322766, -25976.37039141302, -19541.303162730117, -28383.362696571672, -24848.233145264763, -0.02, 0.994, 0.138, 192.0, 0.0, 0.0, 0.0, 0.0, 0.0, 0.0, 0.0, 0.0, 0.0, 1.741629044435602E9, 0.0, 2025-03-10 12:50:44.435
82.0, -21916.019548895307, -9807.789004777553, -28987.93268059882, -24849.350732487528, -11085.8170492431, -18975.200530910555, -5797.796642517644, -8670.576950380439, -22867.33214465763, -25144.192593597483, -27116.152896422496, -4634.008363963171, -25947.80486199914, -19453.70667620977, -28399.299490368307, -24865.175767561886, -0.02, 0.994, 0.138, 192.0, 0.0, 0.0, 0.0, 0.0, 0.0, 0.0, 0.0, 0.0, 0.0, 1.741629044435854E9, 0.0, 2025-03-10 12:50:44.435
84.0, -21939.511232317833, -9804.4138913648, -29002.237797050217, -24845.886212096957, -11138.611869646535, -18911.60981793521, -5847.573977419613, -8657.881159529825, -22880.407915163985, -25171.97581195543, -27135.911838520988, -4646.927672258338, -25988.32857469661, -19550.959116334812, -28395.969080444465, -24880.509064258225, -0.02, 0.994, 0.138, 192.0, 0.0, 0.0, 0.0, 0.0, 0.0, 0.0, 0.0, 0.0, 0.0, 1.741629044436122E9, 0.0, 2025-03-10 12:50:44.436
86.0, -21891.23146429437, -9775.870713695373, -28954.248601704672, -24816.33720592704, -11086.554656810124, -18830.405930329078, -5806.312657155116, -8609.243763595077, -22860.783083532227, -25130.60273296866, -27127.28406516124, -4615.344657342989, -25963.585193584586, -19628.40791087245, -28405.245054393417, -24850.423616221386, -0.02, 0.994, 0.138, 192.0, 0.0, 0.0, 0.0, 0.0, 0.0, 0.0, 0.0, 0.0, 0.0, 1.741629044436378E9, 0.0, 2025-03-10 12:50:44.436
88.0, -21922.881534443088, -9805.218554165192, -28983.417628218845, -24835.269133480684, -11107.05120647564, -18884.094820510723, -5842.813055850632, -8638.971583720635, -22863.24177542231, -25141.778605196312, -27134.995416998318, -4619.300916111579, -25929.096451890047, -19548.053389555622, -28369.169338842552, -24840.030055049665, -0.024, 1.008, 0.14, 192.0, 127.5, 32.0, 15.5, 64.0, 2.0, 48.0, 0.0, 0.0, 0.0, 1.741629044436638E9, 0.0, 2025-03-10 12:50:44.436
90.0, -21931.174031636005, -9839.3720196929, -28998.30389002608, -24865.68985768436, -11128.53123289719, -18962.057705170835, -5860.090954314584, -8687.228999999643, -22892.81313333668, -25173.11575092265, -27165.013809801796, -4653.677899083841, -25973.911699522938, -19505.62977857945, -28424.311092413795, -24865.801616406636, -0.024, 1.008, 0.14, 192.0, 0.0, 0.0, 0.0, 0.0, 0.0, 0.0, 0.0, 0.0, 0.0, 1.741629044493251E9, 0.0, 2025-03-10 12:50:44.493
92.0, -21928.402415323548, -9825.603345108431, -28996.426343491836, -24847.473185953284, -11126.050189262653, -18901.59623641923, -5826.719799842811, -8633.070723184434, -22908.526409688762, -25196.40626864508, -27175.206205273415, -4673.682710371341, -26002.231359747813, -19549.64036341195, -28401.981699702945, -24865.511043728715, -0.024, 1.008, 0.14, 192.0, 0.0, 0.0, 0.0, 0.0, 0.0, 0.0, 0.0, 0.0, 0.0, 1.741629044493549E9, 0.0, 2025-03-10 12:50:44.493
94.0, -21931.822232225208, -9854.079467544492, -28994.83936963551, -24850.758892388214, -11127.234831718783, -18946.255021840934, -5857.140524046484, -8638.90452848727, -22906.224180009864, -25187.89025400761, -27170.534690682256, -4682.981036064749, -26010.926188340927, -19522.125365987464, -28430.25665643891, -24845.796805119135, -0.024, 1.008, 0.14, 192.0, 0.0, 0.0, 0.0, 0.0, 0.0, 0.0, 0.0, 0.0, 0.0, 1.741629044493823E9, 0.0, 2025-03-10 12:50:44.493
96.0, -21942.506366074846, -9876.587674210987, -29009.27859655364, -24853.82108137859, -11143.976288315807, -18929.446510010544, -5821.444788151359, -8647.554653591473, -22934.454433256917, -25216.634597377135, -27182.738743154856, -4715.480472502765, -26002.857208592563, -19633.50410860826, -28393.018650176367, -24848.300200498128, -0.024, 1.008, 0.14, 192.0, 0.0, 0.0, 0.0, 0.0, 0.0, 0.0, 0.0, 0.0, 0.0, 1.741629044494082E9, 0.0, 2025-03-10 12:50:44.494
98.0, -21931.017569424817, -9890.825735429018, -29005.054116851585, -24857.553822702626, -11143.462198193336, -18985.012946726438, -5859.241588025283, -8649.119275703344, -22942.031674627266, -25216.32167295476, -27188.930176368976, -4727.371600552989, -26003.81833360414, -19602.45753555984, -28435.174040219074, -24841.594677161538, -0.004, 1.02, 0.146, 192.0, 127.5, 112.0, 15.5, 112.0, 2.0, 72.0, 0.0, 0.0, 0.0, 1.741629044494334E9, 0.0, 2025-03-10 12:50:44.494
100.0, -21950.977677223407, -9910.785843227606, -29024.7013002278, -24876.329288045086, -11143.104570282052, -18998.42399339962, -5802.423453619892, -8651.890892015803, -22951.0170758983, -25226.089385281728, -27195.993327616852, -4744.761257739217, -25988.596795630074, -19602.859866960032, -28403.792191003824, -24857.978505847277, -0.004, 1.02, 0.146, 192.0, 0.0, 0.0, 0.0, 0.0, 0.0, 0.0, 0.0, 0.0, 0.0, 1.741629044494616E9, 0.0, 2025-03-10 12:50:44.494
102.0, -21987.3886689411, -9946.615689589464, -29015.69354721231, -24875.010535122223, -11128.173604985906, -18968.874987229705, -5828.686753354878, -8654.595453094895, -22984.25411990334, -25244.08253956825, -27220.088508139674, -4762.575598070097, -26046.398406791497, -19533.658866126403, -28441.499583899928, -24867.366238518505, -0.004, 1.02, 0.146, 192.0, 0.0, 0.0, 0.0, 0.0, 0.0, 0.0, 0.0, 0.0, 0.0, 1.741629044494881E9, 0.0, 2025-03-10 12:50:44.494
104.0, -21981.688974105, -9926.812044002061, -29003.802419162086, -24849.68600865436, -11117.891802536466, -18952.111178888223, -5747.415810515382, -8628.220394637632, -22989.752649039347, -25233.84544060772, -27202.028298619785, -4737.519292535698, -25984.4840746503, -19571.366259022507, -28383.742676227415, -24848.25549700922, -0.004, 1.02, 0.146, 192.0, 0.0, 0.0, 0.0, 0.0, 0.0, 0.0, 0.0, 0.0, 0.0, 1.741629044495138E9, 0.0, 2025-03-10 12:50:44.495
106.0, -21993.423639944034, -9935.752741784185, -29005.92583488534, -24857.39736049144, -11150.30183199666, -18984.38709788169, -5840.86845408302, -8703.702235663204, -22996.949910753956, -25209.839667062723, -27213.76296445882, -4739.955632681326, -25997.895121323483, -19500.04184246562, -28427.127412215166, -24839.71713062729, -0.004, 1.02, 0.146, 192.0, 0.0, 0.0, 0.0, 0.0, 0.0, 0.0, 0.0, 0.0, 0.0, 1.741629044553569E9, 0.0, 2025-03-10 12:50:44.553
108.0, -22005.02419531634, -9927.192023657803, -29015.291215812114, -24846.377950474973, -11151.486474452791, -18922.1151378292, -5731.635478929935, -8606.94153391618, -23010.919751038524, -25220.99318754592, -27224.804726219743, -4750.483304319776, -25922.815611698104, -19646.535175625704, -28391.074048408755, -24852.50232845573, -0.01, 1.044, 0.146, 192.0, 127.5, 88.0, 16.0, 80.0, 2.0, 72.0, 0.0, 0.0, 0.0, 1.741629044553842E9, 0.0, 2025-03-10 12:50:44.553
110.0, -21984.92997705102, -9906.404901314367, -29003.86947439545, -24826.99898803222, -11105.486584363769, -18914.381434247665, -5796.679055294879, -8575.246760278555, -23008.908094037546, -25206.777478072345, -27233.924237957508, -4764.810772515628, -25972.838815789084, -19503.506362856195, -28422.701766813014, -24793.89605449391, -0.01, 1.044, 0.146, 192.0, 0.0, 0.0, 0.0, 0.0, 0.0, 0.0, 0.0, 0.0, 0.0, 1.741629044554126E9, 0.0, 2025-03-10 12:50:44.554
112.0, -21974.715229834943, -9899.431157044311, -29007.6469192084, -24810.883380279945, -11088.38749985546, -18914.470841225488, -5675.443193369293, -8578.443059735664, -22982.711849535925, -25158.9894484269, -27201.53656024177, -4729.874995931983, -25942.552202052142, -19432.047835832578, -28348.873954877134, -24771.56666178306, -0.01, 1.044, 0.146, 192.0, 0.0, 0.0, 0.0, 0.0, 0.0, 0.0, 0.0, 0.0, 0.0, 1.74162904455439E9, 0.0, 2025-03-10 12:50:44.554
114.0, -21976.458665902457, -9898.872363432929, -29023.89663742741, -24801.987385986733, -11122.026875260697, -18935.302667057833, -5748.287528549138, -8617.983295677102, -22989.663242061528, -25176.580271313225, -27211.728955713388, -4739.84387395905, -25974.783417556697, -19636.566297598638, -28381.32868782624, -24779.18860664232, -0.01, 1.044, 0.146, 192.0, 0.0, 0.0, 0.0, 0.0, 0.0, 0.0, 0.0, 0.0, 0.0, 1.741629044554639E9, 0.0, 2025-03-10 12:50:44.554
116.0, -21955.49272960338, -9877.90642713385, -29017.32522455755, -24779.9485659538, -11086.778174254678, -18939.683608971074, -5643.323736587016, -8568.764754386515, -22976.25219538834, -25172.668716033546, -27194.09342933815, -4722.208347583813, -25973.107036722547, -19510.18953444833, -28352.159661312064, -24771.76782748316, -0.01, 1.044, 0.146, 192.0, 0.0, 0.0, 0.0, 0.0, 0.0, 0.0, 0.0, 0.0, 0.0, 1.741629044554908E9, 0.0, 2025-03-10 12:50:44.554
118.0, -21952.139967935083, -9859.019203069116, -29022.98021590474, -24760.457844788772, -11098.781061027177, -18943.03637063937, -5705.618048383957, -8577.280769023988, -22959.242517857852, -25164.800901985276, -27176.94964134093, -4715.793396925139, -25998.85624633506, -19508.222580936264, -28354.97598111343, -24751.338333051008, 0.006, 1.012, 0.154, 192.0, 0.0, 24.0, 15.5, 80.0, 2.0, 104.0, 0.0, 0.0, 0.0, 1.741629044555163E9, 0.0, 2025-03-10 12:50:44.555
120.0, -21942.19344165247, -9828.196147465247, -29004.11534358446, -24747.963219638255, -11078.172752639384, -18944.422178795598, -5603.694093667757, -8590.781222674994, -22931.72752043337, -25156.620163514635, -27150.820452072676, -4692.905210602905, -25986.786304329195, -19505.786240790636, -28328.46681218944, -24750.287801061608, 0.006, 1.012, 0.154, 192.0, 0.0, 0.0, 0.0, 0.0, 0.0, 0.0, 0.0, 0.0, 0.0, 1.741629044616733E9, 0.0, 2025-03-10 12:50:44.616
122.0, -21963.002915740362, -9807.051397210527, -28991.39720098939, -24742.71055969126, -11113.689674578867, -18878.17160823007, -5670.570513078036, -8575.067946322912, -22912.706185901905, -25135.520116748827, -27143.243210702327, -4671.44753592581, -25974.828121045604, -19384.460971887227, -28343.911867608058, -24740.073053845532, 0.006, 1.012, 0.154, 192.0, 0.0, 0.0, 0.0, 0.0, 0.0, 0.0, 0.0, 0.0, 0.0, 1.741629044617025E9, 0.0, 2025-03-10 12:50:44.617
124.0, -21945.143871920573, -9767.689975224732, -28946.313732423037, -24747.47148126024, -11086.71111902131, -18947.819643952804, -5590.394805716849, -8634.389476107297, -22901.776182863257, -25128.814593412233, -27139.152841467007, -4659.243483453212, -25941.926353207393, -19528.49561315723, -28351.176184556032, -24749.14786209439, 0.006, 1.012, 0.154, 192.0, 0.0, 0.0, 0.0, 0.0, 0.0, 0.0, 0.0, 0.0, 0.0, 1.741629044617296E9, 0.0, 2025-03-10 12:50:44.617
126.0, -21941.76875850782, -9722.40534095828, -28923.067918189518, -24720.93996059179, -11099.786889527666, -18836.552660054287, -5624.078884610997, -8511.54428858093, -22874.171778460954, -25109.145058291564, -27123.19369592592, -4639.618651821453, -25935.75727173773, -19424.537649695594, -28341.967265840445, -24736.273257288132, 0.006, 1.012, 0.154, 192.0, 0.0, 0.0, 0.0, 0.0, 0.0, 0.0, 0.0, 0.0, 0.0, 1.741629044617561E9, 0.0, 2025-03-10 12:50:44.617
128.0, -21921.85335419814, -9681.859276516352, -28903.286624346572, -24728.450146728774, -11100.993883728253, -18870.951994771003, -5580.068299778498, -8606.069815882423, -22847.841423492602, -25077.852616054133, -27104.03825092772, -4604.839337448995, -25923.866143687505, -19487.077830681545, -28325.7846028548, -24722.59398968148, -0.018000000000000002, 1.008, 0.168, 192.0, 127.5, 56.0, 15.5, 64.0, 2.5, 32.0, 0.0, 0.0, 0.0, 1.741629044617817E9, 0.0, 2025-03-10 12:50:44.617
130.0, -21914.656092483532, -9632.037238125473, -28891.06022012952, -24711.082841287, -11117.891802536466, -18889.950977558015, -5686.194382452296, -8607.477975783107, -22819.588818501095, -25061.938174001956, -27094.427000811935, -4594.266962321635, -25962.400551128456, -19402.40942268484, -28333.60771341416, -24775.925251951845, -0.018000000000000002, 1.008, 0.168, 192.0, 0.0, 0.0, 0.0, 0.0, 0.0, 0.0, 0.0, 0.0, 0.0, 1.741629044618101E9, 0.0, 2025-03-10 12:50:44.618
132.0, -21863.694115125432, -9576.671967109676, -28845.909696329796, -24682.56201536203, -11087.24756088824, -18836.82088098775, -5672.068079956542, -8531.303230679421, -22770.16911151041, -25019.782783959246, -27045.566087432635, -4550.770467611607, -25936.98661768277, -19382.06933523051, -28294.447457128463, -24735.021559598634, -0.018000000000000002, 1.008, 0.168, 192.0, 0.0, 0.0, 0.0, 0.0, 0.0, 0.0, 0.0, 0.0, 0.0, 1.741629044618356E9, 0.0, 2025-03-10 12:50:44.618
134.0, -21871.338411729146, -9558.567054100879, -28869.7143041747, -24685.40068690785, -11100.122165694496, -18863.39710514511, -5726.539281194125, -8554.549044912941, -22739.83779428456, -25016.31826356867, -27026.008311034242, -4536.510054649121, -25954.890364991472, -19405.493963419674, -28272.430988839984, -24714.2344372552, -0.018000000000000002, 1.008, 0.168, 192.0, 0.0, 0.0, 0.0, 0.0, 0.0, 0.0, 0.0, 0.0, 0.0, 1.741629044618625E9, 0.0, 2025-03-10 12:50:44.618
136.0, -21864.09644652563, -9533.51074856648, -28883.080647358973, -24692.061506755534, -11098.848116260544, -18861.318392910765, -5682.88632427291, -8574.710318411628, -22719.430651596864, -25018.307568825196, -26999.320328154605, -4534.766618581608, -25955.65032430295, -19448.07403660703, -28289.194797181466, -24726.818469383536, -0.018000000000000002, 1.008, 0.168, 192.0, 0.0, 0.0, 0.0, 0.0, 0.0, 0.0, 0.0, 0.0, 0.0, 1.741629044676454E9, 0.0, 2025-03-10 12:50:44.676
138.0, -21874.75822863081, -9500.92190515064, -28901.81140921252, -24692.016803266622, -11134.499148666759, -18859.418494632067, -5680.673501571835, -8597.978484389601, -22693.457924539798, -25011.825562933158, -26959.645981746435, -4527.457598144722, -25967.51910060872, -19358.711762274714, -28267.155977148534, -24730.819431641037, -0.014, 0.964, 0.186, 192.0, 127.5, 72.0, 15.0, 16.0, 2.5, 104.0, 0.0, 0.0, 0.0, 1.741629044676774E9, 0.0, 2025-03-10 12:50:44.676
140.0, -21862.263603480293, -9444.751971334455, -28847.966056819685, -24701.248073726663, -11116.930677524886, -18813.463308031955, -5716.346885722504, -8628.935650460202, -22672.58139521854, -25000.113248838574, -26941.89869664892, -4525.356534165923, -25979.611394359043, -19421.095481049477, -28323.75059410937, -24748.678475460827, -0.014, 0.964, 0.186, 192.0, 0.0, 0.0, 0.0, 0.0, 0.0, 0.0, 0.0, 0.0, 0.0, 1.741629044677049E9, 0.0, 2025-03-10 12:50:44.677
142.0, -21877.90982459901, -9393.924104443086, -28804.55896908748, -24691.055678255045, -11152.49230295328, -18728.124347701592, -5751.886159406443, -8600.66069372424, -22649.022656562647, -24967.70321937838, -26900.12328626195, -4495.829879740462, -25911.393870281445, -19332.627276495372, -28278.287145887276, -24740.45303350127, -0.014, 0.964, 0.186, 192.0, 0.0, 0.0, 0.0, 0.0, 0.0, 0.0, 0.0, 0.0, 0.0, 1.741629044677293E9, 0.0, 2025-03-10 12:50:44.677
144.0, -21883.788333390756, -9348.371249243171, -28772.908898938764, -24699.99637603717, -11179.046175366186, -18862.391276644623, -5819.00844800573, -8647.509950102562, -22635.253981978178, -24971.50301593578, -26901.062059529075, -4486.263333113591, -25904.241312055747, -19404.868114574925, -28321.60482664166, -24738.687245689303, -0.014, 0.964, 0.186, 192.0, 0.0, 0.0, 0.0, 0.0, 0.0, 0.0, 0.0, 0.0, 0.0, 1.741629044677557E9, 0.0, 2025-03-10 12:50:44.677
146.0, -21882.76015314581, -9262.428791812516, -28717.700090134156, -24665.820558765005, -11184.231780079816, -18812.97156965394, -5773.500296294725, -8577.727803913094, -22612.701071822772, -24946.245544701284, -26893.7977425811, -4486.620961024876, -25890.807913638106, -19364.947898977745, -28285.998497724355, -24749.818414428046, -0.014, 0.964, 0.186, 192.0, 0.0, 0.0, 0.0, 0.0, 0.0, 0.0, 0.0, 0.0, 0.0, 1.741629044677821E9, 0.0, 2025-03-10 12:50:44.677
148.0, -21883.587167690657, -9217.747654646357, -28684.463046129116, -24694.90017830136, -11218.631114796533, -18803.91911314954, -5791.269933136694, -8654.640156583806, -22579.329917351, -24914.77428850821, -26878.307983673574, -4504.3235426334795, -25837.409596134377, -19317.271628054576, -28299.096619975167, -24747.627943471427, -0.09, 0.9380000000000001, 0.22, 192.0, 126.5, 24.0, 14.5, 40.0, 3.0, 112.0, 0.0, 0.0, 0.0, 1.741629044678082E9, 0.0, 2025-03-10 12:50:44.678
150.0, -21897.82522890869, -9197.094642769653, -28653.997618436533, -24703.483248172197, -11268.274339231772, -18736.126272216592, -5731.814292885577, -8624.37589459132, -22601.86047576195, -24940.188221953897, -26902.872550829954, -4530.743304579652, -25831.888715253917, -19295.81395337748, -28280.11998893261, -24778.406295586385, -0.09, 0.9380000000000001, 0.22, 192.0, 0.0, 0.0, 0.0, 0.0, 0.0, 0.0, 0.0, 0.0, 0.0, 1.741629044678401E9, 0.0, 2025-03-10 12:50:44.678
152.0, -21874.80293211972, -9157.822627761678, -28577.822873332843, -24680.416247894318, -11270.911845077497, -18841.91707872356, -5784.407947588915, -8626.812234736948, -22597.256016404157, -24916.8306489981, -26909.265149744173, -4512.951315993228, -25839.130680457438, -19373.173340937297, -28328.623274400627, -24758.55794651007, -0.09, 0.9380000000000001, 0.22, 192.0, 0.0, 0.0, 0.0, 0.0, 0.0, 0.0, 0.0, 0.0, 0.0, 1.741629044735261E9, 0.0, 2025-03-10 12:50:44.735
154.0, -21879.94383334444, -9151.295918380729, -28556.544012611394, -24694.944881790267, -11292.19070579895, -18802.130973593114, -5733.825949886555, -8609.444929295174, -22592.428039601808, -24918.64114029898, -26901.486742673726, -4489.750205248619, -25796.505903781166, -19406.56684715353, -28284.724448290403, -24763.989420412712, -0.09, 0.9380000000000001, 0.22, 192.0, 0.0, 0.0, 0.0, 0.0, 0.0, 0.0, 0.0, 0.0, 0.0, 1.741629044735536E9, 0.0, 2025-03-10 12:50:44.735
156.0, -21852.786463831242, -9117.99181914232, -28540.629570559213, -24666.915794243312, -11291.52015346529, -18769.251557499356, -5812.325276413593, -8600.861859424336, -22593.925606480316, -24919.64696879947, -26903.587806652526, -4472.740527718131, -25854.620439364964, -19395.83800981498, -28335.21703901494, -24750.466615017252, -0.09, 0.9380000000000001, 0.22, 192.0, 0.0, 0.0, 0.0, 0.0, 0.0, 0.0, 0.0, 0.0, 0.0, 1.741629044735805E9, 0.0, 2025-03-10 12:50:44.735
158.0, -21850.171309729973, -9128.452435547404, -28572.27964070793, -24684.9760037632, -11271.18006601096, -18839.994828700404, -5727.679220161345, -8644.648926812282, -22594.350289624967, -24924.474945601814, -26883.6947540873, -4447.661870439276, -25850.21714570727, -19380.21414044072, -28287.78663728078, -24744.1410713364, -0.088, 0.934, 0.246, 192.0, 126.5, 32.0, 14.5, 24.0, 3.5, 88.0, 0.0, 0.0, 0.0, 1.741629044736068E9, 0.0, 2025-03-10 12:50:44.736
160.0, -21856.988591788842, -9121.456339532893, -28580.683896623123, -24687.144122975365, -11273.392888712036, -18827.947238438992, -5800.81412801911, -8691.922866335257, -22601.301682150566, -24946.558469123658, -26889.617966367958, -4456.714326943676, -25901.246178298734, -19414.077033290512, -28329.89732383458, -24756.859213931468, -0.088, 0.934, 0.246, 192.0, 0.0, 0.0, 0.0, 0.0, 0.0, 0.0, 0.0, 0.0, 0.0, 1.741629044736359E9, 0.0, 2025-03-10 12:50:44.736
162.0, -21852.920574297976, -9101.607990456581, -28562.869556292244, -24674.582442591483, -11260.831208328153, -18827.611962272164, -5690.463565643259, -8657.85880778537, -22602.151048439868, -24940.389387653995, -26885.61700411046, -4436.664812167265, -25875.474616941767, -19448.27520230713, -28299.40954439754, -24750.868946417446, -0.088, 0.934, 0.246, 192.0, 0.0, 0.0, 0.0, 0.0, 0.0, 0.0, 0.0, 0.0, 0.0, 1.741629044736609E9, 0.0, 2025-03-10 12:50:44.736
164.0, -21862.330658713658, -9093.85193513059, -28556.007570744467, -24680.528006616594, -11264.027507785262, -18801.952159637473, -5741.246729045717, -8668.81116256847, -22600.34055713899, -24932.32040790563, -26896.07762051554, -4423.678448638731, -25887.253986269712, -19386.740849821672, -28317.93914055099, -24746.733873693214, -0.088, 0.934, 0.246, 192.0, 0.0, 0.0, 0.0, 0.0, 0.0, 0.0, 0.0, 0.0, 0.0, 1.741629044736853E9, 0.0, 2025-03-10 12:50:44.736
166.0, -21847.354989928604, -9070.293196474695, -28532.717053022036, -24663.853605252934, -11253.969222780373, -18787.3341187637, -5635.947660916765, -8654.774267050538, -22588.360022110945, -24921.882143245002, -26897.12815250494, -4407.808710075464, -25857.772035333164, -19429.36562649794, -28295.810913540237, -24743.98460912521, -0.088, 0.934, 0.246, 192.0, 0.0, 0.0, 0.0, 0.0, 0.0, 0.0, 0.0, 0.0, 0.0, 1.74162904479584E9, 0.0, 2025-03-10 12:50:44.795
168.0, -21870.779618117765, -9079.211542512363, -28547.335093895806, -24673.08487571298, -11274.644586401533, -18821.666398247053, -5723.030057314641, -8696.080290803944, -22588.628243044408, -24911.220361139818, -26904.7500973642, -4401.997256517084, -25845.05389273809, -19403.54936165206, -28315.100469005167, -24733.479289231218, -0.098, 0.9480000000000001, 0.252, 192.0, 126.0, 120.0, 14.5, 80.0, 3.5, 112.0, 0.0, 0.0, 0.0, 1.741629044796125E9, 0.0, 2025-03-10 12:50:44.796
170.0, -21872.72421988538, -9092.577885696637, -28554.97939049952, -24699.12465800341, -11263.066382773684, -18839.86071823367, -5653.963166947743, -8675.740203349615, -22604.65444381886, -24930.196992182377, -26918.8540481155, -4413.642515378298, -25837.856631023486, -19449.862176163457, -28314.74284109388, -24761.79894945609, -0.098, 0.9480000000000001, 0.252, 192.0, 0.0, 0.0, 0.0, 0.0, 0.0, 0.0, 0.0, 0.0, 0.0, 1.741629044796411E9, 0.0, 2025-03-10 12:50:44.796
172.0, -21887.27520552578, -9100.311589278173, -28558.063931234352, -24697.31416670253, -11279.629025415066, -18818.58185751222, -5724.929955593343, -8672.633310870327, -22618.71369108125, -24958.069617518144, -26940.42348151487, -4432.708553398676, -25890.91967236038, -19454.80191168808, -28334.90411459257, -24763.676495990338, -0.098, 0.9480000000000001, 0.252, 192.0, 0.0, 0.0, 0.0, 0.0, 0.0, 0.0, 0.0, 0.0, 0.0, 1.741629044796657E9, 0.0, 2025-03-10 12:50:44.796
174.0, -21863.492949425334, -9076.752850622279, -28536.293332134883, -24687.88173054239, -11264.98863279684, -18860.469026621464, -5670.011719466654, -8676.947197550202, -22614.869191034937, -24947.206669712865, -26936.71309193529, -4416.548242157489, -25873.798236107617, -19382.873998030904, -28323.437669686995, -24752.321809807043, -0.098, 0.9480000000000001, 0.252, 192.0, 0.0, 0.0, 0.0, 0.0, 0.0, 0.0, 0.0, 0.0, 0.0, 1.741629044796936E9, 0.0, 2025-03-10 12:50:44.796
176.0, -21861.950679057918, -9073.735365120812, -28531.21948614353, -24690.161608476832, -11271.80591485571, -18845.538061325322, -5712.815310098566, -8695.275628003554, -22603.29098740709, -24951.520556392737, -26933.09210933353, -4410.4685676656445, -25855.670971354364, -19464.32375482604, -28310.585416625192, -24744.699864947783, -0.098, 0.9480000000000001, 0.252, 192.0, 0.0, 0.0, 0.0, 0.0, 0.0, 0.0, 0.0, 0.0, 0.0, 1.741629044797196E9, 0.0, 2025-03-10 12:50:44.797
178.0, -21842.549364870712, -9063.677080115924, -28523.843410473277, -24679.41041939383, -11267.067345031184, -18811.47400277543, -5652.197379135773, -8673.460325415173, -22593.38916461339, -24943.22805919982, -26932.510963977693, -4400.946724527684, -25857.950849288805, -19390.428887656795, -28315.346338194173, -24737.256734044164, -0.088, 0.966, 0.256, 192.0, 126.5, 32.0, 15.0, 24.0, 4.0, 0.0, 0.0, 0.0, 0.0, 1.741629044797459E9, 0.0, 2025-03-10 12:50:44.797
180.0, -21853.300553953715, -9079.859743101566, -28539.824907758823, -24685.087762485477, -11271.51534217779, -18813.19508709849, -5696.275019201639, -8700.81886062847, -22598.95474898276, -24948.100739491078, -26942.18926932684, -4391.335474411902, -25845.88090728294, -19513.989331005734, -28310.048974758265, -24731.26646653014, -0.088, 0.966, 0.256, 192.0, 0.0, 0.0, 0.0, 0.0, 0.0, 0.0, 0.0, 0.0, 0.0, 1.741629044797739E9, 0.0, 2025-03-10 12:50:44.797
182.0, -21845.455091649903, -9088.018129827755, -28538.50615483596, -24688.753448576146, -11239.172367950961, -18836.686770521017, -5659.998137950675, -8640.200929665676, -22603.134525195903, -24960.37184719704, -26950.8617461755, -4397.593962859388, -25874.669954141376, -19440.362684769952, -28323.683538876005, -24727.13139380591, -0.088, 0.966, 0.256, 192.0, 0.0, 0.0, 0.0, 0.0, 0.0, 0.0, 0.0, 0.0, 0.0, 1.741629044856325E9, 0.0, 2025-03-10 12:50:44.856
184.0, -21860.74368485733, -9085.090051304109, -28548.720902052035, -24683.16551246232, -11258.886606560542, -18830.093005906703, -5667.284806643106, -8695.409738470285, -22598.842990260484, -24952.03464651521, -26944.066815861086, -4391.804861045463, -25885.689364157843, -19416.066338547033, -28286.467884357917, -24736.340312521497, -0.088, 0.966, 0.256, 192.0, 0.0, 0.0, 0.0, 0.0, 0.0, 0.0, 0.0, 0.0, 0.0, 1.741629044856594E9, 0.0, 2025-03-10 12:50:44.856
186.0, -21847.153824228506, -9079.502115190282, -28540.9871984705, -24687.546454375562, -11235.730199304844, -18829.265991361855, -5660.69104202879, -8662.016232254056, -22591.84689424597, -24949.821823814134, -26933.583847711547, -4393.458890135156, -25846.238535194225, -19434.841803889492, -28322.454192930963, -24738.2402108002, -0.088, 0.966, 0.256, 192.0, 0.0, 0.0, 0.0, 0.0, 0.0, 0.0, 0.0, 0.0, 0.0, 1.741629044856849E9, 0.0, 2025-03-10 12:50:44.856
188.0, -21878.580376932667, -9095.70712992038, -28563.04837024789, -24696.55420739105, -11254.282147202748, -18796.855961901663, -5669.810553766555, -8651.130932704322, -22596.47370534822, -24964.55162341018, -26937.495402991226, -4395.068215735939, -25865.304573214602, -19444.207184816263, -28295.766210051326, -24743.068187602545, -0.08600000000000001, 0.962, 0.248, 192.0, 126.5, 40.0, 15.0, 8.0, 3.5, 96.0, 0.0, 0.0, 0.0, 1.741629044857127E9, 0.0, 2025-03-10 12:50:44.857
190.0, -21858.28499296725, -9068.527408662727, -28532.538239066394, -24680.01391649412, -11200.749719232288, -18814.782060954818, -5662.233312396206, -8665.547807877994, -22597.61364431544, -24952.16875698194, -26947.844260674032, -4385.904000509262, -25883.230672267757, -19351.2686313711, -28323.460021431452, -24739.60366721197, -0.08600000000000001, 0.962, 0.248, 192.0, 0.0, 0.0, 0.0, 0.0, 0.0, 0.0, 0.0, 0.0, 0.0, 1.741629044857397E9, 0.0, 2025-03-10 12:50:44.857
192.0, -21872.858330352108, -9086.900542604988, -28552.185422442606, -24694.69901260126, -11254.304498947204, -18814.737357465907, -5665.787239764601, -8667.38065092333, -22598.261844904646, -24956.057960517166, -26950.437063030848, -4388.586209843899, -25841.34350315851, -19492.643415050916, -28286.93727099148, -24742.50939399116, -0.08600000000000001, 0.962, 0.248, 192.0, 0.0, 0.0, 0.0, 0.0, 0.0, 0.0, 0.0, 0.0, 0.0, 1.741629044857659E9, 0.0, 2025-03-10 12:50:44.857
194.0, -21859.13435925655, -9071.254321486274, -28535.041634445388, -24692.016803266622, -11214.74191126131, -18855.238718418925, -5710.222507741751, -8673.549732392996, -22595.80315301456, -24957.667286117947, -26958.684856734857, -4399.672675093731, -25875.519320430678, -19442.50845223766, -28344.33655075271, -24746.309190548563, -0.08600000000000001, 0.962, 0.248, 192.0, 0.0, 0.0, 0.0, 0.0, 0.0, 0.0, 0.0, 0.0, 0.0, 1.741629044857916E9, 0.0, 2025-03-10 12:50:44.857
196.0, -21874.065324552696, -9068.415649940449, -28543.110614193753, -24686.965309019724, -11233.89735625951, -18778.259310514844, -5641.602652263958, -8666.1960084672, -22598.91004549385, -24958.18137624042, -26962.90933643691, -4395.448195391678, -25881.151960033414, -19397.827315071503, -28287.518416347317, -24740.833013157015, -0.08600000000000001, 0.962, 0.248, 192.0, 0.0, 0.0, 0.0, 0.0, 0.0, 0.0, 0.0, 0.0, 0.0, 1.741629044920359E9, 0.0, 2025-03-10 12:50:44.920
198.0, -21866.666897137988, -9085.358272237572, -28541.478936848514, -24704.399669694863, -11233.785597537231, -18802.734470693405, -5707.786167596122, -8704.596305441417, -22594.551455325065, -24944.61386735605, -26969.458397562314, -4392.073081978927, -25850.64182885192, -19467.497702538694, -28332.668940147036, -24731.624094441428, -0.074, 0.99, 0.248, 192.0, 126.5, 88.0, 15.0, 120.0, 3.5, 96.0, 0.0, 0.0, 0.0, 1.741629044920657E9, 0.0, 2025-03-10 12:50:44.920
200.0, -21878.938004843953, -9103.843164902111, -28555.85110853328, -24712.222780254222, -11249.32005993367, -18836.798529243297, -5633.801893449056, -8667.984148023623, -22619.585409115007, -24988.445638232904, -27005.288243924173, -4427.858224851874, -25877.195701264824, -19401.98473954019, -28312.820591070726, -24751.00305688418, -0.074, 0.99, 0.248, 192.0, 0.0, 0.0, 0.0, 0.0, 0.0, 0.0, 0.0, 0.0, 0.0, 1.741629044920947E9, 0.0, 2025-03-10 12:50:44.920
202.0, -21862.867100580588, -9089.649807172991, -28548.340922396295, -24704.198503994765, -11241.854577285598, -18813.038624887304, -5717.755045623189, -8697.331988493443, -22603.08982170699, -24965.579803655124, -27002.427220633894, -4418.604602647377, -25873.530015174154, -19455.27129832164, -28363.693161451003, -24732.540515964094, -0.074, 0.99, 0.248, 192.0, 0.0, 0.0, 0.0, 0.0, 0.0, 0.0, 0.0, 0.0, 0.0, 1.741629044921222E9, 0.0, 2025-03-10 12:50:44.921
204.0, -21865.03521979275, -9087.079356560631, -28551.0901869643, -24687.25588169764, -11213.490213571813, -18773.543092434775, -5609.840823392967, -8627.549842303973, -22595.24435940318, -24959.61188788556, -26987.228034404285, -4403.405416417768, -25866.466863926278, -19452.298516309085, -28315.189875982986, -24715.910818089345, -0.074, 0.99, 0.248, 192.0, 0.0, 0.0, 0.0, 0.0, 0.0, 0.0, 0.0, 0.0, 0.0, 1.741629044921482E9, 0.0, 2025-03-10 12:50:44.921
206.0, -21863.403542447515, -9092.332016507627, -28572.41375117466, -24694.944881790267, -11230.298725402205, -18870.3037941818, -5683.847449284488, -8655.221301939644, -22592.986833213192, -24961.377675697528, -26980.05312443413, -4407.093454252894, -25891.813742138595, -19424.157670039855, -28342.123728051632, -24718.66008265735, -0.074, 0.99, 0.248, 192.0, 0.0, 0.0, 0.0, 0.0, 0.0, 0.0, 0.0, 0.0, 0.0, 1.74162904492173E9, 0.0, 2025-03-10 12:50:44.921
208.0, -21856.161577243995, -9087.593446683102, -28590.18338801663, -24699.9293208038, -11234.053818470695, -18843.39229385761, -5621.284916554084, -8674.779078338037, -22575.060734160037, -24968.485530434315, -26951.353484553514, -4407.339323441902, -25842.729311314743, -19419.240286259686, -28317.626216128614, -24728.964236851247, -0.056, 0.98, 0.244, 192.0, 127.0, 32.0, 15.0, 80.0, 3.5, 80.0, 0.0, 0.0, 0.0, 1.74162904492199E9, 0.0, 2025-03-10 12:50:44.921
210.0, -21872.18777801845, -9090.543876951204, -28599.36995498776, -24696.800076580057, -11230.432835868936, -18820.168831368548, -5698.532545391625, -8688.681863389238, -22584.739039509182, -24978.767332883755, -26962.596412014536, -4426.807692862474, -25883.99063157924, -19434.260658533654, -28360.541565482807, -24723.912742604345, -0.056, 0.98, 0.244, 192.0, 0.0, 0.0, 0.0, 0.0, 0.0, 0.0, 0.0, 0.0, 0.0, 1.741629044922287E9, 0.0, 2025-03-10 12:50:44.922
212.0, -21864.431722692458, -9080.016205312753, -28589.982222316532, -24691.703878844248, -11219.301667130192, -18835.949162953995, -5625.419989278315, -8706.697369420215, -22576.245376616167, -24965.17747225493, -26953.09692062103, -4411.496747910589, -25866.22099473727, -19471.588071774015, -28335.440556459496, -24720.60468442496, -0.056, 0.98, 0.244, 192.0, 0.0, 0.0, 0.0, 0.0, 0.0, 0.0, 0.0, 0.0, 0.0, 1.741629044974103E9, 0.0, 2025-03-10 12:50:44.974
214.0, -21881.419048478492, -9083.7936501257, -28584.081361780332, -24687.010012508636, -11237.853615028098, -18777.2311302699, -5687.736652819712, -8674.197932982199, -22590.125809922913, -24970.206614757375, -26979.404923844926, -4419.319858469947, -25866.712733115284, -19434.975914356222, -28357.054693347778, -24716.000225067168, -0.056, 0.98, 0.244, 192.0, 0.0, 0.0, 0.0, 0.0, 0.0, 0.0, 0.0, 0.0, 0.0, 1.741629044974401E9, 0.0, 2025-03-10 12:50:44.974
216.0, -21866.465731437893, -9074.920007576944, -28561.59550685829, -24674.046000724557, -11219.301667130192, -18854.702276551998, -5623.1848148327845, -8644.067781456444, -22579.352269095456, -24960.505957663772, -26970.553633040625, -4401.617276861343, -25832.78278503213, -19425.99051308519, -28344.023626330334, -24698.677623114305, -0.056, 0.98, 0.244, 192.0, 0.0, 0.0, 0.0, 0.0, 0.0, 0.0, 0.0, 0.0, 0.0, 1.741629044974658E9, 0.0, 2025-03-10 12:50:44.974
218.0, -21897.892284142054, -9091.840278129612, -28583.36610595776, -24678.628108337893, -11238.79238829522, -18823.543944781297, -5691.938780777309, -8679.71881386266, -22586.393068598878, -24964.395161198994, -26983.42823784688, -4410.066236265449, -25848.272543939656, -19491.637586550427, -28355.42301600254, -24697.783553336092, -0.058, 0.99, 0.24, 192.0, 127.0, 24.0, 15.0, 120.0, 3.5, 64.0, 0.0, 0.0, 0.0, 1.741629044974929E9, 0.0, 2025-03-10 12:50:44.974
220.0, -21875.741705386845, -9071.857818586566, -28555.582887599816, -24670.82734952299, -11203.387225078015, -18814.312674321256, -5600.855422121933, -8654.930729261725, -22576.960632438735, -24961.51178616426, -26967.446740561336, -4406.154680985771, -25833.63215132143, -19435.355894011962, -28335.597018670684, -24694.922530045813, -0.058, 0.99, 0.24, 192.0, 0.0, 0.0, 0.0, 0.0, 0.0, 0.0, 0.0, 0.0, 0.0, 1.741629044975219E9, 0.0, 2025-03-10 12:50:44.975
222.0, -21891.253816038825, -9074.674138387936, -28576.437065176615, -24660.45614009573, -11209.109271658574, -18809.52940100782, -5656.712431515745, -8652.203816438177, -22566.209443355732, -24957.488472162306, -26954.281563077162, -4395.425843647224, -25838.68364556833, -19458.735818712215, -28335.79818437078, -24687.300585186553, -0.058, 0.99, 0.24, 192.0, 0.0, 0.0, 0.0, 0.0, 0.0, 0.0, 0.0, 0.0, 0.0, 1.741629044975471E9, 0.0, 2025-03-10 12:50:44.975
224.0, -21877.015754820797, -9060.637242870003, -28581.622669890246, -24672.101398956944, -11204.951847189886, -18803.069746860238, -5604.901087868344, -8690.313540734476, -22567.41643755632, -24953.733379093814, -26949.408882785905, -4395.358788413857, -25845.5009276272, -19465.57545251554, -28341.520230951337, -24699.0799545145, -0.058, 0.99, 0.24, 192.0, 0.0, 0.0, 0.0, 0.0, 0.0, 0.0, 0.0, 0.0, 0.0, 1.741629044975741E9, 0.0, 2025-03-10 12:50:44.975
226.0, -21895.32183352969, -9072.506019175771, -28593.714963640567, -24677.488169370674, -11219.905164230486, -18865.140541212626, -5660.400469350871, -8694.403909969797, -22560.487396775174, -24963.970478054343, -26948.738330452245, -4404.254782707069, -25841.54466885861, -19445.61534471695, -28334.90411459257, -24711.820448854025, -0.058, 0.99, 0.24, 192.0, 0.0, 0.0, 0.0, 0.0, 0.0, 0.0, 0.0, 0.0, 0.0, 1.74162904503489E9, 0.0, 2025-03-10 12:50:45.034
228.0, -21863.738818614343, -9048.07556248612, -28567.585774372314, -24657.952744716735, -11194.044195895696, -18736.394493150055, -5616.747512429656, -8662.440915398707, -22571.886786447383, -24966.9432600669, -26952.247554331727, -4407.987524031106, -25837.834279279028, -19394.89923654786, -28341.363768740153, -24692.866169555924, -0.054, 0.992, 0.246, 192.0, 127.0, 40.0, 15.5, 0.0, 3.5, 88.0, 0.0, 0.0, 0.0, 1.741629045035182E9, 0.0, 2025-03-10 12:50:45.035
230.0, -21888.973938104384, -9065.55462665017, -28598.38647823173, -24670.939108245268, -11244.827359298153, -18832.395235585598, -5661.182780406807, -8671.359261436375, -22559.66038223033, -24958.22607972933, -26945.98906588424, -4396.766948314542, -25844.62920959344, -19417.02746355861, -28331.75251862437, -24694.967233534724, -0.054, 0.992, 0.246, 192.0, 0.0, 0.0, 0.0, 0.0, 0.0, 0.0, 0.0, 0.0, 0.0, 1.741629045035464E9, 0.0, 2025-03-10 12:50:45.035
232.0, -21870.109065784105, -9061.687774859402, -28582.427332690637, -24671.16262568982, -11195.765280218755, -18850.030761960836, -5634.047762638064, -8696.281456504043, -22560.867376430917, -24962.47291117584, -26947.531336251657, -4397.482204137112, -25843.981009004237, -19492.889284239922, -28347.644608932093, -24684.774838063102, -0.054, 0.992, 0.246, 192.0, 0.0, 0.0, 0.0, 0.0, 0.0, 0.0, 0.0, 0.0, 0.0, 1.741629045035739E9, 0.0, 2025-03-10 12:50:45.035
234.0, -21900.84271441015, -9073.735365120812, -28613.295091783417, -24677.488169370674, -11216.239478139816, -18829.087177406214, -5657.427687338315, -8686.022005799057, -22578.2793853616, -24978.029725316734, -26963.84810970403, -4413.798977589486, -25839.287142668625, -19473.510321797174, -28335.395852970585, -24717.02840531211, -0.054, 0.992, 0.246, 192.0, 0.0, 0.0, 0.0, 0.0, 0.0, 0.0, 0.0, 0.0, 0.0, 1.741629045036002E9, 0.0, 2025-03-10 12:50:45.036
236.0, -21885.062382824708, -9063.587673138103, -28599.481713710036, -24679.298660671553, -11197.352254075082, -18823.029854658827, -5658.1652949053405, -8687.743090122114, -22578.435847572786, -24978.409704972473, -26969.368990584495, -4419.073989280938, -25861.616535379475, -19413.294722234576, -28361.32387653874, -24701.248073726663, -0.054, 0.992, 0.246, 192.0, 0.0, 0.0, 0.0, 0.0, 0.0, 0.0, 0.0, 0.0, 0.0, 1.741629045036251E9, 0.0, 2025-03-10 12:50:45.036
238.0, -21898.652243453533, -9064.906426060967, -28618.48069649705, -24672.816654779515, -11211.858536226575, -18851.662439306074, -5652.8232279805225, -8700.193011783722, -22561.2250043422, -24965.08806527711, -26949.565344997092, -4398.06334949295, -25858.21907022227, -19472.28097585213, -28321.113088263643, -24700.59987313746, -0.056, 0.982, 0.25, 192.0, 127.0, 32.0, 15.0, 88.0, 3.5, 104.0, 0.0, 0.0, 0.0, 1.741629045036517E9, 0.0, 2025-03-10 12:50:45.036
240.0, -21904.106069100628, -9059.966690536343, -28629.656568724702, -24679.611585093928, -11192.211352850361, -18827.366093083154, -5664.379079863916, -8685.418508698764, -22578.2793853616, -24981.248376518295, -26977.6167842885, -4417.799939846986, -25826.881924495927, -19439.580373714016, -28381.462798292974, -24712.848629098968, -0.056, 0.982, 0.25, 192.0, 0.0, 0.0, 0.0, 0.0, 0.0, 0.0, 0.0, 0.0, 0.0, 1.741629045036785E9, 0.0, 2025-03-10 12:50:45.036
242.0, -21904.8213249232, -9055.31752768964, -28645.638066010248, -24666.804035521036, -11192.479573783825, -18824.594476770697, -5634.941832416276, -8657.18825545171, -22556.620544984406, -24964.015181543255, -26945.407920528403, -4395.3811401583125, -25866.422160437367, -19462.8932431809, -28312.66412885954, -24693.134390489387, -0.056, 0.982, 0.25, 192.0, 0.0, 0.0, 0.0, 0.0, 0.0, 0.0, 0.0, 0.0, 0.0, 1.741629045095572E9, 0.0, 2025-03-10 12:50:45.095
244.0, -21903.99431037835, -9051.271861943229, -28637.43497579515, -24661.663134296316, -11191.987835405807, -18799.225246813923, -5662.613292051947, -8663.2455781991, -22559.749789208152, -24965.42334144394, -26957.23199334526, -4401.997256517084, -25841.678779325342, -19480.729935256237, -28353.1431380681, -24695.12369574591, -0.056, 0.982, 0.25, 192.0, 0.0, 0.0, 0.0, 0.0, 0.0, 0.0, 0.0, 0.0, 0.0, 1.741629045095912E9, 0.0, 2025-03-10 12:50:45.095
246.0, -21892.974900361885, -9042.957013005855, -28628.673091968667, -24648.900288212335, -11168.898483383475, -18799.940502636495, -5625.68821021178, -8650.683897815215, -22548.819786169504, -24961.26591697525, -26943.865650160988, -4394.710587824654, -25806.43007831932, -19437.32284752403, -28313.669957360027, -24678.35988740443, -0.056, 0.982, 0.25, 192.0, 0.0, 0.0, 0.0, 0.0, 0.0, 0.0, 0.0, 0.0, 0.0, 1.74162904509619E9, 0.0, 2025-03-10 12:50:45.096
248.0, -21917.15948786253, -9069.242664485297, -28652.47769981357, -24690.027498010102, -11186.64576848099, -18753.314763702725, -5677.633664325913, -8684.591494153916, -22570.56803352452, -24959.075446018633, -26968.899603950933, -4421.376218959835, -25867.763265104684, -19397.581445882493, -28356.65236194758, -24685.691259585772, -0.06, 0.982, 0.244, 192.0, 127.0, 16.0, 15.0, 88.0, 3.5, 80.0, 0.0, 0.0, 0.0, 1.741629045096447E9, 0.0, 2025-03-10 12:50:45.096
250.0, -21901.736784188364, -9042.755847305758, -28645.325141587873, -24658.578593561484, -11180.566093989146, -18853.227061417947, -5630.11385561393, -8700.572991439461, -22570.813902713526, -24960.483605919315, -26974.085208664565, -4399.337398926902, -25858.88962255593, -19425.252905518166, -28323.258855731354, -24698.722326603216, -0.06, 0.982, 0.244, 192.0, 0.0, 0.0, 0.0, 0.0, 0.0, 0.0, 0.0, 0.0, 0.0, 1.741629045096709E9, 0.0, 2025-03-10 12:50:45.096
252.0, -21921.71924373141, -9064.213521982852, -28642.77704271997, -24679.83510253848, -11189.462088282358, -18825.935581438014, -5723.208871270284, -8706.92088686477, -22582.90619646385, -24961.981172797823, -26994.313537396618, -4416.235317735114, -25897.245216041236, -19473.62208051945, -28385.553167528295, -24702.499771416162, -0.06, 0.982, 0.244, 192.0, 0.0, 0.0, 0.0, 0.0, 0.0, 0.0, 0.0, 0.0, 0.0, 1.741629045096973E9, 0.0, 2025-03-10 12:50:45.096
254.0, -21894.33835677366, -9051.808303810156, -28639.91601942969, -24678.002259493147, -11163.243492036283, -18817.48662203391, -5626.269355567617, -8679.495296418107, -22566.99175441167, -24958.13667275151, -26979.00259244473, -4402.801919317475, -25880.280241999655, -19520.113708986486, -28327.438631944497, -24689.69222184327, -0.06, 0.982, 0.244, 192.0, 0.0, 0.0, 0.0, 0.0, 0.0, 0.0, 0.0, 0.0, 0.0, 1.741629045097237E9, 0.0, 2025-03-10 12:50:45.097
0.0, -21889.15275206003, -9046.26507118524, -28669.509729088513, -24675.677678069795, -11185.036442880208, -18810.95991265296, -5689.748309820689, -8684.278569731543, -22569.673963746307, -24958.31548670715, -27000.10263921054, -4418.87282358084, -25872.4571314403, -19437.70282717977, -28367.984696386422, -24712.356890720952, -0.06, 0.982, 0.244, 192.0, 0.0, 0.0, 0.0, 0.0, 0.0, 0.0, 0.0, 0.0, 0.0, 1.741629045155922E9, 0.0, 2025-03-10 12:50:45.155
2.0, -21910.878647670586, -9060.056097514165, -28667.900403487733, -24682.182035706286, -11169.189056061394, -18792.989110110895, -5621.977820632198, -8670.934578291724, -22568.26580384562, -24954.493338405293, -26983.495293080246, -4406.758178086064, -25890.047954326626, -19461.28391758012, -28343.93421935251, -24709.741736619682, -0.054, 0.974, 0.25, 192.0, 127.0, 40.0, 15.0, 56.0, 3.5, 104.0, 0.0, 0.0, 0.0, 1.741629045156217E9, 0.0, 2025-03-10 12:50:45.156
4.0, -21919.551124519247, -9066.51575166175, -28693.694316589157, -24689.178131720797, -11172.407707262959, -18792.519723477333, -5691.98348426622, -8691.319369234965, -22574.725457993205, -24960.930640808423, -26992.23482516227, -4408.658076364765, -25928.51530653421, -19473.219749119253, -28371.51627201036, -24702.812695838536, -0.054, 0.974, 0.25, 192.0, 0.0, 0.0, 0.0, 0.0, 0.0, 0.0, 0.0, 0.0, 0.0, 1.741629045156512E9, 0.0, 2025-03-10 12:50:45.156
6.0, -21899.300444042736, -9051.987117765799, -28678.942165248653, -24678.2257769377, -11155.107457054552, -18828.327218094735, -5608.276201281095, -8684.300921475999, -22576.625356271907, -24971.793588613702, -26993.06183970712, -4413.866032822852, -25910.388041780956, -19444.095426093987, -28348.628085688128, -24709.27234998612, -0.054, 0.974, 0.25, 192.0, 0.0, 0.0, 0.0, 0.0, 0.0, 0.0, 0.0, 0.0, 0.0, 1.741629045156758E9, 0.0, 2025-03-10 12:50:45.156
8.0, -21917.003025651342, -9062.246568470784, -28679.903290260234, -24700.242245226174, -11175.939282886897, -18831.747034996395, -5708.32260946305, -8728.780892942059, -22575.686583004783, -24947.22902145732, -27005.467057879814, -4422.069123037949, -25910.65626271442, -19440.09446383649, -28371.2480510769, -24711.88750408739, -0.054, 0.974, 0.25, 192.0, 0.0, 0.0, 0.0, 0.0, 0.0, 0.0, 0.0, 0.0, 0.0, 1.741629045157021E9, 0.0, 2025-03-10 12:50:45.157
10.0, -21904.083717356174, -9060.45842891436, -28674.62827856878, -24687.054715997543, -11134.119169011017, -18792.43031649951, -5616.300477540551, -8660.563368864461, -22574.166664381824, -24963.45638793187, -27003.9247875124, -4421.085646281916, -25835.1967734333, -19440.9885336147, -28349.94683861099, -24714.61441691094, -0.054, 0.974, 0.25, 192.0, 0.0, 0.0, 0.0, 0.0, 0.0, 0.0, 0.0, 0.0, 0.0, 1.741629045157282E9, 0.0, 2025-03-10 12:50:45.157
12.0, -21930.369368835614, -9070.561417408158, -28686.653517085735, -24692.1285619889, -11175.134620086506, -18787.3341187637, -5676.5384288476025, -8678.064784772967, -22574.390181826377, -24951.006466270264, -27011.01029050473, -4416.637649135309, -25904.17425682238, -19439.736835925203, -28357.94876312599, -24686.20534970824, -0.066, 0.982, 0.248, 192.0, 126.5, 120.0, 15.0, 88.0, 3.5, 96.0, 0.0, 0.0, 0.0, 1.741629045157545E9, 0.0, 2025-03-10 12:50:45.157
14.0, -21898.38402252007, -9045.12513221802, -28671.05199945593, -24675.9235472588, -11121.95982002733, -18790.642176943085, -5599.737834899168, -8665.81602881146, -22576.89357720537, -24951.274687203728, -27015.592398118068, -4422.806730604974, -25865.81866333707, -19454.66780122135, -28367.269440563854, -24707.059527285044, -0.066, 0.982, 0.248, 192.0, 0.0, 0.0, 0.0, 0.0, 0.0, 0.0, 0.0, 0.0, 0.0, 1.741629045157813E9, 0.0, 2025-03-10 12:50:45.157
16.0, -21921.585133264678, -9071.455487186371, -28686.29588917445, -24693.737887589683, -11160.449523979369, -18800.923979392526, -5673.520943346137, -8712.844099145424, -22562.14142586487, -24927.06774795863, -27001.28728166667, -4405.618239118843, -25860.07426501206, -19426.683417163305, -28347.37638799863, -24684.752486318648, -0.066, 0.982, 0.248, 192.0, 0.0, 0.0, 0.0, 0.0, 0.0, 0.0, 0.0, 0.0, 0.0, 1.741629045201794E9, 0.0, 2025-03-10 12:50:45.201
18.0, -21907.727051702386, -9057.195074223886, -28679.120979204297, -24687.345288675464, -11120.372846171003, -18805.640197472596, -5608.030332092087, -8672.163924236766, -22571.41739981382, -24940.970533009833, -27012.999595761252, -4423.454931194178, -25820.355215114978, -19448.588126729504, -28366.934164397022, -24708.42298369682, -0.066, 0.982, 0.248, 192.0, 0.0, 0.0, 0.0, 0.0, 0.0, 0.0, 0.0, 0.0, 0.0, 1.741629045202103E9, 0.0, 2025-03-10 12:50:45.202
20.0, -21927.173069378507, -9077.401051211484, -28711.39689819776, -24703.997338294666, -11165.568073459635, -18821.509936035865, -5649.73868724569, -8699.902439105803, -22575.373658582408, -24938.98122775331, -27019.123973742007, -4427.5453004295, -25872.188910506837, -19469.442304306307, -28354.081911335223, -24710.83697209799, -0.066, 0.982, 0.248, 192.0, 0.0, 0.0, 0.0, 0.0, 0.0, 0.0, 0.0, 0.0, 0.0, 1.741629045202367E9, 0.0, 2025-03-10 12:50:45.202
22.0, -21904.508400500825, -9066.046365028187, -28691.414438654716, -24711.172248264822, -11127.63716311898, -18782.81906638373, -5595.692169152757, -8681.86458133037, -22577.362963838932, -24947.22902145732, -27025.807145334144, -4440.889291869318, -25842.081110725536, -19430.818489887537, -28371.359809799174, -24709.138239519387, -0.056, 0.982, 0.246, 192.0, 127.0, 32.0, 15.0, 88.0, 3.5, 88.0, 0.0, 0.0, 0.0, 1.741629045202626E9, 0.0, 2025-03-10 12:50:45.202
24.0, -21930.570534535713, -9072.237798242308, -28713.944997065664, -24705.025518539613, -11150.502997696758, -18777.18642678099, -5620.971992131709, -8697.600209426906, -22575.641879515875, -24939.27180043123, -27027.707043612845, -4441.313975013969, -25850.373607918456, -19466.13424612692, -28350.013893844356, -24716.201390767266, -0.056, 0.982, 0.246, 192.0, 0.0, 0.0, 0.0, 0.0, 0.0, 0.0, 0.0, 0.0, 0.0, 1.741629045260636E9, 0.0, 2025-03-10 12:50:45.260
26.0, -21905.849505168142, -9058.26795795774, -28689.62629909829, -24700.912797559835, -11127.39129392997, -18812.81510744275, -5610.86900363791, -8719.549622482016, -22574.524292293107, -24927.805355525656, -27027.192953490372, -4439.123504057348, -25819.68466278132, -19449.884527907914, -28374.28788832282, -24702.052736527057, -0.056, 0.982, 0.246, 192.0, 0.0, 0.0, 0.0, 0.0, 0.0, 0.0, 0.0, 0.0, 0.0, 1.741629045260945E9, 0.0, 2025-03-10 12:50:45.260
28.0, -21923.417976310015, -9069.354423207573, -28698.00820326903, -24703.371489449917, -11126.20665147384, -18828.997770428392, -5626.716390456723, -8687.608979655382, -22574.85956845994, -24941.238753943297, -27024.44368892237, -4439.481131968633, -25829.340616386013, -19445.570641228038, -28335.015873314846, -24704.422021439317, -0.056, 0.982, 0.246, 192.0, 0.0, 0.0, 0.0, 0.0, 0.0, 0.0, 0.0, 0.0, 0.0, 1.741629045261202E9, 0.0, 2025-03-10 12:50:45.261
30.0, -21918.165316363018, -9067.454524928871, -28695.258938701027, -24712.870980843425, -11112.572087356102, -18815.00557839937, -5627.632811979391, -8730.233756331654, -22573.965498681726, -24938.131861464008, -27032.892648326477, -4445.918434371762, -25873.328849474055, -19466.76009497167, -28372.70091446649, -24711.88750408739, -0.056, 0.982, 0.246, 192.0, 0.0, 0.0, 0.0, 0.0, 0.0, 0.0, 0.0, 0.0, 0.0, 1.74162904526147E9, 0.0, 2025-03-10 12:50:45.261
32.0, -21918.7241099744, -9060.8384085701, -28687.860511286322, -24698.92349230331, -11134.454445177847, -18769.408019710543, -5614.78055891759, -8680.255255729588, -22574.4795888042, -24939.249448686773, -27031.01510179223, -4442.722134914653, -25845.702093327298, -19416.84864960297, -28344.18008854152, -24715.732004133704, -0.062, 0.99, 0.246, 192.0, 127.0, 8.0, 15.0, 120.0, 3.5, 88.0, 0.0, 0.0, 0.0, 1.741629045261734E9, 0.0, 2025-03-10 12:50:45.261
34.0, -21892.751382917333, -9047.896748530478, -28662.021894695987, -24687.166474719823, -11102.513802351214, -18741.6248013526, -5626.425817778804, -8659.199912452688, -22558.587498496476, -24920.451631599863, -27018.609883619534, -4425.4442364507, -25806.139505641404, -19470.47048455125, -28358.999295115387, -24682.338497917473, -0.062, 0.99, 0.246, 192.0, 0.0, 0.0, 0.0, 0.0, 0.0, 0.0, 0.0, 0.0, 0.0, 1.741629045262013E9, 0.0, 2025-03-10 12:50:45.262
36.0, -21908.442307524958, -9058.26795795774, -28679.478607115583, -24699.0799545145, -11127.547756141157, -18725.106862200126, -5600.341331999461, -8689.754747123092, -22554.586536238974, -24933.32623640612, -27010.183275959884, -4425.734809128619, -25799.411630560357, -19473.62208051945, -28312.239445714888, -24687.680564842292, -0.062, 0.99, 0.246, 192.0, 0.0, 0.0, 0.0, 0.0, 0.0, 0.0, 0.0, 0.0, 0.0, 1.741629045262263E9, 0.0, 2025-03-10 12:50:45.262
38.0, -21909.29167381426, -9064.347632449584, -28685.49122637406, -24700.39870743736, -11134.610907389035, -18827.656665761075, -5638.808684207044, -8712.374712511863, -22566.298850333555, -24942.378692910515, -27027.39411919047, -4443.169169803759, -25864.857538325494, -19446.330600539517, -28382.08864713772, -24701.493942915673, -0.062, 0.99, 0.246, 192.0, 0.0, 0.0, 0.0, 0.0, 0.0, 0.0, 0.0, 0.0, 0.0, 1.741629045310733E9, 0.0, 2025-03-10 12:50:45.310
40.0, -21907.972920891396, -9051.651841598969, -28675.567051835904, -24695.41426842383, -11113.577915856591, -18820.14647962409, -5589.321921982994, -8714.542831724028, -22562.052018887047, -24942.13282372151, -27014.653624850944, -4435.25665226658, -25831.68754955382, -19455.33835355501, -28329.785565112303, -24706.456030184752, -0.062, 0.99, 0.246, 192.0, 0.0, 0.0, 0.0, 0.0, 0.0, 0.0, 0.0, 0.0, 0.0, 1.741629045311046E9, 0.0, 2025-03-10 12:50:45.311
42.0, -21905.313063301215, -9051.450675898872, -28672.214290167605, -24701.426887682308, -11106.87239252, -18780.315671004733, -5634.606556249447, -8690.29118899002, -22561.984963653682, -24933.32623640612, -27022.230866221296, -4437.849454623396, -25838.147203701403, -19400.64363487287, -28363.648457962092, -24695.146047490365, -0.058, 0.994, 0.244, 192.0, 127.0, 24.0, 15.5, 8.0, 3.5, 80.0, 0.0, 0.0, 0.0, 1.741629045311302E9, 0.0, 2025-03-10 12:50:45.311
44.0, -21892.840789895152, -9042.845254283578, -28668.6156593103, -24690.295718943566, -11114.62844784599, -18766.032906297794, -5572.714575852701, -8690.894686090312, -22546.13757683487, -24938.9365242644, -27001.130819455484, -4428.64053590781, -25790.3368223115, -19510.502458870706, -28316.35216669466, -24698.856437069946, -0.058, 0.994, 0.244, 192.0, 0.0, 0.0, 0.0, 0.0, 0.0, 0.0, 0.0, 0.0, 0.0, 1.741629045311575E9, 0.0, 2025-03-10 12:50:45.311
46.0, -21899.05457485373, -9031.557623333649, -28671.58844132286, -24684.41721015182, -11095.540058081158, -18719.071891197193, -5630.784407947589, -8683.093927275411, -22543.209498311222, -24936.053149229665, -27001.220226433306, -4427.388838218312, -25867.11506451548, -19401.872980817912, -28351.064425833756, -24679.566881605017, -0.058, 0.994, 0.244, 192.0, 0.0, 0.0, 0.0, 0.0, 0.0, 0.0, 0.0, 0.0, 0.0, 1.741629045311823E9, 0.0, 2025-03-10 12:50:45.311
48.0, -21883.028374079273, -9017.923059215911, -28664.10060693033, -24678.896329271356, -11116.237773446772, -18785.14364780708, -5571.619340374392, -8700.952971095201, -22530.670169671797, -24925.726643291313, -26987.071572193097, -4410.870899065841, -25817.896523224896, -19409.22670474371, -28309.870160802624, -24680.058619983032, -0.058, 0.994, 0.244, 192.0, 0.0, 0.0, 0.0, 0.0, 0.0, 0.0, 0.0, 0.0, 0.0, 1.741629045312078E9, 0.0, 2025-03-10 12:50:45.312
50.0, -21898.56283647571, -9029.255393654752, -28670.694371544647, -24681.89146302837, -11095.76357552571, -18726.246801167348, -5649.291652356584, -8675.650796371794, -22533.352379006432, -24924.87727700201, -27000.63908107747, -4416.838814835407, -25821.517505826654, -19454.243118076698, -28348.784547899315, -24681.779704306093, -0.058, 0.994, 0.244, 192.0, 0.0, 0.0, 0.0, 0.0, 0.0, 0.0, 0.0, 0.0, 0.0, 1.741629045312334E9, 0.0, 2025-03-10 12:50:45.312
52.0, -21900.172162076495, -9042.867606028034, -28677.422246625694, -24704.73494586169, -11101.507973850725, -18794.397270011577, -5585.633884147869, -8716.040398602534, -22538.917963375803, -24944.569163867138, -27001.95783400033, -4423.991373061106, -25823.43975584981, -19451.069170364044, -28319.302596962763, -24697.26946321362, -0.05, 0.99, 0.244, 192.0, 127.0, 56.0, 15.0, 120.0, 3.5, 80.0, 0.0, 0.0, 0.0, 1.741629045312597E9, 0.0, 2025-03-10 12:50:45.312
54.0, -21920.914580931018, -9050.400143909472, -28691.39208691026, -24724.873867615923, -11117.15419496944, -18775.241825013378, -5655.483085570703, -8677.774212095048, -22549.780911181082, -24957.399065184483, -27020.375671431506, -4443.817370392963, -25849.97127651826, -19405.292797719576, -28357.077045092232, -24704.802001095057, -0.05, 0.99, 0.244, 192.0, 0.0, 0.0, 0.0, 0.0, 0.0, 0.0, 0.0, 0.0, 0.0, 1.741629045366121E9, 0.0, 2025-03-10 12:50:45.366
56.0, -21907.86116216912, -9042.733495561302, -28673.689505301656, -24701.873922571413, -11092.701386535333, -18755.482882914886, -5588.3160934825055, -8695.677959403749, -22557.112283362425, -24960.125978008033, -27024.376633689004, -4434.11671329936, -25844.606857848987, -19451.918536653346, -28339.150946039077, -24701.8292190825, -0.05, 0.99, 0.244, 192.0, 0.0, 0.0, 0.0, 0.0, 0.0, 0.0, 0.0, 0.0, 0.0, 1.741629045366417E9, 0.0, 2025-03-10 12:50:45.366
58.0, -21918.880572185586, -9051.36126892105, -28679.903290260234, -24704.109097016943, -11110.851003033044, -18764.177711508004, -5666.100164186974, -8682.870409830859, -22552.932507149282, -24943.56333536665, -27021.49325865427, -4447.080725083438, -25838.773052546152, -19413.13826002339, -28339.888553606103, -24695.078992257, -0.05, 0.99, 0.244, 192.0, 0.0, 0.0, 0.0, 0.0, 0.0, 0.0, 0.0, 0.0, 0.0, 1.741629045366672E9, 0.0, 2025-03-10 12:50:45.366
60.0, -21905.71539470141, -9033.859853012545, -28654.087025414352, -24686.942957275267, -11086.867581232498, -18775.063011057737, -5590.685378394768, -8698.740148394127, -22552.41841702681, -24943.026893499722, -27019.191028975372, -4424.885442839318, -25839.331846157533, -19443.156652826867, -28334.03239655881, -24692.285024200086, -0.05, 0.99, 0.244, 192.0, 0.0, 0.0, 0.0, 0.0, 0.0, 0.0, 0.0, 0.0, 0.0, 1.741629045366925E9, 0.0, 2025-03-10 12:50:45.366
62.0, -21938.460700328436, -9057.105667246064, -28677.265784414507, -24718.83889661299, -11118.62941010349, -18786.6859181745, -5669.922312488832, -8727.86447141939, -22546.785777424073, -24939.60707659806, -27019.548656886658, -4425.176015517237, -25853.34638993101, -19468.592938017006, -28335.32879773722, -24689.93809103228, -0.05, 1.008, 0.246, 192.0, 127.0, 56.0, 15.5, 64.0, 3.5, 88.0, 0.0, 0.0, 0.0, 1.741629045367203E9, 0.0, 2025-03-10 12:50:45.367
64.0, -21920.981636164386, -9056.301004445673, -28658.512670816504, -24726.66200717235, -11086.733470765766, -18768.5810051657, -5616.881622896389, -8700.170660039266, -22560.42034154181, -24942.22223069933, -27043.68854089839, -4460.3576612898905, -25869.663163383386, -19387.947844022256, -28350.52798396683, -24721.23053326971, -0.05, 1.008, 0.246, 192.0, 0.0, 0.0, 0.0, 0.0, 0.0, 0.0, 0.0, 0.0, 0.0, 1.74162904536747E9, 0.0, 2025-03-10 12:50:45.367
66.0, -21940.427653840503, -9060.03374576971, -28669.53208083297, -24732.160536308354, -11121.646895604956, -18783.981357095403, -5693.682216844823, -8741.990773915146, -22551.07731235949, -24943.004541755265, -27037.139479772984, -4433.915547599262, -25825.272598895146, -19416.736890880693, -28338.055710560766, -24700.39870743736, -0.05, 1.008, 0.246, 192.0, 0.0, 0.0, 0.0, 0.0, 0.0, 0.0, 0.0, 0.0, 0.0, 1.74162904536775E9, 0.0, 2025-03-10 12:50:45.367
68.0, -21930.034092668786, -9061.531312648214, -28658.713836516603, -24721.74462339218, -11084.073613175586, -18766.614051653632, -5615.6075734624355, -8669.146438735299, -22562.968440409713, -24942.199878954874, -27051.891631113485, -4453.07099259746, -25846.149128216402, -19351.87212847139, -28354.1936700575, -24729.65714092936, -0.05, 1.008, 0.246, 192.0, 0.0, 0.0, 0.0, 0.0, 0.0, 0.0, 0.0, 0.0, 0.0, 1.741629045411262E9, 0.0, 2025-03-10 12:50:45.411
70.0, -21928.24595311236, -9052.41180091045, -28663.206537152117, -24705.673719128816, -11090.600322556535, -18754.23118522539, -5647.838788966988, -8702.070558317966, -22548.193937324755, -24939.495317875782, -27035.418395449924, -4425.600698661888, -25850.150090473904, -19379.45418112924, -28316.12864925011, -24693.246149211664, -0.05, 1.008, 0.246, 192.0, 0.0, 0.0, 0.0, 0.0, 0.0, 0.0, 0.0, 0.0, 0.0, 1.74162904541156E9, 0.0, 2025-03-10 12:50:45.411
72.0, -21909.24697032535, -9049.17079796443, -28660.971362706587, -24707.931245318803, -11061.028964642164, -18734.695760571452, -5612.455977494237, -8640.178577921222, -22539.99084710966, -24926.97834098081, -27027.081194768096, -4437.044791823005, -25846.462052638777, -19387.858437044437, -28319.436707429497, -24691.145085232867, -0.048, 0.98, 0.25, 192.0, 127.0, 64.0, 15.0, 80.0, 3.5, 104.0, 0.0, 0.0, 0.0, 1.741629045411818E9, 0.0, 2025-03-10 12:50:45.411
74.0, -21925.362578077624, -9050.198978209375, -28691.973232266097, -24726.304379261062, -11096.411776114915, -18795.827781656717, -5641.312079586039, -8693.085157046933, -22533.061806328515, -24946.02202725673, -27008.618653848014, -4427.96998357415, -25858.867270811472, -19394.31809119202, -28291.854654771647, -24703.974986550213, -0.048, 0.98, 0.25, 192.0, 0.0, 0.0, 0.0, 0.0, 0.0, 0.0, 0.0, 0.0, 0.0, 1.741629045412094E9, 0.0, 2025-03-10 12:50:45.412
76.0, -21911.99623489335, -9039.60425133756, -28693.53785437797, -24697.94001554728, -11077.14457239444, -18781.81323788324, -5647.347050588972, -8687.564276166473, -22523.94229459075, -24927.335968892097, -26982.95885121332, -4398.890364037796, -25888.68449791485, -19360.678715786784, -28318.207361484452, -24713.921512832825, -0.048, 0.98, 0.25, 192.0, 0.0, 0.0, 0.0, 0.0, 0.0, 0.0, 0.0, 0.0, 0.0, 1.741629045464516E9, 0.0, 2025-03-10 12:50:45.464
78.0, -21927.106014145138, -9048.03085899721, -28711.910988320233, -24708.154762763355, -11113.712026323323, -18769.38566796609, -5640.708582485746, -8690.33589247893, -22529.105547559924, -24930.666378815935, -26978.332040111072, -4399.851489049374, -25897.06640208559, -19365.998430967145, -28276.968392964412, -24702.812695838536, -0.048, 0.98, 0.25, 192.0, 0.0, 0.0, 0.0, 0.0, 0.0, 0.0, 0.0, 0.0, 0.0, 1.741629045464823E9, 0.0, 2025-03-10 12:50:45.464
80.0, -21921.406319309037, -9048.79081830869, -28697.896444546754, -24725.41030948285, -11096.009444714718, -18805.684900961507, -5675.197324180284, -8710.743035166626, -22536.638085441362, -24934.0861957176, -26991.20664491733, -4414.558936900966, -25871.22778549526, -19375.855550271935, -28327.237466244398, -24720.872905358425, -0.048, 0.98, 0.25, 192.0, 0.0, 0.0, 0.0, 0.0, 0.0, 0.0, 0.0, 0.0, 0.0, 1.741629045465081E9, 0.0, 2025-03-10 12:50:45.465
82.0, -21947.893136488576, -9053.931719533412, -28704.132581249785, -24724.829164127015, -11101.91030525092, -18817.017235400348, -5666.256626398162, -8730.63608773185, -22547.858661157927, -24936.813108541144, -27008.73041257029, -4425.176015517237, -25869.864329083484, -19386.472628888205, -28288.65835531454, -24724.02450132662, -0.038, 0.984, 0.262, 192.0, 127.0, 104.0, 15.0, 96.0, 4.0, 24.0, 0.0, 0.0, 0.0, 1.741629045465344E9, 0.0, 2025-03-10 12:50:45.465
84.0, -21934.795014237763, -9044.052248484166, -28675.05296171343, -24699.9293208038, -11081.57021779659, -18790.552769965267, -5690.418862154349, -8695.521497192562, -22545.93641113477, -24923.7820415237, -27016.48646789628, -4415.430654934723, -25888.50568395921, -19393.26755920262, -28310.183085225, -24672.280212912585, -0.038, 0.984, 0.262, 192.0, 0.0, 0.0, 0.0, 0.0, 0.0, 0.0, 0.0, 0.0, 0.0, 1.741629045465692E9, 0.0, 2025-03-10 12:50:45.465
86.0, -21945.568555065223, -9036.542062347182, -28680.082104215875, -24696.08482075749, -11092.299055135138, -18764.24476674137, -5665.720184531234, -8712.218250300677, -22529.776099893585, -24906.459439570837, -27001.10846771103, -4392.944800012684, -25835.621456577952, -19367.69716354575, -28261.791558479257, -24673.50955885763, -0.038, 0.984, 0.262, 192.0, 0.0, 0.0, 0.0, 0.0, 0.0, 0.0, 0.0, 0.0, 0.0, 1.741629045465944E9, 0.0, 2025-03-10 12:50:45.465
88.0, -21945.836775998687, -9039.045457726175, -28684.083066473373, -24718.190696023787, -11074.6635287599, -18753.873557314106, -5731.903699863398, -8694.627427414349, -22532.681826672775, -24904.93952094788, -27011.747898071757, -4387.088642965394, -25886.31521300259, -19392.93228303579, -28315.256931216354, -24684.104285729445, -0.038, 0.984, 0.262, 192.0, 0.0, 0.0, 0.0, 0.0, 0.0, 0.0, 0.0, 0.0, 0.0, 1.741629045466208E9, 0.0, 2025-03-10 12:50:45.466
90.0, -21944.428616098, -9035.402123379961, -28688.01697349751, -24686.473570641705, -11099.362206383015, -18775.510045946845, -5684.875629529432, -8714.67694219076, -22528.814974882007, -24905.900645959457, -27002.382517144983, -4397.102224481371, -25868.187948249335, -19327.285209570553, -28282.98101222289, -24692.486189900184, -0.038, 0.984, 0.262, 192.0, 0.0, 0.0, 0.0, 0.0, 0.0, 0.0, 0.0, 0.0, 0.0, 1.741629045466463E9, 0.0, 2025-03-10 12:50:45.466
92.0, -21944.316857375725, -9033.54692859017, -28680.95382224963, -24697.1800562358, -11104.234886674272, -18770.771476122318, -5757.831723431555, -8677.304825461486, -22516.07448054248, -24888.89096842897, -26985.730467525776, -4386.39573888728, -25816.73423251322, -19455.830091933025, -28310.31719569173, -24651.806014991525, -0.042, 0.964, 0.264, 192.0, 127.0, 88.0, 15.0, 16.0, 4.0, 32.0, 0.0, 0.0, 0.0, 1.741629045492373E9, 0.0, 2025-03-10 12:50:45.492
94.0, -21941.612296296633, -9028.763655276734, -28692.844950299856, -24671.989640234668, -11077.166924138895, -18783.310804761746, -5696.990275024209, -8734.145311611332, -22521.930637589772, -24895.820009210114, -26984.702287280834, -4389.145003455282, -25818.879999980927, -19409.60668439945, -28276.811930753225, -24673.911890257823, -0.042, 0.964, 0.264, 192.0, 0.0, 0.0, 0.0, 0.0, 0.0, 0.0, 0.0, 0.0, 0.0, 1.741629045492694E9, 0.0, 2025-03-10 12:50:45.492
96.0, -21953.212851668937, -9024.986210463789, -28710.279310974995, -24685.087762485477, -11084.073613175586, -18812.613941742653, -5761.072726377574, -8712.330009022953, -22520.58953292245, -24890.567349263114, -26980.366048856504, -4378.080889949905, -25846.149128216402, -19394.8768848034, -28302.829361299202, -24667.586346576973, -0.042, 0.964, 0.264, 192.0, 0.0, 0.0, 0.0, 0.0, 0.0, 0.0, 0.0, 0.0, 0.0, 1.741629045552577E9, 0.0, 2025-03-10 12:50:45.552
98.0, -21962.95821225145, -9039.023105981722, -28740.58827645639, -24706.12075401792, -11109.666360576912, -18800.499296247875, -5717.062141545074, -8714.654590446306, -22535.3193325185, -24890.36618356302, -26992.525397840192, -4397.459852392656, -25858.755512089196, -19384.528027120596, -28296.436762384983, -24692.88852130038, -0.042, 0.964, 0.264, 192.0, 0.0, 0.0, 0.0, 0.0, 0.0, 0.0, 0.0, 0.0, 0.0, 1.741629045552908E9, 0.0, 2025-03-10 12:50:45.552
100.0, -21960.72303780592, -9018.571259805114, -28715.196694755163, -24684.327803173997, -11084.43124108687, -18773.587795923686, -5809.754825801233, -8727.462140019195, -22527.16094579231, -24899.284529600685, -26986.132798925973, -4384.428785375212, -25853.055817253095, -19389.26659694512, -28326.36574821064, -24667.31812564351, -0.042, 0.964, 0.264, 192.0, 0.0, 0.0, 0.0, 0.0, 0.0, 0.0, 0.0, 0.0, 0.0, 1.741629045553171E9, 0.0, 2025-03-10 12:50:45.553
102.0, -21953.615183069134, -9019.867660983522, -28713.430906943195, -24669.21802392221, -11085.437069587359, -18794.643139200587, -5742.1631505683845, -8698.807203627492, -22523.003521323626, -24863.722904172293, -26986.24455764825, -4386.39573888728, -25845.433872393834, -19430.46086197625, -28295.945024006967, -24679.119846715912, -0.036000000000000004, 0.962, 0.272, 192.0, 127.0, 112.0, 15.0, 8.0, 4.0, 64.0, 0.0, 0.0, 0.0, 1.741629045553419E9, 0.0, 2025-03-10 12:50:45.553
104.0, -21972.792979811788, -9032.541100089682, -28724.33855823738, -24707.908893574346, -11112.147404211451, -18804.96964513894, -5813.53227061418, -8708.261991532087, -22541.75663492163, -24892.1766748639, -27007.322252669604, -4391.335474411902, -25873.39590470742, -19422.21306827224, -28324.97994005441, -24664.144177930855, -0.036000000000000004, 0.962, 0.272, 192.0, 0.0, 0.0, 0.0, 0.0, 0.0, 0.0, 0.0, 0.0, 0.0, 1.741629045553696E9, 0.0, 2025-03-10 12:50:45.553
106.0, -21968.47909313191, -9023.376884863006, -28707.53004640699, -24687.769971820115, -11087.158153910417, -18682.63854773504, -5762.547941511624, -8700.908267606292, -22546.204632068235, -24882.16309334792, -27019.705119097845, -4409.283925209514, -25859.06843651157, -19426.526954952118, -28320.84486733018, -24686.45121889725, -0.036000000000000004, 0.962, 0.272, 192.0, 0.0, 0.0, 0.0, 0.0, 0.0, 0.0, 0.0, 0.0, 0.0, 1.741629045553958E9, 0.0, 2025-03-10 12:50:45.553
108.0, -21981.73367759391, -9032.675210556414, -28705.741906850566, -24664.59121281996, -11108.034683231674, -18844.77810201384, -5835.057000524641, -8721.114244593888, -22542.047207599546, -24878.855035168534, -27016.10648824054, -4382.193610929681, -25873.664125640888, -19373.01687872611, -28309.579588124703, -24664.613564564417, -0.036000000000000004, 0.962, 0.272, 192.0, 0.0, 0.0, 0.0, 0.0, 0.0, 0.0, 0.0, 0.0, 0.0, 1.741629045554214E9, 0.0, 2025-03-10 12:50:45.554
110.0, -21957.526738348814, -9015.285553370184, -28682.831368783878, -24669.575651833493, -11073.031851414664, -18803.67324396053, -5763.240845589739, -8704.350436252409, -22538.873259886892, -24867.030962351677, -27013.133706227985, -4381.590113829388, -25817.181267402324, -19437.524013224127, -28294.514512361828, -24661.149044173842, -0.036000000000000004, 0.962, 0.272, 192.0, 0.0, 0.0, 0.0, 0.0, 0.0, 0.0, 0.0, 0.0, 0.0, 1.741629045554473E9, 0.0, 2025-03-10 12:50:45.554
112.0, -21981.577215382724, -9032.943431489877, -28715.599026155356, -24694.967233534724, -11109.889878021464, -18814.513840021355, -5866.036518339696, -8760.185093901766, -22533.710006917718, -24865.64515419545, -27008.193970703363, -4392.162488956748, -25874.245270996726, -19406.768012853627, -28310.40660266955, -24683.41138165133, -0.032, 0.976, 0.274, 192.0, 127.5, 0.0, 15.0, 64.0, 4.0, 72.0, 0.0, 0.0, 0.0, 1.741629045603291E9, 0.0, 2025-03-10 12:50:45.603
114.0, -21965.19338669698, -9022.907498229444, -28689.91687177621, -24648.944991701246, -11084.67711027588, -18777.409944225543, -5813.53227061418, -8672.119220747856, -22532.480660972677, -24863.700552427836, -27002.96366250082, -4384.518192353034, -25851.49119514122, -19436.9875713572, -28317.31329170624, -24674.247166424655, -0.032, 0.976, 0.274, 192.0, 0.0, 0.0, 0.0, 0.0, 0.0, 0.0, 0.0, 0.0, 0.0, 1.741629045603586E9, 0.0, 2025-03-10 12:50:45.603
116.0, -21990.026174786828, -9025.07561744161, -28712.8274098429, -24690.876864299404, -11114.226116445794, -18816.458441788967, -5874.999567866274, -8727.484491763651, -22530.08902431596, -24863.566441961106, -27000.348508399547, -4381.992445229584, -25865.46103542579, -19425.409367729353, -28307.724393334913, -24665.127654686887, -0.032, 0.976, 0.274, 192.0, 0.0, 0.0, 0.0, 0.0, 0.0, 0.0, 0.0, 0.0, 0.0, 1.741629045603857E9, 0.0, 2025-03-10 12:50:45.603
118.0, -21973.754104823365, -9026.55083257566, -28729.792383884476, -24679.946861260756, -11078.440973572848, -18795.447802000977, -5807.698465311345, -8705.289209519531, -22542.94127737776, -24858.358485503017, -27019.481601653293, -4395.045863991483, -25844.182174704336, -19392.015861513122, -28327.908018578055, -24679.70099207175, -0.032, 0.976, 0.274, 192.0, 0.0, 0.0, 0.0, 0.0, 0.0, 0.0, 0.0, 0.0, 0.0, 1.741629045604109E9, 0.0, 2025-03-10 12:50:45.604
120.0, -21999.570369669244, -9016.78312024869, -28733.81569788643, -24702.253902227152, -11108.571125098602, -18812.412776042554, -5853.765410633732, -8735.933451167757, -22541.75663492163, -24876.843378167556, -27034.79254660518, -4428.64053590781, -25864.11993075847, -19390.451239401253, -28325.874009832623, -24697.157704491343, -0.032, 0.976, 0.274, 192.0, 0.0, 0.0, 0.0, 0.0, 0.0, 0.0, 0.0, 0.0, 0.0, 1.741629045604379E9, 0.0, 2025-03-10 12:50:45.604
122.0, -21966.86976753113, -9012.73745450228, -28724.74088963758, -24726.572600194526, -11080.542037551646, -18816.77136621134, -5839.303831971149, -8730.837253431948, -22529.485527215664, -24859.05138958113, -27024.73426160029, -4413.039018278006, -25864.522262158665, -19440.206222558765, -28325.337567965697, -24678.44929438225, -0.03, 0.97, 0.274, 192.0, 127.5, 8.0, 15.0, 40.0, 4.0, 72.0, 0.0, 0.0, 0.0, 1.741629045604641E9, 0.0, 2025-03-10 12:50:45.604
124.0, -21980.861959560152, -9018.995942949765, -28690.587424109868, -24634.550468272028, -11067.421563556381, -18794.129049078114, -5813.621677592001, -8705.177450797255, -22530.491355716153, -24864.34875301704, -27024.35428194455, -4412.971963044639, -25849.01015150668, -19348.25114586963, -28302.069401987723, -24683.9254717738, -0.03, 0.97, 0.274, 192.0, 0.0, 0.0, 0.0, 0.0, 0.0, 0.0, 0.0, 0.0, 0.0, 1.741629045604898E9, 0.0, 2025-03-10 12:50:45.604
126.0, -21977.6880118475, -9014.726759758802, -28694.186054967173, -24658.198613905744, -11059.28552857465, -18782.170865794524, -5803.362226887015, -8700.595343183917, -22538.0685970865, -24854.78220639017, -27014.094831239563, -4378.684387050198, -25835.621456577952, -19430.41615848734, -28305.60097761166, -24646.843927722446, -0.03, 0.97, 0.274, 192.0, 0.0, 0.0, 0.0, 0.0, 0.0, 0.0, 0.0, 0.0, 0.0, 1.741629045644609E9, 0.0, 2025-03-10 12:50:45.644
128.0, -22006.901741850586, -9029.478911099304, -28732.45224147466, -24716.02257681162, -11102.647912817945, -18817.218401100446, -5808.927811256387, -8759.223968890186, -22535.453442985232, -24851.20592727732, -27024.510744155737, -4390.10612846686, -25841.20939269178, -19385.243282943164, -28284.54563433476, -24659.0703319395, -0.03, 0.97, 0.274, 192.0, 0.0, 0.0, 0.0, 0.0, 0.0, 0.0, 0.0, 0.0, 0.0, 1.74162904564492E9, 0.0, 2025-03-10 12:50:45.644
130.0, -21997.424602201536, -9041.571204849626, -28732.809869385943, -24822.95332228581, -11077.077517161075, -18796.207761312457, -5843.863587840032, -8701.109433306388, -22561.89555667586, -24864.415808250407, -27067.090817343094, -4458.010728122083, -25867.562099404586, -19341.657381255314, -28353.81369040176, -24713.250960499165, -0.03, 0.97, 0.274, 192.0, 0.0, 0.0, 0.0, 0.0, 0.0, 0.0, 0.0, 0.0, 0.0, 1.741629045645185E9, 0.0, 2025-03-10 12:50:45.645
132.0, -21987.45572417447, -9008.512974800227, -28712.514485420525, -24647.223907378186, -11073.680052003867, -18780.360374493644, -5790.398215102937, -8702.651703673804, -22542.40483551083, -24818.39356641693, -27049.6341049235, -4432.775608632041, -25833.78861353262, -19238.369970127344, -28295.721506562415, -24715.150858777866, -0.032, 0.972, 0.266, 192.0, 127.5, 0.0, 15.0, 48.0, 4.0, 40.0, 0.0, 0.0, 0.0, 1.741629045645436E9, 0.0, 2025-03-10 12:50:45.645
134.0, -21968.568500109734, -9013.005675435743, -28704.64667137226, -24714.636768655393, -11059.441990785837, -18807.741261451396, -5842.768352361722, -8741.342573325941, -22522.288265501054, -24851.340037744052, -27025.695386611867, -4374.258741648047, -25837.54370660111, -19420.38022522691, -28318.140306251087, -24631.443575792742, -0.032, 0.972, 0.266, 192.0, 0.0, 0.0, 0.0, 0.0, 0.0, 0.0, 0.0, 0.0, 0.0, 1.741629045703599E9, 0.0, 2025-03-10 12:50:45.703
136.0, -21969.619032099134, -9006.389559076972, -28701.58448238188, -24625.073328622977, -11060.291357075139, -18774.72773489091, -5768.560560770102, -8666.33011893393, -22521.327140489477, -24831.692854367837, -27026.097718012064, -4408.836890320407, -25816.91304646886, -19305.760479660094, -28277.482483086886, -24678.091666470966, -0.032, 0.972, 0.266, 192.0, 0.0, 0.0, 0.0, 0.0, 0.0, 0.0, 0.0, 0.0, 0.0, 1.741629045703895E9, 0.0, 2025-03-10 12:50:45.703
138.0, -21962.041790728785, -9001.181602618886, -28703.417325427214, -24688.574634620505, -11061.028964642164, -18795.11252583415, -5842.142503516973, -8724.310544050997, -22513.54873341903, -24814.772583815167, -27026.16477324543, -4398.0857012374045, -25848.630171850942, -19308.040357594535, -28312.820591070726, -24650.956648702224, -0.032, 0.972, 0.266, 192.0, 0.0, 0.0, 0.0, 0.0, 0.0, 0.0, 0.0, 0.0, 0.0, 1.741629045704171E9, 0.0, 2025-03-10 12:50:45.704
140.0, -21961.214776183937, -8999.996960162754, -28705.786610339477, -24676.191768192264, -11071.243711858238, -18813.35154930968, -5769.544037526136, -8716.845061402924, -22519.94133233325, -24785.447095089807, -27030.59041864758, -4407.92046879774, -25827.708939040775, -19257.681877336727, -28278.242442398365, -24688.84285555397, -0.032, 0.972, 0.266, 192.0, 0.0, 0.0, 0.0, 0.0, 0.0, 0.0, 0.0, 0.0, 0.0, 1.741629045704441E9, 0.0, 2025-03-10 12:50:45.704
142.0, -21947.088473688185, -8993.649064737447, -28693.761371822522, -24679.119846715912, -11051.440066270838, -18786.931787363505, -5864.6060066945565, -8691.922866335257, -22517.88497184336, -24802.72499355376, -27033.809069849143, -4378.013834716539, -25857.83909056653, -19247.355371398375, -28310.205436969452, -24654.443520837252, -0.026000000000000002, 0.966, 0.264, 192.0, 127.5, 24.0, 15.0, 24.0, 4.0, 32.0, 0.0, 0.0, 0.0, 1.741629045704706E9, 0.0, 2025-03-10 12:50:45.704
144.0, -21947.647267299566, -8996.040701394166, -28690.475665387592, -24647.246259122643, -11045.315688290082, -18785.47892397391, -5790.509973825214, -8720.086064348945, -22510.55359966202, -24787.548159068607, -27018.185200474883, -4380.1819539287035, -25834.25800016618, -19266.220243718653, -28253.230840352877, -24651.604849291427, -0.026000000000000002, 0.966, 0.264, 192.0, 0.0, 0.0, 0.0, 0.0, 0.0, 0.0, 0.0, 0.0, 0.0, 1.741629045704969E9, 0.0, 2025-03-10 12:50:45.704
146.0, -21951.536470834788, -8993.157326359431, -28687.480531630583, -24688.21700670922, -11048.824912169566, -18767.37401096511, -5871.2444747977825, -8702.651703673804, -22510.911227573306, -24769.219728615255, -27021.8285348211, -4387.066291220938, -25849.725407329253, -19175.11453331882, -28289.306555903742, -24658.176262161287, -0.026000000000000002, 0.966, 0.264, 192.0, 0.0, 0.0, 0.0, 0.0, 0.0, 0.0, 0.0, 0.0, 0.0, 1.74162904570522E9, 0.0, 2025-03-10 12:50:45.705
148.0, -21952.162319679537, -8994.900762426945, -28680.05975247142, -24684.59602410746, -11055.642194228434, -18799.493467747387, -5821.847119551554, -8724.06467486199, -22511.69353862924, -24769.08561814852, -27018.229903963795, -4385.188744686692, -25821.986892460216, -19216.822888472427, -28262.328000346184, -24663.764198275116, -0.026000000000000002, 0.966, 0.264, 192.0, 0.0, 0.0, 0.0, 0.0, 0.0, 0.0, 0.0, 0.0, 0.0, 1.741629045705489E9, 0.0, 2025-03-10 12:50:45.705
150.0, -21960.387761639093, -8988.128183856987, -28664.77115926399, -24642.977075931678, -11044.846301656522, -18795.827781656717, -5877.838239412098, -8707.412625242785, -22513.347567718934, -24756.47923427573, -27027.21530523483, -4387.0439394764835, -25842.68460782583, -19186.491571246574, -28277.68364878698, -24653.97413420369, -0.026000000000000002, 0.966, 0.264, 192.0, 0.0, 0.0, 0.0, 0.0, 0.0, 0.0, 0.0, 0.0, 0.0, 1.741629045758833E9, 0.0, 2025-03-10 12:50:45.758
152.0, -21980.05729675976, -9009.630562022992, -28678.29396465945, -24697.13535274689, -11045.494502245725, -18832.127014652135, -5834.207634235338, -8736.559300012506, -22524.92577134678, -24768.83974895951, -27043.44267170938, -4404.791224573997, -25820.288159881613, -19118.341102402344, -28256.78476772127, -24664.50180584214, -0.032, 0.984, 0.262, 192.0, 127.5, 0.0, 15.0, 96.0, 4.0, 24.0, 0.0, 0.0, 0.0, 1.741629045759145E9, 0.0, 2025-03-10 12:50:45.759
154.0, -21993.78126785532, -9000.846326452056, -28682.071409472395, -24742.308228291062, -11055.28456631715, -18787.825857141717, -5936.5115686072795, -8730.770198198581, -22537.2192307972, -24751.673609217836, -27065.079160342117, -4435.1225417998485, -25843.64573283741, -19101.15261091621, -28295.185064695488, -24679.20925369373, -0.032, 0.984, 0.262, 192.0, 0.0, 0.0, 0.0, 0.0, 0.0, 0.0, 0.0, 0.0, 0.0, 1.741629045759417E9, 0.0, 2025-03-10 12:50:45.759
156.0, -21976.883349047108, -8996.443032794361, -28668.05686569892, -24689.49105614317, -11043.348734778016, -18819.52063077934, -5835.861663325031, -8701.91409610678, -22541.488413988165, -24767.342182081007, -27067.917831887942, -4440.174036046748, -25845.366817160466, -19064.898081409705, -28279.449436598952, -24685.065410741023, -0.032, 0.984, 0.262, 192.0, 0.0, 0.0, 0.0, 0.0, 0.0, 0.0, 0.0, 0.0, 0.0, 1.741629045759696E9, 0.0, 2025-03-10 12:50:45.759
158.0, -21976.90570079156, -8990.58687574707, -28674.024781468488, -24658.802111006036, -11064.04645014363, -18835.368017598157, -5941.026620987252, -8724.355247539908, -22514.062823541502, -24722.102251303466, -27040.805165863654, -4376.5833230714, -25830.078223953038, -19118.1622884467, -28282.22105291141, -24654.063541181513, -0.032, 0.984, 0.262, 192.0, 0.0, 0.0, 0.0, 0.0, 0.0, 0.0, 0.0, 0.0, 0.0, 1.741629045759958E9, 0.0, 2025-03-10 12:50:45.759
160.0, -21961.818273284232, -8992.30796007013, -28674.047133212942, -24711.596931409473, -11051.149493592919, -18807.83066842922, -5876.117155089039, -8714.2075555572, -22513.816954352493, -24729.858306629456, -27043.64383740948, -4387.133346454304, -25834.123889699447, -19064.853377920794, -28280.701134288447, -24680.349192660953, -0.032, 0.984, 0.262, 192.0, 0.0, 0.0, 0.0, 0.0, 0.0, 0.0, 0.0, 0.0, 0.0, 1.741629045760215E9, 0.0, 2025-03-10 12:50:45.760
162.0, -21977.73271533641, -8997.001826405743, -28698.0752585024, -24710.792268609082, -11079.022118928686, -18816.413738300056, -5938.74674305281, -8732.759503455103, -22516.052128798026, -24737.547306722085, -27054.6855991704, -4422.985544560617, -25859.291953956123, -19039.886479364217, -28287.16078843603, -24684.998355507658, -0.028, 0.988, 0.256, 192.0, 127.5, 16.0, 15.0, 112.0, 4.0, 0.0, 0.0, 0.0, 0.0, 1.741629045819706E9, 0.0, 2025-03-10 12:50:45.819
164.0, -21960.410113383547, -8984.68601521087, -28673.421284368193, -24665.46293085372, -11032.306973017094, -18783.087287317194, -5884.834335426609, -8719.080235848456, -22515.113355530902, -24733.412233997853, -27057.501918971768, -4410.222698476637, -25871.96539306228, -19049.475377735544, -28291.139398949075, -24673.330744901985, -0.028, 0.988, 0.256, 192.0, 0.0, 0.0, 0.0, 0.0, 0.0, 0.0, 0.0, 0.0, 0.0, 1.741629045820031E9, 0.0, 2025-03-10 12:50:45.820
166.0, -21970.758971066352, -8977.868733152001, -28670.29204014445, -24643.424110820786, -11057.89972041842, -18809.708214963463, -5928.286126647727, -8724.39995102882, -22498.84128556744, -24707.305396474054, -27035.038415794184, -4394.643532591287, -25817.91887496935, -19004.57072312483, -28251.68856998546, -24633.119956626888, -0.028, 0.988, 0.256, 192.0, 0.0, 0.0, 0.0, 0.0, 0.0, 0.0, 0.0, 0.0, 0.0, 1.741629045820291E9, 0.0, 2025-03-10 12:50:45.820
168.0, -21963.092322718185, -8978.338119785562, -28675.768217536, -24676.102361214445, -11039.95126962081, -18841.29122987881, -5895.965504165352, -8724.176433584265, -22513.03464329656, -24723.443355970783, -27050.461119468346, -4404.366541429346, -25824.222066905746, -19016.305388963865, -28283.293936645263, -24680.438599638775, -0.028, 0.988, 0.256, 192.0, 0.0, 0.0, 0.0, 0.0, 0.0, 0.0, 0.0, 0.0, 0.0, 1.741629045820542E9, 0.0, 2025-03-10 12:50:45.820
170.0, -21985.220549728936, -8995.347797316052, -28679.411551882215, -24671.006163478633, -11054.904586661409, -18821.15230812458, -5938.925557008452, -8727.886823163846, -22519.918980588795, -24758.312077321065, -27049.097663056575, -4384.585247586399, -25848.674875339853, -19022.921505322636, -28264.093788158156, -24654.130596414878, -0.028, 0.988, 0.256, 192.0, 0.0, 0.0, 0.0, 0.0, 0.0, 0.0, 0.0, 0.0, 0.0, 1.74162904582081E9, 0.0, 2025-03-10 12:50:45.820
172.0, -21975.005802512864, -8992.956160659332, -28664.458234841615, -24674.291869913563, -11043.482845244747, -18786.127124563114, -5911.902297961986, -8705.266857775076, -22519.762518377607, -24723.264542015142, -27059.848852139578, -4415.721227612642, -25850.083035240536, -18964.985783694483, -28290.46884661542, -24661.886651740868, -0.036000000000000004, 1.0, 0.254, 192.0, 127.0, 112.0, 15.5, 32.0, 3.5, 120.0, 0.0, 0.0, 0.0, 1.74162904582106E9, 0.0, 2025-03-10 12:50:45.821
174.0, -21985.198197984482, -8988.463460023817, -28672.057827956418, -24646.799224233535, -11061.006612897709, -18788.29524377528, -5919.099559676595, -8705.19980254171, -22523.07057655699, -24736.340312521497, -27054.573840448124, -4411.474396166133, -25844.91978227136, -18951.351219576743, -28256.225974109886, -24648.430901578773, -0.036000000000000004, 1.0, 0.254, 192.0, 0.0, 0.0, 0.0, 0.0, 0.0, 0.0, 0.0, 0.0, 0.0, 1.741629045821337E9, 0.0, 2025-03-10 12:50:45.821
176.0, -21958.733732549397, -8974.62773020598, -28658.33385686086, -24656.991619705157, -11055.150455850418, -18794.91136013405, -5909.734178749822, -8720.086064348945, -22489.74412557413, -24722.146954792377, -27054.97617184832, -4414.424826434234, -25839.756529302183, -19028.62120015874, -28282.086942444676, -24647.290962611554, -0.036000000000000004, 1.0, 0.254, 192.0, 0.0, 0.0, 0.0, 0.0, 0.0, 0.0, 0.0, 0.0, 0.0, 1.741629045821591E9, 0.0, 2025-03-10 12:50:45.821
178.0, -21980.034945015304, -8986.988244889766, -28685.73709556307, -24681.846759539458, -11057.542092507136, -18804.790831183294, -5917.579641053634, -8729.58555574245, -22500.897646057325, -24730.79707989658, -27048.225945022816, -4396.275209936525, -25833.989779232717, -19011.611522628253, -28247.531145516772, -24656.49988132714, -0.036000000000000004, 1.0, 0.254, 192.0, 0.0, 0.0, 0.0, 0.0, 0.0, 0.0, 0.0, 0.0, 0.0, 1.741629045861937E9, 0.0, 2025-03-10 12:50:45.861
180.0, -21965.81923554173, -8967.028137091176, -28698.097610246852, -24695.12369574591, -11069.097944390529, -18765.85409234215, -5928.956678981385, -8707.993770598623, -22489.140628473837, -24747.0915016045, -27063.849814397076, -4436.821274378452, -25875.02758205266, -18960.38132433669, -28293.37457339461, -24663.473625597195, -0.036000000000000004, 1.0, 0.254, 192.0, 0.0, 0.0, 0.0, 0.0, 0.0, 0.0, 0.0, 0.0, 0.0, 1.741629045862229E9, 0.0, 2025-03-10 12:50:45.862
182.0, -21981.957195038463, -8982.294378554152, -28693.29198518896, -24644.787567232557, -11052.535301749147, -18831.88114546313, -5884.2755418152265, -8706.406796742296, -22481.4069248923, -24739.916591634345, -27070.398875522482, -4414.82715783443, -25880.101428044014, -18916.16957380409, -28260.919840445502, -24664.099474441944, -0.034, 0.978, 0.254, 192.0, 127.0, 120.0, 15.0, 72.0, 3.5, 120.0, 0.0, 0.0, 0.0, 1.741629045862504E9, 0.0, 2025-03-10 12:50:45.862
184.0, -21962.28765991779, -8966.558750457616, -28676.170548936196, -24658.198613905744, -11048.824912169566, -18810.33406380821, -5930.476597604346, -8737.073390134978, -22501.74701234663, -24745.884507403913, -27045.096700799073, -4382.193610929681, -25848.54076487312, -19019.32287446533, -28281.63990755557, -24654.130596414878, -0.034, 0.978, 0.254, 192.0, 0.0, 0.0, 0.0, 0.0, 0.0, 0.0, 0.0, 0.0, 0.0, 1.741629045862795E9, 0.0, 2025-03-10 12:50:45.862
186.0, -21963.248784929372, -8964.792962645646, -28676.327011147383, -24667.54164308806, -11044.108694089497, -18804.656720716564, -5892.903315174975, -8717.873241647869, -22468.21939566367, -24731.624094441428, -27039.709930385347, -4402.1313669838155, -25823.797383761095, -18947.506719530433, -28253.63317175307, -24677.26465192612, -0.034, 0.978, 0.254, 192.0, 0.0, 0.0, 0.0, 0.0, 0.0, 0.0, 0.0, 0.0, 0.0, 1.741629045920958E9, 0.0, 2025-03-10 12:50:45.920
188.0, -21983.566520639244, -8965.262349279208, -28678.428075126183, -24657.237488894167, -11040.443007998825, -18809.66351147455, -5944.8487692891085, -8747.891634451345, -22499.60124487892, -24742.0400073576, -27038.12295652902, -4390.664922078243, -25865.192814492326, -18987.181065938603, -28288.21132042543, -24643.49116605415, -0.034, 0.978, 0.254, 192.0, 0.0, 0.0, 0.0, 0.0, 0.0, 0.0, 0.0, 0.0, 0.0, 1.741629045921289E9, 0.0, 2025-03-10 12:50:45.921
190.0, -21989.556788153266, -8958.601529431526, -28689.738057820567, -24675.655326325337, -11067.421563556381, -18777.655813414553, -5864.583654950101, -8729.786721442548, -22500.182390234757, -24741.682379446316, -27045.364921732536, -4412.30141071098, -25863.44937842481, -18952.535862032873, -28267.89358471556, -24679.87980602739, -0.034, 0.978, 0.254, 192.0, 0.0, 0.0, 0.0, 0.0, 0.0, 0.0, 0.0, 0.0, 0.0, 1.741629045921562E9, 0.0, 2025-03-10 12:50:45.921
192.0, -21984.840570073196, -8955.852264863523, -28680.417380382703, -24679.365715904918, -11064.605243755013, -18806.86954341764, -5957.812781073187, -8758.486361323163, -22490.41467790779, -24766.224594858242, -27041.632180408502, -4388.854430777363, -25892.104314816515, -19056.806749916883, -28306.74091657888, -24647.58153528947, -0.036000000000000004, 0.976, 0.26, 192.0, 127.0, 112.0, 15.0, 64.0, 4.0, 16.0, 0.0, 0.0, 0.0, 1.741629045921852E9, 0.0, 2025-03-10 12:50:45.921
194.0, -21979.92318629303, -8946.285718236652, -28681.132636205275, -24668.189843677264, -11060.961909408798, -18829.467157061954, -5883.001492381274, -8753.993660687645, -22487.97833776216, -24753.439397029808, -27039.039378051686, -4419.476320681134, -25859.180195233846, -18965.633984283686, -28278.756532520838, -24675.49886411415, -0.036000000000000004, 0.976, 0.26, 192.0, 0.0, 0.0, 0.0, 0.0, 0.0, 0.0, 0.0, 0.0, 0.0, 1.741629045922128E9, 0.0, 2025-03-10 12:50:45.922
196.0, -21985.578177640222, -8946.084552536555, -28684.887729273767, -24693.044983511565, -11050.210720325795, -18813.306845820767, -5957.119876995072, -8790.091727982966, -22488.201855206713, -24766.09048439151, -27048.82944212311, -4411.429692677223, -25913.60669298252, -18906.401861477123, -28313.26762595983, -24677.711686815226, -0.036000000000000004, 0.976, 0.26, 192.0, 0.0, 0.0, 0.0, 0.0, 0.0, 0.0, 0.0, 0.0, 0.0, 1.741629045922389E9, 0.0, 2025-03-10 12:50:45.922
198.0, -21970.602508855165, -8942.664735634891, -28666.82751975388, -24619.172468086777, -11042.767589422177, -18769.229205754902, -5876.810059167155, -8730.189052842743, -22477.49536961262, -24747.13620509341, -27033.630255893502, -4393.190669201693, -25867.182119748846, -18980.833170513295, -28281.729314533393, -24682.36084966193, -0.036000000000000004, 0.976, 0.26, 192.0, 0.0, 0.0, 0.0, 0.0, 0.0, 0.0, 0.0, 0.0, 0.0, 1.74162904592265E9, 0.0, 2025-03-10 12:50:45.922
200.0, -21977.35273568067, -8944.452875191317, -28670.068522699898, -24626.97322690168, -11063.37589780997, -18761.026115539804, -5954.79529557172, -8716.040398602534, -22486.50312262811, -24749.639600472405, -27049.187070034393, -4407.0040472750725, -25877.665087898386, -18922.048082595837, -28291.608785582637, -24634.081081638466, -0.036000000000000004, 0.976, 0.26, 192.0, 0.0, 0.0, 0.0, 0.0, 0.0, 0.0, 0.0, 0.0, 0.0, 1.741629045922911E9, 0.0, 2025-03-10 12:50:45.922
202.0, -21971.474226888924, -8943.491750179739, -28677.511653603513, -24683.053753740045, -11059.956080908309, -18825.019159915348, -5892.88096343052, -8757.771105500593, -22491.97930001966, -24753.886431918912, -27054.238564281295, -4418.246974736092, -25878.715619887786, -18984.342394392777, -28282.668087800514, -24633.38817756035, -0.022, 0.978, 0.248, 192.0, 127.5, 40.0, 15.0, 72.0, 3.5, 96.0, 0.0, 0.0, 0.0, 1.741629045975784E9, 0.0, 2025-03-10 12:50:45.975
204.0, -21973.888215290095, -8945.793979858636, -28675.097665202342, -24641.501860797627, -11054.6587174724, -18807.853020173672, -5972.810801602698, -8702.62935192935, -22493.16394247579, -24764.52586227964, -27058.284230027704, -4418.559899158466, -25898.49691373073, -18944.33277181778, -28300.594186853672, -24661.93135522978, -0.022, 0.978, 0.248, 192.0, 0.0, 0.0, 0.0, 0.0, 0.0, 0.0, 0.0, 0.0, 0.0, 1.74162904597609E9, 0.0, 2025-03-10 12:50:45.976
206.0, -21969.194348954483, -8941.368334456485, -28671.9684209786, -24682.047925239556, -11049.495464503225, -18770.413848211032, -5904.369760080548, -8743.756561727114, -22492.895721542325, -24787.481103835238, -27060.340590517593, -4426.740637629108, -25868.634983138443, -19012.729109851018, -28285.9761459799, -24652.409512091817, -0.022, 0.978, 0.248, 192.0, 0.0, 0.0, 0.0, 0.0, 0.0, 0.0, 0.0, 0.0, 0.0, 1.74162904597637E9, 0.0, 2025-03-10 12:50:45.976
208.0, -21994.5412271668, -8940.273098978174, -28667.72158953209, -24682.584367106483, -11068.248578101227, -18827.500203549887, -5988.099394810128, -8751.132637397366, -22496.047317510525, -24775.925251951845, -27066.21909930934, -4460.380013034345, -25875.206396008303, -18952.602917266242, -28302.248215943364, -24668.659230310826, -0.022, 0.978, 0.248, 192.0, 0.0, 0.0, 0.0, 0.0, 0.0, 0.0, 0.0, 0.0, 0.0, 1.741629045976627E9, 0.0, 2025-03-10 12:50:45.976
210.0, -21986.561654396257, -8929.09722675052, -28652.276534113473, -24674.671849569306, -11047.729676691257, -18814.111508621158, -5939.394943642014, -8787.320111670508, -22487.821875550973, -24758.401484298884, -27051.82457588012, -4394.621180846832, -25845.031540993637, -19004.078984746815, -28297.666108330028, -24664.92648898679, -0.022, 0.978, 0.248, 192.0, 0.0, 0.0, 0.0, 0.0, 0.0, 0.0, 0.0, 0.0, 0.0, 1.741629045976882E9, 0.0, 2025-03-10 12:50:45.976
212.0, -22015.842439632706, -8950.756067127713, -28672.34840063434, -24692.9779282782, -11085.772345754189, -18747.74917933335, -5978.689310394444, -8709.603096199406, -22501.434087924255, -24777.132246152432, -27071.98584937881, -4413.553108400477, -25867.606802893497, -18993.394850897177, -28306.606806112148, -24683.187864206775, -0.042, 0.992, 0.23600000000000002, 192.0, 127.0, 88.0, 15.5, 0.0, 3.5, 48.0, 0.0, 0.0, 0.0, 1.741629045977147E9, 0.0, 2025-03-10 12:50:45.977
214.0, -21999.97270106944, -8940.228395489263, -28656.545717304438, -24723.577466437517, -11050.367182536982, -18776.649984914064, -5941.451304131902, -8731.038419132045, -22501.2105704797, -24780.864987476467, -27076.947936647888, -4424.080780038927, -25851.73706433023, -18924.819698908294, -28326.812783099747, -24680.1256752164, -0.042, 0.992, 0.23600000000000002, 192.0, 0.0, 0.0, 0.0, 0.0, 0.0, 0.0, 0.0, 0.0, 0.0, 1.741629045977428E9, 0.0, 2025-03-10 12:50:45.977
216.0, -22023.754957169887, -8947.872692092978, -28666.179319164672, -24696.397745179864, -11064.359374566004, -18783.266101272835, -5960.450286918913, -8766.577692815983, -22501.143515246335, -24761.843652945, -27079.138407604507, -4420.705666626175, -25841.812889792072, -18971.132513419692, -28311.546541636773, -24708.691204630282, -0.042, 0.992, 0.23600000000000002, 192.0, 0.0, 0.0, 0.0, 0.0, 0.0, 0.0, 0.0, 0.0, 0.0, 1.74162904602677E9, 0.0, 2025-03-10 12:50:46.026
218.0, -22003.727794137933, -8933.455816919306, -28646.800356721924, -24701.382184193397, -11049.763685436688, -18746.653943855043, -5914.36098985207, -8725.875166162868, -22496.561407633, -24755.406350541874, -27080.613622738558, -4411.519099655045, -25864.321096458567, -18996.300577676368, -28318.65439637356, -24688.775800320604, -0.042, 0.992, 0.23600000000000002, 192.0, 0.0, 0.0, 0.0, 0.0, 0.0, 0.0, 0.0, 0.0, 0.0, 1.741629046027068E9, 0.0, 2025-03-10 12:50:46.027
220.0, -22017.608227444678, -8932.964078541288, -28656.366903348793, -24690.206311965743, -11080.653796273924, -18755.86286257063, -5959.17623748496, -8745.499997794628, -22492.739259331138, -24764.592917513004, -27078.40080003748, -4406.132329241315, -25824.087956439016, -18934.162728090614, -28301.37649790961, -24707.97594880771, -0.042, 0.992, 0.23600000000000002, 192.0, 0.0, 0.0, 0.0, 0.0, 0.0, 0.0, 0.0, 0.0, 0.0, 1.741629046027344E9, 0.0, 2025-03-10 12:50:46.027
222.0, -21991.30022422078, -8913.205136442797, -28627.823725679365, -24675.78943679207, -11027.031961325642, -18733.131138459583, -5945.876949534053, -8724.802282429015, -22473.896738755317, -24745.37041728144, -27068.208404565863, -4405.282962952014, -25824.71380528376, -18973.501798331952, -28310.74187883638, -24685.110114229934, -0.06, 0.978, 0.242, 192.0, 127.0, 16.0, 15.0, 72.0, 3.5, 72.0, 0.0, 0.0, 0.0, 1.741629046027594E9, 0.0, 2025-03-10 12:50:46.027
224.0, -22009.87452386314, -8919.977715012756, -28643.648760753724, -24645.435767821764, -11054.166979094385, -18752.823025324706, -5963.020737531274, -8716.845061402924, -22473.248538166114, -24762.871833189947, -27063.02279985223, -4391.938971512195, -25816.175438901835, -18963.24234762697, -28261.143357890054, -24664.702971542236, -0.06, 0.978, 0.242, 192.0, 0.0, 0.0, 0.0, 0.0, 0.0, 0.0, 0.0, 0.0, 0.0, 1.74162904602787E9, 0.0, 2025-03-10 12:50:46.027
226.0, -22000.129163280628, -8912.176956197853, -28641.659455497203, -24643.31235209851, -11053.943461649831, -18774.638327913086, -5985.104261053117, -8748.986869929657, -22475.483712611644, -24758.13326336542, -27067.224927809828, -4405.931163541218, -25833.699206554797, -18976.876911744705, -28308.37259392412, -24670.670887311804, -0.06, 0.978, 0.242, 192.0, 0.0, 0.0, 0.0, 0.0, 0.0, 0.0, 0.0, 0.0, 0.0, 1.741629046028125E9, 0.0, 2025-03-10 12:50:46.028
228.0, -22005.761802883364, -8911.104072463999, -28643.604057264813, -24660.769064518103, -11058.369107051982, -18714.981521961872, -5947.933310023941, -8767.963500972211, -22462.340886871923, -24756.32277206454, -27047.06365431114, -4386.149869698271, -25819.863476736962, -18915.655483681618, -28264.563174791718, -24660.947878473748, -0.06, 0.978, 0.242, 192.0, 0.0, 0.0, 0.0, 0.0, 0.0, 0.0, 0.0, 0.0, 0.0, 1.741629046028392E9, 0.0, 2025-03-10 12:50:46.028
230.0, -21998.229265001926, -8907.974828240256, -28634.015158893486, -24638.77494797408, -11059.777266952666, -18768.42454295451, -5980.119822039584, -8746.30466059502, -22466.2524421516, -24757.015676142655, -27052.651590424968, -4413.374294444835, -25839.01892173516, -19017.020644786437, -28307.478524145907, -24665.06059945352, -0.06, 0.978, 0.242, 192.0, 0.0, 0.0, 0.0, 0.0, 0.0, 0.0, 0.0, 0.0, 0.0, 1.741629046028643E9, 0.0, 2025-03-10 12:50:46.028
232.0, -22009.60630292968, -8911.551107353105, -28646.599191021825, -24629.186049602755, -11068.606206012513, -18785.031889084803, -5931.236556915826, -8743.533044282562, -22463.234956650133, -24758.33442906552, -27041.140442030486, -4393.481241879612, -25823.216238405257, -18984.677670559606, -28269.100578916143, -24649.83906147946, -0.056, 0.978, 0.254, 192.0, 127.0, 32.0, 15.0, 72.0, 3.5, 120.0, 0.0, 0.0, 0.0, 1.741629046079917E9, 0.0, 2025-03-10 12:50:46.079
234.0, -22011.908532608573, -8919.083645234543, -28649.683731756657, -24649.302619612532, -11065.544017022135, -18772.179636023004, -5975.4930109373345, -8746.416419317296, -22482.904491770805, -24758.781463954623, -27059.357113761558, -4393.838869790897, -25893.378364250468, -18996.747612565472, -28322.856524331157, -24644.027607921078, -0.056, 0.978, 0.254, 192.0, 0.0, 0.0, 0.0, 0.0, 0.0, 0.0, 0.0, 0.0, 0.0, 1.741629046080238E9, 0.0, 2025-03-10 12:50:46.080
236.0, -22001.246750503393, -8906.343150895018, -28635.80329844991, -24631.287113581555, -11045.382743523449, -18745.51400488782, -5941.451304131902, -8734.815863944992, -22469.560500330987, -24752.90295516288, -27032.9820553043, -4379.846677761874, -25820.109345925972, -18931.79344317835, -28270.665201028016, -24635.913924683802, -0.056, 0.978, 0.254, 192.0, 0.0, 0.0, 0.0, 0.0, 0.0, 0.0, 0.0, 0.0, 0.0, 1.741629046080504E9, 0.0, 2025-03-10 12:50:46.080
238.0, -21985.935805551508, -8888.752328008692, -28631.958798403597, -24619.619502975882, -11054.457551772304, -18753.493577658366, -6019.682409725477, -8749.210387374209, -22459.68102928174, -24745.41512077035, -27029.763404102734, -4370.280131135003, -25861.907108057396, -18952.446455055055, -28309.1325532356, -24613.718642439682, -0.056, 0.978, 0.254, 192.0, 0.0, 0.0, 0.0, 0.0, 0.0, 0.0, 0.0, 0.0, 0.0, 1.74162904608077E9, 0.0, 2025-03-10 12:50:46.080
240.0, -21996.418773701047, -8898.698854291302, -28650.39898757923, -24638.082043895967, -11052.535301749147, -18735.65688558303, -5955.979938027852, -8744.136541382855, -22451.813215233473, -24748.119681849443, -27013.670148094912, -4362.993462442572, -25834.056834466082, -18967.600937795753, -28264.98785793637, -24620.44651752073, -0.056, 0.978, 0.254, 192.0, 0.0, 0.0, 0.0, 0.0, 0.0, 0.0, 0.0, 0.0, 0.0, 1.741629046081017E9, 0.0, 2025-03-10 12:50:46.081
