%OpenBCI Raw EXG Data
%Number of channels = 16
%Sample Rate = 125 Hz
%Board = OpenBCI_GUI$BoardCytonSerialDaisy
Sample Index, EXG Channel 0, EXG Channel 1, EXG Channel 2, EXG Channel 3, EXG Channel 4, EXG Channel 5, EXG Channel 6, EXG Channel 7, EXG Channel 8, EXG Channel 9, EXG Channel 10, EXG Channel 11, EXG Channel 12, EXG Channel 13, EXG Channel 14, EXG Channel 15, Accel Channel 0, Accel Channel 1, Accel Channel 2, Not Used, Digital Channel 0 (D11), Digital Channel 1 (D12), Digital Channel 2 (D13), Digital Channel 3 (D17), Not Used, Digital Channel 4 (D18), Analog Channel 0, Analog Channel 1, Analog Channel 2, Timestamp, Marker Channel, Timestamp (Formatted)
12.0, 4063.8824181416535, -20341.182689807738, -947.4233922271005, 38046.066528089825, 17400.117802633977, 26746.99148499864, -8704.506898463595, 11893.631445602352, 27900.408554125854, 7356.473190364027, 16835.66919990411, 22325.70467301663, -4452.132219330338, -6080.0321197548055, 20973.468836959462, -12976.238188295149, 0.0, 0.0, 0.0, 192.0, 0.0, 0.0, 0.0, 0.0, 0.0, 0.0, 0.0, 0.0, 0.0, 1.742321969045447E9, 0.0, 2025-03-18 13:19:29.045
14.0, 4068.3080635438046, -20336.68998917222, -946.0375840708714, 38052.32501653731, 17399.40254681141, 26765.47637766318, -8706.339741508931, 11927.024951818581, 27903.24722567168, 7359.155399698663, 16837.345580738256, 22315.51227754501, -4456.69197519922, -6073.907741774052, 20971.457179958485, -12971.790191148542, 0.0, 0.0, 0.0, 192.0, 0.0, 0.0, 0.0, 0.0, 0.0, 0.0, 0.0, 0.0, 0.0, 1.742321969045792E9, 0.0, 2025-03-18 13:19:29.045
16.0, 4065.312929786793, -20346.12242533236, -961.9073226341394, 38043.38431875519, 17387.399660038907, 26755.082816491464, -8714.811052657491, 11908.987094043148, 27909.75158330817, 7360.429449132615, 16840.161900539624, 22334.60066730984, -4450.232321051636, -6072.544285362278, 20968.015011312367, -12969.62207193638, 0.0, 0.0, 0.0, 192.0, 0.0, 0.0, 0.0, 0.0, 0.0, 0.0, 0.0, 0.0, 0.0, 1.742321969046093E9, 0.0, 2025-03-18 13:19:29.046
18.0, 4063.5918454637344, -20345.92125963226, -958.8898371326729, 38038.64574893066, 17386.594997238517, 26754.546374624537, -8715.548660224516, 11911.646951633329, 27893.39010636689, 7344.962041969543, 16831.95881032453, 22311.51131528751, -4469.83480093894, -6083.675454101021, 20952.72641810494, -12978.920397629787, 0.0, 0.0, 0.0, 192.0, 0.0, 0.0, 0.0, 0.0, 0.0, 0.0, 0.0, 0.0, 0.0, 1.74232196904641E9, 0.0, 2025-03-18 13:19:29.046
20.0, 4068.0845460992514, -20340.266268285068, -953.8159911413182, 38041.61853094322, 17385.991500138225, 26748.511403621604, -8711.502994478107, 11901.253390461612, 27906.488228617698, 7352.651042062169, 16849.504929721945, 22333.61719055381, -4450.88052164084, -6087.318788447236, 20966.562147922774, -12970.873769625876, -0.128, 0.9380000000000001, 0.28400000000000003, 192.0, 126.0, 0.0, 14.5, 40.0, 4.0, 112.0, 0.0, 0.0, 0.0, 1.742321969046703E9, 0.0, 2025-03-18 13:19:29.046
22.0, 4066.631682709656, -20342.65790494179, -947.1775230380921, 38043.36196701074, 17390.931235662847, 26750.210136200207, -8709.066654332479, 11898.12414623787, 27900.56501633704, 7346.303146636862, 16837.591449927266, 22313.27710309948, -4458.949501389206, -6092.437337927501, 20958.00142979639, -12979.99328136364, -0.128, 0.9380000000000001, 0.28400000000000003, 192.0, 0.0, 0.0, 0.0, 0.0, 0.0, 0.0, 0.0, 0.0, 0.0, 1.742321969047041E9, 0.0, 2025-03-18 13:19:29.047
24.0, 4064.955301875508, -20340.02039909606, -946.7975433823518, 38048.77108916892, 17396.139192120932, 26754.144043224343, -8702.897572862814, 11906.506050408609, 27911.71853682024, 7356.204969430562, 16846.934479109583, 22336.634676055273, -4441.984527347628, -6081.932018033507, 20977.4027439836, -12970.270272525582, -0.128, 0.9380000000000001, 0.28400000000000003, 192.0, 0.0, 0.0, 0.0, 0.0, 0.0, 0.0, 0.0, 0.0, 0.0, 1.742321969047325E9, 0.0, 2025-03-18 13:19:29.047
26.0, 4073.2925025573377, -20340.914468874274, -939.6449851566537, 38052.12385083722, 17404.454041058307, 26751.05950248951, -8694.739186136627, 11911.35637895541, 27905.929435006314, 7349.097114693775, 16841.212432529024, 22324.967065449604, -4450.053507095994, -6084.457765156957, 20979.05677307329, -12969.823237636476, -0.128, 0.9380000000000001, 0.28400000000000003, 192.0, 0.0, 0.0, 0.0, 0.0, 0.0, 0.0, 0.0, 0.0, 0.0, 1.742321969047648E9, 0.0, 2025-03-18 13:19:29.047
28.0, 4069.7609269333993, -20340.467433985166, -938.6391566561648, 38055.27544680541, 17400.855410201002, 26748.44434838824, -8705.91505836428, 11902.59449512893, 27917.462935145253, 7360.585911343803, 16845.05693257534, 22341.216783668613, -4447.0360215945275, -6083.653102356566, 20981.828389385748, -12969.197388791728, -0.128, 0.9380000000000001, 0.28400000000000003, 192.0, 0.0, 0.0, 0.0, 0.0, 0.0, 0.0, 0.0, 0.0, 0.0, 1.742321969047949E9, 0.0, 2025-03-18 13:19:29.047
0.0, 1839.9285483275114, -10318.36990337013, -493.90649722892016, 18925.087919841757, 8704.462194974685, 13112.337960283514, -4334.472636517601, 5703.472280916248, 13951.891833769303, 3679.6112274660145, 8421.198537492579, 11167.356213016059, -2224.6914773811673, -3041.178350589079, 10492.042957787868, -6483.414051939732, -0.126, 0.935, 0.28, 192.0, 126.0, 16.0, 14.5, 16.0, 4.0, 80.0, 0.0, 0.0, 0.0, 1.742321969217409E9, 0.0, 2025-03-18 13:19:29.217
2.0, 3687.63550372547, -20626.27919033518, -982.8509071887621, 37858.714206065444, 17403.33645383554, 26228.408661891066, -8680.746994107603, 11396.59570414969, 27792.092000495435, 7027.142587559532, 16807.349539679235, 22338.109891189324, -4411.4073409327675, -6270.178409836103, 21054.896242010145, -12884.998367428585, -0.126, 0.935, 0.28, 192.0, 0.0, 0.0, 0.0, 0.0, 0.0, 0.0, 0.0, 0.0, 0.0, 1.742321969217775E9, 0.0, 2025-03-18 13:19:29.217
4.0, 3682.114622845009, -20632.917658438404, -989.4223200586224, 37854.243857174384, 17396.876799687958, 26218.484487352907, -8689.441822700719, 11380.390689419592, 27783.955965513705, 7027.880195126557, 16808.467126902, 22327.291646872956, -4414.067198522949, -6266.4009650231565, 21055.656201321628, -12886.004195929074, -0.126, 0.935, 0.28, 192.0, 0.0, 0.0, 0.0, 0.0, 0.0, 0.0, 0.0, 0.0, 0.0, 1.742321969218077E9, 0.0, 2025-03-18 13:19:29.218
6.0, 3676.1020035865313, -20643.646495776953, -995.3902358281895, 37849.572342583226, 17390.327738562555, 26209.812010504247, -8700.14830829481, 11389.890180813096, 27784.760628314096, 7012.39043621903, 16800.107574475715, 22327.76103350652, -4418.4928439251, -6284.394119309678, 21041.574602314784, -12896.688329778712, -0.126, 0.935, 0.28, 192.0, 0.0, 0.0, 0.0, 0.0, 0.0, 0.0, 0.0, 0.0, 0.0, 1.742321969218372E9, 0.0, 2025-03-18 13:19:29.218
8.0, 3673.240980296252, -20642.193632387356, -990.9422386815833, 37852.72393855142, 17397.994386910723, 26220.697310053984, -8693.62159891386, 11406.341064732202, 27771.483692107642, 7005.260229737786, 16797.917103519096, 22302.972948905583, -4421.420922448745, -6288.596247267276, 21044.435625605063, -12896.040129189507, -0.124, 0.936, 0.272, 192.0, 126.0, 16.0, 14.5, 32.0, 4.0, 64.0, 0.0, 0.0, 0.0, 1.742321969218684E9, 0.0, 2025-03-18 13:19:29.218
10.0, 3675.118526830498, -20638.103263152036, -981.8450786882734, 37854.02033972983, 17415.69696851933, 26223.021891477336, -8664.720793333148, 11403.614151908654, 27782.994840502124, 7007.495404183317, 16802.834487299264, 22321.18962063666, -4414.134253756315, -6287.568067022332, 21050.649410563638, -12890.496896564591, -0.124, 0.936, 0.272, 192.0, 0.0, 0.0, 0.0, 0.0, 0.0, 0.0, 0.0, 0.0, 0.0, 1.742321969219001E9, 0.0, 2025-03-18 13:19:29.219
12.0, 3680.1700210773975, -20638.080911407582, -977.0618053748376, 37852.45571761796, 17414.15469815191, 26227.939275257504, -8663.692613088204, 11415.371169492146, 27795.802390075016, 7014.24563100882, 16809.47295540249, 22312.874771699284, -4409.306276953969, -6279.946122163073, 21064.194567703555, -12880.148038881784, -0.124, 0.936, 0.272, 192.0, 0.0, 0.0, 0.0, 0.0, 0.0, 0.0, 0.0, 0.0, 0.0, 1.74232196921931E9, 0.0, 2025-03-18 13:19:29.219
14.0, 3669.1059075720204, -20654.84471974906, -983.0744246333152, 37837.033013943794, 17405.97395968127, 26211.33192912721, -8671.828648069937, 11393.600570392677, 27782.950137013217, 7001.818061091669, 16802.70037683253, 22312.763012977008, -4410.356808943368, -6295.145308392681, 21054.091579209755, -12893.804954743977, -0.124, 0.936, 0.272, 192.0, 0.0, 0.0, 0.0, 0.0, 0.0, 0.0, 0.0, 0.0, 0.0, 1.742321969219646E9, 0.0, 2025-03-18 13:19:29.219
16.0, 3662.176866790875, -20661.61729831902, -987.0306834019045, 37830.95333945195, 17392.361747307987, 26203.57587380122, -8682.043395286011, 11398.652064639577, 27771.81896827447, 6987.200020217899, 16794.206713939515, 22295.351004046322, -4424.2595939945695, -6306.7235120205305, 21046.916669239603, -12901.337492625415, -0.124, 0.936, 0.272, 192.0, 0.0, 0.0, 0.0, 0.0, 0.0, 0.0, 0.0, 0.0, 0.0, 1.742321969276862E9, 0.0, 2025-03-18 13:19:29.276
18.0, 3672.9951111072437, -20649.03326619068, -980.0569391318488, 37835.96013020994, 17400.810706712095, 26198.882007465603, -8680.210552240676, 11393.667625626043, 27782.078418979458, 6989.815174319169, 16797.76064130791, 22302.70472797212, -4418.068160780449, -6310.456253344567, 21046.335523883765, -12905.070233949451, -0.128, 0.936, 0.268, 192.0, 126.0, 0.0, 14.5, 32.0, 4.0, 48.0, 0.0, 0.0, 0.0, 1.742321969277126E9, 0.0, 2025-03-18 13:19:29.277
20.0, 3675.1632303194083, -20641.65719052043, -983.8120322003404, 37841.503362834854, 17397.59205551053, 26201.810085989247, -8700.237715272631, 11394.807564593264, 27782.413695146286, 6999.3146657126745, 16809.18238272457, 22305.945730918138, -4412.30141071098, -6299.213325883547, 21050.202375674533, -12893.089698921407, -0.128, 0.936, 0.268, 192.0, 0.0, 0.0, 0.0, 0.0, 0.0, 0.0, 0.0, 0.0, 0.0, 1.742321969277341E9, 0.0, 2025-03-18 13:19:29.277
22.0, 3667.317768015596, -20653.458911592832, -997.8265759738179, 37831.95916795244, 17396.78739271014, 26194.590472530184, -8686.603151154894, 11382.000015020372, 27785.766456814585, 6999.515831412773, 16806.500173389933, 22314.59585602234, -4406.020570519039, -6297.469889816033, 21048.280125651378, -12897.35888211237, -0.128, 0.936, 0.268, 192.0, 0.0, 0.0, 0.0, 0.0, 0.0, 0.0, 0.0, 0.0, 0.0, 1.742321969277542E9, 0.0, 2025-03-18 13:19:29.277
24.0, 3671.1175645729977, -20647.982734201283, -987.0083316574493, 37830.05926967374, 17394.73103222025, 26190.634213761594, -8686.200819754698, 11377.44025915149, 27776.22226193217, 6986.2835986952305, 16797.335958163258, 22294.70280345712, -4422.605564904877, -6308.444596343589, 21041.50754708142, -12910.702873552189, -0.128, 0.936, 0.268, 192.0, 0.0, 0.0, 0.0, 0.0, 0.0, 0.0, 0.0, 0.0, 0.0, 1.742321969277743E9, 0.0, 2025-03-18 13:19:29.277
26.0, 3669.2623697832073, -20657.459873850334, -989.8246514588179, 37831.1321534076, 17388.137267605933, 26196.04333591978, -8699.209535027687, 11376.210913206449, 27783.061895735493, 6990.3292644416415, 16805.583751867267, 22304.962254162107, -4412.368465944346, -6302.610791040754, 21043.429797104574, -12907.417167117259, -0.128, 0.936, 0.268, 192.0, 0.0, 0.0, 0.0, 0.0, 0.0, 0.0, 0.0, 0.0, 0.0, 1.742321969277941E9, 0.0, 2025-03-18 13:19:29.277
28.0, 3664.3226342585845, -20662.198443674857, -995.9266776951168, 37826.03595567178, 17387.332604805542, 26186.47678929291, -8691.073500045955, 11364.029212478306, 27781.653735834807, 6981.455621892885, 16800.84518204274, 22288.153742331713, -4418.11286426936, -6313.898421990683, 21035.561983056305, -12915.396739887803, -0.13, 0.9380000000000001, 0.264, 192.0, 125.5, 120.0, 14.5, 40.0, 4.0, 32.0, 0.0, 0.0, 0.0, 1.742321969278128E9, 0.0, 2025-03-18 13:19:29.278
30.0, 3665.3508145035285, -20664.858301265038, -996.0607881618487, 37825.946548693966, 17391.937064163336, 26187.70613523795, -8689.128898278344, 11371.5841021042, 27780.49144512313, 6981.165049214966, 16798.028862241372, 22286.11973358628, -4416.995277046594, -6311.7750062674295, 21037.998323201933, -12914.435614876225, -0.13, 0.9380000000000001, 0.264, 192.0, 0.0, 0.0, 0.0, 0.0, 0.0, 0.0, 0.0, 0.0, 0.0, 1.742321969337288E9, 0.0, 2025-03-18 13:19:29.337
32.0, 3658.7794016336684, -20664.970059987314, -1008.3318958678122, 37820.73859223587, 17378.369555278965, 26179.45834153394, -8709.044302588023, 11369.505389869857, 27770.991953729626, 6972.246703177298, 16783.008489967408, 22281.247053295025, -4428.908756841273, -6318.592288326298, 21023.87202070618, -12923.242202191615, -0.13, 0.9380000000000001, 0.264, 192.0, 0.0, 0.0, 0.0, 0.0, 0.0, 0.0, 0.0, 0.0, 0.0, 1.742321969337544E9, 0.0, 2025-03-18 13:19:29.337
34.0, 3662.400384235428, -20652.94482147036, -1002.6992562650748, 37831.44507782997, 17392.83113394155, 26187.102638137658, -8692.839287857925, 11378.289625440791, 27775.618764831874, 6983.1096509825775, 16794.117306961693, 22298.010861636503, -4423.253765494081, -6310.880936489218, 21033.840898733248, -12913.563896842468, -0.13, 0.9380000000000001, 0.264, 192.0, 0.0, 0.0, 0.0, 0.0, 0.0, 0.0, 0.0, 0.0, 0.0, 1.742321969337758E9, 0.0, 2025-03-18 13:19:29.337
36.0, 3666.043718581643, -20648.921507468403, -1001.8498899757732, 37835.378984854106, 17384.44922977081, 26184.66629799203, -8704.685712419237, 11371.159418959549, 27771.86367176338, 6992.743252842814, 16797.581827352267, 22311.42190830969, -4421.510329426566, -6301.5602590513545, 21036.411349345606, -12905.561972327469, -0.13, 0.9380000000000001, 0.264, 192.0, 0.0, 0.0, 0.0, 0.0, 0.0, 0.0, 0.0, 0.0, 0.0, 1.742321969337965E9, 0.0, 2025-03-18 13:19:29.337
38.0, 3664.076765069576, -20655.582327316086, -1011.2823261359127, 37828.53935105078, 17383.845732670514, 26192.176484129013, -8702.227020529153, 11381.038890008795, 27775.21643343168, 6995.179592988443, 16795.65957732911, 22312.003053665525, -4423.343172471902, -6295.972322937528, 21027.940038197048, -12906.590152572413, -0.128, 0.9400000000000001, 0.268, 192.0, 126.0, 0.0, 14.5, 48.0, 4.0, 48.0, 0.0, 0.0, 0.0, 1.742321969338154E9, 0.0, 2025-03-18 13:19:29.338
40.0, 3678.2701227986963, -20640.65136201994, -998.8994597076726, 37835.33428136519, 17383.06342161458, 26195.886873708594, -8715.615715457883, 11393.958198303962, 27773.83062527545, 6995.246648221809, 16798.05121398583, 22319.51323980251, -4418.939878814206, -6296.8663927157395, 21030.73400625396, -12903.729129282134, -0.128, 0.9400000000000001, 0.268, 192.0, 0.0, 0.0, 0.0, 0.0, 0.0, 0.0, 0.0, 0.0, 0.0, 1.74232196933836E9, 0.0, 2025-03-18 13:19:29.338
42.0, 3676.1020035865313, -20638.863222463515, -994.920849194628, 37830.86393247413, 17401.97299742377, 26198.36791734313, -8674.264988215566, 11394.092308770694, 27792.740201084638, 7007.048369294211, 16806.678987345575, 22322.195449137147, -4409.485090909611, -6286.763404221941, 21040.524070325384, -12893.380271599326, -0.128, 0.9400000000000001, 0.268, 192.0, 0.0, 0.0, 0.0, 0.0, 0.0, 0.0, 0.0, 0.0, 0.0, 1.742321969338564E9, 0.0, 2025-03-18 13:19:29.338
44.0, 3667.0048435932213, -20654.643554048962, -1002.3192766093346, 37818.54812127926, 17390.663014729384, 26182.833454946693, -8681.171677252254, 11380.480096397412, 27782.16782595728, 6995.023130777256, 16792.6644435721, 22326.956370706128, -4412.3461141998905, -6300.375616595223, 21035.91961096759, -12905.584324071924, -0.128, 0.9400000000000001, 0.268, 192.0, 0.0, 0.0, 0.0, 0.0, 0.0, 0.0, 0.0, 0.0, 0.0, 1.742321969338759E9, 0.0, 2025-03-18 13:19:29.338
46.0, 3665.149648803431, -20654.24122264877, -994.6973317500749, 37819.419839313014, 17389.612482739984, 26190.723620739416, -8683.71977612016, 11382.625863865122, 27778.59154684443, 6989.949284785901, 16788.775240036874, 22323.447146826646, -4414.4024746897785, -6300.330913106312, 21035.87490747868, -12901.426899603237, -0.128, 0.9400000000000001, 0.268, 192.0, 0.0, 0.0, 0.0, 0.0, 0.0, 0.0, 0.0, 0.0, 0.0, 1.742321969397433E9, 0.0, 2025-03-18 13:19:29.397
48.0, 3666.1554773039197, -20650.95551621384, -990.5846107702984, 37821.945586436465, 17390.43949728483, 26195.52924579731, -8687.586627910929, 11395.388709949102, 27786.414657403788, 6993.391453432018, 16795.436059884556, 22339.808623767927, -4403.986561773606, -6294.161831636648, 21037.283067379365, -12899.258780391072, -0.128, 0.9400000000000001, 0.262, 192.0, 126.0, 0.0, 14.5, 48.0, 4.0, 24.0, 0.0, 0.0, 0.0, 1.742321969397671E9, 0.0, 2025-03-18 13:19:29.397
50.0, 3680.9076286444224, -20642.059521920626, -973.1055466062483, 37831.243912129874, 17408.790279482637, 26204.76051625735, -8663.156171221277, 11403.390634464102, 27786.68287833725, 6998.130023256544, 16801.739251820953, 22335.89706848825, -4397.459852392656, -6288.9985786674715, 21052.996343731447, -12888.284073863517, -0.128, 0.9400000000000001, 0.262, 192.0, 0.0, 0.0, 0.0, 0.0, 0.0, 0.0, 0.0, 0.0, 0.0, 1.742321969397876E9, 0.0, 2025-03-18 13:19:29.397
52.0, 3668.077727327076, -20649.346190613054, -988.4835467914995, 37821.96793818092, 17398.977863666758, 26197.116219653635, -8674.846133571404, 11393.019425036839, 27807.02296579158, 6997.347712200608, 16803.70620533302, 22353.800815796953, -4395.314084924947, -6289.803241467863, 21054.136282698666, -12887.613521529856, -0.128, 0.9400000000000001, 0.262, 192.0, 0.0, 0.0, 0.0, 0.0, 0.0, 0.0, 0.0, 0.0, 0.0, 1.742321969398085E9, 0.0, 2025-03-18 13:19:29.398
54.0, 3672.6151314515037, -20641.836004476074, -993.8703172052285, 37824.33722309318, 17398.307311333097, 26200.29016736629, -8677.058956272478, 11391.54420990279, 27784.850035291915, 6999.716997112871, 16800.6663680871, 22339.428644112188, -4404.0089135180615, -6288.506840289455, 21052.281087908876, -12885.758326740066, -0.128, 0.9400000000000001, 0.262, 192.0, 0.0, 0.0, 0.0, 0.0, 0.0, 0.0, 0.0, 0.0, 0.0, 1.742321969398273E9, 0.0, 2025-03-18 13:19:29.398
56.0, 3669.0612040831097, -20647.401588845445, -994.1385381386922, 37825.81243822723, 17394.26164558669, 26204.00055694587, -8680.881104574335, 11400.753128618375, 27791.622613861873, 7003.002703547801, 16802.409804154613, 22349.844557028362, -4397.526907626022, -6285.735223976997, 21050.31413439681, -12887.41235582976, -0.128, 0.9400000000000001, 0.262, 192.0, 0.0, 0.0, 0.0, 0.0, 0.0, 0.0, 0.0, 0.0, 0.0, 1.74232196939849E9, 0.0, 2025-03-18 13:19:29.398
58.0, 3670.692881428347, -20650.441426091365, -989.0423404028822, 37831.71329876343, 17398.77669796666, 26204.961681957448, -8674.309691704475, 11406.095195543194, 27786.54876787052, 6998.286485467731, 16803.19211521055, 22336.41115861072, -4406.4899571526, -6284.550581520865, 21051.83405301977, -12880.528018537525, -0.126, 0.9420000000000001, 0.268, 192.0, 126.0, 8.0, 14.5, 56.0, 4.0, 48.0, 0.0, 0.0, 0.0, 1.742321969398675E9, 0.0, 2025-03-18 13:19:29.398
60.0, 3670.9387506173553, -20647.401588845445, -982.5379827663878, 37832.696775519464, 17396.675633987863, 26203.352356356667, -8681.52930516354, 11391.477154669423, 27799.065744765492, 6999.784052346236, 16811.506964147924, 22352.392655896267, -4393.883573279807, -6282.963607664538, 21052.54930884234, -12881.198570871184, -0.126, 0.9420000000000001, 0.268, 192.0, 0.0, 0.0, 0.0, 0.0, 0.0, 0.0, 0.0, 0.0, 0.0, 1.742321969457718E9, 0.0, 2025-03-18 13:19:29.457
62.0, 3678.2924745431515, -20641.99246668726, -975.0054448849494, 37836.54127556578, 17399.559009022596, 26208.180333159013, -8685.798488354503, 11396.796869849786, 27797.054087764514, 6997.615933134071, 16811.19403972555, 22339.741568534562, -4395.314084924947, -6285.757575721452, 21055.477387365983, -12882.584379027412, -0.126, 0.9420000000000001, 0.268, 192.0, 0.0, 0.0, 0.0, 0.0, 0.0, 0.0, 0.0, 0.0, 0.0, 1.742321969457957E9, 0.0, 2025-03-18 13:19:29.457
64.0, 3665.9319598593665, -20652.721304025807, -995.4125875726447, 37823.264339359324, 17383.01871812567, 26190.678917250505, -8704.1045670634, 11372.72404107142, 27806.240654735644, 7002.57802040315, 16811.216391470003, 22356.66183908723, -4387.066291220938, -6285.802279210363, 21046.335523883765, -12886.250065118084, -0.126, 0.9420000000000001, 0.268, 192.0, 0.0, 0.0, 0.0, 0.0, 0.0, 0.0, 0.0, 0.0, 0.0, 1.742321969458178E9, 0.0, 2025-03-18 13:19:29.458
66.0, 3669.4858872277605, -20654.911774982425, -990.7634247259408, 37824.35957483764, 17395.1557153649, 26181.84997819066, -8675.874313816346, 11362.621052577622, 27786.615823103886, 6985.993026017311, 16794.452583128525, 22327.537516061966, -4408.322800197935, -6303.750730007974, 21035.182003400565, -12907.171297928251, -0.126, 0.9420000000000001, 0.268, 192.0, 0.0, 0.0, 0.0, 0.0, 0.0, 0.0, 0.0, 0.0, 0.0, 1.742321969458392E9, 0.0, 2025-03-18 13:19:29.458
68.0, 3662.3556807465175, -20663.27132740871, -1001.3805033422117, 37819.55394977974, 17389.59013099553, 26197.98793768739, -8678.355357450886, 11399.769651862342, 27805.950082057727, 6994.352578443597, 16803.817964055295, 22350.246888428555, -4398.912715782251, -6295.7488054929745, 21047.542518084352, -12893.31321636596, -0.124, 0.9400000000000001, 0.27, 192.0, 126.0, 16.0, 14.5, 48.0, 4.0, 56.0, 0.0, 0.0, 0.0, 1.74232196945859E9, 0.0, 2025-03-18 13:19:29.458
70.0, 3657.7065178998137, -20662.109036697035, -994.7867387278961, 37820.17979862449, 17380.045936113114, 26189.42721956101, -8693.778061125047, 11387.476192411923, 27786.280546937054, 6981.075642237144, 16789.311681903804, 22332.678417286686, -4411.58615488841, -6310.322142877834, 21031.426910332073, -12899.683463535723, -0.124, 0.9400000000000001, 0.27, 192.0, 0.0, 0.0, 0.0, 0.0, 0.0, 0.0, 0.0, 0.0, 0.0, 1.7423219694588E9, 0.0, 2025-03-18 13:19:29.458
72.0, 3668.435355238361, -20658.55510932864, -990.8751834482174, 37818.43636255698, 17390.39479379592, 26189.673088750016, -8679.33883420692, 11382.625863865122, 27793.477808651664, 6988.138793485021, 16801.7169000765, 22344.03310346998, -4403.584230373411, -6304.957724208561, 21039.607648802717, -12896.55421931198, -0.124, 0.9400000000000001, 0.27, 192.0, 0.0, 0.0, 0.0, 0.0, 0.0, 0.0, 0.0, 0.0, 0.0, 1.74232196945899E9, 0.0, 2025-03-18 13:19:29.458
74.0, 3661.5510179461266, -20660.633821562984, -993.8479654607733, 37816.44705730046, 17382.281110558644, 26184.88981543658, -8686.96077906618, 11372.589930604689, 27785.922919025772, 6987.691758595915, 16798.90058027513, 22336.254696399534, -4405.931163541218, -6309.048093443882, 21038.311247624308, -12899.549353068991, -0.124, 0.9400000000000001, 0.27, 192.0, 0.0, 0.0, 0.0, 0.0, 0.0, 0.0, 0.0, 0.0, 0.0, 1.74232196945919E9, 0.0, 2025-03-18 13:19:29.459
76.0, 3669.7764599056795, -20650.396722602454, -981.7556717104521, 37817.98932766788, 17391.40062229641, 26188.734315482896, -8685.709081376683, 11382.000015020372, 27801.25621572211, 6988.742290585315, 16800.80047855383, 22345.3742081373, -4397.482204137112, -6308.377541110223, 21041.418140103597, -12891.41331808726, -0.124, 0.9400000000000001, 0.27, 192.0, 0.0, 0.0, 0.0, 0.0, 0.0, 0.0, 0.0, 0.0, 0.0, 1.742321969517177E9, 0.0, 2025-03-18 13:19:29.517
78.0, 3665.1272970589757, -20654.66590579342, -979.3863867981896, 37818.68223174599, 17389.00898563969, 26197.406792331552, -8682.535133664029, 11390.784250591309, 27796.025907519568, 6989.815174319169, 16802.119231476692, 22340.56858307941, -4399.091529737893, -6305.404759097667, 21047.542518084352, -12886.183009884717, -0.128, 0.9380000000000001, 0.272, 192.0, 126.0, 0.0, 14.5, 40.0, 4.0, 64.0, 0.0, 0.0, 0.0, 1.742321969517435E9, 0.0, 2025-03-18 13:19:29.517
80.0, 3661.863942368501, -20655.537623827175, -985.3319508233012, 37813.0272403988, 17389.076040873057, 26204.51464706834, -8684.90441857629, 11392.706500614466, 27798.59635813193, 6996.900677311502, 16798.721766319486, 22336.008827210528, -4403.472471651134, -6299.146270650181, 21048.973029729492, -12884.350166839382, -0.128, 0.9380000000000001, 0.272, 192.0, 0.0, 0.0, 0.0, 0.0, 0.0, 0.0, 0.0, 0.0, 0.0, 1.74232196951765E9, 0.0, 2025-03-18 13:19:29.517
82.0, 3655.8736748544784, -20656.0740656941, -999.3911980856894, 37809.2721473303, 17378.995404123714, 26194.679879508007, -8697.24258151562, 11380.368337675136, 27779.26209917809, 6990.709244097382, 16790.205751682013, 22329.817393996407, -4417.151739257782, -6302.6778462741195, 21039.384131358165, -12888.30642560797, -0.128, 0.9380000000000001, 0.272, 192.0, 0.0, 0.0, 0.0, 0.0, 0.0, 0.0, 0.0, 0.0, 0.0, 1.742321969517859E9, 0.0, 2025-03-18 13:19:29.517
84.0, 3659.4276022228723, -20653.79418775966, -1011.4387883471, 37810.36738280862, 17374.435648254832, 26192.51176029584, -8710.854793888902, 11375.138029472593, 27778.524491611064, 6982.4614503933735, 16780.08041144376, 22324.363568349312, -4428.461721952167, -6308.019913198938, 21028.476480063975, -12897.202419901183, -0.128, 0.9380000000000001, 0.272, 192.0, 0.0, 0.0, 0.0, 0.0, 0.0, 0.0, 0.0, 0.0, 0.0, 1.742321969518043E9, 0.0, 2025-03-18 13:19:29.518
86.0, 3657.1700760328863, -20654.554147071143, -1008.7342272680078, 37808.57924325219, 17379.44243901282, 26190.61186201714, -8694.649779158804, 11373.215779449438, 27779.5079683671, 6988.228200462842, 16784.79662952383, 22327.93984746216, -4426.673582395742, -6305.293000375391, 21024.564924784296, -12903.326797881939, -0.128, 0.9380000000000001, 0.272, 192.0, 0.0, 0.0, 0.0, 0.0, 0.0, 0.0, 0.0, 0.0, 0.0, 1.742321969518252E9, 0.0, 2025-03-18 13:19:29.518
88.0, 3666.5354569596598, -20645.836966733572, -989.9811136700051, 37825.58892078268, 17397.279131088155, 26204.469943579432, -8676.544866150007, 11396.439241938502, 27769.248517662112, 6994.2631714657755, 16794.117306961693, 22324.07299567139, -4421.644439893298, -6298.967456694539, 21042.893355237647, -12889.044033174996, -0.126, 0.934, 0.272, 192.0, 126.0, 8.0, 14.5, 24.0, 4.0, 64.0, 0.0, 0.0, 0.0, 1.742321969518455E9, 0.0, 2025-03-18 13:19:29.518
90.0, 3670.625826194981, -20644.00412368824, -989.3329130808012, 37827.42176382802, 17397.234427599244, 26198.47967606541, -8685.53026742104, 11393.086480270205, 27796.964680786692, 7005.684912882437, 16801.873362287686, 22334.265391143013, -4411.809672332964, -6291.367863579734, 21041.172270914587, -12883.724317994633, -0.126, 0.934, 0.272, 192.0, 0.0, 0.0, 0.0, 0.0, 0.0, 0.0, 0.0, 0.0, 0.0, 1.742321969576979E9, 0.0, 2025-03-18 13:19:29.576
92.0, 3668.5024104717268, -20642.12657715399, -979.2299245870024, 37825.61127252713, 17403.694081746828, 26194.299899852267, -8666.397174167298, 11394.584047148712, 27783.330116668956, 7003.002703547801, 16803.19211521055, 22324.028292182484, -4408.211041475659, -6294.742976992486, 21055.07505596579, -12880.997405171085, -0.126, 0.934, 0.272, 192.0, 0.0, 0.0, 0.0, 0.0, 0.0, 0.0, 0.0, 0.0, 0.0, 1.742321969577215E9, 0.0, 2025-03-18 13:19:29.577
94.0, 3669.1729628053863, -20640.51725155321, -981.8450786882734, 37823.51020854834, 17400.229561356256, 26184.956870669947, -8673.460325415173, 11377.261445195849, 27778.63625033334, 7004.187346003931, 16805.38258616717, 22336.43351035518, -4403.941858284696, -6297.559296793855, 21053.532785598374, -12883.50080055008, -0.126, 0.934, 0.272, 192.0, 0.0, 0.0, 0.0, 0.0, 0.0, 0.0, 0.0, 0.0, 0.0, 1.742321969577408E9, 0.0, 2025-03-18 13:19:29.577
96.0, 3668.368300004995, -20645.211117888823, -990.1599276256476, 37819.643356757566, 17397.502648532707, 26187.862597449137, -8676.880142316835, 11391.097175013683, 27785.431180647753, 7004.902601826501, 16808.064795501807, 22332.410196353223, -4404.612410618354, -6296.508764804455, 21053.97982048748, -12884.372518583838, -0.126, 0.934, 0.272, 192.0, 0.0, 0.0, 0.0, 0.0, 0.0, 0.0, 0.0, 0.0, 0.0, 1.74232196957765E9, 0.0, 2025-03-18 13:19:29.577
98.0, 3673.1068698295203, -20639.779643986185, -987.3212560798236, 37823.10787714814, 17392.227636841257, 26185.493312536873, -8679.67411037375, 11390.58308489121, 27795.422410419276, 6999.940514557424, 16801.69454833204, 22336.209992910623, -4404.657114107265, -6305.9635527090495, 21046.916669239603, -12893.044995432496, -0.13, 0.936, 0.268, 192.0, 125.5, 120.0, 14.5, 32.0, 4.0, 48.0, 0.0, 0.0, 0.0, 1.742321969577853E9, 0.0, 2025-03-18 13:19:29.577
100.0, 3660.947520845833, -20655.47056859381, -993.8926689496839, 37820.96210968043, 17385.63387222694, 26185.672126492518, -8691.76640412407, 11384.369299932636, 27777.853939277404, 6995.604276133094, 16802.879190788175, 22325.212934638614, -4409.596849631888, -6302.297866618379, 21045.106177938724, -12890.765117498055, -0.13, 0.936, 0.268, 192.0, 0.0, 0.0, 0.0, 0.0, 0.0, 0.0, 0.0, 0.0, 0.0, 1.742321969578075E9, 0.0, 2025-03-18 13:19:29.578
102.0, 3657.1030207995204, -20654.822368004607, -991.8363084597956, 37813.4742752879, 17380.023584368657, 26176.642021732572, -8698.628389671849, 11372.075840482217, 27770.92489849626, 6993.234991220831, 16794.296120917337, 22329.07978642938, -4414.804806089975, -6309.830404499818, 21035.338465611752, -12900.510478080569, -0.13, 0.936, 0.268, 192.0, 0.0, 0.0, 0.0, 0.0, 0.0, 0.0, 0.0, 0.0, 0.0, 1.742321969578279E9, 0.0, 2025-03-18 13:19:29.578
104.0, 3659.3828987339616, -20654.08476043758, -989.9811136700051, 37813.25075784335, 17383.95749139279, 26183.526359024807, -8694.627427414349, 11375.406250406057, 27772.02013397457, 6986.976502773346, 16786.5624173358, 22313.254751355023, -4412.3461141998905, -6309.405721355167, 21042.44632034854, -12896.084832678418, -0.13, 0.936, 0.268, 192.0, 0.0, 0.0, 0.0, 0.0, 0.0, 0.0, 0.0, 0.0, 0.0, 1.74232196957848E9, 0.0, 2025-03-18 13:19:29.578
106.0, 3660.925169101378, -20653.41420810392, -995.0102561724492, 37808.57924325219, 17376.067325600066, 26173.602184486652, -8706.2056310422, 11368.030174735806, 27780.91612826778, 6992.229162720342, 16790.541027848845, 22326.531687561477, -4410.11093975436, -6311.953820223072, 21041.97693371498, -12895.973073956142, -0.13, 0.936, 0.268, 192.0, 0.0, 0.0, 0.0, 0.0, 0.0, 0.0, 0.0, 0.0, 0.0, 1.742321969638601E9, 0.0, 2025-03-18 13:19:29.638
108.0, 3665.2390557812523, -20644.85348997754, -992.5739160268207, 37815.35182182215, 17387.019680383168, 26175.41267578753, -8683.29509297551, 11367.67254682452, 27784.134779469347, 6988.943456285412, 16795.95015000703, 22316.495754301042, -4417.576422402432, -6315.127767935725, 21036.21018364551, -12904.667902549256, -0.128, 0.934, 0.274, 192.0, 126.0, 0.0, 14.5, 24.0, 4.0, 72.0, 0.0, 0.0, 0.0, 1.742321969638885E9, 0.0, 2025-03-18 13:19:29.638
110.0, 3664.5908551920484, -20643.244164376756, -988.5282502804101, 37822.10204864765, 17390.35009030701, 26191.975318428915, -8679.897627818302, 11395.5898756492, 27783.97831725816, 6995.33605519963, 16804.779089066877, 22336.522917332997, -4411.005009532572, -6309.808052755363, 21045.620268061193, -12891.83800123191, -0.128, 0.934, 0.274, 192.0, 0.0, 0.0, 0.0, 0.0, 0.0, 0.0, 0.0, 0.0, 0.0, 1.742321969639104E9, 0.0, 2025-03-18 13:19:29.639
112.0, 3669.5082389722156, -20640.673713764398, -980.4816222764996, 37827.71233650593, 17395.1557153649, 26186.61089975964, -8674.823781826948, 11384.749279588375, 27776.669296821274, 6990.128098741544, 16811.12698449218, 22326.486984072566, -4408.948649042684, -6308.466948088044, 21052.571660586796, -12880.080983648419, -0.128, 0.934, 0.274, 192.0, 0.0, 0.0, 0.0, 0.0, 0.0, 0.0, 0.0, 0.0, 0.0, 1.742321969639297E9, 0.0, 2025-03-18 13:19:29.639
114.0, 3670.5811227060703, -20638.058559663124, -985.8460409457733, 37824.113705648626, 17393.367575808476, 26179.391286300575, -8678.109488261878, 11376.747355073376, 27802.843189578438, 7000.588715146628, 16817.921914806597, 22344.41308312572, -4394.889401780296, -6304.577744552821, 21056.617326333206, -12883.12082089434, -0.128, 0.934, 0.274, 192.0, 0.0, 0.0, 0.0, 0.0, 0.0, 0.0, 0.0, 0.0, 0.0, 1.742321969639496E9, 0.0, 2025-03-18 13:19:29.639
116.0, 3675.409099508417, -20639.66788526391, -992.9315439381056, 37819.777467224296, 17378.950700634803, 26178.877196178102, -8699.634218172338, 11379.094288241184, 27795.93650054175, 6995.693683110915, 16808.020092012895, 22326.285818372467, -4406.735826341609, -6309.025741699426, 21045.30734363882, -12886.69710000719, -0.126, 0.936, 0.274, 192.0, 126.0, 16.0, 14.5, 40.0, 4.0, 72.0, 0.0, 0.0, 0.0, 1.742321969639691E9, 0.0, 2025-03-18 13:19:29.639
118.0, 3662.825067380079, -20645.524042311197, -992.5962677712761, 37821.56560678072, 17378.548369234606, 26174.295088564766, -8703.121090307366, 11368.34309915818, 27794.438933663245, 7000.901639569001, 16805.13671697816, 22339.51805109001, -4408.434558920212, -6312.087930689804, 21032.83507023276, -12896.531867567524, -0.126, 0.936, 0.274, 192.0, 0.0, 0.0, 0.0, 0.0, 0.0, 0.0, 0.0, 0.0, 0.0, 1.742321969639896E9, 0.0, 2025-03-18 13:19:29.639
120.0, 3665.686090670358, -20647.13336791198, -995.1890701280917, 37821.07386840271, 17385.902093160403, 26177.871367677613, -8686.24552324361, 11372.992262004884, 27778.144511955325, 6990.597485375105, 16804.689682089054, 22330.84557424135, -4410.401512432279, -6310.702122533575, 21045.35204712773, -12888.082908163418, -0.126, 0.936, 0.274, 192.0, 0.0, 0.0, 0.0, 0.0, 0.0, 0.0, 0.0, 0.0, 0.0, 1.74232196969749E9, 0.0, 2025-03-18 13:19:29.697
122.0, 3667.6083406935145, -20652.98952495927, -1005.4932243219882, 37816.02237415581, 17379.10716284599, 26180.866501434626, -8706.764424653582, 11375.562712617244, 27804.31840471249, 6993.346749943108, 16804.42146115559, 22337.998132467048, -4406.847585063885, -6311.730302778519, 21036.903087723626, -12891.547428553991, -0.126, 0.936, 0.274, 192.0, 0.0, 0.0, 0.0, 0.0, 0.0, 0.0, 0.0, 0.0, 0.0, 1.742321969697713E9, 0.0, 2025-03-18 13:19:29.697
124.0, 3664.2779307696737, -20646.66398127842, -1002.3639800982452, 37814.77067646631, 17380.11299134648, 26173.602184486652, -8713.20172705671, 11367.717250313432, 27789.72271558317, 6987.490592895818, 16803.08035648827, 22324.65414102723, -4406.199384474681, -6311.48443358951, 21040.859346492212, -12890.251027375583, -0.126, 0.936, 0.274, 192.0, 0.0, 0.0, 0.0, 0.0, 0.0, 0.0, 0.0, 0.0, 0.0, 1.74232196969792E9, 0.0, 2025-03-18 13:19:29.697
126.0, 3663.0038813357214, -20646.21694638931, -995.2337736170023, 37813.74249622136, 17393.85931418649, 26170.294126307264, -8679.785869096026, 11364.498599111868, 27783.687744580242, 6986.864744051069, 16803.683853588565, 22330.309132374423, -4398.443329148689, -6310.813881255852, 21035.718445267492, -12896.375405356337, -0.125, 0.935, 0.279, 192.0, 126.0, 16.0, 14.5, 24.0, 4.0, 112.0, 0.0, 0.0, 0.0, 1.742321969698121E9, 0.0, 2025-03-18 13:19:29.698
128.0, 3672.0339860956656, -20648.541527812664, -1005.9402592110944, 37812.49079853187, 17389.456020528796, 26162.783940170284, -8692.01227331308, 11338.034133676783, 27791.98024177316, 6988.898752796502, 16795.011376739905, 22323.827126482385, -4398.06334949295, -6313.496090590488, 21051.07409370829, -12891.256855876072, -0.125, 0.935, 0.279, 192.0, 0.0, 0.0, 0.0, 0.0, 0.0, 0.0, 0.0, 0.0, 0.0, 1.742321969698336E9, 0.0, 2025-03-18 13:19:29.698
130.0, 3654.8454946095344, -20636.51628929571, -996.1948986285805, 37824.98542368239, 17398.21790435528, 26182.297013079766, -8663.96083402167, 11394.226419237426, 27808.65464313682, 6994.978427288345, 16791.748022049433, 22329.929152718683, -4402.086663494904, -6311.193860911591, 21050.716465797006, -12890.07221341994, -0.125, 0.935, 0.279, 192.0, 0.0, 0.0, 0.0, 0.0, 0.0, 0.0, 0.0, 0.0, 0.0, 1.742321969698547E9, 0.0, 2025-03-18 13:19:29.698
132.0, 3658.7794016336684, -20641.70189400934, -991.1434043816811, 37833.23321738639, 17389.456020528796, 26182.587585757687, -8691.00644481259, 11380.547151630779, 27770.38845662933, 6998.353540701097, 16801.605141354223, 22330.823222496896, -4407.808710075464, -6305.740035264496, 21060.484178123974, -12869.530960265514, -0.125, 0.935, 0.279, 192.0, 0.0, 0.0, 0.0, 0.0, 0.0, 0.0, 0.0, 0.0, 0.0, 1.742321969698738E9, 0.0, 2025-03-18 13:19:29.698
134.0, 3670.1564395614196, -20628.69317873635, -979.9675321540276, 37840.6316448011, 17405.705738747805, 26199.261987121343, -8658.439953141207, 11404.06118679776, 27786.325250425965, 7009.551764673205, 16813.764490337908, 22336.65702779973, -4397.661018092754, -6292.306636846857, 21062.294669424853, -12861.104352605862, -0.125, 0.935, 0.279, 192.0, 0.0, 0.0, 0.0, 0.0, 0.0, 0.0, 0.0, 0.0, 0.0, 1.742321969698937E9, 0.0, 2025-03-18 13:19:29.698
136.0, 3671.4751924842826, -20644.920545210905, -981.6886164770862, 37836.60833079914, 17399.693119489326, 26192.601167273664, -8666.441877656207, 11393.421756437036, 27779.843244533928, 7013.508023441795, 16817.81015608432, 22354.605478597343, -4396.0293407475165, -6290.5855525237985, 21070.45305615104, -12853.348297279872, -0.1245, 0.9325000000000001, 0.2805, 192.0, 126.0, 16.0, 14.5, 8.0, 4.0, 104.0, 0.0, 0.0, 0.0, 1.742321969757692E9, 0.0, 2025-03-18 13:19:29.757
138.0, 3664.6132069365035, -20651.55901331413, -990.9645904260386, 37828.33818535068, 17395.71450897628, 26192.332946340197, -8680.612883640872, 11386.91739880054, 27775.328192153956, 7001.728654113848, 16815.172650238594, 22345.88829825977, -4401.997256517084, -6297.268724115936, 21061.422951391098, -12861.841960172887, -0.1245, 0.9325000000000001, 0.2805, 192.0, 0.0, 0.0, 0.0, 0.0, 0.0, 0.0, 0.0, 0.0, 0.0, 1.742321969757944E9, 0.0, 2025-03-18 13:19:29.757
140.0, 3670.1117360725093, -20643.33357135458, -989.8693549477285, 37835.06606043173, 17399.536657278142, 26197.652661520562, -8673.013290526067, 11390.20310523547, 27785.609994603397, 7003.025055292256, 16813.518621148898, 22345.32950464839, -4396.3199134254355, -6293.8712589587285, 21061.758227557926, -12862.847788673376, -0.1245, 0.9325000000000001, 0.2805, 192.0, 0.0, 0.0, 0.0, 0.0, 0.0, 0.0, 0.0, 0.0, 0.0, 1.742321969758129E9, 0.0, 2025-03-18 13:19:29.758
142.0, 3671.5198959731933, -20646.03813243367, -1005.5826312998095, 37828.85227547315, 17391.02064264067, 26192.71292599594, -8679.852924329392, 11379.809544063753, 27788.828645804962, 7007.987142561334, 16814.23387697147, 22342.334370891378, -4396.185802958704, -6288.037453655894, 21065.535672370872, -12856.991631626086, -0.1245, 0.9325000000000001, 0.2805, 192.0, 0.0, 0.0, 0.0, 0.0, 0.0, 0.0, 0.0, 0.0, 0.0, 1.742321969758334E9, 0.0, 2025-03-18 13:19:29.758
144.0, 3665.9990150927324, -20647.64745803445, -1015.7750267714295, 37824.0242986708, 17382.303462303098, 26183.638117747083, -8696.594380926417, 11370.041831736784, 27793.343698184934, 7002.063930280678, 16810.389376925155, 22340.859155757327, -4399.113881482349, -6297.380482838212, 21053.488082109463, -12868.346317809383, -0.1245, 0.9325000000000001, 0.2805, 192.0, 0.0, 0.0, 0.0, 0.0, 0.0, 0.0, 0.0, 0.0, 0.0, 1.742321969758535E9, 0.0, 2025-03-18 13:19:29.758
146.0, 3662.4227359798833, -20651.55901331413, -1017.2949453943903, 37812.222577598404, 17386.215017582777, 26177.066704877223, -8688.346587222408, 11351.780456516797, 27779.843244533928, 6994.464337165873, 16807.126022234683, 22323.268332871, -4406.132329241315, -6303.080177674316, 21046.40257911713, -12881.01975691554, -0.12425, 0.9312500000000001, 0.27725, 192.0, 126.0, 16.0, 14.5, 8.0, 4.0, 72.0, 0.0, 0.0, 0.0, 1.742321969758745E9, 0.0, 2025-03-18 13:19:29.758
148.0, 3661.2604452682076, -20651.13433016948, -1022.8605297637617, 37811.172045609004, 17384.538636748628, 26183.526359024807, -8689.173601767254, 11376.322671928725, 27779.552671856007, 6988.76464232977, 16801.985121009962, 22330.443242841156, -4405.372369929835, -6308.086968432304, 21039.048855191333, -12884.417222072749, -0.12425, 0.9312500000000001, 0.27725, 192.0, 0.0, 0.0, 0.0, 0.0, 0.0, 0.0, 0.0, 0.0, 0.0, 1.742321969758952E9, 0.0, 2025-03-18 13:19:29.758
150.0, 3662.6462534244365, -20649.480301079788, -1016.8926139941948, 37809.94269966397, 17396.29565433212, 26186.70030673746, -8663.849075299391, 11365.81735203473, 27777.250442177112, 6993.033825520733, 16806.79074606785, 22315.378167078277, -4399.359750671358, -6304.197764897081, 21050.962334986012, -12877.599940013879, -0.12425, 0.9312500000000001, 0.27725, 192.0, 0.0, 0.0, 0.0, 0.0, 0.0, 0.0, 0.0, 0.0, 0.0, 1.742321969817911E9, 0.0, 2025-03-18 13:19:29.817
152.0, 3662.2215702797857, -20649.27913537969, -1020.1112651957591, 37807.86398742962, 17395.401584553907, 26181.268832834823, -8666.844209056402, 11373.506352127357, 27783.59833760242, 7000.476956424351, 16808.42242341309, 22326.397577094744, -4398.488032637601, -6303.035474185404, 21047.58722157326, -12882.539675538503, -0.12425, 0.9312500000000001, 0.27725, 192.0, 0.0, 0.0, 0.0, 0.0, 0.0, 0.0, 0.0, 0.0, 0.0, 1.742321969818153E9, 0.0, 2025-03-18 13:19:29.818
154.0, 3657.4830004552605, -20656.99048721677, -1023.1063989527702, 37804.131246105586, 17387.801991439104, 26184.062800891734, -8687.273703488554, 11379.92130278603, 27779.44091313373, 6994.531392399239, 16802.812135554806, 22314.03706241096, -4397.459852392656, -6305.538869564399, 21046.760207028416, -12880.080983648419, -0.12425, 0.9312500000000001, 0.27725, 192.0, 0.0, 0.0, 0.0, 0.0, 0.0, 0.0, 0.0, 0.0, 0.0, 1.742321969818362E9, 0.0, 2025-03-18 13:19:29.818
156.0, 3661.8415906240452, -20650.95551621384, -1029.0296112334265, 37804.01948738331, 17382.39286928092, 26178.07253337771, -8694.493316947617, 11361.883445010597, 27777.518663110575, 6995.984255788834, 16801.76160356541, 22335.36062662132, -4397.191631459193, -6310.098625433282, 21034.10911966671, -12889.714585508656, -0.126125, 0.9316250000000001, 0.273625, 192.0, 126.0, 0.0, 14.5, 16.0, 4.0, 56.0, 0.0, 0.0, 0.0, 1.742321969818566E9, 0.0, 2025-03-18 13:19:29.818
158.0, 3681.399367022439, -20623.731091467274, -1003.369808598734, 37827.91350220603, 17397.16737236588, 26197.317385353734, -8671.940406792213, 11370.846494537174, 27784.179482958258, 7003.159165758988, 16814.85972581622, 22333.013693453515, -4394.397663402279, -6303.393102096689, 21038.668875535594, -12883.746669739088, -0.126125, 0.9316250000000001, 0.273625, 192.0, 0.0, 0.0, 0.0, 0.0, 0.0, 0.0, 0.0, 0.0, 0.0, 1.74232196981877E9, 0.0, 2025-03-18 13:19:29.818
160.0, 3698.721968975302, -20609.47067850479, -995.9713811840275, 37848.11947919363, 17405.77279398117, 26218.059804208257, -8659.848113041891, 11389.085518012706, 27815.40486996232, 7030.897680628023, 16838.373760983202, 22368.575318881907, -4375.108107937349, -6278.984997151494, 21060.26066067942, -12863.406582284759, -0.126125, 0.9316250000000001, 0.273625, 192.0, 0.0, 0.0, 0.0, 0.0, 0.0, 0.0, 0.0, 0.0, 0.0, 1.742321969818969E9, 0.0, 2025-03-18 13:19:29.818
162.0, 3693.089329372565, -20619.059576876116, -1000.5087853084548, 37839.223484900416, 17402.218866612777, 26212.76244077235, -8669.19114222421, 11381.083593497706, 27811.582721660463, 7031.277660283764, 16835.579792926288, 22350.939792506673, -4381.746576040576, -6277.509782017444, 21056.237346677466, -12863.495989262581, -0.126125, 0.9316250000000001, 0.273625, 192.0, 0.0, 0.0, 0.0, 0.0, 0.0, 0.0, 0.0, 0.0, 0.0, 1.74232196981916E9, 0.0, 2025-03-18 13:19:29.819
164.0, 3666.736622659758, -20643.31121961012, -1021.206500674069, 37820.80564746924, 17389.456020528796, 26197.742068498384, -8678.936502806724, 11359.87178800962, 27805.279529724066, 7012.792767619225, 16822.816946842308, 22353.04085648547, -4383.422956874723, -6290.67495950162, 21051.387018130663, -12877.443477802692, -0.126125, 0.9316250000000001, 0.273625, 192.0, 0.0, 0.0, 0.0, 0.0, 0.0, 0.0, 0.0, 0.0, 0.0, 1.742321969819369E9, 0.0, 2025-03-18 13:19:29.819
166.0, 3669.619997694492, -20644.80878648863, -1020.1559686846697, 37822.28086260329, 17386.39383153842, 26202.57004530073, -8689.598284911906, 11387.163267989548, 27783.196006202223, 6989.412842918974, 16796.620702340686, 22317.635693268265, -4403.561878628955, -6311.640895800698, 21032.611552788207, -12896.107184422874, -0.1270625, 0.9398125000000002, 0.2718125, 192.0, 126.0, 0.0, 14.5, 80.0, 4.0, 56.0, 0.0, 0.0, 0.0, 1.742321969877269E9, 0.0, 2025-03-18 13:19:29.877
168.0, 3676.6607971979142, -20637.075082907093, -1004.2191748880357, 37828.24877837286, 17410.48901206124, 26205.967510457936, -8654.28252867252, 11384.905741799563, 27793.298994696022, 7006.199003004909, 16814.747967093943, 22341.239135413067, -4385.747538298076, -6297.358131093756, 21046.69315179505, -12876.147076624284, -0.1270625, 0.9398125000000002, 0.2718125, 192.0, 0.0, 0.0, 0.0, 0.0, 0.0, 0.0, 0.0, 0.0, 0.0, 1.742321969877526E9, 0.0, 2025-03-18 13:19:29.877
170.0, 3663.6520819249254, -20647.51334756772, -1016.8926139941948, 37813.29546133226, 17402.53179103515, 26193.674051007518, -8659.110505474866, 11387.833820323209, 27786.280546937054, 6997.928857556446, 16810.434080414067, 22323.625960782287, -4384.205267930659, -6304.018950941438, 21050.135320441168, -12884.752498239577, -0.1270625, 0.9398125000000002, 0.2718125, 192.0, 0.0, 0.0, 0.0, 0.0, 0.0, 0.0, 0.0, 0.0, 0.0, 1.742321969877732E9, 0.0, 2025-03-18 13:19:29.877
172.0, 3659.1593812894084, -20647.13336791198, -1022.1676256856473, 37804.80179843924, 17396.697985732317, 26189.538978283286, -8677.81891558396, 11374.288663183292, 27796.718811597686, 6998.510002912284, 16809.89763854714, 22330.487946330064, -4383.15473594126, -6304.8459654862845, 21044.189756416054, -12883.791373228, -0.1270625, 0.9398125000000002, 0.2718125, 192.0, 0.0, 0.0, 0.0, 0.0, 0.0, 0.0, 0.0, 0.0, 0.0, 1.742321969877934E9, 0.0, 2025-03-18 13:19:29.877
174.0, 3649.3246137290735, -20657.035190705683, -1040.2278352055355, 37791.65897269952, 17380.090639602022, 26166.583736727684, -8694.716834392171, 11347.53362507029, 27771.126064196356, 6980.069813736655, 16790.60808308221, 22307.555056518922, -4406.892288552795, -6319.978096482528, 21021.79330847184, -12905.383158371826, -0.1270625, 0.9398125000000002, 0.2718125, 192.0, 0.0, 0.0, 0.0, 0.0, 0.0, 0.0, 0.0, 0.0, 0.0, 1.742321969878129E9, 0.0, 2025-03-18 13:19:29.878
176.0, 3663.2497505247297, -20651.156681913937, -1033.723477569041, 37798.386847780566, 17393.0546513861, 26176.396152543566, -8680.769345852059, 11355.91552924103, 27777.250442177112, 6986.529467884239, 16794.340824406245, 22313.142992632747, -4401.282000694514, -6318.7040470485745, 21022.73208173896, -12909.048844462497, -0.12653124999999998, 0.94090625, 0.26890625, 192.0, 126.0, 8.0, 14.5, 56.0, 4.0, 40.0, 0.0, 0.0, 0.0, 1.742321969878339E9, 0.0, 2025-03-18 13:19:29.878
178.0, 3657.013613821699, -20648.85445223504, -1030.169550200647, 37805.00296413934, 17395.088660131536, 26186.65560324855, -8670.509895147074, 11359.715325798432, 27780.044410234026, 6995.4925174108175, 16800.733423320464, 22312.964178677106, -4395.112919224849, -6309.67394228863, 21038.624172046682, -12900.152850169285, -0.12653124999999998, 0.94090625, 0.26890625, 192.0, 0.0, 0.0, 0.0, 0.0, 0.0, 0.0, 0.0, 0.0, 0.0, 1.742321969878559E9, 0.0, 2025-03-18 13:19:29.878
180.0, 3645.9942038052327, -20670.937975756882, -1033.9022915246835, 37802.25369957134, 17390.417145540374, 26185.202739858956, -8684.457383687184, 11345.030229691296, 27774.434122375744, 6992.09505225361, 16795.99485349594, 22315.333463589366, -4398.175108215226, -6307.908154476661, 21037.97597145748, -12897.582399556924, -0.12653124999999998, 0.94090625, 0.26890625, 192.0, 0.0, 0.0, 0.0, 0.0, 0.0, 0.0, 0.0, 0.0, 0.0, 1.742321969937076E9, 0.0, 2025-03-18 13:19:29.937
182.0, 3637.3887821899393, -20679.52104562772, -1045.30168119689, 37794.36353377861, 17374.882683143936, 26172.55165249725, -8695.47679370365, 11341.610412789632, 27759.145529168312, 6969.162162442465, 16780.818019010785, 22299.351966303824, -4416.436483435212, -6325.342515151801, 21021.25686660491, -12915.329684654438, -0.12653124999999998, 0.94090625, 0.26890625, 192.0, 0.0, 0.0, 0.0, 0.0, 0.0, 0.0, 0.0, 0.0, 0.0, 1.742321969937297E9, 0.0, 2025-03-18 13:19:29.937
184.0, 3650.9115875854004, -20657.057542450137, -1030.6836403231193, 37810.63560374208, 17390.998290896212, 26187.057934648747, -8682.266912730565, 11356.116694941127, 27768.868538006373, 6981.120345726054, 16792.597388338734, 22306.83980069635, -4406.467605408145, -6310.3891981112, 21036.813680745803, -12901.918637981253, -0.12653124999999998, 0.94090625, 0.26890625, 192.0, 0.0, 0.0, 0.0, 0.0, 0.0, 0.0, 0.0, 0.0, 0.0, 1.742321969937494E9, 0.0, 2025-03-18 13:19:29.937
186.0, 3649.6151864069925, -20649.837928991074, -1018.7254570395299, 37825.43245857149, 17401.97299742377, 26199.172580143524, -8651.779133293527, 11386.313901700247, 27780.245575934125, 6992.340921442619, 16805.874324545184, 22323.916533460204, -4397.236334948103, -6301.403796840167, 21055.186814688066, -12880.036280159507, -0.12226562499999999, 0.939453125, 0.266453125, 192.0, 126.0, 40.0, 14.5, 40.0, 4.0, 32.0, 0.0, 0.0, 0.0, 1.742321969937704E9, 0.0, 2025-03-18 13:19:29.937
188.0, 3656.6783376548697, -20652.18486215888, -1017.3396488833009, 37826.214769627426, 17407.06919515958, 26201.363051100143, -8654.640156583806, 11384.928093544018, 27784.090075980435, 7002.466261680873, 16813.786842082365, 22325.727024761087, -4395.58230585841, -6294.050072914371, 21068.687268339072, -12866.044088130486, -0.12226562499999999, 0.939453125, 0.266453125, 192.0, 0.0, 0.0, 0.0, 0.0, 0.0, 0.0, 0.0, 0.0, 0.0, 1.74232196993791E9, 0.0, 2025-03-18 13:19:29.937
190.0, 3653.079706797565, -20654.509443582232, -1020.1559686846697, 37825.76773473832, 17395.647453742917, 26188.622556760616, -8678.511819662073, 11364.185674689494, 27783.35246841341, 6995.134889499533, 16814.43504267157, 22333.639542298264, -4397.884535537307, -6300.308561361857, 21061.82528279129, -12869.888588176798, -0.12226562499999999, 0.939453125, 0.266453125, 192.0, 0.0, 0.0, 0.0, 0.0, 0.0, 0.0, 0.0, 0.0, 0.0, 1.742321969938118E9, 0.0, 2025-03-18 13:19:29.938
192.0, 3655.0019568207217, -20649.27913537969, -1014.7691982709406, 37827.332356850195, 17403.314102091088, 26191.148303884067, -8666.866560800858, 11367.650195080067, 27781.49727362362, 6993.547915643206, 16815.530278149876, 22326.688149772664, -4396.163451214248, -6304.331875363812, 21054.471558865494, -12872.548445766979, -0.12226562499999999, 0.939453125, 0.266453125, 192.0, 0.0, 0.0, 0.0, 0.0, 0.0, 0.0, 0.0, 0.0, 0.0, 1.742321969938308E9, 0.0, 2025-03-18 13:19:29.938
194.0, 3649.8387038515457, -20650.195556902356, -1014.9256604821278, 37824.76190623783, 17397.837924699536, 26185.873292192617, -8669.10173524639, 11368.186636946994, 27793.433105162756, 6997.794747089714, 16819.307722962825, 22341.261487157524, -4388.183878443704, -6298.475718316522, 21058.181948445075, -12869.955643410165, -0.12226562499999999, 0.939453125, 0.266453125, 192.0, 0.0, 0.0, 0.0, 0.0, 0.0, 0.0, 0.0, 0.0, 0.0, 1.742321969938516E9, 0.0, 2025-03-18 13:19:29.938
196.0, 3653.0350033086543, -20645.680504522385, -1006.0296661889156, 37829.16519989553, 17405.906904447904, 26198.256158620854, -8655.578929850928, 11381.307110942258, 27795.98120403066, 6999.739348857325, 16818.413653184612, 22335.159460921226, -4389.793204044486, -6291.300808346368, 21057.846672278247, -12867.385192797803, -0.1231328125, 0.9407265625000001, 0.2662265625, 192.0, 126.0, 16.0, 14.5, 56.0, 4.0, 40.0, 0.0, 0.0, 0.0, 1.742321969997349E9, 0.0, 2025-03-18 13:19:29.997
198.0, 3646.0389072941434, -20655.67173429391, -1015.2385849045021, 37826.59474928317, 17389.59013099553, 26193.71875449643, -8675.941369049713, 11375.003919005861, 27789.92388128327, 6994.933723799435, 16815.84320257225, 22351.632696584787, -4388.474451121623, -6295.838212470796, 21051.766997786402, -12870.916768421743, -0.1231328125, 0.9407265625000001, 0.2662265625, 192.0, 0.0, 0.0, 0.0, 0.0, 0.0, 0.0, 0.0, 0.0, 0.0, 1.742321969997624E9, 0.0, 2025-03-18 13:19:29.997
200.0, 3655.694860898836, -20650.374370858, -998.9665149410386, 37835.24487438737, 17395.200418853812, 26203.665280779038, -8667.917092790258, 11386.716233100442, 27791.868483050883, 7002.309799469686, 16817.653693873133, 22354.247850686057, -4390.307294166958, -6292.6419130136865, 21051.74464604195, -12866.871102675332, -0.1231328125, 0.9407265625000001, 0.2662265625, 192.0, 0.0, 0.0, 0.0, 0.0, 0.0, 0.0, 0.0, 0.0, 0.0, 1.742321969997837E9, 0.0, 2025-03-18 13:19:29.997
202.0, 3660.142858045442, -20647.13336791198, -995.9043259506615, 37834.23904588688, 17405.72809049226, 26199.61961503263, -8638.1892726647, 11389.286683712804, 27829.03943408006, 7017.441930465929, 16822.48167067548, 22373.962089295637, -4378.10324169436, -6287.8809914447065, 21062.31702116931, -12866.200550341673, -0.1231328125, 0.9407265625000001, 0.2662265625, 192.0, 0.0, 0.0, 0.0, 0.0, 0.0, 0.0, 0.0, 0.0, 0.0, 1.742321969998034E9, 0.0, 2025-03-18 13:19:29.998
204.0, 3659.9416923453446, -20645.904021966937, -995.3008288503682, 37829.4781243179, 17402.1071078905, 26199.887835966092, -8649.05222046998, 11389.197276734982, 27814.42139320629, 7008.076549539155, 16817.653693873133, 22353.66670533022, -4381.612465573843, -6287.948046678072, 21066.720314827005, -12862.803085184465, -0.1231328125, 0.9407265625000001, 0.2662265625, 192.0, 0.0, 0.0, 0.0, 0.0, 0.0, 0.0, 0.0, 0.0, 0.0, 1.742321969998233E9, 0.0, 2025-03-18 13:19:29.998
206.0, 3658.466477211294, -20640.360789342023, -997.9159829516391, 37828.00290918385, 17397.033261899145, 26186.834417204194, -8674.734374849126, 11366.398497390568, 27811.716832127197, 7007.629514650049, 16821.453490430533, 22376.398429441266, -4374.4822590926005, -6285.62346525472, 21057.712561811517, -12871.922596922232, -0.12356640625, 0.9373632812500001, 0.26811328125, 192.0, 126.0, 16.0, 14.5, 24.0, 4.0, 56.0, 0.0, 0.0, 0.0, 1.742321969998424E9, 0.0, 2025-03-18 13:19:29.998
208.0, 3659.3158435005957, -20650.843757491562, -999.8829364637062, 37823.063173659226, 17398.77669796666, 26188.55550152725, -8665.19017996671, 11375.473305639423, 27794.774209830073, 7005.640209393527, 16820.157089252127, 22356.23715594258, -4384.607599330855, -6286.741052477486, 21058.56192810082, -12868.368669553838, -0.12356640625, 0.9373632812500001, 0.26811328125, 192.0, 0.0, 0.0, 0.0, 0.0, 0.0, 0.0, 0.0, 0.0, 0.0, 1.742321969998636E9, 0.0, 2025-03-18 13:19:29.998
210.0, 3658.8464568670342, -20646.149891155947, -1001.916945209139, 37818.592824768166, 17392.83113394155, 26175.949117654458, -8680.970511552157, 11353.09920943966, 27821.864524109904, 7003.67325588146, 16815.91025780562, 22370.34110669388, -4382.104203951861, -6292.239581613491, 21051.297611152844, -12879.030451659019, -0.12356640625, 0.9373632812500001, 0.26811328125, 192.0, 0.0, 0.0, 0.0, 0.0, 0.0, 0.0, 0.0, 0.0, 0.0, 1.742321970059123E9, 0.0, 2025-03-18 13:19:30.059
212.0, 3667.563637204604, -20637.902097451937, -993.0209509159268, 37826.48299056089, 17403.470564302275, 26180.665335734528, -8663.849075299391, 11362.77751478881, 27806.84415183594, 7001.125157013555, 16819.911220063117, 22353.733760563584, -4382.640645818788, -6293.96066593655, 21056.25969842192, -12879.097506892385, -0.12356640625, 0.9373632812500001, 0.26811328125, 192.0, 0.0, 0.0, 0.0, 0.0, 0.0, 0.0, 0.0, 0.0, 0.0, 1.742321970059387E9, 0.0, 2025-03-18 13:19:30.059
214.0, 3660.835762123557, -20637.61152477402, -990.696369492575, 37828.516999306325, 17392.38409905244, 26189.047239905267, -8681.395194696808, 11366.040869479284, 27806.285358224555, 7003.561497159183, 16829.321304478803, 22372.173949739212, -4374.973997470617, -6291.926657191117, 21061.40059964664, -12872.637852744801, -0.12356640625, 0.9373632812500001, 0.26811328125, 192.0, 0.0, 0.0, 0.0, 0.0, 0.0, 0.0, 0.0, 0.0, 0.0, 1.742321970059591E9, 0.0, 2025-03-18 13:19:30.059
216.0, 3664.6579104254142, -20633.69996949434, -985.309599078846, 37829.72399350691, 17399.804878211606, 26185.94034742598, -8656.964738007156, 11366.06322122374, 27815.44957345123, 6999.627590135049, 16827.823737600298, 22355.52190012001, -4377.142116682782, -6294.541811292388, 21064.194567703555, -12866.245253830582, -0.12378320312499999, 0.934681640625, 0.271056640625, 192.0, 126.0, 16.0, 14.5, 16.0, 4.0, 72.0, 0.0, 0.0, 0.0, 1.7423219700598E9, 0.0, 2025-03-18 13:19:30.059
218.0, 3667.0942505710427, -20639.690237008363, -984.6166950007314, 37828.382888839595, 17403.78348872465, 26187.974356171413, -8651.354450148876, 11374.713346327942, 27822.64683516584, 6997.347712200608, 16827.488461433466, 22366.09427524737, -4376.940950982685, -6295.972322937528, 21069.78250381738, -12864.770038696533, -0.12378320312499999, 0.934681640625, 0.271056640625, 192.0, 0.0, 0.0, 0.0, 0.0, 0.0, 0.0, 0.0, 0.0, 0.0, 1.742321970059999E9, 0.0, 2025-03-18 13:19:30.059
220.0, 3661.7074801573135, -20639.17614688589, -995.4349393171001, 37828.87462721761, 17402.665901501885, 26194.411658574543, -8646.28060415752, 11392.661797125555, 27813.03558505006, 6999.672293623959, 16822.638132886666, 22352.05737972944, -4381.970093485128, -6294.00536942546, 21066.697963082548, -12864.16654159624, -0.12378320312499999, 0.934681640625, 0.271056640625, 192.0, 0.0, 0.0, 0.0, 0.0, 0.0, 0.0, 0.0, 0.0, 0.0, 1.742321970060204E9, 0.0, 2025-03-18 13:19:30.060
222.0, 3655.7172126432915, -20640.629010275487, -1002.8110149873513, 37821.453848058445, 17394.462811286787, 26200.3348708552, -8662.776191565537, 11391.410099436058, 27813.4155647058, 7003.919125070468, 16811.864592059206, 22361.176891467203, -4386.507497609556, -6289.199744367569, 21059.59010834576, -12859.07034386043, -0.12378320312499999, 0.934681640625, 0.271056640625, 192.0, 0.0, 0.0, 0.0, 0.0, 0.0, 0.0, 0.0, 0.0, 0.0, 1.742321970060406E9, 0.0, 2025-03-18 13:19:30.060
224.0, 3647.6482328949255, -20644.22764113279, -1008.2871923789016, 37816.424705556004, 17394.68632873134, 26194.65752776355, -8660.04927874199, 11386.313901700247, 27802.93259655626, 6989.971636530357, 16803.75090882193, 22344.90482150374, -4395.0905674803935, -6293.357168836256, 21051.297611152844, -12865.619404985835, -0.12378320312499999, 0.934681640625, 0.271056640625, 192.0, 0.0, 0.0, 0.0, 0.0, 0.0, 0.0, 0.0, 0.0, 0.0, 1.742321970060607E9, 0.0, 2025-03-18 13:19:30.060
226.0, 3641.3226892140738, -20653.593022059566, -1011.4834918360106, 37801.06905711521, 17392.898189174914, 26186.32032708172, -8668.408831168274, 11370.622977092622, 27793.03077376256, 6991.603313875594, 16798.85587678622, 22343.65312381424, -4390.709625567153, -6294.742976992486, 21049.196547174044, -12872.794314955989, -0.1238916015625, 0.9353408203125, 0.2755283203125, 192.0, 126.0, 16.0, 14.5, 32.0, 4.0, 96.0, 0.0, 0.0, 0.0, 1.742321970117931E9, 0.0, 2025-03-18 13:19:30.117
228.0, 3639.042811279632, -20654.46474009332, -1011.5281953249212, 37805.517054261814, 17400.92246543437, 26191.014193417337, -8638.301031386976, 11390.292512213293, 27784.82768354746, 6985.389528917019, 16794.27376917288, 22329.392710851756, -4398.1974599596815, -6300.643837528687, 21047.386055873165, -12872.481390533614, -0.1238916015625, 0.9353408203125, 0.2755283203125, 192.0, 0.0, 0.0, 0.0, 0.0, 0.0, 0.0, 0.0, 0.0, 0.0, 1.742321970118146E9, 0.0, 2025-03-18 13:19:30.118
230.0, 3632.113770498487, -20669.060429222638, -1024.5816140868205, 37803.30423156074, 17394.82043919807, 26191.975318428915, -8653.500217616585, 11385.643349366588, 27782.525453868566, 6985.680101594938, 16787.009452224906, 22332.544306819953, -4394.799994802474, -6300.465023573044, 21049.55417508533, -12865.887625919298, -0.1238916015625, 0.9353408203125, 0.2755283203125, 192.0, 0.0, 0.0, 0.0, 0.0, 0.0, 0.0, 0.0, 0.0, 0.0, 1.742321970118348E9, 0.0, 2025-03-18 13:19:30.118
232.0, 3627.8445873075234, -20669.552167600654, -1023.307564652868, 37798.163330336014, 17388.561950750583, 26175.300917065255, -8674.913188804769, 11365.01268923434, 27772.556575841496, 6973.453697377885, 16775.945338719528, 22323.268332871, -4405.305314696469, -6306.008256197961, 21036.992494701444, -12873.755439967566, -0.1238916015625, 0.9353408203125, 0.2755283203125, 192.0, 0.0, 0.0, 0.0, 0.0, 0.0, 0.0, 0.0, 0.0, 0.0, 1.74232197011859E9, 0.0, 2025-03-18 13:19:30.118
234.0, 3639.2886804686405, -20658.778626773194, -1006.6555150336642, 37807.43930428497, 17415.384044096954, 26188.93548118299, -8637.026981953024, 11381.910608042552, 27795.847093563927, 6982.059118993177, 16789.37873713717, 22328.900972473737, -4394.196497702182, -6298.699235761075, 21053.555137342828, -12864.524169507524, -0.1238916015625, 0.9353408203125, 0.2755283203125, 192.0, 0.0, 0.0, 0.0, 0.0, 0.0, 0.0, 0.0, 0.0, 0.0, 1.742321970118801E9, 0.0, 2025-03-18 13:19:30.118
236.0, 3634.416000177384, -20657.593984317064, -1009.8518144907731, 37807.52871126279, 17400.92246543437, 26191.260062606343, -8650.929767004225, 11386.5374191448, 27792.69549759573, 6978.996930002801, 16793.558513350312, 22339.09336794536, -4388.1615266992485, -6299.481546817011, 21061.288840924364, -12860.634965972302, -0.12494580078125, 0.93467041015625, 0.27776416015625005, 192.0, 126.0, 8.0, 14.5, 24.0, 4.0, 96.0, 0.0, 0.0, 0.0, 1.742321970118999E9, 0.0, 2025-03-18 13:19:30.118
238.0, 3623.8436250500235, -20667.406400132943, -1008.4883580789993, 37802.56662399371, 17394.395756053418, 26184.643946247572, -8678.95885455118, 11374.422773650023, 27775.261136920588, 6973.3642904000635, 16789.021109225883, 22333.393673109254, -4395.224677947125, -6304.242468385991, 21050.828224519282, -12864.702983463167, -0.12494580078125, 0.93467041015625, 0.27776416015625005, 192.0, 0.0, 0.0, 0.0, 0.0, 0.0, 0.0, 0.0, 0.0, 0.0, 1.742321970119257E9, 0.0, 2025-03-18 13:19:30.119
240.0, 3631.800846076113, -20662.779589030695, -999.2347358745022, 37807.7745804518, 17399.514305533685, 26178.206643844445, -8657.836456040914, 11368.432506136001, 27775.97639274316, 6975.688871823415, 16795.771336051384, 22346.782368037984, -4389.2791139220135, -6309.428073099622, 21056.751436799936, -12860.523207250024, -0.12494580078125, 0.93467041015625, 0.27776416015625005, 192.0, 0.0, 0.0, 0.0, 0.0, 0.0, 0.0, 0.0, 0.0, 0.0, 1.742321970178218E9, 0.0, 2025-03-18 13:19:30.178
242.0, 3639.0651630240877, -20662.24314716377, -996.7089887510525, 37808.64629848555, 17404.54344803613, 26179.011306644836, -8656.674165329237, 11359.24593916487, 27796.204721475213, 6983.847258549602, 16799.571132608788, 22337.595801066855, -4389.77085230003, -6309.450424844078, 21059.1207217122, -12864.837093929898, -0.12494580078125, 0.93467041015625, 0.27776416015625005, 192.0, 0.0, 0.0, 0.0, 0.0, 0.0, 0.0, 0.0, 0.0, 0.0, 1.742321970178476E9, 0.0, 2025-03-18 13:19:30.178
244.0, 3643.5131601706935, -20655.64938254945, -999.7041225080637, 37810.03210664178, 17396.34035782103, 26178.877196178102, -8667.514761390063, 11378.446087651979, 27787.085209737448, 6979.443964891907, 16807.08131874577, 22348.70461806114, -4390.82138428943, -6309.58453531081, 21057.958431000523, -12868.92746316522, -0.12494580078125, 0.93467041015625, 0.27776416015625005, 192.0, 0.0, 0.0, 0.0, 0.0, 0.0, 0.0, 0.0, 0.0, 0.0, 1.742321970178674E9, 0.0, 2025-03-18 13:19:30.178
246.0, 3653.280872497663, -20642.93123995438, -989.9587619255498, 37823.08552540369, 17404.677558502863, 26185.13568462559, -8654.349583905887, 11386.604474378166, 27795.847093563927, 6980.360386414574, 16809.09297574675, 22339.94273423466, -4394.889401780296, -6308.332837621312, 21057.377285644685, -12863.138361351295, -0.121472900390625, 0.933335205078125, 0.27688208007812504, 192.0, 126.0, 40.0, 14.5, 16.0, 4.0, 80.0, 0.0, 0.0, 0.0, 1.742321970178875E9, 0.0, 2025-03-18 13:19:30.178
248.0, 3651.828009108068, -20642.528908554188, -998.1395003961921, 37826.7288597499, 17398.039090399634, 26185.985050914893, -8667.224188712144, 11375.450953894968, 27804.631329134863, 6987.71411034037, 16817.608990384222, 22360.08165598889, -4387.021587732028, -6303.6166195412425, 21061.802931046837, -12858.288032804494, -0.121472900390625, 0.933335205078125, 0.27688208007812504, 192.0, 0.0, 0.0, 0.0, 0.0, 0.0, 0.0, 0.0, 0.0, 0.0, 1.742321970179089E9, 0.0, 2025-03-18 13:19:30.179
250.0, 3649.43637245135, -20641.210155631325, -997.7818724849072, 37830.50630456285, 17396.653282243406, 26193.65169926306, -8666.95596777868, 11387.856172067664, 27793.768381329584, 6991.156278986487, 16816.29023746136, 22349.911612261727, -4389.457927877656, -6299.883878217206, 21060.03714323487, -12854.197663569174, -0.121472900390625, 0.933335205078125, 0.27688208007812504, 192.0, 0.0, 0.0, 0.0, 0.0, 0.0, 0.0, 0.0, 0.0, 0.0, 1.742321970179278E9, 0.0, 2025-03-18 13:19:30.179
252.0, 3657.0583173106097, -20638.23737361877, -994.920849194628, 37833.412031342035, 17399.380195066955, 26186.0297544038, -8664.117296232855, 11377.037927751295, 27803.022003534083, 6994.710206354882, 16818.52541190689, 22366.38484792529, -4384.607599330855, -6297.782814238408, 21059.433646134574, -12857.818646170932, -0.121472900390625, 0.933335205078125, 0.27688208007812504, 192.0, 0.0, 0.0, 0.0, 0.0, 0.0, 0.0, 0.0, 0.0, 0.0, 1.742321970179477E9, 0.0, 2025-03-18 13:19:30.179
254.0, 3648.631709650959, -20651.201385402845, -1003.5039190654659, 37822.079696903194, 17384.717450704273, 26179.99478340087, -8674.264988215566, 11375.473305639423, 27788.94040452724, 6982.215581204365, 16810.434080414067, 22344.70365580364, -4397.638666348299, -6303.77308175243, 21046.894317495146, -12865.909977663754, -0.121472900390625, 0.933335205078125, 0.27688208007812504, 192.0, 0.0, 0.0, 0.0, 0.0, 0.0, 0.0, 0.0, 0.0, 0.0, 1.742321970179681E9, 0.0, 2025-03-18 13:19:30.179
0.0, 3648.9446340733334, -20649.636763290975, -1002.498090564977, 37823.15258063705, 17381.565854736073, 26177.692553721972, -8679.964683051669, 11370.57827360371, 27794.4612854077, 6986.931799284434, 16813.965656038006, 22354.13609196378, -4386.865125520841, -6301.940238707094, 21043.854480249225, -12868.97216665413, -0.11873645019531251, 0.9376676025390625, 0.27544104003906256, 192.0, 126.0, 48.0, 14.5, 56.0, 4.0, 72.0, 0.0, 0.0, 0.0, 1.742321970237541E9, 0.0, 2025-03-18 13:19:30.237
2.0, 3648.788171862146, -20646.3734086005, -1000.307619608357, 37824.471333559915, 17392.808782197095, 26188.689611993985, -8654.394287394796, 11383.564637132244, 27798.574006387476, 6981.14269747051, 16810.501135647435, 22334.51126033202, -4390.10612846686, -6301.873183473728, 21046.69315179505, -12870.939120166198, -0.11873645019531251, 0.9376676025390625, 0.27544104003906256, 192.0, 0.0, 0.0, 0.0, 0.0, 0.0, 0.0, 0.0, 0.0, 0.0, 1.742321970237825E9, 0.0, 2025-03-18 13:19:30.237
4.0, 3639.668660124381, -20655.64938254945, -1006.2531836334687, 37816.04472590026, 17388.09256411702, 26185.828588703705, -8660.026926997534, 11375.853285295163, 27794.2601197076, 6980.315682925664, 16803.683853588565, 22342.51318484702, -4388.586209843899, -6304.264820130446, 21044.994419216448, -12870.156809110262, -0.11873645019531251, 0.9376676025390625, 0.27544104003906256, 192.0, 0.0, 0.0, 0.0, 0.0, 0.0, 0.0, 0.0, 0.0, 0.0, 1.742321970238024E9, 0.0, 2025-03-18 13:19:30.238
6.0, 3644.250767737719, -20644.875841721994, -1001.8945934646838, 37818.659880001534, 17390.64066298493, 26181.715867723928, -8675.784906838526, 11365.236206678892, 27772.713038052683, 6975.867685779058, 16797.335958163258, 22322.575428792887, -4404.388893173801, -6306.924677720628, 21041.64165754815, -12877.354070824871, -0.11873645019531251, 0.9376676025390625, 0.27544104003906256, 192.0, 0.0, 0.0, 0.0, 0.0, 0.0, 0.0, 0.0, 0.0, 0.0, 1.742321970238223E9, 0.0, 2025-03-18 13:19:30.238
8.0, 3646.597700905526, -20645.077007422093, -998.0947969072815, 37824.15840913754, 17400.408375311898, 26189.918957939026, -8658.015269996557, 11386.716233100442, 27799.155151743314, 6986.5741713731495, 16809.69647284704, 22341.41794936871, -4390.419052889234, -6293.8712589587285, 21048.63775356266, -12873.978957412119, -0.11873645019531251, 0.9376676025390625, 0.27544104003906256, 192.0, 0.0, 0.0, 0.0, 0.0, 0.0, 0.0, 0.0, 0.0, 0.0, 1.742321970238439E9, 0.0, 2025-03-18 13:19:30.238
10.0, 3643.468456681783, -20649.167376657413, -995.0549596613598, 37831.467429574426, 17404.901075947415, 26196.3339085977, -8642.056124455468, 11392.281817469815, 27785.945270770226, 6989.234028963331, 16811.75283333693, 22337.21582141111, -4388.988541244094, -6290.71966299053, 21064.775713059393, -12859.83030317191, -0.11736822509765626, 0.9388338012695312, 0.2717205200195313, 192.0, 126.0, 48.0, 14.5, 48.0, 4.0, 48.0, 0.0, 0.0, 0.0, 1.742321970238633E9, 0.0, 2025-03-18 13:19:30.238
12.0, 3636.3606019449953, -20663.606603575543, -1002.0734074203262, 37819.86687420212, 17398.553180522107, 26175.077399620703, -8662.418563654252, 11366.264386923836, 27782.458398635197, 6981.723842826348, 16806.90250479013, 22347.274106416, -4394.241201191092, -6304.778910252919, 21059.098369967745, -12870.44738178818, -0.11736822509765626, 0.9388338012695312, 0.2717205200195313, 192.0, 0.0, 0.0, 0.0, 0.0, 0.0, 0.0, 0.0, 0.0, 0.0, 1.742321970238842E9, 0.0, 2025-03-18 13:19:30.238
14.0, 3645.8153898495902, -20647.245126634258, -987.4106630576448, 37833.479086575404, 17403.649378257916, 26177.960774655436, -8655.33306066192, 11365.504427612357, 27793.12018074038, 6986.797688817703, 16812.937475793064, 22342.55788833593, -4393.39183490179, -6306.879974231717, 21065.17804445959, -12869.530960265514, -0.11736822509765626, 0.9388338012695312, 0.2717205200195313, 192.0, 0.0, 0.0, 0.0, 0.0, 0.0, 0.0, 0.0, 0.0, 0.0, 1.742321970297369E9, 0.0, 2025-03-18 13:19:30.297
16.0, 3653.8620178535007, -20639.310257352623, -988.6400090026867, 37833.52379006431, 17400.721299734272, 26174.60801298714, -8657.47882812963, 11363.760991544843, 27812.342680971946, 6993.458508665384, 16823.487499175968, 22361.400408911755, -4381.545410340477, -6299.727416006019, 21072.844692807757, -12867.742820709089, -0.11736822509765626, 0.9388338012695312, 0.2717205200195313, 192.0, 0.0, 0.0, 0.0, 0.0, 0.0, 0.0, 0.0, 0.0, 0.0, 1.74232197029763E9, 0.0, 2025-03-18 13:19:30.297
18.0, 3646.3965352054283, -20644.719379510807, -991.0316456594045, 37835.44604008747, 17396.809744454593, 26174.630364731594, -8650.102752459377, 11372.992262004884, 27782.436046890743, 6983.5790376161385, 16813.518621148898, 22349.75515005054, -4390.5084598670555, -6309.0704451883375, 21062.40642814713, -12869.30744282096, -0.11736822509765626, 0.9388338012695312, 0.2717205200195313, 192.0, 0.0, 0.0, 0.0, 0.0, 0.0, 0.0, 0.0, 0.0, 0.0, 1.742321970297817E9, 0.0, 2025-03-18 13:19:30.297
20.0, 3648.542302673138, -20643.780606243683, -988.0588636468487, 37836.29540637677, 17398.39671831092, 26180.93355666799, -8651.957947249168, 11384.481058654912, 27789.387439416343, 6986.440060906418, 16828.583696911777, 22356.70654257614, -4385.68048306471, -6304.398930597178, 21066.228576448986, -12860.523207250024, -0.11968411254882813, 0.9384169006347656, 0.26886026000976565, 192.0, 126.0, 24.0, 14.5, 40.0, 4.0, 40.0, 0.0, 0.0, 0.0, 1.742321970298027E9, 0.0, 2025-03-18 13:19:30.298
22.0, 3651.760953874702, -20648.183899901378, -992.6409712601867, 37833.07675517521, 17395.982729909745, 26183.19108285798, -8663.178522965733, 11375.987395761895, 27785.58764285894, 6983.467278893862, 16822.079339275282, 22347.09529246036, -4389.3908726442905, -6306.9023259761725, 21061.60176534674, -12863.294823562483, -0.11968411254882813, 0.9384169006347656, 0.26886026000976565, 192.0, 0.0, 0.0, 0.0, 0.0, 0.0, 0.0, 0.0, 0.0, 0.0, 1.742321970298244E9, 0.0, 2025-03-18 13:19:30.298
24.0, 3650.822180607579, -20648.966210957315, -995.4572910615553, 37828.20407488395, 17397.525000277165, 26176.686725221483, -8663.938482277214, 11353.278023395304, 27798.35048894292, 6989.703415596893, 16817.27371421739, 22347.34116164937, -4389.077948221916, -6302.297866618379, 21057.466692622507, -12866.222902086129, -0.11968411254882813, 0.9384169006347656, 0.26886026000976565, 192.0, 0.0, 0.0, 0.0, 0.0, 0.0, 0.0, 0.0, 0.0, 0.0, 1.742321970298451E9, 0.0, 2025-03-18 13:19:30.298
26.0, 3634.5948141330264, -20659.091551195568, -1011.595250558287, 37816.491760789366, 17380.11299134648, 26180.598280501163, -8669.258197457577, 11367.404325891057, 27798.238730220644, 6982.863781793569, 16805.13671697816, 22337.886373744772, -4393.190669201693, -6306.879974231717, 21048.146015184644, -12873.554274267468, -0.11968411254882813, 0.9384169006347656, 0.26886026000976565, 192.0, 0.0, 0.0, 0.0, 0.0, 0.0, 0.0, 0.0, 0.0, 0.0, 1.742321970298646E9, 0.0, 2025-03-18 13:19:30.298
28.0, 3639.2216252352746, -20653.391856359467, -1003.6380295321977, 37819.48689454638, 17399.268436344675, 26189.717792238927, -8640.692668043694, 11382.089421998195, 27786.54876787052, 6976.8288107906355, 16800.107574475715, 22325.481155572077, -4396.923410525729, -6308.9586864660605, 21051.521128597396, -12866.915806164243, -0.11968411254882813, 0.9384169006347656, 0.26886026000976565, 192.0, 0.0, 0.0, 0.0, 0.0, 0.0, 0.0, 0.0, 0.0, 0.0, 1.742321970298849E9, 0.0, 2025-03-18 13:19:30.298
30.0, 3629.3868576749396, -20662.42196111941, -1008.6671720346418, 37812.513150276325, 17386.215017582777, 26175.390324043077, -8660.093982230901, 11365.191503189983, 27782.860730035394, 6974.347767156097, 16800.576961109276, 22326.241114883556, -4394.710587824654, -6310.970343467038, 21051.92345999759, -12868.838056187398, -0.11884205627441408, 0.9382084503173829, 0.2674301300048828, 192.0, 126.0, 40.0, 14.5, 40.0, 4.0, 40.0, 0.0, 0.0, 0.0, 1.742321970357617E9, 0.0, 2025-03-18 13:19:30.357
32.0, 3629.923299541867, -20666.735847799286, -1010.9694017135384, 37808.6239467411, 17383.912787903882, 26174.071571120214, -8682.892761575313, 11359.715325798432, 27778.390381144334, 6969.922121753946, 16797.55947560781, 22317.50158280153, -4396.722244825631, -6316.357113880767, 21046.894317495146, -12874.7389167236, -0.11884205627441408, 0.9382084503173829, 0.2674301300048828, 192.0, 0.0, 0.0, 0.0, 0.0, 0.0, 0.0, 0.0, 0.0, 0.0, 1.742321970357869E9, 0.0, 2025-03-18 13:19:30.357
34.0, 3629.297450697118, -20661.259670407733, -997.7148172515414, 37817.34112707867, 17390.283035073644, 26179.45834153394, -8655.37776415083, 11371.96408175994, 27769.15911068429, 6966.971691485845, 16797.00068199643, 22322.530725303975, -4393.101262223871, -6317.944087737094, 21047.542518084352, -12875.16359986825, -0.11884205627441408, 0.9382084503173829, 0.2674301300048828, 192.0, 0.0, 0.0, 0.0, 0.0, 0.0, 0.0, 0.0, 0.0, 0.0, 1.742321970358078E9, 0.0, 2025-03-18 13:19:30.358
36.0, 3642.015593292188, -20650.55318481364, -982.7838519553962, 37829.25460687335, 17406.175125381367, 26197.719716753927, -8637.22814765312, 11386.20214297797, 27773.54005259753, 6975.688871823415, 16810.434080414067, 22319.624998524785, -4390.553163355967, -6306.231773642514, 21063.769884558904, -12859.338564793894, -0.11884205627441408, 0.9382084503173829, 0.2674301300048828, 192.0, 0.0, 0.0, 0.0, 0.0, 0.0, 0.0, 0.0, 0.0, 0.0, 1.742321970358277E9, 0.0, 2025-03-18 13:19:30.358
38.0, 3629.565671630582, -20659.76210352923, -1009.9635732130496, 37812.84842644315, 17382.01288962518, 26183.392248558077, -8671.225150969643, 11364.833875278697, 27786.325250425965, 6973.118421211055, 16809.22708621348, 22335.56179232142, -4386.060462720449, -6311.149157422681, 21055.745608299447, -12862.35605029536, -0.11884205627441408, 0.9382084503173829, 0.2674301300048828, 192.0, 0.0, 0.0, 0.0, 0.0, 0.0, 0.0, 0.0, 0.0, 0.0, 1.742321970358476E9, 0.0, 2025-03-18 13:19:30.358
40.0, 3636.2264914782636, -20653.593022059566, -1002.1404626536921, 37825.61127252713, 17388.941930406327, 26190.544806783775, -8665.391345666809, 11370.354756159159, 27773.96473574218, 6968.312796153164, 16795.07843197327, 22311.287797842957, -4403.137195484304, -6314.01018071296, 21044.79325351635, -12870.670899232735, -0.11842102813720704, 0.9381042251586915, 0.2697150650024414, 192.0, 126.0, 40.0, 14.5, 40.0, 4.0, 64.0, 0.0, 0.0, 0.0, 1.742321970358674E9, 0.0, 2025-03-18 13:19:30.358
42.0, 3635.734753100247, -20654.80001626015, -1003.6380295321977, 37825.521865549315, 17386.840866427527, 26179.257175833845, -8675.539037649518, 11354.395610618069, 27791.801427817518, 6981.276807937242, 16805.80726931182, 22334.13128067628, -4391.067253478438, -6302.521384062932, 21055.67855306608, -12860.724372950122, -0.11842102813720704, 0.9381042251586915, 0.2697150650024414, 192.0, 0.0, 0.0, 0.0, 0.0, 0.0, 0.0, 0.0, 0.0, 0.0, 1.742321970358892E9, 0.0, 2025-03-18 13:19:30.358
44.0, 3645.7483346162244, -20646.21694638931, -991.4563288040554, 37837.70356627746, 17394.596921753517, 26192.064725406733, -8656.584758351417, 11386.805640078264, 27784.58181435845, 6977.164086957466, 16799.32526341978, 22319.200315380134, -4396.945762270184, -6309.964514966549, 21057.26552692241, -12864.323003807427, -0.11842102813720704, 0.9381042251586915, 0.2697150650024414, 192.0, 0.0, 0.0, 0.0, 0.0, 0.0, 0.0, 0.0, 0.0, 0.0, 1.742321970417909E9, 0.0, 2025-03-18 13:19:30.417
46.0, 3646.463590438794, -20644.920545210905, -995.792567228385, 37836.429516843506, 17395.043956642625, 26187.393210815575, -8658.90933977477, 11373.34988991617, 27785.900567281315, 6987.065909751166, 16818.637170629165, 22347.855251771838, -4382.394776629779, -6298.542773549888, 21066.630907849183, -12850.174349567218, -0.11842102813720704, 0.9381042251586915, 0.2697150650024414, 192.0, 0.0, 0.0, 0.0, 0.0, 0.0, 0.0, 0.0, 0.0, 0.0, 1.742321970418156E9, 0.0, 2025-03-18 13:19:30.418
48.0, 3645.9942038052327, -20643.713551010318, -992.1492328821699, 37833.85906623114, 17394.082831631047, 26180.441818289975, -8652.159112949266, 11370.824142792719, 27773.83062527545, 6979.533371869728, 16817.18430723957, 22334.824184754394, -4393.056558734961, -6311.193860911591, 21060.79710254635, -12857.461018259648, -0.11842102813720704, 0.9381042251586915, 0.2697150650024414, 192.0, 0.0, 0.0, 0.0, 0.0, 0.0, 0.0, 0.0, 0.0, 0.0, 1.742321970418354E9, 0.0, 2025-03-18 13:19:30.418
50.0, 3654.5772736760705, -20632.068292149102, -988.5506020248655, 37838.77645001131, 17400.967168923282, 26185.538016025785, -8651.71207806016, 11379.675433597022, 27786.59347135943, 6986.641226606515, 16825.74502536595, 22353.644353585765, -4384.048805719472, -6307.327009120823, 21065.200396204043, -12854.890567647288, -0.11821051406860353, 0.9400521125793457, 0.2698575325012207, 192.0, 126.0, 40.0, 14.5, 56.0, 4.0, 56.0, 0.0, 0.0, 0.0, 1.742321970418561E9, 0.0, 2025-03-18 13:19:30.418
52.0, 3640.629785135959, -20644.406455088432, -1003.6380295321977, 37823.711374248436, 17386.662052471882, 26172.574004241706, -8671.023985269545, 11361.43641012149, 27775.663468320785, 6979.66748233646, 16813.742138593454, 22335.718254532607, -4394.710587824654, -6307.8410992432955, 21057.98078274498, -12862.579567739913, -0.11821051406860353, 0.9400521125793457, 0.2698575325012207, 192.0, 0.0, 0.0, 0.0, 0.0, 0.0, 0.0, 0.0, 0.0, 0.0, 1.742321970418757E9, 0.0, 2025-03-18 13:19:30.418
54.0, 3639.2886804686405, -20652.542490070166, -1007.1919569005915, 37819.93392943549, 17384.2033605818, 26173.602184486652, -8673.773249837548, 11361.503465354857, 27796.249424964124, 6975.107726467577, 16810.299969947337, 22336.85819349983, -4394.598829102377, -6317.720570292541, 21054.0692274653, -12868.949814909676, -0.11821051406860353, 0.9400521125793457, 0.2698575325012207, 192.0, 0.0, 0.0, 0.0, 0.0, 0.0, 0.0, 0.0, 0.0, 0.0, 1.742321970418969E9, 0.0, 2025-03-18 13:19:30.418
56.0, 3632.516101898683, -20654.21887090431, -1002.9004219651725, 37823.53256029279, 17385.835037927038, 26171.679934463496, -8664.340813677409, 11364.900930512063, 27768.197985672712, 6966.837581019114, 16796.464240129502, 22310.527838531478, -4404.1877274737035, -6323.532023850921, 21045.374398872187, -12873.420163800736, -0.11821051406860353, 0.9400521125793457, 0.2698575325012207, 192.0, 0.0, 0.0, 0.0, 0.0, 0.0, 0.0, 0.0, 0.0, 0.0, 1.74232197041917E9, 0.0, 2025-03-18 13:19:30.419
58.0, 3639.087514768543, -20647.870975479007, -995.501994550466, 37827.01943242782, 17392.67467173036, 26174.295088564766, -8665.681918344728, 11360.519988598822, 27776.78105554355, 6974.258360178275, 16808.690644346552, 22330.04091144096, -4393.481241879612, -6314.144291179692, 21055.67855306608, -12867.496951520081, -0.11821051406860353, 0.9400521125793457, 0.2698575325012207, 192.0, 0.0, 0.0, 0.0, 0.0, 0.0, 0.0, 0.0, 0.0, 0.0, 1.74232197041937E9, 0.0, 2025-03-18 13:19:30.419
60.0, 3652.073878297076, -20627.285018835668, -982.3591688107454, 37845.39256637008, 17399.02256715567, 26191.684745750994, -8653.723735061138, 11377.842590551685, 27780.983183501146, 6984.316645183164, 16811.730481592476, 22325.682321272176, -4392.140137212293, -6301.716721262542, 21067.234404949475, -12854.063553102442, -0.12110525703430176, 0.9410260562896728, 0.26992876625061035, 192.0, 126.0, 16.0, 14.5, 56.0, 4.0, 56.0, 0.0, 0.0, 0.0, 1.742321970478149E9, 0.0, 2025-03-18 13:19:30.478
62.0, 3655.694860898836, -20629.117861881, -980.0792908763041, 37847.35951988215, 17398.843753200024, 26200.51368481084, -8658.462304885663, 11380.30128244177, 27797.434067420254, 7001.929819813946, 16825.834432343774, 22349.285763416978, -4379.243180661581, -6282.762441964441, 21072.151788729643, -12847.089808832385, -0.12110525703430176, 0.9410260562896728, 0.26992876625061035, 192.0, 0.0, 0.0, 0.0, 0.0, 0.0, 0.0, 0.0, 0.0, 0.0, 1.742321970478385E9, 0.0, 2025-03-18 13:19:30.478
64.0, 3647.514122428194, -20637.075082907093, -975.8771629187064, 37843.85029600267, 17392.67467173036, 26196.93740569799, -8674.086174259923, 11371.785267804298, 27772.10954095239, 6992.2068109758875, 16821.945228808552, 22331.024388196995, -4389.659093577754, -6289.9373519345945, 21070.0730764953, -12851.090771089885, -0.12110525703430176, 0.9410260562896728, 0.26992876625061035, 192.0, 0.0, 0.0, 0.0, 0.0, 0.0, 0.0, 0.0, 0.0, 0.0, 1.742321970478593E9, 0.0, 2025-03-18 13:19:30.478
66.0, 3646.0389072941434, -20641.433673075877, -977.6205989862203, 37840.67634829001, 17408.790279482637, 26194.90339695256, -8641.318516888443, 11381.195352219982, 27789.92388128327, 6990.485726652829, 16826.12500502169, 22331.04673994145, -4382.3500731408685, -6299.012160183449, 21073.53759688587, -12856.924576392721, -0.12110525703430176, 0.9410260562896728, 0.26992876625061035, 192.0, 0.0, 0.0, 0.0, 0.0, 0.0, 0.0, 0.0, 0.0, 0.0, 1.74232197047879E9, 0.0, 2025-03-18 13:19:30.478
68.0, 3644.563692160093, -20643.400626587943, -972.9043809061505, 37842.553894824254, 17417.55216330912, 26202.927673212012, -8630.075589427423, 11395.835744838208, 27780.73731431214, 6980.807421303681, 16819.151260751638, 22323.000111937537, -4388.362692399346, -6303.10252941877, 21077.06917250981, -12846.642773943278, -0.12110525703430176, 0.9410260562896728, 0.26992876625061035, 192.0, 0.0, 0.0, 0.0, 0.0, 0.0, 0.0, 0.0, 0.0, 0.0, 1.742321970478998E9, 0.0, 2025-03-18 13:19:30.478
70.0, 3639.5569014021044, -20646.105187667035, -982.2474100884689, 37840.38577561209, 17410.53371555015, 26201.072478422222, -8636.892871486292, 11390.404270935569, 27788.761590571594, 6987.870572551557, 16824.470975932, 22333.55013532044, -4378.907904494751, -6294.899439203673, 21083.9758615465, -12840.20547154015, -0.12355262851715088, 0.9385130281448364, 0.2689643831253052, 192.0, 126.0, 8.0, 14.5, 32.0, 4.0, 48.0, 0.0, 0.0, 0.0, 1.742321970479195E9, 0.0, 2025-03-18 13:19:30.479
72.0, 3632.3596396874955, -20649.36854235751, -994.6079247722537, 37832.987348197385, 17392.07117463007, 26181.179425857, -8662.150342720788, 11372.433468393501, 27775.439950876233, 6979.041633491712, 16811.19403972555, 22324.117699160302, -4389.256762177559, -6305.158889908658, 21071.280070695888, -12845.793407653977, -0.12355262851715088, 0.9385130281448364, 0.2689643831253052, 192.0, 0.0, 0.0, 0.0, 0.0, 0.0, 0.0, 0.0, 0.0, 0.0, 1.742321970479413E9, 0.0, 2025-03-18 13:19:30.479
74.0, 3633.3654681879843, -20651.782530758683, -1002.2075178870581, 37828.36053709513, 17387.66788097237, 26167.120178594614, -8669.392307924309, 11357.01076471934, 27768.10857869489, 6974.973616000845, 16802.812135554806, 22318.70857700212, -4398.77860531552, -6310.702122533575, 21055.70090481054, -12859.629137471813, -0.12355262851715088, 0.9385130281448364, 0.2689643831253052, 192.0, 0.0, 0.0, 0.0, 0.0, 0.0, 0.0, 0.0, 0.0, 0.0, 1.742321970538507E9, 0.0, 2025-03-18 13:19:30.538
76.0, 3638.3275554570623, -20649.614411546518, -996.373712584223, 37831.936816207985, 17383.19753208131, 26158.246536045855, -8671.113392247367, 11359.87178800962, 27772.847148519417, 6974.839505534113, 16803.75090882193, 22323.000111937537, -4399.672675093731, -6312.91494523465, 21059.299535667844, -12862.065477617442, -0.12355262851715088, 0.9385130281448364, 0.2689643831253052, 192.0, 0.0, 0.0, 0.0, 0.0, 0.0, 0.0, 0.0, 0.0, 0.0, 1.742321970538797E9, 0.0, 2025-03-18 13:19:30.538
78.0, 3642.0379450366436, -20644.473510321797, -995.9490294395721, 37833.59084529768, 17388.852523428504, 26164.70619019344, -8686.111412776878, 11350.506407082845, 27780.580852100953, 6981.165049214966, 16813.496269404444, 22330.867925985807, -4396.699893081176, -6309.58453531081, 21057.019657733403, -12860.836131672399, -0.12355262851715088, 0.9385130281448364, 0.2689643831253052, 192.0, 0.0, 0.0, 0.0, 0.0, 0.0, 0.0, 0.0, 0.0, 0.0, 1.742321970539006E9, 0.0, 2025-03-18 13:19:30.539
80.0, 3634.3265931995625, -20650.88846098047, -1011.2823261359127, 37822.97376668141, 17374.681517443838, 26153.932649365983, -8694.225096014154, 11340.425770333502, 27772.73538979714, 6974.57128460065, 16803.99677801094, 22325.391748594255, -4403.5395268844995, -6321.050980216382, 21045.35204712773, -12872.749611467078, -0.12177631425857544, 0.9372565140724183, 0.27048219156265263, 192.0, 126.0, 32.0, 14.5, 32.0, 4.0, 64.0, 0.0, 0.0, 0.0, 1.742321970539208E9, 0.0, 2025-03-18 13:19:30.539
82.0, 3638.595776390526, -20643.490033565766, -1008.0413231898932, 37832.719127263925, 17390.19362809582, 26163.208623314935, -8667.693575345704, 11349.589985560178, 27762.565346069976, 6976.091203223611, 16799.48172563097, 22315.199353122636, -4403.87480305133, -6323.487320362011, 21046.112006439213, -12876.102373135374, -0.12177631425857544, 0.9372565140724183, 0.27048219156265263, 192.0, 0.0, 0.0, 0.0, 0.0, 0.0, 0.0, 0.0, 0.0, 0.0, 1.742321970539416E9, 0.0, 2025-03-18 13:19:30.539
84.0, 3629.3198024415738, -20646.954553956337, -1007.1249016672257, 37833.21086564194, 17391.62413974096, 26177.29022232178, -8655.198950195188, 11385.6880528555, 27772.176596185756, 6977.991101502312, 16795.816039540296, 22328.319827117903, -4400.410282660757, -6318.100549948282, 21056.952602500034, -12861.6854979617, -0.12177631425857544, 0.9372565140724183, 0.27048219156265263, 192.0, 0.0, 0.0, 0.0, 0.0, 0.0, 0.0, 0.0, 0.0, 0.0, 1.742321970539609E9, 0.0, 2025-03-18 13:19:30.539
86.0, 3631.7561425872022, -20651.313144125124, -1002.565145798343, 37823.80078122625, 17400.318968334075, 26172.171672841512, -8653.388458894307, 11369.684203825498, 27772.131892696845, 6978.818116047159, 16801.7169000765, 22320.80964098092, -4399.940896027195, -6315.4406923581, 21067.055590993834, -12853.996497869075, -0.12177631425857544, 0.9372565140724183, 0.27048219156265263, 192.0, 0.0, 0.0, 0.0, 0.0, 0.0, 0.0, 0.0, 0.0, 0.0, 1.742321970539808E9, 0.0, 2025-03-18 13:19:30.539
88.0, 3624.2906599391295, -20658.845682006562, -1016.5126343384546, 37815.28476658878, 17387.198494338812, 26162.94040238147, -8665.950139278191, 11354.44031410698, 27765.87340424936, 6966.926987996935, 16795.167838951093, 22317.94861769064, -4405.171204229737, -6330.036381487415, 21054.69507631005, -12873.59897775638, -0.12177631425857544, 0.9372565140724183, 0.27048219156265263, 192.0, 0.0, 0.0, 0.0, 0.0, 0.0, 0.0, 0.0, 0.0, 0.0, 1.742321970540007E9, 0.0, 2025-03-18 13:19:30.540
90.0, 3628.2916221966298, -20655.336458127076, -1012.7798930144183, 37812.021411898306, 17383.979843137247, 26164.70619019344, -8682.33396796393, 11349.858206493642, 27772.176596185756, 6964.088316451111, 16792.910312761105, 22308.963216419605, -4405.752349585575, -6324.023762228938, 21052.303439653333, -12873.129591122817, -0.11988815712928771, 0.9366282570362092, 0.2682410957813263, 192.0, 126.0, 40.0, 14.5, 32.0, 4.0, 40.0, 0.0, 0.0, 0.0, 1.742321970597875E9, 0.0, 2025-03-18 13:19:30.597
92.0, 3624.67063959487, -20655.872899994007, -1006.6555150336642, 37811.61908049811, 17388.383136794942, 26154.312629021722, -8678.109488261878, 11341.521005811812, 27769.896718251315, 6962.121362939044, 16797.917103519096, 22319.960274691617, -4397.996294259584, -6325.901308763184, 21049.196547174044, -12879.16456212575, -0.11988815712928771, 0.9366282570362092, 0.2682410957813263, 192.0, 0.0, 0.0, 0.0, 0.0, 0.0, 0.0, 0.0, 0.0, 0.0, 1.742321970598131E9, 0.0, 2025-03-18 13:19:30.598
94.0, 3639.2663287241853, -20642.595963787553, -995.3455323392789, 37822.079696903194, 17398.15084912191, 26164.437969259976, -8662.53032237653, 11351.713401283432, 27770.321401395966, 6973.610159589071, 16810.456432158524, 22311.466611798598, -4387.0439394764835, -6316.580631325321, 21058.49487286745, -12871.229692844117, -0.11988815712928771, 0.9366282570362092, 0.2682410957813263, 192.0, 0.0, 0.0, 0.0, 0.0, 0.0, 0.0, 0.0, 0.0, 0.0, 1.742321970598337E9, 0.0, 2025-03-18 13:19:30.598
96.0, 3637.9028723124115, -20645.41228358892, -999.1676806411364, 37823.86783645962, 17391.95941590779, 26170.2270710739, -8665.324290433442, 11361.682279310498, 27786.83934054844, 6985.434232405929, 16815.217353727505, 22338.80279526744, -4379.779622528508, -6310.143328922192, 21059.813625790313, -12871.296748077482, -0.11988815712928771, 0.9366282570362092, 0.2682410957813263, 192.0, 0.0, 0.0, 0.0, 0.0, 0.0, 0.0, 0.0, 0.0, 0.0, 1.742321970598537E9, 0.0, 2025-03-18 13:19:30.598
98.0, 3644.2284159932633, -20633.722321238794, -988.0141601579381, 37824.98542368239, 17398.106145633003, 26172.641059475074, -8661.90447353178, 11361.39170663258, 27779.08328522245, 6980.7627178147695, 16808.42242341309, 22330.599705052344, -4392.944800012684, -6298.162793894147, 21057.824320533793, -12862.713678206645, -0.11988815712928771, 0.9366282570362092, 0.2682410957813263, 192.0, 0.0, 0.0, 0.0, 0.0, 0.0, 0.0, 0.0, 0.0, 0.0, 1.742321970598749E9, 0.0, 2025-03-18 13:19:30.598
100.0, 3643.62491889297, -20632.112995638014, -991.4339770596001, 37829.634586529086, 17398.19555261082, 26174.406847287042, -8650.862711770858, 11369.684203825498, 27798.104619753914, 6991.871534809057, 16820.42531018559, 22360.729856578095, -4374.683424792698, -6304.8459654862845, 21064.88747178167, -12860.299689805472, -0.12094407856464386, 0.9373141285181046, 0.2661205478906632, 192.0, 126.0, 24.0, 14.5, 40.0, 4.0, 32.0, 0.0, 0.0, 0.0, 1.742321970598945E9, 0.0, 2025-03-18 13:19:30.598
102.0, 3642.52968341466, -20630.302504337134, -990.9645904260386, 37829.276958617804, 17395.58039850955, 26183.548710769264, -8654.818970539447, 11377.619073107133, 27784.40300040281, 6987.2223719623535, 16814.502097904933, 22355.90187977575, -4383.601770830366, -6305.851793986773, 21063.971050259002, -12849.794369911477, -0.12094407856464386, 0.9373141285181046, 0.2661205478906632, 192.0, 0.0, 0.0, 0.0, 0.0, 0.0, 0.0, 0.0, 0.0, 0.0, 1.74232197059915E9, 0.0, 2025-03-18 13:19:30.599
104.0, 3653.1244102864757, -20626.994446157747, -985.8683926902286, 37826.93002545, 17403.247046857723, 26182.00644040185, -8646.258252413065, 11376.166209717538, 27796.11531449739, 6994.2631714657755, 16816.156126994625, 22378.275975975514, -4372.470602091623, -6298.7439392499855, 21065.31215492632, -12851.73897167909, -0.12094407856464386, 0.9373141285181046, 0.2661205478906632, 192.0, 0.0, 0.0, 0.0, 0.0, 0.0, 0.0, 0.0, 0.0, 0.0, 1.742321970657636E9, 0.0, 2025-03-18 13:19:30.657
106.0, 3650.6433666519365, -20631.55420202663, -993.6244480162202, 37817.92227243451, 17398.39671831092, 26181.31353632373, -8657.031793240523, 11373.908683527552, 27800.608015132908, 6985.545991128206, 16815.351464194235, 22360.95337402265, -4376.873895749319, -6300.129747406215, 21066.385038660173, -12845.614593698336, -0.12094407856464386, 0.9373141285181046, 0.2661205478906632, 192.0, 0.0, 0.0, 0.0, 0.0, 0.0, 0.0, 0.0, 0.0, 0.0, 1.742321970657866E9, 0.0, 2025-03-18 13:19:30.657
108.0, 3644.898968326923, -20638.863222463515, -1001.2016893865692, 37817.85521720114, 17396.2062473543, 26184.08515263619, -8649.85688327037, 11379.407212663558, 27802.396154689333, 6982.819078304658, 16803.840315799753, 22371.77161833902, -4376.829192260408, -6304.421282341634, 21061.0206199909, -12855.136436836296, -0.12094407856464386, 0.9373141285181046, 0.2661205478906632, 192.0, 0.0, 0.0, 0.0, 0.0, 0.0, 0.0, 0.0, 0.0, 0.0, 1.742321970658064E9, 0.0, 2025-03-18 13:19:30.658
110.0, 3641.6132618919924, -20640.114920153013, -996.0384364173933, 37820.15744688004, 17391.177104851857, 26186.789713715283, -8662.552674120983, 11383.676395854522, 27789.230977205156, 6975.800630545692, 16799.437022142058, 22363.501472890555, -4380.517230095534, -6303.929543963617, 21058.964259501012, -12851.157826323251, -0.12047203928232192, 0.9366570642590524, 0.2680602739453316, 192.0, 126.0, 32.0, 14.5, 32.0, 4.0, 56.0, 0.0, 0.0, 0.0, 1.742321970658266E9, 0.0, 2025-03-18 13:19:30.658
112.0, 3643.62491889297, -20639.64553351945, -996.7760439844185, 37811.55202526475, 17399.357843322498, 26172.395190286064, -8642.369048877841, 11370.980605003906, 27803.49139016764, 6980.628607348038, 16811.104632747727, 22373.60446138435, -4376.784488771497, -6299.794471239385, 21062.428779891587, -12850.509625734046, -0.12047203928232192, 0.9366570642590524, 0.2680602739453316, 192.0, 0.0, 0.0, 0.0, 0.0, 0.0, 0.0, 0.0, 0.0, 0.0, 1.74232197065848E9, 0.0, 2025-03-18 13:19:30.658
114.0, 3635.8465118225236, -20646.21694638931, -997.0889684067928, 37807.10402811814, 17386.885569916438, 26157.352466267643, -8675.360223693875, 11353.38978211758, 27792.78490457355, 6971.576150843639, 16804.55557162232, 22353.08555997438, -4383.802936530464, -6313.607849312765, 21057.64550657815, -12860.657317716756, -0.12047203928232192, 0.9366570642590524, 0.2680602739453316, 192.0, 0.0, 0.0, 0.0, 0.0, 0.0, 0.0, 0.0, 0.0, 0.0, 1.742321970658688E9, 0.0, 2025-03-18 13:19:30.658
116.0, 3643.691974126336, -20641.791300987163, -989.6458375031755, 37812.379039809595, 17397.904979932904, 26162.716884936915, -8670.152267235788, 11346.304279125248, 27803.401983189822, 6978.840467791613, 16812.736310092965, 22362.09331298987, -4375.264570148536, -6310.970343467038, 21057.48904436696, -12857.461018259648, -0.12047203928232192, 0.9366570642590524, 0.2680602739453316, 192.0, 0.0, 0.0, 0.0, 0.0, 0.0, 0.0, 0.0, 0.0, 0.0, 1.742321970658887E9, 0.0, 2025-03-18 13:19:30.658
118.0, 3647.089439283543, -20639.399664330445, -993.7809102274073, 37815.038897399776, 17396.474468287764, 26164.437969259976, -8658.1940839522, 11364.230378178403, 27795.198892974724, 6971.509095610273, 16805.673158845086, 22359.18758621068, -4380.539581839988, -6320.492186604999, 21060.908861268625, -12864.54652125198, -0.12047203928232192, 0.9366570642590524, 0.2680602739453316, 192.0, 0.0, 0.0, 0.0, 0.0, 0.0, 0.0, 0.0, 0.0, 0.0, 1.742321970659077E9, 0.0, 2025-03-18 13:19:30.659
120.0, 3648.2517299952187, -20630.526021781687, -987.7012357355638, 37819.55394977974, 17395.178067109355, 26172.238728074877, -8671.42631666974, 11365.39266889008, 27801.993823289136, 6980.673310836949, 16810.970522280993, 22375.14673175177, -4370.369538112824, -6307.148195165181, 21065.200396204043, -12854.957622880653, -0.12023601964116096, 0.9363285321295263, 0.2680301369726658, 192.0, 126.0, 32.0, 14.5, 32.0, 4.0, 48.0, 0.0, 0.0, 0.0, 1.74232197071805E9, 0.0, 2025-03-18 13:19:30.718
122.0, 3642.7084973703027, -20638.863222463515, -1003.7944917433849, 37811.10499037564, 17388.629005983952, 26159.252364546344, -8667.537113134518, 11359.558863587245, 27802.55261690052, 6979.041633491712, 16812.445737415044, 22361.981554267593, -4375.286921892992, -6309.964514966549, 21060.908861268625, -12856.008154870053, -0.12023601964116096, 0.9363285321295263, 0.2680301369726658, 192.0, 0.0, 0.0, 0.0, 0.0, 0.0, 0.0, 0.0, 0.0, 0.0, 1.742321970718301E9, 0.0, 2025-03-18 13:19:30.718
124.0, 3646.1953695053307, -20632.64943750494, -986.2483723459688, 37821.36444108062, 17403.694081746828, 26170.89762340756, -8637.876348242326, 11383.095250498684, 27796.53999764204, 6978.058156735678, 16805.673158845086, 22360.349876922355, -4373.610541058843, -6313.0043522124715, 21064.64160259266, -12857.349259537372, -0.12023601964116096, 0.9363285321295263, 0.2680301369726658, 192.0, 0.0, 0.0, 0.0, 0.0, 0.0, 0.0, 0.0, 0.0, 0.0, 1.742321970718508E9, 0.0, 2025-03-18 13:19:30.718
126.0, 3640.4733229247718, -20639.399664330445, -1000.1511573971699, 37812.155522365036, 17380.91765414687, 26167.544861739265, -8676.924845805746, 11368.745430558376, 27803.98312854566, 6984.450755649896, 16812.825717070784, 22367.301269447955, -4370.414241601735, -6302.521384062932, 21067.636736349672, -12843.602936697358, -0.12023601964116096, 0.9363285321295263, 0.2680301369726658, 192.0, 0.0, 0.0, 0.0, 0.0, 0.0, 0.0, 0.0, 0.0, 0.0, 1.74232197071871E9, 0.0, 2025-03-18 13:19:30.718
128.0, 3646.6424043944367, -20634.236411361268, -997.2230788735246, 37815.508284033334, 17395.356881065, 26170.18236758499, -8663.446743899196, 11357.457799608446, 27796.584701130952, 6980.628607348038, 16811.14933623664, 22360.193414711168, -4375.175163170715, -6305.0247794419265, 21051.856404764225, -12854.778808925012, -0.12023601964116096, 0.9363285321295263, 0.2680301369726658, 192.0, 0.0, 0.0, 0.0, 0.0, 0.0, 0.0, 0.0, 0.0, 0.0, 1.742321970718915E9, 0.0, 2025-03-18 13:19:30.718
130.0, 3641.792075847635, -20635.242239861756, -1005.1355964107033, 37812.20022585395, 17396.36270956549, 26176.150283354556, -8645.073609956933, 11383.899913299074, 27798.79752383203, 6982.014415504267, 16807.08131874577, 22370.72108634962, -4370.77186951302, -6303.124881163226, 21062.69700082505, -12844.809930897944, -0.12111800982058048, 0.9351642660647632, 0.26801506848633294, 192.0, 126.0, 24.0, 14.5, 24.0, 4.0, 48.0, 0.0, 0.0, 0.0, 1.742321970719097E9, 0.0, 2025-03-18 13:19:30.719
132.0, 3647.6929363838362, -20629.40843455892, -1002.1628143981475, 37816.089429389176, 17392.67467173036, 26177.491388021874, -8670.28637770252, 11369.304224169759, 27784.537110869544, 6983.489630638317, 16804.42146115559, 22364.70846709114, -4371.464773591134, -6300.733244506508, 21054.40450363213, -12846.486311732091, -0.12111800982058048, 0.9351642660647632, 0.26801506848633294, 192.0, 0.0, 0.0, 0.0, 0.0, 0.0, 0.0, 0.0, 0.0, 0.0, 1.742321970719318E9, 0.0, 2025-03-18 13:19:30.719
134.0, 3640.607433391504, -20636.628048017985, -1014.433922104111, 37808.55689150773, 17391.847657185514, 26167.768379183817, -8651.510912360061, 11366.309090412748, 27793.2095877182, 6980.38273815903, 16809.69647284704, 22373.3809439398, -4369.587227056888, -6304.8459654862845, 21057.10906471122, -12844.072323330918, -0.12111800982058048, 0.9351642660647632, 0.26801506848633294, 192.0, 0.0, 0.0, 0.0, 0.0, 0.0, 0.0, 0.0, 0.0, 0.0, 1.742321970778243E9, 0.0, 2025-03-18 13:19:30.778
136.0, 3641.926186314367, -20638.930277696883, -1001.9392969535944, 37807.81928394071, 17396.452116543307, 26168.304821050744, -8652.85201702738, 11380.413041164047, 27793.611919118397, 6975.28654042322, 16807.863629801708, 22354.627830341797, -4377.835020760896, -6310.769177766941, 21057.578451344783, -12848.20739605515, -0.12111800982058048, 0.9351642660647632, 0.26801506848633294, 192.0, 0.0, 0.0, 0.0, 0.0, 0.0, 0.0, 0.0, 0.0, 0.0, 1.742321970778488E9, 0.0, 2025-03-18 13:19:30.778
138.0, 3637.120561256476, -20638.3714840855, -1015.7079715380636, 37805.11472286162, 17373.899206387905, 26164.639134960074, -8695.566200681473, 11364.543302600778, 27788.180445215756, 6967.105801952577, 16800.50990587591, 22360.95337402265, -4382.953570241162, -6314.390160368701, 21046.69315179505, -12849.481445489104, -0.12111800982058048, 0.9351642660647632, 0.26801506848633294, 192.0, 0.0, 0.0, 0.0, 0.0, 0.0, 0.0, 0.0, 0.0, 0.0, 1.742321970778686E9, 0.0, 2025-03-18 13:19:30.778
140.0, 3640.1827502468527, -20638.349132341045, -1005.2697068774352, 37806.25466182884, 17400.274264845164, 26158.73827442387, -8640.312688387954, 11359.849436265164, 27785.297070181023, 6971.33028165463, 16805.80726931182, 22352.66087682973, -4380.4725266066225, -6308.332837621312, 21052.661067564615, -12848.229747799605, -0.11955900491029024, 0.9345821330323816, 0.2700075342431665, 192.0, 126.0, 40.0, 14.5, 24.0, 4.0, 64.0, 0.0, 0.0, 0.0, 1.742321970778883E9, 0.0, 2025-03-18 13:19:30.778
142.0, 3637.858168823501, -20644.339399855067, -1013.8974802371837, 37805.96408915092, 17389.59013099553, 26166.874309405604, -8651.354450148876, 11384.816334821742, 27806.151247757825, 6975.018319489756, 16808.489478646457, 22363.792045568473, -4373.7222997811205, -6307.3717126097345, 21058.60663158973, -12846.799236154466, -0.11955900491029024, 0.9345821330323816, 0.2700075342431665, 192.0, 0.0, 0.0, 0.0, 0.0, 0.0, 0.0, 0.0, 0.0, 0.0, 1.742321970779097E9, 0.0, 2025-03-18 13:19:30.779
144.0, 3636.137084500442, -20644.697027766353, -1013.6516110481753, 37800.59967048164, 17396.854447943504, 26164.303858793242, -8635.775284263525, 11386.693881355988, 27780.290279423032, 6965.4964763517955, 16804.55557162232, 22348.19052793867, -4376.67273004922, -6310.210384155558, 21063.88164328118, -12833.432892970193, -0.11955900491029024, 0.9345821330323816, 0.2700075342431665, 192.0, 0.0, 0.0, 0.0, 0.0, 0.0, 0.0, 0.0, 0.0, 0.0, 1.742321970779303E9, 0.0, 2025-03-18 13:19:30.779
146.0, 3629.923299541867, -20645.41228358892, -1021.4970733519881, 37800.64437397056, 17390.283035073644, 26162.247498303357, -8649.94629024819, 11366.845532279674, 27774.478825864655, 6963.99890947329, 16802.61096985471, 22357.086522231883, -4379.734919039598, -6315.865375502751, 21057.869024022704, -12846.218090798628, -0.11955900491029024, 0.9345821330323816, 0.2700075342431665, 192.0, 0.0, 0.0, 0.0, 0.0, 0.0, 0.0, 0.0, 0.0, 0.0, 1.742321970779503E9, 0.0, 2025-03-18 13:19:30.779
148.0, 3638.685183368347, -20645.524042311197, -1012.6904860365971, 37802.90190016054, 17389.903055417904, 26166.047294860757, -8659.870464786347, 11372.522875371324, 27774.456474120198, 6966.479953107829, 16800.33109192027, 22341.283838901978, -4381.00896847355, -6315.932430736117, 21061.177082202088, -12841.6806866742, -0.11955900491029024, 0.9345821330323816, 0.2700075342431665, 192.0, 0.0, 0.0, 0.0, 0.0, 0.0, 0.0, 0.0, 0.0, 0.0, 1.742321970779699E9, 0.0, 2025-03-18 13:19:30.779
150.0, 3634.7065728553025, -20636.963324184817, -1024.469855364544, 37795.1234930901, 17373.876854643448, 26157.33011452319, -8686.133764521333, 11353.501540839856, 27786.481712637153, 6970.503267109784, 16797.581827352267, 22357.1759292097, -4378.684387050198, -6315.48539584701, 21050.31413439681, -12847.268622788028, -0.12077950245514513, 0.9302910665161908, 0.27100376712158325, 192.0, 126.0, 24.0, 14.0, 120.0, 4.0, 64.0, 0.0, 0.0, 0.0, 1.742321970838417E9, 0.0, 2025-03-18 13:19:30.838
152.0, 3641.0991717695206, -20633.342341583055, -1005.4485208330776, 37811.328507820195, 17389.76894495117, 26166.36021928313, -8651.890892015803, 11375.853285295163, 27778.099808466413, 6974.236008433821, 16800.778126809375, 22343.250792414045, -4387.110994709849, -6310.411549855656, 21054.113930954212, -12845.63694544279, -0.12077950245514513, 0.9302910665161908, 0.27100376712158325, 192.0, 0.0, 0.0, 0.0, 0.0, 0.0, 0.0, 0.0, 0.0, 0.0, 1.742321970838676E9, 0.0, 2025-03-18 13:19:30.838
154.0, 3635.444180422328, -20644.249992877245, -1012.9140034811502, 37805.76292345082, 17385.07507861556, 26162.359257025633, -8662.99970901009, 11362.241072921881, 27798.2610819651, 6971.866723521558, 16807.729519334975, 22359.299344932955, -4377.835020760896, -6304.465985830544, 21052.34814314224, -12843.468826230624, -0.12077950245514513, 0.9302910665161908, 0.27100376712158325, 192.0, 0.0, 0.0, 0.0, 0.0, 0.0, 0.0, 0.0, 0.0, 0.0, 1.742321970838893E9, 0.0, 2025-03-18 13:19:30.838
156.0, 3636.382953689451, -20636.31512359561, -1011.7070092805636, 37808.40042929655, 17390.21597984028, 26166.583736727684, -8658.507008374574, 11362.576349088711, 27775.462302620686, 6970.503267109784, 16808.444775157546, 22344.301324403445, -4382.551238840966, -6305.896497475684, 21045.73202678347, -12847.000401854564, -0.12077950245514513, 0.9302910665161908, 0.27100376712158325, 192.0, 0.0, 0.0, 0.0, 0.0, 0.0, 0.0, 0.0, 0.0, 0.0, 1.742321970839094E9, 0.0, 2025-03-18 13:19:30.839
158.0, 3627.665773351881, -20647.490995823264, -1026.8167885323512, 37798.81153092522, 17382.258758814187, 26164.3262105377, -8663.33498517692, 11364.72211655642, 27781.765494557083, 6978.684005580427, 16808.176554224083, 22362.607403112343, -4376.896247493773, -6304.443634086088, 21049.665933807606, -12847.290974532483, -0.12077950245514513, 0.9302910665161908, 0.27100376712158325, 192.0, 0.0, 0.0, 0.0, 0.0, 0.0, 0.0, 0.0, 0.0, 0.0, 1.742321970839306E9, 0.0, 2025-03-18 13:19:30.839
160.0, 3632.113770498487, -20638.058559663124, -1024.2910414089015, 37801.56079549322, 17380.29180530212, 26155.586678455675, -8667.00067126759, 11352.249843150359, 27756.932706467236, 6959.3944501154965, 16792.731498805464, 22339.495699345556, -4394.330608168913, -6321.050980216382, 21031.896296965635, -12863.317175306938, -0.12338975122757256, 0.9311455332580953, 0.27050188356079163, 192.0, 126.0, 8.0, 14.5, 16.0, 4.0, 56.0, 0.0, 0.0, 0.0, 1.742321970839505E9, 0.0, 2025-03-18 13:19:30.839
162.0, 3644.988375304744, -20634.303466594632, -1020.6700588071417, 37810.121513619604, 17387.91375016138, 26160.861690147125, -8664.519627633052, 11361.056430465751, 27787.331078926454, 6975.040671234211, 16809.003568768927, 22362.227423456603, -4381.612465573843, -6311.238564400503, 21043.854480249225, -12856.052858358964, -0.12338975122757256, 0.9311455332580953, 0.27050188356079163, 192.0, 0.0, 0.0, 0.0, 0.0, 0.0, 0.0, 0.0, 0.0, 0.0, 1.742321970839713E9, 0.0, 2025-03-18 13:19:30.839
164.0, 3639.5569014021044, -20636.963324184817, -1015.5738610713317, 37810.09916187515, 17385.43270652684, 26152.725655165395, -8660.943348520203, 11352.607471061645, 27790.12504698337, 6969.899770009491, 16809.94234203605, 22351.386827395778, -4382.148907440771, -6313.58549756831, 21044.077997693777, -12857.796294426476, -0.12338975122757256, 0.9311455332580953, 0.27050188356079163, 192.0, 0.0, 0.0, 0.0, 0.0, 0.0, 0.0, 0.0, 0.0, 0.0, 1.742321970898788E9, 0.0, 2025-03-18 13:19:30.898
166.0, 3649.7492968737242, -20630.056635148125, -1013.8974802371837, 37813.96601366592, 17387.824343183558, 26152.18921329847, -8676.969549294658, 11332.379142329592, 27794.796561574527, 6980.069813736655, 16818.95009505154, 22361.26629844502, -4376.762137027042, -6312.825538256829, 21046.089654694755, -12856.276375803516, -0.12338975122757256, 0.9311455332580953, 0.27050188356079163, 192.0, 0.0, 0.0, 0.0, 0.0, 0.0, 0.0, 0.0, 0.0, 0.0, 1.742321970899044E9, 0.0, 2025-03-18 13:19:30.899
168.0, 3637.701706612314, -20636.493937551255, -1023.7322477975188, 37807.32754556269, 17373.54157847662, 26150.848108631148, -8697.130822793344, 11360.251767665359, 27788.3592591714, 6967.306967652675, 16815.195001983047, 22354.449016386156, -4388.765023799542, -6320.53689009391, 21034.824375489283, -12866.513474764048, -0.12338975122757256, 0.9311455332580953, 0.27050188356079163, 192.0, 0.0, 0.0, 0.0, 0.0, 0.0, 0.0, 0.0, 0.0, 0.0, 1.742321970899253E9, 0.0, 2025-03-18 13:19:30.899
170.0, 3646.597700905526, -20625.496879279242, -1006.499052822477, 37817.69875498996, 17401.280093345653, 26159.028847101792, -8645.1406651903, 11371.092363726184, 27780.93848001224, 6974.884209023025, 16822.41461544211, 22363.970859524117, -4377.767965527531, -6317.854680759273, 21047.386055873165, -12854.287070546994, -0.12769487561378629, 0.9335727666290476, 0.2672509417803958, 192.0, 125.5, 112.0, 14.5, 32.0, 4.0, 32.0, 0.0, 0.0, 0.0, 1.742321970899452E9, 0.0, 2025-03-18 13:19:30.899
172.0, 3649.9728143182774, -20619.975998398782, -1005.2473551329798, 37818.235196856884, 17394.619273497974, 26148.90350686354, -8661.055107242479, 11341.789226745275, 27787.845169048927, 6981.81324980417, 16825.856784088228, 22365.826054313908, -4376.203343415659, -6310.456253344567, 21061.288840924364, -12849.704962933656, -0.12769487561378629, 0.9335727666290476, 0.2672509417803958, 192.0, 0.0, 0.0, 0.0, 0.0, 0.0, 0.0, 0.0, 0.0, 0.0, 1.742321970899668E9, 0.0, 2025-03-18 13:19:30.899
174.0, 3649.212855006797, -20622.479393777776, -1007.9072127231614, 37818.97280442391, 17398.508477033196, 26157.441873245465, -8662.28445318752, 11367.29256716878, 27788.806294060505, 6982.57320911565, 16825.74502536595, 22369.245871215568, -4377.410337616246, -6310.880936489218, 21060.327715912787, -12847.045105343475, -0.12769487561378629, 0.9335727666290476, 0.2672509417803958, 192.0, 0.0, 0.0, 0.0, 0.0, 0.0, 0.0, 0.0, 0.0, 0.0, 1.742321970899863E9, 0.0, 2025-03-18 13:19:30.899
176.0, 3651.2468637522297, -20620.959475154814, -1013.5845558148094, 37818.81634221272, 17392.62996824145, 26152.055102831735, -8664.497275888596, 11356.429619363502, 27796.69645985323, 6980.718014325859, 16824.470975932, 22373.917385806726, -4377.544448082977, -6313.071407445837, 21062.115855469212, -12844.742875664579, -0.12769487561378629, 0.9335727666290476, 0.2672509417803958, 192.0, 0.0, 0.0, 0.0, 0.0, 0.0, 0.0, 0.0, 0.0, 0.0, 1.74232197090007E9, 0.0, 2025-03-18 13:19:30.900
178.0, 3653.3255759865733, -20619.148983853935, -1012.2210994030356, 37814.14482762156, 17392.719375219272, 26147.964733596415, -8669.57112187995, 11349.366468115624, 27809.03462279256, 6980.986235259323, 16826.214411999514, 22369.111760748838, -4372.24708464707, -6308.444596343589, 21064.12751247019, -12844.362896008837, -0.12769487561378629, 0.9335727666290476, 0.2672509417803958, 192.0, 0.0, 0.0, 0.0, 0.0, 0.0, 0.0, 0.0, 0.0, 0.0, 1.74232197090027E9, 0.0, 2025-03-18 13:19:30.900
180.0, 3648.3858404619505, -20620.959475154814, -1022.8158262748511, 37811.037935142274, 17383.711622203784, 26148.635285930075, -8679.182371995732, 11365.951462501462, 27790.192102216733, 6977.007624746278, 16823.554554409333, 22368.530615393, -4379.891381250784, -6316.6476865586865, 21052.661067564615, -12852.230710057105, -0.12484743780689314, 0.9337863833145239, 0.26762547089019795, 192.0, 126.0, 24.0, 14.5, 24.0, 4.0, 48.0, 0.0, 0.0, 0.0, 1.74232197095923E9, 0.0, 2025-03-18 13:19:30.959
182.0, 3654.979605076266, -20628.55906826962, -1023.5757855863317, 37813.92131017701, 17390.908883918393, 26153.664428432516, -8672.968587037158, 11353.43448560649, 27794.416581918787, 6985.724805083848, 16826.79555735535, 22365.110798491336, -4374.281093392503, -6304.309523619357, 21063.166387458612, -12841.434817485193, -0.12484743780689314, 0.9337863833145239, 0.26762547089019795, 192.0, 0.0, 0.0, 0.0, 0.0, 0.0, 0.0, 0.0, 0.0, 0.0, 1.742321970959471E9, 0.0, 2025-03-18 13:19:30.959
184.0, 3643.8707880819784, -20634.549335783642, -1032.6058903462756, 37807.64046998507, 17377.29667154511, 26144.857841117126, -8695.499145448106, 11336.760084242831, 27787.755762071105, 6983.087299238122, 16814.010359526917, 22365.60253686935, -4382.797108029975, -6314.5913260687985, 21047.16253842861, -12859.606785727357, -0.12484743780689314, 0.9337863833145239, 0.26762547089019795, 192.0, 0.0, 0.0, 0.0, 0.0, 0.0, 0.0, 0.0, 0.0, 0.0, 1.742321970959691E9, 0.0, 2025-03-18 13:19:30.959
186.0, 3646.3965352054283, -20628.112033380516, -1023.8440065197954, 37810.36738280862, 17389.72424146226, 26142.376797482586, -8676.276645216543, 11335.53073829779, 27781.720791068172, 6966.457601363373, 16808.645940857645, 22353.823167541406, -4385.456965620157, -6317.385294125712, 21045.240288405454, -12863.652451473768, -0.12484743780689314, 0.9337863833145239, 0.26762547089019795, 192.0, 0.0, 0.0, 0.0, 0.0, 0.0, 0.0, 0.0, 0.0, 0.0, 1.742321970959883E9, 0.0, 2025-03-18 13:19:30.959
188.0, 3646.441238694339, -20632.202402615836, -1029.2978321668902, 37810.277975830795, 17390.39479379592, 26139.98516082587, -8671.359261436375, 11332.781473729787, 27796.517645897587, 6977.14173521301, 16820.112385763216, 22373.269185217523, -4372.738823025086, -6315.351285380279, 21054.87389026569, -12863.741858451589, -0.12484743780689314, 0.9337863833145239, 0.26762547089019795, 192.0, 0.0, 0.0, 0.0, 0.0, 0.0, 0.0, 0.0, 0.0, 0.0, 1.742321970960096E9, 0.0, 2025-03-18 13:19:30.960
190.0, 3650.53160792966, -20630.503670037233, -1024.4475036200886, 37813.96601366592, 17389.67953797335, 26147.540050451764, -8674.66731961576, 11356.474322852413, 27788.672183593775, 6971.531447354728, 16817.407824684124, 22350.693923317664, -4379.332587639402, -6318.167605181648, 21050.962334986012, -12858.511550249046, -0.12542371890344656, 0.930893191657262, 0.266812735445099, 192.0, 126.0, 8.0, 14.5, 0.0, 4.0, 40.0, 0.0, 0.0, 0.0, 1.742321970960295E9, 0.0, 2025-03-18 13:19:30.960
192.0, 3641.5238549141714, -20636.583344529074, -1034.2822711804238, 37806.1205513621, 17384.091601859524, 26146.93655335147, -8678.265950473065, 11353.38978211758, 27787.68870683774, 6965.183551929421, 16814.971484538495, 22353.622001841308, -4381.858334762852, -6321.766236038952, 21046.69315179505, -12854.801160669465, -0.12542371890344656, 0.930893191657262, 0.266812735445099, 192.0, 0.0, 0.0, 0.0, 0.0, 0.0, 0.0, 0.0, 0.0, 0.0, 1.742321970960497E9, 0.0, 2025-03-18 13:19:30.960
194.0, 3640.629785135959, -20640.718417253305, -1030.3930676452003, 37806.41112404002, 17392.898189174914, 26148.769396396805, -8659.244615941598, 11353.166264673027, 27783.620689346873, 6968.513961853262, 16815.396167683146, 22340.94856273515, -4385.613427831344, -6320.179262182625, 21050.53765184136, -12854.957622880653, -0.12542371890344656, 0.930893191657262, 0.266812735445099, 192.0, 0.0, 0.0, 0.0, 0.0, 0.0, 0.0, 0.0, 0.0, 0.0, 1.742321970960695E9, 0.0, 2025-03-18 13:19:30.960
196.0, 3642.1050002700094, -20635.71162649532, -1033.3434979133008, 37811.55202526475, 17378.168389578866, 26147.964733596415, -8682.401023197297, 11348.427694848502, 27796.718811597686, 6969.788011287214, 16808.824754813286, 22353.487891374578, -4385.926352253718, -6320.961573238561, 21049.330657640774, -12856.723410692623, -0.12542371890344656, 0.930893191657262, 0.266812735445099, 192.0, 0.0, 0.0, 0.0, 0.0, 0.0, 0.0, 0.0, 0.0, 0.0, 1.742321971018942E9, 0.0, 2025-03-18 13:19:31.018
198.0, 3643.4908084262383, -20632.247106104747, -1029.1190182112477, 37816.849388700655, 17376.82728491155, 26148.925858607992, -8684.72560462065, 11343.890290724075, 27773.137721197334, 6974.258360178275, 16811.104632747727, 22342.13320519128, -4388.899134266274, -6317.608811570265, 21047.140186684155, -12854.01884961353, -0.12542371890344656, 0.930893191657262, 0.266812735445099, 192.0, 0.0, 0.0, 0.0, 0.0, 0.0, 0.0, 0.0, 0.0, 0.0, 1.742321971019177E9, 0.0, 2025-03-18 13:19:31.019
200.0, 3645.9047968274117, -20631.934181682373, -1025.0733524648372, 37817.877568945594, 17384.15865709289, 26150.31166676422, -8681.61871214136, 11352.249843150359, 27776.065799720982, 6976.292368923709, 16816.84903107274, 22355.030161741994, -4384.652302819765, -6317.653515059175, 21046.78255877287, -12855.784637425499, -0.12271185945172328, 0.930446595828631, 0.2684063677225495, 192.0, 126.0, 32.0, 14.5, 8.0, 4.0, 56.0, 0.0, 0.0, 0.0, 1.742321971019384E9, 0.0, 2025-03-18 13:19:31.019
202.0, 3643.557863659604, -20630.906001437426, -1026.6156228322534, 37813.00488865434, 17380.33650879103, 26142.26503876031, -8683.965645309168, 11337.944726698963, 27770.88019500735, 6971.822020032647, 16814.390339182657, 22338.26635340051, -4386.39573888728, -6318.68169530412, 21052.12462569769, -12854.890567647288, -0.12271185945172328, 0.930446595828631, 0.2684063677225495, 192.0, 0.0, 0.0, 0.0, 0.0, 0.0, 0.0, 0.0, 0.0, 0.0, 1.74232197101962E9, 0.0, 2025-03-18 13:19:31.019
204.0, 3644.116657270987, -20629.65430374793, -1025.6768495651304, 37813.2284060989, 17380.58237798004, 26150.93751560897, -8688.950084322702, 11349.634689049088, 27786.772285315074, 6973.766621800259, 16819.75475785193, 22349.464577372622, -4378.147945183271, -6319.978096482528, 21049.755340785425, -12853.840035657888, -0.12271185945172328, 0.930446595828631, 0.2684063677225495, 192.0, 0.0, 0.0, 0.0, 0.0, 0.0, 0.0, 0.0, 0.0, 0.0, 1.742321971019817E9, 0.0, 2025-03-18 13:19:31.019
206.0, 3654.733735887258, -20629.631952003474, -1013.9198319816389, 37816.24589160036, 17391.95941590779, 26151.250440031345, -8669.392307924309, 11349.76879951582, 27783.039543991035, 6976.38177590153, 16823.308685220323, 22336.679379544184, -4383.646474319276, -6318.033494714916, 21055.656201321628, -12850.666087945234, -0.12271185945172328, 0.930446595828631, 0.2684063677225495, 192.0, 0.0, 0.0, 0.0, 0.0, 0.0, 0.0, 0.0, 0.0, 0.0, 1.742321971020027E9, 0.0, 2025-03-18 13:19:31.020
208.0, 3645.636575893948, -20635.152832883934, -1022.8828815082171, 37804.24300482786, 17378.838941912527, 26133.190230511456, -8696.52732569305, 11321.04680789075, 27805.815971590993, 6977.655825335482, 16823.398092198146, 22346.804719782438, -4376.404509115757, -6324.58255584032, 21055.25386992143, -12862.601919484368, -0.12271185945172328, 0.930446595828631, 0.2684063677225495, 192.0, 0.0, 0.0, 0.0, 0.0, 0.0, 0.0, 0.0, 0.0, 0.0, 1.742321971020214E9, 0.0, 2025-03-18 13:19:31.020
210.0, 3647.469418939283, -20630.682483992874, -1010.5894220577982, 37815.95531892244, 17394.149886864412, 26146.489518462364, -8665.704270089182, 11358.597738575667, 27785.006497503102, 6969.899770009491, 16822.213449742016, 22337.886373744772, -4383.15473594126, -6325.431922129622, 21051.699942553038, -12856.298727547972, -0.128, 0.932, 0.272, 192.0, 126.0, 0.0, 14.5, 16.0, 4.0, 64.0, 0.0, 0.0, 0.0, 1.742321971079248E9, 0.0, 2025-03-18 13:19:31.079
212.0, 3651.1351050299536, -20625.94391416835, -1007.6836952786083, 37819.17397012401, 17400.45307880081, 26154.446739488452, -8648.76164779206, 11362.241072921881, 27782.525453868566, 6971.33028165463, 16830.70711263503, 22353.778464052495, -4370.369538112824, -6323.621430828743, 21071.3247741848, -12847.045105343475, -0.128, 0.932, 0.272, 192.0, 0.0, 0.0, 0.0, 0.0, 0.0, 0.0, 0.0, 0.0, 0.0, 1.742321971079502E9, 0.0, 2025-03-18 13:19:31.079
214.0, 3655.9630818323, -20617.517306508696, -1007.5048813229658, 37821.655013758544, 17387.824343183558, 26153.08328307668, -8674.66731961576, 11347.935956470485, 27782.748971313118, 6975.867685779058, 16830.48359519048, 22355.70071407565, -4376.3598056268465, -6317.7652737814515, 21070.989498017967, -12844.16173030874, -0.128, 0.932, 0.272, 192.0, 0.0, 0.0, 0.0, 0.0, 0.0, 0.0, 0.0, 0.0, 0.0, 1.742321971079703E9, 0.0, 2025-03-18 13:19:31.079
216.0, 3673.218628551797, -20602.89926563493, -1000.1064539082593, 37835.937778465486, 17392.652319985908, 26166.673143705506, -8682.28926447502, 11352.875691995108, 27807.20177974722, 6989.47989815234, 16845.19104304207, 22368.061228759438, -4370.168372412726, -6307.148195165181, 21067.279108438386, -12844.139378564285, -0.128, 0.932, 0.272, 192.0, 0.0, 0.0, 0.0, 0.0, 0.0, 0.0, 0.0, 0.0, 0.0, 1.7423219710799E9, 0.0, 2025-03-18 13:19:31.079
218.0, 3670.022329094688, -20604.530942980164, -1010.5223668244323, 37835.31192962074, 17382.97401463676, 26161.46518724742, -8680.501124918595, 11354.082686195694, 27811.314500727, 7000.789880846725, 16848.38734249918, 22370.89990030526, -4365.452154332656, -6296.642875271186, 21069.581338117285, -12835.444549971171, -0.128, 0.932, 0.272, 192.0, 0.0, 0.0, 0.0, 0.0, 0.0, 0.0, 0.0, 0.0, 0.0, 1.742321971080089E9, 0.0, 2025-03-18 13:19:31.080
220.0, 3659.0699743115874, -20621.451213532833, -1006.8343289893066, 37823.979595181896, 17381.007061124692, 26148.970562096903, -8672.499200403596, 11334.167281886015, 27807.492352425143, 6993.279694709742, 16839.625458672697, 22365.714295591628, -4372.828230002908, -6308.556355065865, 21064.105160725732, -12846.553366965458, -0.122, 0.932, 0.268, 192.0, 126.0, 24.0, 14.5, 16.0, 4.0, 48.0, 0.0, 0.0, 0.0, 1.742321971080284E9, 0.0, 2025-03-18 13:19:31.080
222.0, 3651.9174160858893, -20623.731091467274, -1007.4378260896, 37828.53935105078, 17381.96818613627, 26151.36219875362, -8673.952063793191, 11354.77559027381, 27783.15130271331, 6970.100935709588, 16828.695455634053, 22351.766807051517, -4386.7533667985645, -6322.794416283896, 21054.87389026569, -12856.96927988163, -0.122, 0.932, 0.268, 192.0, 0.0, 0.0, 0.0, 0.0, 0.0, 0.0, 0.0, 0.0, 0.0, 1.742321971080499E9, 0.0, 2025-03-18 13:19:31.080
224.0, 3663.5850266915595, -20615.706815207817, -1000.1511573971699, 37838.12824942211, 17398.329663077555, 26170.09296060717, -8664.027889255034, 11366.845532279674, 27792.851959806918, 6977.454659635385, 16833.031694058383, 22359.2769931885, -4373.38702361429, -6309.67394228863, 21070.207186962034, -12834.483424959592, -0.122, 0.932, 0.268, 192.0, 0.0, 0.0, 0.0, 0.0, 0.0, 0.0, 0.0, 0.0, 0.0, 1.742321971080703E9, 0.0, 2025-03-18 13:19:31.080
226.0, 3649.1905032623417, -20629.430786303375, -1017.3843523722115, 37829.142848151074, 17382.996366381212, 26157.352466267643, -8688.994787811613, 11349.657040793543, 27788.269852193578, 6982.081470737633, 16829.05308354534, 22361.46746414512, -4373.7222997811205, -6311.663247545153, 21062.87581478069, -12843.11119831934, -0.122, 0.932, 0.268, 192.0, 0.0, 0.0, 0.0, 0.0, 0.0, 0.0, 0.0, 0.0, 0.0, 1.742321971139598E9, 0.0, 2025-03-18 13:19:31.139
228.0, 3650.2857387406516, -20625.3180653236, -1010.1200354242368, 37830.81922898522, 17393.524038019663, 26164.057989604236, -8672.320386447953, 11366.756125301854, 27778.21156718869, 6981.992063759812, 16825.655618388133, 22347.18469943818, -4379.936084739696, -6312.91494523465, 21062.294669424853, -12840.697209918168, -0.122, 0.932, 0.268, 192.0, 0.0, 0.0, 0.0, 0.0, 0.0, 0.0, 0.0, 0.0, 0.0, 1.742321971139834E9, 0.0, 2025-03-18 13:19:31.139
