%OpenBCI Raw EXG Data
%Number of channels = 16
%Sample Rate = 125 Hz
%Board = OpenBCI_GUI$BoardCytonSerialDaisy
Sample Index, EXG Channel 0, EXG Channel 1, EXG Channel 2, EXG Channel 3, EXG Channel 4, EXG Channel 5, EXG Channel 6, EXG Channel 7, EXG Channel 8, EXG Channel 9, EXG Channel 10, EXG Channel 11, EXG Channel 12, EXG Channel 13, EXG Channel 14, EXG Channel 15, Accel Channel 0, Accel Channel 1, Accel Channel 2, Not Used, Digital Channel 0 (D11), Digital Channel 1 (D12), Digital Channel 2 (D13), Digital Channel 3 (D17), Not Used, Digital Channel 4 (D18), Analog Channel 0, Analog Channel 1, Analog Channel 2, Timestamp, Marker Channel, Timestamp (Formatted)
0.0, -1147.4491533576434, 2546.3777835819465, 21247.747093170536, 9272.97881519542, -4795.209144974845, -3306.1135776178335, -24835.984389303256, 22790.665661175928, 0.0, 0.0, 0.0, 0.0, 0.0, 0.0, 0.0, 0.0, 0.0, 0.0, 0.0, 192.0, 0.0, 0.0, 0.0, 0.0, 0.0, 0.0, 0.0, 0.0, 0.0, 1.744825055029E9, 0.0, 2025-04-16 12:37:35.029
14.0, -1177.04286301647, 2542.3097660910807, 21245.62367744728, 9247.698992216468, -4812.509395183253, -3316.4400835561855, -24848.8142906206, 22780.383858726487, 2220.7128668681225, 25856.654448110396, -13468.557711667743, -1201.294505750478, -6618.016257049591, 4593.641113476886, -36856.81961260076, -187500.02235174447, 0.0, 0.0, 0.0, 192.0, 0.0, 0.0, 0.0, 0.0, 0.0, 0.0, 0.0, 0.0, 0.0, 1.744825055029352E9, 0.0, 2025-04-16 12:37:35.029
16.0, -1152.7241650490957, 2559.3864988549353, 21254.430264762672, 9269.871922716133, -4790.403519916955, -3312.8191009544257, -24842.39933996193, 22793.0796495771, 2241.701154911656, 25833.855668765984, -13470.256444246346, -1203.0155900735367, -6624.230042008167, 4595.742177455685, -36856.774909111846, -187500.02235174447, -0.049, 0.46, 0.168, 192.0, 126.0, 120.0, 14.0, 96.0, 5.0, 64.0, 0.0, 0.0, 0.0, 1.744825055029731E9, 0.0, 2025-04-16 12:37:35.029
18.0, -1165.2858454329785, 2547.875350460452, 21241.28743902295, 9237.35013453366, -4812.129415527513, -3321.648040014272, -24869.512005986217, 22777.008745313735, 2213.2697359645053, 25835.912029255873, -13476.246711760368, -1219.198253059179, -6623.090103040946, 4578.978369114205, -36862.943990581516, -187500.02235174447, -0.049, 0.46, 0.168, 192.0, 0.0, 0.0, 0.0, 0.0, 0.0, 0.0, 0.0, 0.0, 0.0, 1.744825055029983E9, 0.0, 2025-04-16 12:37:35.029
20.0, -1150.3772318812885, 2553.7315075077427, 21250.29519203844, 9269.156666893563, -4790.224705961312, -3309.153414863755, -24866.025133851188, 22802.780306670706, 2260.4319167652034, 25793.801342702074, -13462.746258109362, -1197.0476743039696, -6616.116358770891, 4602.358293814456, -36850.91875206456, -187500.02235174447, -0.049, 0.46, 0.168, 192.0, 0.0, 0.0, 0.0, 0.0, 0.0, 0.0, 0.0, 0.0, 0.0, 1.744825055030226E9, 0.0, 2025-04-16 12:37:35.030
22.0, -1169.689139090674, 2548.232978371737, 21242.025046589977, 9236.545471733269, -4814.364589973044, -3322.2738888590206, -24879.056200868632, 22779.35567848154, 2217.0695325219076, 25828.290084396613, -13484.628615931108, -1214.1914623011903, -6623.917117585793, 4582.95697962725, -36866.16264178308, -187500.02235174447, -0.049, 0.46, 0.168, 192.0, 0.0, 0.0, 0.0, 0.0, 0.0, 0.0, 0.0, 0.0, 0.0, 1.744825055030499E9, 0.0, 2025-04-16 12:37:35.030
24.0, -1126.9302519476714, 2566.5614088250886, 21254.58672697386, 9267.390879081593, -4797.198450231368, -3306.851185184859, -24864.46051173932, 22797.393536256975, 2247.9372916146867, 25781.10555185146, -13463.372106954112, -1198.52288943802, -6614.752902359117, 4593.752872199163, -36858.67480739055, -187500.02235174447, -0.049, 0.46, 0.168, 192.0, 0.0, 0.0, 0.0, 0.0, 0.0, 0.0, 0.0, 0.0, 0.0, 1.744825055030751E9, 0.0, 2025-04-16 12:37:35.030
26.0, -1153.2829586604785, 2544.3214230920585, 21231.00563657351, 9236.053733355253, -4817.806758619161, -3326.1407406497888, -24877.044543867654, 22778.349849981052, 2276.3240070729266, 25828.02186346315, -13481.700537407463, -1201.3168574949334, -6612.316562213488, 4593.395244287878, -36864.82153711576, -187500.02235174447, -0.07150000000000001, 0.6920000000000001, 0.251, 192.0, 126.5, 8.0, 14.0, 112.0, 5.0, 56.0, 0.0, 0.0, 0.0, 1.74482505503098E9, 0.0, 2025-04-16 12:37:35.030
28.0, -1144.074039944892, 2548.9929376832174, 21244.863718135803, 9263.680489502012, -4812.889374838994, -3312.6626387432384, -24857.710284913814, 22796.722983923315, 2232.671050151712, 25746.57210666801, -13481.164095540536, -1209.452892476665, -6622.598364662929, 4585.750947684163, -36867.16847028357, -187500.02235174447, -0.07150000000000001, 0.6920000000000001, 0.251, 192.0, 0.0, 0.0, 0.0, 0.0, 0.0, 0.0, 0.0, 0.0, 0.0, 1.744825055031235E9, 0.0, 2025-04-16 12:37:35.031
30.0, -1155.5404848504645, 2548.8588272164857, 21246.785968158958, 9243.854492170154, -4819.058456308658, -3323.6373452707944, -24859.565479703604, 22781.23322501579, 2254.419297506726, 25818.567075558552, -13477.386650727589, -1196.6006394148635, -6617.725684371672, 4591.741215198185, -36866.207345271985, -187500.02235174447, -0.07150000000000001, 0.6920000000000001, 0.251, 192.0, 0.0, 0.0, 0.0, 0.0, 0.0, 0.0, 0.0, 0.0, 0.0, 1.744825055031498E9, 0.0, 2025-04-16 12:37:35.031
0.0, -632.487312851824, 1233.6598317217627, 10626.354590219808, 4619.367971344945, -2400.9349824112633, -1632.8396359490916, -12408.526230874806, 11254.75153383631, 1132.942871206149, 12882.003233671574, -6739.766209097649, -595.3387135671036, -3316.708304489649, 2295.7476730045883, -18438.177518627348, -93750.01117587223, -0.10400000000000001, 0.9440000000000001, 0.256, 192.0, 126.0, 96.0, 14.5, 64.0, 4.0, 0.0, 0.0, 0.0, 0.0, 1.744825055173231E9, 0.0, 2025-04-16 12:37:35.173
2.0, -1263.812334991972, 2467.1632012323385, 21250.652819949726, 9248.861282928143, -4806.832052091605, -3263.0641177969123, -24833.302179968618, 22510.531247917563, 2415.016581418107, 26653.494137942092, -13452.352696937645, -1331.1804927802675, -6617.3010012270215, 4534.99013602616, -36845.91196130657, -187500.02235174447, -0.10400000000000001, 0.9440000000000001, 0.256, 192.0, 0.0, 0.0, 0.0, 0.0, 0.0, 0.0, 0.0, 0.0, 0.0, 1.744825055173535E9, 0.0, 2025-04-16 12:37:35.173
4.0, -1268.3050356274887, 2464.436288408791, 21252.664476950704, 9246.06731487123, -4796.840822320083, -3265.165181775711, -24817.56655187208, 22507.82668683847, 2417.274107608093, 26717.084850917443, -13460.511083663832, -1329.258242757111, -6615.982248304159, 4540.75688609563, -36855.76908061136, -187500.02235174447, -0.10400000000000001, 0.9440000000000001, 0.256, 192.0, 0.0, 0.0, 0.0, 0.0, 0.0, 0.0, 0.0, 0.0, 0.0, 1.744825055173789E9, 0.0, 2025-04-16 12:37:35.173
6.0, -1269.9590647171815, 2465.687986098288, 21251.479834494574, 9247.855454427654, -4814.699866139873, -3259.4654869396077, -24825.501421153716, 22509.68188162826, 2415.016581418107, 26659.66321941176, -13457.068915017715, -1336.7013736607282, -6621.346666973433, 4531.346801679945, -36853.846830588205, -187500.02235174447, -0.10400000000000001, 0.9440000000000001, 0.256, 192.0, 0.0, 0.0, 0.0, 0.0, 0.0, 0.0, 0.0, 0.0, 0.0, 1.744825055174034E9, 0.0, 2025-04-16 12:37:35.174
8.0, -1267.7015385271955, 2463.877494797408, 21254.63143046277, 9257.176131865517, -4790.2470577057675, -3256.1797805046776, -24811.106897724498, 22517.70615788772, 2424.471369322702, 26730.20532491271, -13456.510121406332, -1323.8938240878374, -6617.748036116128, 4546.054249531538, -36855.38910095562, -187500.02235174447, -0.108, 0.9540000000000001, 0.214, 192.0, 126.0, 80.0, 14.5, 104.0, 3.0, 88.0, 0.0, 0.0, 0.0, 1.744825055174265E9, 0.0, 2025-04-16 12:37:35.174
10.0, -1266.1369164153239, 2474.271055969126, 21258.274764808986, 9257.846684199178, -4798.338389198589, -3245.1827222326665, -24805.0048714882, 22522.93646609026, 2410.412122060314, 26677.32109753145, -13452.576214382198, -1328.4312282122646, -6617.144539015835, 4535.593633126454, -36840.547542637294, -187500.02235174447, -0.108, 0.9540000000000001, 0.214, 192.0, 0.0, 0.0, 0.0, 0.0, 0.0, 0.0, 0.0, 0.0, 0.0, 1.744825055174515E9, 0.0, 2025-04-16 12:37:35.174
12.0, -1261.8677332243603, 2467.67729135481, 21261.24754682154, 9268.396707582082, -4778.378281399999, -3245.8979780552363, -24799.61810107447, 22530.200783038235, 2420.425703576291, 26726.04790044402, -13448.485845146877, -1311.198033237223, -6606.97449528867, 4560.04644156056, -36832.61267335566, -187500.02235174447, -0.108, 0.9540000000000001, 0.214, 192.0, 0.0, 0.0, 0.0, 0.0, 0.0, 0.0, 0.0, 0.0, 0.0, 1.744825055174754E9, 0.0, 2025-04-16 12:37:35.174
14.0, -1278.810355521483, 2454.8697417819194, 21248.328238526374, 9247.788399194289, -4810.318924226633, -3257.6996991276383, -24820.695796095824, 22513.615788652398, 2406.433511547269, 26676.359972519873, -13459.99699354136, -1334.9132341043037, -6619.782044861561, 4536.107723248926, -36841.79924032679, -187500.02235174447, -0.108, 0.9540000000000001, 0.214, 192.0, 0.0, 0.0, 0.0, 0.0, 0.0, 0.0, 0.0, 0.0, 0.0, 1.744825055175001E9, 0.0, 2025-04-16 12:37:35.175
16.0, -1265.6675297817624, 2453.8862650258857, 21255.01141011851, 9258.226663854917, -4793.063377507136, -3263.5111526860182, -24820.740499584736, 22520.99186432265, 2418.1234738973944, 26709.23938861363, -13454.90079580555, -1320.5857659084518, -6615.423454692776, 4545.920139064806, -36846.649568873596, -187500.02235174447, -0.108, 0.9540000000000001, 0.214, 192.0, 0.0, 0.0, 0.0, 0.0, 0.0, 0.0, 0.0, 0.0, 0.0, 1.744825055233514E9, 0.0, 2025-04-16 12:37:35.233
18.0, -1284.331236401944, 2449.728840557199, 21244.30492452442, 9231.561032719736, -4816.733874885306, -3274.7317284025826, -24840.052406794122, 22504.40686993681, 2416.849424463442, 26681.344411533406, -13459.214682485424, -1336.0531730715243, -6619.558527417008, 4522.003772497627, -36847.20836248498, -187500.02235174447, -0.11, 0.962, 0.2, 192.0, 126.0, 72.0, 15.0, 8.0, 3.0, 32.0, 0.0, 0.0, 0.0, 1.74482505523379E9, 0.0, 2025-04-16 12:37:35.233
20.0, -1261.2195326351564, 2467.5208291436234, 21263.72859045608, 9262.987585423898, -4783.988569258281, -3257.9008648277363, -24802.34501389802, 22532.70417841723, 2422.9514506997407, 26693.9507954062, -13458.342964451667, -1327.0677718004908, -6612.964762802692, 4536.711220349219, -36844.63791187262, -187500.02235174447, -0.11, 0.962, 0.2, 192.0, 0.0, 0.0, 0.0, 0.0, 0.0, 0.0, 0.0, 0.0, 0.0, 1.744825055234075E9, 0.0, 2025-04-16 12:37:35.234
22.0, -1268.4614978386758, 2471.7453088456764, 21261.694581710646, 9246.894329416076, -4795.969104286326, -3255.3527659598312, -24802.72499355376, 22527.004483581124, 2431.9592037152297, 26694.57664425095, -13451.458627159433, -1326.5983851669296, -6604.046416765024, 4532.665554602809, -36829.930464021025, -187500.02235174447, -0.11, 0.962, 0.2, 192.0, 0.0, 0.0, 0.0, 0.0, 0.0, 0.0, 0.0, 0.0, 0.0, 1.744825055234326E9, 0.0, 2025-04-16 12:37:35.234
24.0, -1252.5247040420418, 2473.980483291207, 21263.43801777816, 9266.317995347737, -4779.495868622765, -3253.9893095480575, -24793.09139169352, 22536.101643574435, 2442.308061398037, 26693.839036683923, -13447.591775368664, -1312.4273791822648, -6604.359341187399, 4545.786028598074, -36832.61267335566, -187500.02235174447, -0.11, 0.962, 0.2, 192.0, 0.0, 0.0, 0.0, 0.0, 0.0, 0.0, 0.0, 0.0, 0.0, 1.74482505523457E9, 0.0, 2025-04-16 12:37:35.234
26.0, -1265.6004745483965, 2465.2409512091817, 21257.850081664335, 9238.44537001197, -4801.75820610025, -3264.2487602530437, -24793.940757982822, 22524.25521901312, 2455.7414598156765, 26702.690327488224, -13450.922185292506, -1317.4788734291642, -6603.264105709089, 4528.4187231563, -36834.445516401, -187500.02235174447, -0.11, 0.962, 0.2, 192.0, 0.0, 0.0, 0.0, 0.0, 0.0, 0.0, 0.0, 0.0, 0.0, 1.744825055234819E9, 0.0, 2025-04-16 12:37:35.234
28.0, -1246.0203464055476, 2475.4780501697123, 21266.50020676854, 9265.848608714177, -4787.296627437667, -3249.6754228681834, -24785.156522411886, 22541.443710499254, 2469.241913466682, 26687.42408602525, -13442.964964266415, -1304.6936756007285, -6593.7646143155835, 4538.097028505448, -36831.38332741062, -187500.02235174447, -0.116, 0.962, 0.196, 192.0, 126.0, 48.0, 15.0, 8.0, 3.0, 16.0, 0.0, 0.0, 0.0, 1.744825055235063E9, 0.0, 2025-04-16 12:37:35.235
30.0, -1252.3011865974888, 2469.5771896335114, 21262.342782299853, 9246.849625927165, -4801.221764233323, -3253.9893095480575, -24790.63269980344, 22529.26200977111, 2474.8074978360532, 26715.609635783392, -13447.480016646388, -1313.455559427209, -6591.618846847874, 4530.251566201636, -36832.61267335566, -187500.02235174447, -0.116, 0.962, 0.196, 192.0, 0.0, 0.0, 0.0, 0.0, 0.0, 0.0, 0.0, 0.0, 0.0, 1.744825055293107E9, 0.0, 2025-04-16 12:37:35.293
32.0, -1240.521817269542, 2475.3439397029806, 21260.800511932437, 9270.296605860784, -4790.7164443393285, -3248.1555042452223, -24787.928138724346, 22541.331951776978, 2490.654884654866, 26679.33275453243, -13446.340077679168, -1303.196108722223, -6596.2233062056675, 4535.817150571007, -36828.678766331526, -187500.02235174447, -0.116, 0.962, 0.196, 192.0, 0.0, 0.0, 0.0, 0.0, 0.0, 0.0, 0.0, 0.0, 0.0, 1.744825055293393E9, 0.0, 2025-04-16 12:37:35.293
34.0, -1251.3400615859107, 2471.7006053567657, 21251.368075772298, 9251.141160862584, -4806.854403836061, -3251.575321146884, -24794.678365549848, 22531.74305340565, 2495.9075446018633, 26728.975978967665, -13453.783208582785, -1307.8229198244715, -6603.889954553838, 4530.3856766683675, -36834.691385590006, -187500.02235174447, -0.116, 0.962, 0.196, 192.0, 0.0, 0.0, 0.0, 0.0, 0.0, 0.0, 0.0, 0.0, 0.0, 1.744825055293627E9, 0.0, 2025-04-16 12:37:35.293
36.0, -1245.9756429166368, 2471.4100326788466, 21256.128997341275, 9273.559960551258, -4801.065302022136, -3249.7648298460044, -24791.146789925908, 22540.79550991005, 2509.2738877861366, 26676.56113821997, -13448.262327702323, -1297.6305243528516, -6606.840384821938, 4538.4323046722775, -36829.41637389855, -187500.02235174447, -0.116, 0.962, 0.196, 192.0, 0.0, 0.0, 0.0, 0.0, 0.0, 0.0, 0.0, 0.0, 0.0, 1.744825055293861E9, 0.0, 2025-04-16 12:37:35.293
38.0, -1258.4479163226983, 2472.326454201514, 21262.186320088666, 9259.411306311049, -4802.47346192282, -3251.620024635795, -24779.747400253702, 22535.520498218597, 2518.169882079349, 26733.24516215863, -13453.13500799358, -1292.6013818504075, -6603.733492342651, 4540.354554695435, -36832.76913556685, -187500.02235174447, -0.12, 0.964, 0.19, 192.0, 126.0, 32.0, 15.0, 16.0, 2.5, 120.0, 0.0, 0.0, 0.0, 1.744825055294108E9, 0.0, 2025-04-16 12:37:35.294
40.0, -1250.3565848298772, 2479.8366403384975, 21266.92488991319, 9278.231475142416, -4792.3034181956555, -3237.2478529510327, -24773.55596703958, 22550.78673968157, 2528.6975537177987, 26671.889623628813, -13446.630650357087, -1286.5217073585638, -6604.247582465123, 4545.674269875797, -36822.97907149542, -187500.02235174447, -0.12, 0.964, 0.19, 192.0, 0.0, 0.0, 0.0, 0.0, 0.0, 0.0, 0.0, 0.0, 0.0, 1.74482505529436E9, 0.0, 2025-04-16 12:37:35.294
42.0, -1274.6529310527958, 2452.00871849164, 21250.29519203844, 9250.425905040014, -4803.367531701032, -3253.1846467476666, -24789.783333514137, 22532.07832957248, 2524.9201089048515, 26732.529906336058, -13458.141798751569, -1292.355512661399, -6605.141652243335, 4546.031897787082, -36836.18895246851, -187500.02235174447, -0.12, 0.964, 0.19, 192.0, 0.0, 0.0, 0.0, 0.0, 0.0, 0.0, 0.0, 0.0, 0.0, 1.744825055294597E9, 0.0, 2025-04-16 12:37:35.294
44.0, -1263.1864861472234, 2463.363404674936, 21257.78302643097, 9274.297568118283, -4799.2324589768, -3239.907710541214, -24762.782426212125, 22545.757597179127, 2520.360353035969, 26652.84593735289, -13452.866787060117, -1294.6577423402957, -6609.299076712022, 4538.924043050295, -36832.90324603358, -187500.02235174447, -0.12, 0.964, 0.19, 192.0, 0.0, 0.0, 0.0, 0.0, 0.0, 0.0, 0.0, 0.0, 0.0, 1.744825055294847E9, 0.0, 2025-04-16 12:37:35.294
46.0, -1271.0095967065809, 2459.205980206249, 21257.49245375305, 9266.139181392096, -4794.6503513634625, -3240.0865244968563, -24760.167272110855, 22541.51076573262, 2530.575100252044, 26725.712624277192, -13450.430446914488, -1282.0737102119579, -6603.174698731268, 4556.023127558605, -36828.745821564895, -187500.02235174447, -0.12, 0.964, 0.19, 192.0, 0.0, 0.0, 0.0, 0.0, 0.0, 0.0, 0.0, 0.0, 0.0, 1.744825055353369E9, 0.0, 2025-04-16 12:37:35.353
48.0, -1275.4128903642763, 2457.551951116556, 21251.949221128132, 9269.246073871383, -4806.47442418032, -3238.3654401737977, -24761.553080267084, 22546.69637044625, 2515.7558936781757, 26650.65546639627, -13456.487769661877, -1293.4060446507985, -6614.9540680592145, 4545.338993708968, -36832.456211144476, -187500.02235174447, -0.112, 0.96, 0.184, 192.0, 126.0, 64.0, 15.0, 0.0, 2.5, 96.0, 0.0, 0.0, 0.0, 1.744825055353636E9, 0.0, 2025-04-16 12:37:35.353
50.0, -1278.4080241212876, 2450.131171957394, 21242.472081479085, 9255.767971964833, -4799.388921187988, -3248.35666994532, -24752.545327251595, 22542.449538999743, 2518.393399523902, 26717.263664873084, -13465.249653488358, -1291.4167393942762, -6611.601306390919, 4549.764639111118, -36840.413432170564, -187500.02235174447, -0.112, 0.96, 0.184, 192.0, 0.0, 0.0, 0.0, 0.0, 0.0, 0.0, 0.0, 0.0, 0.0, 1.744825055353894E9, 0.0, 2025-04-16 12:37:35.353
52.0, -1272.5295153295417, 2459.7424220731764, 21247.098892581333, 9262.808771468255, -4809.111930026046, -3238.4101436627084, -24751.450091773284, 22550.384408281378, 2520.874443158441, 26646.65450413877, -13458.365316196123, -1298.390483664332, -6611.109568012902, 4538.5440633945545, -36833.46203964496, -187500.02235174447, -0.112, 0.96, 0.184, 192.0, 0.0, 0.0, 0.0, 0.0, 0.0, 0.0, 0.0, 0.0, 0.0, 1.744825055354133E9, 0.0, 2025-04-16 12:37:35.354
54.0, -1273.7588612745835, 2452.1651807028275, 21244.617848946793, 9259.388954566593, -4797.310208953644, -3245.5627018884065, -24756.970972653744, 22545.154100078835, 2519.2874693021145, 26714.424993327262, -13468.691822134475, -1295.9764952631588, -6606.169832488279, 4545.763676853619, -36843.0956415052, -187500.02235174447, -0.112, 0.96, 0.184, 192.0, 0.0, 0.0, 0.0, 0.0, 0.0, 0.0, 0.0, 0.0, 0.0, 1.744825055354358E9, 0.0, 2025-04-16 12:37:35.354
56.0, -1272.7977362630054, 2464.3245296865143, 21245.310753024907, 9261.132390634108, -4809.335447470599, -3241.718201842094, -24760.48019653323, 22544.528251234085, 2524.584832738022, 26657.56215543296, -13455.99603128386, -1298.7481115756168, -6603.39821617582, 4540.890996562362, -36832.90324603358, -187500.02235174447, -0.112, 0.96, 0.184, 192.0, 0.0, 0.0, 0.0, 0.0, 0.0, 0.0, 0.0, 0.0, 0.0, 1.744825055354601E9, 0.0, 2025-04-16 12:37:35.354
58.0, -1264.7958117480055, 2464.1233639864167, 21253.983229873567, 9271.414193083549, -4789.509450138742, -3239.8853587967587, -24746.532707993116, 22550.56322223702, 2531.0444868856057, 26717.777754995557, -13454.364353938623, -1284.3759398908544, -6602.504146397609, 4556.246645003158, -36834.892551290104, -187500.02235174447, -0.115, 0.9590000000000001, 0.183, 192.0, 126.0, 40.0, 14.5, 120.0, 2.5, 88.0, 0.0, 0.0, 0.0, 1.744825055354837E9, 0.0, 2025-04-16 12:37:35.354
60.0, -1273.2447711521115, 2468.2807884551034, 21256.017238619, 9268.195541881983, -4804.015732290236, -3233.626870349273, -24745.638638214903, 22551.591402481965, 2528.854015928986, 26669.56504220546, -13452.218586470914, -1291.1708702052679, -6604.560506887497, 4544.020240786104, -36824.32017616274, -187500.02235174447, -0.115, 0.9590000000000001, 0.183, 192.0, 0.0, 0.0, 0.0, 0.0, 0.0, 0.0, 0.0, 0.0, 0.0, 1.744825055413679E9, 0.0, 2025-04-16 12:37:35.413
62.0, -1274.1164891858684, 2456.5014191271566, 21250.16108157171, 9266.720326747934, -4792.728101340306, -3249.0719257678898, -24750.600725483982, 22545.757597179127, 2529.658678729377, 26703.271472844062, -13458.879406318594, -1285.1806026912454, -6608.650876122818, 4551.932758323283, -36831.4950861329, -187500.02235174447, -0.115, 0.9590000000000001, 0.183, 192.0, 0.0, 0.0, 0.0, 0.0, 0.0, 0.0, 0.0, 0.0, 0.0, 1.744825055413939E9, 0.0, 2025-04-16 12:37:35.413
64.0, -1281.3137509004773, 2457.529599372101, 21243.455558235117, 9244.167416592529, -4814.252831250767, -3254.3022339704316, -24765.15171112439, 22532.95004760624, 2514.7053616887765, 26667.151053804286, -13470.323499479711, -1307.2194227241782, -6618.351533216422, 4525.736513821664, -36843.073289760745, -187500.02235174447, -0.115, 0.9590000000000001, 0.183, 192.0, 0.0, 0.0, 0.0, 0.0, 0.0, 0.0, 0.0, 0.0, 0.0, 1.744825055414181E9, 0.0, 2025-04-16 12:37:35.414
66.0, -1260.8842564683266, 2472.0358815235954, 21255.972535130088, 9269.044908171285, -4789.420043160921, -3247.8872833117584, -24752.478272018227, 22544.88587914537, 2524.741294949209, 26701.32687107645, -13454.945499294461, -1279.6373700663294, -6605.409873176798, 4550.926929822795, -36838.08885074721, -187500.02235174447, -0.115, 0.9590000000000001, 0.183, 192.0, 0.0, 0.0, 0.0, 0.0, 0.0, 0.0, 0.0, 0.0, 0.0, 1.744825055414436E9, 0.0, 2025-04-16 12:37:35.414
68.0, -1286.3652451473768, 2457.328433672003, 21252.2174420616, 9251.364678307138, -4802.316999711633, -3248.714297856605, -24745.437472514808, 22540.571992465495, 2521.5673472365556, 26677.790484165012, -13451.212757970425, -1290.2544486826002, -6604.962838287693, 4538.052325016538, -36834.06553674526, -187500.02235174447, -0.1155, 0.9595, 0.1815, 192.0, 126.0, 48.0, 15.0, 0.0, 2.5, 80.0, 0.0, 0.0, 0.0, 1.744825055414673E9, 0.0, 2025-04-16 12:37:35.414
70.0, -1283.8618497683824, 2451.6063870914445, 21251.09985483883, 9263.367565079638, -4787.52014488222, -3251.3741554467865, -24744.699864947783, 22547.590440224463, 2523.3107833040694, 26682.573757478447, -13460.265214474824, -1287.1475562033124, -6606.348646443921, 4544.780200097585, -36836.52422863534, -187500.02235174447, -0.1155, 0.9595, 0.1815, 192.0, 0.0, 0.0, 0.0, 0.0, 0.0, 0.0, 0.0, 0.0, 0.0, 1.74482505541493E9, 0.0, 2025-04-16 12:37:35.414
72.0, -1304.224288967167, 2436.1836834172827, 21244.17081405769, 9234.042076354275, -4807.927287569915, -3263.332338730376, -24758.535594765617, 22532.70417841723, 2516.0241146116396, 26681.83614991142, -13468.423601201011, -1308.3370099469437, -6608.293248211533, 4525.13301672137, -36841.10633624868, -187500.02235174447, -0.1155, 0.9595, 0.1815, 192.0, 0.0, 0.0, 0.0, 0.0, 0.0, 0.0, 0.0, 0.0, 0.0, 1.744825055415168E9, 0.0, 2025-04-16 12:37:35.415
74.0, -1292.2437539391226, 2438.105933440439, 21245.802491402923, 9257.466704543436, -4789.554153627652, -3258.996100306046, -24739.0895770895, 22544.014161111612, 2510.9055651313743, 26663.105388057877, -13472.424563458511, -1307.2194227241782, -6613.702370369718, 4528.843406300951, -36841.08398450422, -187500.02235174447, -0.1155, 0.9595, 0.1815, 192.0, 0.0, 0.0, 0.0, 0.0, 0.0, 0.0, 0.0, 0.0, 0.0, 1.744825055415403E9, 0.0, 2025-04-16 12:37:35.415
76.0, -1299.2174982091783, 2439.849369507953, 21244.72960766907, 9235.24907055486, -4804.753339857261, -3263.8240771083924, -24749.617248727947, 22527.3174080035, 2512.2466697986924, 26682.52905398954, -13475.039717559781, -1314.7519606056167, -6615.512861670597, 4520.5285573635765, -36841.68748160452, -187500.02235174447, -0.1155, 0.9595, 0.1815, 192.0, 0.0, 0.0, 0.0, 0.0, 0.0, 0.0, 0.0, 0.0, 0.0, 1.744825055473151E9, 0.0, 2025-04-16 12:37:35.473
78.0, -1277.4021956207987, 2457.4178406498245, 21256.26310780801, 9261.087687145196, -4793.4210054184205, -3257.163257260711, -24747.13620509341, 22539.968495365203, 2526.015344383162, 26662.099559557388, -13458.477074918399, -1295.1271289738572, -6609.9025738123155, 4537.694697105253, -36835.76426932386, -187500.02235174447, -0.11875, 0.96075, 0.18275, 192.0, 126.0, 24.0, 15.0, 8.0, 2.5, 96.0, 0.0, 0.0, 0.0, 1.744825055473423E9, 0.0, 2025-04-16 12:37:35.473
80.0, -1281.2690474115668, 2458.2225034502153, 21254.564375229405, 9241.954593891454, -4804.552174157164, -3262.974710819091, -24747.694998704792, 22529.306713260023, 2526.7976554390975, 26699.829304197945, -13459.013516785326, -1297.9658005196811, -6606.1474807438235, 4532.397333669345, -36839.80993507027, -187500.02235174447, -0.11875, 0.96075, 0.18275, 192.0, 0.0, 0.0, 0.0, 0.0, 0.0, 0.0, 0.0, 0.0, 0.0, 1.744825055473679E9, 0.0, 2025-04-16 12:37:35.473
82.0, -1269.199105405701, 2464.9056750423524, 21255.480796752072, 9264.038117413296, -4800.081825266102, -3257.07385028289, -24743.89520214739, 22536.615733696908, 2533.0561438865834, 26650.56605941845, -13454.654926616542, -1294.1213004733684, -6608.941448800737, 4536.711220349219, -36839.54171413681, -187500.02235174447, -0.11875, 0.96075, 0.18275, 192.0, 0.0, 0.0, 0.0, 0.0, 0.0, 0.0, 0.0, 0.0, 0.0, 1.744825055473952E9, 0.0, 2025-04-16 12:37:35.473
84.0, -1288.9580475041923, 2456.523770871612, 21249.82580540488, 9244.189768336984, -4810.341275971088, -3268.137963788267, -24744.36458878095, 22525.238695769156, 2520.159187335871, 26704.43376355574, -13458.655888874042, -1294.0318934955471, -6607.130957499857, 4533.0902377474595, -36845.12965025064, -187500.02235174447, -0.11875, 0.96075, 0.18275, 192.0, 0.0, 0.0, 0.0, 0.0, 0.0, 0.0, 0.0, 0.0, 0.0, 1.744825055474195E9, 0.0, 2025-04-16 12:37:35.474
86.0, -1282.878373012349, 2457.328433672003, 21258.855910164824, 9264.105172646663, -4800.5735636441195, -3259.286672983965, -24747.069149860043, 22535.542849963054, 2514.012457610662, 26649.247306495585, -13455.414885928021, -1290.8802975273488, -6611.9589343022035, 4530.98917376866, -36843.833249072224, -187500.02235174447, -0.11875, 0.96075, 0.18275, 192.0, 0.0, 0.0, 0.0, 0.0, 0.0, 0.0, 0.0, 0.0, 0.0, 1.744825055474438E9, 0.0, 2025-04-16 12:37:35.474
88.0, -1296.3117714299883, 2452.701622569755, 21249.714046682602, 9240.50173050186, -4805.446243935376, -3270.7978213784486, -24742.8893736469, 22525.842192869448, 2511.4867104872123, 26712.14511539282, -13467.551883167254, -1294.9483150182148, -6610.8413470794385, 4528.0387435005605, -36851.79047009831, -187500.02235174447, -0.119375, 0.965375, 0.179375, 192.0, 126.0, 32.0, 15.0, 40.0, 2.5, 64.0, 0.0, 0.0, 0.0, 1.744825055474687E9, 0.0, 2025-04-16 12:37:35.474
90.0, -1277.1786781762455, 2468.526657644112, 21259.97349738759, 9257.35494582116, -4800.841784577583, -3262.0135858075128, -24743.291705047097, 22533.55354470653, 2528.854015928986, 26653.13651003081, -13453.000897526848, -1289.8968207713153, -6610.97545754617, 4530.028048757083, -36841.06163275977, -187500.02235174447, -0.119375, 0.965375, 0.179375, 192.0, 0.0, 0.0, 0.0, 0.0, 0.0, 0.0, 0.0, 0.0, 0.0, 1.744825055532959E9, 0.0, 2025-04-16 12:37:35.532
92.0, -1298.1222627308682, 2443.5150555986233, 21246.718912925593, 9232.96919262042, -4807.614363147541, -3279.067966826912, -24754.825205186036, 22517.281474743068, 2523.489597259712, 26718.157734651297, -13454.56551963872, -1287.0805009699466, -6605.074597009969, 4536.599461626943, -36846.60486538468, -187500.02235174447, -0.119375, 0.965375, 0.179375, 192.0, 0.0, 0.0, 0.0, 0.0, 0.0, 0.0, 0.0, 0.0, 0.0, 1.744825055533288E9, 0.0, 2025-04-16 12:37:35.533
94.0, -1283.9959602351141, 2459.004814506151, 21256.77719793048, 9249.464780028437, -4806.876755580515, -3263.622911408295, -24751.51714700665, 22527.54092544805, 2516.873480900941, 26635.74685284458, -13462.053354031248, -1302.2349837106449, -6619.714989628195, 4520.617964341398, -36850.851696831196, -187500.02235174447, -0.119375, 0.965375, 0.179375, 192.0, 0.0, 0.0, 0.0, 0.0, 0.0, 0.0, 0.0, 0.0, 0.0, 1.74482505553353E9, 0.0, 2025-04-16 12:37:35.533
96.0, -1275.837573508927, 2464.458640153246, 21270.411762048217, 9258.092553388185, -4783.273313435711, -3249.6754228681834, -24729.679492673815, 22543.522422733597, 2533.16790260886, 26712.793315982024, -13447.23414745738, -1280.3749776333545, -6599.598419618419, 4551.150447267348, -36831.98682451091, -187500.02235174447, -0.119375, 0.965375, 0.179375, 192.0, 0.0, 0.0, 0.0, 0.0, 0.0, 0.0, 0.0, 0.0, 0.0, 1.744825055533772E9, 0.0, 2025-04-16 12:37:35.533
98.0, -1286.4993556141087, 2462.402279663358, 21260.934622399167, 9259.143085377586, -4799.746549099273, -3253.6316816367726, -24740.989475368202, 22538.381521508876, 2528.854015928986, 26643.324094214928, -13446.585946868176, -1285.8735067693601, -6602.8617743088935, 4542.925005307795, -36829.61753959865, -187500.02235174447, -0.1176875, 0.9666874999999999, 0.1796875, 192.0, 126.0, 48.0, 15.0, 32.0, 2.5, 80.0, 0.0, 0.0, 0.0, 1.744825055534002E9, 0.0, 2025-04-16 12:37:35.534
100.0, -1285.9182102582706, 2459.273035439615, 21260.666401465704, 9250.470608528925, -4790.76114782824, -3253.810495592415, -24734.79804215408, 22537.330989519476, 2525.6353647274213, 26716.749574750615, -13455.258423716836, -1282.744262545617, -6605.92396329927, 4547.3506507099455, -36838.84881005869, -187500.02235174447, -0.1176875, 0.9666874999999999, 0.1796875, 192.0, 0.0, 0.0, 0.0, 0.0, 0.0, 0.0, 0.0, 0.0, 0.0, 1.744825055534256E9, 0.0, 2025-04-16 12:37:35.534
102.0, -1291.841422538927, 2458.602483105956, 21260.040552620954, 9252.862245185643, -4805.178023001912, -3250.748306602038, -24734.12748982042, 22538.135652319866, 2517.946364634796, 26650.700169885182, -13454.163188238525, -1292.6684370837734, -6611.131919757357, 4536.398295926845, -36834.98195826793, -187500.02235174447, -0.1176875, 0.9666874999999999, 0.1796875, 192.0, 0.0, 0.0, 0.0, 0.0, 0.0, 0.0, 0.0, 0.0, 0.0, 1.744825055534508E9, 0.0, 2025-04-16 12:37:35.534
104.0, -1290.455614382698, 2452.299291169559, 21265.695543968148, 9258.941919677487, -4780.6805110788955, -3251.0612310244123, -24717.430736712307, 22543.433015755774, 2529.9268996628407, 26708.52413279106, -13450.743371336863, -1277.9162857432707, -6605.16400398779, 4556.738383381175, -36829.12580122063, -187500.02235174447, -0.1176875, 0.9666874999999999, 0.1796875, 192.0, 0.0, 0.0, 0.0, 0.0, 0.0, 0.0, 0.0, 0.0, 0.0, 1.744825055534749E9, 0.0, 2025-04-16 12:37:35.534
106.0, -1299.8880505428376, 2454.400355148358, 21255.8160729189, 9249.129503861608, -4802.451110178365, -3250.88241706877, -24732.85344038647, 22536.347512763445, 2527.8034839395864, 26655.304629242975, -13455.504292905844, -1294.7918528070275, -6611.601306390919, 4541.427438429289, -36830.62336809914, -187500.02235174447, -0.1176875, 0.9666874999999999, 0.1796875, 192.0, 0.0, 0.0, 0.0, 0.0, 0.0, 0.0, 0.0, 0.0, 0.0, 1.744825055594616E9, 0.0, 2025-04-16 12:37:35.594
108.0, -1297.6305243528516, 2449.147695201361, 21256.643087463748, 9259.701878988968, -4782.3792436574995, -3251.7541351025266, -24729.254809529164, 22539.767329665105, 2524.1154461044607, 26702.33269957694, -13463.99795579886, -1287.9745707481588, -6610.282553468055, 4554.972595569205, -36836.59128386871, -187500.02235174447, -0.11584375, 0.96634375, 0.17984375, 192.0, 126.0, 56.0, 15.0, 24.0, 2.5, 80.0, 0.0, 0.0, 0.0, 1.74482505559489E9, 0.0, 2025-04-16 12:37:35.594
110.0, -1304.224288967167, 2452.947491758763, 21251.703351939126, 9241.485207257892, -4799.925363054916, -3256.4703531825967, -24743.828146914024, 22527.049187070035, 2514.615954710955, 26656.779844377023, -13465.853150588651, -1299.6868848427398, -6612.093044768935, 4536.890034304862, -36835.42899315703, -187500.02235174447, -0.11584375, 0.96634375, 0.17984375, 192.0, 0.0, 0.0, 0.0, 0.0, 0.0, 0.0, 0.0, 0.0, 0.0, 1.744825055595163E9, 0.0, 2025-04-16 12:37:35.595
112.0, -1295.842384796427, 2452.5898638474782, 21253.357381028818, 9250.7835329513, -4775.986644743281, -3261.4994956850405, -24740.94477187929, 22532.525364461588, 2527.8928909174074, 26696.029507640542, -13456.3760109396, -1283.8618497683824, -6606.348646443921, 4550.1669705113145, -36836.45717340198, -187500.02235174447, -0.11584375, 0.96634375, 0.17984375, 192.0, 0.0, 0.0, 0.0, 0.0, 0.0, 0.0, 0.0, 0.0, 0.0, 1.744825055595407E9, 0.0, 2025-04-16 12:37:35.595
114.0, -1308.7840448360498, 2451.0922969689723, 21249.132901326764, 9233.058599598242, -4798.6960171098735, -3265.1204782868003, -24748.298495805087, 22521.997692823137, 2520.203890824782, 26664.75941714757, -13463.796790098762, -1306.2359459681447, -6610.483719168154, 4526.898804533339, -36838.02179551384, -187500.02235174447, -0.11584375, 0.96634375, 0.17984375, 192.0, 0.0, 0.0, 0.0, 0.0, 0.0, 0.0, 0.0, 0.0, 0.0, 1.744825055595647E9, 0.0, 2025-04-16 12:37:35.595
116.0, -1307.6888093577397, 2440.989308475174, 21242.226212290076, 9241.574614235713, -4791.3646449285325, -3275.31287375842, -24759.04968488809, 22519.78487012206, 2511.5314139761226, 26673.27543178504, -13472.938653580983, -1301.8326523104492, -6613.523556414075, 4535.1465982373475, -36847.85656307418, -187500.02235174447, -0.11584375, 0.96634375, 0.17984375, 192.0, 0.0, 0.0, 0.0, 0.0, 0.0, 0.0, 0.0, 0.0, 0.0, 1.744825055595899E9, 0.0, 2025-04-16 12:37:35.595
118.0, -1323.2679752430888, 2437.5471398290565, 21231.787947629447, 9216.987695334876, -4818.276145252722, -3278.0174348375126, -24766.09048439151, 22510.665358384296, 2501.137852804405, 26664.245327025095, -13483.399269986066, -1321.748056620128, -6621.614887906896, 4512.548984593032, -36856.19376375601, -187500.02235174447, -0.11584375, 0.96634375, 0.17984375, 192.0, 0.0, 0.0, 0.0, 0.0, 0.0, 0.0, 0.0, 0.0, 0.0, 1.744825055596146E9, 0.0, 2025-04-16 12:37:35.596
120.0, -1303.6431436113292, 2449.9300062572966, 21240.415720989196, 9239.16062583454, -4797.444319420376, -3270.350786489342, -24753.260583074163, 22525.573971935984, 2509.1844808083156, 26669.22976603863, -13478.325423994713, -1307.5770506354631, -6620.474948939675, 4524.238946943158, -36857.62427540115, -187500.02235174447, -0.108, 0.9580000000000001, 0.18, 192.0, 126.0, 80.0, 14.5, 120.0, 2.5, 80.0, 0.0, 0.0, 0.0, 1.744825055653476E9, 0.0, 2025-04-16 12:37:35.653
122.0, -1321.5692426644855, 2434.596709560956, 21229.552773183917, 9211.936201087976, -4818.611421419552, -3285.5052692300405, -24759.720237221747, 22506.2620647266, 2505.6529051843772, 26680.584452221927, -13480.828819373706, -1318.6858676297509, -6623.626544907874, 4508.03393221306, -36860.93233358054, -187500.02235174447, -0.108, 0.9580000000000001, 0.18, 192.0, 0.0, 0.0, 0.0, 0.0, 0.0, 0.0, 0.0, 0.0, 0.0, 1.744825055653756E9, 0.0, 2025-04-16 12:37:35.653
124.0, -1296.200012707712, 2450.6452620798664, 21240.795700644936, 9243.519216003326, -4804.306304968155, -3274.195286535655, -24757.08273137602, 22519.203724766223, 2505.6082016954665, 26655.70696064317, -13475.129124537603, -1306.4147599237872, -6624.878242597371, 4521.690848075253, -36856.774909111846, -187500.02235174447, -0.108, 0.9580000000000001, 0.18, 192.0, 0.0, 0.0, 0.0, 0.0, 0.0, 0.0, 0.0, 0.0, 0.0, 1.744825055654004E9, 0.0, 2025-04-16 12:37:35.654
126.0, -1302.5032046441086, 2455.8085150490424, 21244.126110568777, 9226.710704172934, -4812.822319605627, -3272.7647748905156, -24756.859213931468, 22514.956893319715, 2520.6956292027985, 26689.502798259593, -13466.724868622408, -1303.5760883779633, -6617.904498327315, 4519.99211549665, -36855.38910095562, -187500.02235174447, -0.108, 0.9580000000000001, 0.18, 192.0, 0.0, 0.0, 0.0, 0.0, 0.0, 0.0, 0.0, 0.0, 0.0, 1.744825055654253E9, 0.0, 2025-04-16 12:37:35.654
128.0, -1300.804472065505, 2455.4732388822126, 21253.178567073177, 9257.7349254769, -4791.811679817639, -3256.2691874824986, -24740.52008873464, 22535.855774385425, 2506.5916784515, 26653.360027475363, -13464.020307543315, -1298.2340214531448, -6619.603230905918, 4532.531444136077, -36846.18018224003, -187500.02235174447, -0.108, 0.9580000000000001, 0.18, 192.0, 0.0, 0.0, 0.0, 0.0, 0.0, 0.0, 0.0, 0.0, 0.0, 1.744825055654486E9, 0.0, 2025-04-16 12:37:35.654
130.0, -1301.87735579936, 2459.6083116064447, 21258.006543875523, 9242.133407847095, -4794.80681357465, -3256.2244839935884, -24734.0380828426, 22530.290190016054, 2502.3671987494467, 26706.400717067805, -13462.343926709167, -1295.4847568851421, -6613.098873269424, 4538.968746539205, -36838.51353389186, -187500.02235174447, -0.108, 0.966, 0.17400000000000002, 192.0, 126.0, 80.0, 15.0, 24.0, 2.5, 56.0, 0.0, 0.0, 0.0, 1.744825055654729E9, 0.0, 2025-04-16 12:37:35.654
132.0, -1296.7588063190944, 2457.7754685611094, 21254.519671740494, 9256.952614420965, -4794.85151706356, -3257.4985334275407, -24746.66681845985, 22537.59921045294, 2506.502271473679, 26664.17827179173, -13455.593699883664, -1287.5722393479634, -6613.568259902985, 4542.723839607696, -36835.27253094584, -187500.02235174447, -0.108, 0.966, 0.17400000000000002, 192.0, 0.0, 0.0, 0.0, 0.0, 0.0, 0.0, 0.0, 0.0, 0.0, 1.744825055654995E9, 0.0, 2025-04-16 12:37:35.654
134.0, -1303.3749226778655, 2457.82017205002, 21258.386523531262, 9241.686372957989, -4798.025464776214, -3256.2691874824986, -24740.117757334443, 22534.73818716266, 2496.2875242576033, 26719.34237710743, -13470.457609946443, -1299.5974778649186, -6620.162024517301, 4535.012487770616, -36847.87891481863, -187500.02235174447, -0.108, 0.966, 0.17400000000000002, 192.0, 0.0, 0.0, 0.0, 0.0, 0.0, 0.0, 0.0, 0.0, 0.0, 1.744825055655239E9, 0.0, 2025-04-16 12:37:35.655
136.0, -1295.9317917742483, 2460.860009295942, 21266.72372421309, 9259.433658055505, -4792.750453084762, -3251.0835827688675, -24734.99920785418, 22548.50686174713, 2500.489652215201, 26653.248268753086, -13461.561615653232, -1297.6305243528516, -6613.88118432536, 4539.3710779394005, -36833.41733615605, -187500.02235174447, -0.108, 0.966, 0.17400000000000002, 192.0, 0.0, 0.0, 0.0, 0.0, 0.0, 0.0, 0.0, 0.0, 0.0, 1.744825055713765E9, 0.0, 2025-04-16 12:37:35.713
138.0, -1309.2757832140665, 2448.4100876343355, 21262.946279400145, 9240.30056480176, -4786.983703015292, -3262.237103252066, -24720.403518724863, 22540.996675610146, 2508.335114519014, 26715.34141484993, -13461.494560419866, -1297.2728964415667, -6604.404044676309, 4539.3710779394005, -36829.41637389855, -187500.02235174447, -0.108, 0.966, 0.17400000000000002, 192.0, 0.0, 0.0, 0.0, 0.0, 0.0, 0.0, 0.0, 0.0, 0.0, 1.744825055714045E9, 0.0, 2025-04-16 12:37:35.714
140.0, -1302.100873243913, 2456.635529593889, 21263.527424755983, 9255.343288820182, -4790.7164443393285, -3255.0845450263673, -24726.393786238885, 22545.08704484547, 2497.8968498583854, 26645.84984133838, -13459.99699354136, -1305.028951767558, -6613.501204669619, 4534.073714503493, -36827.96351050896, -187500.02235174447, -0.112, 0.972, 0.18, 192.0, 126.0, 64.0, 15.0, 48.0, 2.5, 80.0, 0.0, 0.0, 0.0, 1.744825055714292E9, 0.0, 2025-04-16 12:37:35.714
142.0, -1313.3661524493878, 2447.6501283228554, 21258.654744464726, 9243.362753792138, -4785.530839625698, -3258.392603205753, -24725.164440293844, 22541.063730843514, 2497.5168702026454, 26718.940045707233, -13464.71321162143, -1302.1232249883683, -6610.729588357161, 4539.684002361775, -36833.015004755856, -187500.02235174447, -0.112, 0.972, 0.18, 192.0, 0.0, 0.0, 0.0, 0.0, 0.0, 0.0, 0.0, 0.0, 0.0, 1.744825055714532E9, 0.0, 2025-04-16 12:37:35.714
144.0, -1320.965745564192, 2443.29153815407, 21245.176642558177, 9242.558090991746, -4801.311171211144, -3264.3158154864095, -24731.937018863802, 22535.676960429784, 2488.263247998148, 26647.012132050055, -13468.46830468992, -1308.8287483249603, -6616.40693144881, 4532.240871458158, -36833.23852220041, -187500.02235174447, -0.112, 0.972, 0.18, 192.0, 0.0, 0.0, 0.0, 0.0, 0.0, 0.0, 0.0, 0.0, 0.0, 1.744825055714777E9, 0.0, 2025-04-16 12:37:35.714
146.0, -1320.2057862527117, 2438.463561351724, 21238.337008754854, 9233.840910654177, -4798.248982220767, -3268.719109144105, -24739.67072244534, 22527.295056259045, 2480.976579305718, 26709.932292691745, -13486.372051998622, -1315.7577891061055, -6623.917117585793, 4531.346801679945, -36851.321083464754, -187500.02235174447, -0.112, 0.972, 0.18, 192.0, 0.0, 0.0, 0.0, 0.0, 0.0, 0.0, 0.0, 0.0, 0.0, 1.744825055715013E9, 0.0, 2025-04-16 12:37:35.715
148.0, -1301.5197278880748, 2462.3128726855366, 21257.626564219783, 9251.252919584862, -4799.8136043326385, -3250.904768813225, -24734.55217296507, 22538.98501860917, 2491.168974777338, 26646.833318094414, -13468.33419422319, -1311.421550681776, -6619.446768694731, 4533.671383103298, -36836.658339102076, -187500.02235174447, -0.112, 0.972, 0.18, 192.0, 0.0, 0.0, 0.0, 0.0, 0.0, 0.0, 0.0, 0.0, 0.0, 1.744825055715256E9, 0.0, 2025-04-16 12:37:35.715
150.0, -1304.0231232670694, 2453.238064436682, 21257.87243340879, 9246.380239293605, -4790.783499572694, -3265.4110509647194, -24735.222725298732, 22532.681826672775, 2504.624724939433, 26721.734013764148, -13459.594662141164, -1291.3720359053655, -6609.1426145008345, 4551.441019945267, -36831.696251833, -187500.02235174447, -0.116, 0.97, 0.18, 192.0, 126.0, 48.0, 15.0, 40.0, 2.5, 80.0, 0.0, 0.0, 0.0, 1.744825055773154E9, 0.0, 2025-04-16 12:37:35.773
152.0, -1303.6207918668738, 2463.0281285081064, 21258.386523531262, 9242.222814824918, -4806.072092780125, -3264.9640160756135, -24740.810661412557, 22529.88785861586, 2494.074701556528, 26662.412483979762, -13466.054316288748, -1312.673248371273, -6619.156196016812, 4524.37305740989, -36838.96056878097, -187500.02235174447, -0.116, 0.97, 0.18, 192.0, 0.0, 0.0, 0.0, 0.0, 0.0, 0.0, 0.0, 0.0, 0.0, 1.74482505577345E9, 0.0, 2025-04-16 12:37:35.773
154.0, -1298.8822220423488, 2465.1515442313607, 21258.744151442548, 9249.30831781725, -4791.386996672988, -3264.0922980418563, -24730.21593454074, 22530.98309409417, 2500.534355704112, 26728.305426634008, -13460.533435408288, -1293.3166376729773, -6611.891879068838, 4545.428400686789, -36838.82645831424, -187500.02235174447, -0.116, 0.97, 0.18, 192.0, 0.0, 0.0, 0.0, 0.0, 0.0, 0.0, 0.0, 0.0, 0.0, 1.744825055773711E9, 0.0, 2025-04-16 12:37:35.773
156.0, -1309.0746175139686, 2459.004814506151, 21249.468177493596, 9235.427884510504, -4814.632810906507, -3267.065080054412, -24751.114815606456, 22520.254256755623, 2495.30404750157, 26671.084960828422, -13459.862883074627, -1306.615925623885, -6615.7140273706955, 4531.480912146677, -36839.13938273661, -187500.02235174447, -0.116, 0.97, 0.18, 192.0, 0.0, 0.0, 0.0, 0.0, 0.0, 0.0, 0.0, 0.0, 0.0, 1.744825055773951E9, 0.0, 2025-04-16 12:37:35.773
158.0, -1297.7199313306728, 2463.9669017752294, 21257.53715724196, 9245.35205904866, -4799.2324589768, -3266.260417254021, -24737.212030555253, 22526.60215218093, 2483.9270095738184, 26699.248158842107, -13469.027098301303, -1301.8326523104492, -6619.513823928097, 4536.3759441823895, -36852.10339452069, -187500.02235174447, -0.116, 0.97, 0.18, 192.0, 0.0, 0.0, 0.0, 0.0, 0.0, 0.0, 0.0, 0.0, 0.0, 1.744825055774195E9, 0.0, 2025-04-16 12:37:35.774
160.0, -1299.4410156537315, 2468.0572710105507, 21258.878261909278, 9239.250032812362, -4807.659066636452, -3257.163257260711, -24741.794138168592, 22524.12110854639, 2494.1864602788046, 26665.27350727004, -13454.006726027337, -1304.5595651339968, -6613.814129091994, 4534.386638925867, -36839.38525192562, -187500.02235174447, -0.122, 0.964, 0.168, 192.0, 126.0, 24.0, 15.0, 16.0, 2.5, 32.0, 0.0, 0.0, 0.0, 1.74482505577444E9, 0.0, 2025-04-16 12:37:35.774
162.0, -1301.8326523104492, 2460.4800296402013, 21255.480796752072, 9250.917643418032, -4793.599819374063, -3260.560722417918, -24741.168289323843, 22527.764442892607, 2492.912410844852, 26688.407562781285, -13460.935766808483, -1296.4682336411756, -6612.361265702399, 4544.735496608674, -36842.514496149364, -187500.02235174447, -0.122, 0.964, 0.168, 192.0, 0.0, 0.0, 0.0, 0.0, 0.0, 0.0, 0.0, 0.0, 0.0, 1.744825055774692E9, 0.0, 2025-04-16 12:37:35.774
164.0, -1310.2816117145553, 2457.753116816654, 21254.050285106932, 9233.30446878725, -4813.738741128295, -3263.0864695413675, -24744.699864947783, 22515.806259609017, 2483.591733406989, 26673.342487018406, -13463.081534276193, -1309.5440041475301, -6617.1221872713795, 4527.3905429113565, -36843.05093801629, -187500.02235174447, -0.122, 0.964, 0.168, 192.0, 0.0, 0.0, 0.0, 0.0, 0.0, 0.0, 0.0, 0.0, 0.0, 1.74482505577492E9, 0.0, 2025-04-16 12:37:35.774
166.0, -1301.899707543815, 2456.367308660425, 21254.81024441841, 9248.995393394875, -4796.147918241968, -3264.651091653239, -24747.829109171525, 22522.802355623528, 2483.748195618176, 26682.95373713419, -13461.785133097785, -1300.1115679873906, -6620.005562306114, 4536.286537204568, -36847.02954852933, -187500.02235174447, -0.122, 0.964, 0.168, 192.0, 0.0, 0.0, 0.0, 0.0, 0.0, 0.0, 0.0, 0.0, 0.0, 1.744825055832985E9, 0.0, 2025-04-16 12:37:35.832
168.0, -1306.9288500462592, 2461.552913374056, 21253.759712429015, 9232.008067608842, -4807.592011403085, -3259.9572253176243, -24760.010809899668, 22517.16971602079, 2478.495535671179, 26681.18794932222, -13468.75887736784, -1314.7519606056167, -6623.35832397441, 4519.858005029918, -36856.640798645116, -187500.02235174447, -0.122, 0.964, 0.168, 192.0, 0.0, 0.0, 0.0, 0.0, 0.0, 0.0, 0.0, 0.0, 0.0, 1.744825055833266E9, 0.0, 2025-04-16 12:37:35.833
170.0, -1296.0211987520695, 2466.9620355322404, 21261.471064266094, 9254.06923938623, -4786.648426848463, -3256.5150566715074, -24726.93022810581, 22529.820803382496, 2485.5363351746005, 26681.23265281113, -13457.09126676217, -1298.3010766865107, -6611.064864523991, 4538.5440633945545, -36841.30750194877, -187500.02235174447, -0.112, 0.972, 0.17200000000000001, 192.0, 126.0, 64.0, 15.0, 48.0, 2.5, 48.0, 0.0, 0.0, 0.0, 1.744825055833511E9, 0.0, 2025-04-16 12:37:35.833
172.0, -1313.4332076827536, 2451.1817039467937, 21252.798587417437, 9226.308372772739, -4808.776653859217, -3271.1107458008228, -24751.60655398447, 22511.492372929144, 2483.234105495704, 26703.405583310796, -13457.85122607365, -1309.2087279807006, -6606.415701677287, 4531.056229002026, -36837.03831875781, -187500.02235174447, -0.112, 0.972, 0.17200000000000001, 192.0, 0.0, 0.0, 0.0, 0.0, 0.0, 0.0, 0.0, 0.0, 0.0, 1.744825055833764E9, 0.0, 2025-04-16 12:37:35.833
174.0, -1297.16113771929, 2462.424631407813, 21265.337916056862, 9256.63968999859, -4789.5988571165635, -3258.683175883672, -24732.764033408646, 22528.65851267082, 2472.4158611793355, 26671.107312572876, -13467.3283657227, -1314.3049257165105, -6617.457463438209, 4530.586842368465, -36844.36969093915, -187500.02235174447, -0.112, 0.972, 0.17200000000000001, 192.0, 0.0, 0.0, 0.0, 0.0, 0.0, 0.0, 0.0, 0.0, 0.0, 1.744825055834005E9, 0.0, 2025-04-16 12:37:35.834
176.0, -1324.0279345545691, 2446.465485866724, 21248.64116294875, 9227.023628595309, -4803.680456123407, -3276.0728330699008, -24743.55992598056, 22506.530285660065, 2477.8696868264306, 26708.971167680167, -13463.439162187477, -1313.813187338494, -6609.723759856673, 4530.251566201636, -36837.127725735634, -187500.02235174447, -0.112, 0.972, 0.17200000000000001, 192.0, 0.0, 0.0, 0.0, 0.0, 0.0, 0.0, 0.0, 0.0, 0.0, 1.74482505583427E9, 0.0, 2025-04-16 12:37:35.834
178.0, -1299.9774575206588, 2464.7045093422544, 21262.58865148886, 9253.286928330293, -4794.739758341284, -3263.779373619482, -24748.298495805087, 22519.583704421962, 2473.600503635467, 26658.724446144635, -13465.339060466178, -1313.9025943163151, -6618.396236705332, 4529.491606890155, -36842.67095836055, -187500.02235174447, -0.112, 0.972, 0.17200000000000001, 192.0, 0.0, 0.0, 0.0, 0.0, 0.0, 0.0, 0.0, 0.0, 0.0, 1.744825055834507E9, 0.0, 2025-04-16 12:37:35.834
180.0, -1316.3612862063987, 2454.020375492618, 21262.476892766583, 9232.16452982003, -4800.774729344217, -3270.5072487005295, -24733.09930957548, 22513.79460260804, 2485.7375008746985, 26710.580493280948, -13459.974641796905, -1310.192204736734, -6606.438053421743, 4533.984307525672, -36833.640853600606, -187500.02235174447, -0.112, 0.969, 0.171, 192.0, 126.0, 64.0, 15.0, 24.0, 2.5, 40.0, 0.0, 0.0, 0.0, 1.744825055893275E9, 0.0, 2025-04-16 12:37:35.893
182.0, -1313.7014286162173, 2451.069945224517, 21256.68779095266, 9245.799093937767, -4803.993380545781, -3269.434364966675, -24741.66002770186, 22517.68380614326, 2471.521791401123, 26651.773053619036, -13465.160246510535, -1315.5119199170972, -6618.172719260779, 4526.272955688591, -36840.838115315215, -187500.02235174447, -0.112, 0.969, 0.171, 192.0, 0.0, 0.0, 0.0, 0.0, 0.0, 0.0, 0.0, 0.0, 0.0, 1.744825055893585E9, 0.0, 2025-04-16 12:37:35.893
184.0, -1326.6654404002954, 2445.7055265552435, 21251.323372283387, 9228.58825070718, -4808.754302114761, -3274.7317284025826, -24745.929210892824, 22506.798506593528, 2460.3906226623803, 26715.162600894288, -13471.23992100238, -1320.2057862527117, -6620.296134984033, 4526.697638833241, -36849.44353693051, -187500.02235174447, -0.112, 0.969, 0.171, 192.0, 0.0, 0.0, 0.0, 0.0, 0.0, 0.0, 0.0, 0.0, 0.0, 1.744825055893832E9, 0.0, 2025-04-16 12:37:35.893
186.0, -1311.6227163818737, 2459.720070328721, 21256.553680485926, 9251.811713196244, -4805.446243935376, -3261.8571235963254, -24738.0390451001, 22521.55065793403, 2459.720070328721, 26657.40569322177, -13464.690859876975, -1314.6402018833403, -6623.715951885695, 4530.117455734904, -36845.68844386202, -187500.02235174447, -0.112, 0.969, 0.171, 192.0, 0.0, 0.0, 0.0, 0.0, 0.0, 0.0, 0.0, 0.0, 0.0, 1.744825055894073E9, 0.0, 2025-04-16 12:37:35.894
188.0, -1321.1222077753791, 2458.0213377501177, 21252.2174420616, 9235.226718810407, -4807.659066636452, -3269.5461236889514, -24739.760129423157, 22513.436974696753, 2467.4984773991678, 26732.976941225166, -13463.975604054405, -1304.5372133895414, -6612.875355824871, 4535.995964526649, -36844.48144966143, -187500.02235174447, -0.112, 0.969, 0.171, 192.0, 0.0, 0.0, 0.0, 0.0, 0.0, 0.0, 0.0, 0.0, 0.0, 1.744825055894309E9, 0.0, 2025-04-16 12:37:35.894
190.0, -1308.3817134358542, 2468.1466779883717, 21261.292250310453, 9251.141160862584, -4805.1556712574575, -3260.270149739999, -24729.344216506986, 22524.098756801934, 2462.20111396326, 26658.255059511073, -13464.892025577072, -1314.0590565275022, -6622.017219307091, 4524.7530370656295, -36842.514496149364, -187500.02235174447, -0.114, 0.9675, 0.1735, 192.0, 126.0, 48.0, 15.0, 24.0, 2.5, 64.0, 0.0, 0.0, 0.0, 1.744825055894538E9, 0.0, 2025-04-16 12:37:35.894
192.0, -1325.8607775999044, 2450.444096379769, 21252.97740137308, 9235.405532766048, -4800.99824678877, -3273.032995823979, -24727.13139380591, 22518.287303243556, 2466.112669242939, 26727.52311557807, -13461.673374375509, -1306.5712221349743, -6604.806376076505, 4537.828807571985, -36839.519362392355, -187500.02235174447, -0.114, 0.9675, 0.1735, 192.0, 0.0, 0.0, 0.0, 0.0, 0.0, 0.0, 0.0, 0.0, 0.0, 1.744825055894797E9, 0.0, 2025-04-16 12:37:35.894
194.0, -1320.742228119639, 2457.753116816654, 21255.8160729189, 9243.429809025503, -4812.352932972066, -3268.495591699552, -24732.04877758608, 22518.957855577213, 2453.4392301367798, 26656.221050765642, -13464.556749410243, -1323.066809542991, -6617.345704715933, 4523.769560309596, -36843.11799324966, -187500.02235174447, -0.114, 0.9675, 0.1735, 192.0, 0.0, 0.0, 0.0, 0.0, 0.0, 0.0, 0.0, 0.0, 0.0, 1.744825055895032E9, 0.0, 2025-04-16 12:37:35.895
196.0, -1317.970611807181, 2465.375061675914, 21253.87147115129, 9241.440503768981, -4806.362665458044, -3273.7706033910044, -24740.385978267906, 22512.252332240623, 2457.529599372101, 26724.662092287792, -13465.80844709974, -1310.7509983481168, -6616.228117493167, 4535.66068835982, -36847.45423167398, -187500.02235174447, -0.114, 0.9675, 0.1735, 192.0, 0.0, 0.0, 0.0, 0.0, 0.0, 0.0, 0.0, 0.0, 0.0, 1.744825055953414E9, 0.0, 2025-04-16 12:37:35.953
198.0, -1307.9570302912034, 2468.683119855299, 21265.986116646065, 9253.845721941678, -4802.652275878462, -3255.486876426563, -24731.132356063412, 22524.27757075758, 2465.3080064425476, 26660.356123489873, -13453.738505093874, -1312.3156204599882, -6612.45067268022, 4532.844368558451, -36839.34054843671, -187500.02235174447, -0.114, 0.9675, 0.1735, 192.0, 0.0, 0.0, 0.0, 0.0, 0.0, 0.0, 0.0, 0.0, 0.0, 1.744825055953695E9, 0.0, 2025-04-16 12:37:35.953
200.0, -1313.2767454715665, 2448.879474267897, 21257.850081664335, 9246.87197767162, -4796.952581042359, -3271.1107458008228, -24736.340312521497, 22513.302864230023, 2469.040747766584, 26716.39194683933, -13453.13500799358, -1306.6382773683404, -6605.298114454522, 4542.053287274038, -36837.99944376939, -187500.02235174447, -0.115, 0.96875, 0.17375000000000002, 192.0, 126.0, 48.0, 15.0, 40.0, 2.5, 56.0, 0.0, 0.0, 0.0, 1.744825055953955E9, 0.0, 2025-04-16 12:37:35.953
202.0, -1321.770408364583, 2444.275014910104, 21248.529404226472, 9230.73401817489, -4818.454959208365, -3271.9154086012136, -24750.42191152834, 22505.88208507086, 2451.2934626690703, 26647.101539027877, -13467.417772700523, -1335.6955451602394, -6621.659591395806, 4509.240926413647, -36849.97997879743, -187500.02235174447, -0.115, 0.96875, 0.17375000000000002, 192.0, 0.0, 0.0, 0.0, 0.0, 0.0, 0.0, 0.0, 0.0, 0.0, 1.744825055954215E9, 0.0, 2025-04-16 12:37:35.954
204.0, -1319.2223094966782, 2451.561683602534, 21250.026971104977, 9239.741771190378, -4799.433624676898, -3272.6977196571497, -24748.65612371637, 22506.060899026503, 2462.9610732747406, 26704.47846704465, -13464.3779354546, -1323.5361961765525, -6608.986152289647, 4530.631545857375, -36849.33177820823, -187500.02235174447, -0.115, 0.96875, 0.17375000000000002, 192.0, 0.0, 0.0, 0.0, 0.0, 0.0, 0.0, 0.0, 0.0, 0.0, 1.744825055954457E9, 0.0, 2025-04-16 12:37:35.954
206.0, -1323.5585479210076, 2454.757983059643, 21251.256317050018, 9233.863262398632, -4819.170215030935, -3268.4732399550967, -24745.1916033258, 22502.104640257912, 2455.786163304587, 26663.239498524606, -13471.552845424754, -1339.0483068285355, -6617.904498327315, 4510.582031080965, -36853.690368377014, -187500.02235174447, -0.115, 0.96875, 0.17375000000000002, 192.0, 0.0, 0.0, 0.0, 0.0, 0.0, 0.0, 0.0, 0.0, 0.0, 1.744825055954694E9, 0.0, 2025-04-16 12:37:35.954
208.0, -1309.2087279807006, 2456.8590470384415, 21260.82286367689, 9251.856416685154, -4790.001188516759, -3262.974710819091, -24738.84370790049, 22513.59343690794, 2470.20303847826, 26698.443496041717, -13453.604394627142, -1314.0590565275022, -6600.403082418809, 4541.360383195923, -36839.63112111463, -187500.02235174447, -0.115, 0.96875, 0.17375000000000002, 192.0, 0.0, 0.0, 0.0, 0.0, 0.0, 0.0, 0.0, 0.0, 0.0, 1.744825055954929E9, 0.0, 2025-04-16 12:37:35.954
210.0, -1319.6022891524183, 2456.7472883161654, 21251.882165894767, 9233.7291519319, -4813.4928719392865, -3266.908617843225, -24742.37528352443, 22497.723698344675, 2452.2098841917377, 26664.312382258464, -13459.61701388562, -1330.8005131245272, -6608.78498658955, 4520.014467241105, -36845.934313051024, -187500.02235174447, -0.1155, 0.967375, 0.174875, 192.0, 126.0, 48.0, 15.0, 24.0, 2.5, 64.0, 0.0, 0.0, 0.0, 1.744825056013746E9, 0.0, 2025-04-16 12:37:36.013
212.0, -1312.7850070935497, 2457.3507854164586, 21253.44678800664, 9251.990527151887, -4794.248019963267, -3266.5062864430292, -24733.300475275573, 22504.943311803738, 2462.111706985439, 26687.24527206961, -13456.107790006137, -1316.0036582951138, -6610.3719604458765, 4538.23113897218, -36844.05676651678, -187500.02235174447, -0.1155, 0.967375, 0.174875, 192.0, 0.0, 0.0, 0.0, 0.0, 0.0, 0.0, 0.0, 0.0, 0.0, 1.744825056014051E9, 0.0, 2025-04-16 12:37:36.014
214.0, -1327.0677718004908, 2450.7123173132322, 21247.568279214895, 9230.286983285783, -4814.878680095516, -3271.8707051123033, -24748.007923127167, 22488.3583174179, 2447.0242794781066, 26676.80700740898, -13465.517874421821, -1336.254338771622, -6615.937544815248, 4513.085426459959, -36849.376481697145, -187500.02235174447, -0.1155, 0.967375, 0.174875, 192.0, 0.0, 0.0, 0.0, 0.0, 0.0, 0.0, 0.0, 0.0, 0.0, 1.744825056014296E9, 0.0, 2025-04-16 12:37:36.014
216.0, -1302.5255563885637, 2460.882361040397, 21263.102741611332, 9260.327727833715, -4787.56484837113, -3255.5092281710185, -24728.673664173326, 22513.4146229523, 2454.8697417819194, 26680.025658610542, -13455.928976050494, -1321.256318242111, -6608.762634845095, 4533.403162169834, -36842.0451095158, -187500.02235174447, -0.1155, 0.967375, 0.174875, 192.0, 0.0, 0.0, 0.0, 0.0, 0.0, 0.0, 0.0, 0.0, 0.0, 1.744825056014541E9, 0.0, 2025-04-16 12:37:36.014
218.0, -1312.360323948899, 2458.3566139169475, 21259.235889820564, 9240.50173050186, -4802.026427033714, -3262.7064898856274, -24724.963274593745, 22502.708137358208, 2462.0223000076176, 26698.108219874888, -13445.244842200857, -1314.5954983944296, -6590.367149158376, 4535.861854059917, -36829.52813262083, -187500.02235174447, -0.1155, 0.967375, 0.174875, 192.0, 0.0, 0.0, 0.0, 0.0, 0.0, 0.0, 0.0, 0.0, 0.0, 1.744825056014775E9, 0.0, 2025-04-16 12:37:36.014
220.0, -1314.8860710723486, 2452.8357330364865, 21248.06001759291, 9248.615413739135, -4807.167328258434, -3270.5296004449847, -24744.9904376257, 22496.78492507755, 2449.43826787928, 26677.388152764815, -13461.718077864418, -1323.066809542991, -6607.890916811338, 4532.2632232026135, -36850.38231019763, -187500.02235174447, -0.11675, 0.9656875, 0.1764375, 192.0, 126.0, 40.0, 15.0, 16.0, 2.5, 72.0, 0.0, 0.0, 0.0, 1.744825056015014E9, 0.0, 2025-04-16 12:37:36.015
222.0, -1325.8160741109937, 2446.890169011375, 21244.17081405769, 9224.58728844968, -4818.946697586382, -3275.290522013965, -24731.84761188598, 22486.68193658375, 2444.9679189882186, 26708.01004266859, -13465.249653488358, -1335.6508416713289, -6613.054169780514, 4519.567432351999, -36853.355092210186, -187500.02235174447, -0.11675, 0.9656875, 0.1764375, 192.0, 0.0, 0.0, 0.0, 0.0, 0.0, 0.0, 0.0, 0.0, 0.0, 1.744825056015287E9, 0.0, 2025-04-16 12:37:36.015
224.0, -1304.224288967167, 2462.469334896724, 21259.749979943037, 9256.840855698689, -4796.773767086717, -3261.4324404516747, -24720.38116698041, 22508.63134963886, 2446.689003311277, 26671.04025733951, -13455.61605162812, -1318.8199780964826, -6607.220364477678, 4534.811322070518, -36841.15103973759, -187500.02235174447, -0.11675, 0.9656875, 0.1764375, 192.0, 0.0, 0.0, 0.0, 0.0, 0.0, 0.0, 0.0, 0.0, 0.0, 1.744825056015531E9, 0.0, 2025-04-16 12:37:36.015
226.0, -1335.4943794601418, 2443.9620904877297, 21239.901630866723, 9221.279230270295, -4818.253793508267, -3285.706434930138, -24741.212992812754, 22481.16105570329, 2440.989308475174, 26718.71652826268, -13460.287566219278, -1321.904518831315, -6605.365169687888, 4533.783141825574, -36845.08494676172, -187500.02235174447, -0.11675, 0.9656875, 0.1764375, 192.0, 0.0, 0.0, 0.0, 0.0, 0.0, 0.0, 0.0, 0.0, 0.0, 1.744825056075353E9, 0.0, 2025-04-16 12:37:36.075
228.0, -1315.0201815390803, 2459.0718697395173, 21246.517747225495, 9244.860320670643, -4805.937982313393, -3271.1778010341886, -24739.402501511875, 22499.735355345652, 2431.3557066149365, 26661.89839385729, -13469.407077957045, -1327.4924549451418, -6620.631411150863, 4529.491606890155, -36861.53583068083, -187500.02235174447, -0.11675, 0.9656875, 0.1764375, 192.0, 0.0, 0.0, 0.0, 0.0, 0.0, 0.0, 0.0, 0.0, 0.0, 1.744825056078034E9, 0.0, 2025-04-16 12:37:36.078
230.0, -1323.1338647763569, 2450.7123173132322, 21247.992962359545, 9226.01780009482, -4803.85927007905, -3273.7706033910044, -24736.74264392169, 22493.25334945361, 2443.2244829207043, 26717.04014742853, -13464.04265928777, -1321.7257048756726, -6610.148443001323, 4533.201996469736, -36853.6009613992, -187500.02235174447, -0.11937500000000001, 0.96584375, 0.17621874999999998, 192.0, 126.0, 24.0, 15.0, 24.0, 2.5, 64.0, 0.0, 0.0, 0.0, 1.744825056078278E9, 0.0, 2025-04-16 12:37:36.078
232.0, -1304.8501378119156, 2459.9882912621847, 21260.554642743427, 9247.207253838451, -4795.030331019203, -3264.4499259531412, -24729.65714092936, 22506.440878682242, 2451.405221391347, 26651.303666985474, -13445.513063134322, -1317.2777077290664, -6603.085291753447, 4534.744266837152, -36839.47465890344, -187500.02235174447, -0.11937500000000001, 0.96584375, 0.17621874999999998, 192.0, 0.0, 0.0, 0.0, 0.0, 0.0, 0.0, 0.0, 0.0, 0.0, 1.744825056078525E9, 0.0, 2025-04-16 12:37:36.078
234.0, -1326.1737020222786, 2448.857122523442, 21248.64116294875, 9219.87107036961, -4806.4520724358645, -3280.3643680053196, -24743.269353302643, 22491.241692452633, 2443.0903724539726, 26719.945874207722, -13452.933842293483, -1321.0775042864686, -6601.386559174844, 4531.749133080141, -36847.00719678488, -187500.02235174447, -0.11937500000000001, 0.96584375, 0.17621874999999998, 192.0, 0.0, 0.0, 0.0, 0.0, 0.0, 0.0, 0.0, 0.0, 0.0, 1.744825056078765E9, 0.0, 2025-04-16 12:37:36.078
236.0, -1317.3447629624322, 2458.4013174058578, 21248.551755970926, 9238.288907800783, -4807.726121869818, -3268.9426265886577, -24746.0409696151, 22500.048279768023, 2433.859101993931, 26653.829414108925, -13452.598566126653, -1324.9443560772368, -6608.248544722623, 4525.892976032851, -36847.7448043519, -187500.02235174447, -0.11937500000000001, 0.96584375, 0.17621874999999998, 192.0, 0.0, 0.0, 0.0, 0.0, 0.0, 0.0, 0.0, 0.0, 0.0, 1.744825056079001E9, 0.0, 2025-04-16 12:37:36.079
238.0, -1331.73928639165, 2441.5033985976456, 21240.080444822364, 9225.011971594331, -4805.535650913197, -3276.8327923813813, -24740.877716645922, 22492.22516920867, 2432.7415147711654, 26725.176182410265, -13460.399324941556, -1324.5643764214965, -6601.006579519103, 4531.525615635588, -36851.79047009831, -187500.02235174447, -0.11937500000000001, 0.96584375, 0.17621874999999998, 192.0, 0.0, 0.0, 0.0, 0.0, 0.0, 0.0, 0.0, 0.0, 0.0, 1.74482505607925E9, 0.0, 2025-04-16 12:37:36.079
240.0, -1325.7713706220832, 2447.560721345034, 21246.58480245886, 9234.042076354275, -4808.1508050144685, -3269.6578824112275, -24737.100271832976, 22492.426334908767, 2418.6822675087774, 26646.69920762768, -13465.115543021626, -1339.227120784178, -6615.602268648418, 4513.979496238172, -36854.09269977721, -187500.02235174447, -0.1206875, 0.967921875, 0.179109375, 192.0, 126.0, 24.0, 15.0, 40.0, 2.5, 88.0, 0.0, 0.0, 0.0, 1.744825056132917E9, 0.0, 2025-04-16 12:37:36.132
242.0, -1325.8607775999044, 2448.521846356612, 21250.764578672002, 9232.432750753493, -4794.337426941089, -3274.0164725800128, -24725.45501297176, 22490.54878837452, 2427.5782618019894, 26719.409432340795, -13461.38280169759, -1329.8840916018596, -6605.655742365807, 4526.809397555518, -36845.97901653994, -187500.02235174447, -0.1206875, 0.967921875, 0.179109375, 192.0, 0.0, 0.0, 0.0, 0.0, 0.0, 0.0, 0.0, 0.0, 0.0, 1.744825056133213E9, 0.0, 2025-04-16 12:37:36.133
244.0, -1309.2087279807006, 2468.39254717738, 21259.59351773185, 9248.92833816151, -4803.814566590138, -3262.5053241855294, -24736.250905543675, 22497.254311711113, 2430.7969130035535, 26662.256021768575, -13445.75893232333, -1325.5255014330749, -6604.426396420765, 4527.211728955714, -36835.160772223564, -187500.02235174447, -0.1206875, 0.967921875, 0.179109375, 192.0, 0.0, 0.0, 0.0, 0.0, 0.0, 0.0, 0.0, 0.0, 0.0, 1.744825056133474E9, 0.0, 2025-04-16 12:37:36.133
246.0, -1297.675227841762, 2475.075718769517, 21267.617793991303, 9256.505579531859, -4787.028406504203, -3256.0233182934903, -24730.99824559668, 22502.417564680287, 2439.7376107856767, 26737.804918027512, -13440.282754931779, -1307.8005680800163, -6599.1066812404015, 4549.585825155476, -36840.32402519274, -187500.02235174447, -0.1206875, 0.967921875, 0.179109375, 192.0, 0.0, 0.0, 0.0, 0.0, 0.0, 0.0, 0.0, 0.0, 0.0, 1.74482505613372E9, 0.0, 2025-04-16 12:37:36.133
248.0, -1301.1173964878794, 2476.819154837031, 21263.549776500437, 9256.505579531859, -4802.138185755991, -3257.6326438942724, -24729.65714092936, 22500.27179721258, 2449.2147504347267, 26681.85850165588, -13428.078702459181, -1308.001733780114, -6597.117375983879, 4546.344822209457, -36835.65251060158, -187500.02235174447, -0.1206875, 0.967921875, 0.179109375, 192.0, 0.0, 0.0, 0.0, 0.0, 0.0, 0.0, 0.0, 0.0, 0.0, 1.744825056133961E9, 0.0, 2025-04-16 12:37:36.133
250.0, -1306.7276843461616, 2465.7997448205647, 21262.320430555395, 9258.472533043925, -4781.462822134831, -3262.55002767444, -24724.04685307108, 22505.2115327372, 2443.24683466516, 26741.761176796103, -13433.80074903974, -1300.2233267096672, -6592.915248026282, 4557.006604314638, -36837.686519347015, -187500.02235174447, -0.1206875, 0.967921875, 0.179109375, 192.0, 0.0, 0.0, 0.0, 0.0, 0.0, 0.0, 0.0, 0.0, 0.0, 1.744825056134212E9, 0.0, 2025-04-16 12:37:36.134
252.0, -1327.9171380897926, 2451.5169801136235, 21252.306849039418, 9242.558090991746, -4806.4520724358645, -3265.9251410871916, -24739.60366721197, 22497.276663455566, 2428.628793791389, 26682.23848131162, -13439.388685153566, -1317.903556573815, -6599.464309151686, 4534.096066247948, -36838.35707168068, -187500.02235174447, -0.12, 0.972, 0.182, 192.0, 126.0, 32.0, 15.0, 48.0, 2.5, 88.0, 0.0, 0.0, 0.0, 1.744825056134447E9, 0.0, 2025-04-16 12:37:36.134
254.0, -1324.3408589769435, 2448.790067290076, 21251.122206583288, 9249.420076539525, -4797.064339764636, -3269.3002544999426, -24743.783443425113, 22497.276663455566, 2420.470407065202, 26717.151906150808, -13452.911490549028, -1318.2388327406447, -6607.466233666687, 4538.588766883465, -36847.67774911854, -187500.02235174447, -0.12, 0.972, 0.182, 192.0, 0.0, 0.0, 0.0, 0.0, 0.0, 0.0, 0.0, 0.0, 0.0, 1.744825056134692E9, 0.0, 2025-04-16 12:37:36.134
0.0, -1337.9307196057703, 2446.398430633358, 21243.209689046107, 9234.10913158764, -4821.919479598937, -3272.1165743013116, -24756.345123808995, 22482.949195259716, 2416.33533434097, 26679.399809765793, -13452.598566126653, -1329.5935189239406, -6612.204803491212, 4527.256432444624, -36848.86239157467, -187500.02235174447, -0.12, 0.972, 0.182, 192.0, 0.0, 0.0, 0.0, 0.0, 0.0, 0.0, 0.0, 0.0, 0.0, 1.744825056193186E9, 0.0, 2025-04-16 12:37:36.193
2.0, -1324.229100254667, 2454.8473900374643, 21252.485662995063, 9253.801018452767, -4804.909802068449, -3267.3109492434205, -24742.285876546608, 22494.750916332116, 2413.4072558173248, 26707.540656035027, -13459.61701388562, -1324.9220043327814, -6614.909364570304, 4533.224348214191, -36856.12670852264, -187500.02235174447, -0.12, 0.972, 0.182, 192.0, 0.0, 0.0, 0.0, 0.0, 0.0, 0.0, 0.0, 0.0, 0.0, 1.744825056193458E9, 0.0, 2025-04-16 12:37:36.193
4.0, -1343.161027808312, 2443.4256486208023, 21244.64020069125, 9233.527986231802, -4822.05359006567, -3275.625798180795, -24747.42677777133, 22483.21741619318, 2424.0913896669617, 26692.274414572054, -13446.384781168079, -1323.7820653655608, -6601.252448708111, 4533.291403447557, -36839.47465890344, -187500.02235174447, -0.12, 0.972, 0.182, 192.0, 0.0, 0.0, 0.0, 0.0, 0.0, 0.0, 0.0, 0.0, 0.0, 1.744825056193706E9, 0.0, 2025-04-16 12:37:36.193
6.0, -1326.6207369113847, 2447.136038200383, 21250.451654249628, 9249.531835261803, -4805.1556712574575, -3272.2059812791326, -24741.414158512853, 22492.739259331138, 2414.4354360622688, 26699.315214075472, -13460.175807497002, -1328.4312282122646, -6608.986152289647, 4529.13397897887, -36854.22681024394, -187500.02235174447, -0.11800000000000001, 0.964, 0.18, 192.0, 126.0, 40.0, 15.0, 16.0, 2.5, 80.0, 0.0, 0.0, 0.0, 1.744825056193946E9, 0.0, 2025-04-16 12:37:36.193
8.0, -1348.6819086887729, 2436.049572950551, 21243.09793032383, 9229.437616996482, -4818.164386530446, -3275.7599086475266, -24747.873812660437, 22482.323346414967, 2409.205127859727, 26706.221903112164, -13455.99603128386, -1329.0123735681027, -6597.229134706156, 4527.412894655811, -36843.430917672034, -187500.02235174447, -0.11800000000000001, 0.964, 0.18, 192.0, 0.0, 0.0, 0.0, 0.0, 0.0, 0.0, 0.0, 0.0, 0.0, 1.744825056194196E9, 0.0, 2025-04-16 12:37:36.194
10.0, -1329.5711671794854, 2445.4149538773245, 21257.805378175424, 9256.036192898297, -4793.041025762681, -3266.8862660987697, -24743.090539347, 22498.751878589617, 2413.3178488395038, 26689.972184893155, -13452.933842293483, -1324.7208386326836, -6605.543983643531, 4533.917252292305, -36848.28124621883, -187500.02235174447, -0.11800000000000001, 0.964, 0.18, 192.0, 0.0, 0.0, 0.0, 0.0, 0.0, 0.0, 0.0, 0.0, 0.0, 1.744825056194445E9, 0.0, 2025-04-16 12:37:36.194
12.0, -1347.2961005325437, 2430.573395559001, 21245.981305358568, 9227.001276850853, -4810.877717838016, -3281.5713622059066, -24749.483138261217, 22483.41858189328, 2410.434473804769, 26706.46777230117, -13446.943574779461, -1329.6382224128513, -6600.82776556346, 4525.80356905503, -36841.55337113779, -187500.02235174447, -0.11800000000000001, 0.964, 0.18, 192.0, 0.0, 0.0, 0.0, 0.0, 0.0, 0.0, 0.0, 0.0, 0.0, 1.744825056194692E9, 0.0, 2025-04-16 12:37:36.194
14.0, -1321.457483942209, 2457.328433672003, 21261.314602054907, 9259.411306311049, -4790.984665272792, -3262.88530384127, -24745.973914381735, 22501.367032690887, 2420.5151105541127, 26682.52905398954, -13436.527661863287, -1315.1766437502677, -6594.278704438056, 4534.341935436957, -36842.13451649362, -187500.02235174447, -0.11800000000000001, 0.964, 0.18, 192.0, 0.0, 0.0, 0.0, 0.0, 0.0, 0.0, 0.0, 0.0, 0.0, 1.74482505625332E9, 0.0, 2025-04-16 12:37:36.253
16.0, -1334.8908823598483, 2452.791029547576, 21260.085256109865, 9242.35692529165, -4801.646447377974, -3263.1535247747333, -24734.12748982042, 22498.483657656154, 2410.792101716054, 26720.34820560792, -13442.272060188301, -1318.2835362295552, -6596.178602716756, 4532.1514644803365, -36844.30263570579, -187500.02235174447, -0.114, 0.962, 0.18, 192.0, 126.0, 56.0, 15.0, 8.0, 2.5, 80.0, 0.0, 0.0, 0.0, 1.744825056253605E9, 0.0, 2025-04-16 12:37:36.253
18.0, -1322.485664187153, 2456.1214394714166, 21265.36026780132, 9268.128486648618, -4790.358816428044, -3248.781353089971, -24725.678530416317, 22517.84026835445, 2416.2235756186933, 26694.554292506495, -13428.838661770662, -1298.614001108885, -6592.155288714802, 4552.625662401398, -36826.82357154174, -187500.02235174447, -0.114, 0.962, 0.18, 192.0, 0.0, 0.0, 0.0, 0.0, 0.0, 0.0, 0.0, 0.0, 0.0, 1.744825056253861E9, 0.0, 2025-04-16 12:37:36.253
20.0, -1352.392298268354, 2428.7629042581207, 21246.83067164787, 9227.78358790679, -4813.71638938384, -3272.4965539570517, -24740.162460823354, 22490.39232616333, 2399.1021393659285, 26732.9098859918, -13447.122388735103, -1318.6411641408401, -6600.201916718712, 4535.571281381998, -36841.03928101531, -187500.02235174447, -0.114, 0.962, 0.18, 192.0, 0.0, 0.0, 0.0, 0.0, 0.0, 0.0, 0.0, 0.0, 0.0, 1.744825056254088E9, 0.0, 2025-04-16 12:37:36.254
22.0, -1331.6498794138288, 2442.263357909126, 21259.749979943037, 9255.767971964833, -4801.892316566982, -3258.996100306046, -24738.441376500294, 22503.60220713642, 2395.1235288528837, 26668.76037940507, -13445.75893232333, -1325.0114113106026, -6608.114434255891, 4526.272955688591, -36845.15200199509, -187500.02235174447, -0.114, 0.962, 0.18, 192.0, 0.0, 0.0, 0.0, 0.0, 0.0, 0.0, 0.0, 0.0, 0.0, 1.744825056254321E9, 0.0, 2025-04-16 12:37:36.254
24.0, -1361.8247344284935, 2430.2828228810818, 21248.082369337364, 9226.911869873033, -4810.698903882373, -3277.2127720371213, -24752.075940618033, 22482.613919092884, 2394.2294590746715, 26737.62610407187, -13452.799731826752, -1321.457483942209, -6605.253410965612, 4527.167025466803, -36848.01302528537, -187500.02235174447, -0.114, 0.962, 0.18, 192.0, 0.0, 0.0, 0.0, 0.0, 0.0, 0.0, 0.0, 0.0, 0.0, 1.744825056254573E9, 0.0, 2025-04-16 12:37:36.254
26.0, -1337.0142980831026, 2448.432439378791, 21262.789817188957, 9257.220835354428, -4795.2985519526665, -3256.492704927052, -24739.80483291207, 22505.323291459477, 2396.531688753568, 26673.47659748514, -13448.999935269348, -1317.2777077290664, -6606.460405166198, 4527.837577800462, -36839.944045537006, -187500.02235174447, -0.114, 0.972, 0.182, 192.0, 126.0, 56.0, 15.0, 48.0, 2.5, 88.0, 0.0, 0.0, 0.0, 1.744825056254813E9, 0.0, 2025-04-16 12:37:36.254
28.0, -1350.0900685894571, 2439.6035003189445, 21252.619773461793, 9238.06539035623, -4797.6454851204735, -3265.9251410871916, -24748.07497836053, 22495.1085442434, 2409.8309767044757, 26745.225697186674, -13453.604394627142, -1313.7684838495832, -6598.190259717734, 4532.4196854138, -36840.94987403749, -187500.02235174447, -0.114, 0.972, 0.182, 192.0, 0.0, 0.0, 0.0, 0.0, 0.0, 0.0, 0.0, 0.0, 0.0, 1.744825056255066E9, 0.0, 2025-04-16 12:37:36.255
30.0, -1326.2631090000998, 2462.6705005968215, 21268.176587602688, 9260.93122493401, -4791.141127483979, -3244.4674664100967, -24740.341274778995, 22514.2639892416, 2415.8435959629533, 26674.929460874733, -13444.551938122742, -1310.2592599701, -6596.4021201613095, 4529.066923745504, -36834.691385590006, -187500.02235174447, -0.114, 0.972, 0.182, 192.0, 0.0, 0.0, 0.0, 0.0, 0.0, 0.0, 0.0, 0.0, 0.0, 1.744825056313658E9, 0.0, 2025-04-16 12:37:36.313
32.0, -1336.969594594192, 2451.6287388358996, 21260.82286367689, 9251.252919584862, -4781.507525623742, -3254.145771759245, -24740.251867801177, 22506.709099615706, 2439.2905758965703, 26752.9146972793, -13435.432426384978, -1290.96970450517, -6584.108660710891, 4546.769505354107, -36825.12483896314, -187500.02235174447, -0.114, 0.972, 0.182, 192.0, 0.0, 0.0, 0.0, 0.0, 0.0, 0.0, 0.0, 0.0, 0.0, 1.744825056313944E9, 0.0, 2025-04-16 12:37:36.313
34.0, -1336.746077149639, 2458.1330964723943, 21257.470102008596, 9260.26067260035, -4796.214973475334, -3246.948510044636, -24748.186737082808, 22507.290244971544, 2426.1701019013053, 26676.71760043116, -13445.46835964541, -1304.7383790896392, -6597.072672494969, 4527.5693568669985, -36827.96351050896, -187500.02235174447, -0.114, 0.972, 0.182, 192.0, 0.0, 0.0, 0.0, 0.0, 0.0, 0.0, 0.0, 0.0, 0.0, 1.744825056314187E9, 0.0, 2025-04-16 12:37:36.314
36.0, -1339.2047690397226, 2452.1651807028275, 21252.619773461793, 9256.72909697641, -4787.296627437667, -3254.458696181619, -24746.8903359044, 22504.898608314827, 2444.275014910104, 26746.700912320724, -13439.455740386933, -1289.1815649487455, -6586.410890389788, 4547.127133265392, -36824.65545232957, -187500.02235174447, -0.112, 0.97, 0.18, 192.0, 126.0, 64.0, 15.0, 40.0, 2.5, 80.0, 0.0, 0.0, 0.0, 1.74482505631443E9, 0.0, 2025-04-16 12:37:36.314
38.0, -1341.6858126742618, 2450.19822719076, 21245.266049535996, 9253.97983240841, -4805.669761379929, -3250.9494723021357, -24756.74745520919, 22504.473925170176, 2441.1234189419056, 26671.1967195507, -13451.838606815172, -1311.9579925487033, -6602.459442908698, 4522.361400408912, -36830.53396112132, -187500.02235174447, -0.112, 0.97, 0.18, 192.0, 0.0, 0.0, 0.0, 0.0, 0.0, 0.0, 0.0, 0.0, 0.0, 1.744825056314686E9, 0.0, 2025-04-16 12:37:36.314
40.0, -1332.7004114032284, 2452.4781051252016, 21250.228136805075, 9256.416172554038, -4792.2810664512, -3254.190475248155, -24744.85632715897, 22509.63717813935, 2464.458640153246, 26737.916676749788, -13453.604394627142, -1302.5255563885637, -6595.329236427455, 4535.839502315463, -36831.271568688346, -187500.02235174447, -0.112, 0.97, 0.18, 192.0, 0.0, 0.0, 0.0, 0.0, 0.0, 0.0, 0.0, 0.0, 0.0, 1.744825056314936E9, 0.0, 2025-04-16 12:37:36.314
42.0, -1333.2592050146109, 2455.339128415481, 21248.574107715383, 9256.237358598395, -4806.42972069141, -3251.195341491144, -24754.780501697125, 22509.726585117172, 2479.9707508052293, 26692.721449461158, -13442.80850205523, -1297.2058412082006, -6590.434204391743, 4531.905595291329, -36821.28033891682, -187500.02235174447, -0.112, 0.97, 0.18, 192.0, 0.0, 0.0, 0.0, 0.0, 0.0, 0.0, 0.0, 0.0, 0.0, 1.74482505631516E9, 0.0, 2025-04-16 12:37:36.315
44.0, -1323.9832310656586, 2449.9970614906624, 21248.73056992657, 9264.708669746957, -4786.80488905965, -3256.3809462047752, -24736.072091588034, 22511.73824211815, 2483.5023264291676, 26744.82336578648, -13448.083513746682, -1283.8171462794717, -6593.54109687103, 4540.80158958454, -36828.56700760925, -187500.02235174447, -0.112, 0.97, 0.18, 192.0, 0.0, 0.0, 0.0, 0.0, 0.0, 0.0, 0.0, 0.0, 0.0, 1.744825056373901E9, 0.0, 2025-04-16 12:37:36.373
46.0, -1327.7383241341502, 2453.327471414503, 21243.612020446304, 9250.180035851006, -4802.562868900642, -3258.1243822722895, -24734.99920785418, 22504.49627691463, 2491.884230599908, 26698.734068719634, -13435.387722896066, -1283.6606840682846, -6590.1212799693685, 4527.502301633633, -36816.362955136654, -187500.02235174447, -0.116, 0.964, 0.178, 192.0, 126.0, 48.0, 15.0, 16.0, 2.5, 72.0, 0.0, 0.0, 0.0, 1.7448250563742E9, 0.0, 2025-04-16 12:37:36.374
48.0, -1313.0755797714687, 2456.1437912158717, 21240.594534944838, 9254.382163808605, -4788.3695111715215, -3261.320681729398, -24735.33448402101, 22507.580817649465, 2494.1864602788046, 26726.182010910754, -13445.75893232333, -1281.5149166005751, -6594.099890482413, 4530.5644906240095, -36833.1938187115, -187500.02235174447, -0.116, 0.964, 0.178, 192.0, 0.0, 0.0, 0.0, 0.0, 0.0, 0.0, 0.0, 0.0, 0.0, 1.744825056374457E9, 0.0, 2025-04-16 12:37:36.374
50.0, -1321.099856030924, 2460.6811953402994, 21243.612020446304, 9241.507559002348, -4804.976857301815, -3260.1360392732668, -24737.61436195545, 22498.88598905635, 2498.4109399808576, 26702.980900166145, -13440.819196798706, -1290.455614382698, -6590.791832303028, 4521.556737608521, -36827.33766166421, -187500.02235174447, -0.116, 0.964, 0.178, 192.0, 0.0, 0.0, 0.0, 0.0, 0.0, 0.0, 0.0, 0.0, 0.0, 1.744825056374687E9, 0.0, 2025-04-16 12:37:36.374
52.0, -1314.617850138885, 2456.367308660425, 21240.840404133847, 9257.310242332249, -4787.117813482024, -3260.4713154400965, -24735.669760187837, 22506.820858337982, 2511.039675598106, 26726.785508011046, -13438.382856653077, -1276.7316432871394, -6581.87348626536, 4541.5391971515655, -36824.85661802967, -187500.02235174447, -0.116, 0.964, 0.178, 192.0, 0.0, 0.0, 0.0, 0.0, 0.0, 0.0, 0.0, 0.0, 0.0, 1.744825056374927E9, 0.0, 2025-04-16 12:37:36.374
54.0, -1320.742228119639, 2467.1632012323385, 21232.234982518552, 9236.768989177823, -4811.950601571871, -3264.6957951421496, -24743.17994632482, 22493.432163409256, 2497.7627393916537, 26717.82245848447, -13452.24093821537, -1297.4070069082984, -6595.820974805471, 4518.136920706859, -36834.445516401, -187500.02235174447, -0.116, 0.964, 0.178, 192.0, 0.0, 0.0, 0.0, 0.0, 0.0, 0.0, 0.0, 0.0, 0.0, 1.74482505637518E9, 0.0, 2025-04-16 12:37:36.375
56.0, -1304.4031029228095, 2463.430459908302, 21246.942430370145, 9265.401573825071, -4787.2519239487565, -3249.250739723532, -24729.36656825144, 22513.83930609695, 2508.491576730201, 26729.08773768994, -13439.053408986738, -1279.8832392553377, -6589.763652058084, 4541.203920984736, -36831.942121022, -187500.02235174447, -0.116, 0.964, 0.182, 192.0, 126.0, 48.0, 15.0, 16.0, 2.5, 104.0, 0.0, 0.0, 0.0, 1.744825056375422E9, 0.0, 2025-04-16 12:37:36.375
58.0, -1320.742228119639, 2455.0932592264726, 21240.63923843375, 9237.01485836683, -4808.039046292191, -3257.722050872094, -24731.244114785688, 22501.769364091084, 2503.6412481833995, 26729.132441178852, -13445.960098023426, -1295.909440029793, -6590.903591025304, 4531.190339468759, -36825.48246687442, -187500.02235174447, -0.116, 0.964, 0.182, 192.0, 0.0, 0.0, 0.0, 0.0, 0.0, 0.0, 0.0, 0.0, 0.0, 1.744825056375695E9, 0.0, 2025-04-16 12:37:36.375
60.0, -1304.0454750115246, 2458.557779617045, 21254.87729965178, 9265.580387780714, -4790.448223405865, -3245.1603704882114, -24721.521105947628, 22518.711986388207, 2518.25928905717, 26713.620330526872, -13440.193347953958, -1283.9959602351141, -6587.863753779382, 4543.975537297194, -36823.94019650701, -187500.02235174447, -0.116, 0.964, 0.182, 192.0, 0.0, 0.0, 0.0, 0.0, 0.0, 0.0, 0.0, 0.0, 0.0, 1.744825056433815E9, 0.0, 2025-04-16 12:37:36.433
62.0, -1339.7188591621948, 2432.942680471263, 21230.312732495397, 9225.324896016706, -4820.757188887262, -3270.8648766118145, -24749.37137953894, 22493.387459920345, 2508.9386116193073, 26736.240295915642, -13449.536377136277, -1302.5702598774744, -6590.322445669466, 4524.350705665434, -36830.980996010425, -187500.02235174447, -0.116, 0.964, 0.182, 192.0, 0.0, 0.0, 0.0, 0.0, 0.0, 0.0, 0.0, 0.0, 0.0, 1.744825056434074E9, 0.0, 2025-04-16 12:37:36.434
64.0, -1324.877300843871, 2437.793009018065, 21237.10766280981, 9251.58819575169, -4807.18968000289, -3260.583074162373, -24743.582277725018, 22509.279550228068, 2491.1242712884273, 26680.740914433114, -13465.47317093291, -1316.4283414397648, -6612.853004080415, 4514.650048571832, -36850.02468228635, -187500.02235174447, -0.116, 0.964, 0.182, 192.0, 0.0, 0.0, 0.0, 0.0, 0.0, 0.0, 0.0, 0.0, 0.0, 1.744825056434299E9, 0.0, 2025-04-16 12:37:36.434
66.0, -1333.1697980367896, 2443.850331765453, 21236.95120059862, 9231.87395714211, -4808.687246881395, -3263.287635241465, -24733.32282702003, 22502.864599569395, 2501.361370248958, 26734.876839503868, -13456.621880128609, -1301.9220592882705, -6599.665474851785, 4526.854101044429, -36837.842981558206, -187500.02235174447, -0.115, 0.963, 0.182, 192.0, 126.0, 56.0, 15.0, 8.0, 2.5, 88.0, 0.0, 0.0, 0.0, 1.744825056434533E9, 0.0, 2025-04-16 12:37:36.434
68.0, -1322.552719420519, 2445.7949335330645, 21239.789872144447, 9249.800056195267, -4795.90204905296, -3257.2526642385324, -24729.903010118367, 22517.817916609994, 2499.4391202258016, 26684.205434823685, -13455.973679539406, -1299.1504429758124, -6599.777233574061, 4526.697638833241, -36837.418298413555, -187500.02235174447, -0.115, 0.963, 0.182, 192.0, 0.0, 0.0, 0.0, 0.0, 0.0, 0.0, 0.0, 0.0, 0.0, 1.744825056434781E9, 0.0, 2025-04-16 12:37:36.434
70.0, -1347.0502313435354, 2425.343087356459, 21228.47988945006, 9222.195651792963, -4810.117758526535, -3275.916370858714, -24724.493887960183, 22502.75284084712, 2495.661675412855, 26734.541563337036, -13465.964909310927, -1308.0464372690246, -6599.2184399626785, 4524.663630087809, -36845.174353739545, -187500.02235174447, -0.115, 0.963, 0.182, 192.0, 0.0, 0.0, 0.0, 0.0, 0.0, 0.0, 0.0, 0.0, 0.0, 1.744825056435024E9, 0.0, 2025-04-16 12:37:36.435
72.0, -1330.9569753357143, 2437.9941747181624, 21234.827784875368, 9240.747599690867, -4805.04391253518, -3267.869742854803, -24728.584257195504, 22513.16875376329, 2490.4090154658575, 26671.57669920644, -13467.931862822994, -1315.4895681726418, -6606.125128999368, 4514.851214271929, -36844.86142931717, -187500.02235174447, -0.115, 0.963, 0.182, 192.0, 0.0, 0.0, 0.0, 0.0, 0.0, 0.0, 0.0, 0.0, 0.0, 1.744825056435254E9, 0.0, 2025-04-16 12:37:36.435
74.0, -1347.6090249549181, 2424.6501832783442, 21225.39534871523, 9222.933259359987, -4807.56965965863, -3275.581094691884, -24738.66489394485, 22500.69648035723, 2495.9298963463184, 26737.58140058296, -13472.402211714056, -1314.6625536277954, -6600.760710330094, 4520.930888763773, -36845.71079560647, -187500.02235174447, -0.115, 0.963, 0.182, 192.0, 0.0, 0.0, 0.0, 0.0, 0.0, 0.0, 0.0, 0.0, 0.0, 1.744825056493193E9, 0.0, 2025-04-16 12:37:36.493
76.0, -1340.9258533627813, 2433.4791223381903, 21226.848212104826, 9237.953631633955, -4805.513299168742, -3266.1486585317443, -24728.539553706596, 22510.084213028458, 2480.686006627799, 26665.9440596037, -13476.514932693832, -1319.4681786856866, -6612.741245358139, 4513.4654061157, -36845.28611246182, -187500.02235174447, -0.1165, 0.9624999999999999, 0.181, 192.0, 126.0, 40.0, 15.0, 8.0, 2.5, 80.0, 0.0, 0.0, 0.0, 1.744825056493497E9, 0.0, 2025-04-16 12:37:36.493
78.0, -1341.3952399963428, 2435.9601659727296, 21229.128090039267, 9232.320992031217, -4792.392825173477, -3269.814344622415, -24724.918571104834, 22506.239712982144, 2494.6111434234554, 26741.62706632937, -13470.658775646541, -1307.286477957544, -6598.078500995458, 4530.542138879555, -36838.26766470286, -187500.02235174447, -0.1165, 0.9624999999999999, 0.181, 192.0, 0.0, 0.0, 0.0, 0.0, 0.0, 0.0, 0.0, 0.0, 0.0, 1.74482505649375E9, 0.0, 2025-04-16 12:37:36.493
80.0, -1333.326260247977, 2441.1234189419056, 21237.711159910104, 9242.35692529165, -4796.729063597806, -3262.259454996521, -24728.31603626204, 22512.60996015191, 2495.616971923944, 26665.765245648057, -13463.908548821038, -1317.9929635516362, -6605.119300498879, 4516.348781150435, -36836.501876890885, -187500.02235174447, -0.1165, 0.9624999999999999, 0.181, 192.0, 0.0, 0.0, 0.0, 0.0, 0.0, 0.0, 0.0, 0.0, 0.0, 1.744825056493993E9, 0.0, 2025-04-16 12:37:36.493
82.0, -1347.1396383213566, 2426.080694923484, 21229.44101446164, 9230.309335030239, -4793.979799029804, -3272.720071401605, -24728.092518817488, 22505.6138641374, 2502.948344105285, 26741.180031440264, -13463.685031376486, -1308.6052308804074, -6593.786966060039, 4529.044572001048, -36835.67486234604, -187500.02235174447, -0.1165, 0.9624999999999999, 0.181, 192.0, 0.0, 0.0, 0.0, 0.0, 0.0, 0.0, 0.0, 0.0, 0.0, 1.74482505649425E9, 0.0, 2025-04-16 12:37:36.494
84.0, -1332.029859069569, 2442.665689309322, 21241.555659956415, 9244.949727648465, -4798.003113031758, -3257.319719471898, -24726.058510072056, 22512.02881479607, 2496.4886899577014, 26671.956678862178, -13463.3274034652, -1315.8918995728375, -6603.197050475723, 4514.806510783018, -36833.350280922685, -187500.02235174447, -0.1165, 0.9624999999999999, 0.181, 192.0, 0.0, 0.0, 0.0, 0.0, 0.0, 0.0, 0.0, 0.0, 0.0, 1.74482505649449E9, 0.0, 2025-04-16 12:37:36.494
86.0, -1336.321394004988, 2435.468427594713, 21239.901630866723, 9239.719419445923, -4781.75339481275, -3269.523771944496, -24724.359777493453, 22511.291207229046, 2512.939573876807, 26751.014799000597, -13452.263289959823, -1291.1708702052679, -6583.549867099508, 4540.265147717613, -36825.52717036333, -187500.02235174447, -0.11625, 0.96025, 0.1785, 192.0, 126.0, 48.0, 14.5, 120.0, 2.5, 64.0, 0.0, 0.0, 0.0, 1.744825056494719E9, 0.0, 2025-04-16 12:37:36.494
88.0, -1347.4749144881862, 2425.991287945663, 21227.563467927394, 9224.944916360964, -4803.076959023114, -3280.900809872247, -24730.685321174304, 22500.294148957033, 2490.431367210313, 26681.679687700238, -13469.451781445954, -1321.3904287088428, -6605.87925981036, 4507.9668769796945, -36840.36872868166, -187500.02235174447, -0.11625, 0.96025, 0.1785, 192.0, 0.0, 0.0, 0.0, 0.0, 0.0, 0.0, 0.0, 0.0, 0.0, 1.744825056494976E9, 0.0, 2025-04-16 12:37:36.494
90.0, -1333.0133358256026, 2429.500511825146, 21236.325351753876, 9236.947803133466, -4780.94873201236, -3276.564571447918, -24722.12460304792, 22501.389384435344, 2498.634457425411, 26734.630970314858, -13470.748182624362, -1312.0250477820694, -6601.632428363851, 4524.127188220881, -36842.53684789382, -187500.02235174447, -0.11625, 0.96025, 0.1785, 192.0, 0.0, 0.0, 0.0, 0.0, 0.0, 0.0, 0.0, 0.0, 0.0, 1.744825056553368E9, 0.0, 2025-04-16 12:37:36.553
92.0, -1341.328184762977, 2429.3887531028695, 21233.956066841612, 9229.772893163312, -4802.719331111829, -3274.2176382801104, -24731.959370608256, 22499.713003601195, 2508.2457075411926, 26677.544614976003, -13461.829836586696, -1320.9433938197367, -6599.68782659624, 4515.141786949848, -36834.91490303456, -187500.02235174447, -0.11625, 0.96025, 0.1785, 192.0, 0.0, 0.0, 0.0, 0.0, 0.0, 0.0, 0.0, 0.0, 0.0, 1.744825056553623E9, 0.0, 2025-04-16 12:37:36.553
94.0, -1333.7956468815385, 2424.8737007228974, 21234.336046497352, 9239.026515367808, -4788.034235004692, -3278.93385636018, -24728.628960684415, 22502.708137358208, 2504.4459109837903, 26730.160621423798, -13459.125275507604, -1305.5653936344854, -6591.462384636687, 4530.497435390644, -36835.78662106831, -187500.02235174447, -0.11625, 0.96025, 0.1785, 192.0, 0.0, 0.0, 0.0, 0.0, 0.0, 0.0, 0.0, 0.0, 0.0, 1.744825056553869E9, 0.0, 2025-04-16 12:37:36.553
96.0, -1338.0201265835915, 2431.042782192562, 21232.592610429838, 9226.867166384121, -4808.955467814859, -3273.681196413183, -24736.9885131107, 22494.952082032214, 2490.6772363993214, 26692.47558027215, -13467.61893840062, -1329.2135392682003, -6602.884126053349, 4506.335199634457, -36843.67678686104, -187500.02235174447, -0.116125, 0.962125, 0.17625000000000002, 192.0, 126.0, 48.0, 15.0, 16.0, 2.5, 56.0, 0.0, 0.0, 0.0, 1.744825056554108E9, 0.0, 2025-04-16 12:37:36.554
98.0, -1308.1805477357564, 2451.8746080249084, 21252.798587417437, 9260.104210389163, -4773.505601108743, -3253.877550825781, -24715.530838433606, 22518.75668987712, 2513.945402377296, 26729.400662112315, -13446.384781168079, -1297.3175999304772, -6586.545000856519, 4539.214615728213, -36826.801219797286, -187500.02235174447, -0.116125, 0.962125, 0.17625000000000002, 192.0, 0.0, 0.0, 0.0, 0.0, 0.0, 0.0, 0.0, 0.0, 0.0, 1.744825056554364E9, 0.0, 2025-04-16 12:37:36.554
100.0, -1342.803399897027, 2424.694886767255, 21227.027026060467, 9226.263669283828, -4806.340313713588, -3275.1787632916885, -24736.072091588034, 22495.868503554884, 2503.6412481833995, 26703.338528077427, -13450.072819003204, -1312.4944344156306, -6592.1776404592565, 4521.623792841887, -36828.20937969797, -187500.02235174447, -0.116125, 0.962125, 0.17625000000000002, 192.0, 0.0, 0.0, 0.0, 0.0, 0.0, 0.0, 0.0, 0.0, 0.0, 1.744825056554631E9, 0.0, 2025-04-16 12:37:36.554
102.0, -1328.0736003009797, 2430.7075060257325, 21234.023122074977, 9244.189768336984, -4788.593028616075, -3264.584036419873, -24734.105138075967, 22507.737279860652, 2495.30404750157, 26703.874969944358, -13463.483865676388, -1317.5906321514408, -6603.889954553838, 4521.981420753172, -36841.396908926596, -187500.02235174447, -0.116125, 0.962125, 0.17625000000000002, 192.0, 0.0, 0.0, 0.0, 0.0, 0.0, 0.0, 0.0, 0.0, 0.0, 1.744825056554866E9, 0.0, 2025-04-16 12:37:36.554
104.0, -1347.7431354216499, 2423.9349274557744, 21226.1106045378, 9224.564936705225, -4805.04391253518, -3265.6792718981833, -24720.1352977914, 22501.165866990792, 2494.7676056346427, 26695.984804151634, -13466.166075011024, -1326.5089781891083, -6602.571201630974, 4512.213708426203, -36836.94891177999, -187500.02235174447, -0.116125, 0.962125, 0.17625000000000002, 192.0, 0.0, 0.0, 0.0, 0.0, 0.0, 0.0, 0.0, 0.0, 0.0, 1.744825056613701E9, 0.0, 2025-04-16 12:37:36.613
106.0, -1336.6343184273624, 2421.118607654406, 21229.798642372923, 9245.441466026481, -4791.319941439622, -3261.9912340630576, -24713.429774454806, 22514.711024130705, 2493.9405910897963, 26683.020792367555, -13463.439162187477, -1319.4681786856866, -6602.012408019592, 4523.769560309596, -36836.32306293524, -187500.02235174447, -0.11706250000000001, 0.9620625, 0.17512500000000003, 192.0, 126.0, 40.0, 15.0, 8.0, 2.5, 56.0, 0.0, 0.0, 0.0, 1.744825056613994E9, 0.0, 2025-04-16 12:37:36.613
108.0, -1351.2076558122226, 2423.018505933107, 21226.356473726806, 9218.48526221338, -4809.983648059803, -3264.159353275222, -24722.54928619257, 22500.987053035147, 2487.7268061312207, 26698.37644080835, -13472.111639036137, -1334.8685306153932, -6607.957972044704, 4504.524708333577, -36842.939179294015, -187500.02235174447, -0.11706250000000001, 0.9620625, 0.17512500000000003, 192.0, 0.0, 0.0, 0.0, 0.0, 0.0, 0.0, 0.0, 0.0, 0.0, 1.74482505661425E9, 0.0, 2025-04-16 12:37:36.614
110.0, -1333.9074056038148, 2436.2730903951037, 21238.672284921682, 9253.532797519303, -4785.575543114608, -3249.7871815904596, -24715.575541922517, 22521.327140489477, 2492.040692811095, 26675.577661463936, -13459.169978996513, -1314.9978297946252, -6601.386559174844, 4525.021257999094, -36833.75261232288, -187500.02235174447, -0.11706250000000001, 0.9620625, 0.17512500000000003, 192.0, 0.0, 0.0, 0.0, 0.0, 0.0, 0.0, 0.0, 0.0, 0.0, 1.744825056614481E9, 0.0, 2025-04-16 12:37:36.614
112.0, -1358.5613797380186, 2424.851348978442, 21224.233058003552, 9223.670866927012, -4801.467633422331, -3263.3993939637417, -24727.019635083634, 22505.904436815315, 2490.0290358101174, 26711.586321781437, -13466.501351177854, -1318.998792052125, -6601.855945808405, 4518.360438151412, -36837.28418794682, -187500.02235174447, -0.11706250000000001, 0.9620625, 0.17512500000000003, 192.0, 0.0, 0.0, 0.0, 0.0, 0.0, 0.0, 0.0, 0.0, 0.0, 1.744825056614725E9, 0.0, 2025-04-16 12:37:36.614
114.0, -1329.906443346315, 2447.9630527452296, 21239.476947722073, 9256.147951620575, -4784.346197169566, -3244.0874867543566, -24710.0323092976, 22525.79748938054, 2490.945457332785, 26672.8954521293, -13464.266176732324, -1310.0580942700024, -6603.733492342651, 4527.457598144722, -36835.2948826903, -187500.02235174447, -0.11706250000000001, 0.9620625, 0.17512500000000003, 192.0, 0.0, 0.0, 0.0, 0.0, 0.0, 0.0, 0.0, 0.0, 0.0, 1.74482505661496E9, 0.0, 2025-04-16 12:37:36.614
116.0, -1352.1464290793454, 2433.2556048936376, 21233.82195637488, 9235.763160677334, -4796.594953131074, -3255.106896770823, -24715.46378320024, 22511.53707641805, 2504.3341522615137, 26726.874914988868, -13458.208853984936, -1303.1067017444018, -6592.1776404592565, 4536.80062732704, -36827.76234480886, -187500.02235174447, -0.11853125, 0.9600312500000001, 0.1765625, 192.0, 126.0, 32.0, 14.5, 120.0, 2.5, 72.0, 0.0, 0.0, 0.0, 1.744825056615201E9, 0.0, 2025-04-16 12:37:36.615
118.0, -1336.1872835382562, 2442.1292474423944, 21240.572183200384, 9259.970099922431, -4791.945790284371, -3246.747344344538, -24715.955521578257, 22521.751823634128, 2492.443024211291, 26673.141321318308, -13462.18746449798, -1310.3710186923765, -6599.330198684955, 4532.1514644803365, -36836.25600770188, -187500.02235174447, -0.11853125, 0.9600312500000001, 0.1765625, 192.0, 0.0, 0.0, 0.0, 0.0, 0.0, 0.0, 0.0, 0.0, 0.0, 1.744825056615454E9, 0.0, 2025-04-16 12:37:36.615
120.0, -1352.191132568256, 2422.750284999643, 21229.932752839657, 9237.68541070049, -4799.567735143631, -3257.9232165721914, -24720.425870469317, 22510.240675239645, 2498.1650707918493, 26734.586266825947, -13459.795827841263, -1309.387541936343, -6592.490564881631, 4535.526577893088, -36836.72539433544, -187500.02235174447, -0.11853125, 0.9600312500000001, 0.1765625, 192.0, 0.0, 0.0, 0.0, 0.0, 0.0, 0.0, 0.0, 0.0, 0.0, 1.744825056674011E9, 0.0, 2025-04-16 12:37:36.674
122.0, -1344.9268156202813, 2435.1555031723387, 21231.25150576252, 9251.074105629219, -4798.137223498491, -3255.397469448742, -24734.149841564875, 22516.25329449812, 2496.1310620464164, 26670.12383581684, -13457.605356884642, -1309.9463355477258, -6601.610076619396, 4529.268089445602, -36835.585455368215, -187500.02235174447, -0.11853125, 0.9600312500000001, 0.1765625, 192.0, 0.0, 0.0, 0.0, 0.0, 0.0, 0.0, 0.0, 0.0, 0.0, 1.744825056674321E9, 0.0, 2025-04-16 12:37:36.674
124.0, -1358.0025861266358, 2421.073904165495, 21226.982322571555, 9231.44927399746, -4795.52206939722, -3268.0485568104455, -24723.13043154841, 22508.340776960944, 2495.3487509904803, 26740.330665150963, -13462.366278453623, -1305.5653936344854, -6598.167907973279, 4529.08927548996, -36839.60876937017, -187500.02235174447, -0.11853125, 0.9600312500000001, 0.1765625, 192.0, 0.0, 0.0, 0.0, 0.0, 0.0, 0.0, 0.0, 0.0, 0.0, 1.744825056674566E9, 0.0, 2025-04-16 12:37:36.674
126.0, -1343.965690608703, 2430.2828228810818, 21231.229154018063, 9246.290832315783, -4800.640618877485, -3255.1516002597336, -24720.1352977914, 22519.36018697741, 2479.4119571938463, 26658.635039166813, -13466.836627344685, -1322.6421263983402, -6611.69071336874, 4513.4207026267895, -36843.45326941649, -187500.02235174447, -0.11853125, 0.9600312500000001, 0.1765625, 192.0, 0.0, 0.0, 0.0, 0.0, 0.0, 0.0, 0.0, 0.0, 0.0, 1.744825056674808E9, 0.0, 2025-04-16 12:37:36.674
128.0, -1343.384545252865, 2429.7463810141544, 21226.04354930443, 9236.232547310896, -4797.354912442554, -3262.192399763155, -24725.07503331602, 22512.18527700726, 2497.4945184581898, 26737.491993605137, -13459.728772607896, -1311.9356408042481, -6596.379768416855, 4534.788970326063, -36840.05580425928, -187500.02235174447, -0.12, 0.96, 0.17200000000000001, 192.0, 126.0, 32.0, 15.0, 0.0, 2.5, 48.0, 0.0, 0.0, 0.0, 1.744825056675051E9, 0.0, 2025-04-16 12:37:36.675
130.0, -1345.1056295759238, 2424.8960524673525, 21233.30786625241, 9247.341364305183, -4800.685322366396, -3257.4761816830855, -24730.17123105183, 22516.007425309115, 2488.844393353986, 26662.591297935403, -13455.459589416932, -1318.775274607572, -6601.207745219201, 4521.757903308619, -36837.50770539138, -187500.02235174447, -0.12, 0.96, 0.17200000000000001, 192.0, 0.0, 0.0, 0.0, 0.0, 0.0, 0.0, 0.0, 0.0, 0.0, 1.744825056675296E9, 0.0, 2025-04-16 12:37:36.675
132.0, -1351.6546907013287, 2411.440302305258, 21230.513898195495, 9233.818558909721, -4785.486136136787, -3271.1778010341886, -24723.488059459694, 22504.518628659087, 2497.5392219471005, 26730.473545846173, -13456.264252217325, -1313.7237803606727, -6594.189297460234, 4531.167987724303, -36838.29001644731, -187500.02235174447, -0.12, 0.96, 0.17200000000000001, 192.0, 0.0, 0.0, 0.0, 0.0, 0.0, 0.0, 0.0, 0.0, 0.0, 1.744825056675523E9, 0.0, 2025-04-16 12:37:36.675
134.0, -1360.997719883647, 2395.302342808526, 21224.143651025734, 9222.955611104442, -4801.489985166787, -3280.6772924276943, -24728.919533362336, 22496.226131466166, 2491.0125125661507, 26647.36975996134, -13457.113618506626, -1336.8131323830048, -6600.604248118908, 4503.921211233283, -36838.98292052543, -187500.02235174447, -0.12, 0.96, 0.17200000000000001, 192.0, 0.0, 0.0, 0.0, 0.0, 0.0, 0.0, 0.0, 0.0, 0.0, 1.744825056733355E9, 0.0, 2025-04-16 12:37:36.733
136.0, -1363.322301306999, 2375.2528280321158, 21218.82393584537, 9213.210250521928, -4796.438490919887, -3293.909525145236, -24739.067225345043, 22486.726640072662, 2490.811346866053, 26700.85748444289, -13470.368202968622, -1344.613891197907, -6605.186355732246, 4498.802661753019, -36858.65245564609, -187500.02235174447, -0.12, 0.96, 0.17200000000000001, 192.0, 0.0, 0.0, 0.0, 0.0, 0.0, 0.0, 0.0, 0.0, 0.0, 1.744825056733645E9, 0.0, 2025-04-16 12:37:36.733
138.0, -1356.0132808701135, 2390.183793328261, 21231.76559588499, 9222.39681749306, -4800.774729344217, -3276.7657371480154, -24729.590085695992, 22497.477829155665, 2498.634457425411, 26641.37949244732, -13460.846359830663, -1349.4418680002534, -6601.185393474745, 4492.901801216817, -36847.118955507154, -187500.02235174447, -0.116, 0.96, 0.176, 192.0, 126.0, 48.0, 15.0, 0.0, 2.5, 64.0, 0.0, 0.0, 0.0, 1.744825056733891E9, 0.0, 2025-04-16 12:37:36.733
140.0, -1365.7809931970828, 2372.8164878864873, 21227.407005716206, 9219.513442458325, -4791.610514117541, -3289.685045443183, -24734.976856109723, 22494.2591779541, 2511.35260002048, 26694.509589017583, -13453.917319049517, -1332.678059658773, -6584.689806066729, 4512.213708426203, -36836.926560035536, -187500.02235174447, -0.116, 0.96, 0.176, 192.0, 0.0, 0.0, 0.0, 0.0, 0.0, 0.0, 0.0, 0.0, 0.0, 1.744825056734141E9, 0.0, 2025-04-16 12:37:36.734
142.0, -1366.2056763417336, 2379.790232156543, 21229.038683061444, 9208.382273719582, -4809.827185848616, -3282.9571703621355, -24737.1896788108, 22489.185331962744, 2493.2923905005923, 26635.970370289135, -13465.651984888553, -1361.869437917404, -6599.330198684955, 4480.340120832935, -36849.33177820823, -187500.02235174447, -0.116, 0.96, 0.176, 192.0, 0.0, 0.0, 0.0, 0.0, 0.0, 0.0, 0.0, 0.0, 0.0, 1.744825056734385E9, 0.0, 2025-04-16 12:37:36.734
144.0, -1364.775164696594, 2375.498697221124, 21231.00563657351, 9224.900212872055, -4794.13626124099, -3281.3254930168982, -24736.049739843576, 22496.002614021614, 2504.043579583595, 26670.928498617235, -13462.925072065005, -1346.9384726212588, -6592.9375997707375, 4504.703522289219, -36845.666092117564, -187500.02235174447, -0.116, 0.96, 0.176, 192.0, 0.0, 0.0, 0.0, 0.0, 0.0, 0.0, 0.0, 0.0, 0.0, 1.744825056734638E9, 0.0, 2025-04-16 12:37:36.734
146.0, -1373.2911793340659, 2380.2819705345596, 21230.312732495397, 9215.266611011817, -4811.883546338505, -3275.670501669705, -24734.865097387446, 22495.332061687954, 2491.9289340888186, 26644.732254115614, -13461.963947053428, -1356.8626471594152, -6592.624675348363, 4490.17488839327, -36839.00527226988, -187500.02235174447, -0.116, 0.96, 0.176, 192.0, 0.0, 0.0, 0.0, 0.0, 0.0, 0.0, 0.0, 0.0, 0.0, 1.74482505673488E9, 0.0, 2025-04-16 12:37:36.734
148.0, -1359.5895599829628, 2384.2829327920595, 21231.29620925143, 9233.438579253982, -4793.488060651786, -3275.201115036144, -24729.56773395154, 22499.310672201, 2496.8016143800755, 26670.12383581684, -13459.684069118986, -1341.2834812740662, -6588.646064835319, 4510.850252014429, -36841.396908926596, -187500.02235174447, -0.122, 0.9580000000000001, 0.17400000000000002, 192.0, 126.0, 24.0, 14.5, 120.0, 2.5, 56.0, 0.0, 0.0, 0.0, 1.74482505673512E9, 0.0, 2025-04-16 12:37:36.735
150.0, -1371.771260711105, 2381.0642815904953, 21227.228191760565, 9211.310352243228, -4814.6104591620515, -3280.453774983141, -24739.938943378802, 22483.21741619318, 2490.6325329104106, 26660.803158378978, -13461.226339486402, -1357.7343651931722, -6592.222343948168, 4495.449900084723, -36846.02372002885, -187500.02235174447, -0.122, 0.9580000000000001, 0.17400000000000002, 192.0, 0.0, 0.0, 0.0, 0.0, 0.0, 0.0, 0.0, 0.0, 0.0, 1.744825056793012E9, 0.0, 2025-04-16 12:37:36.793
152.0, -1357.1085163484236, 2385.109947336906, 21235.699502909127, 9230.935183874988, -4789.665912349929, -3276.6316266812837, -24731.780556652615, 22494.616805865386, 2500.579059193022, 26662.591297935403, -13457.113618506626, -1347.1172865769013, -6587.081442723446, 4511.766673537097, -36841.95570253798, -187500.02235174447, -0.122, 0.9580000000000001, 0.17400000000000002, 192.0, 0.0, 0.0, 0.0, 0.0, 0.0, 0.0, 0.0, 0.0, 0.0, 1.744825056793278E9, 0.0, 2025-04-16 12:37:36.793
154.0, -1372.419461300309, 2382.0924618354397, 21232.234982518552, 9208.829308608689, -4804.66393287944, -3282.3760250062974, -24738.75430092267, 22483.865616782383, 2493.3147422450475, 26671.42023699525, -13458.164150496024, -1357.4661442597085, -6587.796698546016, 4495.315789617991, -36843.497972905396, -187500.02235174447, -0.122, 0.9580000000000001, 0.17400000000000002, 192.0, 0.0, 0.0, 0.0, 0.0, 0.0, 0.0, 0.0, 0.0, 0.0, 1.744825056793505E9, 0.0, 2025-04-16 12:37:36.793
156.0, -1348.7042604332282, 2396.33052305347, 21242.606191945815, 9240.21115782394, -4784.972046014314, -3264.137001530767, -24727.55607695056, 22502.372861191376, 2495.6393236683994, 26655.304629242975, -13451.257461459336, -1344.770353409094, -6583.259294421589, 4511.99019098165, -36839.18408622552, -187500.02235174447, -0.122, 0.9580000000000001, 0.17400000000000002, 192.0, 0.0, 0.0, 0.0, 0.0, 0.0, 0.0, 0.0, 0.0, 0.0, 1.744825056793741E9, 0.0, 2025-04-16 12:37:36.793
158.0, -1360.483629761175, 2388.6415229608447, 21235.408930231206, 9215.288962756273, -4807.18968000289, -3275.067004569412, -24735.960332865758, 22488.514779629088, 2497.785091136109, 26680.293879544006, -13450.18457772548, -1349.6206819558959, -6577.15726818529, 4505.955219978717, -36838.29001644731, -187500.02235174447, -0.124, 0.96, 0.176, 192.0, 126.0, 16.0, 15.0, 0.0, 2.5, 64.0, 0.0, 0.0, 0.0, 1.744825056793985E9, 0.0, 2025-04-16 12:37:36.793
160.0, -1344.7927051535494, 2394.765900941599, 21244.439034991152, 9239.49590200137, -4791.230534461801, -3267.8250393658927, -24728.114870561945, 22502.015233280094, 2507.5751552075335, 26648.84497509539, -13445.893042790061, -1344.412725497809, -6579.213628675178, 4511.833728770463, -36838.84881005869, -187500.02235174447, -0.124, 0.96, 0.176, 192.0, 0.0, 0.0, 0.0, 0.0, 0.0, 0.0, 0.0, 0.0, 0.0, 1.744825056794244E9, 0.0, 2025-04-16 12:37:36.794
162.0, -1372.0394816445687, 2382.405386257814, 21230.290380750943, 9208.784605119778, -4809.983648059803, -3286.8240221529036, -24740.162460823354, 22480.155227202802, 2499.9979138371846, 26691.246234327107, -13454.967851038917, -1358.2708070600995, -6585.002730489103, 4500.188469909247, -36845.174353739545, -187500.02235174447, -0.124, 0.96, 0.176, 192.0, 0.0, 0.0, 0.0, 0.0, 0.0, 0.0, 0.0, 0.0, 0.0, 1.74482505679448E9, 0.0, 2025-04-16 12:37:36.794
164.0, -1359.0084146271247, 2388.1050810939173, 21231.139747040244, 9230.82342515271, -4803.635752634496, -3275.8940191142583, -24740.542440479094, 22496.31553844399, 2493.2476870116816, 26642.675893625725, -13454.252595216347, -1354.7168796917058, -6589.651893335807, 4499.115586175392, -36844.10147000569, -187500.02235174447, -0.124, 0.96, 0.176, 192.0, 0.0, 0.0, 0.0, 0.0, 0.0, 0.0, 0.0, 0.0, 0.0, 1.744825056856374E9, 0.0, 2025-04-16 12:37:36.856
166.0, -1383.997664928158, 2368.413194228792, 21217.39342420023, 9202.481413183381, -4815.437473706898, -3295.6306094682946, -24739.693074189792, 22482.21158769269, 2492.197155022282, 26694.598995995402, -13460.265214474824, -1359.2319320716779, -6586.545000856519, 4495.449900084723, -36844.92848455054, -187500.02235174447, -0.124, 0.96, 0.176, 192.0, 0.0, 0.0, 0.0, 0.0, 0.0, 0.0, 0.0, 0.0, 0.0, 1.744825056856679E9, 0.0, 2025-04-16 12:37:36.856
168.0, -1358.226103571189, 2390.6531799618224, 21234.984247086555, 9229.996410607864, -4795.991456030781, -3271.9154086012136, -24733.434585742307, 22499.534189645554, 2477.623817637422, 26622.44756489367, -13468.311842478734, -1372.285350833577, -6600.403082418809, 4485.101042401915, -36850.851696831196, -187500.02235174447, -0.12, 0.9580000000000001, 0.182, 192.0, 126.0, 32.0, 14.5, 120.0, 2.5, 88.0, 0.0, 0.0, 0.0, 1.74482505685694E9, 0.0, 2025-04-16 12:37:36.856
170.0, -1363.970501896203, 2389.3120752945038, 21235.76655814249, 9220.675733170001, -4796.773767086717, -3274.284693513476, -24731.624094441428, 22494.817971565484, 2498.4779952142235, 26695.940100662723, -13448.843473058161, -1349.9783098671808, -6578.341910641421, 4510.447920614233, -36834.91490303456, -187500.02235174447, -0.12, 0.9580000000000001, 0.182, 192.0, 0.0, 0.0, 0.0, 0.0, 0.0, 0.0, 0.0, 0.0, 0.0, 1.744825056857193E9, 0.0, 2025-04-16 12:37:36.857
172.0, -1362.8752664178928, 2384.349988025426, 21230.91622959569, 9227.805939651244, -4806.206203246857, -3279.0903185713673, -24744.923382392335, 22492.426334908767, 2484.686968885299, 26623.766317816535, -13457.337135951178, -1362.4058797843313, -6593.071710237469, 4496.612190796398, -36846.76132759587, -187500.02235174447, -0.12, 0.9580000000000001, 0.182, 192.0, 0.0, 0.0, 0.0, 0.0, 0.0, 0.0, 0.0, 0.0, 0.0, 1.744825056857444E9, 0.0, 2025-04-16 12:37:36.857
174.0, -1382.4106910718313, 2365.4851157051467, 21219.226267245565, 9201.296770727251, -4812.107063783057, -3298.424577525208, -24754.28876331911, 22473.226186421656, 2479.814288594042, 26684.98774587962, -13471.888121591583, -1373.067661889513, -6600.693655096728, 4486.799774980518, -36861.26760974737, -187500.02235174447, -0.12, 0.9580000000000001, 0.182, 192.0, 0.0, 0.0, 0.0, 0.0, 0.0, 0.0, 0.0, 0.0, 0.0, 1.744825056857683E9, 0.0, 2025-04-16 12:37:36.857
176.0, -1368.999644398647, 2386.4287002597694, 21229.552773183917, 9217.032398823787, -4807.837880592094, -3284.9464756186576, -24740.676550945827, 22483.999727249113, 2477.8920385708857, 26614.669157823224, -13459.95229005245, -1370.5866182549737, -6593.004655004103, 4484.564600534988, -36850.62817938664, -187500.02235174447, -0.12, 0.9580000000000001, 0.182, 192.0, 0.0, 0.0, 0.0, 0.0, 0.0, 0.0, 0.0, 0.0, 0.0, 1.744825056857938E9, 0.0, 2025-04-16 12:37:36.857
178.0, -1379.6614265038284, 2372.883543119853, 21220.254447490508, 9200.894439327054, -4805.1556712574575, -3294.513022245529, -24742.218821313243, 22472.712096299183, 2472.9299513018077, 26687.960527892177, -13467.99891805636, -1371.5253915220967, -6590.054224736003, 4491.98537969415, -36857.132537023135, -187500.02235174447, -0.122, 0.96, 0.18, 192.0, 126.0, 24.0, 15.0, 0.0, 2.5, 80.0, 0.0, 0.0, 0.0, 1.744825056858175E9, 0.0, 2025-04-16 12:37:36.858
180.0, -1380.2649236041218, 2375.297531521026, 21223.38369171425, 9208.114052786119, -4815.124549284524, -3286.4663942416187, -24750.42191152834, 22476.266023667577, 2463.3187011860255, 26615.585579345894, -13472.983357069894, -1384.7129207507278, -6603.174698731268, 4478.082594642949, -36862.228734758944, -187500.02235174447, -0.122, 0.96, 0.18, 192.0, 0.0, 0.0, 0.0, 0.0, 0.0, 0.0, 0.0, 0.0, 0.0, 1.744825056913736E9, 0.0, 2025-04-16 12:37:36.913
182.0, -1382.3659875829205, 2371.94476985273, 21223.607209158803, 9205.878878340589, -4803.613400890041, -3290.4673564991185, -24746.823280671037, 22473.382648632843, 2474.651035624866, 26682.216129567165, -13469.51883667932, -1371.8606676889262, -6595.9327335277485, 4496.187507651747, -36857.423109701056, -187500.02235174447, -0.122, 0.96, 0.18, 192.0, 0.0, 0.0, 0.0, 0.0, 0.0, 0.0, 0.0, 0.0, 0.0, 1.744825056914023E9, 0.0, 2025-04-16 12:37:36.914
184.0, -1374.4087665568313, 2381.9359996242524, 21229.038683061444, 9211.667980154512, -4814.364589973044, -3280.3196645164094, -24742.71055969126, 22480.222282436167, 2464.8609715534417, 26615.719689812624, -13466.411944200034, -1382.7012637497503, -6601.118338241379, 4484.966931935183, -36854.20445849949, -187500.02235174447, -0.122, 0.96, 0.18, 192.0, 0.0, 0.0, 0.0, 0.0, 0.0, 0.0, 0.0, 0.0, 0.0, 1.744825056914263E9, 0.0, 2025-04-16 12:37:36.914
186.0, -1362.9199699068035, 2387.970970627185, 21239.164023299698, 9217.881765113088, -4787.877772793505, -3276.966902848113, -24721.208181525253, 22487.710116828697, 2477.333244959503, 26677.7457806761, -13458.90175806305, -1364.1046123629346, -6589.0036927466035, 4507.341028134946, -36844.7943740838, -187500.02235174447, -0.122, 0.96, 0.18, 192.0, 0.0, 0.0, 0.0, 0.0, 0.0, 0.0, 0.0, 0.0, 0.0, 1.744825056914499E9, 0.0, 2025-04-16 12:37:36.914
188.0, -1380.5554962820406, 2376.3927669993363, 21224.523630681473, 9198.972189303899, -4816.756226629762, -3289.1039000873448, -24739.46955674524, 22475.193139933723, 2465.1515442313607, 26619.944169514678, -13466.836627344685, -1382.4777463051971, -6599.68782659624, 4483.558772034499, -36850.561124153275, -187500.02235174447, -0.119, 0.9590000000000001, 0.18, 192.0, 126.0, 48.0, 14.5, 120.0, 2.5, 80.0, 0.0, 0.0, 0.0, 1.744825056914749E9, 0.0, 2025-04-16 12:37:36.914
190.0, -1372.2182956002111, 2378.8067554005092, 21234.514860452993, 9216.004218578842, -4791.834031562094, -3283.1806878066886, -24723.55511469306, 22489.051221496014, 2476.886210070397, 26671.017905595054, -13463.372106954112, -1366.5409525085631, -6587.081442723446, 4506.402254867823, -36846.82838282924, -187500.02235174447, -0.119, 0.9590000000000001, 0.18, 192.0, 0.0, 0.0, 0.0, 0.0, 0.0, 0.0, 0.0, 0.0, 0.0, 1.744825056914997E9, 0.0, 2025-04-16 12:37:36.914
192.0, -1386.9257434518033, 2372.32474950847, 21221.461441691095, 9202.503764927837, -4820.265450509244, -3291.1826123216883, -24739.67072244534, 22472.980317232646, 2465.7997448205647, 26633.824602821423, -13475.732621637897, -1386.8139847295267, -6598.436128906743, 4482.463536556189, -36853.086871276726, -187500.02235174447, -0.119, 0.9590000000000001, 0.18, 192.0, 0.0, 0.0, 0.0, 0.0, 0.0, 0.0, 0.0, 0.0, 0.0, 1.744825056915249E9, 0.0, 2025-04-16 12:37:36.915
194.0, -1368.0161676426135, 2388.552115983023, 21237.465290721095, 9230.085817585685, -4793.979799029804, -3276.4975162145515, -24721.386995480898, 22490.59349186343, 2465.9338552872964, 26672.13549281782, -13468.982394812394, -1363.903446662837, -6590.277742180556, 4500.2778768870685, -36848.12478400765, -187500.02235174447, -0.119, 0.9590000000000001, 0.18, 192.0, 0.0, 0.0, 0.0, 0.0, 0.0, 0.0, 0.0, 0.0, 0.0, 1.744825056973955E9, 0.0, 2025-04-16 12:37:36.973
196.0, -1398.5933540574736, 2365.9097988497974, 21213.48186892055, 9197.7204916144, -4819.818415620139, -3295.518850746018, -24737.74847242218, 22470.07459045346, 2462.3352244299917, 26651.46012919666, -13467.66364188953, -1373.0453101450576, -6591.01534974758, 4486.106870902404, -36844.45909791697, -187500.02235174447, -0.119, 0.9590000000000001, 0.18, 192.0, 0.0, 0.0, 0.0, 0.0, 0.0, 0.0, 0.0, 0.0, 0.0, 1.744825056974266E9, 0.0, 2025-04-16 12:37:36.974
198.0, -1385.7187492512167, 2368.9272843512636, 21217.594589900327, 9211.48916619887, -4803.836918334594, -3294.4459670121632, -24734.663931687348, 22477.942404501726, 2449.728840557199, 26652.756530375067, -13481.879351363106, -1379.482612548186, -6606.259239466101, 4485.1904493797365, -36862.653417903595, -187500.02235174447, -0.1185, 0.9585000000000001, 0.183, 192.0, 126.0, 40.0, 14.5, 120.0, 2.5, 104.0, 0.0, 0.0, 0.0, 1.744825056974504E9, 0.0, 2025-04-16 12:37:36.974
200.0, -1381.2707521046107, 2383.9029531363194, 21226.021197559978, 9202.839041094667, -4813.828148106116, -3284.9464756186576, -24739.22368755623, 22475.573119589462, 2459.1165732284276, 26651.638943152302, -13470.792886113273, -1376.0404439020688, -6596.513878883587, 4482.55294353401, -36854.115051521665, -187500.02235174447, -0.1185, 0.9585000000000001, 0.183, 192.0, 0.0, 0.0, 0.0, 0.0, 0.0, 0.0, 0.0, 0.0, 0.0, 1.74482505697475E9, 0.0, 2025-04-16 12:37:36.974
202.0, -1371.8383159444709, 2382.494793235635, 21234.984247086555, 9227.940050117975, -4795.432662419398, -3284.387682007275, -24722.012844325644, 22487.151323217313, 2472.549971646067, 26649.962562318156, -13459.907586563539, -1358.382565782376, -6588.958989257692, 4499.227344897669, -36847.7448043519, -187500.02235174447, -0.1185, 0.9585000000000001, 0.183, 192.0, 0.0, 0.0, 0.0, 0.0, 0.0, 0.0, 0.0, 0.0, 0.0, 1.74482505697499E9, 0.0, 2025-04-16 12:37:36.974
204.0, -1388.378606841398, 2379.074976333973, 21233.844308119336, 9201.475584682892, -4821.159520287457, -3295.6529612127497, -24730.014768840643, 22466.431256107244, 2464.816268064531, 26656.51162344356, -13467.395420956067, -1376.5992375134513, -6595.396291660821, 4477.881428942851, -36852.32691196524, -187500.02235174447, -0.1185, 0.9585000000000001, 0.183, 192.0, 0.0, 0.0, 0.0, 0.0, 0.0, 0.0, 0.0, 0.0, 0.0, 1.744825056975238E9, 0.0, 2025-04-16 12:37:36.975
206.0, -1358.2708070600995, 2397.984552143163, 21254.094988595843, 9237.260727555838, -4793.666874607429, -3278.8220976379034, -24711.84280059848, 22489.34179417393, 2471.9911780346847, 26644.41932969324, -13446.720057334907, -1353.9569203802253, -6586.992035745626, 4495.472251829177, -36836.658339102076, -187500.02235174447, -0.1185, 0.9585000000000001, 0.183, 192.0, 0.0, 0.0, 0.0, 0.0, 0.0, 0.0, 0.0, 0.0, 0.0, 1.744825056975468E9, 0.0, 2025-04-16 12:37:36.975
208.0, -1370.4078042993312, 2396.0623021200063, 21243.29909602393, 9217.032398823787, -4811.481214938309, -3284.298275029454, -24723.577466437517, 22476.3554306454, 2475.142774002883, 26688.42991452574, -13446.205967212436, -1357.0191093706023, -6588.936637513237, 4492.186545394247, -36841.21809497096, -187500.02235174447, -0.12025, 0.95925, 0.1825, 192.0, 126.0, 24.0, 15.0, 0.0, 2.5, 88.0, 0.0, 0.0, 0.0, 1.744825056975707E9, 0.0, 2025-04-16 12:37:36.975
210.0, -1352.1240773348902, 2404.265392335104, 21250.429302505174, 9247.095495116175, -4799.321865954622, -3272.8988853572473, -24733.144013064386, 22491.554616875008, 2488.7102828872544, 26660.26671651205, -13432.124368205592, -1340.031783584569, -6583.996901988614, 4513.063074715505, -36838.71469959196, -187500.02235174447, -0.12025, 0.95925, 0.1825, 192.0, 0.0, 0.0, 0.0, 0.0, 0.0, 0.0, 0.0, 0.0, 0.0, 1.744825057033471E9, 0.0, 2025-04-16 12:37:37.033
212.0, -1381.9413044382698, 2382.9641798691964, 21236.48181396506, 9215.244259267361, -4820.824244120628, -3295.585905979384, -24730.730024663215, 22464.151378172803, 2475.232180980704, 26705.52899903405, -13454.297298705256, -1359.8130774275157, -6604.202878976212, 4494.801699495519, -36858.607752157186, -187500.02235174447, -0.12025, 0.95925, 0.1825, 192.0, 0.0, 0.0, 0.0, 0.0, 0.0, 0.0, 0.0, 0.0, 0.0, 1.744825057033753E9, 0.0, 2025-04-16 12:37:37.033
214.0, -1361.6235687283956, 2398.4986422656348, 21247.903555381723, 9238.490073500881, -4805.558002657653, -3277.816269137415, -24725.45501297176, 22482.72567781516, 2462.91636978583, 26651.70599838567, -13447.144740479558, -1358.3602140379207, -6601.610076619396, 4500.36728386489, -36848.035377029824, -187500.02235174447, -0.12025, 0.95925, 0.1825, 192.0, 0.0, 0.0, 0.0, 0.0, 0.0, 0.0, 0.0, 0.0, 0.0, 1.744825057034005E9, 0.0, 2025-04-16 12:37:37.034
216.0, -1369.0219961431023, 2395.749377697632, 21250.20578506062, 9222.061541326231, -4801.266467722234, -3278.93385636018, -24718.235399512698, 22483.284471426545, 2475.3439397029806, 26712.48039155965, -13445.244842200857, -1353.643995957851, -6587.483774123642, 4508.190394424248, -36839.76523158136, -187500.02235174447, -0.12025, 0.95925, 0.1825, 192.0, 0.0, 0.0, 0.0, 0.0, 0.0, 0.0, 0.0, 0.0, 0.0, 1.744825057034259E9, 0.0, 2025-04-16 12:37:37.034
218.0, -1358.7178419492056, 2400.6667614778, 21249.82580540488, 9238.53477698979, -4795.969104286326, -3274.5082109580294, -24715.55319017806, 22492.806314564506, 2476.6179891369334, 26649.537879173506, -13439.27692643129, -1353.4428302577533, -6586.634407834341, 4508.03393221306, -36834.28905418981, -187500.02235174447, -0.121125, 0.9576250000000001, 0.18425, 192.0, 126.0, 24.0, 14.5, 112.0, 2.5, 104.0, 0.0, 0.0, 0.0, 1.744825057034505E9, 0.0, 2025-04-16 12:37:37.034
220.0, -1379.5273160370966, 2380.438432745747, 21231.989113329546, 9210.30452374274, -4805.356836957555, -3290.7355774325824, -24723.823335626526, 22475.327250400456, 2466.045614009573, 26713.776792738056, -13452.911490549028, -1361.5565134950298, -6590.7694805585725, 4504.837632755952, -36842.156868238075, -187500.02235174447, -0.121125, 0.9576250000000001, 0.18425, 192.0, 0.0, 0.0, 0.0, 0.0, 0.0, 0.0, 0.0, 0.0, 0.0, 1.744825057034746E9, 0.0, 2025-04-16 12:37:37.034
222.0, -1368.84318218746, 2396.397578286836, 21235.833613375857, 9221.972134348409, -4810.073055037625, -3277.525696459496, -24728.830126384513, 22485.0055557496, 2449.5723783460116, 26633.086995254398, -13459.885234819083, -1373.3135310785212, -6605.92396329927, 4489.5937430374315, -36852.237504987424, -187500.02235174447, -0.121125, 0.9576250000000001, 0.18425, 192.0, 0.0, 0.0, 0.0, 0.0, 0.0, 0.0, 0.0, 0.0, 0.0, 1.744825057034981E9, 0.0, 2025-04-16 12:37:37.034
224.0, -1376.5321822800854, 2386.294589793037, 21232.145575540733, 9214.506651700336, -4798.919534554427, -3281.3031412724426, -24717.40838496785, 22483.39623014882, 2457.9989860056626, 26708.099449646408, -13458.767647596318, -1362.294121062055, -6593.7646143155835, 4503.250658899625, -36849.95762705298, -187500.02235174447, -0.121125, 0.9576250000000001, 0.18425, 192.0, 0.0, 0.0, 0.0, 0.0, 0.0, 0.0, 0.0, 0.0, 0.0, 1.744825057093202E9, 0.0, 2025-04-16 12:37:37.093
226.0, -1383.8859062058814, 2381.5113164796016, 21225.507107437505, 9218.39585523556, -4806.720293369329, -3282.55483896194, -24730.707672918757, 22484.089134226935, 2447.471314367213, 26636.573867389427, -13461.852188331151, -1372.9559031672363, -6596.580934116952, 4491.426586082767, -36846.15783049558, -187500.02235174447, -0.121125, 0.9576250000000001, 0.18425, 192.0, 0.0, 0.0, 0.0, 0.0, 0.0, 0.0, 0.0, 0.0, 0.0, 1.744825057093494E9, 0.0, 2025-04-16 12:37:37.093
228.0, -1383.125946894401, 2380.2596187901045, 21225.663569648692, 9210.505689442836, -4799.008941532247, -3290.5120599880293, -24726.84082112799, 22481.78690454804, 2441.1904741752714, 26698.197626852707, -13474.838551859684, -1372.4641647892195, -6595.619809105374, 4493.3488361059235, -36859.792394613316, -187500.02235174447, -0.12156249999999999, 0.9578125000000001, 0.18512499999999998, 192.0, 126.0, 24.0, 14.5, 120.0, 2.5, 104.0, 0.0, 0.0, 0.0, 1.744825057093735E9, 0.0, 2025-04-16 12:37:37.093
230.0, -1378.4097288143312, 2391.4801945066683, 21231.095043551333, 9216.652419168046, -4804.038084034692, -3281.526658716996, -24731.489983974694, 22483.59739584892, 2453.461581881235, 26635.03159702201, -13454.207891727436, -1364.6634059743174, -6586.768518301073, 4494.779347751063, -36841.66512986006, -187500.02235174447, -0.12156249999999999, 0.9578125000000001, 0.18512499999999998, 192.0, 0.0, 0.0, 0.0, 0.0, 0.0, 0.0, 0.0, 0.0, 0.0, 1.744825057093994E9, 0.0, 2025-04-16 12:37:37.093
232.0, -1380.2425718596664, 2379.432604245258, 21227.71993013858, 9214.216079022417, -4795.455014163854, -3287.2040018086436, -24724.315074004542, 22482.703326070707, 2453.171009203316, 26696.297728574005, -13460.242862730369, -1360.1483535943453, -6585.628579333852, 4501.931905976761, -36850.404661942084, -187500.02235174447, -0.12156249999999999, 0.9578125000000001, 0.18512499999999998, 192.0, 0.0, 0.0, 0.0, 0.0, 0.0, 0.0, 0.0, 0.0, 0.0, 1.744825057094254E9, 0.0, 2025-04-16 12:37:37.094
234.0, -1379.3932055703647, 2387.367473526892, 21229.999808073022, 9214.149023789052, -4806.407368946954, -3281.034920338979, -24726.103213560968, 22483.083305726446, 2444.4538288657463, 26630.60595161986, -13461.919243564516, -1377.94034218077, -6590.0095212470915, 4485.615132524387, -36849.33177820823, -187500.02235174447, -0.12156249999999999, 0.9578125000000001, 0.18512499999999998, 192.0, 0.0, 0.0, 0.0, 0.0, 0.0, 0.0, 0.0, 0.0, 0.0, 1.744825057094499E9, 0.0, 2025-04-16 12:37:37.094
236.0, -1375.6381125018731, 2387.1886595712494, 21224.568334170384, 9212.852622610644, -4796.751415342262, -3290.914391388225, -24738.933114878313, 22477.271852168065, 2450.086468468484, 26690.91095816028, -13460.131104008093, -1363.098783862446, -6580.241808920123, 4504.480004844667, -36854.897362577605, -187500.02235174447, -0.12156249999999999, 0.9578125000000001, 0.18512499999999998, 192.0, 0.0, 0.0, 0.0, 0.0, 0.0, 0.0, 0.0, 0.0, 0.0, 1.744825057094737E9, 0.0, 2025-04-16 12:37:37.094
238.0, -1382.5000980496525, 2385.3781682703698, 21220.790889357435, 9199.709796870924, -4822.187700532401, -3292.9931036225685, -24736.921457877335, 22471.192177676225, 2434.9543374722407, 26637.311474956452, -13463.282699976291, -1381.3378073379765, -6589.383672402343, 4481.725928989164, -36860.261781246874, -187500.02235174447, -0.12178125, 0.9609062500000001, 0.1825625, 192.0, 126.0, 24.0, 15.0, 16.0, 2.5, 80.0, 0.0, 0.0, 0.0, 1.744825057094981E9, 0.0, 2025-04-16 12:37:37.094
