%OpenBCI Raw EXG Data
%Number of channels = 16
%Sample Rate = 125 Hz
%Board = OpenBCI_GUI$BoardCytonSerialDaisy
Sample Index, EXG Channel 0, EXG Channel 1, EXG Channel 2, EXG Channel 3, EXG Channel 4, EXG Channel 5, EXG Channel 6, EXG Channel 7, EXG Channel 8, EXG Channel 9, EXG Channel 10, EXG Channel 11, EXG Channel 12, EXG Channel 13, EXG Channel 14, EXG Channel 15, Accel Channel 0, Accel Channel 1, Accel Channel 2, Not Used, Digital Channel 0 (D11), Digital Channel 1 (D12), Digital Channel 2 (D13), Digital Channel 3 (D17), Not Used, Digital Channel 4 (D18), Analog Channel 0, Analog Channel 1, Analog Channel 2, Timestamp, Marker Channel, Timestamp (Formatted)
246.0, -27276.191386722494, -4305.460072214612, 7365.145667212685, -2140.2465868290174, 4091.866802199698, 10356.881959066624, -17842.0117905154, 1841.850798350668, -830.6131757036658, -18691.534542028254, -23800.27160647769, 23589.829932430977, -13296.359872384057, -593.550574010679, 9765.924187412762, -187500.02235174447, 0.0, 0.0, 0.0, 192.0, 0.0, 0.0, 0.0, 0.0, 0.0, 0.0, 0.0, 0.0, 0.0, 1.74526679236616E9, 0.0, 2025-04-21 15:19:52.366
248.0, -27283.656869370567, -4309.103406560827, 7352.963966484544, -2146.5944822543242, 4081.1379648611505, 10351.226967719433, -17849.656087119114, 1837.6263186486149, -843.3313182987355, -18696.40722231951, -23810.642815904954, 23577.312955536003, -13304.227686432325, -595.3163618226483, 9758.5034082536, -187500.02235174447, 0.0, 0.0, 0.0, 192.0, 0.0, 0.0, 0.0, 0.0, 0.0, 0.0, 0.0, 0.0, 0.0, 1.745266792366292E9, 0.0, 2025-04-21 15:19:52.366
250.0, -27261.416883637536, -4285.187039993649, 7371.27004519344, -2126.790836666922, 4090.726863232477, 10354.490322409907, -17839.754264325413, 1838.945071571478, -832.1107425821714, -18676.804742432207, -23798.46111517681, 23597.47422903469, -13297.320997395635, -585.9509808958746, 9762.5043705111, -187500.02235174447, 0.0, 0.0, 0.0, 192.0, 0.0, 0.0, 0.0, 0.0, 0.0, 0.0, 0.0, 0.0, 0.0, 1.745266792366408E9, 0.0, 2025-04-21 15:19:52.366
252.0, -27262.422712138025, -4288.338635961847, 7365.5927021017915, -2127.5507959784027, 4083.909581173609, 10338.262955935354, -17839.95543002551, 1836.3522692146623, -829.4285332475345, -18664.198358559413, -23788.00049877173, 23612.136973397373, -13298.505639851766, -585.906277406964, 9772.205027604703, -187500.02235174447, 0.0, 0.0, 0.0, 192.0, 0.0, 0.0, 0.0, 0.0, 0.0, 0.0, 0.0, 0.0, 0.0, 1.74526679236653E9, 0.0, 2025-04-21 15:19:52.366
254.0, -27257.34886614667, -4284.292970215437, 7368.833705047811, -2127.7519616785007, 4081.0709096277847, 10344.38733391611, -17842.280011448864, 1843.5271791848159, -840.313832797269, -18676.581224987654, -23792.984937785262, 23611.6228832749, -13308.385110901012, -595.2493065892824, 9768.896969425317, -187500.02235174447, 0.008, 0.97, -0.14, 192.0, 0.0, 32.0, 15.0, 40.0, 125.5, 80.0, 0.0, 0.0, 0.0, 1.745266792366655E9, 0.0, 2025-04-21 15:19:52.366
0.0, -27223.798897719254, -4255.436868123636, 7396.75103387249, -2103.5897259223134, 4103.489709316457, 10378.00435757689, -17821.358778638696, 1868.9187608860448, -804.3945794575906, -18667.573471972166, -23773.337754409047, 23621.614113046424, -13295.242285161292, -579.3125127926485, 9783.939693443739, -187500.02235174447, 0.008, 0.97, -0.14, 192.0, 0.0, 0.0, 0.0, 0.0, 0.0, 0.0, 0.0, 0.0, 0.0, 1.745266792366773E9, 0.0, 2025-04-21 15:19:52.366
2.0, -27218.792106961264, -4243.4116296066795, 7404.104757798285, -2097.1747752636406, 4104.495537816946, 10396.332788030242, -17828.779557797858, 1876.4065952785727, -780.0758814902165, -18635.54342216771, -23748.95200120831, 23645.77634880261, -13269.29190984868, -548.8470851000649, 9805.710292543208, -187500.02235174447, 0.008, 0.97, -0.14, 192.0, 0.0, 0.0, 0.0, 0.0, 0.0, 0.0, 0.0, 0.0, 0.0, 1.745266792366883E9, 0.0, 2025-04-21 15:19:52.366
4.0, -27242.127328172606, -4273.027691009962, 7386.469231423049, -2125.382676766238, 4090.682159743567, 10371.075316795745, -17850.281935963863, 1846.0976297971763, -792.0340647738058, -18644.931154838938, -23762.363047881492, 23633.371130629916, -13272.778781983709, -554.4797247028023, 9797.328388372469, -187500.02235174447, 0.008, 0.97, -0.14, 192.0, 0.0, 0.0, 0.0, 0.0, 0.0, 0.0, 0.0, 0.0, 0.0, 1.745266792366986E9, 0.0, 2025-04-21 15:19:52.366
6.0, -27262.28860167129, -4297.189926766148, 7374.6898620951015, -2148.270863088472, 4085.183630607561, 10341.660421092562, -17851.801854586825, 1824.8634725646345, -812.8435388616966, -18678.525826755267, -23785.206530714815, 23600.96110116972, -13289.766107769741, -588.1638035969501, 9772.093268882427, -187500.02235174447, 0.008, 0.97, -0.14, 192.0, 0.0, 0.0, 0.0, 0.0, 0.0, 0.0, 0.0, 0.0, 0.0, 1.745266792367098E9, 0.0, 2025-04-21 15:19:52.367
8.0, -27259.226412680917, -4298.195755266637, 7377.327367940828, -2141.2971188184165, 4090.7492149769328, 10346.041363005801, -17846.258621961908, 1828.9985452888664, -820.6890011655095, -18689.008794904807, -23788.00049877173, 23595.462572033714, -13288.492058335789, -615.6564492769777, 9767.555864758, -187500.02235174447, 0.01, 0.97, -0.14200000000000002, 192.0, 0.0, 40.0, 15.0, 40.0, 125.5, 72.0, 0.0, 0.0, 0.0, 1.745266792367211E9, 0.0, 2025-04-21 15:19:52.367
10.0, -27279.275927457325, -4313.685514174165, 7360.921187510632, -2153.3894125687375, 4080.1768398495724, 10339.581708858217, -17855.132264510663, 1825.690487109481, -825.6957919234982, -18691.5121902838, -23793.364917441002, 23599.038851146564, -13296.672796806432, -609.8002922296873, 9769.835742692441, -187500.02235174447, 0.01, 0.97, -0.14200000000000002, 192.0, 0.0, 0.0, 0.0, 0.0, 0.0, 0.0, 0.0, 0.0, 0.0, 1.745266792367326E9, 0.0, 2025-04-21 15:19:52.367
12.0, -27277.241918711894, -4310.75743565052, 7361.703498566569, -2143.644051986224, 4088.3352265757594, 10349.260014207366, -17838.971953269476, 1841.2696529948298, -848.1816468455371, -18702.41984157799, -23814.487315951268, 23590.276967320082, -13297.008072973262, -620.3056121236816, 9762.79494318902, -187500.02235174447, 0.01, 0.97, -0.14200000000000002, 192.0, 0.0, 0.0, 0.0, 0.0, 0.0, 0.0, 0.0, 0.0, 0.0, 1.745266792367427E9, 0.0, 2025-04-21 15:19:52.367
0.0, -13724.149909514179, -2029.0466581638645, 3682.2934368006513, -1261.9347884577262, 1960.2479887304294, 5027.711990798949, -8788.035367493078, 1034.6175473472533, -417.55293816959124, -9345.152598041606, -11906.349588197421, 11797.161316533246, -6653.779048178083, -306.3530095044386, 4884.437308840431, -93750.01117587223, 0.006, 0.98, -0.08600000000000001, 192.0, 0.0, 24.0, 15.0, 80.0, 126.5, 40.0, 0.0, 0.0, 0.0, 1.74526679253593E9, 0.0, 2025-04-21 15:19:52.535
2.0, -27429.14437403016, -4060.686118684545, 7370.688899837602, -2520.9862018807175, 3924.4745879739035, 10049.098437917048, -17562.9949644798, 2075.672397097635, -913.7393133329527, -18595.422040870435, -23611.734641997176, 26322.621264770183, -13063.007660270652, -463.4634212807919, 9764.627786234354, -187500.02235174447, 0.006, 0.98, -0.08600000000000001, 192.0, 0.0, 0.0, 0.0, 0.0, 0.0, 0.0, 0.0, 0.0, 0.0, 1.745266792536077E9, 0.0, 2025-04-21 15:19:52.536
4.0, -27447.428100994603, -4073.8512961687206, 7357.926053753621, -2525.3447920495028, 3912.225832012395, 10037.877862200483, -17573.27676692924, 2062.0378329798978, -925.1834064940699, -18615.65036960249, -23618.64133103387, 26317.748584478926, -13074.027070287118, -473.4993545412248, 9756.64821346381, -187500.02235174447, 0.006, 0.98, -0.08600000000000001, 192.0, 0.0, 0.0, 0.0, 0.0, 0.0, 0.0, 0.0, 0.0, 0.0, 1.7452667925362E9, 0.0, 2025-04-21 15:19:52.536
6.0, -27446.154051560647, -4067.704566443511, 7362.821085789334, -2515.0182861111507, 3914.9974483248534, 10042.66113551392, -17567.15238894849, 2063.870676025233, -922.0988657592376, -18603.178096196425, -23617.680206022287, 26319.044985657336, -13070.584901641001, -470.54892427312427, 9757.385821030835, -187500.02235174447, 0.006, 0.98, -0.08600000000000001, 192.0, 0.0, 0.0, 0.0, 0.0, 0.0, 0.0, 0.0, 0.0, 0.0, 1.745266792536328E9, 0.0, 2025-04-21 15:19:52.536
8.0, -27440.09672881326, -4069.738575188944, 7353.6121670737475, -2517.9687163792514, 3907.1966895099513, 10045.61156578202, -17573.366173907063, 2061.2108184350514, -927.5526914063325, -18605.34621540859, -23623.75988051413, 26327.382186339164, -13078.296253478082, -469.09606088352933, 9755.351812285402, -187500.02235174447, -0.006, 0.976, -0.054, 192.0, 127.5, 104.0, 15.0, 64.0, 127.0, 40.0, 0.0, 0.0, 0.0, 1.745266792536439E9, 0.0, 2025-04-21 15:19:52.536
10.0, -27434.553496188342, -4062.4295547520587, 7357.590777586792, -2504.3788557504245, 3910.1247680335964, 10058.910853732927, -17568.471141871352, 2072.5431528738923, -933.632365898176, -18610.755337566774, -23628.274932894103, 26330.01969218489, -13081.02316630163, -466.30209282661593, 9757.36346928638, -187500.02235174447, -0.006, 0.976, -0.054, 192.0, 0.0, 0.0, 0.0, 0.0, 0.0, 0.0, 0.0, 0.0, 0.0, 1.745266792536554E9, 0.0, 2025-04-21 15:19:52.536
12.0, -27445.505850971444, -4071.549066489824, 7339.441161089082, -2510.9279168758294, 3896.8031283382334, 10052.428847840887, -17576.964804764368, 2064.6529870811687, -950.150305050648, -18604.385090397012, -23635.583953330988, 26330.198506140532, -13090.388547228402, -461.58587474654615, 9754.54714948501, -187500.02235174447, -0.006, 0.976, -0.054, 192.0, 0.0, 0.0, 0.0, 0.0, 0.0, 0.0, 0.0, 0.0, 0.0, 1.74526679253666E9, 0.0, 2025-04-21 15:19:52.536
14.0, -27450.80321440735, -4065.7823164203546, 7348.471265849026, -2501.853108626975, 3902.9945615523534, 10059.17907466639, -17571.756848306282, 2073.683091841113, -953.6818806745864, -18592.225741413324, -23640.411930133338, 26324.342349093244, -13093.562494941056, -472.0241394071746, 9745.852320891896, -187500.02235174447, -0.006, 0.976, -0.054, 192.0, 0.0, 0.0, 0.0, 0.0, 0.0, 0.0, 0.0, 0.0, 0.0, 1.745266792536769E9, 0.0, 2025-04-21 15:19:52.536
16.0, -27434.307626999336, -4058.4956477279247, 7359.334213654306, -2515.286507044614, 3909.8118436112222, 10062.330670634588, -17560.983307478822, 2085.350702446783, -938.0580113003268, -18583.374450609022, -23625.972703215208, 26341.26261964591, -13088.086317549505, -462.3234823135713, 9763.532550756045, -187500.02235174447, -0.006, 0.976, -0.054, 192.0, 0.0, 0.0, 0.0, 0.0, 0.0, 0.0, 0.0, 0.0, 0.0, 1.745266792595687E9, 0.0, 2025-04-21 15:19:52.595
18.0, -27425.836315850775, -4047.900920856109, 7370.644196348691, -2520.203890824782, 3911.86820410111, 10076.702842319351, -17566.124208703543, 2079.583952377314, -929.7208106184972, -18592.784535024708, -23617.322578111005, 26349.778634283382, -13075.68109937681, -459.0377758786411, 9767.377050802357, -187500.02235174447, -0.006, 0.984, -0.038, 192.0, 127.5, 104.0, 15.0, 96.0, 127.0, 104.0, 0.0, 0.0, 0.0, 1.745266792595818E9, 0.0, 2025-04-21 15:19:52.595
20.0, -27427.6244554072, -4044.0564208097962, 7366.6432340911915, -2528.7422572067094, 3910.1918232669623, 10074.601778340553, -17560.268051656254, 2067.5587138603587, -914.1639964776035, -18582.72625001982, -23603.308034337526, 26362.63088734518, -13058.984346268697, -450.49940949671384, 9774.037870650038, -187500.02235174447, -0.006, 0.984, -0.038, 192.0, 0.0, 0.0, 0.0, 0.0, 0.0, 0.0, 0.0, 0.0, 0.0, 1.745266792595938E9, 0.0, 2025-04-21 15:19:52.595
22.0, -27422.684719882574, -4052.483028469447, 7360.474152621527, -2537.5041410331896, 3901.362884207116, 10065.549321836153, -17564.939566247413, 2071.5596761178585, -926.7033251170308, -18602.172267695936, -23613.500429809148, 26350.203317428033, -13079.25737848966, -461.96585440228637, 9757.385821030835, -187500.02235174447, -0.006, 0.984, -0.038, 192.0, 0.0, 0.0, 0.0, 0.0, 0.0, 0.0, 0.0, 0.0, 0.0, 1.745266792596056E9, 0.0, 2025-04-21 15:19:52.596
24.0, -27419.868400081206, -4049.622005179168, 7368.654891092168, -2535.201911354293, 3909.0518842997417, 10064.521141591209, -17561.922080745946, 2068.3410249162944, -922.2553279704247, -18606.709671820365, -23608.76185998462, 26354.338390152265, -13067.58976788399, -456.06499386608533, 9763.756068200597, -187500.02235174447, -0.006, 0.984, -0.038, 192.0, 0.0, 0.0, 0.0, 0.0, 0.0, 0.0, 0.0, 0.0, 0.0, 1.74526679259616E9, 0.0, 2025-04-21 15:19:52.596
26.0, -27428.116193785216, -4054.7629064038883, 7372.320577182839, -2530.9550799077847, 3913.3210674907054, 10066.71161254783, -17557.33997313261, 2064.585931847803, -917.1591302346147, -18593.231569913813, -23607.890141950866, 26352.259677917922, -13065.600462627466, -451.751107186211, 9772.495600282622, -187500.02235174447, -0.006, 0.984, -0.038, 192.0, 0.0, 0.0, 0.0, 0.0, 0.0, 0.0, 0.0, 0.0, 0.0, 1.745266792596282E9, 0.0, 2025-04-21 15:19:52.596
28.0, -27423.4223274496, -4057.6462814386227, 7373.974606272532, -2523.266079815159, 3911.354113978638, 10059.000260710747, -17559.66455455596, 2056.2934346548836, -925.0045925384275, -18602.596950840587, -23612.71811875321, 26354.293686663354, -13069.623776629422, -458.14370610042886, 9776.384803817846, -187500.02235174447, -0.006, 0.984, -0.038, 192.0, 0.0, 0.0, 15.0, 88.0, 127.5, 32.0, 0.0, 0.0, 0.0, 1.745266792596408E9, 0.0, 2025-04-21 15:19:52.596
30.0, -27425.5233914284, -4058.0486128388184, 7373.214646961052, -2513.9901058662067, 3907.643724399057, 10061.771877023206, -17556.08827544311, 2059.065050967342, -926.3680489502012, -18602.976930496327, -23612.941636197764, 26358.294648920855, -13070.96488129674, -458.9483689008199, 9773.233207849647, -187500.02235174447, -0.006, 0.984, -0.038, 192.0, 0.0, 0.0, 0.0, 0.0, 0.0, 0.0, 0.0, 0.0, 0.0, 1.745266792655986E9, 0.0, 2025-04-21 15:19:52.655
32.0, -27410.52537089889, -4048.2809005118493, 7378.199085974585, -2497.695684158288, 3914.3715994801046, 10075.115868463025, -17536.888126956, 2078.9134000436547, -919.9083948026175, -18594.170343180936, -23607.420755317304, 26373.31502119482, -13074.697622620777, -447.43722050633676, 9784.163210888293, -187500.02235174447, -0.006, 0.984, -0.038, 192.0, 0.0, 0.0, 0.0, 0.0, 0.0, 0.0, 0.0, 0.0, 0.0, 1.74526679265614E9, 0.0, 2025-04-21 15:19:52.656
34.0, -27423.511734427422, -4049.934929601542, 7376.388594673705, -2491.392492221891, 3903.3074859747276, 10082.201371455356, -17547.90753697247, 2075.31476918635, -924.9151855606062, -18573.29381385968, -23605.67731924979, 26380.199358487054, -13080.598483156979, -434.74142965572236, 9781.726870742665, -187500.02235174447, -0.006, 0.984, -0.038, 192.0, 0.0, 0.0, 0.0, 0.0, 0.0, 0.0, 0.0, 0.0, 0.0, 1.745266792656246E9, 0.0, 2025-04-21 15:19:52.656
36.0, -27415.398051190146, -4043.967013831975, 7377.148553985186, -2485.4469281967795, 3901.429939440482, 10100.507450164254, -17536.776368233724, 2082.869658812244, -909.760702819908, -18560.888595686985, -23600.245845347148, 26391.486989436984, -13081.313738979548, -422.850301605499, 9776.943597429228, -187500.02235174447, -0.006, 0.984, -0.038, 192.0, 0.0, 0.0, 0.0, 0.0, 0.0, 0.0, 0.0, 0.0, 0.0, 1.745266792656364E9, 0.0, 2025-04-21 15:19:52.656
38.0, -27404.736269084966, -4032.0088305483855, 7375.293359195395, -2487.4809369422123, 3901.3181807182054, 10109.895182835482, -17543.794815992693, 2078.578123876825, -917.5391098903549, -18569.739886491287, -23601.654005247834, 26392.157541770644, -13083.124230280428, -414.73661836822254, 9772.517952027078, -187500.02235174447, -0.006, 0.984, -0.038, 192.0, 0.0, 0.0, 15.0, 96.0, 127.5, 88.0, 0.0, 0.0, 0.0, 1.745266792656465E9, 0.0, 2025-04-21 15:19:52.656
40.0, -27416.314472712813, -4042.201226020006, 7372.141763227197, -2493.471204456235, 3898.3453987056496, 10097.244095473778, -17537.625734523026, 2069.413908650149, -920.4448366695449, -18558.161682863436, -23599.552941269034, 26397.007870317444, -13084.01830005864, -419.96692657076443, 9769.545170014522, -187500.02235174447, -0.006, 0.984, -0.038, 192.0, 0.0, 0.0, 0.0, 0.0, 0.0, 0.0, 0.0, 0.0, 0.0, 1.745266792656584E9, 0.0, 2025-04-21 15:19:52.656
42.0, -27419.33195821428, -4051.298386013316, 7372.722908583035, -2493.0241695671284, 3901.6087533961245, 10092.863153560538, -17533.0883303986, 2067.3575481602606, -930.0113832964163, -18587.263654144248, -23606.23611286117, 26392.381059215197, -13087.818096616042, -429.7569906421889, 9772.294434582524, -187500.02235174447, -0.006, 0.984, -0.038, 192.0, 0.0, 0.0, 0.0, 0.0, 0.0, 0.0, 0.0, 0.0, 0.0, 1.745266792656686E9, 0.0, 2025-04-21 15:19:52.656
44.0, -27415.152182001137, -4039.4966649409134, 7370.5771411153255, -2494.8346608680085, 3902.7039888744343, 10088.035176758192, -17547.79577825019, 2052.225417164018, -933.1406275201592, -18585.96725296584, -23609.14183964036, 26397.432553462095, -13086.074660548527, -433.66854592186763, 9768.65110023631, -187500.02235174447, -0.006, 0.984, -0.038, 192.0, 0.0, 0.0, 0.0, 0.0, 0.0, 0.0, 0.0, 0.0, 0.0, 1.745266792656798E9, 0.0, 2025-04-21 15:19:52.656
46.0, -27405.451524907534, -4034.936909072031, 7373.236998705506, -2491.1242712884273, 3910.638858156068, 10080.726156321307, -17541.134958402512, 2054.997033476476, -926.6586216281202, -18574.433752826902, -23599.687051735767, 26406.932044855603, -13080.4867244347, -430.4498947203034, 9769.209893847692, -187500.02235174447, -0.006, 0.984, -0.038, 192.0, 0.0, 0.0, 0.0, 0.0, 0.0, 0.0, 0.0, 0.0, 0.0, 1.745266792715534E9, 0.0, 2025-04-21 15:19:52.715
48.0, -27417.94615005805, -4049.1749702900615, 7360.585911343803, -2503.2165650387487, 3904.067445286208, 10062.42007761241, -17545.00181019328, 2038.613204790736, -923.7081913600197, -18581.29573837468, -23606.68314775028, 26399.51126569644, -13080.240855245693, -439.0776680800519, 9765.700669968208, -187500.02235174447, -0.005, 0.983, -0.026, 192.0, 127.5, 112.0, 15.0, 88.0, 127.5, 72.0, 0.0, 0.0, 0.0, 1.745266792715679E9, 0.0, 2025-04-21 15:19:52.715
50.0, -27407.105553997226, -4044.3469934877153, 7367.4702486360375, -2492.085396300006, 3911.7340936343785, 10070.444353871866, -17539.682095012915, 2043.3070711263504, -923.4176186821006, -18576.512465061245, -23607.443107061757, 26395.80087611686, -13078.698584878277, -438.6306331909458, 9767.019422891071, -187500.02235174447, -0.005, 0.983, -0.026, 192.0, 0.0, 0.0, 0.0, 0.0, 0.0, 0.0, 0.0, 0.0, 0.0, 1.745266792715814E9, 0.0, 2025-04-21 15:19:52.715
52.0, -27425.232818750483, -4052.7512494029106, 7362.508161366959, -2494.387625978902, 3905.3414947201604, 10066.979833481293, -17546.36526660505, 2040.289585624884, -921.2494994699359, -18575.752505749762, -23608.270121606605, 26402.50639945345, -13073.803552842564, -432.66271742137883, 9770.88627468184, -187500.02235174447, -0.005, 0.983, -0.026, 192.0, 0.0, 0.0, 0.0, 0.0, 0.0, 0.0, 0.0, 0.0, 0.0, 1.745266792715921E9, 0.0, 2025-04-21 15:19:52.715
54.0, -27418.169667502603, -4047.833865622743, 7366.754992813468, -2483.3458642179808, 3907.1966895099513, 10069.550284093653, -17536.776368233724, 2046.324556627817, -933.6100141537207, -18582.72625001982, -23618.06018567803, 26393.565701671327, -13078.296253478082, -441.4022495034039, 9760.783286188042, -187500.02235174447, -0.005, 0.983, -0.026, 192.0, 0.0, 0.0, 0.0, 0.0, 0.0, 0.0, 0.0, 0.0, 0.0, 1.745266792716029E9, 0.0, 2025-04-21 15:19:52.716
56.0, -27432.407728720635, -4056.193418049028, 7355.713231052546, -2493.9629428342514, 3892.4668899139037, 10063.470609601809, -17546.924060216435, 2041.2730623809175, -933.3194414758017, -18575.461933071845, -23614.640368776367, 26396.650242406162, -13074.608215642957, -436.9989558457084, 9761.051507121505, -187500.02235174447, -0.005, 0.983, -0.026, 192.0, 0.0, 0.0, 0.0, 0.0, 0.0, 0.0, 0.0, 0.0, 0.0, 1.745266792716139E9, 0.0, 2025-04-21 15:19:52.716
58.0, -27422.03651929337, -4056.8863221271426, 7351.153475183663, -2484.105823529461, 3890.4105294240153, 10075.026461485204, -17557.921118488448, 2031.8853297096884, -940.4272962125893, -18581.49690407478, -23622.821107247008, 26391.621099903718, -13084.01830005864, -440.8211041475659, 9744.913547624774, -187500.02235174447, -0.0045000000000000005, 0.9815, -0.019, 192.0, 127.5, 112.0, 15.0, 80.0, 127.5, 80.0, 0.0, 0.0, 0.0, 1.745266792716247E9, 0.0, 2025-04-21 15:19:52.716
60.0, -27430.753699630943, -4062.6307204521563, 7348.940652482588, -2487.659750897855, 3891.8633928136105, 10078.982720253793, -17550.500339329283, 2045.2069694050515, -944.0482788143491, -18571.72919174781, -23617.501392066646, 26400.003004074457, -13088.332186738515, -433.44502847731457, 9747.081666836937, -187500.02235174447, -0.0045000000000000005, 0.9815, -0.019, 192.0, 0.0, 0.0, 0.0, 0.0, 0.0, 0.0, 0.0, 0.0, 0.0, 1.745266792775802E9, 0.0, 2025-04-21 15:19:52.775
62.0, -27434.62055142171, -4065.2458745534273, 7351.958137984055, -2488.3079514870587, 3894.4114916815156, 10069.147952693458, -17549.874490484537, 2041.8542077367554, -934.6158426542095, -18591.175209423927, -23620.72004326821, 26389.721201625016, -13084.621797158934, -443.1009820820072, 9744.041829591017, -187500.02235174447, -0.0045000000000000005, 0.9815, -0.019, 192.0, 0.0, 0.0, 0.0, 0.0, 0.0, 0.0, 0.0, 0.0, 0.0, 1.745266792775949E9, 0.0, 2025-04-21 15:19:52.775
64.0, -27429.725519385996, -4059.5238279728687, 7357.411963631149, -2479.456660682757, 3901.8993260740435, 10077.596912097564, -17540.956144446867, 2049.6996700405684, -943.8471131142513, -18590.884636746006, -23617.836668233474, 26400.539445941384, -13078.564474411545, -440.5528832141022, 9748.132198826337, -187500.02235174447, -0.0045000000000000005, 0.9815, -0.019, 192.0, 0.0, 0.0, 0.0, 0.0, 0.0, 0.0, 0.0, 0.0, 0.0, 1.745266792776054E9, 0.0, 2025-04-21 15:19:52.776
66.0, -27412.80524883333, -4049.733763901444, 7365.369184657238, -2468.1690297328273, 3914.9974483248534, 10081.173191210413, -17531.590763520093, 2058.0815742113086, -935.1746362655922, -18583.01682269774, -23611.57817978599, 26413.61521644774, -13071.478971419212, -433.2662145216721, 9757.11760009737, -187500.02235174447, -0.0045000000000000005, 0.9815, -0.019, 192.0, 0.0, 0.0, 0.0, 0.0, 0.0, 0.0, 0.0, 0.0, 0.0, 1.745266792776167E9, 0.0, 2025-04-21 15:19:52.776
68.0, -27412.604083133232, -4053.6229674366678, 7364.922149768133, -2468.951340788763, 3910.549451178247, 10082.134316221991, -17533.356551332065, 2058.327443400317, -925.4963309164442, -18572.91383420394, -23604.00093841564, 26418.733765928006, -13062.717087592733, -431.0086883316861, 9769.70163222571, -187500.02235174447, -0.00525, 0.97975, -0.018500000000000003, 192.0, 127.5, 104.0, 15.0, 72.0, 127.5, 56.0, 0.0, 0.0, 0.0, 1.745266792776278E9, 0.0, 2025-04-21 15:19:52.776
70.0, -27423.04234779386, -4060.8649326401874, 7357.188446186597, -2480.9095240723523, 3902.681637129979, 10064.789362524672, -17543.347781103585, 2046.0563356943533, -933.5653106648101, -18573.785552237696, -23608.71715649571, 26412.698794925072, -13069.623776629422, -436.9766041012531, 9761.163265843781, -187500.02235174447, -0.00525, 0.97975, -0.018500000000000003, 192.0, 0.0, 0.0, 0.0, 0.0, 0.0, 0.0, 0.0, 0.0, 0.0, 1.745266792776398E9, 0.0, 2025-04-21 15:19:52.776
72.0, -27416.560341901823, -4053.0865255697404, 7359.31186190985, -2473.4216896798243, 3905.430901697982, 10071.271368416712, -17540.218536879842, 2044.5587688158475, -930.3019559743352, -18571.796246981175, -23609.7229849962, 26414.822210648326, -13065.48870390519, -439.7482204137111, 9757.385821030835, -187500.02235174447, -0.00525, 0.97975, -0.018500000000000003, 192.0, 0.0, 0.0, 0.0, 0.0, 0.0, 0.0, 0.0, 0.0, 0.0, 1.745266792776515E9, 0.0, 2025-04-21 15:19:52.776
74.0, -27410.055984265327, -4047.744458644922, 7364.7656875569455, -2469.0630995110396, 3906.324971476194, 10071.13725794998, -17540.397350835487, 2046.481018839004, -924.2669849714024, -18572.24328187028, -23605.47615354969, 26426.13219334271, -13054.871625288919, -435.72490641175585, 9757.609338475388, -187500.02235174447, -0.00525, 0.97975, -0.018500000000000003, 192.0, 0.0, 0.0, 0.0, 0.0, 0.0, 0.0, 0.0, 0.0, 0.0, 1.745266792776631E9, 0.0, 2025-04-21 15:19:52.776
76.0, -27417.834391335775, -4051.6560139246008, 7360.429449132615, -2472.1029367569613, 3900.0217795397975, 10068.902083504448, -17543.548946803683, 2050.3031671408617, -922.858825070718, -18571.63978476999, -23603.330386081983, 26424.36640553074, -13062.784142826098, -440.8658076364765, 9753.78719017353, -187500.02235174447, -0.00525, 0.97975, -0.018500000000000003, 192.0, 0.0, 0.0, 0.0, 0.0, 0.0, 0.0, 0.0, 0.0, 0.0, 1.745266792836182E9, 0.0, 2025-04-21 15:19:52.836
78.0, -27413.967539545007, -4052.840656380732, 7349.5665013273365, -2475.947436803274, 3893.5174219033033, 10062.80005726815, -17543.012504936756, 2046.5033705834594, -925.0269442828828, -18568.287023101693, -23601.899874436844, 26428.56853348834, -13063.007660270652, -445.06793559407424, 9752.893120395318, -187500.02235174447, -0.007625, 0.9788749999999999, -0.018250000000000002, 192.0, 127.5, 88.0, 15.0, 72.0, 127.5, 56.0, 0.0, 0.0, 0.0, 1.74526679283633E9, 0.0, 2025-04-21 15:19:52.836
80.0, -27408.200789475537, -4052.4383249805364, 7354.305071151862, -2468.9066372998523, 3898.524212661292, 10076.2781591747, -17540.66557176895, 2058.5062573559594, -934.0570490428269, -18586.704860532864, -23610.080612907484, 26422.734728185504, -13068.439134173292, -450.58881647453507, 9745.293527280513, -187500.02235174447, -0.007625, 0.9788749999999999, -0.018250000000000002, 192.0, 0.0, 0.0, 0.0, 0.0, 0.0, 0.0, 0.0, 0.0, 0.0, 1.745266792836443E9, 0.0, 2025-04-21 15:19:52.836
82.0, -27425.836315850775, -4063.7483076749218, 7333.942631953077, -2488.464413698246, 3884.57672412118, 10062.88946424597, -17559.306926644676, 2041.0495449363643, -928.3573542067236, -18587.353061122067, -23605.744374483154, 26428.076795110323, -13066.360421938947, -441.7151739257782, 9747.707515681686, -187500.02235174447, -0.007625, 0.9788749999999999, -0.018250000000000002, 192.0, 0.0, 0.0, 0.0, 0.0, 0.0, 0.0, 0.0, 0.0, 0.0, 1.745266792836555E9, 0.0, 2025-04-21 15:19:52.836
84.0, -27416.89561806865, -4056.9980808494192, 7335.4178470871275, -2484.552858418567, 3895.8420033266552, 10063.112981690525, -17544.890051471004, 2043.709402526546, -944.2494445144469, -18591.35402337957, -23622.932865969287, 26409.99423384598, -13081.246683746182, -453.62865372045684, 9729.379085228335, -187500.02235174447, -0.007625, 0.9788749999999999, -0.018250000000000002, 192.0, 0.0, 0.0, 0.0, 0.0, 0.0, 0.0, 0.0, 0.0, 0.0, 1.745266792836663E9, 0.0, 2025-04-21 15:19:52.836
86.0, -27420.896580326153, -4055.4111069930923, 7345.230262903007, -2482.1835735063046, 3905.3414947201604, 10064.901121246949, -17529.17677511892, 2055.8463997657777, -925.2728134718911, -18578.233549384302, -23607.688976250767, 26427.115670098745, -13058.358497423947, -439.2564820356944, 9751.395553516812, -187500.02235174447, -0.007625, 0.9788749999999999, -0.018250000000000002, 192.0, 0.0, 0.0, 0.0, 0.0, 0.0, 0.0, 0.0, 0.0, 0.0, 1.745266792836768E9, 0.0, 2025-04-21 15:19:52.836
88.0, -27422.349443715746, -4061.5354849738465, 7340.4693413340265, -2487.570343920034, 3902.5698784077026, 10059.335536877577, -17530.830804208614, 2049.967890974032, -940.6731654015978, -18586.526046577223, -23618.082537422484, 26413.99519610348, -13075.30111972107, -449.7618019296887, 9749.585062215932, -187500.02235174447, -0.0068125, 0.9834375, -0.017125, 192.0, 127.5, 104.0, 15.0, 112.0, 127.5, 64.0, 0.0, 0.0, 0.0, 1.74526679283689E9, 0.0, 2025-04-21 15:19:52.836
90.0, -27416.962673302016, -4054.248816281416, 7350.16999842763, -2474.785146091598, 3912.3152389902166, 10067.94095849287, -17521.219554092833, 2058.4615538670487, -935.4428571990559, -18577.16066565045, -23612.740470497665, 26423.002949118967, -13063.34293643748, -446.6325577059457, 9758.369297786869, -187500.02235174447, -0.0068125, 0.9834375, -0.017125, 192.0, 0.0, 0.0, 0.0, 0.0, 0.0, 0.0, 0.0, 0.0, 0.0, 1.745266792896464E9, 0.0, 2025-04-21 15:19:52.896
92.0, -27427.691510640565, -4066.5646274762903, 7342.726867524013, -2477.467355426235, 3898.613619639113, 10055.491036831265, -17535.837594966604, 2046.995108961476, -943.7577061364301, -18576.95949995035, -23619.110717667427, 26422.2876932964, -13064.259357960149, -445.9620053722865, 9754.949480885207, -187500.02235174447, -0.0068125, 0.9834375, -0.017125, 192.0, 0.0, 0.0, 0.0, 0.0, 0.0, 0.0, 0.0, 0.0, 0.0, 1.745266792896598E9, 0.0, 2025-04-21 15:19:52.896
94.0, -27425.970426317504, -4063.033051852352, 7352.8522077622665, -2468.034919266095, 3903.4415964414593, 10066.063411958625, -17533.065978654144, 2054.5276468429147, -947.9821858384831, -18580.647537785477, -23620.787098501576, 26422.488858996494, -13060.526616636113, -445.3138047830826, 9751.50731223909, -187500.02235174447, -0.0068125, 0.9834375, -0.017125, 192.0, 0.0, 0.0, 0.0, 0.0, 0.0, 0.0, 0.0, 0.0, 0.0, 1.745266792896719E9, 0.0, 2025-04-21 15:19:52.896
96.0, -27425.545743172854, -4068.643339710634, 7344.35854486925, -2468.7725268331205, 3893.1597939920184, 10065.348156136055, -17542.85604272557, 2048.8503037512664, -933.4759036869889, -18584.268520387235, -23610.52764779659, 26426.17689683162, -13057.933814279297, -439.21177854678376, 9752.446085506212, -187500.02235174447, -0.0068125, 0.9834375, -0.017125, 192.0, 0.0, 0.0, 0.0, 0.0, 0.0, 0.0, 0.0, 0.0, 0.0, 1.745266792896834E9, 0.0, 2025-04-21 15:19:52.896
98.0, -27427.289179240368, -4070.2079618225057, 7346.772533270423, -2467.721994843721, 3896.8254800826885, 10064.31997589111, -17545.58295554912, 2051.2419404079847, -942.5730636802988, -18596.36081413756, -23617.05435717754, 26422.198286318577, -13062.359459681447, -444.5314937271469, 9742.4995592236, -187500.02235174447, -0.00840625, 0.98371875, -0.018562500000000003, 192.0, 127.5, 88.0, 15.0, 96.0, 127.5, 48.0, 0.0, 0.0, 0.0, 1.745266792896941E9, 0.0, 2025-04-21 15:19:52.896
100.0, -27417.5214669134, -4066.51992398738, 7349.477094349515, -2458.334262172492, 3908.8730703440992, 10070.556112594142, -17529.869679197036, 2057.3439666442832, -936.1581130216257, -18589.610587312054, -23612.80752573103, 26428.36736778824, -13053.575224110511, -447.03488910614124, 9748.042791848517, -187500.02235174447, -0.00840625, 0.98371875, -0.018562500000000003, 192.0, 0.0, 0.0, 0.0, 0.0, 0.0, 0.0, 0.0, 0.0, 0.0, 1.745266792897059E9, 0.0, 2025-04-21 15:19:52.897
102.0, -27433.19003977657, -4067.1457728321284, 7343.30801287985, -2463.5422186305786, 3900.2452969843507, 10071.025499227704, -17538.31863860114, 2051.353699130261, -945.0988108037485, -18579.038212184692, -23617.233171133183, 26430.200210833576, -13067.500360906168, -444.1962175603173, 9750.54618722751, -187500.02235174447, -0.00840625, 0.98371875, -0.018562500000000003, 192.0, 0.0, 0.0, 0.0, 0.0, 0.0, 0.0, 0.0, 0.0, 0.0, 1.745266792897165E9, 0.0, 2025-04-21 15:19:52.897
104.0, -27435.961656089028, -4063.99417686393, 7345.565539069837, -2457.3507854164586, 3901.139366762563, 10079.496810376264, -17538.162176389957, 2053.4100596201492, -930.9725083079944, -18575.283119116204, -23608.560694284522, 26434.447042280084, -13058.023221257117, -441.1563803143955, 9755.128294840848, -187500.02235174447, -0.00840625, 0.98371875, -0.018562500000000003, 192.0, 0.0, 0.0, 0.0, 0.0, 0.0, 0.0, 0.0, 0.0, 0.0, 1.745266792897282E9, 0.0, 2025-04-21 15:19:52.897
106.0, -27426.52921992889, -4068.7550984329105, 7343.106847179753, -2460.860009295942, 3902.1228435185963, 10073.99828124026, -17522.51595527124, 2053.2088939200517, -945.9705288375055, -18582.882712231007, -23617.56844730001, 26433.307103312865, -13062.091238747984, -437.58010120154637, 9756.044716363516, -187500.02235174447, -0.00840625, 0.98371875, -0.018562500000000003, 192.0, 0.0, 0.0, 0.0, 0.0, 0.0, 0.0, 0.0, 0.0, 0.0, 1.745266792956758E9, 0.0, 2025-04-21 15:19:52.956
108.0, -27422.081222782283, -4070.3420722892374, 7345.185559414096, -2456.926102271808, 3899.3065237172277, 10071.807810283639, -17533.84828971008, 2055.3993648766714, -954.8218196418071, -18588.783572767206, -23619.714214767722, 26429.864934666748, -13061.15246548086, -441.31284252558265, 9763.085515866938, -187500.02235174447, -0.008203125, 0.985859375, -0.01928125, 192.0, 127.5, 96.0, 15.0, 112.0, 127.5, 48.0, 0.0, 0.0, 0.0, 1.745266792956888E9, 0.0, 2025-04-21 15:19:52.956
110.0, -27422.684719882574, -4063.904769886109, 7351.958137984055, -2449.8629510239307, 3908.426035454993, 10073.305377162145, -17516.346873801576, 2067.804583049367, -946.2163980265138, -18581.96629070834, -23612.114621652916, 26437.620989992738, -13053.910500277341, -436.0154790896749, 9767.757030458097, -187500.02235174447, -0.008203125, 0.985859375, -0.01928125, 192.0, 0.0, 0.0, 0.0, 0.0, 0.0, 0.0, 0.0, 0.0, 0.0, 1.745266792957017E9, 0.0, 2025-04-21 15:19:52.957
112.0, -27423.064699538318, -4071.571418234279, 7348.7394867824905, -2453.595692347967, 3903.3745412080934, 10066.912778247926, -17518.492641269284, 2062.3731091467275, -935.9792990659832, -18591.756354779765, -23609.34300534046, 26440.549068516382, -13057.755000323654, -437.2671767791721, 9768.137010113836, -187500.02235174447, -0.008203125, 0.985859375, -0.01928125, 192.0, 0.0, 0.0, 0.0, 0.0, 0.0, 0.0, 0.0, 0.0, 0.0, 1.745266792957123E9, 0.0, 2025-04-21 15:19:52.957
114.0, -27436.878077611695, -4075.3712147916813, 7345.6325943032025, -2450.332337657492, 3900.4688144289034, 10069.259711415734, -17525.779309961716, 2061.0990597127748, -941.0754968017933, -18588.403593111467, -23612.315787353014, 26436.391644047697, -13052.949375265764, -441.35754601449327, 9762.526722255556, -187500.02235174447, -0.008203125, 0.985859375, -0.01928125, 192.0, 0.0, 0.0, 0.0, 0.0, 0.0, 0.0, 0.0, 0.0, 0.0, 1.745266792957226E9, 0.0, 2025-04-21 15:19:52.957
116.0, -27428.965560074517, -4071.772583934377, 7342.257480890451, -2451.561683602534, 3896.4007969380377, 10064.61054856903, -17531.769577475738, 2054.751164287468, -957.95106386555, -18572.377392337014, -23621.748223513154, 26436.436347536608, -13064.214654471238, -442.67629893735636, 9757.207007075192, -187500.02235174447, -0.008203125, 0.985859375, -0.01928125, 192.0, 0.0, 0.0, 0.0, 0.0, 0.0, 0.0, 0.0, 0.0, 0.0, 1.745266792957351E9, 0.0, 2025-04-21 15:19:52.957
118.0, -27429.367891474714, -4072.219618823483, 7342.50335007946, -2447.113686455928, 3900.3347039621717, 10062.42007761241, -17531.36724607554, 2052.4042311196604, -955.4029649976451, -18578.25590112876, -23624.318674125516, 26432.61419923475, -13063.275881204116, -451.8628659084876, 9749.048620349005, -187500.02235174447, -0.008203125, 0.985859375, -0.01928125, 192.0, 0.0, 0.0, 0.0, 0.0, 0.0, 0.0, 0.0, 0.0, 0.0, 1.745266792957464E9, 0.0, 2025-04-21 15:19:52.957
120.0, -27434.777013632898, -4074.7230142024773, 7339.329402366806, -2441.369288130914, 3900.5358696622698, 10065.884598002982, -17533.60242052107, 2053.387707875694, -949.1668282946144, -18583.061526186648, -23618.99895894515, 26445.868783696747, -13058.313793935036, -443.5480169711133, 9759.777457687553, -187500.02235174447, -0.01, 0.982, -0.024, 192.0, 127.5, 88.0, 15.0, 88.0, 127.5, 32.0, 0.0, 0.0, 0.0, 1.745266793016155E9, 0.0, 2025-04-21 15:19:53.016
122.0, -27445.259981782438, -4085.2059823520167, 7333.272079619418, -2445.8396370219752, 3896.8254800826885, 10062.777705523695, -17537.58103103412, 2050.0572979518533, -957.6828429320864, -18590.01291871225, -23629.10194743895, 26432.591847490294, -13065.511055649646, -450.365299029982, 9748.22160580416, -187500.02235174447, -0.01, 0.982, -0.024, 192.0, 0.0, 0.0, 0.0, 0.0, 0.0, 0.0, 0.0, 0.0, 0.0, 1.745266793016323E9, 0.0, 2025-04-21 15:19:53.016
124.0, -27423.33292047178, -4078.5228107598796, 7337.9435942105765, -2439.715259041221, 3906.6378958985683, 10063.828237513095, -17526.874545440023, 2056.136972443697, -947.535150949377, -18576.065430172137, -23621.971740957706, 26434.00000739098, -13054.871625288919, -447.12429608396246, 9753.630727962343, -187500.02235174447, -0.01, 0.982, -0.024, 192.0, 0.0, 0.0, 0.0, 0.0, 0.0, 0.0, 0.0, 0.0, 0.0, 1.745266793016429E9, 0.0, 2025-04-21 15:19:53.016
126.0, -27426.305702484337, -4077.584037492757, 7339.9328994671, -2437.5694915735116, 3908.783663366278, 10065.862246258528, -17527.545097773684, 2052.8512660087667, -954.1289155636925, -18600.182962439416, -23626.889124737874, 26428.724995699526, -13062.292404448082, -457.3166915555825, 9751.641422705821, -187500.02235174447, -0.01, 0.982, -0.024, 192.0, 0.0, 0.0, 0.0, 0.0, 0.0, 0.0, 0.0, 0.0, 0.0, 1.745266793016548E9, 0.0, 2025-04-21 15:19:53.016
128.0, -27419.846048336753, -4067.8833803991533, 7348.426562360116, -2431.467465337213, 3917.143215792563, 10074.557074851642, -17519.52082151423, 2062.618978335736, -931.665412386109, -18586.749564021775, -23610.460592563224, 26448.059254653366, -13046.579128096, -446.74431642822225, 9772.920283427273, -187500.02235174447, -0.01, 0.982, -0.024, 192.0, 0.0, 0.0, 0.0, 0.0, 0.0, 0.0, 0.0, 0.0, 0.0, 1.745266793016662E9, 0.0, 2025-04-21 15:19:53.016
130.0, -27410.503019154432, -4062.384851263148, 7350.058239705353, -2427.555910057534, 3918.1490442930517, 10072.076031217102, -17515.31869355663, 2062.909551013655, -939.6673369011089, -18582.234511641804, -23610.52764779659, 26445.801728463382, -13047.160273451838, -452.0863833530407, 9773.009690405093, -187500.02235174447, -0.01, 0.986, -0.024, 192.0, 127.5, 88.0, 15.0, 104.0, 127.5, 32.0, 0.0, 0.0, 0.0, 1.745266793016765E9, 0.0, 2025-04-21 15:19:53.016
132.0, -27424.159935016625, -4075.2594560694047, 7340.35758261175, -2437.05540145104, 3901.6534568850348, 10066.644557314463, -17527.746263473782, 2056.472248610526, -946.2611015154245, -18577.115962161537, -23612.04756641955, 26446.427577308128, -13049.06017173054, -452.108735097496, 9769.478114781155, -187500.02235174447, -0.01, 0.986, -0.024, 192.0, 0.0, 0.0, 0.0, 0.0, 0.0, 0.0, 0.0, 0.0, 0.0, 1.745266793016881E9, 0.0, 2025-04-21 15:19:53.016
134.0, -27408.71487959801, -4054.2711680258717, 7358.373088642727, -2409.562755771012, 3908.8060151107334, 10092.974912282814, -17512.860001666548, 2073.280760440917, -944.4729619589999, -18582.256863386257, -23609.298301851548, 26449.601525020782, -13043.941622250275, -445.42556350535915, 9764.068992622972, -187500.02235174447, -0.01, 0.986, -0.024, 192.0, 0.0, 0.0, 0.0, 0.0, 0.0, 0.0, 0.0, 0.0, 0.0, 1.745266793016991E9, 0.0, 2025-04-21 15:19:53.016
136.0, -27400.601196360734, -4044.704621399, 7365.927978268622, -2400.689113222255, 3903.0616167857193, 10100.105118764057, -17515.653969723462, 2084.2107634795625, -916.4438744120449, -18556.127674118005, -23586.298356807038, 26480.71515330257, -13027.021351697607, -418.58111841453535, 9784.185562632747, -187500.02235174447, -0.01, 0.986, -0.024, 192.0, 0.0, 0.0, 0.0, 0.0, 0.0, 0.0, 0.0, 0.0, 0.0, 1.745266793075854E9, 0.0, 2025-04-21 15:19:53.075
138.0, -27386.117265953693, -4041.3742114751594, 7371.27004519344, -2394.3859212858583, 3903.9333348194764, 10101.66974087593, -17517.017426135233, 2085.9765512915315, -914.1416447331483, -18562.363810821036, -23591.86394117641, 26475.95423173359, -13035.24679365716, -423.9455370838091, 9772.74146947163, -187500.02235174447, -0.01, 0.986, -0.024, 192.0, 0.0, 0.0, 0.0, 0.0, 0.0, 0.0, 0.0, 0.0, 0.0, 1.745266793076026E9, 0.0, 2025-04-21 15:19:53.076
140.0, -27426.28335073988, -4081.584999750257, 7341.743390767979, -2430.685154281277, 3876.105412972619, 10059.670813044408, -17550.969725962845, 2045.4528385940598, -917.2932407013466, -18558.67577298591, -23594.702612722234, 26473.652002054692, -13027.378979608891, -431.27690926514975, 9774.5072572836, -187500.02235174447, -0.008, 0.98, -0.026000000000000002, 192.0, 127.5, 96.0, 15.0, 80.0, 127.5, 24.0, 0.0, 0.0, 0.0, 1.745266793076149E9, 0.0, 2025-04-21 15:19:53.076
142.0, -27423.221161749505, -4080.1768398495724, 7350.617033316736, -2419.0398954200623, 3886.074290999686, 10063.291795646168, -17531.344894331087, 2054.7288125430123, -951.3796509956899, -18590.437601856902, -23620.451822334748, 26440.929048172125, -13044.254546672648, -461.4964677687249, 9752.73665818413, -187500.02235174447, -0.008, 0.98, -0.026000000000000002, 192.0, 0.0, 0.0, 0.0, 0.0, 0.0, 0.0, 0.0, 0.0, 0.0, 1.745266793076272E9, 0.0, 2025-04-21 15:19:53.076
144.0, -27415.04042327886, -4070.744403689433, 7360.183579943608, -2405.6959039802437, 3895.663189371013, 10074.624130085007, -17514.37992028951, 2070.777365061923, -935.6440228991537, -18585.609625054556, -23608.828915217986, 26458.072836169344, -13034.933869234786, -448.93478738484237, 9769.16519035878, -187500.02235174447, -0.008, 0.98, -0.026000000000000002, 192.0, 0.0, 0.0, 0.0, 0.0, 0.0, 0.0, 0.0, 0.0, 0.0, 1.745266793076388E9, 0.0, 2025-04-21 15:19:53.076
146.0, -27433.39120547667, -4088.424633553581, 7343.039791946387, -2421.208014632227, 3880.776927563778, 10059.581406066585, -17533.334199587607, 2050.3478706297724, -936.761610121919, -18591.599892568578, -23611.6228832749, 26454.429501823128, -13038.599555325456, -452.98045313125294, 9765.79007694603, -187500.02235174447, -0.008, 0.98, -0.026000000000000002, 192.0, 0.0, 0.0, 0.0, 0.0, 0.0, 0.0, 0.0, 0.0, 0.0, 1.745266793076494E9, 0.0, 2025-04-21 15:19:53.076
148.0, -27434.5758479328, -4093.990217922952, 7336.647193032169, -2424.8737007228974, 3875.6360263390575, 10062.487132845776, -17541.872565969537, 2045.3634316162386, -955.2017992975473, -18597.433697871413, -23624.20691540324, 26441.085510383313, -13059.699602091267, -466.5703137600796, 9752.334326783935, -187500.02235174447, -0.008, 0.98, -0.026000000000000002, 192.0, 0.0, 0.0, 0.0, 0.0, 0.0, 0.0, 0.0, 0.0, 0.0, 1.745266793076603E9, 0.0, 2025-04-21 15:19:53.076
150.0, -27421.120097770705, -4082.322607317282, 7345.185559414096, -2408.3110580815146, 3887.236581711362, 10068.23153117079, -17526.248696595278, 2056.9863387329983, -947.8927788606619, -18594.662081558952, -23621.882333979887, 26448.729806987027, -13048.76959905262, -459.46245902329196, 9754.97183262966, -187500.02235174447, -0.004, 0.984, -0.026000000000000002, 192.0, 127.5, 112.0, 15.0, 96.0, 127.5, 24.0, 0.0, 0.0, 0.0, 1.745266793136175E9, 0.0, 2025-04-21 15:19:53.136
152.0, -27426.14924027315, -4081.540296261346, 7340.536396567392, -2407.3275813254813, 3877.424165895482, 10060.900158989449, -17541.939621202902, 2059.8473620232776, -942.5954154247542, -18590.705822790365, -23609.834743718475, 26462.632592038226, -13040.879433259897, -456.15440084390656, 9758.995146631616, -187500.02235174447, -0.004, 0.984, -0.026000000000000002, 192.0, 0.0, 0.0, 0.0, 0.0, 0.0, 0.0, 0.0, 0.0, 0.0, 1.745266793136327E9, 0.0, 2025-04-21 15:19:53.136
154.0, -27414.03459477837, -4074.387738035648, 7347.845417004278, -2396.397578286836, 3896.1549277490294, 10071.2266649278, -17512.189449332887, 2069.0786324833193, -948.8092003833295, -18598.59598858309, -23612.963987942217, 26460.75504550398, -13047.830825785497, -463.28460732514947, 9760.157437343292, -187500.02235174447, -0.004, 0.984, -0.026000000000000002, 192.0, 0.0, 0.0, 0.0, 0.0, 0.0, 0.0, 0.0, 0.0, 0.0, 1.745266793136444E9, 0.0, 2025-04-21 15:19:53.136
156.0, -27414.90631281213, -4072.487839756947, 7346.414905359138, -2395.9952468866404, 3889.5611631347138, 10071.293720161168, -17525.153461116966, 2059.936769001099, -939.890854345662, -18586.593101810588, -23607.890141950866, 26466.81236825137, -13045.14861645086, -456.3108630550937, 9774.395498561324, -187500.02235174447, -0.004, 0.984, -0.026000000000000002, 192.0, 0.0, 0.0, 0.0, 0.0, 0.0, 0.0, 0.0, 0.0, 0.0, 1.745266793136552E9, 0.0, 2025-04-21 15:19:53.136
158.0, -27413.118173255705, -4072.8231159237766, 7344.135027424697, -2393.04481661854, 3890.00819802382, 10070.824333527606, -17519.61022849205, 2071.31380692885, -939.0861915452709, -18577.317127861636, -23604.358566326926, 26469.271060141455, -13043.360476894437, -456.623787477468, 9773.546132272022, -187500.02235174447, -0.004, 0.984, -0.026000000000000002, 192.0, 0.0, 0.0, 0.0, 0.0, 0.0, 0.0, 0.0, 0.0, 0.0, 1.745266793136657E9, 0.0, 2025-04-21 15:19:53.136
160.0, -27413.274635466893, -4067.257531554405, 7340.961079712043, -2393.8941829078417, 3883.883820043066, 10065.929301491893, -17518.85026918057, 2069.190391205596, -945.7246596484971, -18576.803037739162, -23603.643310504354, 26470.656868297683, -13046.86970077392, -454.1427438429289, 9773.322614827468, -187500.02235174447, -0.004, 0.984, -0.026000000000000002, 192.0, 0.0, 0.0, 15.0, 96.0, 127.5, 24.0, 0.0, 0.0, 0.0, 1.745266793136776E9, 0.0, 2025-04-21 15:19:53.136
162.0, -27413.274635466893, -4065.9834821204527, 7343.2856611353955, -2387.9039153938193, 3883.2132677094064, 10068.387993381977, -17520.2360773368, 2064.228303936518, -946.3058050043351, -18571.528026047712, -23609.790040229564, 26463.99604845, -13053.016430499129, -460.53534275714674, 9761.900873410807, -187500.02235174447, -0.004, 0.984, -0.026000000000000002, 192.0, 0.0, 0.0, 0.0, 0.0, 0.0, 0.0, 0.0, 0.0, 0.0, 1.745266793136892E9, 0.0, 2025-04-21 15:19:53.136
164.0, -27405.116248740705, -4062.8095344077988, 7343.710344280046, -2383.0312351025623, 3881.335721175161, 10073.595949840064, -17522.203030848865, 2064.921208014632, -945.0541073148379, -18559.4804357863, -23601.676356992288, 26477.451798612095, -13037.973706480707, -450.90174089690936, 9768.449934536211, -187500.02235174447, -0.004, 0.984, -0.026000000000000002, 192.0, 0.0, 0.0, 0.0, 0.0, 0.0, 0.0, 0.0, 0.0, 0.0, 1.745266793137E9, 0.0, 2025-04-21 15:19:53.137
166.0, -27417.588522146765, -4076.37704329217, 7331.4839400629935, -2391.0108078731073, 3868.8410960246442, 10060.967214222816, -17530.584935019604, 2061.5013911129704, -939.5555781788324, -18593.946825736384, -23610.304130352037, 26471.86386249827, -13049.373096152915, -458.72485145626683, 9757.40817277529, -187500.02235174447, -0.004, 0.984, -0.026000000000000002, 192.0, 0.0, 0.0, 0.0, 0.0, 0.0, 0.0, 0.0, 0.0, 0.0, 1.745266793196475E9, 0.0, 2025-04-21 15:19:53.196
168.0, -27416.940321557562, -4078.768679948888, 7331.4839400629935, -2385.981665370663, 3872.5067821153143, 10075.808772541139, -17530.36141757505, 2063.356585902761, -951.826685884796, -18592.24809315778, -23619.110717667427, 26464.018400194454, -13056.279785189605, -461.85409568000983, 9754.211873318181, -187500.02235174447, -0.004, 0.984, -0.026000000000000002, 192.0, 0.0, 0.0, 0.0, 0.0, 0.0, 0.0, 0.0, 0.0, 0.0, 1.74526679319661E9, 0.0, 2025-04-21 15:19:53.196
170.0, -27422.5729611603, -4085.876534685676, 7325.828948715801, -2393.491851507646, 3866.5388663457475, 10065.169342180412, -17540.66557176895, 2052.0466032083755, -953.1230870632038, -18598.461878116355, -23622.28466538008, 26459.793920492404, -13055.765695067132, -466.97264516027514, 9747.282832537036, -187500.02235174447, -0.004, 0.984, -0.026000000000000002, 192.0, 0.0, 0.0, 15.0, 104.0, 127.5, 24.0, 0.0, 0.0, 0.0, 1.745266793196727E9, 0.0, 2025-04-21 15:19:53.196
172.0, -27410.23479822097, -4074.387738035648, 7338.971774455521, -2381.980703113163, 3875.390157150049, 10075.004109740748, -17532.70835074286, 2067.737527816001, -955.5594272088323, -18586.838970999597, -23618.306054867036, 26463.347847860798, -13052.882320032397, -462.92697941386456, 9751.082629094439, -187500.02235174447, -0.004, 0.984, -0.026000000000000002, 192.0, 0.0, 0.0, 0.0, 0.0, 0.0, 0.0, 0.0, 0.0, 0.0, 1.745266793196855E9, 0.0, 2025-04-21 15:19:53.196
174.0, -27423.556437916333, -4083.4625462845024, 7329.338172595284, -2383.657083947311, 3868.885799513555, 10075.629958585496, -17540.084426413112, 2063.0883649692973, -940.7178688905084, -18592.136334435505, -23611.131144896885, 26469.71809503056, -13044.545119350567, -459.2836450676495, 9748.914509882274, -187500.02235174447, -0.004, 0.984, -0.026000000000000002, 192.0, 0.0, 0.0, 0.0, 0.0, 0.0, 0.0, 0.0, 0.0, 0.0, 1.745266793196962E9, 0.0, 2025-04-21 15:19:53.196
176.0, -27421.678891382086, -4081.607351494712, 7326.387742327183, -2381.8912961353417, 3867.075308212675, 10077.753374308752, -17540.397350835487, 2065.4576498815595, -960.2085900555361, -18596.003186226273, -23624.743357270167, 26464.80071125039, -13054.961032266741, -461.6976334688227, 9738.342134754914, -187500.02235174447, -0.004, 0.984, -0.026000000000000002, 192.0, 0.0, 0.0, 0.0, 0.0, 0.0, 0.0, 0.0, 0.0, 0.0, 1.745266793197065E9, 0.0, 2025-04-21 15:19:53.197
178.0, -27415.152182001137, -4070.386775778148, 7345.364373369739, -2369.9107611072973, 3882.565067120203, 10088.325749436111, -17516.32452205712, 2077.5946471207913, -939.7790956233855, -18583.642671542486, -23609.611226273923, 26477.541205589918, -13041.371171637915, -448.4206972623703, 9754.54714948501, -187500.02235174447, -0.004, 0.984, -0.026000000000000002, 192.0, 0.0, 0.0, 0.0, 0.0, 0.0, 0.0, 0.0, 0.0, 0.0, 1.745266793197172E9, 0.0, 2025-04-21 15:19:53.197
180.0, -27403.909254540118, -4067.23517980995, 7350.16999842763, -2362.914665092786, 3882.229790953373, 10089.264522703234, -17513.75407144476, 2071.4926208844927, -928.1561885066258, -18562.6320317545, -23596.20017960074, 26488.29239467292, -13041.170005937816, -433.02034533266374, 9775.066050894982, -187500.02235174447, -0.004, 0.984, -0.026000000000000002, 192.0, 0.0, 0.0, 15.0, 88.0, 127.5, 24.0, 0.0, 0.0, 0.0, 1.74526679325673E9, 0.0, 2025-04-21 15:19:53.256
182.0, -27401.249396949937, -4065.4693919979804, 7352.047544961875, -2359.047813302018, 3880.5981136081355, 10097.802889085162, -17515.51985925673, 2078.242847709995, -932.9171100756062, -18580.893406974486, -23600.268197091606, 26486.81717953887, -13041.415875126824, -437.13306631244023, 9772.942635171728, -187500.02235174447, -0.004, 0.984, -0.026000000000000002, 192.0, 0.0, 0.0, 0.0, 0.0, 0.0, 0.0, 0.0, 0.0, 0.0, 1.745266793256904E9, 0.0, 2025-04-21 15:19:53.256
184.0, -27401.383507416667, -4068.352767032715, 7353.522760095926, -2356.790287112032, 3876.686558328457, 10090.47151690382, -17519.073786625122, 2074.286588941406, -931.3971914526453, -18585.095534932083, -23603.79977271554, 26484.179673693143, -13041.706447804743, -436.0601825785855, 9771.579178759954, -187500.02235174447, -0.004, 0.984, -0.026000000000000002, 192.0, 0.0, 0.0, 0.0, 0.0, 0.0, 0.0, 0.0, 0.0, 0.0, 1.745266793257028E9, 0.0, 2025-04-21 15:19:53.257
186.0, -27399.058925993315, -4066.6987379430225, 7358.998937487476, -2354.242188244127, 3876.328930417172, 10090.158592481446, -17519.721987214325, 2073.8842575412104, -929.7208106184972, -18580.06639242964, -23596.960138912218, 26491.689859830127, -13035.470311101713, -428.527644697147, 9773.836704949941, -187500.02235174447, -0.004, 0.984, -0.026000000000000002, 192.0, 0.0, 0.0, 0.0, 0.0, 0.0, 0.0, 0.0, 0.0, 0.0, 1.745266793257141E9, 0.0, 2025-04-21 15:19:53.257
188.0, -27406.882036552674, -4076.9805403924634, 7349.164169927141, -2360.947711580719, 3869.62340708058, 10082.76016506674, -17522.18067910441, 2068.2739696829285, -932.8724065866955, -18589.789401267695, -23602.81629595951, 26482.1009614588, -13040.410046626335, -441.5363599701357, 9761.967928644173, -187500.02235174447, -0.004, 0.984, -0.026000000000000002, 192.0, 0.0, 0.0, 0.0, 0.0, 0.0, 0.0, 0.0, 0.0, 0.0, 1.745266793257254E9, 0.0, 2025-04-21 15:19:53.257
190.0, -27403.976309773483, -4072.6890054570445, 7349.342983882783, -2356.5220661785684, 3868.639930324546, 10089.510391892241, -17533.04362690969, 2064.6529870811687, -933.9899938094609, -18587.129543677514, -23608.448935562246, 26481.273946913952, -13047.048514729562, -441.8716361369653, 9754.368335529369, -187500.02235174447, -0.004, 0.981, -0.026000000000000002, 192.0, 127.5, 112.0, 15.0, 72.0, 127.5, 24.0, 0.0, 0.0, 0.0, 1.745266793257365E9, 0.0, 2025-04-21 15:19:53.257
192.0, -27392.24164393445, -4059.5908832062346, 7362.776382300423, -2337.724249091655, 3888.9576660344205, 10109.448147946376, -17507.60734171955, 2091.1398042607075, -920.7801128363744, -18567.705877745855, -23598.569464513002, 26488.001821995, -13036.051456457551, -430.3828394869375, 9762.459667022189, -187500.02235174447, -0.004, 0.981, -0.026000000000000002, 192.0, 0.0, 0.0, 0.0, 0.0, 0.0, 0.0, 0.0, 0.0, 0.0, 1.745266793257481E9, 0.0, 2025-04-21 15:19:53.257
194.0, -27408.04432726435, -4072.0855083567512, 7348.426562360116, -2354.331595221948, 3876.083061228164, 10088.169287224924, -17523.1865076049, 2064.2730074254287, -921.5400721478549, -18572.802075481664, -23595.820199945, 26492.53922611943, -13035.023276212607, -430.31578425357156, 9765.343042056924, -187500.02235174447, -0.004, 0.981, -0.026000000000000002, 192.0, 0.0, 0.0, 0.0, 0.0, 0.0, 0.0, 0.0, 0.0, 0.0, 1.745266793257594E9, 0.0, 2025-04-21 15:19:53.257
196.0, -27388.88888226615, -4060.9766913624635, 7355.802638030367, -2340.5182171485685, 3888.108299745119, 10091.343234937578, -17516.391577290487, 2073.5713331188363, -926.5692146502989, -18575.752505749762, -23601.989281414662, 26484.53730160443, -13038.845424514464, -442.31867102607146, 9757.36346928638, -187500.02235174447, -0.004, 0.981, -0.026000000000000002, 192.0, 0.0, 0.0, 0.0, 0.0, 0.0, 0.0, 0.0, 0.0, 0.0, 1.745266793317038E9, 0.0, 2025-04-21 15:19:53.317
198.0, -27407.597292375245, -4073.1807438350615, 7346.1019809367635, -2351.694089376222, 3876.463040883904, 10079.832086543094, -17539.078597912623, 2058.8862370116994, -919.5731186357879, -18577.317127861636, -23596.647214489843, 26500.272929700965, -13037.213747169228, -435.6354994339346, 9761.207969332692, -187500.02235174447, -0.004, 0.981, -0.026000000000000002, 192.0, 0.0, 0.0, 0.0, 0.0, 0.0, 0.0, 0.0, 0.0, 0.0, 1.745266793317169E9, 0.0, 2025-04-21 15:19:53.317
200.0, -27409.251321464937, -4078.925142160075, 7337.362448854738, -2357.7514121236104, 3876.0160059947975, 10071.316071905621, -17528.90855418546, 2050.5043328409593, -938.3038804893351, -18579.954633707363, -23611.779345486088, 26484.29143241542, -13043.360476894437, -447.6160344619792, 9747.17107381476, -187500.02235174447, -0.008, 0.9804999999999999, -0.026000000000000002, 192.0, 127.5, 80.0, 15.0, 80.0, 127.5, 24.0, 0.0, 0.0, 0.0, 1.745266793317286E9, 0.0, 2025-04-21 15:19:53.317
202.0, -27398.388373659658, -4065.2011710645165, 7344.559710569348, -2349.6600806307893, 3883.257971198317, 10074.71353706283, -17517.0844813686, 2063.9824347475096, -931.4642466860113, -18575.059601671648, -23602.548075026047, 26493.030964497444, -13038.666610558821, -443.9503483713089, 9755.97766113015, -187500.02235174447, -0.008, 0.9804999999999999, -0.026000000000000002, 192.0, 0.0, 0.0, 0.0, 0.0, 0.0, 0.0, 0.0, 0.0, 0.0, 1.7452667933174E9, 0.0, 2025-04-21 15:19:53.317
204.0, -27401.785838816864, -4070.5655897337906, 7339.3517541112615, -2347.8719410743643, 3879.8158025522, 10077.105173719547, -17521.75599595976, 2056.5616555883475, -924.2893367158576, -18583.620319798032, -23601.698708736745, 26500.921130290168, -13034.397427367858, -441.62576694795695, 9763.107867611394, -187500.02235174447, -0.008, 0.9804999999999999, -0.026000000000000002, 192.0, 0.0, 0.0, 0.0, 0.0, 0.0, 0.0, 0.0, 0.0, 0.0, 1.74526679331752E9, 0.0, 2025-04-21 15:19:53.317
206.0, -27398.254263192925, -4071.0126246228965, 7347.376030370717, -2341.054659015496, 3876.775965306278, 10079.697976076362, -17519.94550465888, 2059.7803067899117, -930.1454937631481, -18591.465782101845, -23601.698708736745, 26496.33902267683, -13047.786122296588, -438.7647436576776, 9757.877559408851, -187500.02235174447, -0.008, 0.9804999999999999, -0.026000000000000002, 192.0, 0.0, 0.0, 0.0, 0.0, 0.0, 0.0, 0.0, 0.0, 0.0, 1.745266793317658E9, 0.0, 2025-04-21 15:19:53.317
208.0, -27398.254263192925, -4073.5830752352567, 7345.610242558747, -2337.1878072247277, 3874.652549583024, 10079.496810376264, -17518.067958124633, 2063.0213097359315, -928.5138164179107, -18577.183017394902, -23594.367336555402, 26502.642214613228, -13037.884299502886, -430.1816737868397, 9762.191446088726, -187500.02235174447, -0.008, 0.9804999999999999, -0.026000000000000002, 192.0, 0.0, 0.0, 0.0, 0.0, 0.0, 0.0, 0.0, 0.0, 0.0, 1.745266793317768E9, 0.0, 2025-04-21 15:19:53.317
210.0, -27406.077373752283, -4074.8794764136646, 7344.224434402518, -2339.825313070454, 3868.9305030024652, 10081.910798777437, -17523.633542494004, 2061.8590190242553, -938.2591770004245, -18582.52508431972, -23606.549037283545, 26498.417734911174, -13042.242889671672, -437.89302562392066, 9749.316841282469, -187500.02235174447, -0.008, 0.98325, -0.027000000000000003, 192.0, 127.5, 96.0, 15.0, 104.0, 127.5, 16.0, 0.0, 0.0, 0.0, 1.745266793375994E9, 0.0, 2025-04-21 15:19:53.375
212.0, -27398.276614937382, -4065.1341158311507, 7354.528588596415, -2325.766065808066, 3881.693349086446, 10099.591028641586, -17504.90278064046, 2073.370167418738, -929.9666798075057, -18573.29381385968, -23599.32942382448, 26507.850171071314, -13032.251659900148, -427.43240921883694, 9755.955309385696, -187500.02235174447, -0.008, 0.98325, -0.027000000000000003, 192.0, 0.0, 0.0, 0.0, 0.0, 0.0, 0.0, 0.0, 0.0, 0.0, 1.745266793376146E9, 0.0, 2025-04-21 15:19:53.376
214.0, -27411.173571488092, -4076.7570229479106, 7345.029097202909, -2335.7796473240433, 3874.876067027577, 10094.830107072605, -17516.458632523852, 2066.061146981853, -929.631403640676, -18570.544549291677, -23600.402307558335, 26508.43131642715, -13035.447959357258, -428.61705167496825, 9753.183693073237, -187500.02235174447, -0.008, 0.98325, -0.027000000000000003, 192.0, 0.0, 0.0, 0.0, 0.0, 0.0, 0.0, 0.0, 0.0, 0.0, 1.745266793376264E9, 0.0, 2025-04-21 15:19:53.376
216.0, -27414.302815711835, -4082.970807906486, 7338.055352932854, -2340.138237492828, 3872.886761771055, 10086.649368601962, -17523.94646691638, 2059.445030623082, -933.9452903205503, -18573.427924326414, -23605.25263610514, 26500.80937156789, -13044.500415861658, -442.3857262594374, 9747.59575695941, -187500.02235174447, -0.008, 0.98325, -0.027000000000000003, 192.0, 0.0, 0.0, 0.0, 0.0, 0.0, 0.0, 0.0, 0.0, 0.0, 1.745266793376382E9, 0.0, 2025-04-21 15:19:53.376
218.0, -27417.09678376875, -4087.5305637753686, 7334.188501142085, -2341.36758343787, 3871.858581526111, 10085.196505212369, -17527.03100765121, 2063.6248068362247, -929.2290722404805, -18567.258842856747, -23606.90666519483, 26506.307900703898, -13040.074770459507, -435.7919616451218, 9744.086533079926, -187500.02235174447, -0.008, 0.98325, -0.027000000000000003, 192.0, 0.0, 0.0, 0.0, 0.0, 0.0, 0.0, 0.0, 0.0, 0.0, 1.745266793376481E9, 0.0, 2025-04-21 15:19:53.376
220.0, -27412.00058603294, -4088.6034475092233, 7335.842530231778, -2338.7077258476884, 3877.781793806767, 10087.85636280255, -17520.928981414912, 2071.8502487957776, -931.1289705191816, -18591.622244313032, -23614.72977575419, 26502.686918102136, -13039.180700681294, -441.8269326480547, 9743.97477435765, -187500.02235174447, -0.007, 0.983625, -0.026500000000000003, 192.0, 127.5, 104.0, 15.0, 96.0, 127.5, 24.0, 0.0, 0.0, 0.0, 1.745266793376588E9, 0.0, 2025-04-21 15:19:53.376
222.0, -27422.505905926933, -4097.275924357882, 7331.461588318538, -2348.0060515410964, 3876.5971513506356, 10080.61439759903, -17518.80556569166, 2065.8823330262107, -931.9783368084833, -18590.415250112444, -23614.215685631716, 26498.86476980028, -13035.783235524088, -441.4693047367698, 9750.613242460877, -187500.02235174447, -0.007, 0.983625, -0.026500000000000003, 192.0, 0.0, 0.0, 0.0, 0.0, 0.0, 0.0, 0.0, 0.0, 0.0, 1.745266793376709E9, 0.0, 2025-04-21 15:19:53.376
224.0, -27417.34265295776, -4094.90663944562, 7338.971774455521, -2346.8437608294203, 3885.4484421549373, 10075.51819986322, -17514.446975522875, 2063.513048113948, -936.2475199994469, -18600.339424650603, -23619.49069732317, 26493.500351131006, -13046.243851929172, -453.71806069827807, 9747.88632963733, -187500.02235174447, -0.007, 0.983625, -0.026500000000000003, 192.0, 0.0, 0.0, 0.0, 0.0, 0.0, 0.0, 0.0, 0.0, 0.0, 1.745266793376814E9, 0.0, 2025-04-21 15:19:53.376
226.0, -27420.717766370508, -4093.3643690782037, 7339.754085511457, -2348.877769574853, 3885.560200877214, 10079.206237698345, -17519.140841858487, 2061.054356223864, -927.4185809396006, -18584.91672097644, -23607.890141950866, 26501.81520006838, -13027.602497053445, -449.6947466963228, 9759.330422798446, -187500.02235174447, -0.007, 0.983625, -0.026500000000000003, 192.0, 0.0, 0.0, 0.0, 0.0, 0.0, 0.0, 0.0, 0.0, 0.0, 1.745266793436234E9, 0.0, 2025-04-21 15:19:53.436
228.0, -27415.04042327886, -4086.5694387637905, 7338.368277355227, -2346.575539895957, 3887.907134045021, 10071.807810283639, -17512.167097588434, 2060.7190800570347, -941.3660694797122, -18580.267558129737, -23615.28856936557, 26500.675261101158, -13041.035895471085, -458.0319473781523, 9753.898948895807, -187500.02235174447, -0.007, 0.983625, -0.026500000000000003, 192.0, 0.0, 0.0, 0.0, 0.0, 0.0, 0.0, 0.0, 0.0, 0.0, 1.745266793436386E9, 0.0, 2025-04-21 15:19:53.436
230.0, -27419.33195821428, -4093.5208312893906, 7336.893062221177, -2346.0614497734846, 3884.7555380768226, 10083.162496466935, -17519.31965581413, 2064.876504525722, -949.0997730612485, -18599.467706616844, -23616.786136244078, 26504.609168125295, -13042.332296649492, -453.2263223202613, 9753.317803539969, -187500.02235174447, -0.0045000000000000005, 0.9828125, -0.02925, 192.0, 127.5, 120.0, 15.0, 88.0, 127.5, 0.0, 0.0, 0.0, 0.0, 1.745266793436496E9, 0.0, 2025-04-21 15:19:53.436
232.0, -27415.107478512225, -4094.5043080454243, 7332.69093426358, -2347.335499207437, 3872.462078626404, 10080.703804576851, -17519.431414536408, 2054.505295098459, -927.1503600061369, -18605.033290986215, -23612.762822242123, 26508.297205960418, -13037.705485547243, -447.83955190653234, 9744.287698780025, -187500.02235174447, -0.0045000000000000005, 0.9828125, -0.02925, 192.0, 0.0, 0.0, 0.0, 0.0, 0.0, 0.0, 0.0, 0.0, 0.0, 1.74526679343661E9, 0.0, 2025-04-21 15:19:53.436
234.0, -27400.690603338553, -4080.668578227589, 7343.062143690842, -2333.2986036895045, 3885.29197994375, 10092.594932627075, -17495.537399713685, 2068.452783638571, -922.5459006483437, -18589.185904167403, -23600.96110116972, 26517.68493863165, -13029.792968010064, -438.6082814464905, 9745.986431358628, -187500.02235174447, -0.0045000000000000005, 0.9828125, -0.02925, 192.0, 0.0, 0.0, 0.0, 0.0, 0.0, 0.0, 0.0, 0.0, 0.0, 1.745266793436717E9, 0.0, 2025-04-21 15:19:53.436
236.0, -27410.391260432156, -4090.033959154363, 7331.6627540186355, -2344.5415311505235, 3867.8129157797002, 10081.866095288528, -17517.62092323553, 2052.6501003086687, -929.1396652626593, -18585.63197679901, -23605.34204308296, 26520.076575288367, -13041.594689082467, -436.86484537897655, 9741.627841189844, -187500.02235174447, -0.0045000000000000005, 0.9828125, -0.02925, 192.0, 0.0, 0.0, 0.0, 0.0, 0.0, 0.0, 0.0, 0.0, 0.0, 1.74526679343683E9, 0.0, 2025-04-21 15:19:53.436
238.0, -27406.546760385845, -4083.6637119846005, 7332.556823796848, -2337.7466008361102, 3870.1598489475073, 10083.989511011781, -17506.981492874802, 2054.3488328872722, -935.8228368547962, -18581.16162790795, -23609.81239197402, 26521.887066589246, -13048.099046718962, -439.6364616914346, 9735.905794609285, -187500.02235174447, -0.0045000000000000005, 0.9828125, -0.02925, 192.0, 0.0, 0.0, 0.0, 0.0, 0.0, 0.0, 0.0, 0.0, 0.0, 1.745266793436938E9, 0.0, 2025-04-21 15:19:53.436
240.0, -27405.719745840997, -4075.2594560694047, 7337.6530215326575, -2331.666926344267, 3871.3221396591834, 10089.577447125608, -17512.90470515546, 2063.5353998584033, -930.6372321411649, -18563.749618977265, -23601.117563380907, 26537.60034294133, -13041.125302448905, -428.4829412082364, 9744.31005052448, -187500.02235174447, -0.0045000000000000005, 0.9828125, -0.02925, 192.0, 0.0, 0.0, 0.0, 0.0, 0.0, 0.0, 0.0, 0.0, 0.0, 1.745266793496397E9, 0.0, 2025-04-21 15:19:53.496
242.0, -27404.04336500685, -4081.1156131166954, 7331.908623207644, -2332.8739205448533, 3872.5961890931358, 10080.927322021404, -17508.12143184202, 2064.0718417253306, -936.6945548885531, -18575.551340049667, -23607.86779020641, 26533.48762196155, -13040.566508837523, -437.24482503471677, 9739.236204533125, -187500.02235174447, -0.004, 0.984, -0.034, 192.0, 127.5, 112.0, 15.0, 96.0, 127.0, 120.0, 0.0, 0.0, 0.0, 1.745266793496541E9, 0.0, 2025-04-21 15:19:53.496
244.0, -27407.016147019407, -4077.449927026025, 7334.143797653174, -2331.2869466885268, 3871.970340248387, 10086.671720346418, -17511.04951036567, 2068.810411549856, -931.732467619475, -18579.708764518353, -23608.985377429173, 26538.561467952906, -13040.253584415148, -434.38380174443745, 9746.411114503278, -187500.02235174447, -0.004, 0.984, -0.034, 192.0, 0.0, 0.0, 0.0, 0.0, 0.0, 0.0, 0.0, 0.0, 0.0, 1.74526679349667E9, 0.0, 2025-04-21 15:19:53.496
246.0, -27401.159989972115, -4075.5500287473237, 7329.248765617463, -2336.6513653578004, 3864.1919331779404, 10085.665891845929, -17523.74530121628, 2063.222475436029, -936.2028165105363, -18573.47262781532, -23609.790040229564, 26539.232020286563, -13045.930927506797, -440.91051112538713, 9740.06321907797, -187500.02235174447, -0.004, 0.984, -0.034, 192.0, 0.0, 0.0, 0.0, 0.0, 0.0, 0.0, 0.0, 0.0, 0.0, 1.745266793496777E9, 0.0, 2025-04-21 15:19:53.496
248.0, -27392.889844523652, -4063.5918454637344, 7339.463512833538, -2325.5872518524234, 3876.7983170507337, 10087.789307569183, -17509.46253650934, 2072.699615085079, -917.2708889568912, -18564.800150966665, -23598.122429623894, 26548.753863424525, -13039.694790803765, -433.69089766632294, 9744.488864480123, -187500.02235174447, -0.004, 0.984, -0.034, 192.0, 0.0, 0.0, 0.0, 0.0, 0.0, 0.0, 0.0, 0.0, 0.0, 1.745266793496895E9, 0.0, 2025-04-21 15:19:53.496
250.0, -27393.80626604632, -4069.537409488846, 7334.859053475744, -2326.391914652814, 3875.9042472725214, 10084.369490667521, -17509.060205109145, 2067.491658626993, -927.8209123397962, -18569.471665557823, -23602.86099944842, 26549.603229713826, -13045.953279251253, -433.75795289968886, 9741.091399322915, -187500.02235174447, -0.004, 0.984, -0.034, 192.0, 0.0, 0.0, 0.0, 0.0, 0.0, 0.0, 0.0, 0.0, 0.0, 1.745266793497015E9, 0.0, 2025-04-21 15:19:53.497
252.0, -27398.120152726195, -4068.799801921821, 7323.7949399703675, -2334.7514670790993, 3864.2589884113063, 10087.006996513248, -17522.60536224906, 2059.6014928342693, -925.8763105721845, -18570.835121969598, -23601.38578431437, 26550.474947747585, -13028.63067729839, -424.75019988420013, 9743.661849935275, -187500.02235174447, -0.006, 0.986, -0.034, 192.0, 127.5, 104.0, 15.0, 104.0, 127.0, 120.0, 0.0, 0.0, 0.0, 1.745266793497126E9, 0.0, 2025-04-21 15:19:53.497
254.0, -27389.17945494407, -4070.1409065891394, 7331.0145534294315, -2328.60473735389, 3870.00338673632, 10094.338368694589, -17516.056301123655, 2067.9386935160987, -932.6265373976872, -18559.681601486398, -23609.14183964036, 26542.383616254763, -13044.075732717007, -425.80073187359955, 9731.033114318028, -187500.02235174447, -0.006, 0.986, -0.034, 192.0, 0.0, 0.0, 0.0, 0.0, 0.0, 0.0, 0.0, 0.0, 0.0, 1.745266793497245E9, 0.0, 2025-04-21 15:19:53.497
0.0, -27409.5195423984, -4093.1408516336505, 7324.532547537393, -2344.60858638389, 3858.5369418307478, 10084.593008112075, -17525.824013450627, 2061.300225412873, -922.9929355374499, -18570.522197547223, -23601.274025592094, 26543.814127899903, -13031.335238377482, -434.00382208869723, 9741.761951656576, -187500.02235174447, -0.006, 0.986, -0.034, 192.0, 0.0, 0.0, 0.0, 0.0, 0.0, 0.0, 0.0, 0.0, 0.0, 1.74526679355684E9, 0.0, 2025-04-21 15:19:53.556
2.0, -27421.47772568199, -4100.472223814992, 7309.176899096597, -2355.046851044518, 3842.577796289658, 10072.903045761948, -17541.134958402512, 2046.7045362835572, -949.3009387613463, -18604.273331674736, -23627.179697415795, 26519.517781676983, -13053.77638981061, -456.3555665440043, 9717.040922289005, -187500.02235174447, -0.006, 0.986, -0.034, 192.0, 0.0, 0.0, 0.0, 0.0, 0.0, 0.0, 0.0, 0.0, 0.0, 1.745266793556982E9, 0.0, 2025-04-21 15:19:53.556
4.0, -27414.168705245105, -4091.375063821681, 7322.431483558594, -2341.3899351823256, 3852.9266539724654, 10079.340348165077, -17535.837594966604, 2049.297338640373, -931.5983571527431, -18588.403593111467, -23616.070880421506, 26524.703386390614, -13044.858043772942, -444.6656041938787, 9721.77949211353, -187500.02235174447, -0.006, 0.986, -0.034, 192.0, 0.0, 0.0, 0.0, 0.0, 0.0, 0.0, 0.0, 0.0, 0.0, 1.745266793557089E9, 0.0, 2025-04-21 15:19:53.557
6.0, -27422.260036737924, -4102.126252904684, 7313.490785776471, -2349.168342252772, 3845.9529097024097, 10062.241263656768, -17541.313772358153, 2038.3449838572724, -936.4933891884554, -18600.339424650603, -23616.406156588335, 26525.083366046354, -13038.06311345853, -457.0037671332082, 9716.526832166533, -187500.02235174447, -0.002, 0.984, -0.034, 192.0, 127.5, 120.0, 15.0, 96.0, 127.0, 120.0, 0.0, 0.0, 0.0, 1.745266793557194E9, 0.0, 2025-04-21 15:19:53.557
8.0, -27403.059888250817, -4087.8881916866535, 7333.227376130507, -2334.6844118457334, 3863.2531599108174, 10079.049775487158, -17529.31088558565, 2051.9124927416437, -937.1192380332039, -18595.042061214695, -23606.90666519483, 26540.237848787052, -13042.958145494242, -449.6723949518675, 9729.02145731705, -187500.02235174447, -0.002, 0.984, -0.034, 192.0, 0.0, 0.0, 0.0, 0.0, 0.0, 0.0, 0.0, 0.0, 0.0, 1.745266793557309E9, 0.0, 2025-04-21 15:19:53.557
10.0, -27415.822734334797, -4097.946476691542, 7319.905736435144, -2346.1955602402163, 3855.206531906907, 10064.85641775804, -17537.42456882293, 2030.0748384088085, -931.2854327303687, -18599.02067172774, -23611.712290252723, 26543.031816843966, -13037.258450658137, -448.26423505118316, 9729.557899183977, -187500.02235174447, -0.002, 0.984, -0.034, 192.0, 0.0, 0.0, 0.0, 0.0, 0.0, 0.0, 0.0, 0.0, 0.0, 1.745266793557419E9, 0.0, 2025-04-21 15:19:53.557
12.0, -27404.065716751305, -4088.4916887869467, 7329.002896428454, -2333.522121134057, 3867.2094186794066, 10077.619263842018, -17519.163193602944, 2056.2040276770626, -931.2854327303687, -18593.81271526965, -23611.95815944173, 26541.578953454373, -13038.465444858724, -450.4323542633479, 9733.73767539712, -187500.02235174447, -0.002, 0.984, -0.034, 192.0, 0.0, 0.0, 0.0, 0.0, 0.0, 0.0, 0.0, 0.0, 0.0, 1.745266793557525E9, 0.0, 2025-04-21 15:19:53.557
14.0, -27402.434039406067, -4085.5859620077567, 7325.739541737979, -2331.1304844773395, 3865.689500056446, 10079.47445863181, -17519.766690703236, 2055.0193852209313, -931.3301362192793, -18589.655290800965, -23610.63940651887, 26547.569220968395, -13033.481005845191, -445.49261873872507, 9737.582175443433, -187500.02235174447, -0.002, 0.984, -0.034, 192.0, 0.0, 0.0, 0.0, 0.0, 0.0, 0.0, 0.0, 0.0, 0.0, 1.745266793616953E9, 0.0, 2025-04-21 15:19:53.616
16.0, -27399.28244343787, -4077.4275752815697, 7333.339134852784, -2327.6436123423114, 3868.8634477690994, 10088.012825013737, -17519.207897091856, 2056.963986988543, -939.1979502675474, -18585.743735521286, -23612.829877475488, 26549.424415758185, -13043.29342166107, -445.76083967218875, 9731.97188758515, -187500.02235174447, 0.002, 0.98, -0.034, 192.0, 0.0, 8.0, 15.0, 80.0, 127.0, 120.0, 0.0, 0.0, 0.0, 1.745266793617107E9, 0.0, 2025-04-21 15:19:53.617
18.0, -27392.75573405692, -4075.393566536137, 7332.646230774669, -2327.040115242018, 3869.0646134691974, 10092.639636115986, -17516.101004612567, 2059.936769001099, -919.5060634024219, -18562.788493965687, -23595.95431041173, 26567.864604933813, -13024.808528996531, -428.99703133070847, 9743.840663890918, -187500.02235174447, 0.002, 0.98, -0.034, 192.0, 0.0, 0.0, 0.0, 0.0, 0.0, 0.0, 0.0, 0.0, 0.0, 1.745266793617221E9, 0.0, 2025-04-21 15:19:53.617
20.0, -27410.52537089889, -4083.4625462845024, 7322.252669602951, -2339.467685159169, 3857.329947630161, 10072.366603895021, -17527.343932073585, 2047.7103647840459, -939.309708989824, -18569.24814811327, -23611.287607108072, 26551.570183225893, -13046.19914844026, -448.0854210955407, 9729.06616080596, -187500.02235174447, 0.002, 0.98, -0.034, 192.0, 0.0, 0.0, 0.0, 0.0, 0.0, 0.0, 0.0, 0.0, 0.0, 1.745266793617336E9, 0.0, 2025-04-21 15:19:53.617
22.0, -27404.602158618232, -4081.4061857946144, 7327.281812105395, -2340.5182171485685, 3856.0335464517534, 10069.617339327018, -17530.9872664198, 2046.4586670945487, -941.3660694797122, -18593.92447399193, -23611.37701408589, 26553.939468138156, -13037.236098913681, -449.6500432074122, 9726.294544493503, -187500.02235174447, 0.002, 0.98, -0.034, 192.0, 0.0, 0.0, 0.0, 0.0, 0.0, 0.0, 0.0, 0.0, 0.0, 1.745266793617437E9, 0.0, 2025-04-21 15:19:53.617
24.0, -27386.921928754084, -4075.8629531696984, 7334.501425564459, -2337.9924700251186, 3864.326043644672, 10060.810752011628, -17530.272010597233, 2041.675393781113, -929.3855344516677, -18583.754430264766, -23601.56459827001, 26558.9686106406, -13039.493625103669, -449.18065657385074, 9728.485015450122, -187500.02235174447, 0.002, 0.98, -0.034, 192.0, 0.0, 0.0, 0.0, 0.0, 0.0, 0.0, 0.0, 0.0, 0.0, 1.745266793617546E9, 0.0, 2025-04-21 15:19:53.617
26.0, -27405.18330397407, -4087.6646742421003, 7334.791998242378, -2342.1275427493506, 3866.069479712186, 10058.553225821643, -17527.410987306954, 2038.0544111793533, -926.27864197238, -18596.137296693003, -23602.704537237234, 26559.437997274163, -13029.122415676406, -451.95227288630883, 9733.916489352761, -187500.02235174447, 0.002, 0.98, -0.034, 192.0, 0.0, 0.0, 15.0, 96.0, 127.0, 120.0, 0.0, 0.0, 0.0, 1.745266793617653E9, 0.0, 2025-04-21 15:19:53.617
28.0, -27400.24356844945, -4090.056310898818, 7336.066047676331, -2340.0041270260963, 3871.255084425817, 10060.251958400246, -17521.308961070652, 2034.8804634666997, -935.8004851103408, -18590.81758151264, -23604.80560121603, 26552.263087304007, -13032.318715133515, -453.40513627590377, 9737.157492298782, -187500.02235174447, 0.002, 0.98, -0.034, 192.0, 0.0, 0.0, 0.0, 0.0, 0.0, 0.0, 0.0, 0.0, 0.0, 1.745266793617772E9, 0.0, 2025-04-21 15:19:53.617
30.0, -27383.03272521886, -4065.4470402535253, 7358.395440387183, -2309.9410307337084, 3893.9644567924092, 10094.47247916132, -17502.958178872846, 2070.866772039744, -923.6187843821984, -18566.47653180081, -23596.647214489843, 26569.898613679245, -13030.128244176894, -439.010612846686, 9751.864940150374, -187500.02235174447, 0.002, 0.98, -0.034, 192.0, 0.0, 0.0, 0.0, 0.0, 0.0, 0.0, 0.0, 0.0, 0.0, 1.745266793676289E9, 0.0, 2025-04-21 15:19:53.676
32.0, -27372.37094311368, -4054.159409303595, 7363.961024756554, -2299.9050974732754, 3901.3405324626606, 10112.376226470022, -17486.239074020275, 2090.9833420495206, -903.8374905392517, -18559.72630497531, -23579.99516487064, 26593.345593612863, -13005.630732253878, -410.4450834328036, 9774.59666426142, -187500.02235174447, 0.002, 0.98, -0.034, 192.0, 0.0, 0.0, 0.0, 0.0, 0.0, 0.0, 0.0, 0.0, 0.0, 1.74526679367643E9, 0.0, 2025-04-21 15:19:53.676
34.0, -27384.530292097366, -4062.675423941067, 7349.924129238621, -2311.8632807568647, 3884.3532066766275, 10103.90491532146, -17504.880428896002, 2080.5003738999812, -902.8316620387628, -18549.06452287013, -23581.20215907123, 26594.48553258008, -13004.848421197943, -406.80174908658853, 9771.690937482232, -187500.02235174447, 0.002, 0.98, -0.034, 192.0, 0.0, 0.0, 0.0, 0.0, 0.0, 0.0, 0.0, 0.0, 0.0, 1.745266793676539E9, 0.0, 2025-04-21 15:19:53.676
36.0, -27407.150257486137, -4080.0427293828407, 7329.248765617463, -2326.1907489527166, 3866.5388663457475, 10087.006996513248, -17528.975609418823, 2052.2701206529287, -925.2951652163465, -18569.449313813366, -23601.676356992288, 26572.178491613686, -13025.300267374549, -426.2254150182504, 9746.83579764793, -187500.02235174447, -0.002, 0.992, -0.036000000000000004, 192.0, 127.5, 120.0, 15.5, 0.0, 127.0, 112.0, 0.0, 0.0, 0.0, 1.745266793676656E9, 0.0, 2025-04-21 15:19:53.676
38.0, -27416.80621109083, -4087.99995040893, 7329.695800506569, -2326.5483768640015, 3867.879971013066, 10084.168324967424, -17515.497507512275, 2062.909551013655, -934.9064153321285, -18554.33953456158, -23604.62678726039, 26564.35538105433, -13023.042741184563, -437.84832213501005, 9738.789169644018, -187500.02235174447, -0.002, 0.992, -0.036000000000000004, 192.0, 0.0, 0.0, 0.0, 0.0, 0.0, 0.0, 0.0, 0.0, 0.0, 1.745266793676788E9, 0.0, 2025-04-21 15:19:53.676
40.0, -27403.350460928734, -4088.961075420508, 7328.958192939544, -2323.4861878736247, 3873.423203637982, 10092.036139015692, -17501.102984083056, 2074.018368007942, -941.1202002907039, -18591.421078612933, -23612.785173986576, 26556.129939094775, -13034.710351790232, -446.9007786394094, 9738.565652199466, -187500.02235174447, -0.002, 0.992, -0.036000000000000004, 192.0, 0.0, 0.0, 0.0, 0.0, 0.0, 0.0, 0.0, 0.0, 0.0, 1.745266793676896E9, 0.0, 2025-04-21 15:19:53.676
42.0, -27407.194960975048, -4091.5985812662343, 7325.203099871052, -2323.9108710182754, 3871.165677447996, 10090.493868648276, -17506.422699263418, 2070.151516217174, -929.9219763185951, -18604.7427183083, -23605.85613320543, 26565.383561299273, -13026.842537741964, -439.54705471361336, 9746.299355781002, -187500.02235174447, -0.002, 0.992, -0.036000000000000004, 192.0, 0.0, 0.0, 0.0, 0.0, 0.0, 0.0, 0.0, 0.0, 0.0, 1.745266793676998E9, 0.0, 2025-04-21 15:19:53.676
44.0, -27409.385431931667, -4090.4362905545586, 7318.072893389809, -2327.040115242018, 3868.0811367131637, 10087.85636280255, -17510.84834466557, 2059.2662166674395, -931.9783368084833, -18596.3384623931, -23611.309958852526, 26563.26014557602, -13037.571375080512, -446.9901856172306, 9736.822216131952, -187500.02235174447, -0.002, 0.992, -0.036000000000000004, 192.0, 0.0, 0.0, 0.0, 0.0, 0.0, 0.0, 0.0, 0.0, 0.0, 1.745266793736083E9, 0.0, 2025-04-21 15:19:53.736
46.0, -27407.70905109752, -4083.3284358177707, 7322.297373091862, -2329.2305861986383, 3870.204552436418, 10084.347138923065, -17512.725891199814, 2055.9134549991436, -937.9686043225056, -18578.658232528953, -23610.19237162976, 26567.439921789162, -13037.01258146913, -443.525665226658, 9736.285774265025, -187500.02235174447, -0.004, 0.991, -0.037000000000000005, 192.0, 127.5, 104.0, 15.0, 120.0, 127.0, 104.0, 0.0, 0.0, 0.0, 1.745266793736227E9, 0.0, 2025-04-21 15:19:53.736
48.0, -27411.79942033284, -4094.1243283896843, 7319.816329457322, -2337.2995659470043, 3863.8343052666555, 10076.121696963513, -17520.996036648277, 2045.0505071938644, -935.2416914989581, -18577.920624961927, -23608.694804751256, 26571.776160213492, -13031.178776166294, -449.60533971850157, 9732.396570729801, -187500.02235174447, -0.004, 0.991, -0.037000000000000005, 192.0, 0.0, 0.0, 0.0, 0.0, 0.0, 0.0, 0.0, 0.0, 0.0, 1.745266793736351E9, 0.0, 2025-04-21 15:19:53.736
50.0, -27416.42623143509, -4099.444043570047, 7317.424692800605, -2343.960385794686, 3858.8945697420327, 10066.376336381, -17529.914382685947, 2036.3109751118393, -947.9151306051173, -18585.699032032375, -23617.367281599916, 26565.11534036581, -13044.72393330621, -457.5625607445909, 9724.729922381632, -187500.02235174447, -0.004, 0.991, -0.037000000000000005, 192.0, 0.0, 0.0, 0.0, 0.0, 0.0, 0.0, 0.0, 0.0, 0.0, 1.745266793736462E9, 0.0, 2025-04-21 15:19:53.736
52.0, -27412.80524883333, -4101.165127893106, 7321.135082380186, -2345.636766628834, 3865.689500056446, 10060.52017933371, -17523.410025049452, 2039.3955158466717, -938.8850258451731, -18592.292796646692, -23616.048528677053, 26562.50018626454, -13036.744360535666, -462.3458340580266, 9729.982582328628, -187500.02235174447, -0.004, 0.991, -0.037000000000000005, 192.0, 0.0, 0.0, 0.0, 0.0, 0.0, 0.0, 0.0, 0.0, 0.0, 1.745266793736569E9, 0.0, 2025-04-21 15:19:53.736
54.0, -27414.86160932322, -4097.81236622481, 7324.420788815116, -2335.153798479295, 3869.7575175473116, 10069.37147013801, -17517.509164513252, 2043.2176641485291, -936.0240025548939, -18583.82148549813, -23613.7239472537, 26561.047322874943, -13033.793930267566, -462.0329096356523, 9739.3479632554, -187500.02235174447, -0.004, 0.991, -0.037000000000000005, 192.0, 0.0, 0.0, 0.0, 0.0, 0.0, 0.0, 0.0, 0.0, 0.0, 1.74526679373668E9, 0.0, 2025-04-21 15:19:53.736
56.0, -27413.118173255705, -4094.3925493231477, 7325.3819138266945, -2325.0955134744067, 3870.137497203052, 10080.033252243193, -17517.710330213347, 2049.967890974032, -942.3271944912905, -18577.42888658391, -23612.762822242123, 26567.059942133423, -13029.480043587691, -450.3429472855267, 9741.11375106737, -187500.02235174447, -0.006, 0.9895, -0.036500000000000005, 192.0, 127.5, 96.0, 15.0, 112.0, 127.0, 112.0, 0.0, 0.0, 0.0, 1.745266793736785E9, 0.0, 2025-04-21 15:19:53.736
58.0, -27410.23479822097, -4082.836697439754, 7322.744407980968, -2321.273365172549, 3868.259950668806, 10076.345214408066, -17521.219554092833, 2042.1671321591298, -941.343717735257, -18576.423058083423, -23605.63261576088, 26578.995773672556, -13028.407159853836, -443.3692030154709, 9738.632707432831, -187500.02235174447, -0.006, 0.9895, -0.036500000000000005, 192.0, 0.0, 0.0, 0.0, 0.0, 0.0, 0.0, 0.0, 0.0, 0.0, 1.745266793736905E9, 0.0, 2025-04-21 15:19:53.736
60.0, -27409.65365286513, -4088.156412620117, 7318.139948623175, -2326.79424605301, 3865.8683140120884, 10071.047850972158, -17528.215650107344, 2037.2050448900516, -949.4126974836228, -18581.362793608045, -23614.66272052082, 26575.911232937724, -13047.987287996684, -452.108735097496, 9727.412131716268, -187500.02235174447, -0.006, 0.9895, -0.036500000000000005, 192.0, 0.0, 0.0, 0.0, 0.0, 0.0, 0.0, 0.0, 0.0, 0.0, 1.745266793796387E9, 0.0, 2025-04-21 15:19:53.796
62.0, -27406.23383596347, -4078.1204793596844, 7326.588908027281, -2317.540623848513, 3869.846924525133, 10084.056566245148, -17525.66755123944, 2044.7822862604007, -934.9511188210391, -18577.384183095, -23602.257502348126, 26582.527349296495, -13027.513090075623, -447.37016527297084, 9732.865957363363, -187500.02235174447, -0.006, 0.9895, -0.036500000000000005, 192.0, 0.0, 0.0, 0.0, 0.0, 0.0, 0.0, 0.0, 0.0, 0.0, 1.745266793796536E9, 0.0, 2025-04-21 15:19:53.796
64.0, -27407.016147019407, -4083.5296015178683, 7325.292506848873, -2316.534795348024, 3870.6292355810688, 10085.37531916801, -17513.95523714486, 2050.8843124966997, -942.5060084469329, -18572.355040592556, -23605.67731924979, 26582.16972138521, -13035.58206982399, -443.9279966268536, 9732.441274218712, -187500.02235174447, -0.006, 0.9895, -0.036500000000000005, 192.0, 0.0, 0.0, 0.0, 0.0, 0.0, 0.0, 0.0, 0.0, 0.0, 1.745266793796641E9, 0.0, 2025-04-21 15:19:53.796
66.0, -27408.08903075326, -4084.2448573404386, 7329.561690039836, -2313.6514203132892, 3875.9489507614317, 10095.791232084184, -17500.678300938405, 2058.260388166951, -937.9686043225056, -18580.06639242964, -23608.225418117694, 26582.54970104095, -13031.558755822034, -443.8609413934877, 9740.666716178264, -187500.02235174447, -0.004, 0.98675, -0.038250000000000006, 192.0, 127.5, 120.0, 15.0, 96.0, 127.0, 96.0, 0.0, 0.0, 0.0, 1.745266793796755E9, 0.0, 2025-04-21 15:19:53.796
68.0, -27414.727498856486, -4091.352712077226, 7325.314858593329, -2322.770932051055, 3871.1209739590854, 10093.556057638652, -17511.764766188237, 2055.5334753434036, -933.3864967091677, -18578.926453462416, -23605.543208783056, 26585.947166198155, -13034.5762413235, -437.9377291128313, 9743.438332490723, -187500.02235174447, -0.004, 0.98675, -0.038250000000000006, 192.0, 0.0, 0.0, 0.0, 0.0, 0.0, 0.0, 0.0, 0.0, 0.0, 1.745266793796868E9, 0.0, 2025-04-21 15:19:53.796
70.0, -27410.838295321264, -4091.28565684386, 7326.119521393719, -2323.597946595901, 3870.897456514532, 10087.968121524826, -17514.871658667525, 2054.147667187174, -948.920959105606, -18577.942976706385, -23611.332310596983, 26578.794607972457, -13042.175834438305, -440.3964210029151, 9742.16428305677, -187500.02235174447, -0.004, 0.98675, -0.038250000000000006, 192.0, 0.0, 0.0, 0.0, 0.0, 0.0, 0.0, 0.0, 0.0, 0.0, 1.745266793796984E9, 0.0, 2025-04-21 15:19:53.796
72.0, -27417.677929124588, -4098.259401113916, 7324.800768470856, -2332.0692577444624, 3868.014081479798, 10077.775726053205, -17514.357568545052, 2042.4353530925935, -947.0657643158155, -18593.700956547375, -23617.5237438111, 26574.950107926146, -13044.790988539577, -452.95810138679764, 9737.11278880987, -187500.02235174447, -0.004, 0.98675, -0.038250000000000006, 192.0, 0.0, 0.0, 0.0, 0.0, 0.0, 0.0, 0.0, 0.0, 0.0, 1.74526679379709E9, 0.0, 2025-04-21 15:19:53.797
74.0, -27400.265920193902, -4085.898886430131, 7337.876538977211, -2306.9458969766974, 3875.8595437836107, 10083.497772633764, -17505.70744344085, 2049.0514694513645, -933.0959240312486, -18591.06345070165, -23606.325519838992, 26581.610927773825, -13031.335238377482, -442.7657059151776, 9744.64532669131, -187500.02235174447, -0.004, 0.98675, -0.038250000000000006, 192.0, 0.0, 0.0, 0.0, 0.0, 0.0, 0.0, 0.0, 0.0, 0.0, 1.74526679385716E9, 0.0, 2025-04-21 15:19:53.857
76.0, -27409.743059842953, -4092.604409766723, 7333.026210430409, -2300.97798120713, 3873.0208722377865, 10079.809734798639, -17509.12726034251, 2048.4926758399815, -923.9317088045727, -18585.117886676537, -23604.492676793656, 26587.154160398743, -13032.162252922328, -438.11654306847373, 9747.618108703866, -187500.02235174447, -0.004, 0.98675, -0.038250000000000006, 192.0, 0.0, 0.0, 15.0, 96.0, 127.5, 0.0, 0.0, 0.0, 0.0, 1.745266793857311E9, 0.0, 2025-04-21 15:19:53.857
78.0, -27395.840274791753, -4080.959150905508, 7350.16999842763, -2281.9119431867534, 3879.5028781298256, 10098.875772819016, -17502.37703351701, 2057.5004288554705, -922.4788454149777, -18577.071258672626, -23600.849342447444, 26585.12015165331, -13023.735645262677, -438.2953570241162, 9746.634631947833, -187500.02235174447, -0.004, 0.98675, -0.038250000000000006, 192.0, 0.0, 0.0, 0.0, 0.0, 0.0, 0.0, 0.0, 0.0, 0.0, 1.745266793857422E9, 0.0, 2025-04-21 15:19:53.857
80.0, -27378.98705947245, -4069.80563042231, 7354.93091999661, -2273.2618180825493, 3881.7604043198116, 10107.145918267479, -17494.240998535275, 2061.8366672798, -910.632420853665, -18574.254938871258, -23585.627804473377, 26605.59434957437, -13012.6715317573, -418.0223248031527, 9756.335289041435, -187500.02235174447, -0.004, 0.98675, -0.038250000000000006, 192.0, 0.0, 0.0, 0.0, 0.0, 0.0, 0.0, 0.0, 0.0, 0.0, 1.745266793857524E9, 0.0, 2025-04-21 15:19:53.857
82.0, -27399.394202160147, -4087.128232375173, 7342.8162745018335, -2280.1908588636948, 3868.52817160227, 10100.350987953067, -17509.060205109145, 2054.147667187174, -904.5974498507321, -18567.661174256944, -23583.817313172498, 26606.354308885853, -13018.550040549046, -413.06023753407453, 9753.809541917986, -187500.02235174447, -0.004, 0.98675, -0.038250000000000006, 192.0, 0.0, 0.0, 0.0, 0.0, 0.0, 0.0, 0.0, 0.0, 0.0, 1.745266793857647E9, 0.0, 2025-04-21 15:19:53.857
84.0, -27393.202768946026, -4081.0709096277847, 7346.772533270423, -2274.7593849610553, 3876.463040883904, 10109.895182835482, -17505.26040855174, 2059.1321062007078, -924.1105227602152, -18583.53091282021, -23603.24097910416, 26596.74305877007, -13034.95622097924, -426.0242493181526, 9739.459721977679, -187500.02235174447, -0.004, 0.98675, -0.038250000000000006, 192.0, 0.0, 0.0, 0.0, 0.0, 0.0, 0.0, 0.0, 0.0, 0.0, 1.745266793857758E9, 0.0, 2025-04-21 15:19:53.857
86.0, -27403.618681862197, -4090.1680696210947, 7340.7599140119455, -2281.5766670199237, 3873.266741426795, 10097.288798962689, -17504.83572540709, 2051.063126452342, -927.0609530283157, -18562.743790476776, -23606.191409372263, 26595.044326191466, -13034.755055279144, -425.0407725621191, 9743.997126102106, -187500.02235174447, -0.004, 0.98675, -0.038250000000000006, 192.0, 0.0, 0.0, 15.0, 88.0, 127.0, 120.0, 0.0, 0.0, 0.0, 1.745266793857868E9, 0.0, 2025-04-21 15:19:53.857
88.0, -27400.824713805287, -4090.1680696210947, 7339.865844233733, -2276.0110826505525, 3873.266741426795, 10097.065281518137, -17503.315806784132, 2053.320652642328, -926.1221797611928, -18576.3336511056, -23605.587912271967, 26596.586596558882, -13030.128244176894, -425.3313452400381, 9747.640460448321, -187500.02235174447, -0.004, 0.98675, -0.038250000000000006, 192.0, 0.0, 0.0, 0.0, 0.0, 0.0, 0.0, 0.0, 0.0, 0.0, 1.745266793857986E9, 0.0, 2025-04-21 15:19:53.857
90.0, -27403.596330117743, -4093.7667004783993, 7339.016477944431, -2273.7759082050216, 3873.3561484046163, 10098.585200141097, -17503.539324228685, 2048.649138051169, -921.2494994699359, -18593.49979084728, -23606.012595416618, 26596.74305877007, -13035.112683190428, -424.77255162865544, 9743.214815046169, -187500.02235174447, -0.004, 0.98675, -0.038250000000000006, 192.0, 0.0, 0.0, 0.0, 0.0, 0.0, 0.0, 0.0, 0.0, 0.0, 1.745266793917023E9, 0.0, 2025-04-21 15:19:53.917
92.0, -27417.499115168946, -4102.863860471709, 7328.779378983901, -2285.734091488611, 3861.9344069879544, 10085.151801723458, -17516.637446479494, 2043.3294228708057, -934.504083931933, -18595.802020526175, -23613.366319342414, 26591.132770911787, -13044.43336062829, -435.4566854782922, 9735.615221931366, -187500.02235174447, -0.004, 0.98675, -0.038250000000000006, 192.0, 0.0, 0.0, 0.0, 0.0, 0.0, 0.0, 0.0, 0.0, 0.0, 1.745266793917169E9, 0.0, 2025-04-21 15:19:53.917
94.0, -27415.956844801527, -4099.935781948064, 7334.9484604535655, -2276.54752451748, 3871.836229781655, 10084.972987767815, -17507.093251597078, 2042.1894839035851, -941.0307933128827, -18594.840895514597, -23617.032005433084, 26584.047267919454, -13040.700619304254, -445.76083967218875, 9726.093378793405, -187500.02235174447, -0.004, 0.98675, -0.038250000000000006, 192.0, 0.0, 0.0, 0.0, 0.0, 0.0, 0.0, 0.0, 0.0, 0.0, 1.745266793917284E9, 0.0, 2025-04-21 15:19:53.917
96.0, -27405.496228396445, -4087.8881916866535, 7342.391591357183, -2266.243370323583, 3877.044186239742, 10090.560923881641, -17500.231266049297, 2047.9562339730544, -922.568252392799, -18576.490113316788, -23598.122429623894, 26603.627396062304, -13027.937773220274, -433.33326975503803, 9740.800826644996, -187500.02235174447, -0.005, 0.986375, -0.031125000000000003, 192.0, 127.5, 104.0, 15.0, 104.0, 127.5, 32.0, 0.0, 0.0, 0.0, 1.745266793917389E9, 0.0, 2025-04-21 15:19:53.917
98.0, -27408.22314121999, -4090.9056771881196, 7333.115617408231, -2272.4571552821585, 3867.0976599571304, 10075.18292369639, -17512.07769061061, 2042.256539136951, -922.635307626165, -18573.405572581956, -23600.53641802507, 26600.811076260936, -13033.324543634004, -437.89302562392066, 9733.894137608308, -187500.02235174447, -0.005, 0.986375, -0.031125000000000003, 192.0, 0.0, 0.0, 0.0, 0.0, 0.0, 0.0, 0.0, 0.0, 0.0, 1.745266793917511E9, 0.0, 2025-04-21 15:19:53.917
100.0, -27409.407783676124, -4097.14181389115, 7329.338172595284, -2280.1014518858733, 3864.728375044868, 10072.344252150566, -17513.0835191111, 2039.708440269046, -919.4837116579666, -18603.692186318898, -23603.486848293167, 26601.481628594596, -13030.172947665806, -446.47609549475857, 9731.435445718223, -187500.02235174447, -0.005, 0.986375, -0.031125000000000003, 192.0, 0.0, 0.0, 0.0, 0.0, 0.0, 0.0, 0.0, 0.0, 0.0, 1.745266793917612E9, 0.0, 2025-04-21 15:19:53.917
102.0, -27407.440830164058, -4099.086415658762, 7329.7852074843895, -2273.8206116939323, 3866.8517907681216, 10077.775726053205, -17500.54419047167, 2041.3401176142834, -924.6469646271426, -18608.095479976593, -23610.23707511867, 26598.710012282136, -13038.91247974783, -454.7685926876775, 9728.26149800557, -187500.02235174447, -0.005, 0.986375, -0.031125000000000003, 192.0, 0.0, 0.0, 0.0, 0.0, 0.0, 0.0, 0.0, 0.0, 0.0, 1.745266793917711E9, 0.0, 2025-04-21 15:19:53.917
104.0, -27411.553551143832, -4100.651037770634, 7326.141873138175, -2267.8079924354547, 3862.202627921418, 10084.66006334544, -17506.914437641437, 2042.3235943703169, -920.7130576030086, -18593.164514680448, -23604.42562156029, 26606.667233308224, -13036.185566924283, -445.3138047830826, 9732.485977707622, -187500.02235174447, -0.005, 0.986375, -0.031125000000000003, 192.0, 0.0, 0.0, 0.0, 0.0, 0.0, 0.0, 0.0, 0.0, 0.0, 1.745266793976238E9, 0.0, 2025-04-21 15:19:53.976
106.0, -27415.24158897896, -4103.109729660718, 7321.716227736024, -2265.416355778737, 3861.0626889541973, 10085.777650568205, -17508.724928942316, 2041.2060071475516, -934.6828978875755, -18598.171305438438, -23616.048528677053, 26604.432058862694, -13047.24968042966, -447.236054806239, 9720.393683957302, -187500.02235174447, -0.005, 0.986375, -0.031125000000000003, 192.0, 0.0, 0.0, 0.0, 0.0, 0.0, 0.0, 0.0, 0.0, 0.0, 1.745266793976384E9, 0.0, 2025-04-21 15:19:53.976
108.0, -27411.37473718819, -4101.9474389490415, 7325.001934170954, -2265.528114501013, 3866.069479712186, 10089.42098491442, -17502.958178872846, 2049.297338640373, -932.8500548422403, -18591.711651290854, -23612.829877475488, 26611.048175221465, -13033.324543634004, -438.6529849354011, 9729.647306161798, -187500.02235174447, -0.004, 0.988, -0.026000000000000002, 192.0, 127.5, 112.0, 15.0, 112.0, 127.5, 24.0, 0.0, 0.0, 0.0, 1.745266793976494E9, 0.0, 2025-04-21 15:19:53.976
110.0, -27406.41264991911, -4098.0135319249075, 7326.141873138175, -2266.4892395125917, 3869.7575175473116, 10096.238266973289, -17501.885295138993, 2051.8230857638223, -926.7256768614861, -18590.95169197937, -23616.38380484388, 26608.634186820294, -13037.683133802788, -439.6811651803452, 9729.110864294871, -187500.02235174447, -0.004, 0.988, -0.026000000000000002, 192.0, 0.0, 0.0, 0.0, 0.0, 0.0, 0.0, 0.0, 0.0, 0.0, 1.745266793976616E9, 0.0, 2025-04-21 15:19:53.976
112.0, -27417.409708191124, -4099.265229614404, 7325.516024293426, -2281.5990187643793, 3861.5991308211246, 10081.776688310705, -17514.93871390089, 2039.3955158466717, -929.6537553851314, -18586.347232621578, -23612.49460130866, 26604.275596651507, -13037.549023336056, -448.59951121801276, 9726.45100670469, -187500.02235174447, -0.004, 0.988, -0.026000000000000002, 192.0, 0.0, 0.0, 0.0, 0.0, 0.0, 0.0, 0.0, 0.0, 0.0, 1.745266793976717E9, 0.0, 2025-04-21 15:19:53.976
114.0, -27405.98796677446, -4095.28661910136, 7338.144759910675, -2282.7166059871442, 3872.0373954817533, 10087.342272680078, -17500.052452093656, 2046.3916118611828, -914.4322174110672, -18597.657215315965, -23602.033984903574, 26614.31152991194, -13036.856119257942, -442.96687161527535, 9736.375181242845, -187500.02235174447, -0.004, 0.988, -0.026000000000000002, 192.0, 0.0, 0.0, 0.0, 0.0, 0.0, 0.0, 0.0, 0.0, 0.0, 1.745266793976826E9, 0.0, 2025-04-21 15:19:53.976
116.0, -27404.468048151502, -4090.5927527657454, 7339.910547722644, -2278.7379954740995, 3874.4737356273818, 10090.315054692634, -17496.297359025164, 2045.4304868496047, -920.7130576030086, -18593.43273561391, -23602.235150603672, 26616.83727703539, -13030.932906977285, -440.28466228063854, 9737.582175443433, -187500.02235174447, -0.004, 0.988, -0.026000000000000002, 192.0, 0.0, 0.0, 0.0, 0.0, 0.0, 0.0, 0.0, 0.0, 0.0, 1.745266793976937E9, 0.0, 2025-04-21 15:19:53.976
118.0, -27408.51371389791, -4094.928991190075, 7332.065085418831, -2285.734091488611, 3870.4727733698815, 10084.436545900888, -17497.191428803377, 2048.8503037512664, -922.0094587814164, -18582.636843041997, -23601.56459827001, 26631.142393486785, -13025.970819708207, -431.88040636544304, 9743.460684235179, -187500.02235174447, -0.004, 0.98, -0.03, 192.0, 127.5, 112.0, 15.0, 80.0, 127.5, 8.0, 0.0, 0.0, 0.0, 1.745266793977042E9, 0.0, 2025-04-21 15:19:53.977
120.0, -27409.251321464937, -4095.1078051457175, 7333.003858685954, -2285.242353110594, 3874.876067027577, 10088.817487814127, -17491.804658389647, 2049.7443735294787, -924.6246128826873, -18593.186866424905, -23611.935807697275, 26621.933474771202, -13035.649125057356, -444.37503151595973, 9728.574422427944, -187500.02235174447, -0.004, 0.98, -0.03, 192.0, 0.0, 0.0, 0.0, 0.0, 0.0, 0.0, 0.0, 0.0, 0.0, 1.745266794037107E9, 0.0, 2025-04-21 15:19:54.037
122.0, -27402.724612083988, -4093.319665589293, 7338.748257010968, -2275.11701287234, 3881.1122037306077, 10100.306284464155, -17485.009728075234, 2067.491658626993, -915.3039354448242, -18572.28798535919, -23599.86586569141, 26631.70118709817, -13017.43245332628, -425.7336766402336, 9742.588966201421, -187500.02235174447, -0.004, 0.98, -0.03, 192.0, 0.0, 0.0, 0.0, 0.0, 0.0, 0.0, 0.0, 0.0, 0.0, 1.745266794037263E9, 0.0, 2025-04-21 15:19:54.037
124.0, -27417.812039591317, -4107.62478204069, 7325.359562082239, -2287.566934533946, 3868.5728750911803, 10082.84957204456, -17499.247789293266, 2046.771591516923, -931.8218745972962, -18577.361831350547, -23608.58304602898, 26629.801288819468, -13026.730779019688, -432.2603860211833, 9736.5986986874, -187500.02235174447, -0.004, 0.98, -0.03, 192.0, 0.0, 0.0, 0.0, 0.0, 0.0, 0.0, 0.0, 0.0, 0.0, 1.745266794037372E9, 0.0, 2025-04-21 15:19:54.037
126.0, -27418.124964013692, -4105.14373840615, 7328.198233628063, -2286.315236844449, 3871.1880291924513, 10081.37435691051, -17499.806582904646, 2053.7900392758893, -927.6197466396984, -18597.09842170458, -23614.752127498643, 26627.052024251465, -13034.53153783459, -440.8434558920212, 9731.346038740401, -187500.02235174447, -0.004, 0.98, -0.03, 192.0, 0.0, 0.0, 0.0, 0.0, 0.0, 0.0, 0.0, 0.0, 0.0, 1.745266794037498E9, 0.0, 2025-04-21 15:19:54.037
128.0, -27415.91214131262, -4105.367255850703, 7325.6724865046135, -2285.957608933164, 3866.1812384344626, 10086.448202901865, -17504.65691145145, 2051.9124927416437, -933.5429589203547, -18598.707747305365, -23620.116546167916, 26619.921817770224, -13036.766712280121, -446.8337234060435, 9725.06519854846, -187500.02235174447, -0.006, 0.978, -0.03, 192.0, 127.5, 104.0, 15.0, 72.0, 127.5, 8.0, 0.0, 0.0, 0.0, 1.745266794037609E9, 0.0, 2025-04-21 15:19:54.037
130.0, -27413.05111802234, -4095.8230609682873, 7331.550995296359, -2287.298713600482, 3865.108354700608, 10082.737813322285, -17511.1836208324, 2043.4635333375377, -923.1717494930923, -18594.080936203114, -23606.638444261367, 26634.875134810824, -13035.894994246364, -443.0562785930966, 9731.658963162776, -187500.02235174447, -0.006, 0.978, -0.03, 192.0, 0.0, 0.0, 0.0, 0.0, 0.0, 0.0, 0.0, 0.0, 0.0, 1.745266794037725E9, 0.0, 2025-04-21 15:19:54.037
132.0, -27402.925777784083, -4093.4761278004803, 7329.584041784292, -2294.2948096149935, 3868.7069855579125, 10079.161534209436, -17503.204048061856, 2042.614167048236, -930.4807699299777, -18590.079973945616, -23608.29247335106, 26633.109346998855, -13036.63260181339, -451.1029065970071, 9726.4957101936, -187500.02235174447, -0.006, 0.978, -0.03, 192.0, 0.0, 0.0, 0.0, 0.0, 0.0, 0.0, 0.0, 0.0, 0.0, 1.745266794037835E9, 0.0, 2025-04-21 15:19:54.037
134.0, -27399.081277737772, -4087.0164736528964, 7335.864881976233, -2285.979960677619, 3871.7244710593786, 10085.308263934645, -17503.114641084034, 2047.5539025728588, -912.442912154545, -18575.97602319432, -23595.551979011536, 26646.56509716095, -13023.109796417928, -440.1505518139067, 9737.49276846561, -187500.02235174447, -0.006, 0.978, -0.03, 192.0, 0.0, 0.0, 0.0, 0.0, 0.0, 0.0, 0.0, 0.0, 0.0, 1.74526679409786E9, 0.0, 2025-04-21 15:19:54.097
136.0, -27389.648841577633, -4082.1214416171842, 7343.26330939094, -2276.7486902175774, 3877.714738573401, 10093.645464616475, -17492.005824089745, 2053.6335770647024, -915.3486389337348, -18574.67962201591, -23593.987356899663, 26645.291047726998, -13020.248773127649, -435.88136862294306, 9736.866919620863, -187500.02235174447, -0.006, 0.978, -0.03, 192.0, 0.0, 0.0, 0.0, 0.0, 0.0, 0.0, 0.0, 0.0, 0.0, 1.74526679409801E9, 0.0, 2025-04-21 15:19:54.098
138.0, -27399.148332971137, -4081.942627661542, 7338.792960499878, -2282.78366122051, 3871.3221396591834, 10094.740700094784, -17497.549056714663, 2055.9805102325095, -918.2320139684695, -18573.405572581956, -23597.407173801326, 26646.74391111659, -13025.34497086346, -434.9649471002754, 9735.838739375919, -187500.02235174447, -0.01, 0.988, -0.03, 192.0, 127.5, 88.0, 15.0, 112.0, 127.5, 8.0, 0.0, 0.0, 0.0, 1.745266794098127E9, 0.0, 2025-04-21 15:19:54.098
140.0, -27400.824713805287, -4082.970807906486, 7337.094227921275, -2285.376463577326, 3872.6632443265016, 10091.052662259659, -17494.75508865775, 2050.325518885317, -924.4234471825895, -18567.884691701496, -23600.201141858237, 26652.488309441604, -13017.454805070736, -429.0193830751638, 9736.375181242845, -187500.02235174447, -0.01, 0.988, -0.03, 192.0, 0.0, 0.0, 0.0, 0.0, 0.0, 0.0, 0.0, 0.0, 0.0, 1.74526679409825E9, 0.0, 2025-04-21 15:19:54.098
142.0, -27389.98411774446, -4075.192400836039, 7347.398382115171, -2278.827402451921, 3880.061671741208, 10094.271313461222, -17480.82995186209, 2061.389632390694, -917.3602959347124, -18584.179113409416, -23597.071897634494, 26657.56215543296, -13024.585011551979, -433.5344354551358, 9739.63853593332, -187500.02235174447, -0.01, 0.988, -0.03, 192.0, 0.0, 0.0, 0.0, 0.0, 0.0, 0.0, 0.0, 0.0, 0.0, 1.745266794098363E9, 0.0, 2025-04-21 15:19:54.098
144.0, -27407.060850508315, -4093.610238267212, 7332.154492396652, -2289.1986118791833, 3863.655491311013, 10082.313130177634, -17496.744393914272, 2045.8551699942554, -916.0638947563046, -18595.176171681425, -23595.261406333615, 26661.160786290264, -13019.287648116071, -440.8211041475659, 9739.102094066393, -187500.02235174447, -0.01, 0.988, -0.03, 192.0, 0.0, 0.0, 0.0, 0.0, 0.0, 0.0, 0.0, 0.0, 0.0, 1.74526679409847E9, 0.0, 2025-04-21 15:19:54.098
146.0, -27396.980213758972, -4079.8415636827426, 7349.655908305158, -2262.443573766181, 3880.687520585957, 10114.521993937731, -17480.762896628727, 2068.475135383026, -921.3165547033018, -18583.91089247595, -23595.01553714461, 26663.664181669257, -13023.556831307034, -432.3050895100939, 9742.16428305677, -187500.02235174447, -0.01, 0.988, -0.03, 192.0, 0.0, 0.0, 0.0, 0.0, 0.0, 0.0, 0.0, 0.0, 0.0, 1.745266794098578E9, 0.0, 2025-04-21 15:19:54.098
148.0, -27399.528312626877, -4085.608313752212, 7349.745315282979, -2255.670995196223, 3881.425128152982, 10114.633752660007, -17484.406230974942, 2065.9493882595766, -914.1192929886929, -18565.135427133493, -23588.28766206356, 26671.531995717527, -13014.973761436197, -412.81436834506616, 9753.988355873627, -187500.02235174447, -0.008, 0.984, -0.028, 192.0, 127.5, 96.0, 15.0, 96.0, 127.5, 16.0, 0.0, 0.0, 0.0, 1.745266794098692E9, 0.0, 2025-04-21 15:19:54.098
150.0, -27405.47387665199, -4092.939685933553, 7336.848358732267, -2266.824515679421, 3871.590360592647, 10097.71348210734, -17492.765783401228, 2056.226379421518, -927.8432640842515, -18577.853569728562, -23598.770630213097, 26660.0431990675, -13024.71912201871, -427.83474061903246, 9739.437370233223, -187500.02235174447, -0.008, 0.984, -0.028, 192.0, 0.0, 0.0, 0.0, 0.0, 0.0, 0.0, 0.0, 0.0, 0.0, 1.745266794156679E9, 0.0, 2025-04-21 15:19:54.156
152.0, -27395.08031548027, -4082.3896625506477, 7343.151550668664, -2255.8051056629547, 3880.016968252298, 10105.38013045551, -17488.071917065612, 2065.0776702258195, -912.5546708768214, -18566.90121494546, -23590.925167909285, 26669.810911394467, -13019.377055093892, -422.2244527607504, 9739.057390577484, -187500.02235174447, -0.008, 0.984, -0.028, 192.0, 0.0, 0.0, 0.0, 0.0, 0.0, 0.0, 0.0, 0.0, 0.0, 1.745266794156813E9, 0.0, 2025-04-21 15:19:54.156
154.0, -27402.434039406067, -4084.0436916403405, 7334.21085288654, -2261.571855732424, 3870.137497203052, 10107.212973500846, -17501.37120501652, 2066.0834987263083, -922.2329762259694, -18572.69031675939, -23596.42369704529, 26670.61557419486, -13017.790081237565, -420.41396145987056, 9735.481111464633, -187500.02235174447, -0.008, 0.984, -0.028, 192.0, 0.0, 0.0, 0.0, 0.0, 0.0, 0.0, 0.0, 0.0, 0.0, 1.74526679415693E9, 0.0, 2025-04-21 15:19:54.156
156.0, -27411.777068588388, -4089.6539794986224, 7339.195291900074, -2262.2647598105386, 3880.620465352591, 10113.449110203876, -17479.77941987269, 2072.36433891825, -926.27864197238, -18569.40461032446, -23598.81533370201, 26668.76037940507, -13022.461595828725, -419.0728567925521, 9740.845530133907, -187500.02235174447, -0.008, 0.984, -0.028, 192.0, 0.0, 0.0, 0.0, 0.0, 0.0, 0.0, 0.0, 0.0, 0.0, 1.745266794157035E9, 0.0, 2025-04-21 15:19:54.157
158.0, -27418.32612971379, -4098.326456347282, 7331.506291807448, -2278.112146629351, 3867.656453568513, 10096.215915228835, -17499.784231160193, 2059.4003271341717, -927.9103193176174, -18570.611604525042, -23603.66566224881, 26658.47857695563, -13026.708427275233, -424.77255162865544, 9736.553995198488, -187500.02235174447, -0.01, 0.988, -0.028, 192.0, 127.5, 88.0, 15.0, 112.0, 127.5, 16.0, 0.0, 0.0, 0.0, 1.745266794157142E9, 0.0, 2025-04-21 15:19:54.157
160.0, -27402.5681498728, -4090.391587065648, 7335.820178487323, -2279.3191408299376, 3868.327005902172, 10086.09057499058, -17493.57044620162, 2051.3089956413505, -924.9151855606062, -18578.166494150937, -23600.447011047247, 26660.959620590165, -13025.993171452663, -437.49069422372514, 9730.474320706644, -187500.02235174447, -0.01, 0.988, -0.028, 192.0, 0.0, 0.0, 0.0, 0.0, 0.0, 0.0, 0.0, 0.0, 0.0, 1.745266794157262E9, 0.0, 2025-04-21 15:19:54.157
162.0, -27401.741135327953, -4084.066043384796, 7338.457684333049, -2273.1053558713625, 3870.1151454585965, 10082.134316221991, -17487.021385076212, 2055.712289299046, -922.3447349482459, -18575.95367144986, -23593.33915631046, 26670.213242794664, -13026.171985408306, -445.13499082744016, 9735.458759720179, -187500.02235174447, -0.01, 0.988, -0.028, 192.0, 0.0, 0.0, 0.0, 0.0, 0.0, 0.0, 0.0, 0.0, 0.0, 1.74526679415737E9, 0.0, 2025-04-21 15:19:54.157
164.0, -27411.173571488092, -4086.547087019335, 7334.076742419808, -2271.7866029484994, 3863.9684157333872, 10084.324787178612, -17499.158382315443, 2045.2516728939622, -926.1668832501034, -18583.240340142293, -23598.971795913196, 26671.55434746198, -13022.215726639715, -448.6442147069234, 9731.949535840695, -187500.02235174447, -0.01, 0.988, -0.028, 192.0, 0.0, 0.0, 0.0, 0.0, 0.0, 0.0, 0.0, 0.0, 0.0, 1.745266794216923E9, 0.0, 2025-04-21 15:19:54.216
166.0, -27403.931606284572, -4088.089357386751, 7338.904719222155, -2267.49506801308, 3867.522343101781, 10088.504563391753, -17499.292492782177, 2049.520856084926, -919.7966360803409, -18581.206331396857, -23597.76480171261, 26675.488254486118, -13019.824089982998, -437.53539771263576, 9738.297431266003, -187500.02235174447, -0.01, 0.988, -0.028, 192.0, 0.0, 0.0, 0.0, 0.0, 0.0, 0.0, 0.0, 0.0, 0.0, 1.7452667942171E9, 0.0, 2025-04-21 15:19:54.217
168.0, -27404.691565596055, -4088.514040531402, 7337.541262810381, -2268.366786046837, 3865.264816911795, 10086.76112732424, -17499.918341626926, 2048.4256206066157, -923.1493977486369, -18583.240340142293, -23597.7200982237, 26674.795350408003, -13028.854194742942, -441.91633962587593, 9736.710457409676, -187500.02235174447, -0.007, 0.985, -0.028999999999999998, 192.0, 127.5, 112.0, 15.0, 88.0, 127.5, 8.0, 0.0, 0.0, 0.0, 1.745266794217215E9, 0.0, 2025-04-21 15:19:54.217
170.0, -27409.541894142854, -4094.258438856416, 7326.946535938566, -2272.859486682354, 3860.2803778982616, 10086.358795924043, -17504.880428896002, 2045.8328182498, -921.4953686589442, -18586.995433210785, -23600.804638958532, 26672.068437584454, -13028.921249976309, -438.78709540213293, 9731.457797462679, -187500.02235174447, -0.007, 0.985, -0.028999999999999998, 192.0, 0.0, 0.0, 0.0, 0.0, 0.0, 0.0, 0.0, 0.0, 0.0, 1.745266794217347E9, 0.0, 2025-04-21 15:19:54.217
172.0, -27412.067641266305, -4094.414901067603, 7324.867823704222, -2272.1442308597843, 3863.05199421072, 10089.398633169965, -17501.058280594145, 2048.7832485179006, -927.9550228065281, -18581.742773263788, -23605.29733959405, 26669.18506254972, -13023.534479562579, -438.0718395795631, 9726.674524149243, -187500.02235174447, -0.007, 0.985, -0.028999999999999998, 192.0, 0.0, 0.0, 0.0, 0.0, 0.0, 0.0, 0.0, 0.0, 0.0, 1.74526679421747E9, 0.0, 2025-04-21 15:19:54.217
174.0, -27425.47868793949, -4104.964924450508, 7315.97182941101, -2276.0557861394627, 3855.362994118094, 10092.326711693611, -17512.815298177637, 2040.0213646914203, -932.1795025085811, -18578.6358807845, -23610.48294430768, 26667.016943337556, -13032.63163955589, -437.334232012538, 9716.035093788516, -187500.02235174447, -0.007, 0.985, -0.028999999999999998, 192.0, 0.0, 0.0, 0.0, 0.0, 0.0, 0.0, 0.0, 0.0, 0.0, 1.745266794217583E9, 0.0, 2025-04-21 15:19:54.217
176.0, -27406.85968480822, -4089.363406820704, 7331.863919718733, -2256.319195785427, 3866.0247762232757, 10100.842726331082, -17503.002882361758, 2053.1418386866853, -933.2523862424358, -18579.418191840436, -23604.85030470494, 26676.628193453336, -13028.585973809479, -429.1758452863509, 9719.20904150117, -187500.02235174447, -0.007, 0.985, -0.028999999999999998, 192.0, 0.0, 0.0, 0.0, 0.0, 0.0, 0.0, 0.0, 0.0, 0.0, 1.745266794217691E9, 0.0, 2025-04-21 15:19:54.217
178.0, -27417.074432024296, -4101.992142437952, 7327.214756872029, -2258.666128953234, 3864.2366366668507, 10090.627979115008, -17493.83866713508, 2042.904739726155, -923.663487871109, -18578.948805206874, -23602.34690932595, 26680.47269349965, -13024.182680151784, -431.56748194306874, 9722.986486314117, -187500.02235174447, -0.006500000000000001, 0.9855, -0.0295, 192.0, 127.5, 104.0, 15.0, 104.0, 127.5, 8.0, 0.0, 0.0, 0.0, 1.745266794217797E9, 0.0, 2025-04-21 15:19:54.217
180.0, -27417.677929124588, -4100.986313937463, 7331.461588318538, -2256.8332859078987, 3865.644796567535, 10093.980740783303, -17499.001920104256, 2051.3760508747164, -931.1960257525475, -18581.362793608045, -23602.123391881396, 26678.61749870986, -13027.378979608891, -441.24578729221673, 9731.480149207133, -187500.02235174447, -0.006500000000000001, 0.9855, -0.0295, 192.0, 0.0, 0.0, 0.0, 0.0, 0.0, 0.0, 0.0, 0.0, 0.0, 1.745266794278715E9, 0.0, 2025-04-21 15:19:54.278
182.0, -27412.313510455315, -4097.298276102338, 7337.228338388007, -2245.8138758914324, 3872.7302995598675, 10111.035121802703, -17487.669585665415, 2071.514972628948, -929.1620170071146, -18576.40070633897, -23600.782287214075, 26683.490179001117, -13022.796871995553, -429.1981970308062, 9744.041829591017, -187500.02235174447, -0.006500000000000001, 0.9855, -0.0295, 192.0, 0.0, 0.0, 0.0, 0.0, 0.0, 0.0, 0.0, 0.0, 0.0, 1.745266794278865E9, 0.0, 2025-04-21 15:19:54.278
184.0, -27382.74215254094, -4066.4975722429244, 7362.55286485587, -2216.734256355078, 3887.3483404336384, 10147.312003053667, -17478.572425672108, 2099.968743320554, -921.3836099366678, -18570.410438824947, -23588.645289974844, 26697.191798352218, -13018.95237194924, -411.29444972210524, 9752.714306439675, -187500.02235174447, -0.006500000000000001, 0.9855, -0.0295, 192.0, 0.0, 0.0, 0.0, 0.0, 0.0, 0.0, 0.0, 0.0, 0.0, 1.745266794278972E9, 0.0, 2025-04-21 15:19:54.278
186.0, -27378.115341438694, -4061.2449122959274, 7364.720984068034, -2216.376628443793, 3889.5611631347138, 10141.947584384392, -17476.828989604594, 2094.9172490736546, -897.0872637137489, -18539.833252410084, -23563.253708273616, 26722.806897498, -13004.982531664675, -387.26632443265015, 9770.685108981743, -187500.02235174447, -0.006500000000000001, 0.9855, -0.0295, 192.0, 0.0, 0.0, 0.0, 0.0, 0.0, 0.0, 0.0, 0.0, 0.0, 1.745266794279073E9, 0.0, 2025-04-21 15:19:54.279
188.0, -27402.366984172702, -4080.8250404387763, 7345.967870470032, -2246.4844282250915, 3876.8653722840995, 10101.557982153652, -17493.97277760181, 2056.6510625661685, -902.4740341274779, -18552.171415349414, -23573.446103745235, 26712.43568807074, -13004.982531664675, -410.4897869217142, 9761.766762944075, -187500.02235174447, -0.00725, 0.98575, -0.02975, 192.0, 127.5, 96.0, 15.0, 104.0, 127.5, 8.0, 0.0, 0.0, 0.0, 1.745266794279195E9, 0.0, 2025-04-21 15:19:54.279
190.0, -27413.56520814481, -4094.95134293453, 7337.898890721666, -2254.2404835510833, 3874.3396251606496, 10086.671720346418, -17495.917379369424, 2051.9795479750096, -916.7791505788745, -18571.528026047712, -23590.47813302018, 26694.867216928866, -13021.545174306057, -443.1233338264625, 9746.925204625752, -187500.02235174447, -0.00725, 0.98575, -0.02975, 192.0, 0.0, 0.0, 0.0, 0.0, 0.0, 0.0, 0.0, 0.0, 0.0, 1.74526679427932E9, 0.0, 2025-04-21 15:19:54.279
192.0, -27413.341690700257, -4092.38089232217, 7342.16807391263, -2255.4921812405805, 3877.066537984197, 10088.795136069672, -17487.669585665415, 2058.4392021225935, -934.7723048653967, -18586.749564021775, -23598.86003719092, 26688.832245925936, -13023.15449990684, -454.29920605411604, 9744.846492391407, -187500.02235174447, -0.00725, 0.98575, -0.02975, 192.0, 0.0, 0.0, 0.0, 0.0, 0.0, 0.0, 0.0, 0.0, 0.0, 1.745266794279439E9, 0.0, 2025-04-21 15:19:54.279
194.0, -27408.200789475537, -4086.122403874684, 7344.582062313803, -2256.8109341634436, 3881.6709973419906, 10100.775671097717, -17482.975719329803, 2065.4352981371044, -922.5011971594331, -18570.544549291677, -23592.020403387596, 26696.364783807374, -13015.689017258766, -442.98922335973066, 9750.5014837386, -187500.02235174447, -0.00725, 0.98575, -0.02975, 192.0, 0.0, 0.0, 0.0, 0.0, 0.0, 0.0, 0.0, 0.0, 0.0, 1.745266794337673E9, 0.0, 2025-04-21 15:19:54.337
196.0, -27423.936417572073, -4094.0125696674077, 7334.4790738200045, -2263.851733666865, 3870.3163111586946, 10090.829144815105, -17498.487829981786, 2049.9455392295768, -916.8685575566957, -18577.00420343926, -23589.159380097317, 26701.416278054272, -13017.767729493109, -435.4790372227475, 9749.987393616128, -187500.02235174447, -0.00725, 0.98575, -0.02975, 192.0, 0.0, 0.0, 0.0, 0.0, 0.0, 0.0, 0.0, 0.0, 0.0, 1.745266794337825E9, 0.0, 2025-04-21 15:19:54.337
198.0, -27409.206617976026, -4088.2681713423935, 7339.664678533635, -2253.212303306139, 3873.0879274711524, 10094.651293116964, -17494.17394330191, 2054.9299782431103, -928.312650717813, -18582.122752919528, -23598.502409279634, 26694.777809951047, -13027.20016565325, -442.56454021507983, 9734.20706203068, -187500.02235174447, -0.007625, 0.9898750000000001, -0.030875, 192.0, 127.5, 96.0, 15.5, 8.0, 127.5, 0.0, 0.0, 0.0, 0.0, 1.745266794337936E9, 0.0, 2025-04-21 15:19:54.337
200.0, -27413.408745933622, -4088.089357386751, 7339.396457600172, -2253.994614362075, 3870.1822006919624, 10100.909781564449, -17490.84353337807, 2061.2108184350514, -918.3661244352013, -18565.67186900042, -23587.035964374063, 26707.831228712945, -13019.019427182608, -429.62288017545706, 9739.437370233223, -187500.02235174447, -0.007625, 0.9898750000000001, -0.030875, 192.0, 0.0, 0.0, 0.0, 0.0, 0.0, 0.0, 0.0, 0.0, 0.0, 1.745266794338046E9, 0.0, 2025-04-21 15:19:54.338
202.0, -27407.530237141877, -4086.480031785969, 7336.714248265535, -2249.837189893388, 3871.0539187257195, 10103.591990899085, -17498.487829981786, 2051.7336787860013, -920.020153524894, -18572.131523148004, -23585.851321917933, 26708.680595002246, -13018.997075438152, -428.1700167858621, 9735.97284984265, -187500.02235174447, -0.007625, 0.9898750000000001, -0.030875, 192.0, 0.0, 0.0, 0.0, 0.0, 0.0, 0.0, 0.0, 0.0, 0.0, 1.745266794338162E9, 0.0, 2025-04-21 15:19:54.338
204.0, -27415.956844801527, -4094.57136327879, 7328.645268517169, -2259.962530131642, 3869.8245727806775, 10089.018653514226, -17500.879466638504, 2044.7822862604007, -928.6255751401873, -18576.132485405506, -23591.70747896522, 26697.549426263504, -13027.736607520177, -440.5305314696469, 9732.396570729801, -187500.02235174447, -0.007625, 0.9898750000000001, -0.030875, 192.0, 0.0, 0.0, 0.0, 0.0, 0.0, 0.0, 0.0, 0.0, 0.0, 1.745266794338279E9, 0.0, 2025-04-21 15:19:54.338
206.0, -27411.598254632743, -4091.1738981215835, 7335.64136453168, -2253.9052073842536, 3884.2190962098953, 10090.42681341491, -17488.965986843825, 2056.5393038438924, -937.9462525780502, -18580.803999996664, -23599.70940348022, 26690.24040582662, -13027.222517397704, -449.87356065196525, 9732.240108518614, -187500.02235174447, -0.007625, 0.9898750000000001, -0.030875, 192.0, 0.0, 0.0, 0.0, 0.0, 0.0, 0.0, 0.0, 0.0, 0.0, 1.745266794338379E9, 0.0, 2025-04-21 15:19:54.338
208.0, -27412.84995232224, -4087.0388253973515, 7339.6423267891805, -2252.1617713167398, 3891.617523624602, 10098.741662352284, -17483.154533285444, 2065.569408603836, -920.5565953918214, -18570.67865975841, -23586.164246340304, 26693.99549889511, -13015.6219620254, -440.30701402509385, 9743.147759812804, -187500.02235174447, -0.0068125, 0.9879375, -0.0334375, 192.0, 127.5, 104.0, 15.0, 104.0, 127.0, 112.0, 0.0, 0.0, 0.0, 1.745266794338485E9, 0.0, 2025-04-21 15:19:54.338
210.0, -27406.524408641388, -4083.4625462845024, 7339.239995388984, -2252.7429166725774, 3897.496032416348, 10107.19062175639, -17478.50537043874, 2068.0728039828305, -923.3952669376454, -18587.263654144248, -23589.539359753056, 26699.248158842107, -13020.04760742755, -438.6753366798564, 9748.31101278198, -187500.02235174447, -0.0068125, 0.9879375, -0.0334375, 192.0, 0.0, 0.0, 0.0, 0.0, 0.0, 0.0, 0.0, 0.0, 0.0, 1.745266794396515E9, 0.0, 2025-04-21 15:19:54.396
212.0, -27424.04817629435, -4096.627723768678, 7331.126312151709, -2267.6738819687225, 3890.2093637239177, 10094.964217539336, -17487.78134438769, 2064.5635801033472, -932.3583164642235, -18585.96725296584, -23593.316804566006, 26698.175275108253, -13017.879488215387, -444.12916232695136, 9755.642384963321, -187500.02235174447, -0.0068125, 0.9879375, -0.0334375, 192.0, 0.0, 0.0, 0.0, 0.0, 0.0, 0.0, 0.0, 0.0, 0.0, 1.745266794396648E9, 0.0, 2025-04-21 15:19:54.396
214.0, -27423.735251871974, -4108.608258796723, 7331.26042261844, -2268.9702831471304, 3887.5718578781916, 10085.464726145832, -17493.0787078236, 2054.0135567204425, -943.1318572916815, -18595.377337381524, -23610.594703029958, 26683.53488249003, -13038.95718323674, -463.686938725345, 9740.331440011436, -187500.02235174447, -0.0068125, 0.9879375, -0.0334375, 192.0, 0.0, 0.0, 0.0, 0.0, 0.0, 0.0, 0.0, 0.0, 0.0, 1.745266794396768E9, 0.0, 2025-04-21 15:19:54.396
216.0, -27425.545743172854, -4113.391532110159, 7338.211815144041, -2262.2647598105386, 3890.790509079756, 10092.058490760148, -17498.577236959605, 2065.636463837202, -931.9112815751174, -18593.87977050302, -23598.949444168742, 26686.32885054694, -13017.410101581825, -459.93184565685345, 9749.875634893851, -187500.02235174447, -0.0068125, 0.9879375, -0.0334375, 192.0, 0.0, 0.0, 0.0, 0.0, 0.0, 0.0, 0.0, 0.0, 0.0, 1.745266794396898E9, 0.0, 2025-04-21 15:19:54.396
218.0, -27418.75081285844, -4101.47805231548, 7347.6889547930905, -2247.177332303206, 3899.3065237172277, 10111.213935758346, -17487.915454854425, 2069.9279987726213, -936.9180723331061, -18605.30151191968, -23602.10104013694, 26689.391039537317, -13018.795909738054, -459.9989008902194, 9749.4509517492, -187500.02235174447, -0.0064062500000000005, 0.9879687500000001, -0.03471875000000001, 192.0, 127.5, 104.0, 15.0, 112.0, 127.0, 112.0, 0.0, 0.0, 0.0, 1.745266794397012E9, 0.0, 2025-04-21 15:19:54.397
220.0, -27421.276559981892, -4100.695741259545, 7344.179730913607, -2249.9936521045747, 3894.232677725873, 10105.693054877884, -17484.94267284187, 2065.636463837202, -925.7198483609973, -18593.835067014108, -23592.199217343237, 26701.550388521006, -13007.687092743767, -444.5538454716022, 9753.630727962343, -187500.02235174447, -0.0064062500000000005, 0.9879687500000001, -0.03471875000000001, 192.0, 0.0, 0.0, 0.0, 0.0, 0.0, 0.0, 0.0, 0.0, 0.0, 1.745266794397136E9, 0.0, 2025-04-21 15:19:54.397
222.0, -27417.56617040231, -4095.219563867994, 7346.213739659041, -2246.305614269449, 3894.612657381613, 10109.805775857662, -17482.685146651882, 2070.9785307620205, -927.1503600061369, -18593.723308291832, -23595.32846156698, 26698.979937908643, -13007.910610188319, -445.1796943163508, 9749.138027326826, -187500.02235174447, -0.0064062500000000005, 0.9879687500000001, -0.03471875000000001, 192.0, 0.0, 0.0, 0.0, 0.0, 0.0, 0.0, 0.0, 0.0, 0.0, 1.745266794397238E9, 0.0, 2025-04-21 15:19:54.397
224.0, -27412.291158710857, -4092.738520233455, 7340.111713422742, -2244.5845299463904, 3883.9955787653425, 10109.202278757368, -17487.691937409872, 2065.7035190705683, -922.635307626165, -18584.58144480961, -23592.266272576606, 26703.942025177723, -13007.217706110205, -436.7754384011553, 9743.818312146463, -187500.02235174447, -0.0064062500000000005, 0.9879687500000001, -0.03471875000000001, 192.0, 0.0, 0.0, 0.0, 0.0, 0.0, 0.0, 0.0, 0.0, 0.0, 1.745266794427801E9, 0.0, 2025-04-21 15:19:54.427
226.0, -27405.920911541096, -4083.0825666287624, 7345.6325943032025, -2238.9518903436533, 3886.1860497219623, 10116.734816638806, -17485.99320483127, 2080.612132622258, -908.4195981525896, -18575.037249927194, -23587.259481818615, 26713.799144482513, -13012.939752690763, -428.4382377193258, 9743.59479470191, -187500.02235174447, -0.0064062500000000005, 0.9879687500000001, -0.03471875000000001, 192.0, 0.0, 0.0, 0.0, 0.0, 0.0, 0.0, 0.0, 0.0, 0.0, 1.745266794427941E9, 0.0, 2025-04-21 15:19:54.427
228.0, -27400.176513216084, -4077.1146508591955, 7340.603451800758, -2236.0014600755526, 3883.0568054982195, 10128.916517366948, -17489.927111855402, 2077.415833165149, -909.6265923531762, -18559.838063697585, -23585.069010861997, 26716.548409050516, -13004.647255497845, -417.7764556141443, 9743.214815046169, -187500.02235174447, -0.0064062500000000005, 0.9879687500000001, -0.03471875000000001, 192.0, 0.0, 0.0, 0.0, 0.0, 0.0, 0.0, 0.0, 0.0, 0.0, 1.745266794428049E9, 0.0, 2025-04-21 15:19:54.428
230.0, -27397.471952136988, -4073.136040346151, 7344.380896613705, -2236.828474620399, 3885.001407265831, 10135.778502914727, -17486.686108909384, 2078.22049596554, -907.0784934852712, -18549.310392059135, -23583.48203700567, 26728.506592334106, -13023.020389440107, -403.40428392938185, 9743.438332490723, -187500.02235174447, -0.008, 0.99, -0.034, 192.0, 127.5, 96.0, 15.0, 120.0, 127.0, 120.0, 0.0, 0.0, 0.0, 1.745266794481454E9, 0.0, 2025-04-21 15:19:54.481
