%OpenBCI Raw EXG Data
%Number of channels = 16
%Sample Rate = 125 Hz
%Board = OpenBCI_GUI$BoardCytonSerialDaisy
Sample Index, EXG Channel 0, EXG Channel 1, EXG Channel 2, EXG Channel 3, EXG Channel 4, EXG Channel 5, EXG Channel 6, EXG Channel 7, EXG Channel 8, EXG Channel 9, EXG Channel 10, EXG Channel 11, EXG Channel 12, EXG Channel 13, EXG Channel 14, EXG Channel 15, Accel Channel 0, Accel Channel 1, Accel Channel 2, Not Used, Digital Channel 0 (D11), Digital Channel 1 (D12), Digital Channel 2 (D13), Digital Channel 3 (D17), Not Used, Digital Channel 4 (D18), Analog Channel 0, Analog Channel 1, Analog Channel 2, Timestamp, Marker Channel, Timestamp (Formatted)
104.0, -48193.8255660326, -43102.9251936585, -1497.6786372278498, -48870.36816720584, 13283.373508855524, 7148.870187863135, -16711.125279799136, -23844.371598288013, -14797.167753835649, -30351.970237728387, -28009.954453701313, -19965.695734703033, -21287.957881445633, -18777.119371547626, -23701.141619818405, -38425.688555918765, 0.0, 0.0, 0.0, 192.0, 0.0, 0.0, 0.0, 0.0, 0.0, 0.0, 0.0, 0.0, 0.0, 1.743528596309423E9, 0.0, 2025-04-01 12:29:56.309
106.0, -48191.54568809816, -43096.66670521101, -1494.214116837277, -48869.02706253852, 13223.873165115496, 7161.007185102366, -16712.332273999724, -23855.234546093292, -14802.912152160663, -30365.515394868304, -28013.30721536961, -19971.507188261414, -21277.58667201837, -18779.980394837905, -23712.6974717018, -38433.98105311168, 0.0, 0.0, 0.0, 192.0, 0.0, 0.0, 0.0, 0.0, 0.0, 0.0, 0.0, 0.0, 0.0, 1.743528596309702E9, 0.0, 2025-04-01 12:29:56.309
108.0, -48199.61466784652, -43094.856213910134, -1505.412340809386, -48877.14074577579, 13264.396877812967, 7139.393048214084, -16722.457614237977, -23871.6854300124, -14799.246466069993, -30353.981894729364, -28011.809648491104, -19965.203996325017, -21275.35149757284, -18783.690784417486, -23708.31652978856, -38431.29884377705, 0.0, 0.0, 0.0, 192.0, 0.0, 0.0, 0.0, 0.0, 0.0, 0.0, 0.0, 0.0, 0.0, 1.74352859630989E9, 0.0, 2025-04-01 12:29:56.309
110.0, -48195.30078116665, -43087.502489984334, -1492.2695150696654, -48861.248655468065, 13212.630237654477, 7147.014993073344, -16698.7424133709, -23838.649551707455, -14805.236733584015, -30365.62715359058, -28014.916540970393, -19973.407086540115, -21289.813076235423, -18796.610092712654, -23714.306797302583, -38434.60690195643, 0.002, 0.982, 0.042, 192.0, 0.0, 8.0, 15.0, 88.0, 0.5, 40.0, 0.0, 0.0, 0.0, 1.743528596310089E9, 0.0, 2025-04-01 12:29:56.310
112.0, -48195.792519544666, -43091.14582433055, -1504.4288640533525, -48872.31276897345, 13275.259825618246, 7143.997507571878, -16713.6957304115, -23855.301601326657, -14803.06861437185, -30354.875964507577, -28013.21780839179, -19970.501359760925, -21302.061832196934, -18793.883179889104, -23708.249474555192, -38428.86250363142, 0.002, 0.982, 0.042, 192.0, 0.0, 0.0, 0.0, 0.0, 0.0, 0.0, 0.0, 0.0, 0.0, 1.743528596310282E9, 0.0, 2025-04-01 12:29:56.310
114.0, -48194.56317359962, -43097.583126733676, -1496.6504569829056, -48867.417736937736, 13229.394045995958, 7142.4775889489165, -16715.3944629901, -23869.71847650033, -14793.278550300427, -30350.070339449685, -28008.054555422612, -19969.629641727166, -21287.55555004544, -18777.722868647917, -23705.79078266511, -38425.88972161886, 0.002, 0.982, 0.042, 192.0, 0.0, 0.0, 0.0, 0.0, 0.0, 0.0, 0.0, 0.0, 0.0, 1.743528596310461E9, 0.0, 2025-04-01 12:29:56.310
116.0, -48213.56215638664, -43090.944658630455, -1519.091608416034, -48882.19224002269, 13262.452276045356, 7144.221025016431, -16728.827861407743, -23864.644630508978, -14806.734300462522, -30361.603839588624, -28022.538485829653, -19977.162179608607, -21294.1269629153, -18776.04648781377, -23718.821849682554, -38436.50680023513, 0.002, 0.982, 0.042, 192.0, 0.0, 0.0, 0.0, 0.0, 0.0, 0.0, 0.0, 0.0, 0.0, 1.743528596310658E9, 0.0, 2025-04-01 12:29:56.310
118.0, -48198.27356317921, -43102.00877213583, -1502.216041352277, -48861.874504312815, 13202.28137997167, 7148.646670418581, -16707.280779752826, -23857.62618275001, -14809.908248175176, -30367.817624547202, -28026.651206809427, -19978.212711598007, -21295.646881538258, -18777.544054692276, -23723.582771251535, -38438.31729153601, 0.002, 0.982, 0.042, 192.0, 0.0, 0.0, 0.0, 0.0, 0.0, 0.0, 0.0, 0.0, 0.0, 1.743528596310848E9, 0.0, 2025-04-01 12:29:56.310
120.0, -48201.29104868067, -43098.499548256346, -1506.5969832655173, -48864.08732701389, 13251.388162539979, 7154.74869665488, -16720.91534387056, -23865.29283109818, -14800.185239337115, -30349.176269671476, -28015.341224115044, -19962.298269545827, -21293.769335004014, -18776.247653513867, -23716.474916514748, -38432.21526529971, 0.002, 0.982, 0.042, 192.0, 0.0, 8.0, 15.0, 88.0, 0.5, 40.0, 0.0, 0.0, 0.0, 1.743528596311034E9, 0.0, 2025-04-01 12:29:56.311
0.0, -24104.367089792144, -21528.84263144048, -746.2576921293369, -24414.430488876165, 6621.771350118083, 3597.2897526371185, -8351.818722703305, -11902.63919861784, -7399.053263551386, -15174.062868841038, -14006.474793729163, -9981.126783028458, -10648.348706763829, -9391.308950341816, -11855.722887006152, -19220.443871074185, -0.016, 0.982, 0.048, 192.0, 127.5, 64.0, 15.0, 88.0, 0.5, 64.0, 0.0, 0.0, 0.0, 1.743528596428813E9, 0.0, 2025-04-01 12:29:56.428
2.0, -48213.36099068654, -43050.62211163308, -1492.2695150696654, -48827.78809401848, 13250.225871828303, 7188.768051715858, -16707.571352430743, -23814.46496420681, -14947.192662619671, -30371.6174211046, -27905.974138495225, -19936.03496981084, -21312.097765457365, -18740.104882729636, -23685.137770788406, -38385.67893334376, -0.016, 0.982, 0.048, 192.0, 0.0, 0.0, 0.0, 0.0, 0.0, 0.0, 0.0, 0.0, 0.0, 1.743528596487031E9, 0.0, 2025-04-01 12:29:56.487
4.0, -48218.21131923334, -43090.98936211936, -1503.5571460195954, -48838.65104182375, 13202.191972993849, 7176.4075370320725, -16711.43820422151, -23830.871144637007, -14949.472540554112, -30374.54549962825, -27904.543626850085, -19936.95139133351, -21322.64778884027, -18731.007722736325, -23691.887997613907, -38385.58952636594, -0.016, 0.982, 0.048, 192.0, 0.0, 0.0, 0.0, 0.0, 0.0, 0.0, 0.0, 0.0, 0.0, 1.743528596487256E9, 0.0, 2025-04-01 12:29:56.487
6.0, -48221.1841012459, -43079.969952102896, -1513.8165967245814, -48839.18748369068, 13228.499976217745, 7173.479458508427, -16719.395425247603, -23843.254011065248, -14963.978822705607, -30377.808854318722, -27917.485286889707, -19947.970801349977, -21333.488384901095, -18762.657792885042, -23703.55560821958, -38403.806198097016, -0.016, 0.982, 0.048, 192.0, 0.0, 0.0, 0.0, 0.0, 0.0, 0.0, 0.0, 0.0, 0.0, 1.743528596487448E9, 0.0, 2025-04-01 12:29:56.487
8.0, -48227.107313526554, -43093.00101912034, -1512.8331199685479, -48837.53345460099, 13191.194914721837, 7171.110173596165, -16722.614076449165, -23829.597095203055, -14967.778619263008, -30379.68640085297, -27920.05573750207, -19946.428530982557, -21341.155033249266, -18754.85703407014, -23708.160067577373, -38395.60310788192, -0.018000000000000002, 0.98, 0.046, 192.0, 127.5, 56.0, 15.0, 80.0, 0.5, 56.0, 0.0, 0.0, 0.0, 1.743528596487632E9, 0.0, 2025-04-01 12:29:56.487
10.0, -48239.42312472143, -43084.14972831604, -1521.4385415838412, -48848.37405066181, 13243.497996747255, 7164.650519448581, -16730.638352708622, -23836.749653428753, -14971.958395476151, -30378.077075252186, -27924.459031159764, -19945.601516437713, -21347.860556585856, -18754.81233058123, -23707.377756521437, -38403.381514952365, -0.018000000000000002, 0.98, 0.046, 192.0, 0.0, 0.0, 0.0, 0.0, 0.0, 0.0, 0.0, 0.0, 0.0, 1.743528596487844E9, 0.0, 2025-04-01 12:29:56.487
12.0, -48236.36093573105, -43112.22351935191, -1524.3219166185756, -48855.39249842078, 13189.205609465314, 7151.865321620146, -16729.677227697044, -23842.739920942775, -14984.29655841548, -30397.74661037286, -27938.63003714443, -19964.689906202544, -21364.13262654932, -18771.531435433797, -23720.855858427985, -38415.831436613975, -0.018000000000000002, 0.98, 0.046, 192.0, 0.0, 0.0, 0.0, 0.0, 0.0, 0.0, 0.0, 0.0, 0.0, 1.743528596488023E9, 0.0, 2025-04-01 12:29:56.488
14.0, -48248.7885056482, -43115.01748740882, -1534.6260708124723, -48868.445917182675, 13234.602002454043, 7141.9858505709, -16747.335105816735, -23854.116958870527, -14988.498686373077, -30402.954566830944, -27943.994455813703, -19974.56937725179, -21346.74296936309, -18777.946386092473, -23724.186268351827, -38427.45434373073, -0.018000000000000002, 0.98, 0.046, 192.0, 0.0, 0.0, 0.0, 0.0, 0.0, 0.0, 0.0, 0.0, 0.0, 1.743528596488209E9, 0.0, 2025-04-01 12:29:56.488
16.0, -48231.9352903289, -43091.25758305283, -1521.9079282174025, -48850.564521618435, 13186.456344897313, 7154.100496065676, -16726.145652073104, -23834.4250720054, -14980.027375224518, -30386.526034656294, -27937.490098177208, -19965.24869981393, -21350.743931620593, -18766.994031309372, -23721.571114250557, -38418.2677767596, -0.018000000000000002, 0.98, 0.046, 192.0, 0.0, 0.0, 0.0, 0.0, 0.0, 0.0, 0.0, 0.0, 0.0, 1.743528596547417E9, 0.0, 2025-04-01 12:29:56.547
18.0, -48240.138380544, -43096.15261508854, -1532.5473585781288, -48857.65002461076, 13240.458159501333, 7156.55918795576, -16742.775349947853, -23849.557203001645, -14976.227578667114, -30385.564909644716, -27935.031406287126, -19959.884281144656, -21350.27454498703, -18764.781208608296, -23717.70426245979, -38416.97137558119, -0.016, 0.98, 0.056, 192.0, 127.5, 64.0, 15.0, 80.0, 0.5, 96.0, 0.0, 0.0, 0.0, 1.743528596547651E9, 0.0, 2025-04-01 12:29:56.547
20.0, -48228.94015657189, -43084.66381843851, -1525.283041630154, -48845.08834422688, 13183.75178381822, 7158.7943624012905, -16734.572259732755, -23842.829327920597, -14975.780543778008, -30380.53576714227, -27936.417214443354, -19955.74920842042, -21353.113216532853, -18757.09220851567, -23723.538067762624, -38416.099657547435, -0.016, 0.98, 0.056, 192.0, 0.0, 0.0, 0.0, 0.0, 0.0, 0.0, 0.0, 0.0, 0.0, 1.743528596547855E9, 0.0, 2025-04-01 12:29:56.547
22.0, -48233.49991244077, -43086.317847528204, -1528.7922655096372, -48852.375012919314, 13223.269668015202, 7161.722440924936, -16733.052341109793, -23844.95274364385, -14968.806799507953, -30376.065418251208, -27929.555228895573, -19951.61413569619, -21356.689495645704, -18751.95130729095, -23717.771317693154, -38411.472846445184, -0.016, 0.98, 0.056, 192.0, 0.0, 0.0, 0.0, 0.0, 0.0, 0.0, 0.0, 0.0, 0.0, 1.743528596548047E9, 0.0, 2025-04-01 12:29:56.548
24.0, -48230.10244728356, -43087.48013823988, -1521.72911426176, -48847.88231228379, 13193.743013589743, 7154.5698826992375, -16731.085387597726, -23830.893496381465, -14976.853427511864, -30394.7738283603, -27936.86424933246, -19969.294365560338, -21366.32309750594, -18752.04071426877, -23725.147393363404, -38420.011212827114, -0.016, 0.98, 0.056, 192.0, 0.0, 0.0, 0.0, 0.0, 0.0, 0.0, 0.0, 0.0, 0.0, 1.743528596548231E9, 0.0, 2025-04-01 12:29:56.548
26.0, -48229.96833681683, -43074.225553777884, -1523.472550329274, -48848.23994019508, 13238.245336800259, 7162.862379892156, -16734.102873099193, -23833.128670826994, -14969.879683241807, -30382.078037509687, -27928.348234694986, -19960.7112956895, -21347.838204841402, -18760.646135884064, -23714.03857636912, -38409.99763131114, -0.016, 0.98, 0.056, 192.0, 0.0, 0.0, 0.0, 0.0, 0.0, 0.0, 0.0, 0.0, 0.0, 1.74352859654841E9, 0.0, 2025-04-01 12:29:56.548
28.0, -48225.45328443686, -43094.38682727657, -1520.5444718056287, -48843.4790186261, 13205.812955595607, 7162.817676403246, -16726.190355562016, -23834.894458638963, -14974.506494344056, -30374.769017072802, -27933.95852255327, -19956.66562994309, -21358.097655546386, -18754.94644104796, -23718.196000837805, -38413.55155867953, -0.018000000000000002, 0.982, 0.05, 192.0, 127.5, 56.0, 15.0, 88.0, 0.5, 72.0, 0.0, 0.0, 0.0, 1.743528596548603E9, 0.0, 2025-04-01 12:29:56.548
30.0, -48240.7865811332, -43098.566603489715, -1537.7776667806706, -48859.81814382293, 13236.412493754924, 7145.942109339489, -16737.053303367295, -23862.38710431899, -14973.277148399015, -30378.121778741097, -27932.885638819414, -19951.167100807084, -21346.340637962894, -18760.355563206143, -23716.31845430356, -38412.65748890132, -0.018000000000000002, 0.982, 0.05, 192.0, 0.0, 0.0, 0.0, 0.0, 0.0, 0.0, 0.0, 0.0, 0.0, 1.743528596548797E9, 0.0, 2025-04-01 12:29:56.548
32.0, -48241.34537474458, -43104.355705303635, -1531.4521230998187, -48854.274911198016, 13199.018025281195, 7152.2229495314305, -16742.864756925675, -23844.997447132762, -14985.481200871613, -30387.844787579157, -27946.229630259233, -19964.220519568982, -21371.41929524175, -18770.100923788657, -23729.863611443474, -38429.28718677607, -0.018000000000000002, 0.982, 0.05, 192.0, 0.0, 0.0, 0.0, 0.0, 0.0, 0.0, 0.0, 0.0, 0.0, 1.743528596606642E9, 0.0, 2025-04-01 12:29:56.606
34.0, -48244.40756373496, -43086.36255101711, -1533.73200103426, -48855.41485016523, 13221.70504590333, 7159.375507757129, -16746.79866394981, -23839.58832497458, -14984.073040970927, -30395.511435927325, -27941.4463569458, -19971.127208605674, -21368.535920207014, -18759.796769594763, -23728.58956200952, -38415.965547080705, -0.018000000000000002, 0.982, 0.05, 192.0, 0.0, 0.0, 0.0, 0.0, 0.0, 0.0, 0.0, 0.0, 0.0, 1.743528596606859E9, 0.0, 2025-04-01 12:29:56.606
36.0, -48237.97026133183, -43089.20122256294, -1526.0653526860897, -48840.86386452483, 13205.835307340063, 7165.522237482338, -16741.546004002812, -23837.397854017956, -14985.861180527352, -30387.375400945595, -27942.183964512824, -19967.193301581538, -21377.007231355576, -18767.99985980986, -23728.902486431896, -38420.25708201612, -0.018000000000000002, 0.982, 0.05, 192.0, 0.0, 0.0, 0.0, 0.0, 0.0, 0.0, 0.0, 0.0, 0.0, 1.743528596607055E9, 0.0, 2025-04-01 12:29:56.607
38.0, -48230.08009553911, -43094.34212378766, -1518.7116287602937, -48840.640347080276, 13223.940220348863, 7166.6621764495585, -16723.955181116486, -23838.493089496267, -14973.455962354657, -30378.21118571892, -27926.023653271637, -19949.647182184122, -21354.968411322643, -18752.621859624607, -23713.300968802094, -38398.978221294674, -0.024, 0.974, 0.054, 192.0, 127.5, 32.0, 15.0, 56.0, 0.5, 88.0, 0.0, 0.0, 0.0, 1.743528596607253E9, 0.0, 2025-04-01 12:29:56.607
40.0, -48230.59418566158, -43077.377149746084, -1524.0983991740227, -48845.13304771579, 13214.150156277437, 7161.65538569157, -16736.91919290056, -23844.5280604992, -14975.981709478106, -30384.469674166405, -27930.53870565161, -19956.24094679844, -21359.684629402713, -18761.607260895642, -23720.699396216798, -38411.897529589834, -0.024, 0.974, 0.054, 192.0, 0.0, 0.0, 0.0, 0.0, 0.0, 0.0, 0.0, 0.0, 0.0, 1.743528596607458E9, 0.0, 2025-04-01 12:29:56.607
42.0, -48230.41537170594, -43072.01273107681, -1522.220852639777, -48842.8308180369, 13225.99658083875, 7168.18209507252, -16730.012503863873, -23848.685484967886, -14967.398639607269, -30376.244232206853, -27920.793345069094, -19949.7589409064, -21353.806120610967, -18747.972696777906, -23715.334977547525, -38403.247404485635, -0.024, 0.974, 0.054, 192.0, 0.0, 0.0, 0.0, 0.0, 0.0, 0.0, 0.0, 0.0, 0.0, 1.743528596607631E9, 0.0, 2025-04-01 12:29:56.607
44.0, -48233.38815371849, -43083.255658537826, -1515.7164950032825, -48846.51885587202, 13238.826482156097, 7151.954728597967, -16735.89101265562, -23868.176206132914, -14978.038069967995, -30381.139264242564, -27932.304493463576, -19959.414894511094, -21366.680725417224, -18748.486786900376, -23717.145468848405, -38417.26194825911, -0.024, 0.974, 0.054, 192.0, 0.0, 0.0, 0.0, 0.0, 0.0, 0.0, 0.0, 0.0, 0.0, 1.743528596607814E9, 0.0, 2025-04-01 12:29:56.607
46.0, -48218.658354122446, -43078.47238522439, -1503.668904741872, -48826.80461726244, 13219.224002268793, 7179.425022533539, -16724.759843916876, -23828.367749258014, -14962.347145360369, -30369.382246659072, -27914.400746154875, -19943.47810071446, -21345.71478911815, -18744.95521127644, -23705.83548615402, -38396.83245382696, -0.024, 0.974, 0.054, 192.0, 0.0, 0.0, 0.0, 0.0, 0.0, 0.0, 0.0, 0.0, 0.0, 1.74352859666644E9, 0.0, 2025-04-01 12:29:56.666
48.0, -48228.02373504922, -43084.52970797178, -1508.1616053773887, -48835.49944585555, 13238.088874589072, 7174.284121308819, -16719.484832225422, -23828.09952832455, -14964.470561083623, -30366.118891968596, -27915.38422291091, -19947.412007738592, -21348.776978108523, -18746.74335083286, -23699.15231456188, -38393.63615436985, -0.022, 0.98, 0.054, 192.0, 127.5, 40.0, 15.0, 80.0, 0.5, 88.0, 0.0, 0.0, 0.0, 1.743528596666692E9, 0.0, 2025-04-01 12:29:56.666
50.0, -48221.653487879455, -43077.35479800162, -1506.9322594323469, -48833.53249234349, 13212.965513821306, 7172.160705585565, -16724.133995072127, -23831.675807437397, -14966.81749425143, -30386.928366056487, -27916.635920600405, -19954.162234564094, -21352.979106066123, -18740.84249029666, -23705.656672198376, -38397.54770964953, -0.022, 0.98, 0.054, 192.0, 0.0, 0.0, 0.0, 0.0, 0.0, 0.0, 0.0, 0.0, 0.0, 1.743528596666901E9, 0.0, 2025-04-01 12:29:56.666
52.0, -48232.47173219582, -43072.23624852136, -1519.5609950495952, -48838.78515229048, 13249.130636349993, 7166.908045638567, -16734.50520449939, -23841.711740697832, -14965.275223884015, -30372.667953094002, -27916.345347922488, -19944.506280959402, -21356.577736923427, -18737.445025139456, -23701.63335819642, -38396.27366021558, -0.022, 0.98, 0.054, 192.0, 0.0, 0.0, 0.0, 0.0, 0.0, 0.0, 0.0, 0.0, 0.0, 1.743528596667085E9, 0.0, 2025-04-01 12:29:56.667
54.0, -48232.73995312929, -43072.45976596591, -1516.0070676812015, -48837.1758266897, 13201.543772404644, 7173.27829280833, -16733.387617276625, -23838.694255196366, -14968.024488452016, -30381.809816576224, -27923.699071848285, -19951.6588391851, -21366.166635294754, -18742.18359496398, -23718.17364909335, -38400.92282306228, -0.022, 0.98, 0.054, 192.0, 0.0, 0.0, 0.0, 0.0, 0.0, 0.0, 0.0, 0.0, 0.0, 1.743528596667277E9, 0.0, 2025-04-01 12:29:56.667
56.0, -48245.05576432416, -43072.124489799084, -1531.7203440332823, -48851.52564663001, 13228.14234830646, 7163.309414781263, -16752.677172741554, -23854.273421081714, -14977.412221123246, -30380.803988075735, -27932.215086485754, -19957.649106699122, -21382.930443636233, -18726.671484312, -23721.45935552828, -38406.89073883185, -0.019, 0.983, 0.056, 192.0, 127.5, 64.0, 15.0, 104.0, 0.5, 104.0, 0.0, 0.0, 0.0, 1.743528596667455E9, 0.0, 2025-04-01 12:29:56.667
58.0, -48230.527130428214, -43092.93396388697, -1514.5542042916065, -48828.77157077451, 13198.101603758527, 7171.914836396556, -16729.051378852295, -23839.498917996756, -14978.887436257297, -30389.856444580135, -27928.638807372907, -19955.0116008534, -21371.441646986204, -18763.90949057454, -23726.086166630528, -38403.78384635256, -0.019, 0.983, 0.056, 192.0, 0.0, 0.0, 0.0, 0.0, 0.0, 0.0, 0.0, 0.0, 0.0, 1.743528596667652E9, 0.0, 2025-04-01 12:29:56.667
60.0, -48233.678726396414, -43093.96214413192, -1517.5940415375283, -48833.912471999225, 13248.95182239435, 7175.5805224872265, -16736.583916733733, -23848.171394845416, -14972.651299554265, -30371.840938549154, -27921.374490424932, -19941.309981502294, -21357.47180670164, -18737.243859439357, -23710.037614111618, -38396.58658463795, -0.019, 0.983, 0.056, 192.0, 0.0, 0.0, 0.0, 0.0, 0.0, 0.0, 0.0, 0.0, 0.0, 1.743528596667848E9, 0.0, 2025-04-01 12:29:56.667
62.0, -48239.467828210334, -43090.09529234115, -1519.1139601604891, -48841.71323081413, 13201.119089259993, 7163.063545592255, -16728.872564896654, -23848.640781478978, -14974.573549577422, -30383.06151426572, -27922.201504969777, -19948.082560072253, -21362.635059670814, -18751.303106701747, -23711.959864134773, -38398.84411082794, -0.019, 0.983, 0.056, 192.0, 0.0, 0.0, 0.0, 0.0, 0.0, 0.0, 0.0, 0.0, 0.0, 1.743528596726753E9, 0.0, 2025-04-01 12:29:56.726
64.0, -48234.50574094126, -43079.545268958245, -1519.5833467940506, -48837.51110285653, 13258.496017276766, 7177.055737621276, -16727.55381197379, -23829.552391714144, -14972.114857687338, -30383.620307877103, -27920.72628983573, -19955.928022376065, -21370.838149885913, -18747.883289800084, -23706.573093721046, -38399.93934630625, -0.019, 0.983, 0.056, 192.0, 0.0, 0.0, 0.0, 0.0, 0.0, 0.0, 0.0, 0.0, 0.0, 1.743528596726996E9, 0.0, 2025-04-01 12:29:56.726
66.0, -48220.35708670105, -43069.48698395336, -1508.988619922235, -48823.04952419395, 13208.271647485692, 7178.553304499782, -16721.340027015212, -23830.245295792258, -14971.44430535368, -30379.552290386237, -27921.28508344711, -19946.09325481573, -21370.838149885913, -18751.347810190655, -23712.429250768335, -38399.02292478358, -0.0155, 0.9844999999999999, 0.057, 192.0, 127.5, 80.0, 15.0, 104.0, 0.5, 104.0, 0.0, 0.0, 0.0, 1.743528596727191E9, 0.0, 2025-04-01 12:29:56.727
68.0, -48222.145226257475, -43072.8173938772, -1507.1334251324447, -48828.749219030055, 13246.448427015357, 7187.13637437062, -16729.4984137414, -23834.603885961045, -14954.524034801012, -30358.42989187597, -27903.023708227123, -19929.016522051876, -21363.059742815465, -18730.493632613856, -23697.07360232754, -38384.74016007664, -0.0155, 0.9844999999999999, 0.057, 192.0, 0.0, 0.0, 0.0, 0.0, 0.0, 0.0, 0.0, 0.0, 0.0, 1.743528596727396E9, 0.0, 2025-04-01 12:29:56.727
70.0, -48234.84101710809, -43100.19828083495, -1522.377314850964, -48842.27202442551, 13177.381536648458, 7169.634958462115, -16729.006675363384, -23839.275400552204, -14968.516226830034, -30383.15092124354, -27914.95953976626, -19950.04951358432, -21365.205510283176, -18733.064083226214, -23710.26113155617, -38390.9092415463, -0.0155, 0.9844999999999999, 0.057, 192.0, 0.0, 0.0, 0.0, 0.0, 0.0, 0.0, 0.0, 0.0, 0.0, 1.743528596727583E9, 0.0, 2025-04-01 12:29:56.727
72.0, -48236.00330781977, -43094.74445518786, -1524.0760474295673, -48847.10000122786, 13235.876051887995, 7167.802115416779, -16739.735512701933, -23856.218022849327, -14983.87187527083, -30396.338450472173, -27928.616455628453, -19962.633545712655, -21386.484371004626, -18752.733618346887, -23727.159050364382, -38411.58460516747, -0.0155, 0.9844999999999999, 0.057, 192.0, 0.0, 0.0, 0.0, 0.0, 0.0, 0.0, 0.0, 0.0, 0.0, 1.743528596727775E9, 0.0, 2025-04-01 12:29:56.727
74.0, -48225.140360014484, -43090.43056850798, -1505.4346925538414, -48831.610242320334, 13205.23181023977, 7178.463897521961, -16727.26323929587, -23830.692330681366, -14971.936043731695, -30384.804950333233, -27913.46197288775, -19946.115606560186, -21366.166635294754, -18750.587850879176, -23707.333053032526, -38396.92186080478, -0.0155, 0.9844999999999999, 0.057, 192.0, 0.0, 0.0, 0.0, 0.0, 0.0, 0.0, 0.0, 0.0, 0.0, 1.743528596727951E9, 0.0, 2025-04-01 12:29:56.727
76.0, -48226.16854025943, -43083.34506551565, -1509.3238960890646, -48841.556768602946, 13242.514519991222, 7169.567903228749, -16743.334143559237, -23844.70687445484, -14958.927328458707, -30364.420159389992, -27898.53100759161, -19934.716216887977, -21355.348390978383, -18713.28278938327, -23704.002643108684, -38391.557442135505, -0.01475, 0.98625, 0.058499999999999996, 192.0, 127.5, 72.0, 15.0, 112.0, 0.5, 112.0, 0.0, 0.0, 0.0, 1.743528596728145E9, 0.0, 2025-04-01 12:29:56.728
78.0, -48228.91780482743, -43089.268277796305, -1516.476454314763, -48839.4780563686, 13201.521420660189, 7156.089801322199, -16752.36424831918, -23864.398761319968, -14974.372383877324, -30386.05664802273, -27916.032423500114, -19952.687019430046, -21379.220054056652, -18736.193327449957, -23723.962750907274, -38414.8703116024, -0.01475, 0.98625, 0.058499999999999996, 192.0, 0.0, 0.0, 0.0, 0.0, 0.0, 0.0, 0.0, 0.0, 0.0, 1.743528596788024E9, 0.0, 2025-04-01 12:29:56.788
80.0, -48228.224900749316, -43085.31201902772, -1515.5600327920954, -48835.16416968872, 13234.132615820483, 7166.237493304908, -16735.93571614453, -23858.319086828124, -14968.203302407659, -30374.277278694783, -27911.450315886774, -19941.60055418021, -21373.006269098078, -18761.58490915119, -23719.447698527303, -38403.73914286365, -0.01475, 0.98625, 0.058499999999999996, 192.0, 0.0, 0.0, 0.0, 0.0, 0.0, 0.0, 0.0, 0.0, 0.0, 1.743528596788249E9, 0.0, 2025-04-01 12:29:56.788
82.0, -48238.014964820744, -43090.944658630455, -1520.410361338897, -48843.635480837285, 13191.619597866487, 7157.475609478428, -16734.438149266025, -23852.35117105856, -14975.892302500286, -30386.995421289856, -27921.016862513647, -19952.128225818662, -21379.734144179125, -18767.91045283204, -23720.96761715026, -38413.32804123498, -0.01475, 0.98625, 0.058499999999999996, 192.0, 0.0, 0.0, 0.0, 0.0, 0.0, 0.0, 0.0, 0.0, 0.0, 1.74352859678845E9, 0.0, 2025-04-01 12:29:56.788
84.0, -48232.04704905117, -43089.51414698531, -1512.5201955461737, -48834.35950688834, 13227.404740739436, 7185.907028425579, -16722.859945638174, -23827.25016203525, -14967.331584373902, -30392.76217135932, -27911.562074609054, -19949.66953392858, -21376.202568555185, -18751.03488576828, -23708.31652978856, -38388.31643918949, -0.01475, 0.98625, 0.058499999999999996, 192.0, 0.0, 0.0, 0.0, 0.0, 0.0, 0.0, 0.0, 0.0, 0.0, 1.743528596788642E9, 0.0, 2025-04-01 12:29:56.788
86.0, -48224.76038035875, -43099.84065292367, -1506.3287623320537, -48832.34784988736, 13226.130691305481, 7172.540685241304, -16738.5508702458, -23848.57372624561, -14976.764020534041, -30387.10718001213, -27917.66410084535, -19952.731722918954, -21379.13064707883, -18749.17969097849, -23707.578922221535, -38397.27948871607, -0.013375, 0.9841249999999999, 0.05925, 192.0, 127.5, 80.0, 15.0, 88.0, 0.5, 112.0, 0.0, 0.0, 0.0, 1.743528596788819E9, 0.0, 2025-04-01 12:29:56.788
88.0, -48221.094694268075, -43072.973856088385, -1503.1771663638553, -48827.85514925184, 13245.688467703876, 7182.353101057184, -16733.298210298803, -23836.928467384394, -14964.917595972729, -30375.886604295567, -27903.00135648267, -19935.587934921736, -21359.304649746973, -18737.355618161633, -23698.101782572485, -38386.50594788861, -0.013375, 0.9841249999999999, 0.05925, 192.0, 0.0, 0.0, 0.0, 0.0, 0.0, 0.0, 0.0, 0.0, 0.0, 1.743528596789022E9, 0.0, 2025-04-01 12:29:56.789
90.0, -48233.812836863144, -43084.52970797178, -1515.6270880254613, -48835.96883248912, 13241.352229279546, 7170.551379984782, -16740.115492357672, -23842.583458731588, -14972.87481699882, -30378.121778741097, -27917.39587991189, -19942.941658847532, -21388.965414639166, -18737.646190839554, -23710.417593767357, -38399.201738739226, -0.013375, 0.9841249999999999, 0.05925, 192.0, 0.0, 0.0, 0.0, 0.0, 0.0, 0.0, 0.0, 0.0, 0.0, 1.743528596789205E9, 0.0, 2025-04-01 12:29:56.789
92.0, -48220.42414193442, -43090.60938246363, -1509.2568408556988, -48833.152512687746, 13236.636011199476, 7173.814734675257, -16728.35847477418, -23840.929429641896, -14963.420029094224, -30377.987668274363, -27906.46587687324, -19938.225440767463, -21364.736123649614, -18734.069911726703, -23706.684852443323, -38391.22216596868, -0.013375, 0.9841249999999999, 0.05925, 192.0, 0.0, 0.0, 0.0, 0.0, 0.0, 0.0, 0.0, 0.0, 0.0, 1.743528596848324E9, 0.0, 2025-04-01 12:29:56.848
94.0, -48233.052877551665, -43099.34891454565, -1520.767989250182, -48843.74723955956, 13246.113150848527, 7166.952749127478, -16744.675248226555, -23849.378389046004, -14970.997270464573, -30389.25294747984, -27916.702975833774, -19951.390618251637, -21370.838149885913, -18736.863879783617, -23712.6974717018, -38410.243500500146, -0.013375, 0.9841249999999999, 0.05925, 192.0, 0.0, 0.0, 0.0, 0.0, 0.0, 0.0, 0.0, 0.0, 0.0, 1.74352859684855E9, 0.0, 2025-04-01 12:29:56.848
96.0, -48234.19281651889, -43093.313943542715, -1524.2995648741205, -48834.963003988625, 13208.919848074896, 7169.791420673302, -16728.403178263092, -23847.165566344927, -14977.144000189783, -30395.91376732752, -27921.754470080672, -19959.683115444557, -21387.780772183036, -18744.776397320795, -23723.40395729589, -38406.063724287, -0.0116875, 0.9830625, 0.056624999999999995, 192.0, 127.5, 88.0, 15.0, 88.0, 0.5, 88.0, 0.0, 0.0, 0.0, 1.74352859684873E9, 0.0, 2025-04-01 12:29:56.848
98.0, -48252.54359871669, -43110.45773153994, -1542.0021464827237, -48849.3798791623, 13236.90423213294, 7156.827408889224, -16759.4050478226, -23859.190804861882, -14985.883532271808, -30397.67955513949, -27932.930342308326, -19956.28565028735, -21411.697138750213, -18745.491653143366, -23723.627474740446, -38402.889776574346, -0.0116875, 0.9830625, 0.056624999999999995, 192.0, 0.0, 0.0, 0.0, 0.0, 0.0, 0.0, 0.0, 0.0, 0.0, 1.743528596848936E9, 0.0, 2025-04-01 12:29:56.848
100.0, -48231.5329589287, -43099.17010059, -1520.6562305279053, -48834.38185863279, 13220.006313324728, 7168.897350895089, -16746.306925571793, -23847.702008211854, -14979.736802546598, -30388.001249790344, -27921.553304380574, -19951.748246162922, -21383.33277503643, -18746.832757810684, -23723.560419507077, -38404.52145391959, -0.0116875, 0.9830625, 0.056624999999999995, 192.0, 0.0, 0.0, 0.0, 0.0, 0.0, 0.0, 0.0, 0.0, 0.0, 1.743528596849118E9, 0.0, 2025-04-01 12:29:56.849
102.0, -48243.535845701204, -43107.440246038466, -1536.1236376909778, -48846.854132038854, 13251.343459051068, 7167.623301461137, -16757.482797799446, -23848.216098334327, -14983.424840381724, -30389.096485268652, -27925.777784082627, -19960.420723011583, -21401.14711536731, -18752.71126660243, -23725.08033813004, -38405.683744631264, -0.0116875, 0.9830625, 0.056624999999999995, 192.0, 0.0, 0.0, 0.0, 0.0, 0.0, 0.0, 0.0, 0.0, 0.0, 1.743528596849314E9, 0.0, 2025-04-01 12:29:56.849
104.0, -48234.25987175225, -43099.5724319902, -1524.6795445298608, -48832.57136733191, 13213.881935343974, 7176.653406221081, -16742.26125982538, -23851.747673958263, -14983.938930504195, -30403.06632555322, -27923.18498172581, -19961.292441045338, -21400.409507800283, -18756.265193970823, -23721.302893317094, -38403.60503239692, -0.0116875, 0.9830625, 0.056624999999999995, 192.0, 0.0, 0.0, 0.0, 0.0, 0.0, 0.0, 0.0, 0.0, 0.0, 1.743528596849504E9, 0.0, 2025-04-01 12:29:56.849
106.0, -48238.4843514543, -43103.64044948107, -1529.7533905212154, -48839.2768906685, 13256.394953297968, 7165.566940971249, -16751.492530285424, -23866.96921193233, -14979.5356368465, -30396.62902315009, -27921.039214258104, -19953.871661886176, -21400.208342100184, -18751.70543810194, -23716.296102559103, -38410.04233480005, -0.00784375, 0.98353125, 0.0563125, 192.0, 127.5, 112.0, 15.0, 96.0, 0.5, 96.0, 0.0, 0.0, 0.0, 1.743528596849692E9, 0.0, 2025-04-01 12:29:56.849
108.0, -48235.06453455264, -43100.60061223515, -1526.8253119975702, -48839.299242412955, 13200.292074715147, 7160.314281024252, -16752.36424831918, -23846.673827966908, -14984.698889815676, -30398.30540398424, -27926.269522460643, -19960.688943945046, -21406.220961358664, -18749.09028400067, -23724.25332358519, -38407.427180698774, -0.00784375, 0.98353125, 0.0563125, 192.0, 0.0, 0.0, 0.0, 0.0, 0.0, 0.0, 0.0, 0.0, 0.0, 1.743528596907807E9, 0.0, 2025-04-01 12:29:56.907
110.0, -48235.913900841944, -43102.03112388028, -1529.865149243492, -48841.64617558076, 13254.629165485998, 7166.08103109372, -16749.07854188425, -23840.035359863683, -14983.581302592911, -30394.21503474892, -27927.320054450043, -19959.012563110897, -21393.39106004132, -18756.62282188211, -23724.78976545212, -38406.44370394274, -0.00784375, 0.98353125, 0.0563125, 192.0, 0.0, 0.0, 0.0, 0.0, 0.0, 0.0, 0.0, 0.0, 0.0, 1.743528596908028E9, 0.0, 2025-04-01 12:29:56.908
112.0, -48212.95865928634, -43075.03021657827, -1505.0323611536458, -48827.87750099629, 13220.252182513737, 7173.971196886444, -16727.464404995968, -23838.046054607163, -14972.204264665159, -30394.7738283603, -27915.51833337764, -19954.94454562003, -21389.0995251059, -18736.52860361679, -23718.21835258226, -38400.43108468426, -0.00784375, 0.98353125, 0.0563125, 192.0, 0.0, 0.0, 0.0, 0.0, 0.0, 0.0, 0.0, 0.0, 0.0, 1.743528596908221E9, 0.0, 2025-04-01 12:29:56.908
114.0, -48219.842996578576, -43086.04962659474, -1510.4191315673747, -48840.30507091345, 13261.781723711698, 7171.043118362799, -16735.443977766514, -23849.154871601448, -14956.803912735453, -30380.334601442173, -27896.42994361281, -19940.348856490717, -21369.206472540674, -18727.342036645656, -23701.49924772969, -38393.77026483658, -0.00784375, 0.98353125, 0.0563125, 192.0, 0.0, 0.0, 0.0, 0.0, 0.0, 0.0, 0.0, 0.0, 0.0, 1.743528596908411E9, 0.0, 2025-04-01 12:29:56.908
116.0, -48225.721505370326, -43102.23228958038, -1517.2140618817882, -48839.63451857978, 13200.828516582074, 7167.668004950047, -16724.69278868351, -23832.078138837594, -14976.093468200383, -30395.354973716137, -27914.356042665964, -19959.996039866932, -21375.33085052143, -18761.897833573563, -23719.291236316116, -38408.50006443263, -0.006921875, 0.986765625, 0.056156250000000005, 192.0, 127.5, 104.0, 15.0, 120.0, 0.5, 96.0, 0.0, 0.0, 0.0, 1.743528596908597E9, 0.0, 2025-04-01 12:29:56.908
118.0, -48226.79438910418, -43087.591896962156, -1519.1363119049445, -48844.57425410441, 13262.631090001, 7175.513467253861, -16718.344893258203, -23827.697196924353, -14973.29950014347, -30395.131456271585, -27910.80211529757, -19951.412969996094, -21358.522338691037, -18748.84441481166, -23711.35636703448, -38398.2629654721, -0.006921875, 0.986765625, 0.056156250000000005, 192.0, 0.0, 0.0, 0.0, 0.0, 0.0, 0.0, 0.0, 0.0, 0.0, 1.743528596908801E9, 0.0, 2025-04-01 12:29:56.908
120.0, -48209.49413889577, -43087.457786495426, -1513.3919135799306, -48831.87846325379, 13224.99075233826, 7174.507638753372, -16695.769631358344, -23828.501859724744, -14970.259662897548, -30395.220863249408, -27913.10434497647, -19949.62483043967, -21336.66233261375, -18741.535394374776, -23710.97638737874, -38397.45830267171, -0.006921875, 0.986765625, 0.056156250000000005, 192.0, 0.0, 0.0, 0.0, 0.0, 0.0, 0.0, 0.0, 0.0, 0.0, 1.74352859690898E9, 0.0, 2025-04-01 12:29:56.908
122.0, -48210.63407786299, -43070.78338513176, -1520.1421404054333, -48837.28758541198, 13278.34436635308, 7186.42111854805, -16688.751183599376, -23818.711795653322, -14958.592052291877, -30384.179101488484, -27905.46004837275, -19938.89599310112, -21334.60597212386, -18719.317760386202, -23695.665442426856, -38379.01811349608, -0.006921875, 0.986765625, 0.056156250000000005, 192.0, 0.0, 0.0, 0.0, 0.0, 0.0, 0.0, 0.0, 0.0, 0.0, 1.743528596968154E9, 0.0, 2025-04-01 12:29:56.968
124.0, -48211.997534274764, -43077.62301893509, -1526.9370707198466, -48844.753068060054, 13224.364903493513, 7169.366737528651, -16681.73273584041, -23834.24625804976, -14965.543444817478, -30388.24711897935, -27915.697147333285, -19946.719103660478, -21338.383416936806, -18740.70837982993, -23703.30973903057, -38392.540918891544, -0.006921875, 0.986765625, 0.056156250000000005, 192.0, 0.0, 0.0, 0.0, 0.0, 0.0, 0.0, 0.0, 0.0, 0.0, 1.743528596968393E9, 0.0, 2025-04-01 12:29:56.968
126.0, -48234.0363543077, -43093.15748133153, -1540.6610418154053, -48866.65777762625, 13246.202557826347, 7167.802115416779, -16702.899837839585, -23841.95760988684, -14980.005023480062, -30410.710622156934, -27929.219952728745, -19964.980478880465, -21340.707998360158, -18749.157339234036, -23714.105631602484, -38400.31932596199, -0.0054609375000000005, 0.9883828125, 0.056078125000000006, 192.0, 127.5, 112.0, 15.0, 120.0, 0.5, 96.0, 0.0, 0.0, 0.0, 1.743528596968586E9, 0.0, 2025-04-01 12:29:56.968
128.0, -48216.80315933265, -43084.84263239415, -1525.1042276745115, -48854.4313734092, 13212.116147532004, 7169.143220084098, -16689.332328955214, -23836.14615632846, -14992.007910252561, -30412.476409968906, -27938.16065051087, -19972.200092339528, -21322.133698717797, -18755.684048614985, -23717.011358381675, -38408.969451066194, -0.0054609375000000005, 0.9883828125, 0.056078125000000006, 192.0, 0.0, 0.0, 0.0, 0.0, 0.0, 0.0, 0.0, 0.0, 0.0, 1.743528596968782E9, 0.0, 2025-04-01 12:29:56.968
130.0, -48223.620441391526, -43081.713388170414, -1526.087704430545, -48859.72873684511, 13247.700124704854, 7183.113060368665, -16674.714288081443, -23811.04514730515, -14969.790276263986, -30393.00804054833, -27916.032423500114, -19950.943583362532, -21307.538009588483, -18731.097129714148, -23691.038631324605, -38383.667276342785, -0.0054609375000000005, 0.9883828125, 0.056078125000000006, 192.0, 0.0, 0.0, 0.0, 0.0, 0.0, 0.0, 0.0, 0.0, 0.0, 1.743528596968969E9, 0.0, 2025-04-01 12:29:56.968
132.0, -48218.725409355815, -43083.27801028228, -1528.8146172540926, -48861.56157989044, 13214.865412100007, 7172.428926519028, -16685.01844227534, -23809.927560082386, -14996.612369610355, -30411.895264613067, -27946.00611281468, -19974.390563296147, -21333.644847112282, -18755.147606748058, -23716.005529881186, -38408.768285366095, -0.0054609375000000005, 0.9883828125, 0.056078125000000006, 192.0, 0.0, 0.0, 0.0, 0.0, 0.0, 0.0, 0.0, 0.0, 0.0, 1.743528596969153E9, 0.0, 2025-04-01 12:29:56.969
134.0, -48212.31045869714, -43072.45976596591, -1526.8253119975702, -48861.315710701434, 13250.918775906417, 7183.358929557673, -16676.457724148957, -23823.4727172223, -14966.571625062423, -30384.626136377592, -27915.026594999625, -19947.166138549583, -21289.9248349577, -18721.88821099856, -23696.470105227247, -38384.82956705446, -0.0054609375000000005, 0.9883828125, 0.056078125000000006, 192.0, 0.0, 0.0, 0.0, 0.0, 0.0, 0.0, 0.0, 0.0, 0.0, 1.743528596969332E9, 0.0, 2025-04-01 12:29:56.969
136.0, -48214.16565348693, -43053.79605934573, -1522.7125910177936, -48860.265178712034, 13217.70408364583, 7174.239417819908, -16690.82989583372, -23823.58447594458, -14984.765945049043, -30402.64164240857, -27936.05958653207, -19969.406124282614, -21316.523410859518, -18723.69870229944, -23714.060928113573, -38406.242538242645, -0.00473046875, 0.98419140625, 0.054039062500000005, 192.0, 127.5, 112.0, 15.0, 80.0, 0.5, 80.0, 0.0, 0.0, 0.0, 1.743528596969518E9, 0.0, 2025-04-01 12:29:56.969
138.0, -48191.36687414251, -43070.04577756474, -1499.2432593397211, -48835.85707376684, 13242.33570603558, 7200.078034410243, -16663.20313968696, -23791.91205405141, -14961.274261626515, -30386.861310823122, -27912.27733043162, -19948.976629850466, -21281.006488920033, -18716.389681862554, -23695.956015104774, -38375.978276250156, -0.00473046875, 0.98419140625, 0.054039062500000005, 192.0, 0.0, 0.0, 0.0, 0.0, 0.0, 0.0, 0.0, 0.0, 0.0, 1.743528597028459E9, 0.0, 2025-04-01 12:29:57.028
140.0, -48225.90031932596, -43077.98064684637, -1519.8068642386038, -48855.41485016523, 13233.462063486822, 7183.895371424601, -16688.035927776808, -23815.671958407398, -14976.115819944838, -30377.562985129713, -27923.1402782369, -19945.80268213781, -21290.17070414671, -18714.869763239596, -23696.648919182888, -38384.091959487436, -0.00473046875, 0.98419140625, 0.054039062500000005, 192.0, 0.0, 0.0, 0.0, 0.0, 0.0, 0.0, 0.0, 0.0, 0.0, 1.743528597028709E9, 0.0, 2025-04-01 12:29:57.028
142.0, -48234.371630474525, -43085.73670217237, -1527.6523265424164, -48864.86963806983, 13206.170583506893, 7169.679661951025, -16697.714233125953, -23831.58640045958, -14984.385965393301, -30393.991517304366, -27932.416252185852, -19958.14084507714, -21308.588541577883, -18737.51208037282, -23708.852971655488, -38393.814968325496, -0.00473046875, 0.98419140625, 0.054039062500000005, 192.0, 0.0, 0.0, 0.0, 0.0, 0.0, 0.0, 0.0, 0.0, 0.0, 1.743528597028899E9, 0.0, 2025-04-01 12:29:57.028
144.0, -48221.1841012459, -43071.632751421064, -1509.0780269000563, -48849.446934395666, 13231.562165208123, 7171.445449762995, -16678.603491616668, -23838.09075809607, -14988.319872417436, -30391.622232392103, -27935.00905454267, -19964.46638875799, -21301.592445563372, -18748.397379922557, -23709.389413522415, -38404.74497136414, -0.00473046875, 0.98419140625, 0.054039062500000005, 192.0, 0.0, 0.0, 0.0, 0.0, 0.0, 0.0, 0.0, 0.0, 0.0, 1.74352859702908E9, 0.0, 2025-04-01 12:29:57.029
146.0, -48210.812891818634, -43062.96027457241, -1506.731093732249, -48841.91439651423, 13208.89749633044, 7190.310322083274, -16684.750221341877, -23823.204496288836, -14980.899093258275, -30384.939060799967, -27926.828316072028, -19954.229289797462, -21306.576884576905, -18726.157394189526, -23705.99194836521, -38390.7080758462, -0.003365234375, 0.9820957031249999, 0.05501953125, 192.0, 127.5, 120.0, 15.0, 80.0, 0.5, 96.0, 0.0, 0.0, 0.0, 1.74352859702928E9, 0.0, 2025-04-01 12:29:57.029
148.0, -48218.34542970007, -43057.595855903135, -1512.6319542684503, -48844.127219215305, 13231.673923930399, 7192.500793039893, -16685.73369809791, -23811.447478705344, -14976.004061222562, -30376.73597058487, -27923.38614742591, -19951.815301396287, -21289.12017215731, -18717.99900746334, -23699.509942473167, -38383.19788970923, -0.003365234375, 0.9820957031249999, 0.05501953125, 192.0, 0.0, 0.0, 0.0, 0.0, 0.0, 0.0, 0.0, 0.0, 0.0, 1.743528597029481E9, 0.0, 2025-04-01 12:29:57.029
150.0, -48203.68268533739, -43032.003108501805, -1494.9293726598469, -48822.33426837138, 13202.236676482758, 7203.944886201011, -16667.897006022573, -23797.99172854325, -14978.932139746206, -30376.82537756269, -27923.028519514624, -19951.23415604045, -21296.272730383007, -18715.473260339888, -23705.723727431745, -38375.66535182778, -0.003365234375, 0.9820957031249999, 0.05501953125, 192.0, 0.0, 0.0, 0.0, 0.0, 0.0, 0.0, 0.0, 0.0, 0.0, 1.743528597029661E9, 0.0, 2025-04-01 12:29:57.029
152.0, -48212.46692090832, -43059.071071037186, -1506.3958175654195, -48841.31089941393, 13253.936261407884, 7189.5503627717935, -16680.168113728538, -23822.556295699633, -14958.457941825145, -30353.445452862437, -27907.47170537373, -19932.861022098186, -21280.69356449766, -18690.03697514975, -23685.942433588796, -38368.49044185763, -0.003365234375, 0.9820957031249999, 0.05501953125, 192.0, 0.0, 0.0, 0.0, 0.0, 0.0, 0.0, 0.0, 0.0, 0.0, 1.743528597088017E9, 0.0, 2025-04-01 12:29:57.088
154.0, -48202.90037428145, -43052.90198956752, -1493.7223784592604, -48825.7764370175, 13202.70606311632, 7199.005150676388, -16669.90866302355, -23802.55148441213, -14973.120686187827, -30373.405560661027, -27920.212199713256, -19947.121435060675, -21287.466143067617, -18721.418824365, -23708.294178044103, -38390.77513107957, -0.003365234375, 0.9820957031249999, 0.05501953125, 192.0, 0.0, 0.0, 0.0, 0.0, 0.0, 0.0, 0.0, 0.0, 0.0, 1.743528597088253E9, 0.0, 2025-04-01 12:29:57.088
156.0, -48210.119987740516, -43050.57740814417, -1494.4823377707407, -48830.58206207539, 13274.633976773499, 7201.486194310927, -16683.63263411911, -23789.252196461224, -14965.431686095202, -30349.086862693654, -27911.271501931133, -19927.8542313402, -21282.235834865074, -18703.93976020095, -23687.842331867498, -38368.53514534654, -0.0026826171875, 0.9820478515625, 0.055509765625, 192.0, 127.5, 120.0, 15.0, 88.0, 0.5, 96.0, 0.0, 0.0, 0.0, 1.743528597088439E9, 0.0, 2025-04-01 12:29:57.088
158.0, -48218.993630289275, -43067.14005078555, -1497.4327680388415, -48837.488751112076, 13205.27651372868, 7185.884676681123, -16687.119506254137, -23809.033490304173, -14977.613386823343, -30370.857461793123, -27924.213161970754, -19942.42756872506, -21291.668271025213, -18699.75998398781, -23702.54977971909, -38384.49429088763, -0.0026826171875, 0.9820478515625, 0.055509765625, 192.0, 0.0, 0.0, 0.0, 0.0, 0.0, 0.0, 0.0, 0.0, 0.0, 1.74352859708864E9, 0.0, 2025-04-01 12:29:57.088
160.0, -48200.754606813745, -43052.23143723386, -1482.6806166983388, -48827.11754168481, 13258.026630643206, 7193.439566307016, -16680.19046547299, -23810.486353693766, -14964.045877938972, -30358.094615709142, -27910.04215598609, -19934.24683025442, -21274.41272430572, -18709.684158525964, -23686.00948882216, -38373.16195644879, -0.0026826171875, 0.9820478515625, 0.055509765625, 192.0, 0.0, 0.0, 0.0, 0.0, 0.0, 0.0, 0.0, 0.0, 0.0, 1.743528597088826E9, 0.0, 2025-04-01 12:29:57.088
162.0, -48206.700170838856, -43050.912684311, -1486.3686545334645, -48829.598585319356, 13210.976208564784, 7184.029481891333, -16689.801715588776, -23821.349301499045, -14970.77375302002, -30367.459996635916, -27913.931359521313, -19943.008714080897, -21281.766448231512, -18718.22252490789, -23695.97836684923, -38385.768340321585, -0.0026826171875, 0.9820478515625, 0.055509765625, 192.0, 0.0, 0.0, 0.0, 0.0, 0.0, 0.0, 0.0, 0.0, 0.0, 1.743528597089022E9, 0.0, 2025-04-01 12:29:57.089
164.0, -48216.60199363256, -43053.23726573435, -1500.0032186512017, -48845.5800826049, 13252.304584062647, 7181.6825487235255, -16694.83085809122, -23826.87018237951, -14963.308270371946, -30365.783615801767, -27912.076164731523, -19942.941658847532, -21282.682869754182, -18709.930027714974, -23690.189265035304, -38389.59048862344, -0.0026826171875, 0.9820478515625, 0.055509765625, 192.0, 0.0, 0.0, 0.0, 0.0, 0.0, 0.0, 0.0, 0.0, 0.0, 1.743528597089199E9, 0.0, 2025-04-01 12:29:57.089
166.0, -48207.594240617065, -43046.86701856459, -1498.5950587505174, -48841.04267848047, 13196.268760713192, 7176.832220176723, -16692.30511096777, -23827.585438202077, -14976.518151345033, -30377.227708962884, -27926.135411993913, -19955.302173531316, -21280.49239879756, -18717.17199291849, -23704.628491953434, -38398.352372449925, -0.00534130859375, 0.98302392578125, 0.0527548828125, 192.0, 127.5, 96.0, 15.0, 96.0, 0.5, 72.0, 0.0, 0.0, 0.0, 1.743528597089379E9, 0.0, 2025-04-01 12:29:57.089
168.0, -48205.984915016285, -43051.292663966735, -1491.4872040137298, -48839.09807671286, 13239.675848445399, 7190.220915105452, -16689.511142910855, -23823.09273756656, -14965.498741328567, -30362.20733668892, -27913.14904846538, -19943.05341756981, -21285.812113977925, -18699.022376420784, -23693.58673019251, -38390.14928223482, -0.00534130859375, 0.98302392578125, 0.0527548828125, 192.0, 0.0, 0.0, 0.0, 0.0, 0.0, 0.0, 0.0, 0.0, 0.0, 1.743528597147749E9, 0.0, 2025-04-01 12:29:57.147
170.0, -48198.854708535044, -43072.43741422146, -1486.8156894225706, -48836.169998189216, 13202.28137997167, 7193.528973284838, -16663.40430538706, -23804.496086179744, -14970.885511742295, -30374.456092650427, -27915.250112444177, -19948.060208327795, -21287.019108178512, -18703.090393911647, -23697.654747683377, -38394.19494798123, -0.00534130859375, 0.98302392578125, 0.0527548828125, 192.0, 0.0, 0.0, 0.0, 0.0, 0.0, 0.0, 0.0, 0.0, 0.0, 1.743528597148001E9, 0.0, 2025-04-01 12:29:57.148
172.0, -48213.94213604237, -43060.85921059361, -1501.3219715740647, -48846.96589076113, 13250.941127650873, 7191.271447094852, -16694.316767968747, -23815.739013640763, -14965.565796561934, -30364.889546023554, -27909.349251907977, -19940.639429168634, -21271.01525914851, -18716.54614407374, -23686.16595103335, -38383.44375889823, -0.00534130859375, 0.98302392578125, 0.0527548828125, 192.0, 0.0, 0.0, 0.0, 0.0, 0.0, 0.0, 0.0, 0.0, 0.0, 1.743528597148171E9, 0.0, 2025-04-01 12:29:57.148
174.0, -48198.787653301675, -43066.693015896446, -1489.2743813126542, -48832.81723652092, 13221.23565926977, 7182.5095632683715, -16675.72011658193, -23832.033435348683, -14975.10999144435, -30372.712656582913, -27922.849705558983, -19947.56846994978, -21291.64591928076, -18726.269152911802, -23699.59934945099, -38399.604070139416, -0.00534130859375, 0.98302392578125, 0.0527548828125, 192.0, 0.0, 0.0, 0.0, 0.0, 0.0, 0.0, 0.0, 0.0, 0.0, 1.743528597148367E9, 0.0, 2025-04-01 12:29:57.148
176.0, -48207.527185383704, -43054.22074249038, -1498.8856314284362, -48838.33811740138, 13259.591252755077, 7198.200487875997, -16671.76385781334, -23802.037394289662, -14967.510398329545, -30367.34823791364, -27911.85264728697, -19938.56071693429, -21274.993869661557, -18705.951417201926, -23686.367116733447, -38380.82860479696, -0.007670654296875, 0.981511962890625, 0.04837744140625, 192.0, 127.5, 88.0, 15.0, 80.0, 0.5, 48.0, 0.0, 0.0, 0.0, 1.743528597148555E9, 0.0, 2025-04-01 12:29:57.148
178.0, -48220.49119716778, -43072.01273107681, -1502.5289657746514, -48844.59660584886, 13217.61467666801, 7189.32684532724, -16688.482962665912, -23816.09664155205, -14982.240197925592, -30378.904089797034, -27925.82248757154, -19956.57622296527, -21291.8247332364, -18692.406260062013, -23695.419573237847, -38387.06474149999, -0.007670654296875, 0.981511962890625, 0.04837744140625, 192.0, 0.0, 0.0, 0.0, 0.0, 0.0, 0.0, 0.0, 0.0, 0.0, 1.74352859714875E9, 0.0, 2025-04-01 12:29:57.148
180.0, -48237.16559853144, -43076.416024734506, -1519.1810153938552, -48862.790925835485, 13220.14042379146, 7171.914836396556, -16710.00769257637, -23839.409511018934, -14985.637663082798, -30383.665011366014, -27927.52122015014, -19960.688943945046, -21300.27369264051, -18742.317705430713, -23705.92489313184, -38395.200776481724, -0.007670654296875, 0.981511962890625, 0.04837744140625, 192.0, 0.0, 0.0, 0.0, 0.0, 0.0, 0.0, 0.0, 0.0, 0.0, 1.743528597148937E9, 0.0, 2025-04-01 12:29:57.148
182.0, -48221.653487879455, -43097.2702023113, -1498.416244794875, -48853.5820071199, 13209.389234708457, 7175.982853887422, -16697.624826148134, -23828.770080658207, -14998.422860911234, -30392.44924693695, -27937.62420864394, -19974.72583946298, -21317.59629459337, -18737.80265305074, -23714.507963002678, -38407.04720104304, -0.007670654296875, 0.981511962890625, 0.04837744140625, 192.0, 0.0, 0.0, 0.0, 0.0, 0.0, 0.0, 0.0, 0.0, 0.0, 1.743528597208042E9, 0.0, 2025-04-01 12:29:57.208
184.0, -48212.712790097336, -43073.33148399967, -1497.2986575721095, -48849.40223090676, 13218.66520865741, 7173.054775363777, -16698.585951159712, -23835.05092085015, -14977.121648445327, -30379.418179919503, -27916.3900514114, -19956.956202621008, -21281.319413342408, -18736.126272216592, -23701.87922738543, -38396.966564293696, -0.007670654296875, 0.981511962890625, 0.04837744140625, 192.0, 0.0, 0.0, 0.0, 0.0, 0.0, 0.0, 0.0, 0.0, 0.0, 1.743528597208277E9, 0.0, 2025-04-01 12:29:57.208
186.0, -48213.182176730894, -43052.00791978931, -1495.734035460238, -48841.64617558076, 13230.019894840705, 7175.17819108703, -16699.144744771093, -23818.980016586785, -14977.278110656514, -30374.657258350526, -27919.362833423955, -19953.46933048598, -21289.50015181305, -18731.879440770084, -23701.387489007415, -38404.67791613077, -0.0098353271484375, 0.9827559814453125, 0.048188720703125, 192.0, 127.5, 80.0, 15.0, 96.0, 0.5, 64.0, 0.0, 0.0, 0.0, 1.743528597208452E9, 0.0, 2025-04-01 12:29:57.208
188.0, -48208.53301388419, -43068.43645196396, -1491.3530935469978, -48835.85707376684, 13225.348380249547, 7188.455127293483, -16683.766744585842, -23808.47469669279, -14972.003098965062, -30374.612554861615, -27911.986757753704, -19949.960106606497, -21285.63330002228, -18701.6151787776, -23695.821904638044, -38390.28339270155, -0.0098353271484375, 0.9827559814453125, 0.048188720703125, 192.0, 0.0, 0.0, 0.0, 0.0, 0.0, 0.0, 0.0, 0.0, 0.0, 1.743528597208655E9, 0.0, 2025-04-01 12:29:57.208
190.0, -48218.501891911255, -43080.171117802995, -1500.0479221401122, -48847.79290530597, 13226.309505261124, 7171.08782185171, -16697.513067425858, -23841.018836619718, -14979.692099057687, -30377.071246751697, -27920.033385757615, -19954.922193875576, -21294.998680949055, -18735.142795460557, -23696.87243662744, -38399.469959672686, -0.0098353271484375, 0.9827559814453125, 0.048188720703125, 192.0, 0.0, 0.0, 0.0, 0.0, 0.0, 0.0, 0.0, 0.0, 0.0, 1.743528597208856E9, 0.0, 2025-04-01 12:29:57.208
192.0, -48211.43874066338, -43071.029254320776, -1495.9128494158804, -48841.35560290285, 13209.389234708457, 7192.500793039893, -16690.718137111442, -23809.033490304173, -14975.378212377813, -30375.551328128735, -27917.775859567628, -19948.350781005716, -21278.525445285493, -18729.51015585782, -23698.325300017037, -38392.74208459164, -0.0098353271484375, 0.9827559814453125, 0.048188720703125, 192.0, 0.0, 0.0, 0.0, 0.0, 0.0, 0.0, 0.0, 0.0, 0.0, 1.743528597209043E9, 0.0, 2025-04-01 12:29:57.209
194.0, -48218.94892680037, -43073.175021788484, -1503.4900907862295, -48856.510085643546, 13223.493185459756, 7177.681586466025, -16698.988282559905, -23822.71275791082, -14979.178008935216, -30380.289897953262, -27923.319092192545, -19956.84444389873, -21292.092954169864, -18720.23418190887, -23698.459410483767, -38394.88785205935, -0.0098353271484375, 0.9827559814453125, 0.048188720703125, 192.0, 0.0, 0.0, 0.0, 0.0, 0.0, 0.0, 0.0, 0.0, 0.0, 1.743528597209223E9, 0.0, 2025-04-01 12:29:57.209
196.0, -48211.25992670774, -43062.80381236122, -1501.053750640601, -48853.3808414198, 13191.820763566586, 7174.060603864265, -16698.630654648623, -23837.800185418153, -14981.122610702827, -30390.7728661028, -27924.3919759264, -19963.482912001957, -21291.869436725312, -18735.679237327487, -23711.26696005666, -38404.23088124167, -0.01291766357421875, 0.9823779907226562, 0.049094360351562505, 192.0, 127.5, 64.0, 15.0, 88.0, 0.5, 72.0, 0.0, 0.0, 0.0, 1.743528597209415E9, 0.0, 2025-04-01 12:29:57.209
198.0, -48229.65541239446, -43084.95439111643, -1508.183957121844, -48857.560617632946, 13231.80803439713, 7176.832220176723, -16701.60343666118, -23834.514478983223, -14977.926311245717, -30381.25102296484, -27926.068356760545, -19957.135016576653, -21301.346576374362, -18724.458661610923, -23703.175628563837, -38402.55450040752, -0.01291766357421875, 0.9823779907226562, 0.049094360351562505, 192.0, 0.0, 0.0, 0.0, 0.0, 0.0, 0.0, 0.0, 0.0, 0.0, 1.743528597268348E9, 0.0, 2025-04-01 12:29:57.268
200.0, -48213.897432553465, -43085.96021961692, -1495.1975935933106, -48842.29437616997, 13201.119089259993, 7188.075147637743, -16685.44312541999, -23812.319196739103, -14983.044860725984, -30389.208243990928, -27925.397804426888, -19962.00769686791, -21289.298986112954, -18731.030074480783, -23702.92975937483, -38392.85384331392, -0.01291766357421875, 0.9823779907226562, 0.049094360351562505, 192.0, 0.0, 0.0, 0.0, 0.0, 0.0, 0.0, 0.0, 0.0, 0.0, 1.743528597268573E9, 0.0, 2025-04-01 12:29:57.268
202.0, -48224.313345469636, -43070.76103338731, -1501.6125442519838, -48851.50329488555, 13229.639915184966, 7181.727252212436, -16693.02036679034, -23825.976112601296, -14978.708622301654, -30376.221880462395, -27922.13444973641, -19954.028124097364, -21295.13279141579, -18720.725920286885, -23691.843294125, -38388.20468046721, -0.01291766357421875, 0.9823779907226562, 0.049094360351562505, 192.0, 0.0, 0.0, 0.0, 0.0, 0.0, 0.0, 0.0, 0.0, 0.0, 1.743528597268767E9, 0.0, 2025-04-01 12:29:57.268
204.0, -48229.07426703862, -43090.05058885224, -1503.7359599752378, -48851.883274541295, 13175.4592866253, 7175.938150398511, -16699.524724426832, -23821.371653243503, -14993.6395875978, -30390.884624825077, -27934.606723142475, -19962.477083501468, -21299.8266577514, -18732.66175182602, -23707.757736177176, -38399.08998001695, -0.01291766357421875, 0.9823779907226562, 0.049094360351562505, 192.0, 0.0, 0.0, 0.0, 0.0, 0.0, 0.0, 0.0, 0.0, 0.0, 1.743528597268955E9, 0.0, 2025-04-01 12:29:57.268
206.0, -48236.31623224214, -43085.51318472781, -1507.9157361883804, -48860.62280662332, 13226.689484916866, 7177.65923472157, -16701.44697444999, -23827.540734713166, -14997.39468066629, -30390.169369002506, -27935.76901385415, -19965.38281028066, -21296.49624782756, -18730.2701151693, -23703.086221586018, -38399.22409048368, -0.011458831787109375, 0.9821889953613281, 0.049547180175781254, 192.0, 127.5, 88.0, 15.0, 88.0, 0.5, 72.0, 0.0, 0.0, 0.0, 1.74352859726914E9, 0.0, 2025-04-01 12:29:57.269
208.0, -48213.71861859782, -43062.89321933904, -1488.8944016569142, -48837.60050983435, 13187.931560031362, 7190.355025572184, -16672.501465380366, -23806.686557136367, -14990.756212563065, -30393.902110326544, -27928.169420739345, -19966.031010869865, -21304.36406187583, -18734.159318704526, -23701.052212840583, -38388.20468046721, -0.011458831787109375, 0.9821889953613281, 0.049547180175781254, 192.0, 0.0, 0.0, 0.0, 0.0, 0.0, 0.0, 0.0, 0.0, 0.0, 1.743528597269325E9, 0.0, 2025-04-01 12:29:57.269
210.0, -48229.02956354971, -43083.23330679337, -1501.3666750629754, -48860.17577173421, 13254.495055019266, 7180.699071967491, -16693.82502959073, -23828.032473091185, -14985.548256104978, -30386.861310823122, -27920.212199713256, -19965.583975980757, -21281.140599386767, -18720.61416156461, -23684.44486671029, -38385.09778798793, -0.011458831787109375, 0.9821889953613281, 0.049547180175781254, 192.0, 0.0, 0.0, 0.0, 0.0, 0.0, 0.0, 0.0, 0.0, 0.0, 1.743528597269518E9, 0.0, 2025-04-01 12:29:57.269
212.0, -48224.5815664031, -43091.65991445302, -1496.6281052384502, -48854.4313734092, 13185.495219885734, 7181.771955701346, -16695.412003447058, -23828.971246358306, -14998.914599289252, -30400.40646796304, -27931.499830663186, -19978.212711598007, -21307.090974699375, -18738.249687939846, -23699.26407328416, -38400.60989863991, -0.011458831787109375, 0.9821889953613281, 0.049547180175781254, 192.0, 0.0, 0.0, 0.0, 0.0, 0.0, 0.0, 0.0, 0.0, 0.0, 1.743528597328565E9, 0.0, 2025-04-01 12:29:57.328
214.0, -48216.53493839919, -43089.17887081848, -1496.3375325605314, -48851.19037046318, 13218.553449935132, 7184.700034224991, -16676.658889849055, -23809.860504849017, -14989.482163129112, -30382.525072398792, -27919.988682268704, -19960.398371267125, -21296.138619916277, -18732.907621015027, -23695.844256382497, -38385.50011938812, -0.011458831787109375, 0.9821889953613281, 0.049547180175781254, 192.0, 0.0, 0.0, 0.0, 0.0, 0.0, 0.0, 0.0, 0.0, 0.0, 1.743528597328791E9, 0.0, 2025-04-01 12:29:57.328
216.0, -48214.031543020195, -43066.29068449625, -1485.385177777431, -48840.7297540581, 13201.074385771082, 7191.3161505837625, -16688.929997555017, -23810.285187993668, -14987.984596250606, -30390.214072491417, -27914.57956011052, -19958.14084507714, -21293.590521048372, -18729.53250760228, -23689.92104410184, -38385.38836066584, -0.011729415893554689, 0.982094497680664, 0.05077359008789063, 192.0, 127.5, 80.0, 15.0, 88.0, 0.5, 80.0, 0.0, 0.0, 0.0, 1.743528597328968E9, 0.0, 2025-04-01 12:29:57.328
218.0, -48202.96742951482, -43061.641521649544, -1480.8254219085482, -48836.95230924515, 13257.423133542912, 7201.754415244391, -16646.28286913429, -23809.659339148922, -14973.612424565843, -30379.06055200822, -27900.296795403578, -19942.941658847532, -21286.08033491139, -18688.02531814877, -23675.235947994704, -38369.608029080395, -0.011729415893554689, 0.982094497680664, 0.05077359008789063, 192.0, 0.0, 0.0, 0.0, 0.0, 0.0, 0.0, 0.0, 0.0, 0.0, 1.743528597329171E9, 0.0, 2025-04-01 12:29:57.329
220.0, -48207.884813294986, -43073.62205667759, -1481.7194916867604, -48834.0242307215, 13196.313464202103, 7191.047929650299, -16673.30612818076, -23810.17342927139, -14979.423878124224, -30372.10915948262, -27904.923606505825, -19945.08742631524, -21300.83248625189, -18735.47807162739, -23680.376849219425, -38375.352427405414, -0.011729415893554689, 0.982094497680664, 0.05077359008789063, 192.0, 0.0, 0.0, 0.0, 0.0, 0.0, 0.0, 0.0, 0.0, 0.0, 1.743528597329352E9, 0.0, 2025-04-01 12:29:57.329
222.0, -48224.62626989201, -43085.58023996118, -1494.4376342818302, -48856.510085643546, 13245.263784559225, 7181.347272556695, -16713.248695522394, -23837.800185418153, -14982.798991536974, -30381.7204095984, -27907.605815840463, -19954.18458630855, -21278.54779702995, -18730.828908780684, -23677.806398607067, -38378.72754081816, -0.011729415893554689, 0.982094497680664, 0.05077359008789063, 192.0, 0.0, 0.0, 0.0, 0.0, 0.0, 0.0, 0.0, 0.0, 0.0, 1.743528597329544E9, 0.0, 2025-04-01 12:29:57.329
224.0, -48229.208377505354, -43095.32560054369, -1496.1140151159782, -48851.883274541295, 13188.937388531851, 7176.251074820885, -16716.042663579305, -23830.178240558893, -15002.602637124377, -30403.558063931236, -27927.409461427866, -19973.7647144514, -21315.40582363675, -18753.828853825195, -23697.11830581645, -38397.95004104973, -0.011729415893554689, 0.982094497680664, 0.05077359008789063, 192.0, 0.0, 0.0, 0.0, 0.0, 0.0, 0.0, 0.0, 0.0, 0.0, 1.743528597329724E9, 0.0, 2025-04-01 12:29:57.329
226.0, -48213.338638942085, -43064.793117617744, -1479.0149306076682, -48838.606338334845, 13224.99075233826, 7196.322941341751, -16690.87459932263, -23822.779813144185, -14983.290729914992, -30384.40261893304, -27907.89638851838, -19952.128225818662, -21299.536085073483, -18727.744368045853, -23687.4400004673, -38387.66823860029, -0.011864707946777344, 0.984047248840332, 0.05038679504394532, 192.0, 127.5, 80.0, 15.0, 104.0, 0.5, 72.0, 0.0, 0.0, 0.0, 1.743528597329918E9, 0.0, 2025-04-01 12:29:57.329
228.0, -48214.85855756504, -43074.18085028897, -1483.6864451988274, -48841.33325115839, 13200.537943904155, 7188.4998307823935, -16680.548093384277, -23826.311388768125, -14980.496761858078, -30374.746665328345, -27906.75644955116, -19947.277897271862, -21302.419460108216, -18713.84158299465, -23685.07071555504, -38391.06570375749, -0.011864707946777344, 0.984047248840332, 0.05038679504394532, 192.0, 0.0, 0.0, 0.0, 0.0, 0.0, 0.0, 0.0, 0.0, 0.0, 1.743528597388767E9, 0.0, 2025-04-01 12:29:57.388
230.0, -48220.40179018996, -43078.13710905756, -1489.0061603791905, -48850.45276289616, 13221.61563892551, 7184.588275502715, -16709.65006466509, -23838.09075809607, -14981.435535125202, -30382.368610187605, -27906.75644955116, -19949.22249903947, -21310.35432938985, -18731.030074480783, -23691.329204002526, -38384.20371820971, -0.011864707946777344, 0.984047248840332, 0.05038679504394532, 192.0, 0.0, 0.0, 0.0, 0.0, 0.0, 0.0, 0.0, 0.0, 0.0, 1.743528597388995E9, 0.0, 2025-04-01 12:29:57.388
232.0, -48216.49023491028, -43055.003053546316, -1485.5192882441627, -48837.64521332327, 13230.288115774169, 7193.908952940578, -16671.115657224138, -23829.395929502956, -14982.642529325787, -30387.174235245497, -27909.930397263815, -19957.559699721303, -21322.401919651264, -18734.740464060364, -23689.652823168377, -38397.48065441616, -0.011864707946777344, 0.984047248840332, 0.05038679504394532, 192.0, 0.0, 0.0, 0.0, 0.0, 0.0, 0.0, 0.0, 0.0, 0.0, 1.743528597389194E9, 0.0, 2025-04-01 12:29:57.389
234.0, -48206.52135688321, -43070.9174955985, -1480.6913114418164, -48829.598585319356, 13198.079252014071, 7207.9011449696, -16680.369279428636, -23811.514533938713, -14964.96229946164, -30369.404598403526, -27892.76425752214, -19937.800757622812, -21300.988948463077, -18698.32947234267, -23681.36032597546, -38367.082281956944, -0.011864707946777344, 0.984047248840332, 0.05038679504394532, 192.0, 0.0, 0.0, 0.0, 0.0, 0.0, 0.0, 0.0, 0.0, 0.0, 1.743528597389378E9, 0.0, 2025-04-01 12:29:57.389
236.0, -48207.90716503944, -43068.74937638633, -1478.7243579297494, -48825.12823642829, 13226.443615727856, 7199.698054754503, -16692.662738879055, -23801.925635567386, -14970.505532086556, -30364.844842534643, -27901.012051226146, -19935.006789565898, -21296.54095131647, -18725.866821511605, -23682.74613413169, -38373.184308193246, -0.012932353973388672, 0.982023624420166, 0.05019339752197266, 192.0, 127.5, 72.0, 15.0, 80.0, 0.5, 72.0, 0.0, 0.0, 0.0, 1.74352859738957E9, 0.0, 2025-04-01 12:29:57.389
238.0, -48202.565098114625, -43062.89321933904, -1463.3687094889533, -48823.362448616324, 13223.940220348863, 7199.943923943511, -16684.906683553065, -23808.698214137345, -14966.593976806877, -30362.16263320001, -27894.261824400644, -19930.08940578573, -21298.798477506458, -18706.13023115757, -23673.224290993727, -38372.625514581865, -0.012932353973388672, 0.982023624420166, 0.05019339752197266, 192.0, 0.0, 0.0, 0.0, 0.0, 0.0, 0.0, 0.0, 0.0, 0.0, 1.743528597389774E9, 0.0, 2025-04-01 12:29:57.389
240.0, -48211.88577555249, -43065.59778041813, -1476.511535228674, -48831.81140802043, 13235.071389087605, 7187.628112748637, -16696.574294158734, -23828.881839380487, -14966.10223842886, -30368.823453047688, -27894.530045334108, -19936.28083899985, -21299.78195426249, -18720.32358888669, -23672.4866834267, -38376.11238671689, -0.012932353973388672, 0.982023624420166, 0.05019339752197266, 192.0, 0.0, 0.0, 0.0, 0.0, 0.0, 0.0, 0.0, 0.0, 0.0, 1.743528597389961E9, 0.0, 2025-04-01 12:29:57.389
242.0, -48202.94507777037, -43050.57740814417, -1468.7778316471376, -48818.17684390269, 13209.791566108654, 7212.572659560759, -16679.318747439236, -23814.420260717903, -14966.124590173316, -30365.04600823474, -27893.32305113352, -19928.725949373955, -21309.192038678175, -18690.64047225004, -23686.434171966812, -38369.85389826941, -0.012932353973388672, 0.982023624420166, 0.05019339752197266, 192.0, 0.0, 0.0, 0.0, 0.0, 0.0, 0.0, 0.0, 0.0, 0.0, 1.743528597448145E9, 0.0, 2025-04-01 12:29:57.448
244.0, -48210.902298796456, -43056.120640769084, -1487.1062621004894, -48829.308012641435, 13214.597191166544, 7207.14118565812, -16698.36243371516, -23831.608752204032, -14968.33741287439, -30354.7642057853, -27899.76035353665, -19931.721083130968, -21303.581750819892, -18719.02718770828, -23689.92104410184, -38379.062816984995, -0.012932353973388672, 0.982023624420166, 0.05019339752197266, 192.0, 0.0, 0.0, 0.0, 0.0, 0.0, 0.0, 0.0, 0.0, 0.0, 1.743528597448391E9, 0.0, 2025-04-01 12:29:57.448
246.0, -48197.69241782337, -43050.75622209981, -1470.9459508593025, -48813.05829442243, 13208.875144585985, 7223.614421321681, -16669.998070001373, -23812.90034209494, -14962.637718038288, -30348.885696993555, -27896.631109312908, -19920.768728347866, -21302.620625808315, -18703.515077056298, -23689.608119679466, -38368.579848835456, -0.012466176986694336, 0.981011812210083, 0.05109669876098633, 192.0, 127.5, 80.0, 15.0, 80.0, 0.5, 80.0, 0.0, 0.0, 0.0, 1.743528597448585E9, 0.0, 2025-04-01 12:29:57.448
248.0, -48222.97224080232, -43075.16432704501, -1486.5921719780174, -48843.09903897036, 13234.892575131962, 7196.099423897198, -16703.01159656186, -23844.818633177118, -14964.96229946164, -30349.489194093847, -27898.75452503616, -19923.51799291587, -21320.36791090583, -18706.309045113212, -23686.03184056662, -38381.67797108626, -0.012466176986694336, 0.981011812210083, 0.05109669876098633, 192.0, 0.0, 0.0, 0.0, 0.0, 0.0, 0.0, 0.0, 0.0, 0.0, 1.743528597448794E9, 0.0, 2025-04-01 12:29:57.448
250.0, -48217.674877366415, -43060.92626582697, -1482.5688579760622, -48836.9746609896, 13196.08994675755, 7197.552287286793, -16697.78128835932, -23830.51351672572, -14983.022508981529, -30384.11204625512, -27912.456144387263, -19949.46836822848, -21330.336788932895, -18725.509193600323, -23702.84035239701, -38399.00057303913, -0.012466176986694336, 0.981011812210083, 0.05109669876098633, 192.0, 0.0, 0.0, 0.0, 0.0, 0.0, 0.0, 0.0, 0.0, 0.0, 1.743528597448976E9, 0.0, 2025-04-01 12:29:57.448
252.0, -48239.42312472143, -43070.9174955985, -1509.6591722558944, -48859.52757114501, 13221.973266836796, 7188.030444148832, -16701.82695410573, -23843.745749443264, -14978.10512520136, -30362.699075066936, -27910.600949597472, -19943.254583269907, -21342.630248383313, -18715.60737080662, -23704.53908497561, -38401.19104399574, -0.012466176986694336, 0.981011812210083, 0.05109669876098633, 192.0, 0.0, 0.0, 0.0, 0.0, 0.0, 0.0, 0.0, 0.0, 0.0, 1.743528597449152E9, 0.0, 2025-04-01 12:29:57.449
254.0, -48222.59226114658, -43062.982626316865, -1493.8788406704475, -48846.630614594294, 13168.664356310888, 7183.962426657967, -16701.44697444999, -23837.219040062315, -14993.036090497506, -30378.524110141294, -27924.637845115405, -19955.32452527577, -21340.640943126793, -18728.52667910179, -23718.955960149284, -38405.84020684245, -0.012466176986694336, 0.981011812210083, 0.05109669876098633, 192.0, 0.0, 0.0, 0.0, 0.0, 0.0, 0.0, 0.0, 0.0, 0.0, 1.743528597449343E9, 0.0, 2025-04-01 12:29:57.449
0.0, -48220.26767972323, -43069.062300808706, -1491.1519278469, -48844.79777154896, 13236.211328054826, 7184.27535108034, -16699.815297104753, -23826.24433353476, -14972.181912920703, -30356.06060696371, -27907.494057118187, -19933.352760476206, -21326.40288190876, -18723.13990868806, -23701.611006451967, -38391.62449736887, -0.01323308849334717, 0.9805059061050415, 0.05154834938049317, 192.0, 127.5, 72.0, 15.0, 80.0, 0.5, 80.0, 0.0, 0.0, 0.0, 1.743528597449538E9, 0.0, 2025-04-01 12:29:57.449
2.0, -48220.42414193442, -43069.48698395336, -1489.1402708459225, -48837.91343425673, 13179.929635516362, 7185.459993536472, -16689.6899568665, -23835.76617667272, -14986.665843327743, -30366.521223368793, -27917.217065956243, -19941.958182091497, -21341.244440227085, -18737.109748972627, -23719.760622949678, -38403.06859052999, -0.01323308849334717, 0.9805059061050415, 0.05154834938049317, 192.0, 0.0, 0.0, 0.0, 0.0, 0.0, 0.0, 0.0, 0.0, 0.0, 1.743528597508074E9, 0.0, 2025-04-01 12:29:57.508
4.0, -48229.56600541664, -43069.978722331376, -1489.9449336463135, -48848.77638206201, 13235.183147809881, 7168.8302956617235, -16732.046512609304, -23858.54260427268, -14981.793163036486, -30359.68158956547, -27905.750621050673, -19934.112719787685, -21325.866440041835, -18711.718167271396, -23710.618759467456, -38400.520491662086, -0.01323308849334717, 0.9805059061050415, 0.05154834938049317, 192.0, 0.0, 0.0, 0.0, 0.0, 0.0, 0.0, 0.0, 0.0, 0.0, 1.743528597508294E9, 0.0, 2025-04-01 12:29:57.508
6.0, -48219.82064483412, -43055.83006809116, -1485.765157433171, -48828.749219030055, 13192.692481600343, 7195.51827854136, -16703.43627970651, -23845.24331632177, -14981.77081129203, -30369.069322236697, -27905.884731517403, -19941.064112313285, -21341.736178605104, -18721.195306920446, -23714.373852535948, -38395.58075613746, -0.01323308849334717, 0.9805059061050415, 0.05154834938049317, 192.0, 0.0, 0.0, 0.0, 0.0, 0.0, 0.0, 0.0, 0.0, 0.0, 1.743528597508489E9, 0.0, 2025-04-01 12:29:57.508
8.0, -48229.38719146099, -43069.10700429762, -1491.7107214582827, -48842.6296523368, 13244.883804903486, 7196.166479130564, -16701.558733172267, -23844.975095388305, -14981.904921758764, -30361.022694232786, -27907.47170537373, -19939.052455312307, -21335.8353180689, -18718.13311793007, -23707.22129431025, -38387.66823860029, -0.01323308849334717, 0.9805059061050415, 0.05154834938049317, 192.0, 0.0, 0.0, 0.0, 0.0, 0.0, 0.0, 0.0, 0.0, 0.0, 1.743528597508678E9, 0.0, 2025-04-01 12:29:57.508
10.0, -48227.46494143784, -43087.70365568443, -1490.9507621468024, -48837.488751112076, 13202.437842182857, 7189.505659282882, -16689.891122566598, -23857.00033390526, -14991.449116641179, -30372.511490882815, -27917.977025267726, -19946.294420515827, -21359.930498591722, -18718.311931885713, -23715.26792231416, -38401.146340506835, -0.012616544246673585, 0.9812529530525207, 0.05377417469024659, 192.0, 127.5, 80.0, 15.0, 88.0, 0.5, 96.0, 0.0, 0.0, 0.0, 1.74352859750886E9, 0.0, 2025-04-01 12:29:57.508
12.0, -48239.60193867707, -43096.57729823319, -1499.7797012066485, -48852.10679198585, 13245.66611595942, 7182.464859779461, -16704.106832040172, -23859.43667405089, -14993.438421897701, -30375.663086851015, -27922.492077647697, -19953.13405431915, -21348.50875717506, -18735.880403027582, -23708.763564677665, -38404.96848880869, -0.012616544246673585, 0.9812529530525207, 0.05377417469024659, 192.0, 0.0, 0.0, 0.0, 0.0, 0.0, 0.0, 0.0, 0.0, 0.0, 1.743528597509057E9, 0.0, 2025-04-01 12:29:57.509
14.0, -48226.95085131536, -43064.77076587329, -1479.9984073637017, -48832.63842256527, 13199.733281103765, 7186.75639471488, -16699.50237268238, -23834.71564468332, -14992.320834674936, -30372.667953094002, -27919.563999124053, -19950.340086262237, -21364.0432195715, -18726.738539545364, -23710.395242022903, -38397.27948871607, -0.012616544246673585, 0.9812529530525207, 0.05377417469024659, 192.0, 0.0, 0.0, 0.0, 0.0, 0.0, 0.0, 0.0, 0.0, 0.0, 1.743528597509253E9, 0.0, 2025-04-01 12:29:57.509
16.0, -48219.64183087848, -43065.53072518477, -1469.4260322363416, -48832.75018128755, 13231.249240785748, 7200.681531510536, -16703.43627970651, -23825.66318817892, -14976.071116455927, -30354.495984851837, -27898.0839727025, -19931.251696497406, -21332.97429477862, -18711.89698122704, -23694.614910437456, -38377.34173266193, -0.012616544246673585, 0.9812529530525207, 0.05377417469024659, 192.0, 0.0, 0.0, 0.0, 0.0, 0.0, 0.0, 0.0, 0.0, 0.0, 1.743528597568432E9, 0.0, 2025-04-01 12:29:57.568
18.0, -48225.25211873676, -43067.34121648565, -1478.3220265295538, -48836.34881214485, 13205.5670864066, 7189.751528471891, -16688.907645810563, -23838.180165073893, -14980.563817091444, -30367.10236872463, -27901.034402970603, -19942.941658847532, -21345.915954818243, -18720.83767900916, -23701.78982040761, -38389.72459909017, -0.012616544246673585, 0.9812529530525207, 0.05377417469024659, 192.0, 0.0, 0.0, 0.0, 0.0, 0.0, 0.0, 0.0, 0.0, 0.0, 1.743528597568658E9, 0.0, 2025-04-01 12:29:57.568
20.0, -48230.41537170594, -43090.13999583006, -1482.412395764875, -48840.685050569184, 13223.940220348863, 7200.323903599251, -16686.35954694266, -23829.61944694751, -14979.245064168581, -30372.511490882815, -27898.218083169235, -19937.867812856177, -21345.334809462405, -18740.19428970746, -23694.68196567082, -38379.331037918455, -0.013308272123336792, 0.9846264765262603, 0.05588708734512329, 192.0, 127.5, 72.0, 15.0, 112.0, 0.5, 104.0, 0.0, 0.0, 0.0, 1.743528597568867E9, 0.0, 2025-04-01 12:29:57.568
22.0, -48236.51739794224, -43086.317847528204, -1491.3977970359085, -48839.56746334642, 13208.808089352618, 7180.699071967491, -16687.432430676512, -23837.28609529568, -14997.774660322031, -30385.989592789367, -27918.71463283475, -19952.88818513014, -21356.0412950565, -18743.770568820306, -23706.17076232085, -38390.21633746819, -0.013308272123336792, 0.9846264765262603, 0.05588708734512329, 192.0, 0.0, 0.0, 0.0, 0.0, 0.0, 0.0, 0.0, 0.0, 0.0, 1.743528597569068E9, 0.0, 2025-04-01 12:29:57.569
24.0, -48238.014964820744, -43076.594838690144, -1487.8885731564253, -48839.32159415741, 13227.42709248389, 7186.845801692701, -16697.647177892588, -23842.762272687232, -14984.743593304587, -30373.58437461667, -27910.958577508758, -19942.584030936247, -21370.726391163636, -18735.008684993827, -23701.745116918697, -38387.712942089194, -0.013308272123336792, 0.9846264765262603, 0.05588708734512329, 192.0, 0.0, 0.0, 0.0, 0.0, 0.0, 0.0, 0.0, 0.0, 0.0, 1.743528597569241E9, 0.0, 2025-04-01 12:29:57.569
26.0, -48231.80117986217, -43080.171117802995, -1481.5183259866628, -48836.90760575624, 13221.012141825217, 7186.130545870131, -16695.3896517026, -23842.85167966505, -14992.63375909731, -30374.769017072802, -27915.607740355463, -19946.85321412721, -21347.592335652393, -18735.09809197165, -23697.006547094174, -38400.27462247308, -0.013308272123336792, 0.9846264765262603, 0.05588708734512329, 192.0, 0.0, 0.0, 0.0, 0.0, 0.0, 0.0, 0.0, 0.0, 0.0, 1.743528597569428E9, 0.0, 2025-04-01 12:29:57.569
28.0, -48224.42510419191, -43070.939847342954, -1478.4784887407409, -48825.75408527304, 13236.680714688388, 7198.6475227651035, -16687.343023698693, -23831.295827781658, -14982.083735714405, -30367.214127446907, -27903.04605997158, -19934.8056238658, -21340.395073937783, -18715.070928939695, -23690.949224346787, -38383.89079378734, -0.013308272123336792, 0.9846264765262603, 0.05588708734512329, 192.0, 0.0, 0.0, 0.0, 0.0, 0.0, 0.0, 0.0, 0.0, 0.0, 1.74352859756961E9, 0.0, 2025-04-01 12:29:57.569
30.0, -48240.22778752182, -43087.323676028696, -1494.7282069597493, -48839.4780563686, 13226.4212639834, 7185.996435403399, -16704.844439607197, -23847.165566344927, -14991.627930596822, -30373.807892061224, -27915.00424325517, -19946.741455404932, -21359.192891024697, -18730.001894235837, -23697.945320361297, -38392.540918891544, -0.012654136061668396, 0.9843132382631301, 0.058943543672561646, 192.0, 127.5, 80.0, 15.0, 96.0, 0.5, 120.0, 0.0, 0.0, 0.0, 1.743528597569798E9, 0.0, 2025-04-01 12:29:57.569
32.0, -48228.82839784961, -43090.11764408561, -1491.442500524819, -48830.93968998667, 13218.70991214632, 7195.8312029637345, -16691.433392934014, -23858.162624616936, -14988.878666028819, -30385.095523011154, -27913.059641487558, -19950.09421707323, -21366.434856228218, -18717.909600485516, -23706.886018143417, -38384.13666297634, -0.012654136061668396, 0.9843132382631301, 0.058943543672561646, 192.0, 0.0, 0.0, 0.0, 0.0, 0.0, 0.0, 0.0, 0.0, 0.0, 1.74352859762866E9, 0.0, 2025-04-01 12:29:57.628
34.0, -48232.918767084935, -43080.886373625566, -1488.670884212361, -48831.99022197607, 13232.299772775146, 7191.696130239503, -16704.218590762448, -23838.38133077399, -14984.922407260228, -30365.24717393484, -27910.779763553117, -19939.90182160161, -21358.745856135592, -18738.473205384398, -23705.187285564814, -38387.77999732256, -0.012654136061668396, 0.9843132382631301, 0.058943543672561646, 192.0, 0.0, 0.0, 0.0, 0.0, 0.0, 0.0, 0.0, 0.0, 0.0, 1.743528597628871E9, 0.0, 2025-04-01 12:29:57.628
36.0, -48226.70498212636, -43073.80087063323, -1484.8710876549587, -48826.69285854016, 13211.04326379815, 7211.924458971555, -16695.43435519151, -23827.317217268614, -14981.524942103022, -30363.704903567424, -27903.358984393955, -19932.861022098186, -21364.37849573833, -18720.368292375602, -23710.93168388983, -38376.11238671689, -0.012654136061668396, 0.9843132382631301, 0.058943543672561646, 192.0, 0.0, 0.0, 0.0, 0.0, 0.0, 0.0, 0.0, 0.0, 0.0, 1.743528597629076E9, 0.0, 2025-04-01 12:29:57.629
38.0, -48219.66418262293, -43070.448108964934, -1474.6563404388835, -48822.04369569346, 13255.277366075203, 7202.156746644587, -16687.3877271876, -23835.587362717077, -14981.524942103022, -30361.737950055358, -27899.983870981203, -19928.83770809623, -21367.552443450983, -18721.307065642723, -23695.285462771113, -38379.66631408528, -0.012654136061668396, 0.9843132382631301, 0.058943543672561646, 192.0, 0.0, 0.0, 0.0, 0.0, 0.0, 0.0, 0.0, 0.0, 0.0, 1.743528597629251E9, 0.0, 2025-04-01 12:29:57.629
40.0, -48221.29585996817, -43065.6648356515, -1474.9469131168025, -48821.99899220455, 13211.400891709434, 7199.452185565494, -16700.01646280485, -23832.882801637985, -14976.831075767408, -30369.561060614713, -27890.819655754527, -19928.725949373955, -21350.922745576234, -18715.160335917513, -23694.88313137092, -38379.84512804093, -0.014327068030834198, 0.984156619131565, 0.05747177183628083, 192.0, 127.5, 64.0, 15.0, 96.0, 0.5, 96.0, 0.0, 0.0, 0.0, 1.743528597629436E9, 0.0, 2025-04-01 12:29:57.629
42.0, -48239.266662510236, -43085.4684812389, -1495.6446284824167, -48833.75600978804, 13233.797339653653, 7192.143165128608, -16707.25842800837, -23849.177223345905, -14983.827171781919, -30363.257868678316, -27900.85558901496, -19938.739530889932, -21369.541748707503, -18687.466524537387, -23697.341823261002, -38384.44958739872, -0.014327068030834198, 0.984156619131565, 0.05747177183628083, 192.0, 0.0, 0.0, 0.0, 0.0, 0.0, 0.0, 0.0, 0.0, 0.0, 1.743528597629649E9, 0.0, 2025-04-01 12:29:57.629
44.0, -48227.64375539348, -43102.56756574721, -1488.804994679093, -48816.67927702419, 13195.955836290817, 7194.266580851863, -16709.15832628707, -23841.264705808724, -14993.505477131068, -30377.697095596446, -27914.780725810615, -19947.099083316218, -21376.113161577363, -18755.929917803995, -23711.870457156954, -38386.461244399696, -0.014327068030834198, 0.984156619131565, 0.05747177183628083, 192.0, 0.0, 0.0, 0.0, 0.0, 0.0, 0.0, 0.0, 0.0, 0.0, 1.743528597629832E9, 0.0, 2025-04-01 12:29:57.629
46.0, -48240.138380544, -43083.52387947129, -1484.7816806771375, -48823.34009687187, 13252.215177084825, 7202.648485022603, -16695.92609356953, -23825.104394567537, -14988.275168928525, -30370.00809550382, -27908.835161785504, -19939.94652509052, -21369.60880394087, -18713.349844616634, -23693.564378448056, -38371.9549622482, -0.014327068030834198, 0.984156619131565, 0.05747177183628083, 192.0, 0.0, 0.0, 0.0, 0.0, 0.0, 0.0, 0.0, 0.0, 0.0, 1.743528597688929E9, 0.0, 2025-04-01 12:29:57.688
48.0, -48237.36676423154, -43095.03502786577, -1489.3861400349308, -48828.816274263416, 13211.04326379815, 7190.75735697238, -16698.07186103724, -23850.406569290946, -14993.930160275719, -30372.511490882815, -27915.294815933088, -19942.51697570288, -21367.50773996207, -18725.956228489427, -23703.600311708487, -38380.247459441125, -0.014327068030834198, 0.984156619131565, 0.05747177183628083, 192.0, 0.0, 0.0, 0.0, 0.0, 0.0, 0.0, 0.0, 0.0, 0.0, 1.743528597689172E9, 0.0, 2025-04-01 12:29:57.689
50.0, -48238.26083400975, -43077.10892881262, -1490.3025615575984, -48831.78905627597, 13254.405648041446, 7203.587258289726, -16699.50237268238, -23838.180165073893, -14989.772735807031, -30360.016865732297, -27915.317167677542, -19940.259449512894, -21367.977126595633, -18718.937780730463, -23699.889922128907, -38388.53995663404, -0.0161635340154171, 0.9830783095657825, 0.05773588591814041, 192.0, 127.5, 56.0, 15.0, 88.0, 0.5, 104.0, 0.0, 0.0, 0.0, 1.743528597689353E9, 0.0, 2025-04-01 12:29:57.689
52.0, -48241.34537474458, -43085.200260305435, -1497.991561650224, -48841.892044769775, 13203.018987538695, 7193.707787240481, -16713.606323433676, -23840.415339519423, -14989.504514873566, -30368.845804792145, -27916.725327578228, -19949.334257761748, -21367.75360915108, -18715.339149873158, -23696.000718593685, -38380.33686641895, -0.0161635340154171, 0.9830783095657825, 0.05773588591814041, 192.0, 0.0, 0.0, 0.0, 0.0, 0.0, 0.0, 0.0, 0.0, 0.0, 1.743528597689564E9, 0.0, 2025-04-01 12:29:57.689
54.0, -48244.161694545954, -43101.94171690247, -1509.9050414449027, -48844.48484712659, 13239.988772867773, 7184.074185380243, -16710.097099554194, -23854.76515945973, -15004.010797025061, -30395.042049293763, -27934.763185353662, -19971.350726050227, -21386.774943682547, -18743.345885675655, -23713.256265313183, -38399.805235839514, -0.0161635340154171, 0.9830783095657825, 0.05773588591814041, 192.0, 0.0, 0.0, 0.0, 0.0, 0.0, 0.0, 0.0, 0.0, 0.0, 1.743528597689751E9, 0.0, 2025-04-01 12:29:57.689
56.0, -48219.10538901155, -43056.79119310274, -1470.1636398033668, -48810.152567643236, 13188.602112365023, 7213.198508405508, -16686.650119620575, -23816.700138652344, -14987.425802639224, -30366.744740813345, -27913.28315893211, -19939.857118112697, -21384.875045403845, -18722.670522054497, -23707.735384432723, -38380.73919781914, -0.0161635340154171, 0.9830783095657825, 0.05773588591814041, 192.0, 0.0, 0.0, 0.0, 0.0, 0.0, 0.0, 0.0, 0.0, 0.0, 1.743528597689933E9, 0.0, 2025-04-01 12:29:57.689
58.0, -48223.39692394697, -43063.83199260617, -1479.7748899191488, -48825.91054748423, 13259.501845777255, 7217.355932874195, -16704.06212855126, -23832.905153382442, -14969.320889630424, -30347.119909181587, -27889.009164453648, -19921.998074292907, -21343.434911183707, -18694.820248463184, -23681.963823075752, -38357.15810741879, -0.0161635340154171, 0.9830783095657825, 0.05773588591814041, 192.0, 0.0, 0.0, 0.0, 0.0, 0.0, 0.0, 0.0, 0.0, 0.0, 1.743528597690129E9, 0.0, 2025-04-01 12:29:57.690
60.0, -48224.53686291419, -43080.90872537002, -1476.3550730174868, -48817.5733468024, 13196.08994675755, 7205.978894946444, -16713.002826333384, -23840.348284286058, -14987.068174727938, -30372.57854611618, -27907.069373973536, -19944.439225726037, -21371.262833030563, -18753.605336380642, -23707.78008792163, -38381.566212363985, -0.01708176700770855, 0.9805391547828912, 0.0558679429590702, 192.0, 127.5, 56.0, 15.0, 72.0, 0.5, 88.0, 0.0, 0.0, 0.0, 1.743528597690309E9, 0.0, 2025-04-01 12:29:57.690
62.0, -48235.60097641957, -43077.08657706816, -1492.604791236495, -48829.95621323064, 13236.837176899575, 7203.363740845173, -16715.93090485703, -23834.134499327483, -14980.63087232481, -30361.983819244364, -27901.257920415155, -19935.722045388466, -21382.572815724947, -18724.101033699637, -23700.985157607218, -38373.050197726516, -0.01708176700770855, 0.9805391547828912, 0.0558679429590702, 192.0, 0.0, 0.0, 0.0, 0.0, 0.0, 0.0, 0.0, 0.0, 0.0, 1.743528597749191E9, 0.0, 2025-04-01 12:29:57.749
64.0, -48232.60584266256, -43070.49281245385, -1491.8895354139252, -48823.56361431642, 13198.436879925357, 7198.066377409265, -16712.555791444276, -23842.985790131785, -14982.508418859055, -30363.682551822967, -27909.95274900827, -19944.7074466595, -21381.432876757728, -18716.769661518298, -23712.54100949061, -38385.56717462149, -0.01708176700770855, 0.9805391547828912, 0.0558679429590702, 192.0, 0.0, 0.0, 0.0, 0.0, 0.0, 0.0, 0.0, 0.0, 0.0, 1.743528597749422E9, 0.0, 2025-04-01 12:29:57.749
66.0, -48257.28216854122, -43097.31490580022, -1516.834082226048, -48849.156361717745, 13239.631144956487, 7180.386147545118, -16727.665570696066, -23870.098456156073, -15000.903904545774, -30377.942964785456, -27931.879810318926, -19958.47612124397, -21393.18989434122, -18732.41588263701, -23724.968579407763, -38399.671125372784, -0.01708176700770855, 0.9805391547828912, 0.0558679429590702, 192.0, 0.0, 0.0, 0.0, 0.0, 0.0, 0.0, 0.0, 0.0, 0.0, 1.74352859774962E9, 0.0, 2025-04-01 12:29:57.749
68.0, -48258.913845886455, -43110.05540013974, -1509.5250617891625, -48850.2292454516, 13203.868353827997, 7191.293798839307, -16719.708349669978, -23859.660191495444, -15009.956361050174, -30378.34529618565, -27937.355987710478, -19966.18747308105, -21384.450362259195, -18701.70458575542, -23725.102689874493, -38401.772189351585, -0.01708176700770855, 0.9805391547828912, 0.0558679429590702, 192.0, 0.0, 0.0, 0.0, 0.0, 0.0, 0.0, 0.0, 0.0, 0.0, 1.743528597749807E9, 0.0, 2025-04-01 12:29:57.749
70.0, -48251.96245336085, -43098.05251336724, -1506.5969832655173, -48850.497466385066, 13228.052941328639, 7183.046005135299, -16715.238000778914, -23866.700990998866, -15012.660922129266, -30385.40844743353, -27937.803022599583, -19964.153464335617, -21395.916807164765, -18749.269097956312, -23724.521544518655, -38405.23670974216, -0.016540883503854277, 0.9792695773914456, 0.0529339714795351, 192.0, 127.5, 64.0, 15.0, 72.0, 0.5, 72.0, 0.0, 0.0, 0.0, 1.743528597749989E9, 0.0, 2025-04-01 12:29:57.749
72.0, -48243.62525267903, -43082.272181781795, -1499.6679424843721, -48836.54997784495, 13207.310522474114, 7200.927400699545, -16702.16223027256, -23832.18989755987, -15013.331474462924, -30392.225729492395, -27939.077072033535, -19973.585900495757, -21400.633025244835, -18742.764740319817, -23720.565285750068, -38400.83341608446, -0.016540883503854277, 0.9792695773914456, 0.0529339714795351, 192.0, 0.0, 0.0, 0.0, 0.0, 0.0, 0.0, 0.0, 0.0, 0.0, 1.743528597750173E9, 0.0, 2025-04-01 12:29:57.750
74.0, -48238.73022064331, -43105.16036810403, -1492.8730121699587, -48826.24582365106, 13233.685580931377, 7218.115892185676, -16700.95523607197, -23817.035414819173, -14987.984596250606, -30371.39390366005, -27910.66800483084, -19948.708408917002, -21393.838094930423, -18722.75992903232, -23694.994890093196, -38358.81213650848, -0.016540883503854277, 0.9792695773914456, 0.0529339714795351, 192.0, 0.0, 0.0, 0.0, 0.0, 0.0, 0.0, 0.0, 0.0, 0.0, 1.743528597750358E9, 0.0, 2025-04-01 12:29:57.750
76.0, -48240.60776717756, -43096.86787091111, -1496.2034220937994, -48831.78905627597, 13214.016045810706, 7201.888525711122, -16702.810430861766, -23836.90611563994, -14998.221695211138, -30375.90895604002, -27919.586350868507, -19950.027161839862, -21394.799219942, -18742.2730019418, -23704.762602420164, -38378.34756116242, -0.016540883503854277, 0.9792695773914456, 0.0529339714795351, 192.0, 0.0, 0.0, 0.0, 0.0, 0.0, 0.0, 0.0, 0.0, 0.0, 1.7435285978095E9, 0.0, 2025-04-01 12:29:57.809
78.0, -48240.384249733004, -43089.98353361888, -1495.510518015685, -48836.10294295585, 13212.451423698834, 7196.591162275215, -16719.998922347895, -23856.24037459378, -14993.706642831165, -30372.24326994935, -27916.3900514114, -19945.959144349, -21382.796333169503, -18734.785167549275, -23714.999701380697, -38385.008381010106, -0.016540883503854277, 0.9792695773914456, 0.0529339714795351, 192.0, 0.0, 0.0, 0.0, 0.0, 0.0, 0.0, 0.0, 0.0, 0.0, 1.743528597809727E9, 0.0, 2025-04-01 12:29:57.809
80.0, -48249.4367062374, -43083.21095504892, -1503.445387297319, -48842.20496919215, 13228.723493662297, 7192.165516873064, -16725.4974514839, -23848.372560545515, -14998.668730100242, -30370.20926120392, -27928.839973073005, -19957.023257854373, -21406.37742356985, -18723.1175569436, -23720.945265405808, -38403.18034925227, -0.018270441751927137, 0.9826347886957227, 0.052466985739767553, 192.0, 127.5, 48.0, 15.0, 104.0, 0.5, 80.0, 0.0, 0.0, 0.0, 1.743528597809911E9, 0.0, 2025-04-01 12:29:57.809
82.0, -48236.45034270887, -43070.805736876224, -1495.018779637668, -48828.70451554114, 13229.639915184966, 7212.99734270541, -16699.144744771093, -23811.268664749703, -14985.749421805076, -30371.170386215497, -27914.624263599428, -19951.14474906263, -21393.122839107855, -18708.5665713032, -23705.880189642932, -38378.30285767351, -0.018270441751927137, 0.9826347886957227, 0.052466985739767553, 192.0, 0.0, 0.0, 0.0, 0.0, 0.0, 0.0, 0.0, 0.0, 0.0, 1.7435285978101E9, 0.0, 2025-04-01 12:29:57.810
84.0, -48254.018813850744, -43113.74343797487, -1510.5755937785618, -48839.43335287969, 13234.467891987311, 7198.491060553916, -16718.21078279147, -23845.53388899969, -15007.654131371277, -30378.34529618565, -27932.3939004414, -19959.504301488912, -21407.271493348064, -18730.33717040267, -23712.60806472398, -38389.79165432354, -0.018270441751927137, 0.9826347886957227, 0.052466985739767553, 192.0, 0.0, 0.0, 0.0, 0.0, 0.0, 0.0, 0.0, 0.0, 0.0, 1.743528597810298E9, 0.0, 2025-04-01 12:29:57.810
86.0, -48232.04704905117, -43097.359609289124, -1495.4658145267742, -48821.73077127108, 13199.196839236838, 7216.28304914034, -16707.817221619753, -23842.739920942775, -14998.512267889057, -30372.24326994935, -27921.553304380574, -19944.260411770396, -21390.015946628566, -18735.075740227192, -23710.417593767357, -38380.53803211904, -0.018270441751927137, 0.9826347886957227, 0.052466985739767553, 192.0, 0.0, 0.0, 0.0, 0.0, 0.0, 0.0, 0.0, 0.0, 0.0, 1.743528597810482E9, 0.0, 2025-04-01 12:29:57.810
88.0, -48242.2394445228, -43100.310039557226, -1507.6251635104613, -48835.4770941111, 13245.979040381795, 7188.723348226947, -16724.625733450142, -23857.402665305457, -14991.471468385635, -30360.6650663215, -27921.48624914721, -19944.32746700376, -21399.738955466626, -18724.860993011116, -23704.874361142443, -38387.22120371118, -0.018270441751927137, 0.9826347886957227, 0.052466985739767553, 192.0, 0.0, 0.0, 0.0, 0.0, 0.0, 0.0, 0.0, 0.0, 0.0, 1.743528597810669E9, 0.0, 2025-04-01 12:29:57.810
90.0, -48228.291955982684, -43077.71242591291, -1492.5824394920396, -48823.60831780533, 13211.177374264882, 7197.865211709168, -16711.281742010324, -23862.074179896616, -14983.022508981529, -30380.334601442173, -27908.74575480768, -19942.47227221397, -21399.33662406643, -18714.355673117123, -23702.572131463545, -38386.59535486643, -0.015135220875963569, 0.9833173943478614, 0.05023349286988378, 192.0, 127.5, 80.0, 15.0, 96.0, 0.5, 64.0, 0.0, 0.0, 0.0, 1.743528597810854E9, 0.0, 2025-04-01 12:29:57.810
92.0, -48246.97801434732, -43097.4713680114, -1505.8817274429475, -48837.10877145634, 13248.884767160986, 7202.447319322506, -16722.815242149263, -23833.732167927286, -14987.984596250606, -30366.767092557802, -27912.076164731523, -19945.690923415536, -21404.94691192471, -18714.959170217415, -23703.332090775024, -38386.93063103326, -0.015135220875963569, 0.9833173943478614, 0.05023349286988378, 192.0, 0.0, 0.0, 0.0, 0.0, 0.0, 0.0, 0.0, 0.0, 0.0, 1.74352859786893E9, 0.0, 2025-04-01 12:29:57.868
94.0, -48244.228749779315, -43083.52387947129, -1499.6679424843721, -48826.87167249581, 13208.495164930246, 7197.798156475802, -16715.7967943903, -23836.5261359842, -14995.047747498484, -30378.747627585846, -27916.635920600405, -19948.395484494627, -21415.251066118606, -18716.18851616246, -23717.972483393252, -38385.56717462149, -0.015135220875963569, 0.9833173943478614, 0.05023349286988378, 192.0, 0.0, 0.0, 0.0, 0.0, 0.0, 0.0, 0.0, 0.0, 0.0, 1.74352859786915E9, 0.0, 2025-04-01 12:29:57.869
96.0, -48237.389115975995, -43085.826109150184, -1486.3239510445537, -48827.78809401848, 13263.547511523666, 7204.213107134475, -16712.376977488635, -23838.917772640918, -14993.01373875305, -30369.896336781545, -27913.216103698745, -19940.61707742418, -21404.678690991248, -18737.020341994805, -23704.40497450888, -38382.50498563111, -0.015135220875963569, 0.9833173943478614, 0.05023349286988378, 192.0, 0.0, 0.0, 0.0, 0.0, 0.0, 0.0, 0.0, 0.0, 0.0, 1.743528597869354E9, 0.0, 2025-04-01 12:29:57.869
98.0, -48236.80797062015, -43076.57248694569, -1490.4366720243302, -48823.653021294245, 13210.596228909044, 7191.874944195145, -16729.11843408566, -23853.513461770235, -14989.549218362477, -30373.405560661027, -27905.549455350574, -19940.147690790618, -21391.46881001816, -18733.935801259973, -23701.78982040761, -38378.414616395785, -0.015135220875963569, 0.9833173943478614, 0.05023349286988378, 192.0, 0.0, 0.0, 0.0, 0.0, 0.0, 0.0, 0.0, 0.0, 0.0, 1.743528597869541E9, 0.0, 2025-04-01 12:29:57.869
100.0, -48252.834171394614, -43105.18271984848, -1501.4337302963413, -48835.90177725575, 13254.38329629699, 7192.5454965288045, -16725.87743113964, -23845.10920585504, -14992.901980030774, -30376.57950837368, -27911.38326065341, -19945.646219926624, -21411.76419398358, -18745.849281054652, -23707.131887332427, -38386.43889265524, -0.012567610437981784, 0.9846586971739306, 0.04811674643494189, 192.0, 127.5, 88.0, 15.0, 104.0, 0.5, 56.0, 0.0, 0.0, 0.0, 1.743528597869738E9, 0.0, 2025-04-01 12:29:57.869
102.0, -48239.624290421525, -43085.24496379435, -1490.0343406241348, -48819.89792822575, 13197.051071769129, 7203.207278633986, -16708.711291397965, -23836.459080750836, -14991.136192218804, -30383.709714854926, -27910.489190875196, -19949.825996139767, -21415.206362629695, -18733.37700764859, -23705.857837898475, -38379.487500129646, -0.012567610437981784, 0.9846586971739306, 0.04811674643494189, 192.0, 0.0, 0.0, 0.0, 0.0, 0.0, 0.0, 0.0, 0.0, 0.0, 1.743528597869927E9, 0.0, 2025-04-01 12:29:57.869
104.0, -48246.66508992494, -43085.982571361375, -1499.444425039819, -48831.31966964241, 13255.590290497577, 7203.833127478734, -16707.414890219556, -23834.04509234966, -14981.524942103022, -30359.05574072072, -27901.839065770993, -19933.732740131945, -21391.535865251528, -18720.100071442135, -23692.58090169202, -38374.39130239383, -0.012567610437981784, 0.9846586971739306, 0.04811674643494189, 192.0, 0.0, 0.0, 0.0, 0.0, 0.0, 0.0, 0.0, 0.0, 0.0, 1.743528597870111E9, 0.0, 2025-04-01 12:29:57.870
106.0, -48242.53001720071, -43086.9213446285, -1500.8078814515927, -48824.345925372356, 13186.165772219394, 7198.692226254014, -16694.58498890221, -23837.375502273502, -15002.021491768539, -30385.073171266697, -27923.229685214723, -19954.832786897754, -21402.510571779083, -18725.889173256062, -23710.46229725627, -38391.780959580065, -0.012567610437981784, 0.9846586971739306, 0.04811674643494189, 192.0, 0.0, 0.0, 0.0, 0.0, 0.0, 0.0, 0.0, 0.0, 0.0, 1.74352859792853E9, 0.0, 2025-04-01 12:29:57.928
108.0, -48239.44547646588, -43084.75322541633, -1499.8691081844697, -48830.02326846401, 13259.501845777255, 7200.323903599251, -16681.64332886259, -23839.029531363194, -14985.347090404879, -30368.801101303234, -27909.729231563717, -19940.57237393527, -21378.61655695636, -18716.54614407374, -23695.330166260024, -38376.71588381718, -0.012567610437981784, 0.9846586971739306, 0.04811674643494189, 192.0, 0.0, 0.0, 0.0, 0.0, 0.0, 0.0, 0.0, 0.0, 0.0, 1.743528597928757E9, 0.0, 2025-04-01 12:29:57.928
110.0, -48235.75743863075, -43081.17694630348, -1507.8710326994697, -48827.81044576293, 13220.430996469378, 7194.1324703851315, -16686.35954694266, -23845.891516910975, -15003.16143073576, -30384.067342766208, -27928.884676561916, -19965.449865514027, -21383.444533758706, -18726.939705245462, -23715.938474647817, -38393.74791309213, -0.011283805218990892, 0.9823293485869653, 0.048058373217470945, 192.0, 127.5, 88.0, 15.0, 80.0, 0.5, 64.0, 0.0, 0.0, 0.0, 1.743528597928952E9, 0.0, 2025-04-01 12:29:57.928
112.0, -48226.92849957091, -43090.028237107785, -1495.7116837157828, -48826.53639632898, 13273.561093039643, 7206.4035780910945, -16709.58300943172, -23828.926542869394, -14990.085660229404, -30373.517319383303, -27911.60677809796, -19944.394522237126, -21346.184175751707, -18689.36642281609, -23697.453581983278, -38380.49332863013, -0.011283805218990892, 0.9823293485869653, 0.048058373217470945, 192.0, 0.0, 0.0, 0.0, 0.0, 0.0, 0.0, 0.0, 0.0, 0.0, 1.743528597929152E9, 0.0, 2025-04-01 12:29:57.929
114.0, -48237.25500550926, -43098.81247267872, -1507.8486809550145, -48840.841512780375, 13222.889688359463, 7185.929380170033, -16681.39745967358, -23821.975150343795, -14997.327625432925, -30371.528014126783, -27918.222894456732, -19951.412969996094, -21342.56319314995, -18722.648170310043, -23696.35834650497, -38385.58952636594, -0.011283805218990892, 0.9823293485869653, 0.048058373217470945, 192.0, 0.0, 0.0, 0.0, 0.0, 0.0, 0.0, 0.0, 0.0, 0.0, 1.743528597929337E9, 0.0, 2025-04-01 12:29:57.929
116.0, -48230.86240659504, -43077.600667190636, -1502.2607448411877, -48850.09513498487, 13253.265709074225, 7194.333636085229, -16666.846474033176, -23819.80703113163, -14993.371366664334, -30368.465825136405, -27916.09947873348, -19949.80364439531, -21330.202678466165, -18734.762815804817, -23700.135791317916, -38385.43306415476, -0.011283805218990892, 0.9823293485869653, 0.048058373217470945, 192.0, 0.0, 0.0, 0.0, 0.0, 0.0, 0.0, 0.0, 0.0, 0.0, 1.743528597929526E9, 0.0, 2025-04-01 12:29:57.929
118.0, -48251.06838358264, -43112.335278074184, -1528.5910998095394, -48878.01246380955, 13212.250257998736, 7161.342461269196, -16691.478096422925, -23860.375447318012, -15011.92331456224, -30389.610575391125, -27929.845801573494, -19970.031973127363, -21334.874193057323, -18738.80848155123, -23706.84131465451, -38401.36985795139, -0.011283805218990892, 0.9823293485869653, 0.048058373217470945, 192.0, 0.0, 0.0, 0.0, 0.0, 0.0, 0.0, 0.0, 0.0, 0.0, 1.743528597929715E9, 0.0, 2025-04-01 12:29:57.929
120.0, -48233.2316915073, -43094.00684762083, -1517.482282815252, -48866.970702048624, 13233.417359997913, 7175.513467253861, -16670.10982872365, -23856.039208893682, -15026.742521136108, -30409.123648300607, -27944.508545936176, -19985.164104123607, -21338.405768681263, -18754.99114453687, -23724.946227663306, -38410.84699760044, -0.007641902609495446, 0.9791646742934826, 0.04802918660873547, 192.0, 127.5, 112.0, 15.0, 64.0, 0.5, 64.0, 0.0, 0.0, 0.0, 1.7435285979299E9, 0.0, 2025-04-01 12:29:57.929
122.0, -48226.414409448436, -43079.07588232469, -1501.3890268074308, -48851.23507395209, 13234.602002454043, 7202.536726300326, -16652.384895370593, -23815.89547585195, -15011.722148862142, -30392.40454344804, -27932.77388009714, -19977.318641819795, -21322.916009773733, -18729.979542491383, -23704.248512297694, -38389.255212456614, -0.007641902609495446, 0.9791646742934826, 0.04802918660873547, 192.0, 0.0, 0.0, 0.0, 0.0, 0.0, 0.0, 0.0, 0.0, 0.0, 1.743528597989016E9, 0.0, 2025-04-01 12:29:57.989
124.0, -48214.25506046475, -43072.99620783284, -1491.1072243579895, -48846.80942854994, 13265.760334224742, 7214.025522950355, -16655.022401216316, -23819.114127053515, -14991.225599196625, -30374.701961839433, -27907.29289141809, -19955.704504931513, -21298.932587973188, -18706.51021081331, -23681.472084697736, -38368.60220057991, -0.007641902609495446, 0.9791646742934826, 0.04802918660873547, 192.0, 0.0, 0.0, 0.0, 0.0, 0.0, 0.0, 0.0, 0.0, 0.0, 1.743528597989236E9, 0.0, 2025-04-01 12:29:57.989
126.0, -48225.45328443686, -43085.066149838705, -1502.3278000745536, -48859.304053700456, 13243.028610113694, 7196.635865764126, -16661.90673850855, -23822.846868377554, -15003.988445280605, -30379.954621786434, -27923.989644526202, -19966.746266692433, -21313.930608502702, -18722.17878367648, -23695.039593582107, -38385.43306415476, -0.007641902609495446, 0.9791646742934826, 0.04802918660873547, 192.0, 0.0, 0.0, 0.0, 0.0, 0.0, 0.0, 0.0, 0.0, 0.0, 1.743528597989422E9, 0.0, 2025-04-01 12:29:57.989
128.0, -48232.5834909181, -43081.713388170414, -1507.3569425769977, -48863.26031246904, 13232.47858673079, 7198.75928148738, -16669.707497323456, -23822.131612554982, -15003.20613422467, -30393.00804054833, -27923.207333470265, -19973.585900495757, -21300.765431018524, -18716.769661518298, -23690.5915964355, -38374.59246809393, -0.007641902609495446, 0.9791646742934826, 0.04802918660873547, 192.0, 0.0, 0.0, 0.0, 0.0, 0.0, 0.0, 0.0, 0.0, 0.0, 1.743528597989622E9, 0.0, 2025-04-01 12:29:57.989
130.0, -48234.14811302997, -43080.50639396982, -1506.082893143045, -48855.86188505434, 13237.485377488778, 7190.131508127632, -16665.103037965662, -23841.130595341994, -15012.839736084909, -30390.370534702604, -27936.976008054735, -19979.732630220966, -21319.585599849892, -18733.779339048786, -23700.538122718113, -38389.90341304582, -0.009820951304747723, 0.9785823371467413, 0.049014593304367735, 192.0, 127.5, 80.0, 15.0, 72.0, 0.5, 72.0, 0.0, 0.0, 0.0, 1.743528597989812E9, 0.0, 2025-04-01 12:29:57.989
132.0, -48217.518415155224, -43077.935943357465, -1481.4289190088416, -48843.30020467046, 13244.056790358638, 7196.9487901864995, -16659.67156406302, -23825.14909805645, -14995.24891319858, -30371.01392400431, -27917.842914800993, -19954.721028175478, -21314.757623047546, -18717.395510363043, -23687.663517911857, -38377.87817452886, -0.009820951304747723, 0.9785823371467413, 0.049014593304367735, 192.0, 0.0, 0.0, 0.0, 0.0, 0.0, 0.0, 0.0, 0.0, 0.0, 1.743528597989993E9, 0.0, 2025-04-01 12:29:57.989
134.0, -48221.56408090163, -43081.087539325665, -1490.0119888796794, -48847.50233262806, 13253.355116052046, 7200.323903599251, -16674.222549703427, -23816.878952607985, -14997.327625432925, -30371.237441448862, -27917.79821131208, -19957.582051465757, -21304.98991072058, -18715.070928939695, -23685.65186091088, -38382.2591164421, -0.009820951304747723, 0.9785823371467413, 0.049014593304367735, 192.0, 0.0, 0.0, 0.0, 0.0, 0.0, 0.0, 0.0, 0.0, 0.0, 1.743528597990184E9, 0.0, 2025-04-01 12:29:57.990
136.0, -48208.220089461814, -43064.167268772995, -1472.734090415727, -48831.76670453152, 13219.738092391264, 7216.953601474, -16650.730866280897, -23806.70890888082, -14989.996253251584, -30357.82639477568, -27908.499885618676, -19949.60247869521, -21304.073489197912, -18695.535504285755, -23687.6411661674, -38375.26302042759, -0.009820951304747723, 0.9785823371467413, 0.049014593304367735, 192.0, 0.0, 0.0, 0.0, 0.0, 0.0, 0.0, 0.0, 0.0, 0.0, 1.74352859805059E9, 0.0, 2025-04-01 12:29:58.050
138.0, -48213.271583708716, -43058.80285010372, -1480.803070164093, -48844.37308840431, 13257.378430054001, 7198.04402566481, -16674.334308425703, -23839.700083696855, -14980.139133946794, -30355.501813352326, -27901.14616169288, -19943.075769314262, -21281.431172064684, -18688.204132104413, -23676.39823870638, -38375.68770357224, -0.009820951304747723, 0.9785823371467413, 0.049014593304367735, 192.0, 0.0, 0.0, 0.0, 0.0, 0.0, 0.0, 0.0, 0.0, 0.0, 1.743528598050825E9, 0.0, 2025-04-01 12:29:58.050
140.0, -48216.28906921019, -43052.56671340069, -1485.6533987108946, -48844.261329682035, 13219.268705757702, 7199.653351265592, -16656.96700298393, -23826.691368423864, -14985.816477038441, -30371.14803447104, -27906.622339084428, -19952.016467096386, -21302.441811852674, -18693.635606007054, -23687.21648302275, -38384.18136646526, -0.011910475652373862, 0.9822911685733706, 0.05050729665218387, 192.0, 127.5, 72.0, 15.0, 104.0, 0.5, 80.0, 0.0, 0.0, 0.0, 1.743528598051022E9, 0.0, 2025-04-01 12:29:58.051
142.0, -48230.97416531732, -43083.881507382575, -1487.9332766453358, -48852.10679198585, 13253.95861315234, 7199.228668120942, -16685.15255274207, -23817.661263663922, -14996.187686465704, -30371.01392400431, -27913.797249054584, -19955.413932253592, -21303.872323497813, -18716.344978373647, -23694.45844822627, -38381.812081553, -0.011910475652373862, 0.9822911685733706, 0.05050729665218387, 192.0, 0.0, 0.0, 0.0, 0.0, 0.0, 0.0, 0.0, 0.0, 0.0, 1.743528598051222E9, 0.0, 2025-04-01 12:29:58.051
144.0, -48207.393074916974, -43066.38009147407, -1472.510572971174, -48834.85124526635, 13216.81001386762, 7192.769013973358, -16674.848398548176, -23828.390101002467, -14992.25377944157, -30371.930345526976, -27907.739926307193, -19948.79781589482, -21302.55357057495, -18737.065045483716, -23689.719878401742, -38380.31451467449, -0.011910475652373862, 0.9822911685733706, 0.05050729665218387, 192.0, 0.0, 0.0, 0.0, 0.0, 0.0, 0.0, 0.0, 0.0, 0.0, 1.743528598051418E9, 0.0, 2025-04-01 12:29:58.051
146.0, -48228.04608679368, -43067.162402530004, -1486.4357097668303, -48848.84343729537, 13257.870168432019, 7194.870077952156, -16670.020421745827, -23840.99648487526, -14987.135229961305, -30360.977990743875, -27908.32107166303, -19944.394522237126, -21307.113326443832, -18718.4683940969, -23681.606195164466, -38382.37087516438, -0.011910475652373862, 0.9822911685733706, 0.05050729665218387, 192.0, 0.0, 0.0, 0.0, 0.0, 0.0, 0.0, 0.0, 0.0, 0.0, 1.743528598051602E9, 0.0, 2025-04-01 12:29:58.051
148.0, -48228.649583893966, -43069.4646322089, -1484.9381428883248, -48842.56259710343, 13206.304693973625, 7197.351121586696, -16670.758029312852, -23811.76040312772, -14999.383985922812, -30374.67961009498, -27917.686452589805, -19955.279821786862, -21310.51079160104, -18724.61512382211, -23690.5915964355, -38383.98020076516, -0.011910475652373862, 0.9822911685733706, 0.05050729665218387, 192.0, 0.0, 0.0, 0.0, 0.0, 0.0, 0.0, 0.0, 0.0, 0.0, 1.743528598051785E9, 0.0, 2025-04-01 12:29:58.051
150.0, -48230.92946182841, -43049.03513777675, -1486.547468489107, -48845.13304771579, 13252.639860229476, 7201.419139077561, -16660.587985585687, -23815.51549619621, -14995.763003321053, -30369.315191425707, -27916.09947873348, -19953.71519967499, -21303.917026986725, -18711.114670171104, -23685.58480567751, -38378.012284995595, -0.012955237826186931, 0.9871455842866853, 0.05225364832609193, 192.0, 127.5, 72.0, 15.5, 0.0, 0.5, 88.0, 0.0, 0.0, 0.0, 1.743528598051981E9, 0.0, 2025-04-01 12:29:58.051
152.0, -48222.36874370203, -43074.87375436709, -1483.574686476551, -48836.28175691149, 13206.438804440357, 7214.204336905997, -16645.880537734098, -23806.865371092008, -14994.153677720271, -30366.25300243533, -27912.947882765282, -19950.22832753996, -21305.88398049879, -18707.94072245845, -23691.329204002526, -38376.40295939481, -0.012955237826186931, 0.9871455842866853, 0.05225364832609193, 192.0, 0.0, 0.0, 0.0, 0.0, 0.0, 0.0, 0.0, 0.0, 0.0, 1.743528598109498E9, 0.0, 2025-04-01 12:29:58.109
154.0, -48227.599051904566, -43084.57441146069, -1488.0450353676124, -48845.937710516184, 13256.931395164895, 7214.360799117184, -16673.082610736205, -23817.43774621937, -14993.997215509084, -30356.06060696371, -27907.449353629276, -19946.47323447147, -21315.94226550368, -18705.571437546187, -23677.851102095974, -38371.843203525925, -0.012955237826186931, 0.9871455842866853, 0.05225364832609193, 192.0, 0.0, 0.0, 0.0, 0.0, 0.0, 0.0, 0.0, 0.0, 0.0, 1.743528598109711E9, 0.0, 2025-04-01 12:29:58.109
156.0, -48219.977107045306, -43066.98358857437, -1484.1334800879335, -48831.09615219786, 13199.912095059408, 7218.80879626379, -16659.157473940548, -23816.90130435244, -14994.935988776208, -30366.47651987988, -27914.423097899333, -19954.51986247538, -21307.917989244223, -18700.18466713246, -23687.238834767206, -38379.196927451725, -0.012955237826186931, 0.9871455842866853, 0.05225364832609193, 192.0, 0.0, 0.0, 0.0, 0.0, 0.0, 0.0, 0.0, 0.0, 0.0, 1.743528598109913E9, 0.0, 2025-04-01 12:29:58.109
158.0, -48230.43772345039, -43080.64050443655, -1491.6660179693722, -48844.61895759332, 13242.402761268946, 7204.1684036455645, -16676.748296826878, -23841.80114767565, -14990.10801197386, -30352.573734828682, -27912.65731008736, -19945.690923415536, -21299.044346695468, -18690.014623405295, -23686.143599288895, -38376.42531113927, -0.012955237826186931, 0.9871455842866853, 0.05225364832609193, 192.0, 0.0, 0.0, 0.0, 0.0, 0.0, 0.0, 0.0, 0.0, 0.0, 1.7435285981101E9, 0.0, 2025-04-01 12:29:58.110
160.0, -48231.711772884344, -43080.86402188111, -1491.800128436104, -48841.64617558076, 13196.872257813486, 7195.272409352352, -16663.806636787253, -23822.51159221072, -15002.15560223527, -30373.562022872215, -27926.694205605294, -19958.8113974108, -21322.111346973343, -18713.75217601683, -23698.437058739313, -38393.725561347674, -0.010477618913093466, 0.9845727921433427, 0.05212682416304597, 192.0, 127.5, 96.0, 15.0, 88.0, 0.5, 80.0, 0.0, 0.0, 0.0, 1.743528598110287E9, 0.0, 2025-04-01 12:29:58.110
162.0, -48226.772037359726, -43062.826164105674, -1478.992578863213, -48831.72200104261, 13259.121866121515, 7215.858365995689, -16666.757067055354, -23810.4192984604, -14992.92433177523, -30365.470691379393, -27914.110173476958, -19953.402275252614, -21304.498172342563, -18701.279902610768, -23682.5896719205, -38372.11142445939, -0.010477618913093466, 0.9845727921433427, 0.05212682416304597, 192.0, 0.0, 0.0, 0.0, 0.0, 0.0, 0.0, 0.0, 0.0, 0.0, 1.743528598110495E9, 0.0, 2025-04-01 12:29:58.110
164.0, -48223.44162743588, -43075.90193461203, -1489.6543609683945, -48833.86776851032, 13208.5175166747, 7200.927400699545, -16677.552959627268, -23826.110223068026, -15001.172125479237, -30367.594107102646, -27920.838048558006, -19961.5606619788, -21318.17743994921, -18725.151565689037, -23687.954090589774, -38377.654657084306, -0.010477618913093466, 0.9845727921433427, 0.05212682416304597, 192.0, 0.0, 0.0, 0.0, 0.0, 0.0, 0.0, 0.0, 0.0, 0.0, 1.743528598110678E9, 0.0, 2025-04-01 12:29:58.110
166.0, -48224.939194314386, -43074.20320203343, -1484.7146254437716, -48841.51206511403, 13274.030479673205, 7199.4745373099495, -16689.667605122042, -23841.309409297635, -14990.264474185047, -30361.96146749991, -27911.42796414232, -19953.536385719348, -21304.54287583147, -18710.734690515364, -23685.338936488504, -38383.801386809515, -0.010477618913093466, 0.9845727921433427, 0.05212682416304597, 192.0, 0.0, 0.0, 0.0, 0.0, 0.0, 0.0, 0.0, 0.0, 0.0, 1.743528598169757E9, 0.0, 2025-04-01 12:29:58.169
168.0, -48229.09661878307, -43074.11379505561, -1482.1665265758666, -48840.26036742453, 13218.508746446223, 7213.9137642280775, -16675.228378203916, -23814.308501995623, -15003.519058647045, -30368.264659436307, -27925.263693960154, -19968.93673764905, -21317.216314937632, -18716.501440584834, -23693.27380577014, -38389.45637815671, -0.010477618913093466, 0.9845727921433427, 0.05212682416304597, 192.0, 0.0, 0.0, 0.0, 0.0, 0.0, 0.0, 0.0, 0.0, 0.0, 1.74352859816998E9, 0.0, 2025-04-01 12:29:58.169
170.0, -48215.10442675405, -43058.13229777006, -1478.2102678072772, -48831.78905627597, 13243.274479302703, 7213.891412483623, -16668.25463393386, -23805.43485944687, -14989.280997429014, -30360.419197132494, -27909.2374931857, -19954.85513864221, -21296.876227483303, -18699.782335732263, -23685.294232999593, -38375.419482638776, -0.011238809456546733, 0.9802863960716713, 0.050063412081522984, 192.0, 127.5, 80.0, 15.0, 64.0, 0.5, 64.0, 0.0, 0.0, 0.0, 1.743528598170167E9, 0.0, 2025-04-01 12:29:58.170
172.0, -48230.30361298366, -43071.90097235453, -1481.4289190088416, -48838.13695170128, 13234.087912331572, 7194.288932596319, -16692.573331901232, -23843.29871455416, -14986.241160183092, -30351.925534239475, -27911.360908908955, -19949.71423741749, -21313.282407913495, -18690.104030383114, -23691.709183658266, -38382.773206564576, -0.011238809456546733, 0.9802863960716713, 0.050063412081522984, 192.0, 0.0, 0.0, 0.0, 0.0, 0.0, 0.0, 0.0, 0.0, 0.0, 1.743528598170379E9, 0.0, 2025-04-01 12:29:58.170
174.0, -48228.04608679368, -43070.313998498204, -1483.8205556655594, -48840.17096044671, 13245.129674092494, 7195.317112841262, -16688.795887088287, -23835.207383061337, -15003.273189458036, -30364.62132509009, -27922.15680148087, -19960.063095100297, -21303.291178141975, -18702.75511774482, -23696.000718593685, -38393.8596718144, -0.011238809456546733, 0.9802863960716713, 0.050063412081522984, 192.0, 0.0, 0.0, 0.0, 0.0, 0.0, 0.0, 0.0, 0.0, 0.0, 1.743528598170573E9, 0.0, 2025-04-01 12:29:58.170
176.0, -48223.68749662489, -43064.50254493982, -1487.352131289498, -48839.031021479495, 13237.172453066403, 7192.701958739992, -16679.00582301686, -23834.894458638963, -14995.226561454127, -30360.48625236586, -27916.591217111498, -19951.56943220728, -21310.086108456388, -18720.010664464317, -23691.932701102818, -38390.68572410175, -0.011238809456546733, 0.9802863960716713, 0.050063412081522984, 192.0, 0.0, 0.0, 0.0, 0.0, 0.0, 0.0, 0.0, 0.0, 0.0, 1.743528598170753E9, 0.0, 2025-04-01 12:29:58.170
178.0, -48208.04127550618, -43061.35094897162, -1473.538753216118, -48830.13502718628, 13230.75750240773, 7211.52212757136, -16674.06608749224, -23804.00434780173, -14988.051651483973, -30357.0664354642, -27907.829333285015, -19941.980533835955, -21309.013224722534, -18710.42176609299, -23697.07360232754, -38382.97437226467, -0.011238809456546733, 0.9802863960716713, 0.050063412081522984, 192.0, 0.0, 0.0, 0.0, 0.0, 0.0, 0.0, 0.0, 0.0, 0.0, 1.743528598170934E9, 0.0, 2025-04-01 12:29:58.170
180.0, -48213.56215638664, -43057.57350415868, -1476.0197968506573, -48840.506236613546, 13264.95567142435, 7195.272409352352, -16686.381898687112, -23832.055787093137, -14982.977805492617, -30345.354121369615, -27903.448391371774, -19937.644295411625, -21302.486515341585, -18674.949547642416, -23687.127076044926, -38388.85288105642, -0.014, 0.978, 0.052000000000000005, 192.0, 127.5, 72.0, 15.0, 72.0, 0.5, 80.0, 0.0, 0.0, 0.0, 1.743528598171115E9, 0.0, 2025-04-01 12:29:58.171
182.0, -48205.381417915996, -43053.17021050098, -1461.513514699163, -48827.05048645145, 13225.370731994002, 7216.752435773902, -16662.82316003122, -23808.206475759325, -14977.501628101067, -30345.175307413974, -27897.011088968648, -19937.7560541339, -21288.337861101372, -18720.547106331243, -23687.551759189577, -38380.7615495636, -0.014, 0.978, 0.052000000000000005, 192.0, 0.0, 0.0, 0.0, 0.0, 0.0, 0.0, 0.0, 0.0, 0.0, 1.743528598229005E9, 0.0, 2025-04-01 12:29:58.229
184.0, -48212.10929299704, -43060.76980361579, -1470.9906543482132, -48832.61607082082, 13264.91096793544, 7211.276258382351, -16653.815407015732, -23812.252141505738, -14975.378212377813, -30348.99745571583, -27893.14423717788, -19933.509222687393, -21280.604157519836, -18698.195361875936, -23670.00563979216, -38375.33007566095, -0.014, 0.978, 0.052000000000000005, 192.0, 0.0, 0.0, 0.0, 0.0, 0.0, 0.0, 0.0, 0.0, 0.0, 1.743528598229231E9, 0.0, 2025-04-01 12:29:58.229
186.0, -48217.13843549949, -43068.212934519404, -1483.3511690319979, -48846.988242505584, 13225.594249438554, 7188.633941249125, -16690.762840600353, -23844.95274364385, -14994.35484342037, -30361.000342488333, -27909.86334203045, -19951.077693829262, -21314.243532925073, -18712.23225739387, -23689.07167781254, -38392.205642724715, -0.014, 0.978, 0.052000000000000005, 192.0, 0.0, 0.0, 0.0, 0.0, 0.0, 0.0, 0.0, 0.0, 0.0, 1.743528598229433E9, 0.0, 2025-04-01 12:29:58.229
188.0, -48228.38136296051, -43070.49281245385, -1492.314218558576, -48846.04946923846, 13234.736112920775, 7201.396787333106, -16686.694823109487, -23813.48148745078, -14997.707605088664, -30368.130548969573, -27916.479458389218, -19954.721028175478, -21300.161933918233, -18725.37508313359, -23696.6936226718, -38395.08901775945, -0.014, 0.978, 0.052000000000000005, 192.0, 0.0, 0.0, 0.0, 0.0, 0.0, 0.0, 0.0, 0.0, 0.0, 1.74352859822962E9, 0.0, 2025-04-01 12:29:58.229
190.0, -48219.977107045306, -43051.22560873337, -1476.5562387175846, -48825.70938178413, 13202.147269504938, 7217.937078230033, -16674.401363659068, -23813.392080472957, -14999.719262089642, -30359.77099654329, -27912.43379264281, -19939.36537973468, -21322.983065007098, -18706.2643416243, -23700.64988144039, -38384.53899437654, -0.018000000000000002, 0.984, 0.048, 192.0, 127.5, 56.0, 15.0, 96.0, 0.5, 64.0, 0.0, 0.0, 0.0, 1.743528598229794E9, 0.0, 2025-04-01 12:29:58.229
192.0, -48218.01015353324, -43058.57933265917, -1479.3725585189532, -48840.39447789127, 13259.926528921907, 7216.99830496291, -16662.465532119935, -23835.028569105696, -14980.273244413525, -30339.408557344505, -27895.3347081345, -19926.826051095253, -21296.719765272115, -18683.17498960197, -23687.752924889675, -38387.73529383365, -0.018000000000000002, 0.984, 0.048, 192.0, 0.0, 0.0, 0.0, 0.0, 0.0, 0.0, 0.0, 0.0, 0.0, 1.74352859823001E9, 0.0, 2025-04-01 12:29:58.230
194.0, -48220.51354891223, -43060.34512047114, -1472.9576078602802, -48833.845416765864, 13208.450461441334, 7204.838955979223, -16675.04956424827, -23818.6223886755, -14987.917541017241, -30347.991627215342, -27894.99943196767, -19930.022350552365, -21296.652710038747, -18700.095260154638, -23689.205788279272, -38387.42236941127, -0.018000000000000002, 0.984, 0.048, 192.0, 0.0, 0.0, 0.0, 0.0, 0.0, 0.0, 0.0, 0.0, 0.0, 1.743528598230195E9, 0.0, 2025-04-01 12:29:58.230
196.0, -48215.46205466534, -43059.09342278164, -1477.1150323289673, -48836.48292261159, 13254.673868974909, 7206.6941507690135, -16675.72011658193, -23838.314275540626, -14991.270302685536, -30348.282199893263, -27897.726344791216, -19937.53253668935, -21286.817942478414, -18710.04178643725, -23688.73640164571, -38387.33296243346, -0.018000000000000002, 0.984, 0.048, 192.0, 0.0, 0.0, 0.0, 0.0, 0.0, 0.0, 0.0, 0.0, 0.0, 1.743528598288843E9, 0.0, 2025-04-01 12:29:58.288
198.0, -48212.06458950813, -43060.16630651549, -1476.9809218622354, -48834.985355733086, 13214.686598144364, 7209.465767081472, -16671.361526413148, -23821.23754277677, -14982.44136362569, -30348.908048738012, -27890.46202784324, -19931.654027897603, -21299.87136124031, -18700.542295043742, -23685.07071555504, -38381.23093619716, -0.018000000000000002, 0.984, 0.048, 192.0, 0.0, 0.0, 0.0, 0.0, 0.0, 0.0, 0.0, 0.0, 0.0, 1.743528598289073E9, 0.0, 2025-04-01 12:29:58.289
200.0, -48231.48825543979, -43067.18475427446, -1494.2588203261878, -48853.492600142075, 13249.532967750189, 7196.680569253036, -16689.06410802175, -23835.38619701698, -14998.556971377966, -30370.34337167065, -27909.081030974514, -19952.5082054744, -21326.35817841985, -18712.388719605056, -23696.11247731596, -38391.06570375749, -0.012, 0.98, 0.044, 192.0, 127.5, 80.0, 15.0, 80.0, 0.5, 48.0, 0.0, 0.0, 0.0, 1.743528598289262E9, 0.0, 2025-04-01 12:29:58.289
202.0, -48227.12966527101, -43068.794079875246, -1479.6407794524168, -48835.81237027793, 13204.963589306306, 7187.583409259726, -16693.132125512617, -23844.975095388305, -15009.509326161067, -30381.474540409392, -27918.535818879107, -19962.253566056916, -21324.12300397432, -18712.344016116145, -23704.06969834205, -38397.726523605175, -0.012, 0.98, 0.044, 192.0, 0.0, 0.0, 0.0, 0.0, 0.0, 0.0, 0.0, 0.0, 0.0, 1.743528598289458E9, 0.0, 2025-04-01 12:29:58.289
204.0, -48224.06747628063, -43061.775632116274, -1487.6427039674168, -48835.90177725575, 13254.852682930552, 7200.7038832549915, -16695.43435519151, -23829.820612647607, -14994.53365737601, -30367.191775702453, -27904.565978594543, -19941.332333246748, -21301.480686841096, -18721.821155765196, -23688.892863856898, -38384.40488390981, -0.012, 0.98, 0.044, 192.0, 0.0, 0.0, 0.0, 0.0, 0.0, 0.0, 0.0, 0.0, 0.0, 1.743528598289655E9, 0.0, 2025-04-01 12:29:58.289
206.0, -48212.44456916387, -43042.66489060699, -1473.8069741495817, -48819.24972763655, 13210.99856030924, 7211.209203148986, -16671.428581646513, -23810.687519393865, -14987.671671828231, -30359.167499442996, -27901.459086115254, -19929.46355694098, -21306.129849687797, -18702.911579956006, -23694.592558693, -38382.03559899755, -0.012, 0.98, 0.044, 192.0, 0.0, 0.0, 0.0, 0.0, 0.0, 0.0, 0.0, 0.0, 0.0, 1.743528598289837E9, 0.0, 2025-04-01 12:29:58.289
208.0, -48213.405694175446, -43053.10315526762, -1483.954666132291, -48836.88525401178, 13254.606813741544, 7200.659179766081, -16676.882407293608, -23839.18599357438, -14978.01571822354, -30347.276371392774, -27893.345402877978, -19922.84744058221, -21316.188134692686, -18675.441286020432, -23686.724744644733, -38384.96367752119, -0.012, 0.98, 0.044, 192.0, 0.0, 0.0, 0.0, 0.0, 0.0, 0.0, 0.0, 0.0, 0.0, 1.743528598290035E9, 0.0, 2025-04-01 12:29:58.290
210.0, -48215.95379304335, -43065.19544901794, -1485.3628260329756, -48836.57232958941, 13208.89749633044, 7196.389996575117, -16696.149611014083, -23831.072310337106, -14982.776639792519, -30345.15295566952, -27901.36967913743, -19932.14576627562, -21316.165782948232, -18700.452888065924, -23701.007509351675, -38398.285317216556, -0.012, 0.984, 0.048, 192.0, 127.5, 80.0, 15.0, 96.0, 0.5, 64.0, 0.0, 0.0, 0.0, 1.743528598290218E9, 0.0, 2025-04-01 12:29:58.290
212.0, -48219.57477564512, -43057.05941403621, -1485.5863434775285, -48843.926053515206, 13240.212290312325, 7192.836069206724, -16701.335215727715, -23839.498917996756, -14989.504514873566, -30356.977028486377, -27906.71174606225, -19939.90182160161, -21310.10846020084, -18711.159373660015, -23703.01916635265, -38403.672087630286, -0.012, 0.984, 0.048, 192.0, 0.0, 0.0, 0.0, 0.0, 0.0, 0.0, 0.0, 0.0, 0.0, 1.74352859834918E9, 0.0, 2025-04-01 12:29:58.349
214.0, -48209.20356621785, -43055.785364602256, -1480.95953237528, -48834.94065224417, 13207.623446896489, 7193.417214562562, -16695.68022438052, -23828.032473091185, -14983.983633993106, -30364.084883223164, -27905.996490239682, -19942.85225186971, -21329.59918136587, -18704.78912649025, -23698.7946866506, -38402.28627947406, -0.012, 0.984, 0.048, 192.0, 0.0, 0.0, 0.0, 0.0, 0.0, 0.0, 0.0, 0.0, 0.0, 1.743528598349408E9, 0.0, 2025-04-01 12:29:58.349
