%OpenBCI Raw EXG Data
%Number of channels = 16
%Sample Rate = 125 Hz
%Board = OpenBCI_GUI$BoardCytonSerialDaisy
Sample Index, EXG Channel 0, EXG Channel 1, EXG Channel 2, EXG Channel 3, EXG Channel 4, EXG Channel 5, EXG Channel 6, EXG Channel 7, EXG Channel 8, EXG Channel 9, EXG Channel 10, EXG Channel 11, EXG Channel 12, EXG Channel 13, EXG Channel 14, EXG Channel 15, Accel Channel 0, Accel Channel 1, Accel Channel 2, Not Used, Digital Channel 0 (D11), Digital Channel 1 (D12), Digital Channel 2 (D13), Digital Channel 3 (D17), Not Used, Digital Channel 4 (D18), Analog Channel 0, Analog Channel 1, Analog Channel 2, Timestamp, Marker Channel, Timestamp (Formatted)
238.0, -48181.040368204165, -43016.8039222722, -1387.9092202078368, -48758.54238969593, 13383.464620526389, 7451.356345576804, -16624.981656668384, -23688.44582896779, -15464.412029315476, -30254.293114458695, -27643.318789400913, -19840.615372731136, -21247.411817003707, -18525.23756328077, -23531.42482416926, -38249.13212646629, 0.0, 0.0, 0.0, 192.0, 0.0, 0.0, 0.0, 0.0, 0.0, 0.0, 0.0, 0.0, 0.0, 1.743528633331199E9, 0.0, 2025-04-01 12:30:33.331
240.0, -48169.95390295433, -43013.764085026276, -1373.0006066561468, -48745.98070931205, 13364.219768550369, 7474.0657179433965, -16594.85150514263, -23643.608229590445, -15465.216692115868, -30265.75955936427, -27640.524821344, -19844.303410566263, -21252.485662995063, -18514.598132920044, -23534.062330014985, -38240.03496647298, -0.006, 0.98, 0.042, 192.0, 127.5, 104.0, 15.0, 80.0, 0.5, 40.0, 0.0, 0.0, 0.0, 1.743528633331523E9, 0.0, 2025-04-01 12:30:33.331
242.0, -48170.33388261007, -43005.20336689989, -1378.0297491585911, -48746.83007560135, 13404.497612058833, 7470.690604530645, -16611.838830928664, -23650.224345949217, -15460.746343224806, -30252.862602813555, -27636.79208001996, -19841.710608209447, -21247.68003793717, -18510.8206881071, -23517.74555656261, -38229.596701812356, -0.006, 0.98, 0.042, 192.0, 0.0, 0.0, 0.0, 0.0, 0.0, 0.0, 0.0, 0.0, 0.0, 1.743528633331838E9, 0.0, 2025-04-01 12:30:33.331
244.0, -48166.48938256376, -43005.76216051128, -1372.1512403668453, -48739.56575865338, 13381.341204803135, 7483.699319803634, -16591.744612663344, -23635.606305075446, -15452.163273353968, -30243.832498053613, -27625.99618744805, -19825.170317312517, -21238.225250032574, -18506.66326363841, -23514.392794894316, -38219.4713615741, -0.006, 0.98, 0.042, 192.0, 0.0, 0.0, 0.0, 0.0, 0.0, 0.0, 0.0, 0.0, 0.0, 1.743528633332155E9, 0.0, 2025-04-01 12:30:33.332
246.0, -48175.60889430153, -43004.93514596643, -1384.3999963283536, -48749.5569884249, 13400.161373634503, 7479.005453468019, -16604.842734914153, -23643.697636568268, -15461.81922695866, -30251.94618129089, -27635.98741721957, -19835.29565755077, -21261.694581710646, -18511.60299916303, -23516.8514867844, -38232.591835569365, -0.006, 0.98, 0.042, 192.0, 0.0, 0.0, 0.0, 0.0, 0.0, 0.0, 0.0, 0.0, 0.0, 1.743528633332447E9, 0.0, 2025-04-01 12:30:33.332
248.0, -48164.99181568525, -42992.32876209364, -1370.161935110323, -48742.87381683276, 13366.74551567382, 7472.165819664696, -16598.025452855283, -23645.30696216905, -15454.934889666427, -30249.75571033427, -27629.885390983272, -19829.59596271467, -21250.697523438637, -18497.40964143391, -23514.102222216396, -38231.94363498016, -0.006, 0.98, 0.042, 192.0, 0.0, 0.0, 0.0, 0.0, 0.0, 0.0, 0.0, 0.0, 0.0, 1.743528633332722E9, 0.0, 2025-04-01 12:30:33.332
250.0, -48165.46120231882, -43008.19850065691, -1374.0734903900018, -48741.24213948753, 13404.095280658637, 7475.093898188341, -16596.796106910242, -23641.44011037828, -15452.453846031887, -30249.46513765635, -27627.650216537742, -19830.802956915257, -21255.614907218805, -18494.28039721017, -23513.02933848254, -38236.57044608241, -0.004, 0.982, 0.042, 192.0, 127.5, 112.0, 15.0, 88.0, 0.5, 40.0, 0.0, 0.0, 0.0, 1.743528633333015E9, 0.0, 2025-04-01 12:30:33.333
252.0, -48143.62354798598, -42982.78456721122, -1341.328184762977, -48712.006057739985, 13374.434515766445, 7488.214372183606, -16585.70964166041, -23625.972703215208, -15443.490796505308, -30243.720739331337, -27617.256655366025, -19824.6785789345, -21238.359360499308, -18495.219170477292, -23503.976881978142, -38220.074858674394, -0.004, 0.982, 0.042, 192.0, 0.0, 0.0, 0.0, 0.0, 0.0, 0.0, 0.0, 0.0, 0.0, 1.743528633333318E9, 0.0, 2025-04-01 12:30:33.333
254.0, -48185.1754409284, -43012.04300070322, -1387.0375021740797, -48750.451058203114, 13407.64920802703, 7464.610930038802, -16612.039996628762, -23667.144616501882, -15445.614212228564, -30232.388404892496, -27620.676472267685, -19817.86129687563, -21249.82580540488, -18504.629254892978, -23506.346166890406, -38226.780382010984, -0.004, 0.982, 0.042, 192.0, 0.0, 0.0, 0.0, 0.0, 0.0, 0.0, 0.0, 0.0, 0.0, 1.743528633333609E9, 0.0, 2025-04-01 12:30:33.333
0.0, -24092.699479186474, -21498.35485200344, -687.0479210672285, -24364.228470829545, 6724.701133334772, 3753.953129524366, -8281.12015499117, -11765.220673706614, -7732.585994313478, -15128.197089218747, -13819.614210082795, -9917.67018051984, -10628.701523387614, -9251.275271329318, -11768.148752230258, -19116.418852379185, -0.004, 0.982, 0.042, 192.0, 127.5, 112.0, 15.0, 88.0, 0.5, 40.0, 0.0, 0.0, 0.0, 1.743528633494112E9, 0.0, 2025-04-01 12:30:33.494
2.0, -48163.29308310665, -42981.801090455185, -1361.4671065172085, -48716.677572331144, 13452.41975217101, 7515.192927741162, -16553.925461044964, -23539.247934728617, -15573.197969579456, -30289.720629420357, -27584.153721827715, -19807.40068047055, -21182.05531621639, -18439.429216316847, -23512.13526870433, -38206.015611412, -0.004, 0.982, 0.042, 192.0, 0.0, 0.0, 0.0, 0.0, 0.0, 0.0, 0.0, 0.0, 0.0, 1.743528633494462E9, 0.0, 2025-04-01 12:30:33.494
4.0, -48169.10453666503, -42972.94979965089, -1363.0093768846248, -48721.103217733296, 13494.262217791345, 7501.938343279165, -16558.731086102856, -23577.156493324816, -15568.392344521564, -30282.43396072793, -27582.007954360004, -19801.857447845632, -21176.847359758303, -18426.375797554945, -23507.17318143525, -38210.709477747616, -0.004, 0.982, 0.042, 192.0, 0.0, 0.0, 0.0, 0.0, 0.0, 0.0, 0.0, 0.0, 0.0, 1.743528633494801E9, 0.0, 2025-04-01 12:30:33.494
6.0, -48165.08122266307, -42972.68157871742, -1355.096859347446, -48711.13433970622, 13459.505255163343, 7521.272602233005, -16548.56104237569, -23550.51321393409, -15562.55853921873, -30281.897518861, -27573.98367810055, -19793.095564019153, -21168.554862565383, -18421.525469008146, -23501.741707532612, -38203.735733477566, -0.004, 0.982, 0.042, 192.0, 0.0, 0.0, 0.0, 0.0, 0.0, 0.0, 0.0, 0.0, 0.0, 1.743528633495078E9, 0.0, 2025-04-01 12:30:33.495
8.0, -48172.16672565541, -42979.588267754116, -1366.4962490196526, -48724.16540672367, 13496.475040492422, 7507.839203815366, -16568.47644668537, -23567.075856575473, -15569.621690466607, -30284.42326598445, -27583.147893327226, -19800.96337806742, -21176.936766736122, -18425.012341143174, -23508.98367273613, -38207.84845445734, -0.008, 0.984, 0.042, 192.0, 127.5, 96.0, 15.0, 96.0, 0.5, 40.0, 0.0, 0.0, 0.0, 1.743528633495366E9, 0.0, 2025-04-01 12:30:33.495
10.0, -48165.640016274454, -42972.14513685049, -1348.614853455407, -48704.74174079201, 13443.635516600076, 7525.005343557042, -16547.84578655312, -23546.355789465404, -15571.052202111747, -30278.90238510399, -27578.811654902896, -19796.850657087645, -21165.269156130453, -18426.085224877028, -23508.8495622694, -38200.27121308699, -0.008, 0.984, 0.042, 192.0, 0.0, 0.0, 0.0, 0.0, 0.0, 0.0, 0.0, 0.0, 0.0, 1.74352863349569E9, 0.0, 2025-04-01 12:30:33.495
12.0, -48176.39120535746, -42977.53190726422, -1368.7537752096387, -48719.8515200438, 13492.787002657296, 7517.115177764318, -16562.37442044907, -23556.101150047918, -15568.459399754931, -30266.832443098123, -27572.731980411052, -19785.38421218207, -21165.09034217481, -18410.93074213633, -23495.88555048532, -38190.436445526655, -0.008, 0.984, 0.042, 192.0, 0.0, 0.0, 0.0, 0.0, 0.0, 0.0, 0.0, 0.0, 0.0, 1.743528633495979E9, 0.0, 2025-04-01 12:30:33.495
14.0, -48185.75658628423, -42990.78649172622, -1376.0404439020688, -48730.937985293625, 13434.18072869548, 7491.991816996553, -16567.448266440424, -23591.171037098295, -15586.564312763729, -30294.347440522608, -27592.669736465185, -19806.841886859165, -21191.1524762097, -18424.721768465253, -23517.723204818154, -38213.70461150463, -0.008, 0.984, 0.042, 192.0, 0.0, 0.0, 0.0, 0.0, 0.0, 0.0, 0.0, 0.0, 0.0, 1.743528633496248E9, 0.0, 2025-04-01 12:30:33.496
16.0, -48179.855725748035, -42981.48816603282, -1372.1959438557558, -48727.227595714045, 13489.702461922463, 7509.739102094067, -16553.701943600412, -23561.152644294816, -15582.250426083856, -30293.676888188947, -27593.094419609835, -19810.529924694292, -21189.23022618654, -18436.03175115964, -23512.73876580462, -38211.38003008128, -0.008, 0.984, 0.042, 192.0, 0.0, 0.0, 0.0, 0.0, 0.0, 0.0, 0.0, 0.0, 0.0, 1.743528633554286E9, 0.0, 2025-04-01 12:30:33.554
18.0, -48181.666217048914, -42978.4930322758, -1370.8101356995269, -48718.17513920965, 13449.581080625187, 7517.875137075799, -16553.27726045576, -23547.451024943715, -15580.305824316243, -30288.737152664326, -27591.306280053414, -19806.752479881347, -21185.76570579597, -18432.142547624415, -23504.334509889428, -38196.80669269642, -0.01, 0.976, 0.044, 192.0, 127.5, 88.0, 15.0, 64.0, 0.5, 48.0, 0.0, 0.0, 0.0, 1.743528633554619E9, 0.0, 2025-04-01 12:30:33.554
20.0, -48180.83920250407, -42986.87493644654, -1375.839278201971, -48724.00894451248, 13496.542095725787, 7521.943154566665, -16551.57852787716, -23556.77170238158, -15580.059955127235, -30283.61860318406, -27588.847588163328, -19797.990596054864, -21192.046545987912, -18424.297085320602, -23503.149867433294, -38196.15849210721, -0.01, 0.976, 0.044, 192.0, 0.0, 0.0, 0.0, 0.0, 0.0, 0.0, 0.0, 0.0, 0.0, 1.743528633554937E9, 0.0, 2025-04-01 12:30:33.554
22.0, -48180.19100191486, -42988.730131236334, -1370.5866182549737, -48721.88552878923, 13443.724923577896, 7511.996628284053, -16553.009039522298, -23580.173978826282, -15585.98316740789, -30298.90719639149, -27592.55797774291, -19809.63585491608, -21186.704479063093, -18424.542954509612, -23510.771812292554, -38201.969945665594, -0.01, 0.976, 0.044, 192.0, 0.0, 0.0, 0.0, 0.0, 0.0, 0.0, 0.0, 0.0, 0.0, 1.743528633555236E9, 0.0, 2025-04-01 12:30:33.555
24.0, -48182.649693804946, -42982.00225615528, -1371.4583362887308, -48725.05947650188, 13487.847267132673, 7524.021866801008, -16545.700019085412, -23538.555030650503, -15582.116315617122, -30298.41545801347, -27587.730000940563, -19810.86520086112, -21183.776400539446, -18420.18436434083, -23501.920521488253, -38195.71145721811, -0.01, 0.976, 0.044, 192.0, 0.0, 0.0, 0.0, 0.0, 0.0, 0.0, 0.0, 0.0, 0.0, 1.743528633555522E9, 0.0, 2025-04-01 12:30:33.555
26.0, -48184.884868250476, -43003.482282576835, -1371.7489089666497, -48721.21497645557, 13450.251632958847, 7523.8430528453655, -16553.053743011205, -23547.831004599455, -15590.94525467697, -30295.979117867842, -27595.664870222197, -19815.246142774362, -21196.24867394551, -18427.98512315573, -23504.51332384507, -38196.29260257394, -0.01, 0.976, 0.044, 192.0, 0.0, 0.0, 0.0, 0.0, 0.0, 0.0, 0.0, 0.0, 0.0, 1.743528633555834E9, 0.0, 2025-04-01 12:30:33.555
28.0, -48180.414519359416, -42987.612544013566, -1360.7294989501834, -48716.85638628678, 13490.775345656319, 7525.810006357433, -16545.901184785507, -23553.41894071328, -15577.578911492696, -30295.845007401113, -27583.17024507168, -19806.037224058775, -21178.032002214433, -18425.92876266584, -23497.807800508475, -38186.32372454688, -0.01, 0.974, 0.048, 192.0, 127.5, 88.0, 15.0, 56.0, 0.5, 64.0, 0.0, 0.0, 0.0, 1.743528633556042E9, 0.0, 2025-04-01 12:30:33.556
30.0, -48191.9256677539, -43004.62222154406, -1370.7207287217057, -48728.300479447906, 13456.3760109396, 7503.815889813411, -16573.013850809795, -23590.65694697582, -15585.737298218883, -30298.817789413668, -27591.619204475788, -19816.944875352965, -21186.972699996557, -18433.282486591637, -23501.719355788155, -38205.121541633795, -0.01, 0.974, 0.048, 192.0, 0.0, 0.0, 0.0, 0.0, 0.0, 0.0, 0.0, 0.0, 0.0, 1.743528633614571E9, 0.0, 2025-04-01 12:30:33.614
32.0, -48193.31147591013, -43010.03134370224, -1376.5768857689961, -48725.23829045753, 13480.135915295592, 7520.356180710338, -16570.599862408624, -23555.005914569607, -15592.129897133102, -30309.636033730036, -27595.530759755464, -19819.73884340988, -21196.405136156696, -18445.553594297602, -23513.834001282932, -38207.2673091015, -0.01, 0.974, 0.048, 192.0, 0.0, 0.0, 0.0, 0.0, 0.0, 0.0, 0.0, 0.0, 0.0, 1.743528633614827E9, 0.0, 2025-04-01 12:30:33.614
34.0, -48191.232763675784, -43012.73590478133, -1374.1181938789123, -48718.8009880544, 13459.66171737453, 7523.574831911902, -16565.816589095186, -23550.244993000626, -15595.303844845754, -30306.171513339465, -27601.252806336022, -19817.458965475438, -21207.066918261877, -18444.279544863646, -23514.437498383224, -38203.48986428855, -0.01, 0.974, 0.048, 192.0, 0.0, 0.0, 0.0, 0.0, 0.0, 0.0, 0.0, 0.0, 0.0, 1.743528633615026E9, 0.0, 2025-04-01 12:30:33.615
36.0, -48184.92957173939, -42996.7991109847, -1362.6964524622504, -48713.92830776314, 13474.056240803748, 7533.096675049863, -16553.053743011205, -23545.104091775906, -15583.144495862067, -30296.42615275695, -27589.652250963718, -19805.411375214026, -21192.739450066027, -18428.253344089193, -23505.250931412094, -38190.77172169348, -0.01, 0.974, 0.048, 192.0, 0.0, 0.0, 0.0, 0.0, 0.0, 0.0, 0.0, 0.0, 0.0, 1.743528633615217E9, 0.0, 2025-04-01 12:30:33.615
38.0, -48186.2259729178, -42999.05663717468, -1360.9753681391917, -48719.80681655488, 13476.76080188284, 7525.385323212782, -16558.194644235926, -23555.47530120317, -15584.03856564028, -30298.951899880398, -27587.975870129572, -19809.971131082908, -21202.261293203985, -18400.850105386988, -23494.969128962653, -38192.805730438915, -0.012, 0.982, 0.046, 192.0, 127.5, 80.0, 15.0, 88.0, 0.5, 56.0, 0.0, 0.0, 0.0, 1.743528633615413E9, 0.0, 2025-04-01 12:30:33.615
40.0, -48179.073414692095, -42987.16550912446, -1361.355347794932, -48714.576508352344, 13464.176769754502, 7525.541785423969, -16553.076094755663, -23572.037943844553, -15582.809219695238, -30302.57288248216, -27585.114846839293, -19814.419128229514, -21186.168037196167, -18452.057951934094, -23499.774754020546, -38195.331477562366, -0.012, 0.982, 0.046, 192.0, 0.0, 0.0, 0.0, 0.0, 0.0, 0.0, 0.0, 0.0, 0.0, 1.743528633615621E9, 0.0, 2025-04-01 12:30:33.615
42.0, -48193.64675207696, -43004.51046282178, -1374.4534700457418, -48720.83499679983, 13475.531455937798, 7516.86930857531, -16567.47061818488, -23574.85426364592, -15586.877237186103, -30294.28038528924, -27591.41803877569, -19807.914770593023, -21199.400269913705, -18418.798556184596, -23502.88164649983, -38201.88053868777, -0.012, 0.982, 0.046, 192.0, 0.0, 0.0, 0.0, 0.0, 0.0, 0.0, 0.0, 0.0, 0.0, 1.743528633615816E9, 0.0, 2025-04-01 12:30:33.615
44.0, -48194.42906313289, -43007.550300067705, -1375.2804845905882, -48720.72323807755, 13455.750162094851, 7517.405750442237, -16574.265548499294, -23551.876670345864, -15591.481696543897, -30292.67105968846, -27594.88255916626, -19808.63002641559, -21209.033871773943, -18454.673106035367, -23511.68823381522, -38195.4655880291, -0.012, 0.982, 0.046, 192.0, 0.0, 0.0, 0.0, 0.0, 0.0, 0.0, 0.0, 0.0, 0.0, 1.743528633616008E9, 0.0, 2025-04-01 12:30:33.616
46.0, -48189.48932760827, -43003.37052385456, -1372.4641647892195, -48718.89039503222, 13487.534342710298, 7527.285221491483, -16566.822417595675, -23547.31691447698, -15591.079365143702, -30296.895539390513, -27599.151742357226, -19814.44147997397, -21212.230171231055, -18449.442797832824, -23512.671710571256, -38201.52291077649, -0.012, 0.982, 0.046, 192.0, 0.0, 0.0, 0.0, 0.0, 0.0, 0.0, 0.0, 0.0, 0.0, 1.743528633673969E9, 0.0, 2025-04-01 12:30:33.673
48.0, -48186.762414784724, -42998.855471474584, -1362.5399902510633, -48715.11295021927, 13462.567444153721, 7520.5573464104355, -16558.820493080675, -23554.983562825153, -15585.98316740789, -30299.48834174733, -27589.428733519166, -19815.15673579654, -21208.899761307213, -18438.31162909408, -23510.235370425627, -38194.146835106236, -0.012, 0.98, 0.048, 192.0, 127.5, 80.0, 15.0, 80.0, 0.5, 64.0, 0.0, 0.0, 0.0, 1.7435286336742E9, 0.0, 2025-04-01 12:30:33.674
50.0, -48180.906257737435, -42998.028456929744, -1359.2989873050437, -48712.430740884636, 13495.648025947576, 7522.881927833788, -16552.830225566653, -23552.927202335264, -15575.65666146954, -30292.76046666628, -27579.102227580814, -19802.192724012464, -21185.72100230706, -18436.814062215577, -23496.287881885517, -38198.348963063836, -0.012, 0.98, 0.048, 192.0, 0.0, 0.0, 0.0, 0.0, 0.0, 0.0, 0.0, 0.0, 0.0, 1.7435286336744E9, 0.0, 2025-04-01 12:30:33.674
52.0, -48173.843106489556, -42976.12374736354, -1354.0239756135913, -48704.40646462518, 13461.628670886597, 7529.58745117038, -16554.886586056542, -23560.795016383534, -15571.342774789666, -30299.443638258417, -27574.676582178665, -19802.30448273474, -21198.72971758005, -18421.59252424151, -23496.75726851908, -38187.0613321139, -0.012, 0.98, 0.048, 192.0, 0.0, 0.0, 0.0, 0.0, 0.0, 0.0, 0.0, 0.0, 0.0, 1.743528633674612E9, 0.0, 2025-04-01 12:30:33.674
54.0, -48192.68562706538, -43000.46479707537, -1373.738214223172, -48719.42683689915, 13482.52755195231, 7518.635096387279, -16575.159618277507, -23567.05350483102, -15573.645004468563, -30295.688545189925, -27582.834968904852, -19798.907017577534, -21206.083441505845, -18404.582846711022, -23501.562893576967, -38199.98064040907, -0.012, 0.98, 0.048, 192.0, 0.0, 0.0, 0.0, 0.0, 0.0, 0.0, 0.0, 0.0, 0.0, 1.743528633674804E9, 0.0, 2025-04-01 12:30:33.674
56.0, -48185.46601360632, -42994.6980470059, -1364.998682141147, -48711.581374595335, 13443.322592177701, 7521.764340611022, -16559.826321581164, -23554.603583169413, -15579.791734193772, -30292.402838754995, -27589.004050374515, -19800.292825733763, -21214.48769742104, -18446.626478031456, -23510.25772217008, -38207.37906782378, -0.012, 0.98, 0.048, 192.0, 0.0, 0.0, 0.0, 0.0, 0.0, 0.0, 0.0, 0.0, 0.0, 1.743528633674995E9, 0.0, 2025-04-01 12:30:33.674
58.0, -48180.749795526244, -42997.62612552955, -1355.3650802809098, -48705.88167975923, 13488.00372934386, 7537.343506496371, -16554.79717907872, -23541.192536496226, -15571.923920145504, -30294.19097831142, -27579.169282814182, -19790.68157561798, -21200.42845015865, -18437.439911060323, -23492.286919628015, -38189.385913537255, -0.014, 0.986, 0.042, 192.0, 127.5, 72.0, 15.0, 104.0, 0.5, 40.0, 0.0, 0.0, 0.0, 1.743528633675189E9, 0.0, 2025-04-01 12:30:33.675
60.0, -48168.7692604982, -42984.08096838963, -1349.285405789066, -48701.523089590446, 13449.268156202812, 7524.759474368033, -16565.391905950535, -23582.766781183098, -15569.55463523324, -30297.342574279617, -27573.670753678176, -19790.39100294006, -21197.232150701544, -18408.293236290603, -23495.147942918295, -38191.79990193843, -0.014, 0.986, 0.042, 192.0, 0.0, 0.0, 0.0, 0.0, 0.0, 0.0, 0.0, 0.0, 0.0, 1.743528633733792E9, 0.0, 2025-04-01 12:30:33.733
62.0, -48182.8732112495, -42994.6980470059, -1363.8810949183817, -48708.60859258278, 13501.325369039223, 7529.118064536819, -16563.156731505005, -23549.32857147796, -15559.473998483898, -30289.56416720917, -27567.434616975144, -19787.30646220523, -21191.1524762097, -18432.209602857783, -23485.40258233578, -38182.56863147839, -0.014, 0.986, 0.042, 192.0, 0.0, 0.0, 0.0, 0.0, 0.0, 0.0, 0.0, 0.0, 0.0, 1.743528633734021E9, 0.0, 2025-04-01 12:30:33.734
64.0, -48185.53306883968, -42989.11011089207, -1357.3096820485214, -48703.91472624716, 13444.350772422646, 7523.9548115676425, -16561.055667526205, -23548.56861216648, -15578.338870804177, -30304.830408672144, -27586.4112480177, -19801.768040867813, -21218.421604445175, -18430.868498190463, -23504.468620356158, -38195.197367095636, -0.014, 0.986, 0.042, 192.0, 0.0, 0.0, 0.0, 0.0, 0.0, 0.0, 0.0, 0.0, 0.0, 1.743528633734225E9, 0.0, 2025-04-01 12:30:33.734
66.0, -48180.749795526244, -42995.18978538392, -1354.9403971362588, -48702.21599366856, 13496.832668403706, 7537.1646925407285, -16561.525054159767, -23544.679408631255, -15571.32042304521, -30297.074353346154, -27569.803901887408, -19791.419183185004, -21200.316691436376, -18429.39328305641, -23486.944852703196, -38178.70177968762, -0.014, 0.986, 0.042, 192.0, 0.0, 0.0, 0.0, 0.0, 0.0, 0.0, 0.0, 0.0, 0.0, 1.743528633734415E9, 0.0, 2025-04-01 12:30:33.734
68.0, -48179.431042603384, -42998.34138135212, -1353.8228099134935, -48700.20433666758, 13453.04560101576, 7529.386285470282, -16555.020696523272, -23550.42380695627, -15578.629443482096, -30313.502885520804, -27575.54830021242, -19796.671843132, -21218.82393584537, -18434.668294747866, -23496.421992352247, -38189.676486215176, -0.016, 0.986, 0.038, 192.0, 127.5, 64.0, 15.0, 104.0, 0.5, 24.0, 0.0, 0.0, 0.0, 1.743528633734632E9, 0.0, 2025-04-01 12:30:33.734
70.0, -48179.18517341437, -42994.45217781689, -1354.4039552693314, -48700.00317096748, 13507.3379882977, 7537.6340791742905, -16556.987650035342, -23550.580269167458, -15567.677088698994, -30301.924681892957, -27566.473491963567, -19786.412392427017, -21208.58683688484, -18412.808288670574, -23485.78256199152, -38178.835890154354, -0.016, 0.986, 0.038, 192.0, 0.0, 0.0, 0.0, 0.0, 0.0, 0.0, 0.0, 0.0, 0.0, 1.74352863373484E9, 0.0, 2025-04-01 12:30:33.734
72.0, -48169.86449597651, -42983.0974916336, -1342.6916411747507, -48685.60864753827, 13469.205912256946, 7537.119989051818, -16549.164539475983, -23535.55989689349, -15570.582815478185, -30294.19097831142, -27570.988544343538, -19789.318119206207, -21201.456630403594, -18431.427291801847, -23485.424934080238, -38181.09341634434, -0.016, 0.986, 0.038, 192.0, 0.0, 0.0, 0.0, 0.0, 0.0, 0.0, 0.0, 0.0, 0.0, 1.743528633735024E9, 0.0, 2025-04-01 12:30:33.735
74.0, -48178.022882702695, -42984.326837578636, -1351.3417662789543, -48705.9487349926, 13512.702406966973, 7528.425160458703, -16569.772847863776, -23568.84164438744, -15559.764571161817, -30292.8498736441, -27560.639686660732, -19783.640776114557, -21193.745278566515, -18409.388471768914, -23477.42300956524, -38171.0574830839, -0.016, 0.986, 0.038, 192.0, 0.0, 0.0, 0.0, 0.0, 0.0, 0.0, 0.0, 0.0, 0.0, 1.743528633735232E9, 0.0, 2025-04-01 12:30:33.735
76.0, -48169.32805410958, -42998.43078832993, -1338.578920194974, -48696.493947088, 13474.100944292659, 7530.839148859876, -16560.65333612601, -23557.79988262652, -15577.89183591507, -30314.821638443667, -27576.285907779446, -19808.92059909351, -21208.072746762366, -18429.102710378495, -23496.645509796803, -38197.924279919185, -0.016, 0.986, 0.038, 192.0, 0.0, 0.0, 0.0, 0.0, 0.0, 0.0, 0.0, 0.0, 0.0, 1.743528633794093E9, 0.0, 2025-04-01 12:30:33.794
78.0, -48197.13362421199, -43018.21208217288, -1367.546781009052, -48723.29368868991, 13489.590703200187, 7519.529166165491, -16577.014813067297, -23570.27215603258, -15576.46132426993, -30311.491228519826, -27571.994372844027, -19805.21020951393, -21212.230171231055, -18421.100785863495, -23494.589149306914, -38190.27998331547, -0.012, 0.99, 0.04, 192.0, 127.5, 80.0, 15.0, 120.0, 0.5, 32.0, 0.0, 0.0, 0.0, 1.743528633794314E9, 0.0, 2025-04-01 12:30:33.794
80.0, -48188.46114736333, -43012.84766350361, -1367.4350222867754, -48715.15765370818, 13448.150568980047, 7520.311477221428, -16578.646490412535, -23557.777530882067, -15591.36993782162, -30322.823562958667, -27586.50065499552, -19816.16256429703, -21232.592610429838, -18432.231954602237, -23515.42097513926, -38203.9145474332, -0.012, 0.99, 0.04, 192.0, 0.0, 0.0, 0.0, 0.0, 0.0, 0.0, 0.0, 0.0, 0.0, 1.74352863379453E9, 0.0, 2025-04-01 12:30:33.794
82.0, -48188.61760957451, -43010.7018960359, -1363.903446662837, -48718.68922933212, 13484.583912442198, 7524.468901690114, -16571.51628393129, -23548.970943566674, -15585.98316740789, -30314.32990006565, -27582.902024138217, -19812.899209606556, -21228.077558049867, -18423.69358822031, -23510.7494605481, -38199.533605519966, -0.012, 0.99, 0.04, 192.0, 0.0, 0.0, 0.0, 0.0, 0.0, 0.0, 0.0, 0.0, 0.0, 1.743528633794728E9, 0.0, 2025-04-01 12:30:33.794
84.0, -48192.10448170954, -43012.24416640332, -1368.485554276175, -48723.517206134464, 13464.3779354546, 7512.443663173159, -16572.589167665144, -23571.412094999803, -15588.352452320154, -30320.38722281304, -27585.941861384137, -19823.8292126452, -21218.175735256165, -18411.73540493672, -23499.953567976187, -38196.94080316315, -0.012, 0.99, 0.04, 192.0, 0.0, 0.0, 0.0, 0.0, 0.0, 0.0, 0.0, 0.0, 0.0, 1.743528633794922E9, 0.0, 2025-04-01 12:30:33.794
86.0, -48191.098653209054, -43016.334535638634, -1365.3339583079767, -48723.07017124536, 13469.876464590605, 7510.029674771986, -16574.37730722157, -23572.060295589006, -15595.952045434959, -30331.741908996333, -27590.54632074193, -19827.249029546863, -21227.25054350502, -18459.41167585989, -23508.536637847024, -38205.83679745636, -0.012, 0.99, 0.04, 192.0, 0.0, 0.0, 0.0, 0.0, 0.0, 0.0, 0.0, 0.0, 0.0, 1.743528633795114E9, 0.0, 2025-04-01 12:30:33.795
88.0, -48183.74492928325, -43000.8000732422, -1356.3262052924879, -48707.58041233783, 13474.771496626317, 7520.982029555086, -16573.50558918781, -23555.452949458715, -15592.353414577654, -30325.461068804394, -27588.065277107395, -19817.30250326425, -21220.500316679518, -18444.860690219484, -23501.361727876872, -38197.70076247463, -0.014, 0.986, 0.036000000000000004, 192.0, 127.5, 72.0, 15.0, 104.0, 0.5, 16.0, 0.0, 0.0, 0.0, 1.74352863379531E9, 0.0, 2025-04-01 12:30:33.795
90.0, -48185.667179306416, -43003.772855254756, -1354.9851006251695, -48708.139205949214, 13480.71706065143, 7536.6953059071675, -16550.46094065439, -23535.336379448938, -15572.1250858456, -30309.81484768568, -27567.769893141973, -19796.336566965172, -21212.47604042006, -18419.35734979598, -23484.41910557975, -38178.00887560951, -0.014, 0.986, 0.036000000000000004, 192.0, 0.0, 0.0, 0.0, 0.0, 0.0, 0.0, 0.0, 0.0, 0.0, 1.743528633854357E9, 0.0, 2025-04-01 12:30:33.854
92.0, -48192.238592176276, -43006.25389888929, -1372.9111996783256, -48722.51137763398, 13491.825877645717, 7521.205546999639, -16581.75338289182, -23569.95923161021, -15583.613882495629, -30310.351289552607, -27581.49386423753, -19805.67959614749, -21234.000770330524, -18419.044425373606, -23497.852503997387, -38193.61039323931, -0.014, 0.986, 0.036000000000000004, 192.0, 0.0, 0.0, 0.0, 0.0, 0.0, 0.0, 0.0, 0.0, 0.0, 1.743528633854619E9, 0.0, 2025-04-01 12:30:33.854
94.0, -48190.964542742324, -43003.88461397703, -1367.680891475784, -48720.74558982201, 13463.61797614312, 7523.887756334277, -16564.341373961135, -23564.728923407667, -15587.346623819665, -30320.342519324127, -27584.55605322791, -19807.892418848565, -21231.76559588499, -18410.841335158508, -23514.03516698303, -38200.94176542065, -0.014, 0.986, 0.036000000000000004, 192.0, 0.0, 0.0, 0.0, 0.0, 0.0, 0.0, 0.0, 0.0, 0.0, 1.743528633854819E9, 0.0, 2025-04-01 12:30:33.854
96.0, -48193.73615905478, -43008.17614891245, -1372.1065368779346, -48723.09252298981, 13484.248636275368, 7518.813910342921, -16570.912786831, -23563.52192920708, -15590.140591876578, -30323.158839125495, -27586.567710228886, -19810.887552605578, -21228.92692433917, -18449.12987341045, -23506.502629101593, -38209.63659401376, -0.014, 0.986, 0.036000000000000004, 192.0, 0.0, 0.0, 0.0, 0.0, 0.0, 0.0, 0.0, 0.0, 0.0, 1.743528633855024E9, 0.0, 2025-04-01 12:30:33.855
98.0, -48171.67498727739, -42979.81178519867, -1345.5973679539404, -48698.72912153353, 13468.66947039002, 7545.524244967013, -16552.494949399825, -23533.637646870335, -15572.080382356691, -30311.67004247547, -27566.294678007926, -19792.53677040777, -21221.416738202184, -18408.673215946343, -23492.912768472765, -38183.596811723335, -0.01, 0.986, 0.038, 192.0, 127.5, 88.0, 15.0, 104.0, 0.5, 24.0, 0.0, 0.0, 0.0, 1.743528633855221E9, 0.0, 2025-04-01 12:30:33.855
100.0, -48189.1764031859, -42999.25780287478, -1369.5360862655743, -48716.677572331144, 13495.648025947576, 7532.53788143848, -16566.643603640034, -23555.22943201416, -15574.472019013408, -30314.262844832283, -27568.149872797716, -19795.800125098245, -21223.920133581178, -18425.16880335436, -23491.079925427428, -38185.11673034629, -0.01, 0.986, 0.038, 192.0, 0.0, 0.0, 0.0, 0.0, 0.0, 0.0, 0.0, 0.0, 0.0, 1.743528633855418E9, 0.0, 2025-04-01 12:30:33.855
102.0, -48170.825620988086, -42997.26849761826, -1348.3689842663985, -48705.993438481506, 13458.454723173943, 7532.314363993927, -16562.866158827088, -23565.75710365261, -15572.259196312332, -30315.11221112159, -27566.02645707446, -19801.87979959009, -21235.811261631403, -18417.21158232827, -23501.60759706588, -38191.08464611586, -0.01, 0.986, 0.038, 192.0, 0.0, 0.0, 0.0, 0.0, 0.0, 0.0, 0.0, 0.0, 0.0, 1.743528633855613E9, 0.0, 2025-04-01 12:30:33.855
104.0, -48191.14335669796, -43020.17903568495, -1365.6468827303509, -48728.54634863691, 13505.661607463553, 7516.601087641846, -16593.577455708677, -23578.430542758768, -15578.920016160015, -30314.888693677032, -27565.06533206288, -19803.802049613245, -21209.503258407505, -18408.717919435254, -23490.387021349314, -38196.02438164048, -0.01, 0.986, 0.038, 192.0, 0.0, 0.0, 0.0, 0.0, 0.0, 0.0, 0.0, 0.0, 0.0, 1.743528633855806E9, 0.0, 2025-04-01 12:30:33.855
106.0, -48166.33292035257, -43006.81269250068, -1347.3408040214545, -48708.563889093864, 13462.031002286792, 7509.381474182782, -16580.76990613579, -23588.734696952666, -15585.55848426324, -30330.736080495844, -27574.184843800645, -19815.916695108022, -21220.880296335257, -18465.89368175193, -23508.536637847024, -38208.00491666853, -0.011, 0.986, 0.037000000000000005, 192.0, 127.5, 80.0, 15.0, 104.0, 0.5, 16.0, 0.0, 0.0, 0.0, 1.743528633914659E9, 0.0, 2025-04-01 12:30:33.914
108.0, -48196.88775502297, -43028.583291600145, -1376.3310165799876, -48737.28588071893, 13513.39531104509, 7512.555421895436, -16583.519170703792, -23575.8153886575, -15578.495333015364, -30315.33572856614, -27570.541509454433, -19808.80884037123, -21218.86863933428, -18445.330076853046, -23495.03618419602, -38208.407248068725, -0.011, 0.986, 0.037000000000000005, 192.0, 0.0, 0.0, 0.0, 0.0, 0.0, 0.0, 0.0, 0.0, 0.0, 1.743528633914915E9, 0.0, 2025-04-01 12:30:33.914
110.0, -48180.414519359416, -43014.591099571124, -1360.0142431276136, -48718.421008398655, 13452.129179493091, 7533.230785516595, -16563.827283838666, -23542.488937674636, -15593.672167500517, -30341.107289923108, -27584.332535783356, -19823.40452950055, -21231.117395295787, -18447.07351292056, -23509.989501236618, -38203.512216033014, -0.011, 0.986, 0.037000000000000005, 192.0, 0.0, 0.0, 0.0, 0.0, 0.0, 0.0, 0.0, 0.0, 0.0, 1.743528633915113E9, 0.0, 2025-04-01 12:30:33.915
112.0, -48197.334789912085, -43031.46666663488, -1383.2600573611328, -48740.102200520305, 13497.682034693007, 7528.425160458703, -16568.6105571521, -23559.744484394134, -15592.219304110922, -30342.403691101517, -27585.137198583747, -19828.277209791806, -21238.180546543666, -18435.137681381428, -23507.329643646437, -38199.667715986696, -0.011, 0.986, 0.037000000000000005, 192.0, 0.0, 0.0, 0.0, 0.0, 0.0, 0.0, 0.0, 0.0, 0.0, 1.743528633915323E9, 0.0, 2025-04-01 12:30:33.915
114.0, -48186.628304317994, -43010.478378591346, -1363.6352257293734, -48717.102255475795, 13447.725885835396, 7522.189023755673, -16567.694135629434, -23556.458777959204, -15589.939426176481, -30334.04413867523, -27576.956460113106, -19819.78354689879, -21231.944409840635, -18431.002608657196, -23504.80389652299, -38200.919413676194, -0.011, 0.986, 0.037000000000000005, 192.0, 0.0, 0.0, 0.0, 0.0, 0.0, 0.0, 0.0, 0.0, 0.0, 1.743528633915522E9, 0.0, 2025-04-01 12:30:33.915
116.0, -48193.15501369894, -43025.6552130765, -1373.8499729454486, -48722.131397978235, 13496.922075381528, 7518.9703725541085, -16581.19458928044, -23569.556900210013, -15585.714946474427, -30317.034461144744, -27573.335477511344, -19804.53965718027, -21226.24471500453, -18442.424350073856, -23504.55802733398, -38199.15362586422, -0.0115, 0.984, 0.035500000000000004, 192.0, 127.5, 80.0, 15.0, 88.0, 0.5, 8.0, 0.0, 0.0, 0.0, 1.743528633915712E9, 0.0, 2025-04-01 12:30:33.915
118.0, -48200.10640622454, -43031.243149190326, -1376.3980718133537, -48729.820398070864, 13439.455740386933, 7498.29500893295, -16593.376290008582, -23587.43829577426, -15598.455440813952, -30333.9100282085, -27589.31697479689, -19816.721357908413, -21254.49731999604, -18459.143454926427, -23522.774699065056, -38217.86203597332, -0.0115, 0.984, 0.035500000000000004, 192.0, 0.0, 0.0, 0.0, 0.0, 0.0, 0.0, 0.0, 0.0, 0.0, 1.743528633915931E9, 0.0, 2025-04-01 12:30:33.915
120.0, -48188.997589230254, -43011.81948325867, -1367.2115048422224, -48725.5512148799, 13488.651929933063, 7514.947058552153, -16587.94481610594, -23569.53454846556, -15594.789754723282, -30344.080071935663, -27588.73582944105, -19820.54350621027, -21248.35059027083, -18457.7576467702, -23522.439422898224, -38216.096248161346, -0.0115, 0.984, 0.035500000000000004, 192.0, 0.0, 0.0, 0.0, 0.0, 0.0, 0.0, 0.0, 0.0, 0.0, 1.743528633974943E9, 0.0, 2025-04-01 12:30:33.974
122.0, -48176.570019313105, -43000.688314519924, -1356.7508884371387, -48715.0458949859, 13453.112656249126, 7526.34644822436, -16567.112990273596, -23558.60454542691, -15570.60516722264, -30308.09376336262, -27567.904003608706, -19796.805953598734, -21225.082424292854, -18428.052178389094, -23503.08281219993, -38198.90775667522, -0.0115, 0.984, 0.035500000000000004, 192.0, 0.0, 0.0, 0.0, 0.0, 0.0, 0.0, 0.0, 0.0, 0.0, 1.743528633975179E9, 0.0, 2025-04-01 12:30:33.975
124.0, -48186.4718421068, -43009.204329157394, -1370.161935110323, -48728.18872072562, 13497.436165504, 7517.696323120156, -16578.646490412535, -23571.412094999803, -15570.314594544721, -30315.04515588822, -27567.635782675243, -19799.622273400102, -21237.062959320898, -18422.21837308626, -23499.774754020546, -38198.30425957492, -0.0115, 0.984, 0.035500000000000004, 192.0, 0.0, 0.0, 0.0, 0.0, 0.0, 0.0, 0.0, 0.0, 0.0, 1.743528633975388E9, 0.0, 2025-04-01 12:30:33.975
126.0, -48178.380510613984, -43010.545433824715, -1355.1862663252673, -48716.6999240756, 13457.650060373553, 7512.309552706427, -16579.94289159094, -23571.255632788616, -15583.23390283989, -30328.90323745051, -27581.627974704264, -19818.084814320187, -21236.77238664298, -18431.382588312936, -23515.26451292807, -38218.957271451625, -0.00875, 0.983, 0.037750000000000006, 192.0, 127.5, 104.0, 15.0, 88.0, 0.5, 32.0, 0.0, 0.0, 0.0, 1.74352863397559E9, 0.0, 2025-04-01 12:30:33.975
128.0, -48180.72744378179, -43017.8544542616, -1365.0210338856023, -48724.12070323476, 13481.029985073805, 7517.428102186693, -16572.47740894287, -23568.573423453978, -15578.741202204372, -30321.705975735902, -27572.039076332938, -19804.07027054671, -21234.023122074977, -18450.113350166484, -23501.249969154593, -38203.33340207737, -0.00875, 0.983, 0.037750000000000006, 192.0, 0.0, 0.0, 0.0, 0.0, 0.0, 0.0, 0.0, 0.0, 0.0, 1.743528633975802E9, 0.0, 2025-04-01 12:30:33.975
130.0, -48178.89460073646, -43013.0041257148, -1363.255246073633, -48722.53372937843, 13463.126237765104, 7519.6185731433125, -16583.318005003694, -23570.51802522159, -15586.586664508184, -30323.85174320361, -27580.577442714864, -19807.221866514905, -21243.008523346012, -18445.777111742154, -23507.46375411317, -38220.70070751914, -0.00875, 0.983, 0.037750000000000006, 192.0, 0.0, 0.0, 0.0, 0.0, 0.0, 0.0, 0.0, 0.0, 0.0, 1.743528633976001E9, 0.0, 2025-04-01 12:30:33.976
132.0, -48190.49515610876, -43016.759218783285, -1379.6167230149179, -48733.93311905064, 13480.3817844846, 7509.001494527041, -16579.987595079852, -23575.346002023936, -15576.41662078102, -30318.39791755652, -27570.45210247661, -19793.855523330632, -21240.907459367212, -18446.47001582027, -23503.976881978142, -38209.99422192505, -0.00875, 0.983, 0.037750000000000006, 192.0, 0.0, 0.0, 0.0, 0.0, 0.0, 0.0, 0.0, 0.0, 0.0, 1.743528633976189E9, 0.0, 2025-04-01 12:30:33.976
134.0, -48194.36200789953, -43021.94482349692, -1369.1114031209236, -48727.74168583652, 13472.402211714056, 7506.274581703495, -16586.871932372087, -23574.89896713483, -15598.075461158212, -30340.928475967467, -27592.55797774291, -19819.06829107622, -21276.379677817786, -18444.860690219484, -23523.46760314317, -38229.64140530126, -0.00875, 0.983, 0.037750000000000006, 192.0, 0.0, 0.0, 0.0, 0.0, 0.0, 0.0, 0.0, 0.0, 0.0, 1.743528633976398E9, 0.0, 2025-04-01 12:30:33.976
136.0, -48167.9198942089, -42991.814671971166, -1346.2008650542339, -48696.002208709986, 13487.333177010201, 7546.105390322851, -16558.284051213748, -23549.12740577786, -15570.60516722264, -30318.889655934534, -27558.404512215202, -19795.24133148686, -21226.132956282254, -18438.065759905072, -23496.22082665215, -38192.64926822773, -0.0053750000000000004, 0.9824999999999999, 0.03987500000000001, 192.0, 127.5, 120.0, 15.0, 88.0, 0.5, 40.0, 0.0, 0.0, 0.0, 1.743528634034511E9, 0.0, 2025-04-01 12:30:34.034
138.0, -48185.13073743948, -43016.64746006101, -1364.0599088740241, -48712.140168206715, 13492.943464868482, 7531.867329104821, -16558.485216913847, -23558.17986228226, -15581.065783627724, -30315.33572856614, -27572.284945521948, -19805.97016882541, -21237.77821514347, -18449.487501321735, -23494.477390584638, -38193.00689613901, -0.0053750000000000004, 0.9824999999999999, 0.03987500000000001, 192.0, 0.0, 0.0, 0.0, 0.0, 0.0, 0.0, 0.0, 0.0, 0.0, 1.743528634034755E9, 0.0, 2025-04-01 12:30:34.034
140.0, -48192.43975787637, -43024.89525376502, -1369.156106609834, -48722.95841252308, 13485.120354309125, 7521.004381299542, -16570.84573159763, -23578.698763692235, -15592.956911677948, -30332.94890319692, -27580.912718881693, -19818.68831142048, -21240.371017500285, -18450.627440288954, -23501.294672643504, -38201.053524142924, -0.0053750000000000004, 0.9824999999999999, 0.03987500000000001, 192.0, 0.0, 0.0, 0.0, 0.0, 0.0, 0.0, 0.0, 0.0, 0.0, 1.743528634034962E9, 0.0, 2025-04-01 12:30:34.034
142.0, -48196.93245851189, -43028.315070666686, -1374.7663944681162, -48733.396677183715, 13493.412851502044, 7508.15212823774, -16575.293728744236, -23584.219644572695, -15595.37090007912, -30331.786612485244, -27583.79609391643, -19818.084814320187, -21247.277706536974, -18454.31547812408, -23504.31215814497, -38207.982564924074, -0.0053750000000000004, 0.9824999999999999, 0.03987500000000001, 192.0, 0.0, 0.0, 0.0, 0.0, 0.0, 0.0, 0.0, 0.0, 0.0, 1.743528634035163E9, 0.0, 2025-04-01 12:30:34.035
144.0, -48187.58942932957, -43018.5026548508, -1369.446679287753, -48728.61340387027, 13464.71321162143, 7516.891660319765, -16577.081868300662, -23565.980621097162, -15596.510839046341, -30342.783670757257, -27580.800960159417, -19821.750500410857, -21241.578011700873, -18458.78582701514, -23516.002120495097, -38215.44804757214, -0.0053750000000000004, 0.9824999999999999, 0.03987500000000001, 192.0, 0.0, 0.0, 0.0, 0.0, 0.0, 0.0, 0.0, 0.0, 0.0, 1.743528634035355E9, 0.0, 2025-04-01 12:30:34.035
146.0, -48182.80615601614, -43014.389933871025, -1370.7654322106162, -48731.87675856075, 13491.848229390172, 7518.121006264807, -16557.769961091275, -23557.509309948604, -15592.308711088743, -30334.24530437533, -27580.666849692687, -19816.900171864054, -21228.92692433917, -18449.286335621637, -23513.74459430511, -38212.47526555959, -0.004687500000000001, 0.98525, 0.0399375, 192.0, 127.5, 112.0, 15.0, 112.0, 0.5, 32.0, 0.0, 0.0, 0.0, 1.743528634035552E9, 0.0, 2025-04-01 12:30:34.035
148.0, -48168.81396398711, -42995.234488872826, -1364.9763303966918, -48718.48806363202, 13461.181635997491, 7527.240518002573, -16548.02460050876, -23551.764911623588, -15575.276681813799, -30330.266693862286, -27564.59594542932, -19804.91963683601, -21212.67720612016, -18445.397132086415, -23501.205265665685, -38199.84652994234, -0.004687500000000001, 0.98525, 0.0399375, 192.0, 0.0, 0.0, 0.0, 0.0, 0.0, 0.0, 0.0, 0.0, 0.0, 1.74352863403575E9, 0.0, 2025-04-01 12:30:34.035
150.0, -48166.422327330394, -42988.50661379178, -1359.835429171971, -48715.58233685283, 13507.919133653539, 7522.189023755673, -16544.56008011819, -23568.148740309327, -15571.342774789666, -30319.649615246013, -27565.06533206288, -19802.036261801277, -21196.449839645607, -18432.522527280158, -23499.640643553812, -38206.77557072348, -0.004687500000000001, 0.98525, 0.0399375, 192.0, 0.0, 0.0, 0.0, 0.0, 0.0, 0.0, 0.0, 0.0, 0.0, 1.743528634094846E9, 0.0, 2025-04-01 12:30:34.094
152.0, -48184.48253685028, -43004.30929712168, -1373.8946764343593, -48718.62217409875, 13447.569423624209, 7521.272602233005, -16560.698039614923, -23556.883461103855, -15574.51672250232, -30316.252150088807, -27568.731018153554, -19798.16941001051, -21185.475133118052, -18441.239707617726, -23506.770850035056, -38200.87471018729, -0.004687500000000001, 0.98525, 0.0399375, 192.0, 0.0, 0.0, 0.0, 0.0, 0.0, 0.0, 0.0, 0.0, 0.0, 1.743528634095094E9, 0.0, 2025-04-01 12:30:34.095
154.0, -48172.077318677584, -42993.491052805315, -1365.8256966859933, -48721.93023227814, 13500.05131960527, 7520.713808621623, -16546.102350485606, -23562.94078385124, -15575.969585891913, -30318.464972789883, -27573.447236233624, -19796.62713964309, -21184.312842406376, -18431.6508092464, -23503.395736622304, -38201.88053868777, -0.004687500000000001, 0.98525, 0.0399375, 192.0, 0.0, 0.0, 0.0, 0.0, 0.0, 0.0, 0.0, 0.0, 0.0, 1.743528634095297E9, 0.0, 2025-04-01 12:30:34.095
156.0, -48181.44269960436, -43003.68344827693, -1378.2756183475994, -48731.51913064947, 13435.343019407157, 7506.4086921702265, -16549.052780753707, -23562.71726640669, -15588.531266275797, -30328.590313028137, -27586.03126836196, -19811.49104970587, -21180.71421154907, -18442.267887862672, -23513.297559416005, -38209.27896610248, -0.00534375, 0.982625, 0.04096875, 192.0, 127.5, 104.0, 15.0, 80.0, 0.5, 40.0, 0.0, 0.0, 0.0, 1.743528634095508E9, 0.0, 2025-04-01 12:30:34.095
158.0, -48176.10063267954, -42979.990599154306, -1364.6634059743174, -48724.74655207951, 13482.616958930132, 7521.7866923554775, -16529.6514665665, -23546.91458307679, -15582.920978417515, -30314.978100654855, -27582.142064826738, -19805.97016882541, -21175.349792879795, -18401.587712954013, -23503.820419766955, -38199.64536424224, -0.00534375, 0.982625, 0.04096875, 192.0, 0.0, 0.0, 0.0, 0.0, 0.0, 0.0, 0.0, 0.0, 0.0, 1.743528634095711E9, 0.0, 2025-04-01 12:30:34.095
160.0, -48158.57686502658, -42972.39100603951, -1345.3291470204767, -48713.59303159631, 13442.205004954936, 7527.866366847321, -16530.23261192234, -23543.450062686214, -15575.94723414746, -30308.51844650727, -27573.000201344516, -19799.085831533175, -21151.008743167968, -18450.672143777865, -23494.87972198483, -38190.79407343794, -0.00534375, 0.982625, 0.04096875, 192.0, 0.0, 0.0, 0.0, 0.0, 0.0, 0.0, 0.0, 0.0, 0.0, 1.743528634095915E9, 0.0, 2025-04-01 12:30:34.095
162.0, -48165.4164988299, -42971.13930835001, -1362.294121062055, -48727.11583699177, 13493.301092779768, 7533.4095994722375, -16522.387149618524, -23534.688178859735, -15570.56046373373, -30300.494170247817, -27563.992448329027, -19788.647566872547, -21154.89794670319, -18419.78203294063, -23484.6426230243, -38181.94278263364, -0.00534375, 0.982625, 0.04096875, 192.0, 0.0, 0.0, 0.0, 0.0, 0.0, 0.0, 0.0, 0.0, 0.0, 1.743528634096113E9, 0.0, 2025-04-01 12:30:34.096
164.0, -48161.41553657241, -42978.85066018709, -1356.5944262259516, -48721.9525840226, 13443.143778222058, 7531.934384338187, -16517.916800727464, -23538.107995761395, -15592.331062833198, -30314.32990006565, -27582.767913671487, -19801.544523423257, -21165.42561834164, -18433.953038925298, -23506.145001190307, -38197.65605898572, -0.00534375, 0.982625, 0.04096875, 192.0, 0.0, 0.0, 0.0, 0.0, 0.0, 0.0, 0.0, 0.0, 0.0, 1.743528634096311E9, 0.0, 2025-04-01 12:30:34.096
166.0, -48178.022882702695, -42990.36180858157, -1373.9170281788145, -48743.76788661098, 13493.569313713231, 7526.413503457726, -16536.647562581013, -23560.258574516603, -15584.016213895824, -30306.819713928668, -27577.247032791023, -19795.956587309433, -21141.241030841, -18433.282486591637, -23494.812666751466, -38190.36939029329, -0.005671875, 0.9793125, 0.041484375000000004, 192.0, 127.5, 104.0, 15.0, 64.0, 0.5, 40.0, 0.0, 0.0, 0.0, 1.74352863415506E9, 0.0, 2025-04-01 12:30:34.155
168.0, -48175.00539720123, -42991.814671971166, -1370.9442461662586, -48737.375287696756, 13436.684124074474, 7517.517509164514, -16541.87787078355, -23563.410170484804, -15599.70713850345, -30328.567961283683, -27595.597814988832, -19814.888514863076, -21164.732714263526, -18438.669257005367, -23510.011852981075, -38206.440294556654, -0.005671875, 0.9793125, 0.041484375000000004, 192.0, 0.0, 0.0, 0.0, 0.0, 0.0, 0.0, 0.0, 0.0, 0.0, 1.743528634155303E9, 0.0, 2025-04-01 12:30:34.155
170.0, -48177.30762688013, -42988.14898588049, -1374.5875805124738, -48740.728049365054, 13485.612092687143, 7519.417407443215, -16540.51441437178, -23568.23814728715, -15594.61094076764, -30316.14039136653, -27592.89325390974, -19808.8758956046, -21166.833778242326, -18434.22125985876, -23508.69310005821, -38205.747390478544, -0.005671875, 0.9793125, 0.041484375000000004, 192.0, 0.0, 0.0, 0.0, 0.0, 0.0, 0.0, 0.0, 0.0, 0.0, 1.743528634155501E9, 0.0, 2025-04-01 12:30:34.155
172.0, -48171.11619366601, -42980.10235787658, -1365.4904205191638, -48726.57939512484, 13444.082551489182, 7532.090846549374, -16538.636867837533, -23541.12548126286, -15589.55944652074, -30312.966443653877, -27591.663907964696, -19808.853543860143, -21159.52475780544, -18426.21933534376, -23505.921483745755, -38202.90871893272, -0.005671875, 0.9793125, 0.041484375000000004, 192.0, 0.0, 0.0, 0.0, 0.0, 0.0, 0.0, 0.0, 0.0, 0.0, 1.7435286341557E9, 0.0, 2025-04-01 12:30:34.155
174.0, -48178.00053095824, -42989.75831148128, -1373.090013633968, -48736.43651442963, 13486.819086887728, 7534.124855294807, -16543.17427196196, -23551.317876734483, -15585.849056941159, -30310.016013385775, -27584.109018338804, -19804.91963683601, -21157.222528126542, -18416.138698594415, -23500.065326698463, -38188.04480886994, -0.005671875, 0.9793125, 0.041484375000000004, 192.0, 0.0, 0.0, 0.0, 0.0, 0.0, 0.0, 0.0, 0.0, 0.0, 1.743528634155889E9, 0.0, 2025-04-01 12:30:34.155
176.0, -48175.653597790435, -42986.494956790804, -1373.9840834121806, -48743.14203776623, 13440.953307265438, 7523.507776678536, -16559.491045414336, -23574.00489735662, -15601.160001893044, -30321.147182124518, -27601.163399358204, -19826.153794068552, -21178.456685359084, -18425.32526556555, -23523.400547909805, -38213.34698359334, -0.0048359375, 0.97865625, 0.0427421875, 192.0, 127.5, 112.0, 15.0, 72.0, 0.5, 48.0, 0.0, 0.0, 0.0, 1.743528634156098E9, 0.0, 2025-04-01 12:30:34.156
178.0, -48164.92476045189, -42971.63104672802, -1361.8247344284935, -48730.55800563789, 13477.029022816305, 7525.0723987904075, -16548.09165574213, -23566.24884203063, -15582.786867950783, -30301.969385381864, -27575.704762423607, -19806.797183370254, -21148.930030933625, -18416.31751255006, -23505.56385583447, -38199.08657063086, -0.0048359375, 0.97865625, 0.0427421875, 192.0, 0.0, 0.0, 0.0, 0.0, 0.0, 0.0, 0.0, 0.0, 0.0, 1.743528634156303E9, 0.0, 2025-04-01 12:30:34.156
180.0, -48181.55445832664, -42996.32972435114, -1360.1707053388006, -48736.54827315191, 13443.479054388888, 7519.372703954305, -16538.547460859714, -23545.7075888762, -15590.2299988544, -30312.653519231502, -27579.951593870115, -19810.44051771647, -21152.014571668456, -18437.775187227155, -23506.435573868224, -38203.6686782442, -0.0048359375, 0.97865625, 0.0427421875, 192.0, 0.0, 0.0, 0.0, 0.0, 0.0, 0.0, 0.0, 0.0, 0.0, 1.743528634214015E9, 0.0, 2025-04-01 12:30:34.214
182.0, -48178.35815886953, -42993.51340454977, -1362.294121062055, -48741.26449123198, 13470.52466517981, 7533.901337850254, -16542.056684739196, -23545.23820224264, -15597.203743124455, -30324.81286821519, -27586.053620106417, -19817.458965475438, -21154.9426501921, -18429.929724923342, -23507.396698879802, -38201.18763460966, -0.0048359375, 0.97865625, 0.0427421875, 192.0, 0.0, 0.0, 0.0, 0.0, 0.0, 0.0, 0.0, 0.0, 0.0, 1.743528634214269E9, 0.0, 2025-04-01 12:30:34.214
184.0, -48180.258057148225, -42994.58628828362, -1365.7809931970828, -48744.147866266714, 13458.857054574139, 7530.414465715226, -16553.389019178037, -23559.297449505026, -15599.796545481271, -30321.28129259125, -27592.066239364893, -19816.855468375143, -21164.82212124135, -18435.942344181818, -23511.08473671493, -38208.18373062417, -0.0048359375, 0.97865625, 0.0427421875, 192.0, 0.0, 0.0, 0.0, 0.0, 0.0, 0.0, 0.0, 0.0, 0.0, 1.743528634214471E9, 0.0, 2025-04-01 12:30:34.214
186.0, -48169.14924015394, -42979.230639842826, -1356.616777970407, -48737.19647374111, 13465.71904012192, 7534.102503550352, -16540.872042283063, -23552.256650001604, -15592.129897133102, -30318.867304190077, -27583.37141077178, -19810.284055505283, -21156.99901068199, -18431.74021622422, -23509.40835588078, -38203.445160799645, -0.008417968750000001, 0.980328125, 0.041371093750000004, 192.0, 127.5, 80.0, 15.0, 88.0, 0.5, 32.0, 0.0, 0.0, 0.0, 1.743528634214669E9, 0.0, 2025-04-01 12:30:34.214
188.0, -48190.51750785321, -43003.12465466555, -1384.1764788838004, -48765.13615431025, 13442.227356699392, 7506.6992648481455, -16563.871987327577, -23587.460647518714, -15598.053109413757, -30317.883827434045, -27593.07206786538, -19820.319988765717, -21170.164188166167, -18435.137681381428, -23516.247989684107, -38221.08068717488, -0.008417968750000001, 0.980328125, 0.041371093750000004, 192.0, 0.0, 0.0, 0.0, 0.0, 0.0, 0.0, 0.0, 0.0, 0.0, 1.743528634214874E9, 0.0, 2025-04-01 12:30:34.214
190.0, -48179.14046992546, -42987.23256435783, -1360.707147205728, -48749.78050586945, 13443.210833455425, 7518.188061498173, -16562.7096966159, -23598.927092424285, -15601.674092015517, -30328.880885706054, -27593.988489388048, -19828.076044091707, -21169.203063154586, -18428.521565022656, -23528.13911773433, -38221.99710869755, -0.008417968750000001, 0.980328125, 0.041371093750000004, 192.0, 0.0, 0.0, 0.0, 0.0, 0.0, 0.0, 0.0, 0.0, 0.0, 1.743528634215072E9, 0.0, 2025-04-01 12:30:34.215
192.0, -48180.23570540377, -42994.742750494814, -1364.5292955075856, -48741.04097378743, 13468.200083756457, 7525.273564490505, -16538.480405626346, -23544.768815609077, -15599.528324547808, -30316.542722766728, -27591.529797497966, -19822.510459722336, -21162.274022373444, -18396.31270126256, -23511.621178581856, -38222.69001277567, -0.008417968750000001, 0.980328125, 0.041371093750000004, 192.0, 0.0, 0.0, 0.0, 0.0, 0.0, 0.0, 0.0, 0.0, 0.0, 1.743528634215255E9, 0.0, 2025-04-01 12:30:34.215
194.0, -48163.04721391764, -42967.85360191508, -1345.3067952760214, -48721.66201134468, 13452.687973104476, 7544.518416466524, -16510.31720761266, -23526.529792133548, -15584.08326912919, -30300.829446414646, -27576.576480457366, -19803.176200768496, -21145.42080705414, -18443.60899252999, -23486.90014921429, -38184.3120675459, -0.008417968750000001, 0.980328125, 0.041371093750000004, 192.0, 0.0, 0.0, 0.0, 0.0, 0.0, 0.0, 0.0, 0.0, 0.0, 1.743528634215451E9, 0.0, 2025-04-01 12:30:34.215
196.0, -48187.052987462645, -42995.07802666164, -1370.9889496551693, -48747.32181397937, 13470.345851224167, 7519.6185731433125, -16548.628097609057, -23574.13900782335, -15593.381594822598, -30300.002431869798, -27589.674602708175, -19806.73012813689, -21160.46353107256, -18428.61097200048, -23495.952605718685, -38203.19929161064, -0.009208984375, 0.9831640625, 0.039685546875000005, 192.0, 127.5, 88.0, 15.0, 104.0, 0.5, 24.0, 0.0, 0.0, 0.0, 1.743528634274319E9, 0.0, 2025-04-01 12:30:34.274
198.0, -48183.342597883064, -43003.86226223258, -1368.2843885760772, -48739.543406908924, 13419.13800467706, 7529.0063058145415, -16533.384207890536, -23553.262478502093, -15604.982150194903, -30318.867304190077, -27603.867960437296, -19817.928352109, -21172.62288005625, -18445.46418731978, -23516.136230961827, -38205.121541633795, -0.009208984375, 0.9831640625, 0.039685546875000005, 192.0, 0.0, 0.0, 0.0, 0.0, 0.0, 0.0, 0.0, 0.0, 0.0, 1.743528634274581E9, 0.0, 2025-04-01 12:30:34.274
200.0, -48187.14239444046, -42987.79135796921, -1371.3018740775435, -48742.4044301992, 13476.179656527001, 7536.270622762517, -16543.7554173178, -23545.640533642832, -15603.149307149568, -30310.9547866529, -27606.66192849421, -19818.285980020282, -21164.531548563427, -18427.918067922365, -23509.140134947316, -38205.121541633795, -0.009208984375, 0.9831640625, 0.039685546875000005, 192.0, 0.0, 0.0, 0.0, 0.0, 0.0, 0.0, 0.0, 0.0, 0.0, 1.743528634274778E9, 0.0, 2025-04-01 12:30:34.274
202.0, -48191.25511542024, -43006.54447156721, -1373.9170281788145, -48740.12455226476, 13431.923202505495, 7532.671991905212, -16549.56687087618, -23557.062275059496, -15607.306731618255, -30313.43583028744, -27604.426754048676, -19814.262666018327, -21169.80656025488, -18437.015227915672, -23507.46375411317, -38199.55595726442, -0.009208984375, 0.9831640625, 0.039685546875000005, 192.0, 0.0, 0.0, 0.0, 0.0, 0.0, 0.0, 0.0, 0.0, 0.0, 1.74352863427497E9, 0.0, 2025-04-01 12:30:34.274
204.0, -48196.485423622784, -43011.104227436095, -1371.0336531440798, -48743.320851721866, 13474.100944292659, 7518.7915585984665, -16548.359876675593, -23574.18371131226, -15614.682807288506, -30314.28519657674, -27608.383012817267, -19815.514363707825, -21188.894950019712, -18439.69743725031, -23514.504553616593, -38211.067105658905, -0.009208984375, 0.9831640625, 0.039685546875000005, 192.0, 0.0, 0.0, 0.0, 0.0, 0.0, 0.0, 0.0, 0.0, 0.0, 1.743528634275174E9, 0.0, 2025-04-01 12:30:34.275
206.0, -48179.81102225912, -42988.90894519198, -1350.1571238228232, -48729.194549226115, 13433.107844961625, 7530.079189548396, -16544.6047836071, -23553.955382580207, -15603.551638549763, -30308.80901918519, -27594.860207421807, -19811.06636656122, -21173.67341204565, -18431.360236568482, -23507.933140746733, -38206.14972187873, -0.0116044921875, 0.98658203125, 0.039842773437500006, 192.0, 127.5, 72.0, 15.0, 120.0, 0.5, 32.0, 0.0, 0.0, 0.0, 1.743528634275366E9, 0.0, 2025-04-01 12:30:34.275
208.0, -48198.11710096802, -42997.58142204063, -1371.5030397776413, -48750.74163088103, 13471.731659380397, 7520.110311521329, -16557.94877504692, -23571.166225810794, -15603.596342038672, -30314.1063826211, -27597.3636028008, -19819.716491665422, -21168.979545710034, -18418.396224784403, -23507.486105857624, -38208.9213381912, -0.0116044921875, 0.98658203125, 0.039842773437500006, 192.0, 0.0, 0.0, 0.0, 0.0, 0.0, 0.0, 0.0, 0.0, 0.0, 1.743528634275583E9, 0.0, 2025-04-01 12:30:34.275
210.0, -48186.65065606245, -42999.59307904161, -1359.9471878942477, -48729.328659692845, 13416.209926153413, 7519.238593487572, -16539.933269015943, -23562.069065817486, -15612.380577609609, -30324.634054259546, -27607.108963383314, -19824.052730089752, -21190.928958765147, -18444.301896608104, -23516.47150712866, -38210.776532980984, -0.0116044921875, 0.98658203125, 0.039842773437500006, 192.0, 0.0, 0.0, 0.0, 0.0, 0.0, 0.0, 0.0, 0.0, 0.0, 1.743528634334528E9, 0.0, 2025-04-01 12:30:34.334
212.0, -48185.04133046167, -43004.041076188216, -1355.0521558585353, -48729.44041841512, 13485.567389198231, 7523.910108078731, -16546.527033630256, -23580.19633057074, -15600.42239432602, -30306.48443776184, -27592.133294598258, -19801.700985634445, -21170.56651956636, -18430.376759812447, -23497.874855741844, -38202.64049799925, -0.0116044921875, 0.98658203125, 0.039842773437500006, 192.0, 0.0, 0.0, 0.0, 0.0, 0.0, 0.0, 0.0, 0.0, 0.0, 1.743528634334742E9, 0.0, 2025-04-01 12:30:34.334
214.0, -48175.653597790435, -42998.36373309657, -1347.318452276999, -48720.656182844185, 13435.119501962603, 7529.498044192558, -16533.250097423806, -23538.443271928227, -15604.51276356134, -30309.166647096474, -27594.65904172171, -19809.725261893902, -21163.32455436284, -18422.17366959735, -23497.204303408183, -38206.932032934674, -0.0116044921875, 0.98658203125, 0.039842773437500006, 192.0, 0.0, 0.0, 0.0, 0.0, 0.0, 0.0, 0.0, 0.0, 0.0, 1.743528634334941E9, 0.0, 2025-04-01 12:30:34.334
216.0, -48181.97914147129, -42993.781625483236, -1356.9744058816918, -48730.513302148975, 13479.688880406486, 7521.764340611022, -16540.51441437178, -23552.6589814018, -15596.555542535252, -30308.496094762817, -27587.08180035136, -19807.624197915102, -21164.017458440954, -18420.854916674485, -23490.945814960698, -38197.94663166364, -0.01180224609375, 0.988291015625, 0.038921386718750006, 192.0, 127.5, 80.0, 15.0, 120.0, 0.5, 24.0, 0.0, 0.0, 0.0, 1.743528634335141E9, 0.0, 2025-04-01 12:30:34.335
218.0, -48185.73423453978, -43002.163529653975, -1355.9238738922922, -48733.30727020589, 13427.98929548136, 7509.8732125607985, -16552.494949399825, -23564.639516429845, -15607.46319382944, -30328.746775239324, -27599.107038868315, -19822.331645766695, -21184.13402845073, -18447.140568153925, -23504.289806400517, -38215.06806791641, -0.01180224609375, 0.988291015625, 0.038921386718750006, 192.0, 0.0, 0.0, 0.0, 0.0, 0.0, 0.0, 0.0, 0.0, 0.0, 1.74352863433535E9, 0.0, 2025-04-01 12:30:34.335
220.0, -48186.78476652918, -42984.43859630091, -1348.5701499664963, -48734.514264406476, 13454.453760916444, 7521.563174910924, -16529.830280522143, -23551.98842906814, -15595.125030890113, -30318.912007678988, -27580.5103874815, -19811.714567150422, -21166.409095097675, -18424.475899276247, -23490.297614371495, -38198.70659097512, -0.01180224609375, 0.988291015625, 0.038921386718750006, 192.0, 0.0, 0.0, 0.0, 0.0, 0.0, 0.0, 0.0, 0.0, 0.0, 1.743528634335564E9, 0.0, 2025-04-01 12:30:34.335
222.0, -48175.027748945686, -42976.54843050819, -1338.198940539234, -48720.14209272172, 13426.04469371375, 7535.376552984304, -16536.55815560319, -23540.790205096033, -15606.524420562318, -30318.66613848998, -27591.440390520143, -19817.25779977534, -21178.747258037005, -18433.036617402628, -23503.440440111215, -38206.6191085123, -0.01180224609375, 0.988291015625, 0.038921386718750006, 192.0, 0.0, 0.0, 0.0, 0.0, 0.0, 0.0, 0.0, 0.0, 0.0, 1.74352863433575E9, 0.0, 2025-04-01 12:30:34.335
224.0, -48174.62541754549, -43001.04594243121, -1343.2951382750439, -48730.35683993779, 13484.00276708636, 7538.036410574486, -16545.74472257432, -23558.515138449093, -15589.224170353911, -30308.920777907468, -27574.251899034014, -19804.91963683601, -21159.18948163861, -18420.273771318647, -23483.145056145797, -38187.55307049192, -0.01180224609375, 0.988291015625, 0.038921386718750006, 192.0, 0.0, 0.0, 0.0, 0.0, 0.0, 0.0, 0.0, 0.0, 0.0, 1.743528634335945E9, 0.0, 2025-04-01 12:30:34.335
226.0, -48157.70514699283, -42989.13246263653, -1325.391390966343, -48712.52014786246, 13458.410019685034, 7545.0325065889965, -16528.533879343733, -23551.921373834775, -15587.503086030853, -30309.613681985582, -27572.08377982185, -19802.662110646022, -21144.258516342463, -18428.812137700574, -23483.45798056817, -38192.604564738824, -0.012901123046875, 0.9891455078125, 0.037460693359375005, 192.0, 127.5, 72.0, 15.0, 120.0, 0.5, 16.0, 0.0, 0.0, 0.0, 1.743528634394771E9, 0.0, 2025-04-01 12:30:34.394
228.0, -48179.229876903286, -43005.82921574464, -1349.7324406781722, -48735.274223717955, 13465.763743610829, 7531.599108171357, -16548.359876675593, -23563.09724606243, -15590.431164554497, -30312.273539575763, -27577.917585124684, -19803.466773446416, -21165.112693919265, -18426.17463185485, -23492.488085328114, -38194.05742812841, -0.012901123046875, 0.9891455078125, 0.037460693359375005, 192.0, 0.0, 0.0, 0.0, 0.0, 0.0, 0.0, 0.0, 0.0, 0.0, 1.74352863439501E9, 0.0, 2025-04-01 12:30:34.395
230.0, -48165.14827789644, -42979.05182588719, -1339.3165277619992, -48718.82333979885, 13447.882348046584, 7536.15886404024, -16516.620399549058, -23561.219699528185, -15592.04049015528, -30315.872170433067, -27581.583271215353, -19809.367633982616, -21162.89987121819, -18425.68289347683, -23491.37049810535, -38196.20319559613, -0.012901123046875, 0.9891455078125, 0.037460693359375005, 192.0, 0.0, 0.0, 0.0, 0.0, 0.0, 0.0, 0.0, 0.0, 0.0, 1.743528634395197E9, 0.0, 2025-04-01 12:30:34.395
232.0, -48178.96165596982, -42989.22186961435, -1347.0949348324461, -48726.98172652504, 13470.457609946443, 7547.82647464591, -16529.673818310956, -23540.32081846247, -15588.263045342333, -30307.222045328865, -27574.430712989655, -19799.130535022086, -21162.13991190671, -18419.513812007168, -23480.328736344425, -38183.35094253432, -0.012901123046875, 0.9891455078125, 0.037460693359375005, 192.0, 0.0, 0.0, 0.0, 0.0, 0.0, 0.0, 0.0, 0.0, 0.0, 1.743528634395396E9, 0.0, 2025-04-01 12:30:34.395
234.0, -48173.93251346738, -42991.23352661533, -1349.777144167083, -48730.49095040452, 13449.357563180634, 7537.030582073997, -16536.044065480717, -23548.74742612212, -15601.89760946007, -30317.347385567118, -27588.378201529766, -19811.15577353904, -21174.835702757326, -18428.700378978298, -23488.30830911497, -38192.7163234611, -0.012901123046875, 0.9891455078125, 0.037460693359375005, 192.0, 0.0, 0.0, 0.0, 0.0, 0.0, 0.0, 0.0, 0.0, 0.0, 1.743528634395591E9, 0.0, 2025-04-01 12:30:34.395
236.0, -48171.317359366105, -42986.80788121318, -1349.285405789066, -48728.859273059286, 13445.021324756304, 7547.11121882334, -16536.580507347644, -23540.14200450683, -15595.236789612389, -30314.28519657674, -27582.231471804556, -19808.764136882324, -21156.149644392688, -18424.721768465253, -23492.17516090574, -38185.474358257576, -0.0144505615234375, 0.98657275390625, 0.0397303466796875, 192.0, 127.5, 64.0, 15.0, 96.0, 0.5, 40.0, 0.0, 0.0, 0.0, 1.743528634395788E9, 0.0, 2025-04-01 12:30:34.395
238.0, -48180.39216761496, -43000.10716916408, -1350.2465308006445, -48734.33545045083, 13465.160246510535, 7539.601032686357, -16536.781673047743, -23553.195423268728, -15598.366033836131, -30310.57480699716, -27587.08180035136, -19808.428860715492, -21168.018420698456, -18414.574076482546, -23493.35980336187, -38194.99620139554, -0.0144505615234375, 0.98657275390625, 0.0397303466796875, 192.0, 0.0, 0.0, 0.0, 0.0, 0.0, 0.0, 0.0, 0.0, 0.0, 1.743528634396001E9, 0.0, 2025-04-01 12:30:34.396
240.0, -48182.15795542693, -43003.79520699921, -1355.901522147837, -48738.85050283081, 13443.94844102245, 7527.5981459138575, -16545.901184785507, -23578.18467356976, -15599.014234425335, -30319.023766401264, -27585.539529983944, -19809.859372360632, -21169.71715327706, -18425.951114410294, -23497.964262719663, -38197.18667235216, -0.0144505615234375, 0.98657275390625, 0.0397303466796875, 192.0, 0.0, 0.0, 0.0, 0.0, 0.0, 0.0, 0.0, 0.0, 0.0, 1.743528634455077E9, 0.0, 2025-04-01 12:30:34.455
242.0, -48187.54472584066, -42987.210212613376, -1355.454487258731, -48743.387906955235, 13468.267138989824, 7525.944116824165, -16546.079998741152, -23561.84554837293, -15603.618693783128, -30314.151086110007, -27594.346117299334, -19819.716491665422, -21179.686031304125, -18417.792727684107, -23496.08671618542, -38211.961175437114, -0.0144505615234375, 0.98657275390625, 0.0397303466796875, 192.0, 0.0, 0.0, 0.0, 0.0, 0.0, 0.0, 0.0, 0.0, 0.0, 1.743528634455313E9, 0.0, 2025-04-01 12:30:34.455
244.0, -48182.15795542693, -42995.50270980629, -1351.0511936010355, -48732.971994039064, 13445.982449767882, 7536.15886404024, -16547.532862130745, -23544.344132464426, -15608.08904267419, -30326.9586356829, -27594.25671032151, -19819.850602132155, -21189.990185498023, -18443.050198918605, -23498.36659411986, -38208.27313760199, -0.0144505615234375, 0.98657275390625, 0.0397303466796875, 192.0, 0.0, 0.0, 0.0, 0.0, 0.0, 0.0, 0.0, 0.0, 0.0, 1.743528634455507E9, 0.0, 2025-04-01 12:30:34.455
246.0, -48176.63707454647, -42998.00610518528, -1343.0269173415802, -48722.489025889525, 13481.342909496178, 7547.155922312251, -16542.28020218375, -23552.591926168436, -15593.80627796725, -30305.925644150455, -27583.304355538414, -19801.700985634445, -21165.85030148629, -18420.005550385184, -23488.46477132616, -38194.45975952861, -0.01422528076171875, 0.9842863769531249, 0.04286517333984375, 192.0, 127.5, 72.0, 15.0, 88.0, 0.5, 56.0, 0.0, 0.0, 0.0, 1.743528634455703E9, 0.0, 2025-04-01 12:30:34.455
248.0, -48184.750757783746, -42985.89145969051, -1346.290272032055, -48729.52982539294, 13439.232222942379, 7537.276451263006, -16556.764132590786, -23566.24884203063, -15597.494315802374, -30313.704051220902, -27585.78539917295, -19806.17133452551, -21172.511121333973, -18421.011378885672, -23497.226655152637, -38198.03603864146, -0.01422528076171875, 0.9842863769531249, 0.04286517333984375, 192.0, 0.0, 0.0, 0.0, 0.0, 0.0, 0.0, 0.0, 0.0, 0.0, 1.743528634455915E9, 0.0, 2025-04-01 12:30:34.455
250.0, -48185.98010372878, -42997.22379412935, -1355.096859347446, -48737.06236327438, 13474.95031058196, 7526.212337757628, -16556.6076703796, -23587.103019607428, -15605.675054273017, -30319.940187923934, -27598.011803390003, -19814.9779218409, -21189.65490933119, -18422.106614363984, -23505.519152345558, -38212.47526555959, -0.01422528076171875, 0.9842863769531249, 0.04286517333984375, 192.0, 0.0, 0.0, 0.0, 0.0, 0.0, 0.0, 0.0, 0.0, 0.0, 1.743528634456109E9, 0.0, 2025-04-01 12:30:34.456
252.0, -48176.79353675766, -42988.75248298079, -1346.1338098208678, -48728.568700381365, 13421.842565756151, 7534.393076228271, -16547.80108306421, -23563.94661235173, -15594.409775067543, -30314.776934954756, -27586.165378828693, -19805.746651380858, -21172.37701086724, -18421.994855641708, -23500.98174822113, -38202.70755323262, -0.01422528076171875, 0.9842863769531249, 0.04286517333984375, 192.0, 0.0, 0.0, 0.0, 0.0, 0.0, 0.0, 0.0, 0.0, 0.0, 1.743528634456297E9, 0.0, 2025-04-01 12:30:34.456
254.0, -48188.237629918774, -42992.306410349185, -1352.5264087350856, -48733.12845625025, 13466.769572111318, 7540.651564675756, -16547.46580689738, -23554.938859336242, -15595.75087973486, -30310.775972697258, -27589.249919563525, -19809.412337471527, -21176.690897547116, -18433.953038925298, -23491.16933240525, -38198.617183997296, -0.01422528076171875, 0.9842863769531249, 0.04286517333984375, 192.0, 0.0, 0.0, 0.0, 0.0, 0.0, 0.0, 0.0, 0.0, 0.0, 1.743528634456492E9, 0.0, 2025-04-01 12:30:34.456
0.0, -48184.7731095282, -42989.75831148128, -1349.93360637827, -48725.46180790208, 13440.998010754349, 7546.060686833941, -16550.215071465384, -23553.307181991004, -15608.781946752304, -30322.48828679184, -27598.525893512477, -19812.49687820636, -21197.85799954629, -18433.7518732252, -23503.37338487785, -38205.5685765229, -0.016112640380859376, 0.9821431884765625, 0.04343258666992188, 192.0, 127.5, 56.0, 15.0, 80.0, 0.5, 48.0, 0.0, 0.0, 0.0, 1.743528634515339E9, 0.0, 2025-04-01 12:30:34.515
2.0, -48177.77701351369, -42985.46677654586, -1347.0725830879908, -48720.387961910725, 13476.090249549181, 7546.686535678689, -16551.198548221415, -23566.360600752905, -15595.482658801397, -30307.266748817772, -27584.913681139195, -19800.695157133956, -21180.04365921541, -18422.955980653285, -23495.46086734067, -38196.449064785134, -0.016112640380859376, 0.9821431884765625, 0.04343258666992188, 192.0, 0.0, 0.0, 0.0, 0.0, 0.0, 0.0, 0.0, 0.0, 0.0, 1.7435286345156E9, 0.0, 2025-04-01 12:30:34.515
4.0, -48176.39120535746, -42989.17716612544, -1341.775219652083, -48715.4482263861, 13429.50921410432, 7541.120951309318, -16550.729161587853, -23554.961211080696, -15597.13668789109, -30316.408612299994, -27582.92437588267, -19804.629064158093, -21189.85607503129, -18424.542954509612, -23499.84180925391, -38199.04186714195, -0.016112640380859376, 0.9821431884765625, 0.04343258666992188, 192.0, 0.0, 0.0, 0.0, 0.0, 0.0, 0.0, 0.0, 0.0, 0.0, 1.743528634515794E9, 0.0, 2025-04-01 12:30:34.515
6.0, -48182.15795542693, -42986.71847423536, -1347.7878389105606, -48721.30438343339, 13489.456592733455, 7550.106352580351, -16552.964336033387, -23544.969981309176, -15587.145458119567, -30300.8517981591, -27573.536643211442, -19795.889532076068, -21171.684106789126, -18409.097899090993, -23484.955547446676, -38185.72022744659, -0.016112640380859376, 0.9821431884765625, 0.04343258666992188, 192.0, 0.0, 0.0, 0.0, 0.0, 0.0, 0.0, 0.0, 0.0, 0.0, 1.743528634515996E9, 0.0, 2025-04-01 12:30:34.515
8.0, -48194.16084219943, -43013.697029792915, -1361.511810006119, -48729.41806667067, 13424.100091946137, 7528.134587780784, -16570.04106879724, -23568.573423453978, -15610.95006596447, -30326.355138582607, -27596.447181278134, -19820.54350621027, -21194.549941366906, -18416.541029994612, -23510.145963447805, -38203.60162301083, -0.016112640380859376, 0.9821431884765625, 0.04343258666992188, 192.0, 0.0, 0.0, 0.0, 0.0, 0.0, 0.0, 0.0, 0.0, 0.0, 1.743528634516192E9, 0.0, 2025-04-01 12:30:34.516
10.0, -48196.35131315605, -42998.54254705222, -1355.387432025365, -48728.81456957037, 13480.71706065143, 7525.698247635156, -16574.243196754836, -23572.52968222257, -15611.665321787039, -30321.03542340224, -27595.061373121905, -19812.049843317254, -21204.697633349613, -18448.481672821246, -23509.94479774771, -38204.830968955874, -0.013056320190429689, 0.9820715942382812, 0.04371629333496094, 192.0, 127.5, 88.0, 15.0, 88.0, 0.5, 48.0, 0.0, 0.0, 0.0, 1.743528634516374E9, 0.0, 2025-04-01 12:30:34.516
12.0, -48184.951923483844, -42995.435654572924, -1343.4292487417756, -48715.35881940828, 13443.121426477603, 7529.386285470282, -16562.08384777115, -23566.919394364286, -15602.545810049274, -30318.263807089785, -27583.661983449696, -19807.043052559264, -21194.684051833636, -18436.344675582015, -23497.472524341647, -38202.14875962124, -0.013056320190429689, 0.9820715942382812, 0.04371629333496094, 192.0, 0.0, 0.0, 0.0, 0.0, 0.0, 0.0, 0.0, 0.0, 0.0, 1.74352863451659E9, 0.0, 2025-04-01 12:30:34.516
14.0, -48197.44654863436, -43010.07604719115, -1360.2601123166219, -48726.73585733603, 13459.125275507604, 7531.375590726804, -16565.391905950535, -23576.016554357597, -15603.417528083031, -30325.125792637566, -27584.310184038903, -19813.078023562197, -21198.170923968664, -18437.17169012686, -23498.79127726451, -38206.730867234575, -0.013056320190429689, 0.9820715942382812, 0.04371629333496094, 192.0, 0.0, 0.0, 0.0, 0.0, 0.0, 0.0, 0.0, 0.0, 0.0, 1.743528634574196E9, 0.0, 2025-04-01 12:30:34.574
16.0, -48195.05491197764, -43001.314163364674, -1350.4700482451974, -48716.65522058669, 13435.857109529628, 7545.9712798561195, -16552.405542422002, -23551.697856390223, -15608.08904267419, -30319.604911757102, -27588.244091063036, -19810.619331672115, -21218.91334282319, -18436.009399415183, -23502.769887777555, -38196.449064785134, -0.013056320190429689, 0.9820715942382812, 0.04371629333496094, 192.0, 0.0, 0.0, 0.0, 0.0, 0.0, 0.0, 0.0, 0.0, 0.0, 1.743528634574444E9, 0.0, 2025-04-01 12:30:34.574
18.0, -48178.78284201418, -42976.95076190839, -1330.4428852132423, -48700.36079887877, 13489.344834011179, 7552.87796889281, -16545.252984196304, -23548.389798210836, -15598.343682091676, -30314.016975643277, -27575.525948467966, -19799.01877629981, -21198.886179791236, -18419.17853584034, -23486.810742236466, -38183.28388730096, -0.013056320190429689, 0.9820715942382812, 0.04371629333496094, 192.0, 0.0, 0.0, 0.0, 0.0, 0.0, 0.0, 0.0, 0.0, 0.0, 1.743528634574635E9, 0.0, 2025-04-01 12:30:34.574
20.0, -48183.05202520514, -42996.88851796252, -1332.7227631476835, -48703.28887740241, 13462.165112753524, 7547.804122901455, -16557.591147135634, -23554.67063840278, -15589.961777920937, -30308.071411618166, -27568.507500708998, -19788.558159894725, -21184.75987729548, -18400.000739097686, -23478.719410743644, -38180.22169831058, -0.011528160095214846, 0.9810357971191406, 0.04385814666748047, 192.0, 127.5, 88.0, 15.0, 80.0, 0.5, 48.0, 0.0, 0.0, 0.0, 1.74352863457483E9, 0.0, 2025-04-01 12:30:34.574
22.0, -48174.58071405658, -42974.00033164029, -1329.7052776462172, -48699.08674944482, 13473.944482081472, 7545.121913566818, -16539.195661448917, -23557.263440759594, -15580.864617927626, -30304.8527604166, -27559.96913432707, -19784.423087170493, -21190.1019442203, -18420.385530040923, -23478.22767236563, -38172.063311584396, -0.011528160095214846, 0.9810357971191406, 0.04385814666748047, 192.0, 0.0, 0.0, 0.0, 0.0, 0.0, 0.0, 0.0, 0.0, 0.0, 1.743528634575034E9, 0.0, 2025-04-01 12:30:34.575
24.0, -48172.39024309996, -42981.93520092192, -1327.6265654118736, -48700.40550236768, 13443.255536944334, 7540.830378631399, -16552.874929055564, -23569.9145281213, -15583.189199350978, -30307.91494940698, -27559.566802926878, -19787.552331394236, -21188.47026687506, -18429.79561445661, -23479.63583226631, -38185.45200651312, -0.011528160095214846, 0.9810357971191406, 0.04385814666748047, 192.0, 0.0, 0.0, 0.0, 0.0, 0.0, 0.0, 0.0, 0.0, 0.0, 1.743528634575234E9, 0.0, 2025-04-01 12:30:34.575
26.0, -48176.92764722439, -42981.68933173291, -1331.515768947097, -48702.573621579846, 13460.689897619475, 7552.833265403899, -16550.14801623202, -23536.18574573824, -15582.295129572765, -30303.690469704925, -27555.230564502548, -19782.947872036442, -21190.1019442203, -18413.41178577087, -23483.726201501635, -38178.88059364326, -0.011528160095214846, 0.9810357971191406, 0.04385814666748047, 192.0, 0.0, 0.0, 0.0, 0.0, 0.0, 0.0, 0.0, 0.0, 0.0, 1.743528634575426E9, 0.0, 2025-04-01 12:30:34.575
28.0, -48183.74492928325, -42991.76996848226, -1341.0823155739683, -48709.56971759436, 13456.75599059534, 7536.963526840631, -16561.27918497076, -23556.548184937023, -15592.487525044386, -30307.66908021797, -27568.462797220087, -19788.8710843171, -21199.847304802814, -18434.333018581037, -23483.770904990542, -38187.75423619202, -0.011528160095214846, 0.9810357971191406, 0.04385814666748047, 192.0, 0.0, 0.0, 0.0, 0.0, 0.0, 0.0, 0.0, 0.0, 0.0, 1.743528634575629E9, 0.0, 2025-04-01 12:30:34.575
30.0, -48172.30083612214, -42980.23646834332, -1327.6936206452394, -48698.66206630017, 13450.341039936668, 7543.579643199402, -16561.145074504027, -23570.13804556585, -15586.631367997095, -30310.306586063696, -27562.65134366171, -19783.037279014265, -21202.01542401498, -18419.40205328489, -23490.677594027235, -38186.70370420262, -0.012764080047607422, 0.9835178985595703, 0.04392907333374023, 192.0, 127.5, 72.0, 15.0, 104.0, 0.5, 48.0, 0.0, 0.0, 0.0, 1.743528634634557E9, 0.0, 2025-04-01 12:30:34.634
32.0, -48171.63028378848, -42989.17716612544, -1331.7169346471949, -48705.97108673705, 13472.737487880886, 7542.01502108753, -16563.112028016094, -23559.453911716213, -15581.199894094456, -30304.09280110512, -27558.56097442639, -19782.992575525353, -21198.372089668763, -18427.53808826662, -23485.000250935587, -38185.00497162402, -0.012764080047607422, 0.9835178985595703, 0.04392907333374023, 192.0, 0.0, 0.0, 0.0, 0.0, 0.0, 0.0, 0.0, 0.0, 0.0, 1.743528634634805E9, 0.0, 2025-04-01 12:30:34.634
34.0, -48164.99181568525, -42976.52607876374, -1318.9764403076697, -48695.33165637632, 13464.154418010046, 7547.155922312251, -16555.959469790396, -23559.923298349775, -15579.188237093478, -30316.38626055554, -27554.001218557503, -19788.513456405813, -21200.003767014, -18425.772300454653, -23487.28012887003, -38182.85920415631, -0.012764080047607422, 0.9835178985595703, 0.04392907333374023, 192.0, 0.0, 0.0, 0.0, 0.0, 0.0, 0.0, 0.0, 0.0, 0.0, 1.743528634635004E9, 0.0, 2025-04-01 12:30:34.635
36.0, -48175.85476349053, -42990.29475334821, -1328.967670079192, -48706.64163907071, 13480.515894951332, 7542.171483298717, -16554.975993034364, -23563.27606001807, -15576.617786481118, -30301.09766734811, -27546.535735909434, -19777.784619067268, -21176.221510913554, -18409.768451424654, -23474.852558952876, -38179.260573299005, -0.012764080047607422, 0.9835178985595703, 0.04392907333374023, 192.0, 0.0, 0.0, 0.0, 0.0, 0.0, 0.0, 0.0, 0.0, 0.0, 1.743528634635202E9, 0.0, 2025-04-01 12:30:34.635
38.0, -48164.16480114041, -42980.638799743516, -1318.328239718466, -48691.91183947466, 13458.007688284837, 7551.223939803117, -16541.87787078355, -23544.768815609077, -15585.782001707794, -30307.177341839953, -27554.515308679976, -19782.702002847436, -21193.678223333147, -18425.213506843273, -23486.20724513617, -38181.27223029998, -0.012764080047607422, 0.9835178985595703, 0.04392907333374023, 192.0, 0.0, 0.0, 0.0, 0.0, 0.0, 0.0, 0.0, 0.0, 0.0, 1.743528634635399E9, 0.0, 2025-04-01 12:30:34.635
40.0, -48164.81300172961, -42985.80205271269, -1323.3797339653652, -48697.812700010865, 13481.342909496178, 7548.631137446301, -16544.113045229085, -23541.66192312979, -15581.244597583367, -30289.0500770867, -27550.782567355942, -19778.25400570083, -21190.213702942576, -18408.762622924165, -23476.93127118722, -38175.0137418525, -0.011382040023803712, 0.9837589492797851, 0.044964536666870114, 192.0, 127.5, 88.0, 15.0, 96.0, 0.5, 56.0, 0.0, 0.0, 0.0, 1.743528634635596E9, 0.0, 2025-04-01 12:30:34.635
42.0, -48171.00443494373, -42993.89338420551, -1329.54881543503, -48704.18294718063, 13464.892025577072, 7536.762361140533, -16555.199510478917, -23550.915545334286, -15578.27181557081, -30303.042269115722, -27548.100358021304, -19780.82445631319, -21196.941578023623, -18425.97346615475, -23476.77480897603, -38179.037055854445, -0.011382040023803712, 0.9837589492797851, 0.044964536666870114, 192.0, 0.0, 0.0, 0.0, 0.0, 0.0, 0.0, 0.0, 0.0, 0.0, 1.743528634635817E9, 0.0, 2025-04-01 12:30:34.635
44.0, -48186.71771129581, -43004.108131421584, -1351.3194145344992, -48724.27716544595, 13487.064956076736, 7528.961602325631, -16569.348164719126, -23577.692935191746, -15594.722699489916, -30320.18605711294, -27565.89234660773, -19800.717508878413, -21213.615979387283, -18438.490443049723, -23495.349108618393, -38198.28190783047, -0.011382040023803712, 0.9837589492797851, 0.044964536666870114, 192.0, 0.0, 0.0, 0.0, 0.0, 0.0, 0.0, 0.0, 0.0, 0.0, 1.74352863469479E9, 0.0, 2025-04-01 12:30:34.694
46.0, -48169.708033765324, -42991.43469231542, -1330.2193677686892, -48703.624153569246, 13439.858071787128, 7538.237576274583, -16561.32388845967, -23578.38583926986, -15594.65564425655, -30316.833295444645, -27561.243183761024, -19794.72724136439, -21204.67528160516, -18431.628457501945, -23501.562893576967, -38198.43837004166, -0.011382040023803712, 0.9837589492797851, 0.044964536666870114, 192.0, 0.0, 0.0, 0.0, 0.0, 0.0, 0.0, 0.0, 0.0, 0.0, 1.743528634695038E9, 0.0, 2025-04-01 12:30:34.695
48.0, -48185.06368220612, -42996.86616621807, -1345.4632574872087, -48717.951621765096, 13493.166982313036, 7539.489273964081, -16566.487141428846, -23567.701705420222, -15593.627464011606, -30305.880940661544, -27560.97496282756, -19790.435706428972, -21208.698595607115, -18426.50990802168, -23494.477390584638, -38192.20223333863, -0.011382040023803712, 0.9837589492797851, 0.044964536666870114, 192.0, 0.0, 0.0, 0.0, 0.0, 0.0, 0.0, 0.0, 0.0, 0.0, 1.743528634695239E9, 0.0, 2025-04-01 12:30:34.695
50.0, -48182.381472871486, -43006.008029700286, -1341.1493708073344, -48708.563889093864, 13442.003839254838, 7538.975183841609, -16559.155769247507, -23551.22846975666, -15607.127917662612, -30318.487324534337, -27571.815558888386, -19801.343357723163, -21211.134935752743, -18436.97052442676, -23498.523056331047, -38193.453931028125, -0.008691020011901855, 0.9848794746398926, 0.04548226833343506, 192.0, 127.5, 104.0, 15.0, 104.0, 0.5, 56.0, 0.0, 0.0, 0.0, 1.743528634695456E9, 0.0, 2025-04-01 12:30:34.695
52.0, -48184.035501961174, -43010.411323357985, -1348.3689842663985, -48715.31411591937, 13480.29237750678, 7538.394038485771, -16557.188815735437, -23574.541339223546, -15597.807240224749, -30303.310490049185, -27566.719361152576, -19788.73697385037, -21213.191296242632, -18418.463280017768, -23487.146018403295, -38188.1118641033, -0.008691020011901855, 0.9848794746398926, 0.04548226833343506, 192.0, 0.0, 0.0, 0.0, 0.0, 0.0, 0.0, 0.0, 0.0, 0.0, 1.743528634695668E9, 0.0, 2025-04-01 12:30:34.695
54.0, -48176.25709489073, -43005.426884344444, -1348.033708099569, -48712.31898216236, 13421.529641333776, 7525.698247635156, -16568.99053680784, -23583.817313172498, -15602.814030982738, -30312.117077364575, -27571.748503655017, -19792.715584363414, -21216.454650933105, -18429.46033828978, -23502.32285288845, -38200.718247976096, -0.008691020011901855, 0.9848794746398926, 0.04548226833343506, 192.0, 0.0, 0.0, 0.0, 0.0, 0.0, 0.0, 0.0, 0.0, 0.0, 1.743528634695865E9, 0.0, 2025-04-01 12:30:34.695
56.0, -48177.95582746933, -42992.708741749375, -1341.0376120850578, -48716.319944419854, 13491.132973567603, 7534.191910528173, -16560.765094848288, -23569.95923161021, -15592.532228533297, -30308.563149996182, -27562.137253539237, -19789.63104362858, -21207.91628455118, -18421.480765519234, -23495.349108618393, -38197.18667235216, -0.008691020011901855, 0.9848794746398926, 0.04548226833343506, 192.0, 0.0, 0.0, 0.0, 0.0, 0.0, 0.0, 0.0, 0.0, 0.0, 1.743528634696069E9, 0.0, 2025-04-01 12:30:34.696
58.0, -48177.79936525814, -42992.61933477156, -1337.7295539056724, -48707.379246637734, 13442.160301466025, 7545.077210077908, -16565.481312928358, -23545.752292365112, -15599.930655948003, -30315.626301244058, -27567.16639604168, -19795.68836637597, -21212.163115997686, -18426.487556277225, -23497.98661446412, -38199.98064040907, -0.008691020011901855, 0.9848794746398926, 0.04548226833343506, 192.0, 0.0, 0.0, 0.0, 0.0, 0.0, 0.0, 0.0, 0.0, 0.0, 1.743528634696263E9, 0.0, 2025-04-01 12:30:34.696
60.0, -48189.44462411936, -43010.120750680064, -1354.0910308469572, -48720.455017144086, 13480.515894951332, 7534.7283523951, -16576.880702600563, -23570.450969988226, -15594.409775067543, -30297.499036490804, -27560.282058749446, -19780.355069679626, -21211.24669447502, -18422.03955913062, -23495.974957463142, -38188.961230392604, -0.005345510005950928, 0.9854397373199463, 0.04474113416671753, 192.0, 127.5, 120.0, 15.0, 104.0, 0.5, 48.0, 0.0, 0.0, 0.0, 1.743528634755007E9, 0.0, 2025-04-01 12:30:34.755
62.0, -48168.34457735355, -42993.759273738775, -1336.4108009828092, -48703.26652565796, 13443.568461366709, 7541.7468001540665, -16555.333620945647, -23552.48016744616, -15603.417528083031, -30306.976176139855, -27573.670753678176, -19793.140267508064, -21229.932752839657, -18442.22318437376, -23512.112916959875, -38204.5180445335, -0.005345510005950928, 0.9854397373199463, 0.04474113416671753, 192.0, 0.0, 0.0, 0.0, 0.0, 0.0, 0.0, 0.0, 0.0, 0.0, 1.743528634755263E9, 0.0, 2025-04-01 12:30:34.755
64.0, -48188.930533996885, -43025.20817818739, -1351.3641180234097, -48720.41031365518, 13476.872560605118, 7532.739047138578, -16567.51532167379, -23575.703629935222, -15595.03562391229, -30311.17830409745, -27560.3044104939, -19793.16261925252, -21202.797735070915, -18424.297085320602, -23493.091582428406, -38187.41896002519, -0.005345510005950928, 0.9854397373199463, 0.04474113416671753, 192.0, 0.0, 0.0, 0.0, 0.0, 0.0, 0.0, 0.0, 0.0, 0.0, 1.743528634755461E9, 0.0, 2025-04-01 12:30:34.755
66.0, -48181.86738274901, -43000.8000732422, -1345.2620917871109, -48709.88264201673, 13430.179766437981, 7536.404733229248, -16565.90599607301, -23566.38295249736, -15611.061824686745, -30317.235626844842, -27574.095436822827, -19805.031395558286, -21219.941523068133, -18423.201849842295, -23502.345204632904, -38200.67354448719, -0.005345510005950928, 0.9854397373199463, 0.04474113416671753, 192.0, 0.0, 0.0, 0.0, 0.0, 0.0, 0.0, 0.0, 0.0, 0.0, 1.743528634755665E9, 0.0, 2025-04-01 12:30:34.755
68.0, -48184.05785370563, -43006.81269250068, -1346.2008650542339, -48710.173214694645, 13457.225377228902, 7540.428047231204, -16577.394792723037, -23577.178845069273, -15602.054071671257, -30305.836237172633, -27564.26066926249, -19789.988671539864, -21232.927886596666, -18431.606105757488, -23499.37242262035, -38188.22362282558, -0.005345510005950928, 0.9854397373199463, 0.04474113416671753, 192.0, 0.0, 0.0, 0.0, 0.0, 0.0, 0.0, 0.0, 0.0, 0.0, 1.74352863475586E9, 0.0, 2025-04-01 12:30:34.755
70.0, -48192.61857183201, -43027.91273926649, -1353.0181471131025, -48720.946755522105, 13410.398472595034, 7523.217204000617, -16589.978824851372, -23584.845493417444, -15609.206629896955, -30312.43000178695, -27574.341306011833, -19801.119840278607, -21234.000770330524, -18435.22708835925, -23514.884533272332, -38206.19442536765, -0.005345510005950928, 0.9854397373199463, 0.04474113416671753, 192.0, 0.0, 0.0, 15.0, 80.0, 0.5, 40.0, 0.0, 0.0, 0.0, 1.74352863475605E9, 0.0, 2025-04-01 12:30:34.756
72.0, -48174.55836231213, -43005.13631166653, -1339.2718242730887, -48710.48613911702, 13450.296336447756, 7529.229823259095, -16574.064382799195, -23578.18467356976, -15603.328121105209, -30315.603949499604, -27568.440445475633, -19797.700023376947, -21220.992055057533, -18426.912239421876, -23508.22371342465, -38200.80765495392, -0.005345510005950928, 0.9854397373199463, 0.04474113416671753, 192.0, 0.0, 0.0, 0.0, 0.0, 0.0, 0.0, 0.0, 0.0, 0.0, 1.743528634756264E9, 0.0, 2025-04-01 12:30:34.756
74.0, -48184.21431591682, -43024.62703283156, -1352.1687808238007, -48726.98172652504, 13442.205004954936, 7510.566116638914, -16583.161542792506, -23600.245845347148, -15602.188182137988, -30319.537856523737, -27567.41226523069, -19798.907017577534, -21216.834630588848, -18449.59926004401, -23500.087678442917, -38203.35575382182, -0.005345510005950928, 0.9854397373199463, 0.04474113416671753, 192.0, 0.0, 0.0, 0.0, 0.0, 0.0, 0.0, 0.0, 0.0, 0.0, 1.743528634815464E9, 0.0, 2025-04-01 12:30:34.815
76.0, -48187.94705724085, -43015.37341062706, -1360.3942227833538, -48727.76403758097, 13445.870691045606, 7517.8527853313435, -16576.90305434502, -23576.03890610205, -15615.107490433156, -30334.491173564336, -27577.89523338023, -19809.568799682715, -21246.62950594777, -18459.545786326624, -23510.816515781466, -38211.201216125635, -0.005345510005950928, 0.9854397373199463, 0.04474113416671753, 192.0, 0.0, 0.0, 0.0, 0.0, 0.0, 0.0, 0.0, 0.0, 0.0, 1.743528634815695E9, 0.0, 2025-04-01 12:30:34.815
78.0, -48196.93245851189, -43021.92247175246, -1361.1318303503788, -48727.652278858695, 13446.09420849016, 7508.129776493285, -16586.737821905353, -23593.38385979937, -15620.248391657877, -30326.019862415775, -27584.757218928007, -19808.786488626778, -21236.68297966516, -18453.04142869013, -23512.023509982053, -38214.79984698294, -0.005345510005950928, 0.9854397373199463, 0.04474113416671753, 192.0, 0.0, 0.0, 0.0, 0.0, 0.0, 0.0, 0.0, 0.0, 0.0, 1.743528634815909E9, 0.0, 2025-04-01 12:30:34.815
80.0, -48198.027693990196, -43027.37629739956, -1358.2931588045549, -48727.78638932543, 13437.019400241305, 7520.15501501024, -16585.396717238036, -23579.838702659454, -15621.321275391732, -30330.937246195943, -27582.343230526836, -19810.10524154964, -21227.943447583133, -18451.141530411427, -23513.65518732729, -38208.80957946892, -0.006672755002975464, 0.9807198686599732, 0.04337056708335876, 192.0, 127.5, 96.0, 15.0, 64.0, 0.5, 40.0, 0.0, 0.0, 0.0, 1.743528634816106E9, 0.0, 2025-04-01 12:30:34.816
82.0, -48197.40184514545, -43022.347154897114, -1358.1366965933678, -48735.96712779607, 13462.031002286792, 7517.96454405362, -16591.67755742998, -23596.267234834104, -15625.590458582696, -30331.987778185343, -27589.831064919363, -19817.190744541975, -21242.628543690273, -18454.56134731309, -23515.55508560599, -38220.61130054132, -0.006672755002975464, 0.9807198686599732, 0.04337056708335876, 192.0, 0.0, 0.0, 0.0, 0.0, 0.0, 0.0, 0.0, 0.0, 0.0, 1.743528634816305E9, 0.0, 2025-04-01 12:30:34.816
84.0, -48192.35035089855, -43021.654250819, -1351.1853040677672, -48726.601746869295, 13444.41782765601, 7513.002456784542, -16580.70285090242, -23582.61031897191, -15616.381539867109, -30335.139374153543, -27581.002125859515, -19816.8778201196, -21227.764633627492, -18445.799463486608, -23507.351995390894, -38212.49761730404, -0.006672755002975464, 0.9807198686599732, 0.04337056708335876, 192.0, 0.0, 0.0, 0.0, 0.0, 0.0, 0.0, 0.0, 0.0, 0.0, 1.743528634816504E9, 0.0, 2025-04-01 12:30:34.816
86.0, -48191.54568809816, -43019.486131606835, -1354.0686791025018, -48727.11583699177, 13458.09709526266, 7507.168651481707, -16601.08764184566, -23604.00093841564, -15620.360150380153, -30325.95280718241, -27591.641556220242, -19812.34041599517, -21246.696561181136, -18455.52247232467, -23516.09152747292, -38221.415963341715, -0.006672755002975464, 0.9807198686599732, 0.04337056708335876, 192.0, 0.0, 0.0, 0.0, 0.0, 0.0, 0.0, 0.0, 0.0, 0.0, 1.743528634816694E9, 0.0, 2025-04-01 12:30:34.816
88.0, -48183.00732171623, -43018.927337995454, -1346.6702516877951, -48720.47736888855, 13425.821176269195, 7511.951924795142, -16578.42297296798, -23588.33236555247, -15607.329083362709, -30320.275464090762, -27578.45402699161, -19801.05278504524, -21228.368130727784, -18442.714922751777, -23512.001158237596, -38215.78332373897, -0.006672755002975464, 0.9807198686599732, 0.04337056708335876, 192.0, 0.0, 0.0, 0.0, 0.0, 0.0, 0.0, 0.0, 0.0, 0.0, 1.743528634816885E9, 0.0, 2025-04-01 12:30:34.816
90.0, -48178.35815886953, -43014.76991352677, -1348.83837089996, -48722.556081122886, 13483.846304875173, 7520.423235943704, -16587.453077727925, -23579.74929568163, -15610.681845031006, -30320.38722281304, -27580.443332248135, -19806.506610692337, -21239.58870644435, -18438.825719216555, -23509.721280303154, -38221.08068717488, -0.007336377501487732, 0.9783599343299866, 0.042685283541679386, 192.0, 127.5, 96.0, 15.0, 64.0, 0.5, 40.0, 0.0, 0.0, 0.0, 1.743528634874681E9, 0.0, 2025-04-01 12:30:34.874
92.0, -48177.21821990231, -43013.540567581724, -1347.7431354216499, -48725.707677091086, 13440.126292720592, 7521.093788277363, -16573.036202554253, -23568.23814728715, -15608.46902232993, -30323.561170525692, -27570.005067587506, -19802.796221112756, -21227.563467927394, -18447.408789087393, -23503.731012789132, -38213.21287312661, -0.007336377501487732, 0.9783599343299866, 0.042685283541679386, 192.0, 0.0, 0.0, 0.0, 0.0, 0.0, 0.0, 0.0, 0.0, 0.0, 1.743528634874914E9, 0.0, 2025-04-01 12:30:34.874
94.0, -48182.82850776059, -43009.87488149105, -1355.4321355142756, -48727.27229920296, 13488.09313632168, 7529.721561637111, -16581.529865447268, -23571.412094999803, -15603.328121105209, -30317.168571611473, -27573.670753678176, -19806.037224058775, -21236.235944776054, -18434.489480792225, -23498.634815053323, -38212.98935568206, -0.007336377501487732, 0.9783599343299866, 0.042685283541679386, 192.0, 0.0, 0.0, 0.0, 0.0, 0.0, 0.0, 0.0, 0.0, 0.0, 1.743528634875135E9, 0.0, 2025-04-01 12:30:34.875
96.0, -48187.76824328521, -43016.28983214973, -1360.9530163947363, -48728.702810848095, 13426.625839069588, 7511.616648628313, -16586.447249227436, -23588.33236555247, -15614.034606699302, -30329.86436246209, -27584.913681139195, -19813.748575895857, -21242.092101823342, -18450.13570191094, -23511.12944020384, -38222.108867419825, -0.007336377501487732, 0.9783599343299866, 0.042685283541679386, 192.0, 0.0, 0.0, 0.0, 0.0, 0.0, 0.0, 0.0, 0.0, 0.0, 1.743528634875324E9, 0.0, 2025-04-01 12:30:34.875
98.0, -48182.381472871486, -43018.34619263961, -1361.0200716281024, -48722.466674145064, 13479.264197261835, 7530.503872693047, -16584.212074781906, -23574.541339223546, -15608.84900198567, -30313.949920409912, -27581.292698537436, -19804.986692069375, -21239.074616321876, -18447.006457687196, -23507.329643646437, -38214.062239415915, -0.007336377501487732, 0.9783599343299866, 0.042685283541679386, 192.0, 0.0, 0.0, 0.0, 0.0, 0.0, 0.0, 0.0, 0.0, 0.0, 1.743528634875523E9, 0.0, 2025-04-01 12:30:34.875
100.0, -48185.06368220612, -43023.24122467533, -1366.4291937862868, -48726.73585733603, 13425.08356870217, 7525.8994133352535, -16565.07898152816, -23569.735714165654, -15610.99476945338, -30324.18701937044, -27581.851492148817, -19806.35014848115, -21250.384599016263, -18447.185271642837, -23515.800954795, -38210.95534693663, -0.007668188750743866, 0.9781799671649933, 0.04434264177083969, 192.0, 127.5, 96.0, 15.0, 72.0, 0.5, 56.0, 0.0, 0.0, 0.0, 1.743528634875727E9, 0.0, 2025-04-01 12:30:34.875
102.0, -48184.169612427904, -43015.7533902828, -1357.3990890263426, -48724.67949684614, 13488.42841248851, 7533.7001721501565, -16576.679536900465, -23585.873673662387, -15613.162888665545, -30326.57865602716, -27582.633803204753, -19807.40068047055, -21255.704314196624, -18455.94715546932, -23514.772774550056, -38216.3197656059, -0.007668188750743866, 0.9781799671649933, 0.04434264177083969, 192.0, 0.0, 0.0, 0.0, 0.0, 0.0, 0.0, 0.0, 0.0, 0.0, 1.743528634875932E9, 0.0, 2025-04-01 12:30:34.875
104.0, -48177.10646118003, -42997.827291229645, -1341.4175917407981, -48709.65912457218, 13450.855130059139, 7542.238538532083, -16579.13822879055, -23566.897042619832, -15600.578856537208, -30315.84981868861, -27567.568727441878, -19796.29186347626, -21237.86762212129, -18427.471033033256, -23497.405469108282, -38200.04769564244, -0.007668188750743866, 0.9781799671649933, 0.04434264177083969, 192.0, 0.0, 0.0, 0.0, 0.0, 0.0, 0.0, 0.0, 0.0, 0.0, 1.743528634935929E9, 0.0, 2025-04-01 12:30:34.935
106.0, -48185.26484790622, -43006.075084933655, -1352.772277924094, -48720.812645055375, 13487.489639221389, 7538.908128608243, -16586.179028293973, -23576.6647549468, -15603.149307149568, -30317.034461144744, -27568.954535598106, -19800.069308289207, -21248.43999724865, -18447.02880943165, -23506.65909131278, -38199.69006773115, -0.007668188750743866, 0.9781799671649933, 0.04434264177083969, 192.0, 0.0, 0.0, 0.0, 0.0, 0.0, 0.0, 0.0, 0.0, 0.0, 1.743528634936162E9, 0.0, 2025-04-01 12:30:34.936
108.0, -48202.095711481066, -43027.93509101094, -1362.8305629289823, -48726.892319547216, 13424.435368112967, 7520.311477221428, -16595.410298754014, -23588.466476019203, -15616.85092650067, -30326.690414749435, -27583.326707282868, -19817.01193058633, -21258.386523531262, -18458.27173689267, -23524.27226594356, -38215.246881872044, -0.007668188750743866, 0.9781799671649933, 0.04434264177083969, 192.0, 0.0, 0.0, 0.0, 0.0, 0.0, 0.0, 0.0, 0.0, 0.0, 1.743528634936351E9, 0.0, 2025-04-01 12:30:34.936
110.0, -48196.93245851189, -42995.39095108402, -1358.8519524159376, -48718.86804328776, 13472.804543114251, 7529.565099425924, -16576.098391544627, -23579.10109509243, -15616.940333478491, -30327.76329848329, -27584.444294505633, -19812.74274739537, -21260.2193665766, -18450.336867611037, -23521.768870564567, -38209.167207380204, -0.006834094375371933, 0.9830899835824967, 0.04417132088541985, 192.0, 127.5, 104.0, 15.0, 112.0, 0.5, 48.0, 0.0, 0.0, 0.0, 1.743528634936551E9, 0.0, 2025-04-01 12:30:34.936
112.0, -48211.01405751873, -43032.56190211319, -1374.4534700457418, -48732.14497949422, 13408.74444350534, 7518.411578942726, -16594.225656297884, -23585.828970173476, -15619.466080601942, -30323.985853670343, -27589.13816084125, -19812.273360761807, -21246.361285014307, -18452.88496647894, -23527.17799272275, -38217.70557376213, -0.006834094375371933, 0.9830899835824967, 0.04417132088541985, 192.0, 0.0, 0.0, 0.0, 0.0, 0.0, 0.0, 0.0, 0.0, 0.0, 1.743528634936765E9, 0.0, 2025-04-01 12:30:34.936
114.0, -48182.225010660295, -43000.21892788636, -1354.4263070137868, -48712.274278673445, 13469.563540168232, 7545.412486244737, -16558.261699469294, -23555.76587388109, -15613.364054365642, -30321.795382713724, -27582.477340993566, -19808.562971182226, -21227.608171416305, -18447.095864665018, -23526.641550855824, -38203.98160266657, -0.006834094375371933, 0.9830899835824967, 0.04417132088541985, 192.0, 0.0, 0.0, 0.0, 0.0, 0.0, 0.0, 0.0, 0.0, 0.0, 1.743528634936958E9, 0.0, 2025-04-01 12:30:34.936
116.0, -48174.58071405658, -42991.90407894899, -1348.5030947331304, -48711.40256063969, 13440.036885742771, 7532.850805860854, -16550.617402865577, -23571.590908955444, -15602.523458304819, -30310.19482734142, -27572.821387388874, -19797.454154187937, -21217.68399687815, -18440.92678319535, -23513.275207671548, -38200.718247976096, -0.006834094375371933, 0.9830899835824967, 0.04417132088541985, 192.0, 0.0, 0.0, 0.0, 0.0, 0.0, 0.0, 0.0, 0.0, 0.0, 1.743528634937168E9, 0.0, 2025-04-01 12:30:34.937
118.0, -48176.74883326874, -42998.855471474584, -1358.091993104457, -48726.13236023574, 13474.771496626317, 7529.185119770184, -16548.449283653412, -23572.39557175584, -15596.980225679903, -30306.506789506293, -27566.182919285646, -19793.654357630534, -21195.645176845217, -18443.74310299672, -23513.297559416005, -38209.94951843614, -0.006834094375371933, 0.9830899835824967, 0.04417132088541985, 192.0, 0.0, 0.0, 0.0, 0.0, 0.0, 0.0, 0.0, 0.0, 0.0, 1.74352863493736E9, 0.0, 2025-04-01 12:30:34.937
120.0, -48185.26484790622, -43009.74077102432, -1371.41363279982, -48738.51522666398, 13435.320667662701, 7522.166672011218, -16553.478426155856, -23570.27215603258, -15609.720720019428, -30316.453315788905, -27577.64936419122, -19807.423032215003, -21204.47411590506, -18449.912184466386, -23522.551181620503, -38216.99031793956, -0.004417047187685966, 0.9855449917912483, 0.04308566044270992, 192.0, 127.5, 120.0, 15.0, 112.0, 0.5, 40.0, 0.0, 0.0, 0.0, 1.743528634994681E9, 0.0, 2025-04-01 12:30:34.994
122.0, -48159.985024927264, -42983.700988733886, -1347.676080188284, -48722.64548810071, 13442.294411932757, 7545.300727522461, -16518.45324259439, -23539.583210895446, -15599.841248970182, -30313.592292498626, -27564.64064891823, -19802.282130990283, -21180.021307470957, -18437.864594204973, -23512.89522801581, -38200.94176542065, -0.004417047187685966, 0.9855449917912483, 0.04308566044270992, 192.0, 0.0, 0.0, 0.0, 0.0, 0.0, 0.0, 0.0, 0.0, 0.0, 1.74352863499493E9, 0.0, 2025-04-01 12:30:34.994
124.0, -48186.695359551355, -43007.550300067705, -1373.8276212009932, -48746.36068896779, 13442.316763677212, 7525.273564490505, -16542.45901613939, -23556.74935063712, -15601.42822282651, -30312.273539575763, -27568.038114075436, -19805.12080253611, -21171.415885855662, -18428.96859991176, -23509.386004136326, -38198.50542527502, -0.004417047187685966, 0.9855449917912483, 0.04308566044270992, 192.0, 0.0, 0.0, 0.0, 0.0, 0.0, 0.0, 0.0, 0.0, 0.0, 1.743528634995131E9, 0.0, 2025-04-01 12:30:34.995
126.0, -48166.15410639693, -42977.2413345863, -1355.9238738922922, -48725.282993946435, 13435.857109529628, 7540.49510246457, -16533.183042190438, -23544.835870842442, -15613.028778198814, -30320.38722281304, -27580.532739225953, -19808.473564204403, -21181.988260983024, -18452.683800778843, -23517.52203911806, -38200.60648925382, -0.004417047187685966, 0.9855449917912483, 0.04308566044270992, 192.0, 0.0, 0.0, 0.0, 0.0, 0.0, 0.0, 0.0, 0.0, 0.0, 1.743528634995328E9, 0.0, 2025-04-01 12:30:34.995
128.0, -48179.54280132566, -42992.77579698274, -1362.0929553619571, -48741.73387786554, 13465.137894766081, 7530.660334904234, -16552.696115099923, -23568.305202520514, -15603.082251916201, -30298.326051035652, -27574.765989156484, -19799.912846078023, -21160.70940026157, -18442.916088451875, -23503.909826744777, -38200.919413676194, -0.004417047187685966, 0.9855449917912483, 0.04308566044270992, 192.0, 0.0, 0.0, 0.0, 0.0, 0.0, 0.0, 0.0, 0.0, 0.0, 1.743528634995528E9, 0.0, 2025-04-01 12:30:34.995
130.0, -48170.71386226581, -42994.899212706, -1356.7955919260494, -48738.4034679417, 13446.98827826837, 7524.826529601399, -16542.5037196283, -23571.210929299705, -15615.152193922067, -30317.257978589296, -27571.4579309771, -19810.082889805188, -21159.435350827618, -18437.59637327151, -23506.010890723574, -38197.90192817473, -0.005208523593842983, 0.9807724958956241, 0.04354283022135496, 192.0, 127.5, 104.0, 15.0, 64.0, 0.5, 48.0, 0.0, 0.0, 0.0, 1.743528634995724E9, 0.0, 2025-04-01 12:30:34.995
132.0, -48173.32901636708, -42988.998352169794, -1363.03172862908, -48742.78440985494, 13462.85801683164, 7524.15597726774, -16544.31421092918, -23564.393647240835, -15608.46902232993, -30310.105420363598, -27574.721285667576, -19813.145078795562, -21173.71811553456, -18446.492367564722, -23508.26841691356, -38205.970907923096, -0.005208523593842983, 0.9807724958956241, 0.04354283022135496, 192.0, 0.0, 0.0, 0.0, 0.0, 0.0, 0.0, 0.0, 0.0, 0.0, 1.743528634995935E9, 0.0, 2025-04-01 12:30:34.995
134.0, -48164.20950462932, -42985.712645734864, -1344.1892080532562, -48731.586185882836, 13428.190461181459, 7534.7060006506445, -16533.294800912714, -23557.75517913761, -15612.00059795387, -30315.268673332772, -27572.150835055214, -19814.687349162978, -21153.646249013695, -18443.072550663062, -23509.65422506979, -38203.445160799645, -0.005208523593842983, 0.9807724958956241, 0.04354283022135496, 192.0, 0.0, 0.0, 0.0, 0.0, 0.0, 0.0, 0.0, 0.0, 0.0, 1.743528635054962E9, 0.0, 2025-04-01 12:30:35.054
136.0, -48159.04625166014, -42978.180107853426, -1338.4448097282423, -48722.84665380081, 13477.4313542165, 7544.831340888899, -16528.31036189918, -23547.831004599455, -15597.270798357822, -30283.685658417424, -27559.92443083816, -19791.95562505193, -21146.38193206572, -18415.46814626076, -23493.091582428406, -38183.12742508977, -0.005208523593842983, 0.9807724958956241, 0.04354283022135496, 192.0, 0.0, 0.0, 0.0, 0.0, 0.0, 0.0, 0.0, 0.0, 0.0, 1.743528635055228E9, 0.0, 2025-04-01 12:30:35.055
138.0, -48163.09191740655, -42992.55227953819, -1336.5672631939965, -48723.09252298981, 13433.420769384, 7534.907166350743, -16525.382283375537, -23548.345094721928, -15602.881086216103, -30292.80517015519, -27562.874861106262, -19792.38030819658, -21154.227394369533, -18426.55461151059, -23496.26553014106, -38188.5141955035, -0.005208523593842983, 0.9807724958956241, 0.04354283022135496, 192.0, 0.0, 0.0, 0.0, 0.0, 0.0, 0.0, 0.0, 0.0, 0.0, 1.743528635055432E9, 0.0, 2025-04-01 12:30:35.055
140.0, -48170.19977214334, -42987.00904691328, -1338.355402750421, -48733.463732417076, 13456.398362684056, 7521.831395844388, -16541.22967019435, -23574.340173523447, -15605.697406017473, -30293.431018999938, -27565.668829163176, -19796.224808242896, -21152.28279260192, -18432.567230769066, -23495.013832451565, -38191.486977516055, -0.005604261796921492, 0.979386247947812, 0.04277141511067748, 192.0, 127.5, 104.0, 15.0, 72.0, 0.5, 40.0, 0.0, 0.0, 0.0, 1.743528635055622E9, 0.0, 2025-04-01 12:30:35.055
142.0, -48160.38735632746, -42969.79820368269, -1330.576995679974, -48721.77377006695, 13401.07779515717, 7526.458206946637, -16520.75547227329, -23557.464606459693, -15602.2328856269, -30301.030612114744, -27561.064369805383, -19799.01877629981, -21151.455778057072, -18439.004533172196, -23505.60855932338, -38195.957326407115, -0.005604261796921492, 0.979386247947812, 0.04277141511067748, 192.0, 0.0, 0.0, 0.0, 0.0, 0.0, 0.0, 0.0, 0.0, 0.0, 1.74352863505584E9, 0.0, 2025-04-01 12:30:35.055
144.0, -48171.29500762165, -42989.31127659217, -1340.5682254514963, -48732.7037731056, 13467.395420956067, 7538.7293146526, -16540.22384169386, -23527.98265552314, -15602.769327493826, -30292.76046666628, -27564.171262284668, -19799.510514677826, -21167.504330575983, -18419.469108518257, -23500.04297495401, -38183.865032656795, -0.005604261796921492, 0.979386247947812, 0.04277141511067748, 192.0, 0.0, 0.0, 0.0, 0.0, 0.0, 0.0, 0.0, 0.0, 0.0, 1.743528635056033E9, 0.0, 2025-04-01 12:30:35.056
146.0, -48160.275597605185, -42985.46677654586, -1332.968632336692, -48723.56190962338, 13439.723961320396, 7530.392113970771, -16543.46484463988, -23553.173071524274, -15606.189144395488, -30306.104458106096, -27566.093512307827, -19805.277264747296, -21152.66277225766, -18435.271791848158, -23501.585245321425, -38189.095340859334, -0.005604261796921492, 0.979386247947812, 0.04277141511067748, 192.0, 0.0, 0.0, 0.0, 0.0, 0.0, 0.0, 0.0, 0.0, 0.0, 1.743528635056222E9, 0.0, 2025-04-01 12:30:35.056
148.0, -48167.15993489742, -42981.823442199646, -1333.4603707147087, -48726.64645035821, 13480.359432740144, 7543.44553273267, -16541.341428916625, -23547.629838899356, -15607.79846999627, -30297.163760323976, -27568.35103849781, -19801.790392612267, -21157.311935104364, -18437.328152338046, -23499.774754020546, -38192.09047461635, -0.005604261796921492, 0.979386247947812, 0.04277141511067748, 192.0, 0.0, 0.0, 0.0, 0.0, 0.0, 0.0, 0.0, 0.0, 0.0, 1.743528635056414E9, 0.0, 2025-04-01 12:30:35.056
150.0, -48151.111382378505, -42972.48041301732, -1325.1678735217897, -48712.96718275156, 13438.069932230705, 7540.249233275561, -16528.31036189918, -23545.349960964915, -15599.32715884771, -30293.118094577563, -27557.197518014615, -19795.420145442506, -21150.271135600942, -18425.07939637654, -23501.540541832514, -38193.07395137238, -0.006802130898460746, 0.983693123973906, 0.04238570755533874, 192.0, 127.5, 96.0, 15.0, 112.0, 0.5, 40.0, 0.0, 0.0, 0.0, 1.743528635115369E9, 0.0, 2025-04-01 12:30:35.115
152.0, -48167.338748853064, -42988.26074460277, -1331.5604724360076, -48733.396677183715, 13495.37980501411, 7528.782788369988, -16541.252021938806, -23550.893193589833, -15593.225132611411, -30284.04328632871, -27548.88266907724, -19788.62521512809, -21141.19632735209, -18426.062873132574, -23483.54738754599, -38188.00010538103, -0.006802130898460746, 0.983693123973906, 0.04238570755533874, 192.0, 0.0, 0.0, 0.0, 0.0, 0.0, 0.0, 0.0, 0.0, 0.0, 1.743528635115645E9, 0.0, 2025-04-01 12:30:35.115
154.0, -48156.229931858776, -42991.47939580434, -1322.1056845314129, -48728.34518293681, 13438.785188053274, 7517.5622126534245, -16530.634943322533, -23559.56567043849, -15604.848039728171, -30305.322147050163, -27562.74075063953, -19808.0265293153, -21146.27017334344, -18440.345637839513, -23499.17125692025, -38207.75904747952, -0.006802130898460746, 0.983693123973906, 0.04238570755533874, 192.0, 0.0, 0.0, 0.0, 0.0, 0.0, 0.0, 0.0, 0.0, 0.0, 1.743528635115841E9, 0.0, 2025-04-01 12:30:35.115
156.0, -48161.68375750587, -42980.70585497688, -1331.8957486028373, -48735.74361035152, 13479.532418195298, 7518.053951031441, -16546.907013285996, -23581.068048604495, -15598.813068725238, -30296.247338801306, -27555.4540819471, -19802.192724012464, -21145.621972754238, -18435.204736614793, -23493.60567255088, -38206.46264630111, -0.006802130898460746, 0.983693123973906, 0.04238570755533874, 192.0, 0.0, 0.0, 0.0, 0.0, 0.0, 0.0, 0.0, 0.0, 0.0, 1.743528635116033E9, 0.0, 2025-04-01 12:30:35.116
158.0, -48167.94224595335, -42984.43859630091, -1346.290272032055, -48738.53757840843, 13419.22741165488, 7513.494195162559, -16540.201489949406, -23557.531661693058, -15609.206629896955, -30303.154027837998, -27567.41226523069, -19810.529924694292, -21160.552938050383, -18445.777111742154, -23506.703794801688, -38215.71626850561, -0.006802130898460746, 0.983693123973906, 0.04238570755533874, 192.0, 0.0, 0.0, 0.0, 0.0, 0.0, 0.0, 0.0, 0.0, 0.0, 1.743528635116243E9, 0.0, 2025-04-01 12:30:35.116
160.0, -48172.077318677584, -42985.66794224596, -1347.1172865769013, -48744.59490115582, 13467.28366223379, 7520.177366754695, -16534.770016046765, -23560.795016383534, -15606.926751962514, -30302.9528621379, -27567.92635535316, -19806.30544499224, -21166.386743353218, -18432.74604472471, -23510.88357101483, -38209.860111458314, -0.008401065449230373, 0.983846561986953, 0.041192853777669375, 192.0, 127.5, 88.0, 15.0, 96.0, 0.5, 32.0, 0.0, 0.0, 0.0, 1.743528635116439E9, 0.0, 2025-04-01 12:30:35.116
162.0, -48175.47478383479, -43006.008029700286, -1355.834466914471, -48745.757191867495, 13435.678295573985, 7516.846956830855, -16550.103312743107, -23553.575402924467, -15613.609923554652, -30314.642824488026, -27576.42001824618, -19818.643607931568, -21168.33134512083, -18436.009399415183, -23510.995329737107, -38209.63659401376, -0.008401065449230373, 0.983846561986953, 0.041192853777669375, 192.0, 0.0, 0.0, 0.0, 0.0, 0.0, 0.0, 0.0, 0.0, 0.0, 1.743528635116646E9, 0.0, 2025-04-01 12:30:35.116
164.0, -48154.330033580074, -42979.90119217649, -1330.6664026577953, -48724.992421268515, 13470.368202968622, 7537.879948363298, -16526.991608976317, -23549.462681944693, -15598.276626858311, -30298.214292313376, -27561.1537767832, -19805.63489265858, -21148.527699533428, -18435.897640692907, -23500.668823798755, -38194.86209092881, -0.008401065449230373, 0.983846561986953, 0.041192853777669375, 192.0, 0.0, 0.0, 0.0, 0.0, 0.0, 0.0, 0.0, 0.0, 0.0, 1.743528635175722E9, 0.0, 2025-04-01 12:30:35.175
166.0, -48157.48162954827, -42982.2481253443, -1333.0580393145133, -48721.81847355586, 13434.717170562408, 7541.791503642978, -16526.969257231864, -23536.18574573824, -15598.589551280684, -30289.921795120455, -27559.32093373787, -19797.051822787744, -21154.070932158345, -18436.54584128211, -23499.797105765, -38195.823215940385, -0.008401065449230373, 0.983846561986953, 0.041192853777669375, 192.0, 0.0, 0.0, 0.0, 0.0, 0.0, 0.0, 0.0, 0.0, 0.0, 1.743528635175955E9, 0.0, 2025-04-01 12:30:35.175
168.0, -48177.06175769112, -42998.2966778632, -1358.4943245046527, -48745.80189535641, 13462.478037175899, 7518.6797998761895, -16549.924498787463, -23559.699780905223, -15605.89857171757, -30298.03547835773, -27565.89234660773, -19804.360843224626, -21162.274022373444, -18437.752835482697, -23508.69310005821, -38203.80278871093, -0.008401065449230373, 0.983846561986953, 0.041192853777669375, 192.0, 0.0, 0.0, 0.0, 0.0, 0.0, 0.0, 0.0, 0.0, 0.0, 1.743528635176145E9, 0.0, 2025-04-01 12:30:35.176
170.0, -48173.977216956286, -43001.448273831404, -1359.03076637158, -48739.76692435348, 13433.688990317463, 7522.032561544485, -16535.79819629171, -23557.866937859886, -15615.643932300083, -30309.032536629744, -27579.012820602995, -19823.963323111933, -21186.01157498498, -18455.74598976922, -23529.18964972373, -38215.76097199452, -0.009200532724615186, 0.9799232809934765, 0.04059642688883469, 192.0, 127.5, 88.0, 15.0, 64.0, 0.5, 32.0, 0.0, 0.0, 0.0, 1.743528635176342E9, 0.0, 2025-04-01 12:30:35.176
172.0, -48151.98310041227, -42977.688369475414, -1330.5099404466082, -48723.4501509011, 13476.671394905019, 7540.763323398033, -16534.814719535676, -23542.287771974537, -15594.543885534275, -30300.76239118128, -27557.465738948078, -19810.418165972016, -21160.351772350285, -18436.724655237755, -23508.000195980097, -38192.49280601654, -0.009200532724615186, 0.9799232809934765, 0.04059642688883469, 192.0, 0.0, 0.0, 0.0, 0.0, 0.0, 0.0, 0.0, 0.0, 0.0, 1.743528635176551E9, 0.0, 2025-04-01 12:30:35.176
174.0, -48171.42911808838, -42996.217965628864, -1349.7324406781722, -48739.56575865338, 13458.52177840731, 7517.96454405362, -16555.199510478917, -23570.607432199413, -15600.914132704036, -30301.298833048208, -27563.053675061903, -19814.82145962971, -21151.634592012717, -18443.899565207907, -23508.670748313758, -38206.55205327893, -0.009200532724615186, 0.9799232809934765, 0.04059642688883469, 192.0, 0.0, 0.0, 0.0, 0.0, 0.0, 0.0, 0.0, 0.0, 0.0, 1.743528635176747E9, 0.0, 2025-04-01 12:30:35.176
176.0, -48167.83048723108, -42994.809805728175, -1351.5652837235075, -48734.8048370844, 13448.70936259143, 7518.545689409458, -16558.686382613945, -23573.535510723057, -15610.614789797639, -30306.48443776184, -27570.161529798694, -19814.843811374165, -21173.22637715654, -18451.320344367068, -23520.427765897246, -38211.22356787009, -0.009200532724615186, 0.9799232809934765, 0.04059642688883469, 192.0, 0.0, 0.0, 0.0, 0.0, 0.0, 0.0, 0.0, 0.0, 0.0, 1.743528635176939E9, 0.0, 2025-04-01 12:30:35.176
178.0, -48159.80621097162, -42987.32197133565, -1332.543949192041, -48723.49485439001, 13462.433333686988, 7524.580660412391, -16548.985725520342, -23562.672562917778, -15603.03754842729, -30298.594271969116, -27563.612468673287, -19805.59018916967, -21168.845435243304, -18427.895716177907, -23513.18580069373, -38208.80957946892, -0.009200532724615186, 0.9799232809934765, 0.04059642688883469, 192.0, 0.0, 0.0, 0.0, 0.0, 0.0, 0.0, 0.0, 0.0, 0.0, 1.743528635177137E9, 0.0, 2025-04-01 12:30:35.177
180.0, -48163.829524973575, -42985.28796259021, -1335.5390829490523, -48721.17027296666, 13448.888176547072, 7527.39698021376, -16548.784559820244, -23561.443216972737, -15590.475868043408, -30292.89457713301, -27547.541564409923, -19792.469715174404, -21149.17590012263, -18430.779091212644, -23504.289806400517, -38192.06812287189, -0.009600266362307593, 0.9819616404967382, 0.03829821344441735, 192.0, 127.5, 88.0, 15.0, 96.0, 0.5, 16.0, 0.0, 0.0, 0.0, 1.743528635236404E9, 0.0, 2025-04-01 12:30:35.236
182.0, -48160.208542371816, -42988.12663413604, -1332.6557079143176, -48717.25871768698, 13476.671394905019, 7538.595204185868, -16543.08486498414, -23550.20028951172, -15597.22609486891, -30290.23471954283, -27557.912773837183, -19802.840924601667, -21165.537377063916, -18437.752835482697, -23505.60855932338, -38198.214852597106, -0.009600266362307593, 0.9819616404967382, 0.03829821344441735, 192.0, 0.0, 0.0, 0.0, 0.0, 0.0, 0.0, 0.0, 0.0, 0.0, 1.74352863523666E9, 0.0, 2025-04-01 12:30:35.236
184.0, -48172.34553961105, -42994.675695261445, -1341.8646266299043, -48736.01183128498, 13438.628725842087, 7502.787709568466, -16561.43564718195, -23584.53256899507, -15612.894667732082, -30305.031574372242, -27569.490977465033, -19816.095509063663, -21166.67731603114, -18452.28146937865, -23512.26937917106, -38213.369335337804, -0.009600266362307593, 0.9819616404967382, 0.03829821344441735, 192.0, 0.0, 0.0, 0.0, 0.0, 0.0, 0.0, 0.0, 0.0, 0.0, 1.743528635236853E9, 0.0, 2025-04-01 12:30:35.236
186.0, -48173.01609194471, -42991.63585801552, -1342.64693768584, -48733.26256671698, 13455.861920817128, 7510.834337572377, -16557.434684924447, -23575.43540900176, -15612.961722965447, -30300.29300454772, -27568.731018153554, -19809.859372360632, -21152.573365279837, -18453.332001368046, -23510.481239614637, -38216.63269002827, -0.009600266362307593, 0.9819616404967382, 0.03829821344441735, 192.0, 0.0, 0.0, 0.0, 0.0, 0.0, 0.0, 0.0, 0.0, 0.0, 1.743528635237062E9, 0.0, 2025-04-01 12:30:35.237
188.0, -48148.38446955496, -42972.860392673065, -1329.8840916018596, -48716.99049675352, 13433.286658917268, 7530.056837803941, -16550.349181932113, -23575.770685168587, -15605.630350784106, -30297.253167301795, -27564.528890195954, -19799.309348977727, -21163.43631308512, -18441.59733552901, -23509.162486691774, -38205.45681780062, -0.009600266362307593, 0.9819616404967382, 0.03829821344441735, 192.0, 0.0, 0.0, 0.0, 0.0, 0.0, 0.0, 0.0, 0.0, 0.0, 1.743528635237253E9, 0.0, 2025-04-01 12:30:35.237
190.0, -48151.7148794788, -42977.71072121987, -1326.0395915555468, -48725.26064220198, 13492.921113124028, 7544.5631199554355, -16547.354048175104, -23553.955382580207, -15584.619710996118, -30282.545719450205, -27545.842831831316, -19787.775848838788, -21142.98446690851, -18425.392320798914, -23493.806838250977, -38198.952460164124, -0.015800133181153794, 0.9829808202483691, 0.03914910672220867, 192.0, 127.5, 40.0, 15.0, 96.0, 0.5, 32.0, 0.0, 0.0, 0.0, 1.743528635237441E9, 0.0, 2025-04-01 12:30:35.237
192.0, -48158.91214119341, -42991.76996848226, -1330.7558096356165, -48723.517206134464, 13438.919298520006, 7544.317250766427, -16535.79819629171, -23523.244085698618, -15605.473888572918, -30300.04713535871, -27560.393817471722, -19806.081927547686, -21156.261403114964, -18431.06966389056, -23503.351033133393, -38193.81155893941, -0.015800133181153794, 0.9829808202483691, 0.03914910672220867, 192.0, 0.0, 0.0, 0.0, 0.0, 0.0, 0.0, 0.0, 0.0, 0.0, 1.743528635237652E9, 0.0, 2025-04-01 12:30:35.237
194.0, -48159.80621097162, -42975.14027060751, -1335.7849521380606, -48730.28978470442, 13480.605301929154, 7531.040314559975, -16550.527995887758, -23556.011743070096, -15604.266894372333, -30291.106437576585, -27559.16447152668, -19792.067383774207, -21145.621972754238, -18418.195059084304, -23498.947739475698, -38195.532643262464, -0.015800133181153794, 0.9829808202483691, 0.03914910672220867, 192.0, 0.0, 0.0, 0.0, 0.0, 0.0, 0.0, 0.0, 0.0, 0.0, 1.743528635294872E9, 0.0, 2025-04-01 12:30:35.294
196.0, -48168.00930118672, -43000.487148819826, -1344.0103940976137, -48737.12941850775, 13430.89502226055, 7519.7750353545, -16553.545481389225, -23558.872766360375, -15601.003539681858, -30291.486417232325, -27555.565840669376, -19785.58537788217, -21150.964039679056, -18442.625515773954, -23494.767963262555, -38193.722151961585, -0.015800133181153794, 0.9829808202483691, 0.03914910672220867, 192.0, 0.0, 0.0, 0.0, 0.0, 0.0, 0.0, 0.0, 0.0, 0.0, 1.743528635295103E9, 0.0, 2025-04-01 12:30:35.295
198.0, -48184.326074639095, -43011.439503602924, -1360.1036501054348, -48752.507418693, 13459.415848185523, 7507.839203815366, -16563.335545460646, -23576.95532762472, -15630.306676662765, -30319.291987334727, -27585.740695684042, -19816.341378252673, -21183.396420883706, -18471.883949265954, -23524.182858965738, -38225.14870466575, -0.015800133181153794, 0.9829808202483691, 0.03914910672220867, 192.0, 0.0, 0.0, 0.0, 0.0, 0.0, 0.0, 0.0, 0.0, 0.0, 1.743528635295301E9, 0.0, 2025-04-01 12:30:35.295
200.0, -48172.993740200254, -43004.75633201079, -1353.5098854911191, -48739.610462142286, 13424.189498923959, 7524.20068075665, -16558.976955291862, -23562.13612105085, -15619.108452690656, -30317.14621986702, -27574.140140311738, -19810.954607838943, -21167.258461386977, -18451.6556205339, -23515.21980943916, -38209.457780058125, -0.014900066590576896, 0.9814904101241846, 0.043574553361104336, 192.0, 127.5, 72.0, 15.0, 80.0, 0.5, 64.0, 0.0, 0.0, 0.0, 1.743528635295492E9, 0.0, 2025-04-01 12:30:35.295
202.0, -48170.98208319928, -42998.65430577449, -1356.639129714862, -48741.73387786554, 13481.901703107562, 7524.468901690114, -16554.730123845355, -23571.210929299705, -15618.549659079274, -30313.636995987537, -27574.251899034014, -19817.593075942168, -21171.170016666656, -18448.056989676596, -23513.297559416005, -38207.82610271288, -0.014900066590576896, 0.9814904101241846, 0.043574553361104336, 192.0, 0.0, 0.0, 0.0, 0.0, 0.0, 0.0, 0.0, 0.0, 0.0, 1.743528635295715E9, 0.0, 2025-04-01 12:30:35.295
204.0, -48162.868399962, -43001.13534940903, -1345.3067952760214, -48731.78735158293, 13431.99025773886, 7531.777922126999, -16554.46190291189, -23557.62106867088, -15617.499127089874, -30311.602987242102, -27567.92635535316, -19809.233523515883, -21167.169054409154, -18441.37381808446, -23505.6979663012, -38200.517082276, -0.014900066590576896, 0.9814904101241846, 0.043574553361104336, 192.0, 0.0, 0.0, 0.0, 0.0, 0.0, 0.0, 0.0, 0.0, 0.0, 1.743528635295904E9, 0.0, 2025-04-01 12:30:35.295
206.0, -48174.51365882321, -43014.680506548946, -1358.6060832269293, -48748.52880817995, 13472.603377414152, 7517.159881253229, -16563.51435941629, -23589.29349056405, -15617.744996278883, -30308.94312965192, -27569.155701298205, -19808.138288037575, -21174.9474614796, -18441.59733552901, -23513.297559416005, -38210.59771902534, -0.014900066590576896, 0.9814904101241846, 0.043574553361104336, 192.0, 0.0, 0.0, 0.0, 0.0, 0.0, 0.0, 0.0, 0.0, 0.0, 1.7435286352961E9, 0.0, 2025-04-01 12:30:35.296
208.0, -48161.14731563894, -42995.726227250845, -1344.7480016646389, -48732.7037731056, 13430.492690860356, 7529.63215465929, -16550.95267903241, -23565.62299318588, -15619.488432346396, -30316.05098438871, -27572.64257343323, -19817.30250326425, -21170.365353866262, -18457.17650141436, -23520.539524619526, -38215.49275106106, -0.014900066590576896, 0.9814904101241846, 0.043574553361104336, 192.0, 0.0, 0.0, 0.0, 0.0, 0.0, 0.0, 0.0, 0.0, 0.0, 1.743528635296302E9, 0.0, 2025-04-01 12:30:35.296
210.0, -48164.38831858496, -42990.54062253721, -1345.6867749317616, -48728.903976548194, 13479.845342617673, 7545.479541478103, -16539.709751571387, -23551.407283712302, -15602.523458304819, -30305.545664494715, -27555.901116836205, -19802.371537968105, -21161.871690973247, -18425.571134754555, -23497.226655152637, -38189.45296877062, -0.011450033295288448, 0.9787452050620923, 0.04578727668055217, 192.0, 127.5, 96.0, 15.0, 64.0, 0.5, 64.0, 0.0, 0.0, 0.0, 1.743528635355218E9, 0.0, 2025-04-01 12:30:35.355
212.0, -48162.13079239497, -43000.17422439745, -1342.579882452474, -48723.472502645556, 13438.695781075452, 7532.739047138578, -16556.048876768218, -23563.544280951533, -15612.80526075426, -30304.919815649966, -27564.059503562392, -19802.706814134934, -21172.354659122786, -18445.687704764332, -23510.25772217008, -38199.22068109759, -0.011450033295288448, 0.9787452050620923, 0.04578727668055217, 192.0, 0.0, 0.0, 0.0, 0.0, 0.0, 0.0, 0.0, 0.0, 0.0, 1.743528635355443E9, 0.0, 2025-04-01 12:30:35.355
214.0, -48165.57296104109, -42995.48035806184, -1353.845161657949, -48729.77569458195, 13463.3274034652, 7536.471788462614, -16547.577565619657, -23556.57053668148, -15607.99963569637, -30299.66715570297, -27562.4054744727, -19799.19759025545, -21167.95136546509, -18443.877213463453, -23510.011852981075, -38192.85043392783, -0.011450033295288448, 0.9787452050620923, 0.04578727668055217, 192.0, 0.0, 0.0, 0.0, 0.0, 0.0, 0.0, 0.0, 0.0, 0.0, 1.743528635355655E9, 0.0, 2025-04-01 12:30:35.355
216.0, -48174.468955334305, -42999.12369240805, -1357.9802343821807, -48731.094447504816, 13441.825025299195, 7532.046143060464, -16555.378324434558, -23558.80571112701, -15616.09096718919, -30304.60689122759, -27577.068218835382, -19812.29571250626, -21195.399307656207, -18451.6556205339, -23519.354882163392, -38205.00978291152, -0.011450033295288448, 0.9787452050620923, 0.04578727668055217, 192.0, 0.0, 0.0, 0.0, 0.0, 0.0, 0.0, 0.0, 0.0, 0.0, 1.743528635355842E9, 0.0, 2025-04-01 12:30:35.355
