%OpenBCI Raw EXG Data
%Number of channels = 16
%Sample Rate = 125 Hz
%Board = OpenBCI_GUI$BoardCytonSerialDaisy
Sample Index, EXG Channel 0, EXG Channel 1, EXG Channel 2, EXG Channel 3, EXG Channel 4, EXG Channel 5, EXG Channel 6, EXG Channel 7, EXG Channel 8, EXG Channel 9, EXG Channel 10, EXG Channel 11, EXG Channel 12, EXG Channel 13, EXG Channel 14, EXG Channel 15, Accel Channel 0, Accel Channel 1, Accel Channel 2, Not Used, Digital Channel 0 (D11), Digital Channel 1 (D12), Digital Channel 2 (D13), Digital Channel 3 (D17), Not Used, Digital Channel 4 (D18), Analog Channel 0, Analog Channel 1, Analog Channel 2, Timestamp, Marker Channel, Timestamp (Formatted)
72.0, -19193.197094583167, -4088.9163719315975, -187500.02235174447, -9428.412846137626, 20790.25158765931, 10100.418043186432, -44497.919916858664, 5750.120371594474, -3235.526768627974, 41707.572842547044, 7718.817319729009, 35111.505998552566, -13013.900877702341, 3332.3098221194537, -55430.33694390499, -187500.02235174447, 0.0, 0.0, 0.0, 192.0, 0.0, 0.0, 0.0, 0.0, 0.0, 0.0, 0.0, 0.0, 0.0, 1.741979277068081E9, 0.0, 2025-03-14 14:07:57.068
74.0, -19170.621832683308, -4102.126252904684, -187500.02235174447, -9407.379854605182, 20830.39532070104, 10131.19639530139, -44514.66137345569, 5776.718947496289, -3272.809478379426, 41558.33024481896, 7544.250195533061, 34959.06710136737, -13013.610305024422, 3304.4819002725962, -55541.33570687005, -187500.02235174447, 0.0, 0.0, 0.0, 192.0, 0.0, 0.0, 0.0, 0.0, 0.0, 0.0, 0.0, 0.0, 0.0, 1.741979277068203E9, 0.0, 2025-03-14 14:07:57.068
76.0, -19179.920158376714, -4106.57425005129, -187500.02235174447, -9408.184517405572, 20811.664558847497, 10122.255697519267, -44509.676934442155, 5762.145610111429, -3249.7871815904596, 41720.87213049795, 7738.956241483241, 35129.72267028364, -13008.156479377329, 3317.624726012317, -55412.388493107384, -187500.02235174447, 0.0, 0.0, 0.0, 192.0, 0.0, 0.0, 0.0, 0.0, 0.0, 0.0, 0.0, 0.0, 0.0, 1.741979277068291E9, 0.0, 2025-03-14 14:07:57.068
78.0, -19156.20495750963, -4079.550991004824, -187500.02235174447, -9411.403168607136, 20823.734500853363, 10131.174043556935, -44514.795483922426, 5777.769479485689, -3277.3692342483087, 41558.62081749688, 7544.294899021972, 34960.67642696815, -13027.982476709185, 3298.402225780753, -55531.12095965397, -187500.02235174447, 0.0, 0.0, 0.0, 192.0, 0.0, 0.0, 0.0, 0.0, 0.0, 0.0, 0.0, 0.0, 0.0, 1.741979277068377E9, 0.0, 2025-03-14 14:07:57.068
80.0, -19164.966841336114, -4065.9164268870863, -187500.02235174447, -9403.28948536986, 20813.96678852639, 10120.735778896305, -44506.21241405159, 5764.514895023692, -3244.556873387918, 41717.16174091837, 7734.955279225741, 35123.8888649808, -13013.207973624227, 3346.7714007820373, -55409.68393202829, -187500.02235174447, 0.036000000000000004, 0.492, 0.034, 192.0, 1.0, 32.0, 15.0, 96.0, 1.0, 16.0, 0.0, 0.0, 0.0, 1.741979277068465E9, 0.0, 2025-03-14 14:07:57.068
82.0, -19157.724876132594, -4061.021394851374, -187500.02235174447, -9480.291245018392, 20768.011601926282, 10064.789362524672, -44483.57009691836, 5717.46447294527, -3251.0835827688675, 41536.0008521081, 7522.546651666958, 34935.62012143375, -13015.599610280946, 3300.5926967373725, -55558.05481172262, -187500.02235174447, 0.036000000000000004, 0.492, 0.034, 192.0, 0.0, 0.0, 0.0, 0.0, 0.0, 0.0, 0.0, 0.0, 0.0, 1.741979277068557E9, 0.0, 2025-03-14 14:07:57.068
84.0, -19181.820056655415, -4095.308970845815, -187500.02235174447, -9404.071796425796, 20815.710224593906, 10111.951543325371, -44504.513681472985, 5759.150476354418, -3244.713335599105, 41683.656475979864, 7692.822240927487, 35080.526480737506, -12997.42764203878, 3352.8510752738807, -55459.6400808859, -187500.02235174447, 0.036000000000000004, 0.492, 0.034, 192.0, 0.0, 0.0, 0.0, 0.0, 0.0, 0.0, 0.0, 0.0, 0.0, 1.741979277068649E9, 0.0, 2025-03-14 14:07:57.068
86.0, -19196.572207995916, -4095.6665987571, -187500.02235174447, -9477.698442661576, 20761.73076173434, 10063.828237513095, -44501.630306438245, 5723.119464292463, -3271.5801324343843, 41543.220465567174, 7533.141378538773, 34937.81059239037, -13038.130168691894, 3305.0406938839787, -55554.65734656541, -187500.02235174447, 0.036000000000000004, 0.492, 0.034, 192.0, 0.0, 0.0, 0.0, 0.0, 0.0, 0.0, 0.0, 0.0, 0.0, 1.741979277068741E9, 0.0, 2025-03-14 14:07:57.068
88.0, -19208.820963957427, -4104.652000028133, -187500.02235174447, -9365.38092677366, 20844.18634702997, 10138.14778782699, -44513.72260018857, 5793.035720948663, -3227.5918993463397, 41689.959667916264, 7705.138052122361, 35084.68390520619, -13004.870772942397, 3344.8491507588806, -55442.228071955215, -187500.02235174447, 0.036000000000000004, 0.492, 0.034, 192.0, 0.0, 0.0, 0.0, 0.0, 0.0, 0.0, 0.0, 0.0, 0.0, 1.74197927706883E9, 0.0, 2025-03-14 14:07:57.068
0.0, -9648.979860422596, -2075.9182662866433, -93750.01117587223, -4672.095736515014, 10420.96441041999, 5093.001436352902, -22222.081985721827, 2906.374979779122, -1645.9377581999015, 20804.333186666154, 3808.8937173955105, 17506.042719607678, -6526.48586350511, 1647.8153047341473, -27743.63341851633, -93750.01117587223, 0.07, 0.976, 0.068, 192.0, 1.0, 24.0, 15.0, 64.0, 1.0, 16.0, 0.0, 0.0, 0.0, 1.741979277180377E9, 0.0, 2025-03-14 14:07:57.180
2.0, -19276.032659534536, -4146.807390070843, -187500.02235174447, -9455.570215650823, 20757.707447732384, 10111.392749713988, -44430.93173872611, 5748.734563438245, -3264.137001530767, 41577.977428195176, 7694.968008395196, 35252.09847117645, -13043.740456550177, 3435.641936736338, -55489.211438800274, -187500.02235174447, 0.07, 0.976, 0.068, 192.0, 0.0, 0.0, 0.0, 0.0, 0.0, 0.0, 0.0, 0.0, 0.0, 1.74197927723993E9, 0.0, 2025-03-14 14:07:57.239
4.0, -19264.96854602916, -4154.96577679703, -187500.02235174447, -9327.6511821331, 20872.3271932992, 10199.570381590174, -44434.08333469431, 5825.065770753118, -3218.0924079528345, 41609.60514659943, 7730.976668712697, 35275.97013425471, -12991.370319291393, 3463.0004719496337, -55482.37180499695, -187500.02235174447, 0.07, 0.976, 0.068, 192.0, 0.0, 0.0, 0.0, 0.0, 0.0, 0.0, 0.0, 0.0, 0.0, 1.741979277240054E9, 0.0, 2025-03-14 14:07:57.240
6.0, -19274.222168233653, -4136.123256221206, -187500.02235174447, -9452.575081893812, 20757.77450296575, 10108.665836890441, -44421.47695082152, 5743.191330813329, -3252.6482048807393, 41594.9200504923, 7715.598668527445, 35267.78939578407, -13038.823072770008, 3441.8557216949134, -55480.42720322934, -187500.02235174447, 0.07, 0.976, 0.068, 192.0, 0.0, 0.0, 0.0, 0.0, 0.0, 0.0, 0.0, 0.0, 0.0, 1.741979277240212E9, 0.0, 2025-03-14 14:07:57.240
8.0, -19265.728505340638, -4160.218436744027, -187500.02235174447, -9301.231420186929, 20893.09196389818, 10219.843413811137, -44448.67902382363, 5846.612852408034, -3207.005942703002, 41607.66054483182, 7727.333334366481, 35277.55710811104, -12989.04573786804, 3469.5718848194942, -55474.72750839323, -187500.02235174447, 0.066, 0.978, 0.066, 192.0, 1.0, 8.0, 15.0, 72.0, 1.0, 8.0, 0.0, 0.0, 0.0, 1.741979277240345E9, 0.0, 2025-03-14 14:07:57.240
10.0, -19250.305801666476, -4146.606224370745, -187500.02235174447, -9451.457494671047, 20760.009677411283, 10101.468575175832, -44420.895805465676, 5747.304051793105, -3233.0233732489796, 41614.947213524254, 7744.9018055083525, 35296.667849620324, -13026.52961331959, 3455.5349893015614, -55454.43212442781, -187500.02235174447, 0.066, 0.978, 0.066, 192.0, 0.0, 0.0, 0.0, 0.0, 0.0, 0.0, 0.0, 0.0, 0.0, 1.741979277240475E9, 0.0, 2025-03-14 14:07:57.240
12.0, -19281.732354370637, -4140.705363834544, -187500.02235174447, -9335.630754903646, 20868.16976883051, 10182.046613937213, -44438.732497541016, 5821.958878273831, -3226.228442934566, 41574.75877699361, 7690.7211769486885, 35243.71656700571, -12992.733775703166, 3462.4193265937956, -55502.04134011762, -187500.02235174447, 0.066, 0.978, 0.066, 192.0, 0.0, 0.0, 0.0, 0.0, 0.0, 0.0, 0.0, 0.0, 0.0, 1.741979277240608E9, 0.0, 2025-03-14 14:07:57.240
14.0, -19287.38734571783, -4139.565424867324, -187500.02235174447, -9443.477921900501, 20765.575261780654, 10104.754281610762, -44430.350593370276, 5754.590720485535, -3258.2361409945656, 41624.64787061785, 7749.886244521886, 35300.869977577924, -13032.989267467174, 3464.9227219727904, -55463.30576697657, -187500.02235174447, 0.066, 0.978, 0.066, 192.0, 0.0, 0.0, 0.0, 0.0, 0.0, 0.0, 0.0, 0.0, 0.0, 1.741979277240801E9, 0.0, 2025-03-14 14:07:57.240
16.0, -19260.587604115917, -4154.764611096932, -187500.02235174447, -9329.551080411802, 20881.871388181615, 10195.480012354852, -44447.047346478386, 5835.325221458104, -3227.9048237687143, 41563.53820127704, 7676.684281430756, 35232.80891571152, -12994.633673981867, 3449.7458874876365, -55510.26678207717, -187500.02235174447, 0.066, 0.978, 0.066, 192.0, 0.0, 0.0, 0.0, 0.0, 0.0, 0.0, 0.0, 0.0, 0.0, 1.741979277300185E9, 0.0, 2025-03-14 14:07:57.300
18.0, -19251.490444122606, -4141.53237837939, -187500.02235174447, -9420.34386638926, 20785.714183534885, 10124.692037664896, -44429.03184044741, 5772.650930005423, -3241.5617396309067, 41662.757594914154, 7799.216544534749, 35346.26637056666, -13018.773557993598, 3452.517503800095, -55420.50217634466, -187500.02235174447, 0.064, 0.98, 0.056, 192.0, 1.0, 0.0, 15.0, 80.0, 0.5, 96.0, 0.0, 0.0, 0.0, 1.741979277300345E9, 0.0, 2025-03-14 14:07:57.300
20.0, -19243.779092285527, -4162.0512797893625, -187500.02235174447, -9343.051534062808, 20872.08132411019, 10186.606369806095, -44447.69554706759, 5830.698410355855, -3208.525861325963, 41547.57905573596, 7659.3169759889815, 35217.72148820418, -13002.657950241322, 3446.4378293082514, -55522.82846246105, -187500.02235174447, 0.064, 0.98, 0.056, 192.0, 0.0, 0.0, 0.0, 0.0, 0.0, 0.0, 0.0, 0.0, 0.0, 1.741979277300444E9, 0.0, 2025-03-14 14:07:57.300
22.0, -19265.795560574003, -4134.402171898148, -187500.02235174447, -9410.419691851102, 20796.577131340164, 10133.968011613848, -44433.12220968273, 5782.306883610116, -3250.301271712932, 41671.34066478499, 7812.962867374763, 35357.75516721668, -13020.941677205763, 3452.7857247335587, -55415.048350697565, -187500.02235174447, 0.064, 0.98, 0.056, 192.0, 0.0, 0.0, 0.0, 0.0, 0.0, 0.0, 0.0, 0.0, 0.0, 1.741979277300527E9, 0.0, 2025-03-14 14:07:57.300
24.0, -19276.68086012374, -4146.159189481639, -187500.02235174447, -9362.98929011694, 20859.98903035987, 10176.123401656558, -44444.521599354935, 5824.797549819655, -3232.1293034707674, 41527.551892704, 7640.876786813354, 35207.03735435454, -13009.497584044646, 3434.770218702581, -55534.317259111085, -187500.02235174447, 0.064, 0.98, 0.056, 192.0, 0.0, 0.0, 0.0, 0.0, 0.0, 0.0, 0.0, 0.0, 0.0, 1.741979277300615E9, 0.0, 2025-03-14 14:07:57.300
26.0, -19287.58851141793, -4155.993957041974, -187500.02235174447, -9373.360499544204, 20826.036730532258, 10167.875607952548, -44448.723727312536, 5820.48366313978, -3251.3741554467865, 41692.48541503971, 7834.755818218687, 35383.86200474048, -13008.268238099605, 3469.705995286226, -55395.91525744382, -187500.02235174447, 0.064, 0.98, 0.056, 192.0, 0.0, 0.0, 0.0, 0.0, 0.0, 0.0, 0.0, 0.0, 0.0, 1.741979277300697E9, 0.0, 2025-03-14 14:07:57.300
28.0, -19263.627441361838, -4147.634404615689, -187500.02235174447, -9370.43242102056, 20844.812195874714, 10170.177837631445, -44445.8403522778, 5817.801453805144, -3248.4684286675965, 41530.03293633854, 7644.207196737194, 35214.72635444717, -13022.573354551001, 3430.5904424894384, -55521.42030256037, -187500.02235174447, 0.07, 0.976, 0.052000000000000005, 192.0, 1.0, 24.0, 15.0, 64.0, 0.5, 80.0, 0.0, 0.0, 0.0, 1.741979277300787E9, 0.0, 2025-03-14 14:07:57.300
30.0, -19282.67112763776, -4161.246616988971, -187500.02235174447, -9359.52476972637, 20831.870535835093, 10172.033032421235, -44446.08622146681, 5822.607078863034, -3243.618100120795, 41690.96549641675, 7834.375838562947, 35384.51020532969, -13010.682226500778, 3464.475687083684, -55394.52944928759, -187500.02235174447, 0.07, 0.976, 0.052000000000000005, 192.0, 0.0, 0.0, 0.0, 0.0, 0.0, 0.0, 0.0, 0.0, 0.0, 1.741979277300885E9, 0.0, 2025-03-14 14:07:57.300
32.0, -19258.687705837216, -4146.338003437281, -187500.02235174447, -9395.108746899217, 20826.26024797681, 10152.318793811655, -44436.631433562216, 5807.184375188873, -3252.6705566251944, 41517.20303502119, 7629.387990163325, 35204.28808978654, -13018.326523104493, 3419.861605150891, -55529.64574451992, -187500.02235174447, 0.07, 0.976, 0.052000000000000005, 192.0, 0.0, 0.0, 0.0, 0.0, 0.0, 0.0, 0.0, 0.0, 0.0, 1.741979277359637E9, 0.0, 2025-03-14 14:07:57.359
34.0, -19278.75957235808, -4159.324366965815, -187500.02235174447, -9359.792990659833, 20838.509003938318, 10172.949453943904, -44444.7898202884, 5826.518634142713, -3236.1526174727223, 41685.288153325106, 7822.931745401829, 35371.5014900567, -12999.260485084116, 3477.1714779342983, -55404.54303080357, -187500.02235174447, 0.07, 0.976, 0.052000000000000005, 192.0, 0.0, 0.0, 0.0, 0.0, 0.0, 0.0, 0.0, 0.0, 0.0, 1.741979277359779E9, 0.0, 2025-03-14 14:07:57.359
36.0, -19261.347563427396, -4138.425485900103, -187500.02235174447, -9418.891002999664, 20806.54600936723, 10138.505415738275, -44416.82778797481, 5797.550773328635, -3260.1360392732668, 41517.4489042102, 7630.036190752529, 35202.656412441305, -13021.232249883682, 3428.019991877078, -55524.95187818431, -187500.02235174447, 0.07, 0.976, 0.052000000000000005, 192.0, 0.0, 0.0, 0.0, 0.0, 0.0, 0.0, 0.0, 0.0, 0.0, 1.741979277359873E9, 0.0, 2025-03-14 14:07:57.359
38.0, -19279.54188341402, -4164.264102490438, -187500.02235174447, -9352.975708600963, 20849.193137787955, 10182.694814526418, -44437.99488997399, 5834.073523768607, -3236.778466317471, 41669.15019382837, 7802.435195736313, 35355.4976410267, -12986.5646942335, 3482.468841370206, -55417.03765595408, -187500.02235174447, 0.068, 0.984, 0.048, 192.0, 1.0, 16.0, 15.0, 96.0, 0.5, 64.0, 0.0, 0.0, 0.0, 1.741979277359961E9, 0.0, 2025-03-14 14:07:57.359
40.0, -19268.366011186365, -4156.8880268201865, -187500.02235174447, -9419.472148355502, 20802.366233154087, 10146.730857697828, -44432.04932594888, 5803.161061186917, -3266.1710102762, 41526.32254675896, 7640.072124012962, 35213.3628980354, -13027.982476709185, 3430.7916081895364, -55512.65841873389, -187500.02235174447, 0.068, 0.984, 0.048, 192.0, 0.0, 0.0, 0.0, 0.0, 0.0, 0.0, 0.0, 0.0, 0.0, 1.741979277360057E9, 0.0, 2025-03-14 14:07:57.360
42.0, -19277.798447346504, -4159.324366965815, -187500.02235174447, -9340.27991775035, 20859.050257092746, 10194.831811765649, -44437.54785508488, 5841.874282583509, -3243.908672798714, 41666.87031589393, 7805.318570771047, 35354.17888810383, -12992.085575113962, 3479.8536872689356, -55411.85205124046, -187500.02235174447, 0.068, 0.984, 0.048, 192.0, 0.0, 0.0, 0.0, 0.0, 0.0, 0.0, 0.0, 0.0, 0.0, 1.741979277360145E9, 0.0, 2025-03-14 14:07:57.360
44.0, -19266.644926863304, -4160.039622788385, -187500.02235174447, -9453.312689460838, 20774.31479386268, 10118.657066661963, -44425.1873404011, 5776.115450395996, -3264.2487602530437, 41531.21757879467, 7645.0565630264955, 35215.083982358454, -13030.463520343725, 3440.6934309832372, -55517.62050600297, -187500.02235174447, 0.068, 0.984, 0.048, 192.0, 0.0, 0.0, 0.0, 0.0, 0.0, 0.0, 0.0, 0.0, 0.0, 1.74197927736023E9, 0.0, 2025-03-14 14:07:57.360
46.0, -19296.57391268896, -4191.913210381653, -187500.02235174447, -9325.79598734331, 20874.38355378909, 10208.779300305761, -44444.07456446583, 5856.4476199683695, -3249.7871815904596, 41652.31933025352, 7788.130079284916, 35339.605550718974, -12998.768746706099, 3475.4056901223294, -55428.36999039292, -187500.02235174447, 0.068, 0.984, 0.048, 192.0, 0.0, 0.0, 0.0, 0.0, 0.0, 0.0, 0.0, 0.0, 0.0, 1.741979277419376E9, 0.0, 2025-03-14 14:07:57.419
48.0, -19287.834380606935, -4179.709157909055, -187500.02235174447, -9448.44000916958, 20775.11945666307, 10127.53070921072, -44425.07558167882, 5784.899685966931, -3278.3750627487975, 41551.42355578227, 7679.880580887864, 35247.31519786301, -13060.951299780763, 3428.936413399746, -55488.585589955524, -187500.02235174447, 0.07, 0.984, 0.05, 192.0, 1.0, 24.0, 15.0, 96.0, 0.5, 72.0, 0.0, 0.0, 0.0, 1.741979277419474E9, 0.0, 2025-03-14 14:07:57.419
50.0, -19312.555409974506, -4194.863640649753, -187500.02235174447, -9340.056400305797, 20870.248481064857, 10198.117518200579, -44436.02793646192, 5844.5341401736905, -3248.6695943676946, 41625.72075435171, 7767.6335296194, 35317.25380626367, -12998.47817402818, 3459.7818207480695, -55442.719810333234, -187500.02235174447, 0.07, 0.984, 0.05, 192.0, 0.0, 0.0, 0.0, 0.0, 0.0, 0.0, 0.0, 0.0, 0.0, 1.741979277419587E9, 0.0, 2025-03-14 14:07:57.419
52.0, -19304.419374992773, -4189.499221980479, -187500.02235174447, -9471.954044336564, 20761.820168712162, 10104.2848949772, -44416.58191878581, 5764.917226423887, -3290.7579291770376, 41544.36040453439, 7679.7464704211325, 35239.000348925634, -13037.616078569423, 3432.1103611123995, -55506.37757854195, -187500.02235174447, 0.07, 0.984, 0.05, 192.0, 0.0, 0.0, 0.0, 0.0, 0.0, 0.0, 0.0, 0.0, 0.0, 1.74197927741968E9, 0.0, 2025-03-14 14:07:57.419
54.0, -19323.574819990972, -4198.6410854627, -187500.02235174447, -9324.499586164902, 20892.689632497983, 10213.607277108107, -44440.118305697244, 5865.7235939173215, -3280.3867197497752, 41609.962774510714, 7747.829884031998, 35295.50555890865, -12996.801793194032, 3482.066509970011, -55458.18721749631, -187500.02235174447, 0.07, 0.984, 0.05, 192.0, 0.0, 0.0, 0.0, 0.0, 0.0, 0.0, 0.0, 0.0, 0.0, 1.741979277419769E9, 0.0, 2025-03-14 14:07:57.419
56.0, -19316.690482698737, -4175.372919484726, -187500.02235174447, -9462.029869798407, 20765.01646816927, 10111.951543325371, -44426.416686346136, 5777.210685874305, -3297.1505280912556, 41584.101806175924, 7723.377075597892, 35278.8758610339, -13042.108779204938, 3436.424247792274, -55458.88012157442, -187500.02235174447, 0.07, 0.984, 0.05, 192.0, 0.0, 0.0, 0.0, 0.0, 0.0, 0.0, 0.0, 0.0, 0.0, 1.741979277419855E9, 0.0, 2025-03-14 14:07:57.419
58.0, -19323.597171735426, -4192.472003993035, -187500.02235174447, -9334.200243258505, 20881.93844341498, 10199.883306012549, -44446.66736682265, 5857.967538591331, -3290.0873768433785, 41576.23399212766, 7710.457767302724, 35257.99933171264, -12997.13706936086, 3458.708937014215, -55483.131764308426, -187500.02235174447, 0.08, 0.984, 0.056, 192.0, 1.0, 64.0, 15.0, 96.0, 0.5, 96.0, 0.0, 0.0, 0.0, 1.741979277419948E9, 0.0, 2025-03-14 14:07:57.419
60.0, -19312.555409974506, -4185.073576578328, -187500.02235174447, -9464.667375644132, 20761.5519477787, 10102.452051931865, -44422.97451770002, 5773.656758505912, -3303.230202583099, 41599.85978601692, 7742.979555485196, 35290.4317129173, -13040.63356407089, 3444.672041496282, -55452.75574359367, -187500.02235174447, 0.08, 0.984, 0.056, 192.0, 0.0, 0.0, 0.0, 0.0, 0.0, 0.0, 0.0, 0.0, 0.0, 1.741979277420042E9, 0.0, 2025-03-14 14:07:57.420
62.0, -19313.985921619646, -4188.82866964682, -187500.02235174447, -9333.462635691481, 20888.42044930702, 10204.979503748358, -44440.5876923308, 5863.778992149711, -3288.589809964873, 41570.310779847, 7704.534555022068, 35258.75929102413, -13013.230325368682, 3458.954806203223, -55474.97337758224, -187500.02235174447, 0.08, 0.984, 0.056, 192.0, 0.0, 0.0, 0.0, 0.0, 0.0, 0.0, 0.0, 0.0, 0.0, 1.741979277479756E9, 0.0, 2025-03-14 14:07:57.479
64.0, -19309.560276217493, -4149.221378472016, -187500.02235174447, -9437.91233753113, 20783.12138117807, 10128.782406900216, -44410.70340999406, 5794.846212249543, -3275.4693359696075, 41624.69257410677, 7768.594654630978, 35319.9360155983, -13022.327485361993, 3481.083033213977, -55427.36416189244, -187500.02235174447, 0.08, 0.984, 0.056, 192.0, 0.0, 0.0, 0.0, 0.0, 0.0, 0.0, 0.0, 0.0, 0.0, 1.74197927747992E9, 0.0, 2025-03-14 14:07:57.479
66.0, -19295.523380699564, -4162.654776889655, -187500.02235174447, -9322.286763463828, 20896.444725566475, 10221.050408011724, -44435.9385294841, 5875.379547522015, -3287.874554142303, 41575.80930898301, 7700.6677032313, 35264.41428237132, -13007.105947387929, 3469.281312141575, -55466.05503154457, -187500.02235174447, 0.08, 0.984, 0.056, 192.0, 0.0, 0.0, 0.0, 0.0, 0.0, 0.0, 0.0, 0.0, 0.0, 1.741979277480052E9, 0.0, 2025-03-14 14:07:57.480
68.0, -19245.09784520839, -4099.578154036779, -187500.02235174447, -9437.889985786675, 20779.83567474314, 10122.233345774812, -44396.24183133148, 5782.217476632295, -3282.6665976842164, 41651.5817226865, 7791.795765375587, 35348.970931645745, -13013.409139324325, 3470.376547619885, -55410.846222739965, -187500.02235174447, 0.076, 0.976, 0.058, 192.0, 1.0, 48.0, 15.0, 64.0, 0.5, 104.0, 0.0, 0.0, 0.0, 1.741979277480185E9, 0.0, 2025-03-14 14:07:57.480
70.0, -19220.57798154092, -4084.9154096740976, -187500.02235174447, -9322.756150097388, 20891.46028655294, 10219.329323688666, -44428.294232880384, 5869.612797452545, -3257.386774705264, 41561.6606547428, 7675.253769785616, 35244.43182282827, -12986.452935511224, 3484.2122774377203, -55488.40677599988, -187500.02235174447, 0.076, 0.976, 0.058, 192.0, 0.0, 0.0, 0.0, 0.0, 0.0, 0.0, 0.0, 0.0, 0.0, 1.741979277480312E9, 0.0, 2025-03-14 14:07:57.480
72.0, -19219.549801295972, -4065.1564675756063, -187500.02235174447, -9394.48289805447, 20804.668462832986, 10158.934910170427, -44413.98911642899, 5810.268915923705, -3254.123420014789, 41696.19580461929, 7835.582832763534, 35390.008734465686, -13015.286685858571, 3501.8478038129574, -55377.67623396829, -187500.02235174447, 0.076, 0.976, 0.058, 192.0, 0.0, 0.0, 0.0, 0.0, 0.0, 0.0, 0.0, 0.0, 0.0, 1.741979277480445E9, 0.0, 2025-03-14 14:07:57.480
74.0, -19205.289388333487, -4048.32560400076, -187500.02235174447, -9326.488891421424, 20881.022021892313, 10219.754006833316, -44425.96965145703, 5864.918931116931, -3246.3450129443427, 41566.84625945643, 7681.534609977557, 35254.33364562198, -13007.016540410106, 3496.773957821603, -55476.96268283876, -187500.02235174447, 0.076, 0.976, 0.058, 192.0, 0.0, 0.0, 0.0, 0.0, 0.0, 0.0, 0.0, 0.0, 0.0, 1.741979277480583E9, 0.0, 2025-03-14 14:07:57.480
76.0, -19205.08822263339, -4041.553025430802, -187500.02235174447, -9378.970787402486, 20819.51002115131, 10163.896997439504, -44401.49449127847, 5816.996791004753, -3226.8542917793147, 41720.648613053396, 7859.678013286354, 35412.56164462109, -12991.683243713767, 3522.344353478474, -55356.75500115812, -187500.02235174447, 0.07300000000000001, 0.977, 0.061, 192.0, 1.0, 24.0, 15.0, 72.0, 1.0, 0.0, 0.0, 0.0, 0.0, 1.741979277541579E9, 0.0, 2025-03-14 14:07:57.541
78.0, -19164.0727715579, -4023.068132766263, -187500.02235174447, -9356.641394691635, 20860.503120482343, 10185.220561649867, -44407.14948262567, 5841.494302927769, -3243.908672798714, 41558.821983196976, 7666.13425804785, 35238.75447973663, -12986.944673889242, 3494.4940798871617, -55493.88295339143, -187500.02235174447, 0.07300000000000001, 0.977, 0.061, 192.0, 0.0, 0.0, 0.0, 0.0, 0.0, 0.0, 0.0, 0.0, 0.0, 1.741979277541737E9, 0.0, 2025-03-14 14:07:57.541
80.0, -19174.667498429717, -4020.6317926206343, -187500.02235174447, -9344.817321874776, 20849.014323832314, 10183.857105238094, -44401.60625000075, 5840.644936638468, -3229.268280180488, 41727.93528174583, 7861.868484242975, 35413.25454869921, -12977.400479006825, 3532.670859416826, -55367.86381815241, -187500.02235174447, 0.07300000000000001, 0.977, 0.061, 192.0, 0.0, 0.0, 0.0, 0.0, 0.0, 0.0, 0.0, 0.0, 0.0, 1.741979277541879E9, 0.0, 2025-03-14 14:07:57.541
82.0, -19120.978608248068, -3975.3695100986374, -187500.02235174447, -9363.168104072583, 20856.546861713752, 10181.666634281473, -44393.22434583001, 5839.281480226694, -3216.8630620077925, 41575.74225374964, 7681.020519855085, 35255.63004680038, -12995.23717108216, 3488.4144053953178, -55479.80135438459, -187500.02235174447, 0.07300000000000001, 0.977, 0.061, 192.0, 0.0, 0.0, 0.0, 0.0, 0.0, 0.0, 0.0, 0.0, 0.0, 1.741979277542008E9, 0.0, 2025-03-14 14:07:57.542
84.0, -19141.02812302448, -3990.1440131835957, -187500.02235174447, -9329.886356578632, 20863.140626328066, 10194.362425132087, -44397.15825285414, 5850.189131520883, -3178.8650964337703, 41748.72240408926, 7882.208571697304, 35432.32058671959, -12975.94761561723, 3536.113028062943, -55351.43528597776, -187500.02235174447, 0.07300000000000001, 0.977, 0.061, 192.0, 0.0, 0.0, 0.0, 0.0, 0.0, 0.0, 0.0, 0.0, 0.0, 1.741979277542146E9, 0.0, 2025-03-14 14:07:57.542
86.0, -19122.25265768202, -3973.4696118199367, -187500.02235174447, -9375.975653645475, 20840.565364428207, 10164.768715473261, -44389.35749403924, 5828.150311487951, -3224.3061929114097, 41576.70337876122, 7687.480174002669, 35259.74276778016, -12981.647310453334, 3500.2384782121753, -55482.640025930414, -187500.02235174447, 0.0695, 0.9795, 0.0605, 192.0, 1.0, 8.0, 15.0, 88.0, 0.5, 112.0, 0.0, 0.0, 0.0, 1.741979277542271E9, 0.0, 2025-03-14 14:07:57.542
88.0, -19123.146727460233, -3987.6629695490565, -187500.02235174447, -9301.83491728722, 20890.320347585723, 10213.808442808204, -44394.16311909713, 5871.937378875898, -3175.333520809832, 41759.451241427814, 7895.597266626033, 35444.72580489228, -12955.428714207259, 3551.3345660370073, -55340.81820736149, -187500.02235174447, 0.0695, 0.9795, 0.0605, 192.0, 0.0, 0.0, 0.0, 0.0, 0.0, 0.0, 0.0, 0.0, 0.0, 1.741979277542405E9, 0.0, 2025-03-14 14:07:57.542
90.0, -19134.993152021547, -3973.0896321641962, -187500.02235174447, -9377.853200179721, 20834.999780058835, 10165.05928815118, -44392.41968302962, 5829.804340577643, -3223.0544952219125, 41609.202815199234, 7717.118587150406, 35290.99050652868, -12988.084612856463, 3508.441568427273, -55452.934557549306, -187500.02235174447, 0.0695, 0.9795, 0.0605, 192.0, 0.0, 0.0, 0.0, 0.0, 0.0, 0.0, 0.0, 0.0, 0.0, 1.741979277542533E9, 0.0, 2025-03-14 14:07:57.542
92.0, -19134.926096788182, -3980.4880595789027, -187500.02235174447, -9269.916626205042, 20912.962664718947, 10236.339001219154, -44396.10772086474, 5893.417405297448, -3191.337369839832, 41754.95854079229, 7887.371824666479, 35442.222409513284, -12966.202255034716, 3557.3248335510298, -55342.22636726217, -187500.02235174447, 0.0695, 0.9795, 0.0605, 192.0, 0.0, 0.0, 0.0, 0.0, 0.0, 0.0, 0.0, 0.0, 0.0, 1.741979277600264E9, 0.0, 2025-03-14 14:07:57.600
94.0, -19117.938771002147, -3958.1139633791404, -187500.02235174447, -9384.022281649386, 20825.03090203177, 10154.933947912927, -44371.319636263805, 5822.674134096401, -3201.999151945013, 41628.31355670853, 7740.051476961551, 35319.75720164266, -12992.577313491978, 3503.345370691463, -55427.81119678154, -187500.02235174447, 0.0695, 0.9795, 0.0605, 192.0, 0.0, 0.0, 0.0, 0.0, 0.0, 0.0, 0.0, 0.0, 0.0, 1.741979277600417E9, 0.0, 2025-03-14 14:07:57.600
96.0, -19115.12245120078, -3998.4365103765144, -187500.02235174447, -9249.35302130616, 20933.43686264001, 10252.633422927072, -44402.90265117915, 5912.684609017922, -3198.422872832164, 41752.27633145766, 7881.068632730083, 35442.2671130022, -12951.472455438668, 3542.952661866267, -55339.90178583882, -187500.02235174447, 0.06675, 0.97775, 0.06225, 192.0, 1.0, 0.0, 15.0, 64.0, 1.0, 0.0, 0.0, 0.0, 0.0, 1.741979277600555E9, 0.0, 2025-03-14 14:07:57.600
98.0, -19097.665738781183, -3972.26261761935, -187500.02235174447, -9387.553857273324, 20819.577076384674, 10153.615194990063, -44385.44593875956, 5823.255279452238, -3195.517146052974, 41651.06763256402, 7768.996986031174, 35343.65121646538, -13002.121508374395, 3512.4648824292285, -55405.30299011505, -187500.02235174447, 0.06675, 0.97775, 0.06225, 192.0, 0.0, 0.0, 0.0, 0.0, 0.0, 0.0, 0.0, 0.0, 0.0, 1.741979277600684E9, 0.0, 2025-03-14 14:07:57.600
100.0, -19129.36051241881, -3993.228553918428, -187500.02235174447, -9235.740808932878, 20946.222060468444, 10271.028908613791, -44418.95120369807, 5924.463978345869, -3157.787401412416, 41741.771011563666, 7872.329100648058, 35431.27005473019, -12958.267385753083, 3547.221845057231, -55341.24289050614, -187500.02235174447, 0.06675, 0.97775, 0.06225, 192.0, 0.0, 0.0, 0.0, 0.0, 0.0, 0.0, 0.0, 0.0, 0.0, 1.741979277600813E9, 0.0, 2025-03-14 14:07:57.600
102.0, -19116.53061110146, -3967.1887716279953, -187500.02235174447, -9377.495572268435, 20821.275808963277, 10168.63556726403, -44388.35166553875, 5831.815997578621, -3216.103102696312, 41685.51167076966, 7809.766567917653, 35379.749283760706, -12991.504429758124, 3512.710751618237, -55372.80355367703, -187500.02235174447, 0.06675, 0.97775, 0.06225, 192.0, 0.0, 0.0, 0.0, 0.0, 0.0, 0.0, 0.0, 0.0, 0.0, 1.74197927760095E9, 0.0, 2025-03-14 14:07:57.600
104.0, -19121.24682918153, -3982.1197369241404, -187500.02235174447, -9244.346230548172, 20937.348417919686, 10265.239806799866, -44411.70923849455, 5916.998495697796, -3174.10417486479, 41725.58834857802, 7852.07842017155, 35408.895958530426, -12949.170225759772, 3538.9069961198566, -55354.27395752358, -187500.02235174447, 0.06675, 0.97775, 0.06225, 192.0, 0.0, 0.0, 0.0, 0.0, 0.0, 0.0, 0.0, 0.0, 0.0, 1.741979277601079E9, 0.0, 2025-03-14 14:07:57.601
106.0, -19106.584084818853, -3963.2548646038613, -187500.02235174447, -9415.359427375726, 20786.094163190624, 10131.375209257032, -44376.48288923298, 5795.069729694096, -3198.9369629546363, 41686.91983067034, 7818.439044766313, 35380.26337388317, -12987.19054307825, 3516.4881964311835, -55378.65971072432, -187500.02235174447, 0.066375, 0.979875, 0.063125, 192.0, 1.0, 8.0, 15.0, 88.0, 1.0, 0.0, 0.0, 0.0, 0.0, 1.74197927766003E9, 0.0, 2025-03-14 14:07:57.660
108.0, -19118.318750657887, -3971.0779751632185, -187500.02235174447, -9284.355853123172, 20914.169658919534, 10229.767588349294, -44410.65870650515, 5880.87807665802, -3179.289779578421, 41675.09575785348, 7798.92597185683, 35356.81639394956, -12944.118731512874, 3535.2636617736416, -55412.50025182966, -187500.02235174447, 0.066375, 0.979875, 0.063125, 192.0, 0.0, 0.0, 0.0, 0.0, 0.0, 0.0, 0.0, 0.0, 0.0, 1.741979277660188E9, 0.0, 2025-03-14 14:07:57.660
110.0, -19105.153573173713, -3974.430736831515, -187500.02235174447, -9388.582037518268, 20806.098974478125, 10155.783314202228, -44399.97457265551, 5814.918078770409, -3183.8271837028487, 41709.78566524812, 7842.020135166662, 35403.88916777243, -12982.586083720456, 3519.796254610569, -55375.48576301167, -187500.02235174447, 0.066375, 0.979875, 0.063125, 192.0, 0.0, 0.0, 0.0, 0.0, 0.0, 0.0, 0.0, 0.0, 0.0, 1.741979277660322E9, 0.0, 2025-03-14 14:07:57.660
112.0, -19120.0621867254, -3965.646501260579, -187500.02235174447, -9266.094477903185, 20920.22698166692, 10249.884158359071, -44417.8336164753, 5894.02090239774, -3179.334483067332, 41684.014103891146, 7803.172803303338, 35370.31684760057, -12968.035098080052, 3537.834112386002, -55395.20000162125, -187500.02235174447, 0.066375, 0.979875, 0.063125, 192.0, 0.0, 0.0, 0.0, 0.0, 0.0, 0.0, 0.0, 0.0, 0.0, 1.741979277660448E9, 0.0, 2025-03-14 14:07:57.660
114.0, -19088.2556543655, -3952.4366202874926, -187500.02235174447, -9384.983406660964, 20801.270997675776, 10157.884378181026, -44392.41968302962, 5809.307790912127, -3188.2304773605442, 41741.72630807475, 7873.066708215083, 35435.5615896656, -12980.909702886309, 3535.6212896849265, -55346.69671615324, -187500.02235174447, 0.066375, 0.979875, 0.063125, 192.0, 0.0, 0.0, 0.0, 0.0, 0.0, 0.0, 0.0, 0.0, 0.0, 1.741979277660574E9, 0.0, 2025-03-14 14:07:57.660
116.0, -19082.801828718406, -3966.1382396385957, -187500.02235174447, -9279.282007131816, 20902.859676225147, 10236.78603610826, -44420.18054964311, 5882.107422603062, -3171.5337242524297, 41662.77994665861, 7777.401241946369, 35348.59095199, -12957.440371208237, 3531.866196616435, -55416.098882686965, -187500.02235174447, 0.06618750000000001, 0.9819375, 0.0645625, 192.0, 1.0, 8.0, 15.0, 96.0, 1.0, 8.0, 0.0, 0.0, 0.0, 1.741979277660703E9, 0.0, 2025-03-14 14:07:57.660
118.0, -19129.1146432298, -3956.2140651004393, -187500.02235174447, -9368.353708786215, 20806.83658204515, 10165.483971295831, -44397.06884587632, 5815.879203781987, -3186.464689548575, 41761.97698855126, 7893.719720091787, 35458.382720754475, -12983.591912220945, 3534.526054206616, -55337.7113148822, -187500.02235174447, 0.06618750000000001, 0.9819375, 0.0645625, 192.0, 0.0, 0.0, 0.0, 0.0, 0.0, 0.0, 0.0, 0.0, 0.0, 1.741979277660844E9, 0.0, 2025-03-14 14:07:57.660
120.0, -19128.108814729312, -3970.586236785202, -187500.02235174447, -9262.004108667865, 20915.868391498137, 10262.021155598302, -44422.773351999924, 5900.391149567503, -3192.8349367183373, 41664.45632749276, 7776.149544256872, 35357.71046372777, -12974.114772571895, 3521.159711022343, -55415.27186814212, -187500.02235174447, 0.06618750000000001, 0.9819375, 0.0645625, 192.0, 0.0, 0.0, 0.0, 0.0, 0.0, 0.0, 0.0, 0.0, 0.0, 1.741979277660969E9, 0.0, 2025-03-14 14:07:57.660
122.0, -19088.00978517649, -3933.012954355831, -187500.02235174447, -9346.918385853576, 20823.466279919896, 10188.260398895789, -44392.03970337388, 5828.10560799904, -3162.011881114469, 41793.82822440007, 7935.271613034202, 35500.38164858599, -12976.864037139898, 3533.8107983840464, -55305.86007903339, -187500.02235174447, 0.06618750000000001, 0.9819375, 0.0645625, 192.0, 0.0, 0.0, 0.0, 0.0, 0.0, 0.0, 0.0, 0.0, 0.0, 1.741979277720111E9, 0.0, 2025-03-14 14:07:57.720
124.0, -19067.692049466616, -3937.639765458079, -187500.02235174447, -9308.31692317926, 20883.078382382202, 10221.966829534393, -44395.50422376445, 5858.906311858454, -3173.9253609091475, 41639.623539402906, 7749.394506143869, 35330.240169792196, -12954.065257795484, 3515.4600161862395, -55442.36218242195, -187500.02235174447, 0.06618750000000001, 0.9819375, 0.0645625, 192.0, 0.0, 0.0, 0.0, 0.0, 0.0, 0.0, 0.0, 0.0, 0.0, 1.741979277720266E9, 0.0, 2025-03-14 14:07:57.720
126.0, -19089.507352054996, -3942.847721916166, -187500.02235174447, -9342.492740451426, 20835.759739370318, 10188.036881451235, -44384.70833119254, 5823.188224218872, -3184.0507011474015, 41792.88945113295, 7931.538871710167, 35496.492445050775, -12949.013763548586, 3547.51241773515, -55326.870718821374, -187500.02235174447, 0.07009375000000001, 0.9819687500000001, 0.06728125, 192.0, 1.0, 40.0, 15.0, 88.0, 1.0, 24.0, 0.0, 0.0, 0.0, 1.741979277720395E9, 0.0, 2025-03-14 14:07:57.720
128.0, -19084.165285130177, -3945.3511172951603, -187500.02235174447, -9318.621077373156, 20878.2280538354, 10218.368198677088, -44390.85506091775, 5848.959785575841, -3188.3198843383652, 41632.73920211067, 7745.795875286565, 35329.32374826953, -12959.18380727575, 3523.12666453441, -55455.862636072954, -187500.02235174447, 0.07009375000000001, 0.9819687500000001, 0.06728125, 192.0, 0.0, 0.0, 0.0, 0.0, 0.0, 0.0, 0.0, 0.0, 0.0, 1.74197927772053E9, 0.0, 2025-03-14 14:07:57.720
130.0, -19072.72119196906, -3943.898253905565, -187500.02235174447, -9315.357722682682, 20859.854919893136, 10211.439157895942, -44381.40027301315, 5839.817922093621, -3177.658102233184, 41802.165425081905, 7943.944089882862, 35505.4778463218, -12953.618222906378, 3559.962339396756, -55324.88141356486, -187500.02235174447, 0.07009375000000001, 0.9819687500000001, 0.06728125, 192.0, 0.0, 0.0, 0.0, 0.0, 0.0, 0.0, 0.0, 0.0, 0.0, 1.741979277720659E9, 0.0, 2025-03-14 14:07:57.720
132.0, -19095.005881191002, -3950.424963286515, -187500.02235174447, -9293.676530561033, 20891.86261795314, 10243.960946078414, -44395.88420342019, 5875.40189926647, -3195.070111163868, 41648.497181951665, 7763.543160384079, 35349.77559444614, -12984.016595365596, 3521.8749668449127, -55436.10369397446, -187500.02235174447, 0.07009375000000001, 0.9819687500000001, 0.06728125, 192.0, 0.0, 0.0, 0.0, 0.0, 0.0, 0.0, 0.0, 0.0, 0.0, 1.741979277720794E9, 0.0, 2025-03-14 14:07:57.720
134.0, -19123.392596649242, -3970.809754229755, -187500.02235174447, -9261.333556334204, 20895.885931955094, 10256.74614390685, -44402.14269186767, 5881.816849925143, -3139.6377849147066, 41833.16729464141, 7978.164610643937, 35540.54773337218, -12966.001089334619, 3563.9185981653454, -55282.59191305541, -187500.02235174447, 0.07009375000000001, 0.9819687500000001, 0.06728125, 192.0, 0.0, 0.0, 0.0, 0.0, 0.0, 0.0, 0.0, 0.0, 0.0, 1.74197927772092E9, 0.0, 2025-03-14 14:07:57.720
136.0, -19096.905779469704, -3952.235454587395, -187500.02235174447, -9305.254734188884, 20871.299013054253, 10235.98137330787, -44396.10772086474, 5863.801343894165, -3220.7299137985606, 41665.39510075988, 7786.788974617598, 35372.41791157936, -12997.070014127496, 3500.1490712343543, -55403.224277880705, -187500.02235174447, 0.07004687500000001, 0.980984375, 0.06764062500000001, 192.0, 1.0, 24.0, 15.0, 80.0, 1.0, 16.0, 0.0, 0.0, 0.0, 1.741979277780575E9, 0.0, 2025-03-14 14:07:57.780
138.0, -19099.49858182652, -3969.513353051347, -187500.02235174447, -9243.630974725602, 20909.56519956174, 10273.577007481696, -44399.54988951086, 5890.6681407294445, -3204.033160690446, 41825.590053271066, 7970.900293695962, 35534.22218969133, -12964.324708500471, 3532.0673623165326, -55283.262465389074, -187500.02235174447, 0.07004687500000001, 0.980984375, 0.06764062500000001, 192.0, 0.0, 0.0, 0.0, 0.0, 0.0, 0.0, 0.0, 0.0, 0.0, 1.741979277780755E9, 0.0, 2025-03-14 14:07:57.780
140.0, -19079.29260483892, -3956.035251144797, -187500.02235174447, -9332.523862424358, 20847.360294742623, 10214.411939908498, -44387.43524401608, 5838.767390104222, -3211.2527741495105, 41667.04912984957, 7785.470221694734, 35369.4004260779, -12985.983548877663, 3498.6515043558484, -55405.01241743713, -187500.02235174447, 0.07004687500000001, 0.980984375, 0.06764062500000001, 192.0, 0.0, 0.0, 0.0, 0.0, 0.0, 0.0, 0.0, 0.0, 0.0, 1.741979277780903E9, 0.0, 2025-03-14 14:07:57.780
142.0, -19095.02823293546, -3967.8146204727436, -187500.02235174447, -9230.242279796872, 20927.781871292817, 10287.569199510717, -44398.678171477106, 5901.508736790269, -3181.0555673903905, 41812.17900659788, 7949.263805063225, 35513.323308625615, -12951.89713858332, 3549.6581852028594, -55299.6015905859, -187500.02235174447, 0.07004687500000001, 0.980984375, 0.06764062500000001, 192.0, 0.0, 0.0, 0.0, 0.0, 0.0, 0.0, 0.0, 0.0, 0.0, 1.741979277781031E9, 0.0, 2025-03-14 14:07:57.781
144.0, -19096.88342772525, -3953.263634832339, -187500.02235174447, -9341.442208462026, 20840.230088261378, 10220.558669633707, -44389.93863939508, 5840.689640127378, -3170.0585091183793, 41699.10153139848, 7820.718922700754, 35406.83959804053, -13013.610305024422, 3510.8555568284464, -55363.795800661544, -187500.02235174447, 0.07004687500000001, 0.980984375, 0.06764062500000001, 192.0, 0.0, 0.0, 0.0, 0.0, 0.0, 0.0, 0.0, 0.0, 0.0, 1.741979277781158E9, 0.0, 2025-03-14 14:07:57.781
146.0, -19098.425698092666, -3975.481268820914, -187500.02235174447, -9230.331686774694, 20925.054958469267, 10295.057033903246, -44399.013447643934, 5903.274524602238, -3192.812584973882, 41800.44434075884, 7931.650630432443, 35501.94627069787, -12947.024458292062, 3555.8496184169794, -55298.59576208541, -187500.02235174447, 0.0690234375, 0.9804921875, 0.06782031250000001, 192.0, 1.0, 16.0, 15.0, 80.0, 1.0, 16.0, 0.0, 0.0, 0.0, 1.741979277781294E9, 0.0, 2025-03-14 14:07:57.781
148.0, -19091.54136080043, -3962.45020180347, -187500.02235174447, -9344.929080597054, 20830.84235559015, 10219.955172533415, -44382.987246869474, 5837.739209859277, -3219.321753897876, 41701.426112821835, 7818.64021046641, 35407.7560195632, -12992.353796047426, 3496.2375159546755, -55364.17578031729, -187500.02235174447, 0.0690234375, 0.9804921875, 0.06782031250000001, 192.0, 0.0, 0.0, 0.0, 0.0, 0.0, 0.0, 0.0, 0.0, 0.0, 1.741979277781419E9, 0.0, 2025-03-14 14:07:57.781
150.0, -19104.147744673224, -3973.6260740311236, -187500.02235174447, -9217.412378479527, 20935.739092318905, 10307.886935220593, -44400.66747673362, 5913.802196240687, -3213.39854161722, 41788.35204700852, 7914.99858081324, 35491.03861940368, -12949.684315882245, 3531.597975682971, -55298.640465574324, -187500.02235174447, 0.0690234375, 0.9804921875, 0.06782031250000001, 192.0, 0.0, 0.0, 0.0, 0.0, 0.0, 0.0, 0.0, 0.0, 0.0, 1.741979277781562E9, 0.0, 2025-03-14 14:07:57.781
152.0, -19069.234319834035, -3942.3112800492386, -187500.02235174447, -9376.556799001313, 20802.83561978765, 10189.556800074197, -44367.49748796195, 5805.91032575492, -3223.166253944189, 41710.366810603955, 7830.240765838715, 35414.550949877615, -12988.844572167942, 3499.322056689508, -55355.413896490805, -187500.02235174447, 0.0690234375, 0.9804921875, 0.06782031250000001, 192.0, 0.0, 0.0, 0.0, 0.0, 0.0, 0.0, 0.0, 0.0, 0.0, 1.741979277841034E9, 0.0, 2025-03-14 14:07:57.841
154.0, -19096.101116669313, -3976.442393832492, -187500.02235174447, -9218.038227324276, 20940.656476099073, 10310.144461410579, -44406.94831692557, 5914.964486952364, -3176.0487766324018, 41760.72529086177, 7884.242580442737, 35456.50517422023, -12948.209100748194, 3545.478408989717, -55328.2565269776, -187500.02235174447, 0.0690234375, 0.9804921875, 0.06782031250000001, 192.0, 0.0, 0.0, 0.0, 0.0, 0.0, 0.0, 0.0, 0.0, 0.0, 1.74197927784121E9, 0.0, 2025-03-14 14:07:57.841
156.0, -19095.45291608011, -3954.6270912441128, -187500.02235174447, -9380.088374625251, 20797.650015074018, 10185.242913394322, -44378.06986308931, 5801.842308264054, -3190.1527273837005, 41728.49407535721, 7854.581815550544, 35431.895903574936, -12997.829973438977, 3506.184042237287, -55348.10487605392, -187500.02235174447, 0.06651171875, 0.9802460937499999, 0.06791015625, 192.0, 1.0, 0.0, 15.0, 80.0, 1.0, 16.0, 0.0, 0.0, 0.0, 1.74197927784134E9, 0.0, 2025-03-14 14:07:57.841
158.0, -19079.471418794565, -3951.9225301650204, -187500.02235174447, -9241.842835169176, 20926.82074628124, 10290.296112334265, -44394.45369177505, 5897.708940232867, -3204.815471746382, 41729.186979435326, 7843.271832856159, 35415.64618535592, -12942.46470242318, 3537.141208307887, -55364.89103613985, -187500.02235174447, 0.06651171875, 0.9802460937499999, 0.06791015625, 192.0, 0.0, 0.0, 0.0, 0.0, 0.0, 0.0, 0.0, 0.0, 0.0, 1.741979277841475E9, 0.0, 2025-03-14 14:07:57.841
160.0, -19067.49088376652, -3941.7524864378556, -187500.02235174447, -9367.727859941466, 20805.204904699913, 10194.92121874347, -44374.15830780963, 5812.168814202406, -3211.6551055497057, 41763.51925891868, 7882.65560658641, 35457.51100272072, -12976.439353995247, 3539.644603686882, -55328.368285699886, -187500.02235174447, 0.06651171875, 0.9802460937499999, 0.06791015625, 192.0, 0.0, 0.0, 0.0, 0.0, 0.0, 0.0, 0.0, 0.0, 0.0, 1.741979277841601E9, 0.0, 2025-03-14 14:07:57.841
162.0, -19069.547244256406, -3939.941995136976, -187500.02235174447, -9255.276233586817, 20914.84021125319, 10277.08623136118, -44395.54892725336, 5884.476707515324, -3164.8952561492038, 41712.78079900513, 7819.780149433631, 35398.01065898069, -12950.51133042709, 3531.866196616435, -55380.850181680944, -187500.02235174447, 0.06651171875, 0.9802460937499999, 0.06791015625, 192.0, 0.0, 0.0, 0.0, 0.0, 0.0, 0.0, 0.0, 0.0, 0.0, 1.74197927784175E9, 0.0, 2025-03-14 14:07:57.841
164.0, -19079.49377053902, -3936.1421985795737, -187500.02235174447, -9384.536371771857, 20787.81524751368, 10174.82700047815, -44364.323540249294, 5791.851078492532, -3201.1497856557116, 41760.769994350674, 7886.969493266284, 35458.98621785477, -12974.874731883376, 3532.536748950094, -55342.13696028435, -187500.02235174447, 0.06651171875, 0.9802460937499999, 0.06791015625, 192.0, 0.0, 0.0, 0.0, 0.0, 0.0, 0.0, 0.0, 0.0, 0.0, 1.741979277841876E9, 0.0, 2025-03-14 14:07:57.841
166.0, -19105.220628407078, -3958.359832568149, -187500.02235174447, -9262.674661001523, 20903.776097747817, 10275.141629593567, -44392.88906966318, 5880.095765602085, -3169.00797712898, 41686.36103705896, 7795.30498925507, 35374.630734280436, -12954.17701651776, 3547.959452624256, -55409.371007605914, -187500.02235174447, 0.068255859375, 0.978123046875, 0.06595507812500001, 192.0, 1.0, 24.0, 15.0, 64.0, 1.0, 0.0, 0.0, 0.0, 0.0, 1.741979277842002E9, 0.0, 2025-03-14 14:07:57.842
168.0, -19069.05550587839, -3949.128562108107, -187500.02235174447, -9361.871702894176, 20795.280730161754, 10190.249704152311, -44376.5275927219, 5804.390407131959, -3209.7105037820943, 41787.212108041305, 7921.681752405376, 35487.954078668845, -12978.696880185233, 3557.593054484493, -55326.557794399, -187500.02235174447, 0.068255859375, 0.978123046875, 0.06595507812500001, 192.0, 0.0, 0.0, 0.0, 0.0, 0.0, 0.0, 0.0, 0.0, 0.0, 1.741979277900671E9, 0.0, 2025-03-14 14:07:57.900
170.0, -19094.98352944655, -3966.1829431275064, -187500.02235174447, -9263.278158101817, 20899.41750757903, 10273.308786548232, -44393.3808080412, 5883.381472037015, -3194.198393130111, 41668.39023451689, 7785.2243525057265, 35362.76195797467, -12950.690144382734, 3542.1927025547866, -55426.20187118076, -187500.02235174447, 0.068255859375, 0.978123046875, 0.06595507812500001, 192.0, 0.0, 0.0, 0.0, 0.0, 0.0, 0.0, 0.0, 0.0, 0.0, 1.741979277900812E9, 0.0, 2025-03-14 14:07:57.900
172.0, -19090.222607877567, -3967.4346408170036, -187500.02235174447, -9327.025333288353, 20825.388529943055, 10222.257402212312, -44374.962970610024, 5837.1357127589845, -3192.0749774068568, 41820.09152413506, 7964.507694781744, 35525.08032620911, -12978.629824951868, 3557.1236678509317, -55298.86398301888, -187500.02235174447, 0.068255859375, 0.978123046875, 0.06595507812500001, 192.0, 0.0, 0.0, 0.0, 0.0, 0.0, 0.0, 0.0, 0.0, 0.0, 1.741979277900978E9, 0.0, 2025-03-14 14:07:57.900
174.0, -19095.11763991328, -3961.2879110917943, -187500.02235174447, -9284.109983934162, 20881.402001548053, 10258.131952063079, -44384.55186898135, 5868.763431163244, -3185.01182615898, 41665.95389437126, 7782.25157049317, 35363.05253065259, -12959.988470076141, 3514.5659464080272, -55423.094978701476, -187500.02235174447, 0.068255859375, 0.978123046875, 0.06595507812500001, 192.0, 0.0, 0.0, 0.0, 0.0, 0.0, 0.0, 0.0, 0.0, 0.0, 1.741979277901109E9, 0.0, 2025-03-14 14:07:57.901
176.0, -19088.76974448797, -3963.388975070593, -187500.02235174447, -9318.621077373156, 20830.507079423318, 10220.156338233512, -44377.84634564476, 5835.168759246917, -3183.5366110249297, 41819.93506192387, 7955.119962110515, 35519.961776728844, -12960.27904275406, 3548.406487513362, -55307.84938428991, -187500.02235174447, 0.0701279296875, 0.9760615234375, 0.06697753906250001, 192.0, 1.0, 32.0, 15.0, 56.0, 1.0, 16.0, 0.0, 0.0, 0.0, 1.741979277901243E9, 0.0, 2025-03-14 14:07:57.901
178.0, -19087.696860754117, -3969.558056540258, -187500.02235174447, -9298.862135274665, 20867.767437430317, 10242.55278617773, -44382.76372942492, 5861.6108729375455, -3212.035085205446, 41660.6341791909, 7768.371137186425, 35353.1954113478, -12977.623996451379, 3522.9254988343123, -55426.380685136406, -187500.02235174447, 0.0701279296875, 0.9760615234375, 0.06697753906250001, 192.0, 0.0, 0.0, 0.0, 0.0, 0.0, 0.0, 0.0, 0.0, 0.0, 1.741979277901374E9, 0.0, 2025-03-14 14:07:57.901
180.0, -19100.34794811582, -3967.8593239616544, -187500.02235174447, -9300.583219597724, 20849.774283143794, 10232.203928494922, -44378.47219448951, 5847.953957075353, -3208.235288648044, 41833.547274297154, 7969.492133795278, 35532.12112571253, -12951.450103694213, 3566.6008074999822, -55293.52191609406, -187500.02235174447, 0.0701279296875, 0.9760615234375, 0.06697753906250001, 192.0, 0.0, 0.0, 0.0, 0.0, 0.0, 0.0, 0.0, 0.0, 0.0, 1.741979277901501E9, 0.0, 2025-03-14 14:07:57.901
182.0, -19104.863000495792, -3970.206257129462, -187500.02235174447, -9284.646425801091, 20879.256234080345, 10258.802504396737, -44392.68790396308, 5876.564189978146, -3216.1478061852226, 41670.15602232886, 7782.8774193379195, 35365.399463820395, -12969.018574836085, 3528.7146006482367, -55415.09305418647, -187500.02235174447, 0.0701279296875, 0.9760615234375, 0.06697753906250001, 192.0, 0.0, 0.0, 0.0, 0.0, 0.0, 0.0, 0.0, 0.0, 0.0, 1.741979277960971E9, 0.0, 2025-03-14 14:07:57.960
184.0, -19100.951445216113, -3971.0556234187634, -187500.02235174447, -9263.680489502012, 20877.71396371293, 10257.819027640704, -44381.55673522434, 5872.1832480649055, -3191.4714803065635, 41843.15852441294, 7992.894410239985, 35547.32031194214, -12960.323746242972, 3566.6455109888925, -55271.77366873904, -187500.02235174447, 0.0701279296875, 0.9760615234375, 0.06697753906250001, 192.0, 0.0, 0.0, 0.0, 0.0, 0.0, 0.0, 0.0, 0.0, 0.0, 1.741979277961161E9, 0.0, 2025-03-14 14:07:57.961
186.0, -19095.855247480304, -3974.1848676425066, -187500.02235174447, -9311.401463914093, 20856.010419846825, 10234.908489574014, -44385.91532539312, 5854.34655598957, -3202.200317645111, 41659.06955707903, 7783.68208213831, 35358.80569920608, -12972.505446971112, 3514.40948419684, -55418.334057132495, -187500.02235174447, 0.07006396484375, 0.9770307617187499, 0.06848876953125001, 192.0, 1.0, 24.0, 15.0, 72.0, 1.0, 24.0, 0.0, 0.0, 0.0, 1.741979277961296E9, 0.0, 2025-03-14 14:07:57.961
188.0, -19116.329445401367, -3966.7864402277996, -187500.02235174447, -9247.698992216468, 20895.058917410246, 10276.616844727618, -44386.6752847046, 5887.8518209280755, -3188.1187186382676, 41833.5249225527, 7987.239418892792, 35539.7877740607, -12955.786342118543, 3568.076022634032, -55280.91553222127, -187500.02235174447, 0.07006396484375, 0.9770307617187499, 0.06848876953125001, 192.0, 0.0, 0.0, 0.0, 0.0, 0.0, 0.0, 0.0, 0.0, 0.0, 1.74197927796143E9, 0.0, 2025-03-14 14:07:57.961
190.0, -19080.76781997297, -3965.288873349294, -187500.02235174447, -9332.143882768618, 20836.40793995952, 10224.961963291404, -44383.97072362551, 5843.014221550729, -3213.979686973058, 41664.6351414484, 7796.1990590332825, 35369.06514991107, -12989.917455901797, 3513.1354347628876, -55411.11444367343, -187500.02235174447, 0.07006396484375, 0.9770307617187499, 0.06848876953125001, 192.0, 0.0, 0.0, 0.0, 0.0, 0.0, 0.0, 0.0, 0.0, 0.0, 1.741979277961571E9, 0.0, 2025-03-14 14:07:57.961
192.0, -19107.098174941322, -3969.200428628973, -187500.02235174447, -9231.359867019639, 20913.00736820786, 10296.867525204127, -44398.07467437681, 5905.97908568133, -3195.3606838417872, 41817.69988747834, 7969.939168684384, 35519.760611028745, -12951.293641483027, 3565.6620342328592, -55294.84066901692, -187500.02235174447, 0.07006396484375, 0.9770307617187499, 0.06848876953125001, 192.0, 0.0, 0.0, 0.0, 0.0, 0.0, 0.0, 0.0, 0.0, 0.0, 1.741979277961697E9, 0.0, 2025-03-14 14:07:57.961
194.0, -19102.33725337234, -3954.649442988568, -187500.02235174447, -9354.696792924022, 20817.341901939144, 10209.02516949477, -44370.40321474114, 5829.133788243984, -3206.7377217695384, 41685.86929868094, 7820.607163978478, 35387.68415304234, -12980.127391830372, 3517.918708076323, -55392.78601322008, -187500.02235174447, 0.07006396484375, 0.9770307617187499, 0.06848876953125001, 192.0, 0.0, 0.0, 0.0, 0.0, 0.0, 0.0, 0.0, 0.0, 0.0, 1.741979277961843E9, 0.0, 2025-03-14 14:07:57.961
196.0, -19103.276026639465, -3967.54639953928, -187500.02235174447, -9196.312331713716, 20941.729359832927, 10327.668229063538, -44411.038686160886, 5934.477559861846, -3198.9816664435466, 41790.43075924287, 7941.463046248323, 35489.65281124745, -12937.547318643014, 3570.4676592907504, -55327.34010545494, -187500.02235174447, 0.069031982421875, 0.980515380859375, 0.070244384765625, 192.0, 1.0, 16.0, 15.0, 96.0, 1.0, 32.0, 0.0, 0.0, 0.0, 1.741979277961975E9, 0.0, 2025-03-14 14:07:57.961
198.0, -19102.78428826145, -3956.035251144797, -187500.02235174447, -9341.822188117765, 20817.990102528347, 10219.39637892203, -44367.96687459551, 5836.711029614334, -3212.5715270723736, 41723.442581110314, 7868.663414557388, 35432.8123250976, -12993.069051869996, 3523.216071512231, -55349.7142016547, -187500.02235174447, 0.069031982421875, 0.980515380859375, 0.070244384765625, 192.0, 0.0, 0.0, 0.0, 0.0, 0.0, 0.0, 0.0, 0.0, 0.0, 1.741979278021237E9, 0.0, 2025-03-14 14:07:58.021
200.0, -19093.955349201602, -3956.169361611529, -187500.02235174447, -9213.500823199847, 20933.034531239813, 10312.558449811751, -44394.65485747515, 5920.775940510744, -3178.7309859670386, 41778.98666608175, 7926.912060607918, 35471.27967730519, -12934.909812797287, 3556.7436881951917, -55330.156425256304, -187500.02235174447, 0.069031982421875, 0.980515380859375, 0.070244384765625, 192.0, 0.0, 0.0, 0.0, 0.0, 0.0, 0.0, 0.0, 0.0, 0.0, 1.741979278021396E9, 0.0, 2025-03-14 14:07:58.021
202.0, -19088.747392743517, -3943.451219016459, -187500.02235174447, -9354.272109779371, 20812.826849559173, 10210.053349739714, -44365.12820304969, 5830.988983033774, -3212.4150648611862, 41721.274461898145, 7867.009385467695, 35420.11653424699, -12990.252732068628, 3526.3006122470633, -55362.05236459403, -187500.02235174447, 0.069031982421875, 0.980515380859375, 0.070244384765625, 192.0, 0.0, 0.0, 0.0, 0.0, 0.0, 0.0, 0.0, 0.0, 0.0, 1.741979278021528E9, 0.0, 2025-03-14 14:07:58.021
204.0, -19107.96989297508, -3961.332614580705, -187500.02235174447, -9229.325858274206, 20928.22890618192, 10296.50989729284, -44379.858002645735, 5907.007265926274, -3152.6465001876954, 41756.81373558209, 7901.967513795796, 35444.92697059238, -12936.429731420247, 3564.2985778210855, -55348.17193128728, -187500.02235174447, 0.069031982421875, 0.980515380859375, 0.070244384765625, 192.0, 0.0, 0.0, 0.0, 0.0, 0.0, 0.0, 0.0, 0.0, 0.0, 1.741979278021656E9, 0.0, 2025-03-14 14:07:58.021
206.0, -19088.81444797688, -3973.424908331026, -187500.02235174447, -9388.045595651342, 20792.15148593801, 10176.25751212329, -44366.089328061265, 5800.188279174362, -3212.146843927723, 41724.76133403317, 7867.545827334622, 35416.04851675612, -12976.394650506336, 3528.2675657591303, -55373.362347288414, -187500.02235174447, 0.07151599121093749, 0.9802576904296875, 0.0691221923828125, 192.0, 1.0, 40.0, 15.0, 80.0, 1.0, 16.0, 0.0, 0.0, 0.0, 1.741979278021801E9, 0.0, 2025-03-14 14:07:58.021
208.0, -19117.40232913522, -3981.918571224043, -187500.02235174447, -9232.477454242404, 20934.62150509614, 10294.431185058498, -44391.86088941823, 5907.409597326469, -3207.6988467811166, 41731.131581202935, 7871.032699469651, 35416.45084815632, -12941.056542522496, 3553.2344643157085, -55371.417745520805, -187500.02235174447, 0.07151599121093749, 0.9802576904296875, 0.0691221923828125, 192.0, 0.0, 0.0, 0.0, 0.0, 0.0, 0.0, 0.0, 0.0, 0.0, 1.74197927802194E9, 0.0, 2025-03-14 14:07:58.021
210.0, -19103.92422722867, -3956.862265689643, -187500.02235174447, -9383.418784549092, 20798.521733107777, 10177.978596446348, -44365.61994142771, 5801.641142563956, -3210.4481113491192, 41741.86041854148, 7893.451499158324, 35434.84633384304, -12984.106002343417, 3532.7826181391024, -55356.82205639149, -187500.02235174447, 0.07151599121093749, 0.9802576904296875, 0.0691221923828125, 192.0, 0.0, 0.0, 0.0, 0.0, 0.0, 0.0, 0.0, 0.0, 0.0, 1.741979278022066E9, 0.0, 2025-03-14 14:07:58.022
212.0, -19129.606381607817, -3991.976856228931, -187500.02235174447, -9239.808826423745, 20935.493223129895, 10290.452574545452, -44393.40315978565, 5904.615629269556, -3203.4743670790635, 41709.09276117, 7843.785922978631, 35390.41106586588, -12948.61143214839, 3548.920577635834, -55389.656768996334, -187500.02235174447, 0.07151599121093749, 0.9802576904296875, 0.0691221923828125, 192.0, 0.0, 0.0, 0.0, 0.0, 0.0, 0.0, 0.0, 0.0, 0.0, 1.741979278081538E9, 0.0, 2025-03-14 14:07:58.081
214.0, -19112.529648843964, -3960.9526349249645, -187500.02235174447, -9368.867798908686, 20808.110631479103, 10185.48878258333, -44367.09515656175, 5809.732474056777, -3195.517146052974, 41780.70775040481, 7931.941203110362, 35472.73254069478, -12981.75906917561, 3541.410391498851, -55321.17102398528, -187500.02235174447, 0.07151599121093749, 0.9802576904296875, 0.0691221923828125, 192.0, 0.0, 0.0, 0.0, 0.0, 0.0, 0.0, 0.0, 0.0, 0.0, 1.741979278081678E9, 0.0, 2025-03-14 14:07:58.081
216.0, -19105.48884934054, -3980.555114812269, -187500.02235174447, -9270.274254116328, 20910.2357518954, 10263.31755677671, -44394.07371211931, 5875.267788799738, -3200.8592129777926, 41679.99078988919, 7811.599410962989, 35359.47625153974, -12960.502560198613, 3547.2889002905968, -55412.321437874016, -187500.02235174447, 0.07375799560546875, 0.9801288452148438, 0.06956109619140625, 192.0, 1.0, 48.0, 15.0, 80.0, 1.0, 24.0, 0.0, 0.0, 0.0, 1.741979278081856E9, 0.0, 2025-03-14 14:07:58.081
218.0, -19112.999035477525, -3977.8729054776322, -187500.02235174447, -9355.590862702235, 20823.198058986432, 10198.54220134523, -44375.812336899326, 5817.689695082867, -3194.533669296941, 41778.78550038165, 7934.891633378463, 35470.85499416054, -12967.65511842431, 3549.121743335932, -55331.96691655718, -187500.02235174447, 0.07375799560546875, 0.9801288452148438, 0.06956109619140625, 192.0, 0.0, 0.0, 0.0, 0.0, 0.0, 0.0, 0.0, 0.0, 0.0, 1.74197927808199E9, 0.0, 2025-03-14 14:07:58.081
220.0, -19111.03208196546, -3965.937073938498, -187500.02235174447, -9260.595948767179, 20919.84700201118, 10277.734431950383, -44405.49545353597, 5889.528201762224, -3187.068186648868, 41677.509746254655, 7816.0474081095945, 35367.43347256583, -12961.396629976825, 3532.9837838392004, -55402.39726333586, -187500.02235174447, 0.07375799560546875, 0.9801288452148438, 0.06956109619140625, 192.0, 0.0, 0.0, 0.0, 0.0, 0.0, 0.0, 0.0, 0.0, 0.0, 1.741979278082125E9, 0.0, 2025-03-14 14:07:58.082
222.0, -19112.753166288516, -3968.5075245508583, -187500.02235174447, -9328.813472844777, 20844.298105752245, 10219.39637892203, -44386.563525982325, 5835.124055758007, -3219.008829475502, 41812.00019264224, 7979.416308333434, 35511.40105860246, -12976.864037139898, 3552.407449770862, -55293.36545388287, -187500.02235174447, 0.07375799560546875, 0.9801288452148438, 0.06956109619140625, 192.0, 0.0, 0.0, 0.0, 0.0, 0.0, 0.0, 0.0, 0.0, 0.0, 1.741979278082263E9, 0.0, 2025-03-14 14:07:58.082
224.0, -19088.143895643225, -3964.2830448488053, -187500.02235174447, -9304.383016155127, 20889.895664441072, 10242.105751288624, -44387.81522367182, 5856.134695545995, -3193.7960617299154, 41655.15800179935, 7793.449794465279, 35339.247922807685, -12972.259577782104, 3532.0673623165326, -55426.80536828106, -187500.02235174447, 0.07375799560546875, 0.9801288452148438, 0.06956109619140625, 192.0, 0.0, 0.0, 0.0, 0.0, 0.0, 0.0, 0.0, 0.0, 0.0, 1.74197927808239E9, 0.0, 2025-03-14 14:07:58.082
226.0, -19128.175869962677, -3961.2655593473387, -187500.02235174447, -9340.704600895, 20843.582849929673, 10204.331303159155, -44372.30311301984, 5820.908346284431, -3180.943808668114, 41795.661067445406, 7960.752601713253, 35484.8248344451, -12951.785379861043, 3549.9934613696887, -55325.350800198416, -187500.02235174447, 0.07287899780273438, 0.9820644226074219, 0.07078054809570314, 192.0, 1.0, 32.0, 15.0, 96.0, 1.0, 32.0, 0.0, 0.0, 0.0, 1.741979278082516E9, 0.0, 2025-03-14 14:07:58.082
228.0, -19127.997056007036, -3963.3442715816823, -187500.02235174447, -9334.803740358799, 20869.376763031098, 10216.3118381872, -44387.323485293804, 5835.481683669292, -3195.6065530307956, 41639.981167314196, 7779.837582091997, 35320.91949235433, -12961.28487125455, 3526.0100395691443, -55444.127970233916, -187500.02235174447, 0.07287899780273438, 0.9820644226074219, 0.07078054809570314, 192.0, 0.0, 0.0, 0.0, 0.0, 0.0, 0.0, 0.0, 0.0, 0.0, 1.741979278141803E9, 0.0, 2025-03-14 14:07:58.141
230.0, -19114.362491889297, -3976.2188763879394, -187500.02235174447, -9327.852347833199, 20859.072608837203, 10211.953248018413, -44376.505240977436, 5829.267898710716, -3185.77178547046, 41799.4161605139, 7968.061622150139, 35485.853014690045, -12949.080818781951, 3567.450173789284, -55322.10979725239, -187500.02235174447, 0.07287899780273438, 0.9820644226074219, 0.07078054809570314, 192.0, 0.0, 0.0, 0.0, 0.0, 0.0, 0.0, 0.0, 0.0, 0.0, 1.741979278141977E9, 0.0, 2025-03-14 14:07:58.141
232.0, -19111.38970987674, -3970.809754229755, -187500.02235174447, -9341.84453986222, 20864.92876588449, 10214.456643397409, -44385.64710445966, 5833.738247601777, -3202.1779659006556, 41634.61674864492, 7777.669462879832, 35317.81259987505, -12974.584159205457, 3530.055705315555, -55441.84809229948, -187500.02235174447, 0.07287899780273438, 0.9820644226074219, 0.07078054809570314, 192.0, 0.0, 0.0, 0.0, 0.0, 0.0, 0.0, 0.0, 0.0, 0.0, 1.741979278142109E9, 0.0, 2025-03-14 14:07:58.142
234.0, -19114.206029678113, -3968.775745484322, -187500.02235174447, -9317.056455261285, 20869.533225242285, 10216.848280054126, -44381.892011391166, 5835.191110991373, -3188.7892709719267, 41798.723256435784, 7971.436735562889, 35483.57313675561, -12948.6561356373, 3570.7135284797587, -55317.013599516584, -187500.02235174447, 0.07287899780273438, 0.9820644226074219, 0.07078054809570314, 192.0, 0.0, 0.0, 0.0, 0.0, 0.0, 0.0, 0.0, 0.0, 0.0, 1.741979278142254E9, 0.0, 2025-03-14 14:07:58.142
236.0, -19120.844497781338, -3967.7252134949226, -187500.02235174447, -9353.489798723436, 20852.03180933378, 10197.804593778204, -44381.40027301315, 5825.557509131135, -3208.592916559329, 41628.76059159763, 7775.411936689847, 35311.710573638746, -12977.646348195834, 3527.641716914382, -55445.55848187906, -187500.02235174447, 0.0714394989013672, 0.9850322113037109, 0.07239027404785156, 192.0, 1.0, 24.0, 15.0, 112.0, 1.0, 40.0, 0.0, 0.0, 0.0, 1.741979278142375E9, 0.0, 2025-03-14 14:07:58.142
238.0, -19141.095178257845, -3982.7902892577995, -187500.02235174447, -9268.575521537725, 20901.116240157633, 10250.688821159461, -44391.4809097625, 5870.439811997391, -3182.0166924019686, 41800.08671284756, 7977.382299588001, 35495.3301543391, -12951.56186241649, 3564.432688287817, -55306.59768660041, -187500.02235174447, 0.0714394989013672, 0.9850322113037109, 0.07239027404785156, 192.0, 0.0, 0.0, 0.0, 0.0, 0.0, 0.0, 0.0, 0.0, 0.0, 1.741979278142524E9, 0.0, 2025-03-14 14:07:58.142
240.0, -19128.533497873963, -3980.130431667618, -187500.02235174447, -9355.792028402333, 20839.35837022762, 10194.295369898722, -44385.088310848274, 5822.785892818677, -3218.8523672643146, 41642.43985920428, 7796.623742177933, 35339.85141990798, -12984.28481629906, 3524.3336587349963, -55418.758740277146, -187500.02235174447, 0.0714394989013672, 0.9850322113037109, 0.07239027404785156, 192.0, 0.0, 0.0, 0.0, 0.0, 0.0, 0.0, 0.0, 0.0, 0.0, 1.741979278142652E9, 0.0, 2025-03-14 14:07:58.142
242.0, -19109.3109976424, -3984.0419869472967, -187500.02235174447, -9255.991489409387, 20919.779946777817, 10264.79277191076, -44389.31279055033, 5886.488364516302, -3191.136204139734, 41783.18879403935, 7960.774953457708, 35483.126101866495, -12944.364600701881, 3572.3228540805408, -55310.82216630247, -187500.02235174447, 0.0714394989013672, 0.9850322113037109, 0.07239027404785156, 192.0, 0.0, 0.0, 0.0, 0.0, 0.0, 0.0, 0.0, 0.0, 0.0, 1.741979278202105E9, 0.0, 2025-03-14 14:07:58.202
244.0, -19110.674454054173, -3965.333576838205, -187500.02235174447, -9388.045595651342, 20820.582904885163, 10174.268206866767, -44372.05724383083, 5807.206726933328, -3211.520995082974, 41658.354301256455, 7817.0979400989945, 35361.554963774084, -12983.033118609563, 3522.3890569673845, -55396.76462373312, -187500.02235174447, 0.0714394989013672, 0.9850322113037109, 0.07239027404785156, 192.0, 0.0, 0.0, 0.0, 0.0, 0.0, 0.0, 0.0, 0.0, 0.0, 1.741979278202284E9, 0.0, 2025-03-14 14:07:58.202
246.0, -19104.30420688441, -3981.069204934741, -187500.02235174447, -9277.627978042125, 20911.778022262817, 10249.03479206977, -44396.9794388985, 5869.009300352252, -3191.9855704290358, 41754.44445066982, 7921.927621594385, 35448.27973226067, -12940.788321589032, 3571.5181912801495, -55343.00867831811, -187500.02235174447, 0.0727197494506836, 0.9855161056518554, 0.07419513702392577, 192.0, 1.0, 40.0, 15.0, 104.0, 1.0, 48.0, 0.0, 0.0, 0.0, 1.741979278202415E9, 0.0, 2025-03-14 14:07:58.202
248.0, -19122.990265249045, -3970.0274431738194, -187500.02235174447, -9404.138851659161, 20805.853105289116, 10160.097200882103, -44378.62865670069, 5790.085290680563, -3194.936000697136, 41651.11233605294, 7807.30787602757, 35345.975797888736, -12993.963121648208, 3526.434722713795, -55421.21743216723, -187500.02235174447, 0.0727197494506836, 0.9855161056518554, 0.07419513702392577, 192.0, 0.0, 0.0, 0.0, 0.0, 0.0, 0.0, 0.0, 0.0, 0.0, 1.74197927820255E9, 0.0, 2025-03-14 14:07:58.202
250.0, -19140.15640499072, -3998.905897010076, -187500.02235174447, -9249.464780028437, 20929.972342249435, 10270.98420512488, -44407.954145426054, 5887.203620338872, -3183.3354453248317, 41747.78363082214, 7922.106435550027, 35442.20005776883, -12952.344173472426, 3565.70673772177, -55340.10295153892, -187500.02235174447, 0.0727197494506836, 0.9855161056518554, 0.07419513702392577, 192.0, 0.0, 0.0, 0.0, 0.0, 0.0, 0.0, 0.0, 0.0, 0.0, 1.741979278202706E9, 0.0, 2025-03-14 14:07:58.202
252.0, -19123.392596649242, -3974.386033342604, -187500.02235174447, -9409.033883694874, 20797.560608096195, 10151.536482755719, -44369.64325542966, 5783.066842921597, -3213.7338177840493, 41667.76438567214, 7837.974469420251, 35367.366417332465, -12984.173057576783, 3522.0090773116444, -55400.94439994627, -187500.02235174447, 0.0727197494506836, 0.9855161056518554, 0.07419513702392577, 192.0, 0.0, 0.0, 0.0, 0.0, 0.0, 0.0, 0.0, 0.0, 0.0, 1.741979278202813E9, 0.0, 2025-03-14 14:07:58.202
254.0, -19119.83866928085, -4014.6862285955226, -187500.02235174447, -9234.220890309918, 20952.05586577128, 10289.871429189614, -44413.29621235088, 5912.751664251288, -3208.6823235371503, 41726.84004626752, 7902.526307407178, 35422.08348775905, -12944.6551733798, 3557.8836271624123, -55351.4129342333, -187500.02235174447, 0.0727197494506836, 0.9855161056518554, 0.07419513702392577, 192.0, 0.0, 0.0, 0.0, 0.0, 0.0, 0.0, 0.0, 0.0, 0.0, 1.741979278202897E9, 0.0, 2025-03-14 14:07:58.202
0.0, -19105.377090618265, -3969.6251117736238, -187500.02235174447, -9394.929932943574, 20810.07758499117, 10164.120514884056, -44361.820144870304, 5802.557564086624, -3230.363515658798, 41707.61754603595, 7888.13178397796, 35417.344917934526, -12989.269255312593, 3526.121798291421, -55352.262300522605, -187500.02235174447, 0.0743598747253418, 0.9847580528259277, 0.0770975685119629, 192.0, 1.0, 48.0, 15.0, 96.0, 1.0, 64.0, 0.0, 0.0, 0.0, 1.741979278202987E9, 0.0, 2025-03-14 14:07:58.202
2.0, -19107.16523017469, -3973.2460943753836, -187500.02235174447, -9273.60466404017, 20924.47381311343, 10248.520701947296, -44371.56550545282, 5874.105498088062, -3175.7358522100276, 41693.44654005129, 7864.036603455139, 35393.026219967156, -12948.074990281462, 3548.6300049579154, -55381.85601018143, -187500.02235174447, 0.0743598747253418, 0.9847580528259277, 0.0770975685119629, 192.0, 0.0, 0.0, 0.0, 0.0, 0.0, 0.0, 0.0, 0.0, 0.0, 1.741979278261467E9, 0.0, 2025-03-14 14:07:58.261
4.0, -19113.580180833364, -3964.350100082171, -187500.02235174447, -9421.439101867569, 20787.345860880123, 10127.687171421907, -44349.25846448642, 5764.693708979334, -3193.3713785852647, 41695.05586565207, 7873.580798337555, 35398.547100847616, -12967.789228891043, 3535.375420495918, -55391.35550157494, -187500.02235174447, 0.0743598747253418, 0.9847580528259277, 0.0770975685119629, 192.0, 0.0, 0.0, 0.0, 0.0, 0.0, 0.0, 0.0, 0.0, 0.0, 1.741979278261573E9, 0.0, 2025-03-14 14:07:58.261
6.0, -19124.15255596072, -3983.997283458386, -187500.02235174447, -9258.40547781056, 20936.05201674128, 10256.813199140215, -44392.5314417519, 5883.694396459388, -3178.6639307336727, 41659.29307452358, 7829.391399549413, 35357.66576023886, -12939.402513432804, 3561.7728306976355, -55422.02209496762, -187500.02235174447, 0.0743598747253418, 0.9847580528259277, 0.0770975685119629, 192.0, 0.0, 0.0, 0.0, 0.0, 0.0, 0.0, 0.0, 0.0, 0.0, 1.74197927826166E9, 0.0, 2025-03-14 14:07:58.261
8.0, -19118.139936702246, -4000.939905755509, -187500.02235174447, -9349.332374254749, 20839.134852783067, 10189.534448329741, -44382.40610151364, 5827.7256283433, -3202.6026490453064, 41759.56300015009, 7950.023764374705, 35471.793767427655, -12979.166266818795, 3548.898225891379, -55321.48394840765, -187500.02235174447, 0.0743598747253418, 0.9847580528259277, 0.0770975685119629, 192.0, 0.0, 0.0, 0.0, 0.0, 0.0, 0.0, 0.0, 0.0, 0.0, 1.741979278261754E9, 0.0, 2025-03-14 14:07:58.261
10.0, -19088.278006109955, -3981.3821293571154, -187500.02235174447, -9254.225701597417, 20938.33189467572, 10263.138742821067, -44392.35262779625, 5894.490289031302, -3209.9563729711026, 41672.704121196766, 7846.758704991187, 35377.15648140389, -12958.312089241994, 3536.2247867852197, -55386.41576605031, -187500.02235174447, 0.0711799373626709, 0.9833790264129638, 0.07654878425598144, 192.0, 1.0, 16.0, 15.0, 88.0, 1.0, 48.0, 0.0, 0.0, 0.0, 1.74197927826184E9, 0.0, 2025-03-14 14:07:58.261
12.0, -19110.45093660962, -3979.4375275895036, -187500.02235174447, -9358.47423773697, 20834.08335853617, 10179.945549958415, -44377.93575262258, 5817.91321252742, -3207.3412188698317, 41761.93228506235, 7957.757467956241, 35477.44875877485, -12967.319842257482, 3542.08094383251, -55312.61030585889, -187500.02235174447, 0.0711799373626709, 0.9833790264129638, 0.07654878425598144, 192.0, 0.0, 0.0, 0.0, 0.0, 0.0, 0.0, 0.0, 0.0, 0.0, 1.741979278261929E9, 0.0, 2025-03-14 14:07:58.261
14.0, -19094.760012001992, -3955.4988092778694, -187500.02235174447, -9294.145917194595, 20910.548676317772, 10234.394399451543, -44388.88810740568, 5866.707070673356, -3188.5210500384633, 41636.00255680115, 7806.167937060349, 35342.399518775885, -12965.978737590163, 3529.5863186819934, -55420.2339554112, -187500.02235174447, 0.0711799373626709, 0.9833790264129638, 0.07654878425598144, 192.0, 0.0, 0.0, 0.0, 0.0, 0.0, 0.0, 0.0, 0.0, 0.0, 1.741979278262015E9, 0.0, 2025-03-14 14:07:58.262
16.0, -19119.704558814115, -3959.522123279825, -187500.02235174447, -9330.914536823575, 20856.569213458206, 10201.872611269071, -44380.57325846831, 5837.20276799235, -3168.4491835175972, 41783.077035317074, 7985.831258992107, 35504.40496258795, -12972.237226037649, 3550.8428276589907, -55299.333369652435, -187500.02235174447, 0.0711799373626709, 0.9833790264129638, 0.07654878425598144, 192.0, 0.0, 0.0, 0.0, 0.0, 0.0, 0.0, 0.0, 0.0, 0.0, 1.741979278321243E9, 0.0, 2025-03-14 14:07:58.321
18.0, -19099.72209927107, -3970.899161207576, -187500.02235174447, -9307.154632467584, 20899.976301190414, 10221.87742255657, -44385.8259184153, 5856.291157757182, -3202.066207178379, 41629.766420098116, 7807.039655094106, 35345.819335677545, -12962.04483056603, 3524.065437801533, -55417.03765595408, -187500.02235174447, 0.0711799373626709, 0.9833790264129638, 0.07654878425598144, 192.0, 0.0, 0.0, 0.0, 0.0, 0.0, 0.0, 0.0, 0.0, 0.0, 1.741979278321401E9, 0.0, 2025-03-14 14:07:58.321
20.0, -19101.77845976096, -3972.486135063903, -187500.02235174447, -9339.18468227204, 20852.3223820117, 10185.73465177234, -44380.79677591286, 5823.67996259689, -3200.389826344231, 41780.95361959382, 7980.064508922638, 35502.66152652044, -12957.261557252594, 3561.638720230904, -55303.98253249914, -187500.02235174447, 0.07158996868133546, 0.9806895132064819, 0.07527439212799072, 192.0, 1.0, 32.0, 15.0, 72.0, 1.0, 40.0, 0.0, 0.0, 0.0, 1.741979278321486E9, 0.0, 2025-03-14 14:07:58.321
22.0, -19090.26731136648, -3974.2072193869617, -187500.02235174447, -9322.107949508185, 20886.788771961783, 10207.169974704979, -44392.55379349635, 5845.338802974082, -3174.953541154092, 41616.31066993602, 7785.760794372653, 35330.106059325466, -12967.699821913222, 3533.7437431506805, -55429.085246215494, -187500.02235174447, 0.07158996868133546, 0.9806895132064819, 0.07527439212799072, 192.0, 0.0, 0.0, 0.0, 0.0, 0.0, 0.0, 0.0, 0.0, 0.0, 1.741979278321585E9, 0.0, 2025-03-14 14:07:58.321
24.0, -19095.475267824564, -3976.5094490658585, -187500.02235174447, -9331.98742055743, 20862.0230391053, 10188.081584940146, -44379.27685728989, 5824.417570163914, -3189.01278841648, 41781.78063413866, 7983.43962233539, 35503.5779480431, -12955.093438040429, 3567.114897622454, -55296.60645682889, -187500.02235174447, 0.07158996868133546, 0.9806895132064819, 0.07527439212799072, 192.0, 0.0, 0.0, 0.0, 0.0, 0.0, 0.0, 0.0, 0.0, 0.0, 1.741979278321668E9, 0.0, 2025-03-14 14:07:58.321
26.0, -19088.859151465793, -3953.3753935546156, -187500.02235174447, -9362.341089527737, 20853.328210512187, 10176.413974334477, -44385.35653178174, 5814.225174692295, -3190.0856721503346, 41604.44189363025, 7774.987253545196, 35318.349041741974, -12973.153647560317, 3520.6456208998707, -55435.50019687417, -187500.02235174447, 0.07158996868133546, 0.9806895132064819, 0.07527439212799072, 192.0, 0.0, 0.0, 0.0, 0.0, 0.0, 0.0, 0.0, 0.0, 0.0, 1.741979278321762E9, 0.0, 2025-03-14 14:07:58.321
28.0, -19136.51307064451, -3978.945789211487, -187500.02235174447, -9299.532687608325, 20886.788771961783, 10217.3623701766, -44394.38663654168, 5849.451523953859, -3208.525861325963, 41779.36664573749, 7984.512506069244, 35501.25336661975, -12944.208138490694, 3560.901112663879, -55297.20995392918, -187500.02235174447, 0.07158996868133546, 0.9806895132064819, 0.07527439212799072, 192.0, 0.0, 0.0, 0.0, 0.0, 0.0, 0.0, 0.0, 0.0, 0.0, 1.741979278321851E9, 0.0, 2025-03-14 14:07:58.321
30.0, -19117.558791346408, -3983.7290625249225, -187500.02235174447, -9353.46744697898, 20856.435102991476, 10186.405204105999, -44377.51106947793, 5825.892785297965, -3217.8018352749154, 41616.51183563612, 7798.523640456634, 35336.588065217504, -12973.064240582496, 3522.053780800555, -55416.232993153695, -187500.02235174447, 0.07179498434066774, 0.9803447566032409, 0.07263719606399537, 192.0, 1.0, 32.0, 15.0, 80.0, 1.0, 24.0, 0.0, 0.0, 0.0, 1.741979278321938E9, 0.0, 2025-03-14 14:07:58.321
32.0, -19105.24298015153, -3980.577466556724, -187500.02235174447, -9294.771766039345, 20894.790696476783, 10213.987256763847, -44379.18745031208, 5853.005451322252, -3176.0487766324018, 41776.41621546939, 7982.322035112624, 35500.42635207491, -12944.275193724061, 3573.5522000255824, -55296.8523260179, -187500.02235174447, 0.07179498434066774, 0.9803447566032409, 0.07263719606399537, 192.0, 0.0, 0.0, 0.0, 0.0, 0.0, 0.0, 0.0, 0.0, 0.0, 1.741979278381576E9, 0.0, 2025-03-14 14:07:58.381
34.0, -19102.180791161158, -3980.912742723554, -187500.02235174447, -9386.168049117096, 20832.384625957566, 10153.749305456795, -44363.854153615735, 5803.0940059535515, -3167.0186718724576, 41615.371896668905, 7795.595561932989, 35335.85045765048, -12967.766877146589, 3535.442475729284, -55423.094978701476, -187500.02235174447, 0.07179498434066774, 0.9803447566032409, 0.07263719606399537, 192.0, 0.0, 0.0, 0.0, 0.0, 0.0, 0.0, 0.0, 0.0, 0.0, 1.741979278381712E9, 0.0, 2025-03-14 14:07:58.381
36.0, -19098.40334634821, -3972.7320042529113, -187500.02235174447, -9292.111908449162, 20903.664339025538, 10216.289486442744, -44376.66170318863, 5855.285329256693, -3169.812639929371, 41752.20927622429, 7955.343479555068, 35474.56538374012, -12933.166376729772, 3594.6075433024816, -55324.61319263139, -187500.02235174447, 0.07179498434066774, 0.9803447566032409, 0.07263719606399537, 192.0, 0.0, 0.0, 0.0, 0.0, 0.0, 0.0, 0.0, 0.0, 0.0, 1.741979278381798E9, 0.0, 2025-03-14 14:07:58.381
38.0, -19104.483020840053, -3959.3433093241824, -187500.02235174447, -9412.587811063268, 20811.0610617472, 10133.677438935929, -44360.03200531388, 5783.6032847885235, -3204.6366577907397, 41622.502103150146, 7811.197079562793, 35345.59581823299, -12980.216798808195, 3534.190778039787, -55420.74804553367, -187500.02235174447, 0.07179498434066774, 0.9803447566032409, 0.07263719606399537, 192.0, 0.0, 0.0, 0.0, 0.0, 0.0, 0.0, 0.0, 0.0, 0.0, 1.741979278381889E9, 0.0, 2025-03-14 14:07:58.381
40.0, -19125.78423330596, -3972.6425972750903, -187500.02235174447, -9276.666853030545, 20921.456327611962, 10233.008591295313, -44383.23311605849, 5872.7643934207435, -3176.004073143491, 41736.585406850034, 7943.608813716032, 35456.52752596468, -12924.762120814577, 3587.834964732524, -55339.03006780506, -187500.02235174447, 0.07489749217033387, 0.9791723783016204, 0.0713185980319977, 192.0, 1.0, 56.0, 15.0, 72.0, 1.0, 24.0, 0.0, 0.0, 0.0, 1.741979278381983E9, 0.0, 2025-03-14 14:07:58.381
42.0, -19108.260465653, -3961.3773180696153, -187500.02235174447, -9392.270075353394, 20821.208753729912, 10157.392639803009, -44375.96879911051, 5807.854927522532, -3205.0613409353905, 41661.0365105911, 7856.8393417405305, 35390.29930714361, -12980.216798808195, 3538.281147275108, -55382.43715553727, -187500.02235174447, 0.07489749217033387, 0.9791723783016204, 0.0713185980319977, 192.0, 0.0, 0.0, 0.0, 0.0, 0.0, 0.0, 0.0, 0.0, 0.0, 1.741979278382071E9, 0.0, 2025-03-14 14:07:58.382
44.0, -19108.863962753294, -3974.0507571757744, -187500.02235174447, -9237.081913600197, 20952.05586577128, 10273.375841781599, -44403.84142444628, 5913.221050884849, -3173.2548085754884, 41749.169438978366, 7955.0976103660605, 35479.9745058983, -12935.692123853223, 3580.5929995290044, -55311.76093956959, -187500.02235174447, 0.07489749217033387, 0.9791723783016204, 0.0713185980319977, 192.0, 0.0, 0.0, 0.0, 0.0, 0.0, 0.0, 0.0, 0.0, 0.0, 1.741979278382152E9, 0.0, 2025-03-14 14:07:58.382
46.0, -19095.095288168824, -3943.0935911051743, -187500.02235174447, -9390.794860219343, 20813.29623619273, 10157.43734329192, -44369.576200196294, 5810.4253781348925, -3153.272349032444, 41694.87705169643, 7896.692502104343, 35434.04167104264, -12981.624958708879, 3545.187836311798, -55343.165140529294, -187500.02235174447, 0.07489749217033387, 0.9791723783016204, 0.0713185980319977, 192.0, 0.0, 0.0, 0.0, 0.0, 0.0, 0.0, 0.0, 0.0, 0.0, 1.741979278441832E9, 0.0, 2025-03-14 14:07:58.441
48.0, -19094.96117770209, -3956.3928790560817, -187500.02235174447, -9242.692201458478, 20937.393121408597, 10261.484713731375, -44386.65293296015, 5901.285219345716, -3159.083802590824, 41728.38231663493, 7925.123921051493, 35456.43811898686, -12938.933126799242, 3570.8252872020353, -55329.888204322844, -187500.02235174447, 0.07489749217033387, 0.9791723783016204, 0.0713185980319977, 192.0, 0.0, 0.0, 0.0, 0.0, 0.0, 0.0, 0.0, 0.0, 0.0, 1.741979278442001E9, 0.0, 2025-03-14 14:07:58.442
50.0, -19082.287738595933, -3928.6543641870458, -187500.02235174447, -9409.413863350614, 20791.54798883772, 10131.486967979308, -44357.21568551251, 5783.044491177141, -3200.970971700069, 41706.85758672447, 7900.827574828574, 35437.81911585559, -12952.858263594899, 3551.021641614633, -55345.42266671928, -187500.02235174447, 0.07344874608516694, 0.9805861891508102, 0.06965929901599885, 192.0, 1.0, 32.0, 15.0, 88.0, 1.0, 16.0, 0.0, 0.0, 0.0, 1.741979278442087E9, 0.0, 2025-03-14 14:07:58.442
52.0, -19083.07004965187, -3950.0226318863192, -187500.02235174447, -9270.654233772068, 20923.75855729086, 10239.445893698441, -44375.74528166596, 5880.654559213467, -3154.3899362552092, 41681.91303991235, 7868.708118046298, 35400.73757180424, -12917.967190500163, 3568.5677610120492, -55383.66650148231, -187500.02235174447, 0.07344874608516694, 0.9805861891508102, 0.06965929901599885, 192.0, 0.0, 0.0, 0.0, 0.0, 0.0, 0.0, 0.0, 0.0, 0.0, 1.74197927844218E9, 0.0, 2025-03-14 14:07:58.442
54.0, -19088.501523554507, -3950.983756897898, -187500.02235174447, -9392.828868964776, 20804.35553841061, 10146.976726886836, -44360.38963322516, 5799.696540796344, -3176.585218499329, 41725.9459764893, 7927.739075152765, 35458.0697963321, -12963.989432333641, 3557.7718684401357, -55338.33716372695, -187500.02235174447, 0.07344874608516694, 0.9805861891508102, 0.06965929901599885, 192.0, 0.0, 0.0, 0.0, 0.0, 0.0, 0.0, 0.0, 0.0, 0.0, 1.741979278442266E9, 0.0, 2025-03-14 14:07:58.442
56.0, -19099.45387833761, -3960.684413991501, -187500.02235174447, -9245.843797426676, 20937.90721153107, 10264.993937610858, -44387.68111320509, 5907.230783370827, -3165.141125338212, 41689.53498477161, 7875.726565805265, 35415.310909189095, -12939.067237265974, 3566.444345288795, -55368.4673152527, -187500.02235174447, 0.07344874608516694, 0.9805861891508102, 0.06965929901599885, 192.0, 0.0, 0.0, 0.0, 0.0, 0.0, 0.0, 0.0, 0.0, 0.0, 1.741979278442352E9, 0.0, 2025-03-14 14:07:58.442
58.0, -19087.272177609466, -3932.7000299334563, -187500.02235174447, -9363.61513896169, 20820.873477563084, 10171.340128343121, -44365.39642398315, 5819.500186383747, -3168.3374247953207, 41758.803040838604, 7960.1491046129595, 35496.1795206284, -12969.689127169744, 3563.091583620499, -55305.211878444185, -187500.02235174447, 0.07344874608516694, 0.9805861891508102, 0.06965929901599885, 192.0, 0.0, 0.0, 0.0, 0.0, 0.0, 0.0, 0.0, 0.0, 0.0, 1.741979278442433E9, 0.0, 2025-03-14 14:07:58.442
60.0, -19091.273139866968, -3955.0517743887635, -187500.02235174447, -9284.177039167529, 20911.398042607074, 10234.237937240356, -44375.00767409893, 5873.613759710045, -3187.068186648868, 41671.34066478499, 7852.033716682639, 35399.61998458147, -12937.100283753907, 3553.927368393823, -55378.749117702144, -187500.02235174447, 0.07372437304258347, 0.9822930945754051, 0.06982964950799943, 192.0, 1.0, 40.0, 15.0, 96.0, 1.0, 24.0, 0.0, 0.0, 0.0, 1.741979278442527E9, 0.0, 2025-03-14 14:07:58.442
62.0, -19075.269290836965, -3945.395820784071, -187500.02235174447, -9389.699624741033, 20809.921122779982, 10148.161369342968, -44358.06505180181, 5794.220363404795, -3167.868038161759, 41759.18302049435, 7958.316261567625, 35492.22326185981, -12963.788266633543, 3567.1372493669096, -55316.03012276055, -187500.02235174447, 0.07372437304258347, 0.9822930945754051, 0.06982964950799943, 192.0, 0.0, 0.0, 0.0, 0.0, 0.0, 0.0, 0.0, 0.0, 0.0, 1.741979278502054E9, 0.0, 2025-03-14 14:07:58.502
64.0, -19098.045718436922, -3970.3403675961936, -187500.02235174447, -9302.393710898605, 20902.479696569408, 10221.586849878651, -44377.01933109991, 5862.057907826652, -3179.6027040007957, 41633.23094048869, 7809.051312095084, 35358.58218176153, -12941.950612300709, 3537.431780985806, -55416.14358617587, -187500.02235174447, 0.07372437304258347, 0.9822930945754051, 0.06982964950799943, 192.0, 0.0, 0.0, 0.0, 0.0, 0.0, 0.0, 0.0, 0.0, 0.0, 1.741979278502143E9, 0.0, 2025-03-14 14:07:58.502
66.0, -19105.26533189599, -3986.165402670551, -187500.02235174447, -9334.13318802514, 20851.160091300022, 10196.754061788806, -44371.5208019639, 5841.114323272029, -3199.361646099287, 41787.212108041305, 7995.464860852345, 35525.214436675844, -12961.217816021182, 3565.214999343753, -55286.50346833509, -187500.02235174447, 0.07372437304258347, 0.9822930945754051, 0.06982964950799943, 192.0, 0.0, 0.0, 0.0, 0.0, 0.0, 0.0, 0.0, 0.0, 0.0, 1.741979278502245E9, 0.0, 2025-03-14 14:07:58.502
68.0, -19098.045718436922, -3967.635806517101, -187500.02235174447, -9324.410179187082, 20880.776152703304, 10204.01837873678, -44370.894953119154, 5845.785837863188, -3195.651256519706, 41642.283396993094, 7820.204832578282, 35373.647257524404, -12964.548225945024, 3534.4589989732503, -55396.20583012174, -187500.02235174447, 0.07372437304258347, 0.9822930945754051, 0.06982964950799943, 192.0, 0.0, 0.0, 0.0, 0.0, 0.0, 0.0, 0.0, 0.0, 0.0, 1.741979278502337E9, 0.0, 2025-03-14 14:07:58.502
70.0, -19087.4062880762, -3947.0498498737634, -187500.02235174447, -9341.531615439846, 20843.471091207397, 10179.073831924657, -44368.01157808442, 5821.556546873635, -3159.173209568645, 41789.13435806446, 7988.5581718156545, 35524.387422130996, -12940.296583211015, 3563.7174324652474, -55292.02434921555, -187500.02235174447, 0.07286218652129174, 0.9811465472877026, 0.07091482475399971, 192.0, 1.0, 32.0, 15.0, 80.0, 1.0, 32.0, 0.0, 0.0, 0.0, 1.741979278502427E9, 0.0, 2025-03-14 14:07:58.502
72.0, -19079.471418794565, -3928.3861432535823, -187500.02235174447, -9352.998060345419, 20853.21645178991, 10171.764811487772, -44360.59079892526, 5817.734398571778, -3171.980759141536, 41622.367992683416, 7794.567381688044, 35349.127393856936, -12960.56961543198, 3537.789408897091, -55427.29710665907, -187500.02235174447, 0.07286218652129174, 0.9811465472877026, 0.07091482475399971, 192.0, 0.0, 0.0, 0.0, 0.0, 0.0, 0.0, 0.0, 0.0, 0.0, 1.741979278502517E9, 0.0, 2025-03-14 14:07:58.502
74.0, -19108.238113908545, -3946.736925451389, -187500.02235174447, -9330.355743212192, 20854.60225994614, 10182.2030761484, -44367.67630191759, 5826.6303928649895, -3169.72323295155, 41794.29761103363, 7996.023654463727, 35523.35924188605, -12934.060446507985, 3568.9924441567, -55301.21091618668, -187500.02235174447, 0.07286218652129174, 0.9811465472877026, 0.07091482475399971, 192.0, 0.0, 0.0, 0.0, 0.0, 0.0, 0.0, 0.0, 0.0, 0.0, 1.741979278502605E9, 0.0, 2025-03-14 14:07:58.502
76.0, -19098.40334634821, -3973.0002251863752, -187500.02235174447, -9347.074848064764, 20857.93266986998, 10181.465468581375, -44367.0728048173, 5829.714933599822, -3182.9778174135467, 41632.40392594384, 7807.196117305293, 35356.168193360354, -12957.149798530318, 3533.0731908170214, -55426.53714734759, -187500.02235174447, 0.07286218652129174, 0.9811465472877026, 0.07091482475399971, 192.0, 0.0, 0.0, 0.0, 0.0, 0.0, 0.0, 0.0, 0.0, 0.0, 1.741979278562406E9, 0.0, 2025-03-14 14:07:58.562
78.0, -19104.34891037332, -3989.3393503832044, -187500.02235174447, -9266.7873819813, 20904.714871014938, 10241.010515810314, -44381.44497650206, 5883.984969137307, -3173.7018434645947, 41828.11580039452, 8037.642602639509, 35561.51366967126, -12936.340324442426, 3583.118746652454, -55263.548226779494, -187500.02235174447, 0.07286218652129174, 0.9811465472877026, 0.07091482475399971, 192.0, 0.0, 0.0, 0.0, 0.0, 0.0, 0.0, 0.0, 0.0, 0.0, 1.741979278562515E9, 0.0, 2025-03-14 14:07:58.562
80.0, -19094.134163157247, -3964.618321015635, -187500.02235174447, -9333.7532083694, 20857.575041958695, 10195.480012354852, -44361.08253730328, 5845.115285529529, -3193.460785563086, 41663.07051933653, 7848.390382336424, 35396.66955431337, -12970.449086481225, 3537.5658914525384, -55379.48672526917, -187500.02235174447, 0.07143109326064587, 0.9815732736438513, 0.07245741237699985, 192.0, 1.0, 24.0, 15.0, 88.0, 1.0, 40.0, 0.0, 0.0, 0.0, 1.741979278562598E9, 0.0, 2025-03-14 14:07:58.562
82.0, -19104.4606690956, -3959.5668267687356, -187500.02235174447, -9255.969137664932, 20912.1356501741, 10243.111579789113, -44364.39059548266, 5885.549591249179, -3148.332613507821, 41814.950622910335, 8023.1363204880145, 35552.17064048894, -12946.510368169591, 3581.799993729591, -55268.443258815205, -187500.02235174447, 0.07143109326064587, 0.9815732736438513, 0.07245741237699985, 192.0, 0.0, 0.0, 0.0, 0.0, 0.0, 0.0, 0.0, 0.0, 0.0, 1.741979278562698E9, 0.0, 2025-03-14 14:07:58.562
84.0, -19098.425698092666, -3955.208236599951, -187500.02235174447, -9370.164200087094, 20830.663541634505, 10163.025279405747, -44349.996072053444, 5811.185337446373, -3202.625000789762, 41653.43691747629, 7836.83453045303, 35389.382885620944, -12978.316900529493, 3524.758341879647, -55392.607199264436, -187500.02235174447, 0.07143109326064587, 0.9815732736438513, 0.07245741237699985, 192.0, 0.0, 0.0, 0.0, 0.0, 0.0, 0.0, 0.0, 0.0, 0.0, 1.741979278562783E9, 0.0, 2025-03-14 14:07:58.562
86.0, -19115.435375623154, -3977.0235391883302, -187500.02235174447, -9250.828236440211, 20924.116185202147, 10251.560539193219, -44368.391557740164, 5884.767280193243, -3185.5706197703626, 41785.379264995965, 7984.758375258252, 35517.01134646074, -12934.015743019074, 3573.4180895588506, -55300.89799176431, -187500.02235174447, 0.07143109326064587, 0.9815732736438513, 0.07245741237699985, 192.0, 0.0, 0.0, 0.0, 0.0, 0.0, 0.0, 0.0, 0.0, 0.0, 1.741979278562868E9, 0.0, 2025-03-14 14:07:58.562
88.0, -19098.537456814942, -3957.510466278847, -187500.02235174447, -9369.38188903116, 20829.188326500454, 10170.781334731739, -44348.185580752564, 5812.839366536065, -3215.9242887406695, 41681.354246300965, 7866.65175755641, 35420.272996458174, -12974.673566183277, 3538.9069961198566, -55367.59559721895, -187500.02235174447, 0.07143109326064587, 0.9815732736438513, 0.07245741237699985, 192.0, 0.0, 0.0, 0.0, 0.0, 0.0, 0.0, 0.0, 0.0, 0.0, 1.741979278562955E9, 0.0, 2025-03-14 14:07:58.562
90.0, -19108.439279608643, -3966.4511640609703, -187500.02235174447, -9245.396762537572, 20929.771176549337, 10251.337021748664, -44364.01061582692, 5880.922780146931, -3170.170267840656, 41776.39386372493, 7972.867247208029, 35510.328174868606, -12926.237335948628, 3582.4928978077055, -55305.971837755664, -187500.02235174447, 0.07071554663032294, 0.9797866368219257, 0.07422870618849992, 192.0, 1.0, 24.0, 15.0, 72.0, 1.0, 48.0, 0.0, 0.0, 0.0, 1.741979278563044E9, 0.0, 2025-03-14 14:07:58.563
92.0, -19075.761029214984, -3951.028460386808, -187500.02235174447, -9378.590807746747, 20813.98914027085, 10152.028221133736, -44349.83960984226, 5792.208706403817, -3168.3374247953207, 41687.031589392616, 7873.692557059831, 35424.94451104933, -12967.14102830184, 3541.5668537100382, -55367.32737628548, -187500.02235174447, 0.07071554663032294, 0.9797866368219257, 0.07422870618849992, 192.0, 0.0, 0.0, 0.0, 0.0, 0.0, 0.0, 0.0, 0.0, 0.0, 1.741979278621735E9, 0.0, 2025-03-14 14:07:58.621
94.0, -19092.323671856364, -3958.4715912904253, -187500.02235174447, -9250.336498062194, 20923.95972299096, 10242.396323966543, -44366.69282516156, 5871.736213175799, -3154.3899362552092, 41752.20927622429, 7942.0665433486165, 35482.232032088286, -12940.140120999828, 3572.8369442030125, -55336.23609974815, -187500.02235174447, 0.07071554663032294, 0.9797866368219257, 0.07422870618849992, 192.0, 0.0, 0.0, 0.0, 0.0, 0.0, 0.0, 0.0, 0.0, 0.0, 1.741979278621861E9, 0.0, 2025-03-14 14:07:58.621
96.0, -19091.720174756072, -3948.770934196822, -187500.02235174447, -9377.80849669081, 20812.02218675878, 10157.191474102912, -44357.64036865716, 5797.215497161806, -3221.869852765781, 41704.80122623459, 7894.859659059008, 35439.80842111212, -12969.286795769549, 3553.6591474603592, -55369.316681542005, -187500.02235174447, 0.07071554663032294, 0.9797866368219257, 0.07422870618849992, 192.0, 0.0, 0.0, 0.0, 0.0, 0.0, 0.0, 0.0, 0.0, 0.0, 1.741979278621951E9, 0.0, 2025-03-14 14:07:58.621
98.0, -19113.580180833364, -3975.2353996319057, -187500.02235174447, -9226.218965794917, 20940.94704877699, 10272.41471677002, -44388.93281089459, 5902.223992612839, -3185.6376750037284, 41747.09072674403, 7941.150121825948, 35479.88509892048, -12940.631859377845, 3577.9107901943676, -55335.05145729202, -187500.02235174447, 0.07071554663032294, 0.9797866368219257, 0.07422870618849992, 192.0, 0.0, 0.0, 0.0, 0.0, 0.0, 0.0, 0.0, 0.0, 0.0, 1.741979278622033E9, 0.0, 2025-03-14 14:07:58.622
100.0, -19094.02240443497, -3965.5347425383025, -187500.02235174447, -9358.47423773697, 20815.889038549547, 10175.54225630072, -44367.87746761769, 5817.510881127225, -3212.5938788168287, 41740.54166561862, 7940.56897647011, 35481.96381115482, -12972.348984759927, 3543.3326415220076, -55330.26818397858, -187500.02235174447, 0.07235777331516147, 0.9798933184109628, 0.07411435309424996, 192.0, 1.0, 40.0, 15.0, 80.0, 1.0, 40.0, 0.0, 0.0, 0.0, 1.741979278622119E9, 0.0, 2025-03-14 14:07:58.622
102.0, -19099.029195192958, -3978.029367688819, -187500.02235174447, -9188.57862813218, 20968.3502874792, 10310.256220132855, -44392.82201442981, 5941.183083198439, -3154.4793432330302, 41735.400764393904, 7934.064618833616, 35476.8229099301, -12946.555071658502, 3559.224731829731, -55331.31871596798, -187500.02235174447, 0.07235777331516147, 0.9798933184109628, 0.07411435309424996, 192.0, 0.0, 0.0, 0.0, 0.0, 0.0, 0.0, 0.0, 0.0, 0.0, 1.741979278622204E9, 0.0, 2025-03-14 14:07:58.622
104.0, -19068.116732611266, -3942.132466093596, -187500.02235174447, -9338.536481682835, 20825.92497180998, 10191.97078847537, -44352.92415057709, 5830.2737272112045, -3199.6969222661164, 41769.39776771042, 7973.381337330501, 35520.16294242894, -12983.323691287482, 3549.9040543918677, -55295.95825623969, -187500.02235174447, 0.07235777331516147, 0.9798933184109628, 0.07411435309424996, 192.0, 0.0, 0.0, 0.0, 0.0, 0.0, 0.0, 0.0, 0.0, 0.0, 1.741979278622296E9, 0.0, 2025-03-14 14:07:58.622
106.0, -19106.44997435212, -3959.87975119111, -187500.02235174447, -9203.017855050308, 20954.53690940582, 10303.99773168537, -44385.311828292826, 5926.967373724863, -3191.6055907732953, 41713.943089716806, 7905.588496397555, 35456.34871200904, -12944.409304190793, 3561.594016741993, -55343.12043704039, -187500.02235174447, 0.07235777331516147, 0.9798933184109628, 0.07411435309424996, 192.0, 0.0, 0.0, 0.0, 0.0, 0.0, 0.0, 0.0, 0.0, 0.0, 1.741979278681526E9, 0.0, 2025-03-14 14:07:58.681
108.0, -19099.006843448504, -3944.792323683778, -187500.02235174447, -9324.27606872035, 20828.763643355804, 10200.844431024127, -44352.387708710165, 5833.313564457127, -3191.2479628620104, 41786.80977664111, 7997.8341457646075, 35541.151230472475, -12971.611377192901, 3555.9390253948004, -55275.9981484411, -187500.02235174447, 0.07235777331516147, 0.9798933184109628, 0.07411435309424996, 192.0, 0.0, 0.0, 0.0, 0.0, 0.0, 0.0, 0.0, 0.0, 0.0, 1.741979278681684E9, 0.0, 2025-03-14 14:07:58.681
110.0, -19083.45002930761, -3968.5969315286798, -187500.02235174447, -9232.991544364875, 20921.65749331206, 10275.543960993762, -44377.98045611149, 5895.853745443076, -3150.008994341969, 41686.942182414794, 7876.665339072388, 35429.61602564049, -12958.245034008627, 3580.2577233621746, -55364.287539039564, -187500.02235174447, 0.07317888665758074, 0.9789466592054814, 0.07305717654712499, 192.0, 1.0, 40.0, 15.0, 72.0, 1.0, 32.0, 0.0, 0.0, 0.0, 1.741979278681823E9, 0.0, 2025-03-14 14:07:58.681
112.0, -19089.842628221828, -3967.16641988354, -187500.02235174447, -9324.499586164902, 20828.182497999966, 10201.336169402144, -44356.41102271212, 5828.016201021219, -3179.5132970229743, 41788.48615747526, 8002.617419078043, 35540.70419558337, -12952.612394405889, 3569.6182930014484, -55284.67062528976, -187500.02235174447, 0.07317888665758074, 0.9789466592054814, 0.07305717654712499, 192.0, 0.0, 0.0, 0.0, 0.0, 0.0, 0.0, 0.0, 0.0, 0.0, 1.741979278681961E9, 0.0, 2025-03-14 14:07:58.681
114.0, -19092.033099178447, -3962.2043326144617, -187500.02235174447, -9263.904006946565, 20910.74984201787, 10256.187350295468, -44370.44791823005, 5875.133678333006, -3170.729061452039, 41655.13565005489, 7845.50700730169, 35396.28957465763, -12940.94478380022, 3548.182970068809, -55395.311760343524, -187500.02235174447, 0.07317888665758074, 0.9789466592054814, 0.07305717654712499, 192.0, 0.0, 0.0, 0.0, 0.0, 0.0, 0.0, 0.0, 0.0, 0.0, 1.741979278682091E9, 0.0, 2025-03-14 14:07:58.682
116.0, -19100.035023693446, -3954.06829763273, -187500.02235174447, -9296.112870706662, 20866.448684507453, 10225.118425502591, -44357.03687155687, 5846.545797174668, -3210.515166582485, 41804.042971616145, 8021.325829187135, 35555.501050412786, -12946.443312936224, 3570.4229558018396, -55272.04188967251, -187500.02235174447, 0.07317888665758074, 0.9789466592054814, 0.07305717654712499, 192.0, 0.0, 0.0, 0.0, 0.0, 0.0, 0.0, 0.0, 0.0, 0.0, 1.741979278682227E9, 0.0, 2025-03-14 14:07:58.682
118.0, -19097.911607970193, -3947.3180708072273, -187500.02235174447, -9262.272329601328, 20916.404833365064, 10256.857902629126, -44365.73170014998, 5875.200733566372, -3198.8922594657256, 41663.875182136915, 7856.325251618058, 35409.25358644171, -12956.680411896756, 3539.711658920248, -55374.278768811084, -187500.02235174447, 0.07317888665758074, 0.9789466592054814, 0.07305717654712499, 192.0, 0.0, 0.0, 0.0, 0.0, 0.0, 0.0, 0.0, 0.0, 0.0, 1.741979278682359E9, 0.0, 2025-03-14 14:07:58.682
120.0, -19101.376128360764, -3940.6348992150906, -187500.02235174447, -9297.297513162794, 20871.32136479871, 10218.815233566194, -44353.6170546552, 5838.923852315409, -3185.01182615898, 41802.433646015365, 8017.526032629733, 35548.39319567599, -12941.32476345596, 3562.733955709214, -55280.75907001008, -187500.02235174447, 0.07258944332879037, 0.9794733296027407, 0.0705285882735625, 192.0, 1.0, 32.0, 15.0, 80.0, 1.0, 16.0, 0.0, 0.0, 0.0, 1.741979278682484E9, 0.0, 2025-03-14 14:07:58.682
122.0, -19106.338215629843, -3970.541533296291, -187500.02235174447, -9270.475419816425, 20909.967530961934, 10254.153341550034, -44368.056281573336, 5873.4125940099475, -3191.1585558841894, 41655.73914715519, 7842.355411333491, 35394.903766501404, -12957.462722952692, 3539.1305135644097, -55389.165030618315, -187500.02235174447, 0.07258944332879037, 0.9794733296027407, 0.0705285882735625, 192.0, 0.0, 0.0, 0.0, 0.0, 0.0, 0.0, 0.0, 0.0, 0.0, 1.741979278741836E9, 0.0, 2025-03-14 14:07:58.741
124.0, -19110.227419165065, -3971.7261757524225, -187500.02235174447, -9252.191692851984, 20908.76053676135, 10256.679088673483, -44372.70544442003, 5876.49713474478, -3157.5415322234076, 41818.92923342338, 8038.089637528616, 35567.03455055172, -12957.28390899705, 3588.527868810638, -55260.91072093377, -187500.02235174447, 0.07258944332879037, 0.9794733296027407, 0.0705285882735625, 192.0, 0.0, 0.0, 0.0, 0.0, 0.0, 0.0, 0.0, 0.0, 0.0, 1.741979278741971E9, 0.0, 2025-03-14 14:07:58.741
126.0, -19091.653119522707, -3959.2091988574507, -187500.02235174447, -9288.848553758688, 20893.538998787284, 10236.987201808359, -44374.225363043, 5860.515637459235, -3181.435547046131, 41666.22211530473, 7858.225149896759, 35408.8065515526, -12970.85141788142, 3523.283126745597, -55370.25545480913, -187500.02235174447, 0.07258944332879037, 0.9794733296027407, 0.0705285882735625, 192.0, 0.0, 0.0, 0.0, 0.0, 0.0, 0.0, 0.0, 0.0, 0.0, 1.741979278742131E9, 0.0, 2025-03-14 14:07:58.742
128.0, -19109.668625553684, -3952.1236958651184, -187500.02235174447, -9229.817596652221, 20923.46798461294, 10270.537170235773, -44382.54021198037, 5887.091861616595, -3195.6289047752507, 41822.505512536234, 8042.649393397498, 35564.62056215055, -12945.213966991183, 3576.8155547160572, -55257.51325577656, -187500.02235174447, 0.07258944332879037, 0.9794733296027407, 0.0705285882735625, 192.0, 0.0, 0.0, 0.0, 0.0, 0.0, 0.0, 0.0, 0.0, 0.0, 1.741979278742275E9, 0.0, 2025-03-14 14:07:58.742
130.0, -19075.0010699035, -3938.3773730251046, -187500.02235174447, -9311.893202292109, 20869.66733570902, 10211.483861384853, -44372.90661012013, 5840.533177916191, -3188.5434017829184, 41654.3309872545, 7845.909338701885, 35391.14867343291, -12977.467534240192, 3536.8729873744237, -55386.52752477259, -187500.02235174447, 0.07029472166439518, 0.9757366648013703, 0.06826429413678126, 192.0, 1.0, 16.0, 15.0, 48.0, 1.0, 8.0, 0.0, 0.0, 0.0, 1.741979278742402E9, 0.0, 2025-03-14 14:07:58.742
132.0, -19115.010692478503, -3976.2412281323946, -187500.02235174447, -9212.003256321343, 20939.248316198387, 10279.679033717995, -44391.59266848477, 5905.196774625394, -3167.264541061466, 41815.48706477726, 8030.937079302917, 35552.03653002221, -12943.649344879312, 3573.1275168809316, -55263.45881980167, -187500.02235174447, 0.07029472166439518, 0.9757366648013703, 0.06826429413678126, 192.0, 0.0, 0.0, 0.0, 0.0, 0.0, 0.0, 0.0, 0.0, 0.0, 1.741979278742541E9, 0.0, 2025-03-14 14:07:58.742
134.0, -19095.76584050248, -3945.9769661399087, -187500.02235174447, -9312.27318194785, 20867.16394033002, 10214.613105608596, -44378.606304956236, 5848.803323364655, -3183.4472040471082, 41671.00538861816, 7864.371879621969, 35405.96788000678, -12975.791153406044, 3536.7835803966022, -55363.14760007234, -187500.02235174447, 0.07029472166439518, 0.9757366648013703, 0.06826429413678126, 192.0, 0.0, 0.0, 0.0, 0.0, 0.0, 0.0, 0.0, 0.0, 0.0, 1.741979278742673E9, 0.0, 2025-03-14 14:07:58.742
136.0, -19120.151593703224, -3967.6581582615568, -187500.02235174447, -9195.999407291343, 20960.638935642117, 10300.89083920608, -44396.24183133148, 5927.682629547433, -3162.1906950701114, 41812.290765320155, 8027.919593801451, 35549.84605906559, -12929.992429017118, 3591.478299078739, -55254.518122019545, -187500.02235174447, 0.07029472166439518, 0.9757366648013703, 0.06826429413678126, 192.0, 0.0, 0.0, 0.0, 0.0, 0.0, 0.0, 0.0, 0.0, 0.0, 1.741979278802101E9, 0.0, 2025-03-14 14:07:58.802
138.0, -19118.139936702246, -3955.5658645112358, -187500.02235174447, -9298.862135274665, 20881.647870737062, 10237.478940186375, -44384.99890387045, 5876.385376022503, -3202.7367595120386, 41704.93533670132, 7909.27653423268, 35447.117441549, -12981.490848242147, 3527.373495980918, -55317.32652393896, -187500.02235174447, 0.07029472166439518, 0.9757366648013703, 0.06826429413678126, 192.0, 0.0, 0.0, 0.0, 0.0, 0.0, 0.0, 0.0, 0.0, 0.0, 1.741979278802281E9, 0.0, 2025-03-14 14:07:58.802
140.0, -19100.9067417272, -3946.8263324292107, -187500.02235174447, -9176.396927404037, 20980.06260157378, 10322.750845283372, -44399.438130788585, 5951.084905992139, -3187.939904682625, 41812.82720718708, 8029.68538161342, 35550.20368697688, -12939.313106454982, 3563.1362871094093, -55232.54635721998, -187500.02235174447, 0.07314736083219758, 0.9818683324006852, 0.06913214706839063, 192.0, 1.0, 48.0, 15.0, 112.0, 1.0, 24.0, 0.0, 0.0, 0.0, 1.741979278802415E9, 0.0, 2025-03-14 14:07:58.802
142.0, -19084.34409908582, -3951.386088298093, -187500.02235174447, -9315.335370938226, 20866.001649618345, 10223.844376068637, -44362.82597337079, 5865.522428217224, -3180.787346456927, 41716.73705777372, 7925.727418151787, 35458.82975564358, -12975.500580728125, 3523.149016278865, -55296.695863806715, -187500.02235174447, 0.07314736083219758, 0.9818683324006852, 0.06913214706839063, 192.0, 0.0, 0.0, 0.0, 0.0, 0.0, 0.0, 0.0, 0.0, 0.0, 1.741979278802547E9, 0.0, 2025-03-14 14:07:58.802
144.0, -19095.76584050248, -3953.7330214659005, -187500.02235174447, -9172.395965146537, 20988.757430166894, 10324.360170884154, -44385.244773059465, 5956.449324661413, -3173.6347882312284, 41787.03329408566, 8006.998360991283, 35524.230959919805, -12939.290754710526, 3573.3510343254848, -55240.30241254597, -187500.02235174447, 0.07314736083219758, 0.9818683324006852, 0.06913214706839063, 192.0, 0.0, 0.0, 0.0, 0.0, 0.0, 0.0, 0.0, 0.0, 0.0, 1.741979278802677E9, 0.0, 2025-03-14 14:07:58.802
146.0, -19097.799849247916, -3933.2364718003837, -187500.02235174447, -9334.289650236327, 20854.915184368514, 10203.414881636487, -44355.56165642282, 5852.267843755227, -3169.365605040265, 41725.87892125594, 7939.630203202988, 35464.887078390966, -12983.010766865107, 3545.4113537563508, -55281.38491885483, -187500.02235174447, 0.07314736083219758, 0.9818683324006852, 0.06913214706839063, 192.0, 0.0, 0.0, 0.0, 0.0, 0.0, 0.0, 0.0, 0.0, 0.0, 1.741979278802801E9, 0.0, 2025-03-14 14:07:58.802
148.0, -19122.051491981925, -3958.739812223889, -187500.02235174447, -9191.953741544932, 20984.19767429801, 10309.742130010383, -44390.0280463729, 5946.659260589989, -3173.7018434645947, 41744.74379357622, 7956.930453411395, 35473.93953489537, -12936.6532488648, 3584.9068862088784, -55274.56763679596, -187500.02235174447, 0.07314736083219758, 0.9818683324006852, 0.06913214706839063, 192.0, 0.0, 0.0, 0.0, 0.0, 0.0, 0.0, 0.0, 0.0, 0.0, 1.741979278802931E9, 0.0, 2025-03-14 14:07:58.802
150.0, -19104.997110962526, -3949.6650039750343, -187500.02235174447, -9323.6502198756, 20864.28056529529, 10213.741387574839, -44369.710310663024, 5866.751774162266, -3192.3431983403207, 41736.69716557231, 7961.624319747009, 35479.48276752028, -12977.847513895931, 3544.830208400513, -55256.50742727607, -187500.02235174447, 0.0725736804160988, 0.9869341662003426, 0.06856607353419532, 192.0, 1.0, 32.0, 15.5, 0.0, 1.0, 16.0, 0.0, 0.0, 0.0, 1.741979278803068E9, 0.0, 2025-03-14 14:07:58.803
152.0, -19103.723061528573, -3960.5950070136796, -187500.02235174447, -9197.944009058954, 20989.07035458927, 10308.646894532072, -44386.04943585985, 5953.253025204304, -3180.809698201382, 41713.11607517196, 7941.731267181786, 35452.88419161847, -12948.119693770373, 3565.2373510882085, -55264.91168319127, -187500.02235174447, 0.0725736804160988, 0.9869341662003426, 0.06856607353419532, 192.0, 0.0, 0.0, 0.0, 0.0, 0.0, 0.0, 0.0, 0.0, 0.0, 1.741979278862411E9, 0.0, 2025-03-14 14:07:58.862
154.0, -19100.68322428265, -3939.2490910588613, -187500.02235174447, -9340.168159028073, 20865.688725195974, 10199.503326356808, -44358.64619715765, 5859.196884536372, -3203.0943874233235, 41740.74283131872, 7980.19861938937, 35482.723770466306, -12974.51710397209, 3563.8738946764347, -55238.06723810044, -187500.02235174447, 0.0725736804160988, 0.9869341662003426, 0.06856607353419532, 192.0, 0.0, 0.0, 0.0, 0.0, 0.0, 0.0, 0.0, 0.0, 0.0, 1.741979278862573E9, 0.0, 2025-03-14 14:07:58.862
156.0, -19102.58312256135, -3960.5726552692245, -187500.02235174447, -9204.44836669545, 20997.228741315455, 10306.903458464558, -44379.58978171227, 5961.545522397223, -3147.8632268742595, 41683.030627135115, 7915.535022680167, 35419.69185110234, -12964.212949778193, 3572.9710546697447, -55277.98745369762, -187500.02235174447, 0.0725736804160988, 0.9869341662003426, 0.06856607353419532, 192.0, 0.0, 0.0, 0.0, 0.0, 0.0, 0.0, 0.0, 0.0, 0.0, 1.741979278862744E9, 0.0, 2025-03-14 14:07:58.862
158.0, -19115.390672134243, -3970.161553640551, -187500.02235174447, -9321.213879729972, 20881.75962945934, 10210.835660795648, -44356.34396747875, 5874.150201576973, -3206.4471490916194, 41762.91576181838, 8019.269468697246, 35512.920977225425, -12966.738696901644, 3557.637757973404, -55194.63779862378, -187500.02235174447, 0.0725736804160988, 0.9869341662003426, 0.06856607353419532, 192.0, 0.0, 0.0, 0.0, 0.0, 0.0, 0.0, 0.0, 0.0, 0.0, 1.741979278862868E9, 0.0, 2025-03-14 14:07:58.862
160.0, -19106.53938132994, -3965.959425682953, -187500.02235174447, -9256.416172554038, 20960.415418197565, 10259.69657417495, -44365.15055479414, 5914.517452063257, -3180.6979394791056, 41640.71877488122, 7878.297016417625, 35378.966972704766, -12940.408341933293, 3555.760211439158, -55297.94756149621, -187500.02235174447, 0.0712868402080494, 0.9864670831001713, 0.06628303676709765, 192.0, 1.0, 24.0, 15.0, 104.0, 1.0, 0.0, 0.0, 0.0, 0.0, 1.741979278862969E9, 0.0, 2025-03-14 14:07:58.862
162.0, -19124.487832127554, -3956.3928790560817, -187500.02235174447, -9329.193452500516, 20881.75962945934, 10203.191364191935, -44361.77544138139, 5863.622529938523, -3199.5851635438403, 41744.58733136503, 8008.630038336521, 35487.55174726865, -12957.75329563061, 3560.923464408334, -55215.17905177821, -187500.02235174447, 0.0712868402080494, 0.9864670831001713, 0.06628303676709765, 192.0, 0.0, 0.0, 0.0, 0.0, 0.0, 0.0, 0.0, 0.0, 0.0, 1.741979278863061E9, 0.0, 2025-03-14 14:07:58.863
164.0, -19105.511201084995, -3988.0429492047965, -187500.02235174447, -9246.983736393899, 20973.938223593024, 10276.661548216529, -44382.36139802473, 5936.623327329556, -3206.3130386248877, 41630.07934452049, 7871.010347725195, 35365.28770509812, -12953.37235371737, 3558.5541794960714, -55298.931038252245, -187500.02235174447, 0.0712868402080494, 0.9864670831001713, 0.06628303676709765, 192.0, 0.0, 0.0, 0.0, 0.0, 0.0, 0.0, 0.0, 0.0, 0.0, 1.741979278863149E9, 0.0, 2025-03-14 14:07:58.863
166.0, -19124.823108294382, -3970.742698996389, -187500.02235174447, -9318.062283761774, 20896.243559866376, 10214.523698630775, -44362.06601405931, 5880.051062113173, -3180.206201101089, 41770.917686333385, 8040.570681163154, 35514.48559933729, -12969.912644614298, 3570.8699906909455, -55180.93617927268, -187500.02235174447, 0.0712868402080494, 0.9864670831001713, 0.06628303676709765, 192.0, 0.0, 0.0, 0.0, 0.0, 0.0, 0.0, 0.0, 0.0, 0.0, 1.741979278922702E9, 0.0, 2025-03-14 14:07:58.922
168.0, -19110.987378476548, -3969.647463518079, -187500.02235174447, -9301.700806820489, 20937.594287108695, 10232.78507385076, -44361.820144870304, 5900.100576889584, -3174.305340564888, 41604.71011456372, 7839.31557408757, 35333.391765760396, -12963.743563144633, 3538.482312975206, -55325.14963449832, -187500.02235174447, 0.0712868402080494, 0.9864670831001713, 0.06628303676709765, 192.0, 0.0, 0.0, 0.0, 0.0, 0.0, 0.0, 0.0, 0.0, 0.0, 1.741979278922792E9, 0.0, 2025-03-14 14:07:58.922
170.0, -19106.852305752316, -3968.999262928875, -187500.02235174447, -9307.020522000852, 20910.548676317772, 10219.038751010747, -44365.41877572761, 5889.036463384207, -3183.2236866025555, 41775.07511080207, 8035.3403729606125, 35509.85878823505, -12956.367487474381, 3574.8486012039903, -55191.3744439333, -187500.02235174447, 0.0706434201040247, 0.9852335415500857, 0.06414151838354883, 192.0, 1.0, 24.0, 15.0, 96.0, 0.5, 120.0, 0.0, 0.0, 0.0, 1.741979278922894E9, 0.0, 2025-03-14 14:07:58.922
172.0, -19100.951445216113, -3951.5425505092803, -187500.02235174447, -9305.478251633436, 20929.27943817132, 10230.773416849783, -44364.323540249294, 5900.927591434431, -3204.7931200019266, 41613.404943156835, 7844.344716590013, 35344.54528624359, -12968.012746335597, 3550.820475914535, -55315.1584047268, -187500.02235174447, 0.0706434201040247, 0.9852335415500857, 0.06414151838354883, 192.0, 0.0, 0.0, 0.0, 0.0, 0.0, 0.0, 0.0, 0.0, 0.0, 1.741979278922992E9, 0.0, 2025-03-14 14:07:58.922
174.0, -19101.666701038685, -3961.131448880607, -187500.02235174447, -9310.954429024987, 20906.458307082452, 10206.78999504924, -44352.790040110354, 5877.748832434277, -3181.7037679795944, 41778.94196259284, 8034.558061904677, 35516.09492493808, -12946.331554213948, 3582.179973385331, -55194.21311547913, -187500.02235174447, 0.0706434201040247, 0.9852335415500857, 0.06414151838354883, 192.0, 0.0, 0.0, 0.0, 0.0, 0.0, 0.0, 0.0, 0.0, 0.0, 1.741979278923076E9, 0.0, 2025-03-14 14:07:58.923
176.0, -19101.085555682846, -3967.8146204727436, -187500.02235174447, -9367.817266919288, 20878.384516046586, 10166.4003928185, -44353.706461633024, 5844.176512262406, -3194.10898615229, 41581.28548637456, 7802.144623058394, 35306.547320669575, -12954.355830473403, 3554.5532172385715, -55364.80162916203, -187500.02235174447, 0.0706434201040247, 0.9852335415500857, 0.06414151838354883, 192.0, 0.0, 0.0, 0.0, 0.0, 0.0, 0.0, 0.0, 0.0, 0.0, 1.741979278923163E9, 0.0, 2025-03-14 14:07:58.923
178.0, -19115.59183783434, -3977.291760121794, -187500.02235174447, -9315.089501749218, 20913.968493219436, 10204.3089514147, -44364.16707803811, 5871.937378875898, -3144.979851839525, 41758.24424722722, 8006.238401679802, 35485.04835188966, -12942.08472276744, 3614.7911685456243, -55227.047828083974, -187500.02235174447, 0.0706434201040247, 0.9852335415500857, 0.06414151838354883, 192.0, 0.0, 0.0, 0.0, 0.0, 0.0, 0.0, 0.0, 0.0, 0.0, 1.741979278923252E9, 0.0, 2025-03-14 14:07:58.923
180.0, -19088.143895643225, -3974.721309509434, -187500.02235174447, -9400.09318591275, 20859.474940237396, 10146.350878042089, -44349.102002275235, 5823.657610852434, -3196.2547536199995, 41589.8685562454, 7815.488614498212, 35314.95157658477, -12986.542342489045, 3536.448304229773, -55356.0173935911, -187500.02235174447, 0.07132171005201235, 0.9816167707750428, 0.0640707591917744, 192.0, 1.0, 32.0, 15.0, 72.0, 1.0, 0.0, 0.0, 0.0, 0.0, 1.741979278923338E9, 0.0, 2025-03-14 14:07:58.923
182.0, -19090.043793921923, -3967.2781786058163, -187500.02235174447, -9320.968010540964, 20913.387347863598, 10193.82598326516, -44363.094194304256, 5865.991814850786, -3188.8116227163823, 41741.10045923, 7983.461974079844, 35463.88124989048, -12932.920507540764, 3586.7620809986693, -55250.98654639561, -187500.02235174447, 0.07132171005201235, 0.9816167707750428, 0.0640707591917744, 192.0, 0.0, 0.0, 0.0, 0.0, 0.0, 0.0, 0.0, 0.0, 0.0, 1.741979278981973E9, 0.0, 2025-03-14 14:07:58.981
184.0, -19112.730814544062, -3950.8272946867105, -187500.02235174447, -9450.988108037485, 20813.07271874818, 10097.221743729324, -44346.12922026268, 5776.741299240744, -3195.0924629083233, 41590.02501845658, 7808.090187083506, 35311.17413177182, -12965.196426534229, 3530.7709611381247, -55371.6189112209, -187500.02235174447, 0.07132171005201235, 0.9816167707750428, 0.0640707591917744, 192.0, 0.0, 0.0, 0.0, 0.0, 0.0, 0.0, 0.0, 0.0, 0.0, 1.74197927898207E9, 0.0, 2025-03-14 14:07:58.982
186.0, -19109.02042496448, -3977.291760121794, -187500.02235174447, -9347.18660678704, 20898.925769201014, 10166.690965496418, -44361.55192393684, 5837.113361014529, -3172.8301254308376, 41700.53204304362, 7931.740037410264, 35413.74628707723, -12921.901097524298, 3572.300502336085, -55310.7551110691, -187500.02235174447, 0.07132171005201235, 0.9816167707750428, 0.0640707591917744, 192.0, 0.0, 0.0, 0.0, 0.0, 0.0, 0.0, 0.0, 0.0, 0.0, 1.741979278982152E9, 0.0, 2025-03-14 14:07:58.982
188.0, -19098.895084726228, -3981.873867735132, -187500.02235174447, -9469.49535244648, 20793.380831883052, 10077.395746397466, -44350.82308659829, 5757.429392031359, -3190.1080238947898, 41598.026942971585, 7813.901640641885, 35314.012803317644, -12969.823237636476, 3536.60476644096, -55388.31566432901, -187500.02235174447, 0.07132171005201235, 0.9816167707750428, 0.0640707591917744, 192.0, 0.0, 0.0, 0.0, 0.0, 0.0, 0.0, 0.0, 0.0, 0.0, 1.74197927898224E9, 0.0, 2025-03-14 14:07:58.982
190.0, -19119.324579158376, -3988.5570393272687, -187500.02235174447, -9328.455844933493, 20908.71583327244, 10178.82796273565, -44383.21076431403, 5844.936471573887, -3178.7086342225834, 41688.19388010429, 7914.037455801661, 35402.525711360664, -12942.263536723083, 3593.0429211906103, -55336.28080323706, -187500.02235174447, 0.078, 0.978, 0.066, 192.0, 1.0, 56.0, 15.0, 72.0, 1.0, 8.0, 0.0, 0.0, 0.0, 1.741979278982324E9, 0.0, 2025-03-14 14:07:58.982
192.0, -19089.417945077177, -3951.073163875719, -187500.02235174447, -9474.25627401546, 20782.987270711335, 10067.203350925845, -44346.48684817396, 5746.2758715481605, -3195.293628608421, 41619.73048683769, 7837.214510108771, 35342.399518775885, -12992.510258258613, 3556.3637085394516, -55385.186420105274, -187500.02235174447, 0.078, 0.978, 0.066, 192.0, 0.0, 0.0, 0.0, 0.0, 0.0, 0.0, 0.0, 0.0, 0.0, 1.741979278982415E9, 0.0, 2025-03-14 14:07:58.982
194.0, -19099.386823104243, -3946.491056262381, -187500.02235174447, -9321.817376830266, 20912.940312974493, 10174.670538266962, -44374.85121188775, 5843.282442484194, -3179.9603319120806, 41676.97330438773, 7899.128842249971, 35392.62388856696, -12926.438501648725, 3597.75913927068, -55359.19134130375, -187500.02235174447, 0.078, 0.978, 0.066, 192.0, 0.0, 0.0, 0.0, 0.0, 0.0, 0.0, 0.0, 0.0, 0.0, 1.741979278982506E9, 0.0, 2025-03-14 14:07:58.982
196.0, -19100.571465560373, -3949.709707463945, -187500.02235174447, -9464.600320410767, 20782.786105011237, 10069.393821882466, -44346.46449642951, 5749.941557638831, -3210.805739260404, 41649.838286618986, 7873.513743104189, 35378.78815874913, -12971.052583581519, 3552.2956910485855, -55371.1718763318, -187500.02235174447, 0.078, 0.978, 0.066, 192.0, 0.0, 0.0, 0.0, 0.0, 0.0, 0.0, 0.0, 0.0, 0.0, 1.741979279042312E9, 0.0, 2025-03-14 14:07:59.042
198.0, -19116.17298319018, -3977.291760121794, -187500.02235174447, -9294.950579994987, 20932.81101379526, 10198.430442622954, -44377.22049680001, 5869.121059074529, -3183.268390091466, 41672.14532758538, 7889.696406089832, 35393.160330433886, -12934.12750174135, 3577.1061273939763, -55369.42844026428, -187500.02235174447, 0.078, 0.978, 0.066, 192.0, 0.0, 0.0, 0.0, 0.0, 0.0, 0.0, 0.0, 0.0, 0.0, 1.74197927904241E9, 0.0, 2025-03-14 14:07:59.042
200.0, -19105.958235974103, -3953.867131932632, -187500.02235174447, -9430.223337438505, 20807.060099489703, 10092.57258088262, -44346.12922026268, 5774.28260735066, -3170.080860862835, 41682.605943990464, 7902.369845195991, 35411.824037054066, -12979.658005196812, 3548.4288392578173, -55353.62575693438, -187500.02235174447, 0.07200000000000001, 0.982, 0.062, 192.0, 1.0, 32.0, 15.0, 88.0, 0.5, 120.0, 0.0, 0.0, 0.0, 1.74197927904251E9, 0.0, 2025-03-14 14:07:59.042
202.0, -19103.276026639465, -3980.5998183011793, -187500.02235174447, -9308.361626668171, 20924.56322009125, 10181.331358114643, -44366.73752865047, 5852.111381544039, -3191.6055907732953, 41664.18810655929, 7874.720737304776, 35384.04081869612, -12939.670734366267, 3582.671711763348, -55378.43619327977, -187500.02235174447, 0.07200000000000001, 0.982, 0.062, 192.0, 0.0, 0.0, 0.0, 0.0, 0.0, 0.0, 0.0, 0.0, 0.0, 1.741979279042603E9, 0.0, 2025-03-14 14:07:59.042
204.0, -19099.29741612642, -3956.459934289448, -187500.02235174447, -9417.371084376704, 20814.50323039332, 10102.876735076516, -44340.988319037955, 5780.228171375772, -3206.6706665361726, 41713.87603448344, 7934.913985122917, 35441.68596764636, -12974.606510949912, 3583.632836774926, -55338.65008814933, -187500.02235174447, 0.07200000000000001, 0.982, 0.062, 192.0, 0.0, 0.0, 0.0, 0.0, 0.0, 0.0, 0.0, 0.0, 0.0, 1.741979279042696E9, 0.0, 2025-03-14 14:07:59.042
206.0, -19108.036948208446, -3964.685376249001, -187500.02235174447, -9309.70273133549, 20925.3902346361, 10186.740480272829, -44359.76378438041, 5857.252282768761, -3185.5035645369967, 41645.770269128116, 7856.794638251619, 35370.4509580673, -12940.967135544675, 3581.2188483737527, -55395.37881557689, -187500.02235174447, 0.07200000000000001, 0.982, 0.062, 192.0, 0.0, 0.0, 0.0, 0.0, 0.0, 0.0, 0.0, 0.0, 0.0, 1.741979279042778E9, 0.0, 2025-03-14 14:07:59.042
208.0, -19100.750279516018, -3962.293739592283, -187500.02235174447, -9404.071796425796, 20824.717977609394, 10111.169232269434, -44347.24680748544, 5788.520668568692, -3189.035140160935, 41737.434773139335, 7969.916816939929, 35473.470148261804, -12962.13423754385, 3585.4880315647165, -55315.51603263808, -187500.02235174447, 0.07200000000000001, 0.982, 0.062, 192.0, 0.0, 0.0, 0.0, 0.0, 0.0, 0.0, 0.0, 0.0, 0.0, 1.741979279042867E9, 0.0, 2025-03-14 14:07:59.042
210.0, -19074.77755245895, -3947.295719062772, -187500.02235174447, -9330.713371123478, 20911.12982167361, 10169.216712619867, -44361.99895882594, 5837.091009270073, -3159.463782246564, 41631.97924279919, 7839.762608976675, 35354.31299857057, -12943.962269301686, 3560.4540777747725, -55411.896754729365, -187500.02235174447, 0.07, 0.98, 0.058, 192.0, 1.0, 24.0, 15.0, 80.0, 0.5, 104.0, 0.0, 0.0, 0.0, 1.741979279042953E9, 0.0, 2025-03-14 14:07:59.042
212.0, -19089.59675903282, -3941.864245160132, -187500.02235174447, -9406.977523204985, 20820.672311862985, 10102.072072276125, -44348.38674645266, 5776.80835447411, -3200.367474599776, 41750.577598879056, 7975.705918753853, 35478.0746076196, -12951.51715892758, 3589.2878281221188, -55326.468387421184, -187500.02235174447, 0.07, 0.98, 0.058, 192.0, 0.0, 0.0, 0.0, 0.0, 0.0, 0.0, 0.0, 0.0, 0.0, 1.741979279102092E9, 0.0, 2025-03-14 14:07:59.102
214.0, -19106.31586388539, -3958.0916116346853, -187500.02235174447, -9332.881490335643, 20899.193990134478, 10163.941700928415, -44367.67630191759, 5836.711029614334, -3188.7669192274716, 41619.842245559965, 7817.388512776914, 35339.47144025224, -12947.89617632582, 3576.435575060317, -55440.283470187605, -187500.02235174447, 0.07, 0.98, 0.058, 192.0, 0.0, 0.0, 0.0, 0.0, 0.0, 0.0, 0.0, 0.0, 0.0, 1.741979279102244E9, 0.0, 2025-03-14 14:07:59.102
216.0, -19102.761936516996, -3945.6640417175345, -187500.02235174447, -9377.406165290615, 20834.06100679171, 10123.038008575202, -44361.44016521456, 5795.293247138649, -3182.8660586912706, 41788.821433642086, 8015.693189584397, 35517.79365751668, -12961.061353809995, 3609.538508598627, -55300.58506734193, -187500.02235174447, 0.07, 0.98, 0.058, 192.0, 0.0, 0.0, 0.0, 0.0, 0.0, 0.0, 0.0, 0.0, 0.0, 1.741979279102336E9, 0.0, 2025-03-14 14:07:59.102
218.0, -19098.649215537218, -3946.1781318400067, -187500.02235174447, -9340.32462123926, 20882.586644004186, 10161.214788104868, -44371.319636263805, 5830.832520822588, -3158.2791397904325, 41626.59247238546, 7821.92591690134, 35346.46753626675, -12969.666775425289, 3574.7815459706244, -55438.11535097544, -187500.02235174447, 0.07, 0.98, 0.058, 192.0, 0.0, 0.0, 0.0, 0.0, 0.0, 0.0, 0.0, 0.0, 0.0, 1.741979279102419E9, 0.0, 2025-03-14 14:07:59.102
220.0, -19097.509276569996, -3954.582387755202, -187500.02235174447, -9353.936833612543, 20851.69653316695, 10145.032125119225, -44356.20985701202, 5811.00652349073, -3185.6376750037284, 41797.60566921302, 8023.561003632665, 35530.02006173373, -12941.838853578432, 3603.8164620180683, -55302.82024178746, -187500.02235174447, 0.078, 0.98, 0.064, 192.0, 1.0, 56.0, 15.0, 80.0, 1.0, 0.0, 0.0, 0.0, 0.0, 1.741979279102504E9, 0.0, 2025-03-14 14:07:59.102
222.0, -19076.00689840399, -3945.6193382286237, -187500.02235174447, -9350.315851010782, 20875.65760322304, 10160.655994493485, -44357.30509249033, 5822.718837585311, -3186.710558737583, 41626.59247238546, 7821.523585501145, 35353.35187355898, -12943.314068712481, 3552.094525348488, -55443.12214173343, -187500.02235174447, 0.078, 0.98, 0.064, 192.0, 0.0, 0.0, 0.0, 0.0, 0.0, 0.0, 0.0, 0.0, 0.0, 1.741979279102597E9, 0.0, 2025-03-14 14:07:59.102
224.0, -19123.414948393696, -3944.4346957724924, -187500.02235174447, -9304.494774877403, 20892.913149942535, 10192.574285575663, -44361.37310998119, 5849.719744887322, -3192.29849485141, 41808.75918969622, 8037.664954383965, 35546.046262508185, -12932.205251718195, 3587.0303019321327, -55297.07584346245, -187500.02235174447, 0.078, 0.98, 0.064, 192.0, 0.0, 0.0, 0.0, 0.0, 0.0, 0.0, 0.0, 0.0, 0.0, 1.741979279102683E9, 0.0, 2025-03-14 14:07:59.102
