%OpenBCI Raw EXG Data
%Number of channels = 8
%Sample Rate = 250 Hz
%Board = OpenBCI_GUI$BoardCytonSerial
Sample Index, EXG Channel 0, EXG Channel 1, EXG Channel 2, EXG Channel 3, EXG Channel 4, EXG Channel 5, EXG Channel 6, EXG Channel 7, Accel Channel 0, Accel Channel 1, Accel Channel 2, Not Used, Digital Channel 0 (D11), Digital Channel 1 (D12), Digital Channel 2 (D13), Digital Channel 3 (D17), Not Used, Digital Channel 4 (D18), Analog Channel 0, Analog Channel 1, Analog Channel 2, Timestamp, Marker Channel, Timestamp (Formatted)
27.0, -19887.41992562055, 7782.609198404455, -22986.332832137687, -10264.166923066012, -187500.02235174447, -17320.52324062863, -22514.286340986055, -36880.98184835695, 0.0, 0.0, 0.0, 192.0, 0.0, 0.0, 0.0, 0.0, 0.0, 0.0, 0.0, 0.0, 0.0, 1.741026104116391E9, 0.0, 2025-03-03 12:21:44.116
28.0, -19899.46751588196, 7812.247611552193, -22995.40764038654, -10272.101792347645, -187500.02235174447, -17323.317208685545, -22508.676053127772, -36896.49395900893, 0.0, 0.0, 0.0, 192.0, 0.0, 0.0, 0.0, 0.0, 0.0, 0.0, 0.0, 0.0, 0.0, 1.74102610411642E9, 0.0, 2025-03-03 12:21:44.116
29.0, -19959.794874166833, 7714.972819682696, -23003.476620134905, -10284.574065753706, -187500.02235174447, -17330.80504307807, -22517.32617823198, -36897.07510436477, 0.0, 0.0, 0.0, 192.0, 0.0, 0.0, 0.0, 0.0, 0.0, 0.0, 0.0, 0.0, 0.0, 1.741026104116437E9, 0.0, 2025-03-03 12:21:44.116
30.0, -19940.706484402, 7681.489906488647, -22995.631157831092, -10270.492466746864, -187500.02235174447, -17324.14422323039, -22516.521515431585, -36882.993505357925, 0.0, 0.0, 0.0, 192.0, 0.0, 0.0, 0.0, 0.0, 0.0, 0.0, 0.0, 0.0, 0.0, 1.741026104116453E9, 0.0, 2025-03-03 12:21:44.116
31.0, -19894.9971669909, 7743.7842182855875, -22988.54565483876, -10270.492466746864, -187500.02235174447, -17326.088824998, -22512.699367129728, -36886.52508098186, 0.052000000000000005, 0.872, -0.462, 192.0, 1.0, 160.0, 27.0, 64.0, 241.0, 144.0, 0.0, 0.0, 0.0, 1.741026104116467E9, 0.0, 2025-03-03 12:21:44.116
32.0, -19888.157533187572, 7811.577059218534, -22997.396945643064, -10274.046394115257, -187500.02235174447, -17334.537784402106, -22526.065710314004, -36897.79036018734, 0.052000000000000005, 0.872, -0.462, 192.0, 0.0, 0.0, 0.0, 0.0, 0.0, 0.0, 0.0, 0.0, 0.0, 1.741026104116485E9, 0.0, 2025-03-03 12:21:44.116
33.0, -19957.62675495467, 7727.735665766677, -23010.65153010506, -10283.32236806421, -187500.02235174447, -17343.165557761855, -22533.50884121762, -36904.83115969076, 0.052000000000000005, 0.872, -0.462, 192.0, 0.0, 0.0, 0.0, 0.0, 0.0, 0.0, 0.0, 0.0, 0.0, 1.7410261041165E9, 0.0, 2025-03-03 12:21:44.116
34.0, -19962.14180733464, 7679.90293263232, -23018.429937175508, -10295.03468215879, -187500.02235174447, -17349.692267142807, -22537.532155219575, -36918.53277904186, 0.052000000000000005, 0.872, -0.462, 192.0, 0.0, 0.0, 0.0, 0.0, 0.0, 0.0, 0.0, 0.0, 0.0, 1.741026104116515E9, 0.0, 2025-03-03 12:21:44.116
35.0, -19908.005882263886, 7723.377075597892, -23006.248236447365, -10286.406908799043, -187500.02235174447, -17340.05866528257, -22537.576858708486, -36908.67565973707, 0.052000000000000005, 0.872, -0.462, 192.0, 0.0, 0.0, 0.0, 0.0, 0.0, 0.0, 0.0, 0.0, 0.0, 1.741026104116549E9, 0.0, 2025-03-03 12:21:44.116
36.0, -19882.681355796023, 7798.59069569, -23006.89643703657, -10282.473001774908, -187500.02235174447, -17347.61355490846, -22541.086082587968, -36918.89040695315, 0.052000000000000005, 0.872, -0.462, 192.0, 0.0, 0.0, 0.0, 0.0, 0.0, 0.0, 0.0, 0.0, 0.0, 1.741026104116565E9, 0.0, 2025-03-03 12:21:44.116
37.0, -19938.113682045187, 7733.547119325057, -23014.31721619573, -10285.714004720927, -187500.02235174447, -17342.517357172652, -22537.375693008387, -36908.13921787014, 0.052000000000000005, 0.872, -0.462, 192.0, 0.0, 0.0, 0.0, 0.0, 0.0, 0.0, 0.0, 0.0, 0.0, 1.74102610411658E9, 0.0, 2025-03-03 12:21:44.116
38.0, -19943.94748734802, 7678.874752387375, -23016.060652263244, -10280.75191745185, -187500.02235174447, -17336.370627447443, -22532.413605739308, -36903.93708991255, 0.052000000000000005, 0.872, -0.462, 192.0, 0.0, 0.0, 0.0, 0.0, 0.0, 0.0, 0.0, 0.0, 0.0, 1.741026104116595E9, 0.0, 2025-03-03 12:21:44.116
39.0, -19926.98251330644, 7711.105967891928, -23011.255027205352, -10276.862713916626, -187500.02235174447, -17339.030485037623, -22529.530230704575, -36909.59208125974, 0.052000000000000005, 0.872, -0.462, 192.0, 0.0, 0.0, 0.0, 0.0, 0.0, 0.0, 0.0, 0.0, 0.0, 1.74102610411661E9, 0.0, 2025-03-03 12:21:44.116
40.0, -19889.7445070439, 7806.570268460545, -23001.867294534124, -10272.727641192394, -187500.02235174447, -17338.941078059805, -22532.011274339115, -36892.62710721816, 0.052000000000000005, 0.872, -0.462, 192.0, 0.0, 0.0, 0.0, 0.0, 0.0, 0.0, 0.0, 0.0, 0.0, 1.741026104116633E9, 0.0, 2025-03-03 12:21:44.116
41.0, -19944.841557126234, 7768.102916252961, -23002.493143378873, -10268.03377485678, -187500.02235174447, -17326.737025587205, -22522.109451545413, -36883.03820884683, 0.054, 0.872, -0.462, 192.0, 1.0, 176.0, 27.0, 64.0, 241.0, 144.0, 0.0, 0.0, 0.0, 1.741026104116649E9, 0.0, 2025-03-03 12:21:44.116
42.0, -19961.5606619788, 7698.253714830126, -23005.46592539143, -10269.285472546277, -187500.02235174447, -17330.96150528926, -22516.588570664953, -36891.15189208411, 0.054, 0.872, -0.462, 192.0, 0.0, 0.0, 0.0, 0.0, 0.0, 0.0, 0.0, 0.0, 0.0, 1.741026104116666E9, 0.0, 2025-03-03 12:21:44.116
43.0, -19931.296399986317, 7715.263392360615, -23008.483410892895, -10277.600321483651, -187500.02235174447, -17336.169461747344, -22523.87523935738, -36896.1586828421, 0.054, 0.872, -0.462, 192.0, 0.0, 0.0, 0.0, 0.0, 0.0, 0.0, 0.0, 0.0, 0.0, 1.741026104116689E9, 0.0, 2025-03-03 12:21:44.116
44.0, -19895.31009141327, 7795.2602857661595, -23002.895474779067, -10270.93950163597, -187500.02235174447, -17330.849746566983, -22518.846096854937, -36898.70678171, 0.054, 0.872, -0.462, 192.0, 0.0, 0.0, 0.0, 0.0, 0.0, 0.0, 0.0, 0.0, 0.0, 1.741026104116705E9, 0.0, 2025-03-03 12:21:44.116
0.0, 0.0, 0.0, 0.0, 0.0, 0.0, 0.0, 0.0, 0.0, 0.054, 0.872, -0.462, 192.0, 0.0, 0.0, 0.0, 0.0, 0.0, 0.0, 0.0, 0.0, 0.0, 1.741026104190292E9, 0.0, 2025-03-03 12:21:44.190
1.0, -19754.29293564474, 6701.477670845708, -23445.77293941652, -10813.081063399442, -187500.02235174447, -17461.383934185975, -22668.289860283123, -37132.841304879345, 0.046, 0.856, -0.486, 192.0, 1.0, 112.0, 26.0, 192.0, 240.0, 208.0, 0.0, 0.0, 0.0, 1.741026104254196E9, 0.0, 2025-03-03 12:21:44.254
2.0, -19750.269621642783, 6661.043365126057, -23447.292858039484, -10817.57376403496, -187500.02235174447, -17467.955347055835, -22674.280127797145, -37135.00942409151, 0.046, 0.856, -0.486, 192.0, 0.0, 0.0, 0.0, 0.0, 0.0, 0.0, 0.0, 0.0, 0.0, 1.741026104254226E9, 0.0, 2025-03-03 12:21:44.254
3.0, -19720.340635817127, 6712.340618650987, -23447.44932025067, -10812.924601188255, -187500.02235174447, -17470.950480812848, -22674.05661035259, -37139.8150491494, 0.046, 0.856, -0.486, 192.0, 0.0, 0.0, 0.0, 0.0, 0.0, 0.0, 0.0, 0.0, 0.0, 1.741026104254243E9, 0.0, 2025-03-03 12:21:44.254
4.0, -19713.0539671247, 6772.444459491308, -23449.550384229467, -10809.728301731146, -187500.02235174447, -17474.66087039243, -22679.331622044043, -37140.0162148495, 0.046, 0.856, -0.486, 192.0, 0.0, 0.0, 0.0, 0.0, 0.0, 0.0, 0.0, 0.0, 0.0, 1.741026104254258E9, 0.0, 2025-03-03 12:21:44.254
5.0, -19763.658316571513, 6714.084054718502, -23451.53968948599, -10813.170470377263, -187500.02235174447, -17477.723059382806, -22674.995383619713, -37139.3680142603, 0.046, 0.856, -0.486, 192.0, 0.0, 0.0, 0.0, 0.0, 0.0, 0.0, 0.0, 0.0, 0.0, 1.741026104254274E9, 0.0, 2025-03-03 12:21:44.254
6.0, -19759.813816525202, 6672.733327476183, -23446.59995396137, -10807.247258096608, -187500.02235174447, -17474.370297714508, -22669.183930061332, -37137.669281681694, 0.046, 0.856, -0.486, 192.0, 0.0, 0.0, 0.0, 0.0, 0.0, 0.0, 0.0, 0.0, 0.0, 1.741026104254323E9, 0.0, 2025-03-03 12:21:44.254
7.0, -19725.168612619473, 6710.261906416644, -23445.884698138798, -10805.839098195924, -187500.02235174447, -17471.77749535769, -22666.926403871348, -37136.68580492566, 0.046, 0.856, -0.486, 192.0, 0.0, 0.0, 0.0, 0.0, 0.0, 0.0, 0.0, 0.0, 0.0, 1.741026104254339E9, 0.0, 2025-03-03 12:21:44.254
8.0, -19687.528274956738, 6789.856468421993, -23431.02078807602, -10797.23367658063, -187500.02235174447, -17460.31105045212, -22648.933249584825, -37125.88991235375, 0.04, 0.848, -0.502, 192.0, 1.0, 64.0, 26.0, 128.0, 240.0, 80.0, 0.0, 0.0, 0.0, 1.741026104254354E9, 0.0, 2025-03-03 12:21:44.254
9.0, -19738.602011037114, 6736.569909640541, -23435.49113696708, -10796.496069013605, -187500.02235174447, -17459.104056251534, -22645.356970471978, -37120.95017682912, 0.04, 0.848, -0.502, 192.0, 0.0, 0.0, 0.0, 0.0, 0.0, 0.0, 0.0, 0.0, 0.0, 1.74102610425437E9, 0.0, 2025-03-03 12:21:44.254
10.0, -19774.275395187786, 6667.547722762552, -23441.43670099219, -10804.587400506425, -187500.02235174447, -17466.59189064406, -22649.53674668512, -37136.57404620339, 0.04, 0.848, -0.502, 192.0, 0.0, 0.0, 0.0, 0.0, 0.0, 0.0, 0.0, 0.0, 0.0, 1.741026104254394E9, 0.0, 2025-03-03 12:21:44.254
11.0, -19733.79638597922, 6692.782842252594, -23436.407558489747, -10808.81188020848, -187500.02235174447, -17472.17982675789, -22654.454130465285, -37145.33593002986, 0.04, 0.848, -0.502, 192.0, 0.0, 0.0, 0.0, 0.0, 0.0, 0.0, 0.0, 0.0, 0.0, 1.74102610425441E9, 0.0, 2025-03-03 12:21:44.254
12.0, -19704.62735946505, 6774.567875214562, -23432.92068635472, -10804.743862717613, -187500.02235174447, -17470.99518430176, -22659.05858982308, -37127.38747923225, 0.04, 0.848, -0.502, 192.0, 0.0, 0.0, 0.0, 0.0, 0.0, 0.0, 0.0, 0.0, 0.0, 1.741026104254425E9, 0.0, 2025-03-03 12:21:44.254
13.0, -19740.81483373819, 6736.256985218166, -23434.239439277582, -10803.46981328366, -187500.02235174447, -17470.771666857203, -22656.644601421907, -37122.559502429904, 0.04, 0.848, -0.502, 192.0, 0.0, 0.0, 0.0, 0.0, 0.0, 0.0, 0.0, 0.0, 0.0, 1.741026104254448E9, 0.0, 2025-03-03 12:21:44.254
14.0, -19759.322078147183, 6672.286292587077, -23436.29579976747, -10804.341531317417, -187500.02235174447, -17467.821236589105, -22651.28018275263, -37128.72858389957, 0.04, 0.848, -0.502, 192.0, 0.0, 0.0, 0.0, 0.0, 0.0, 0.0, 0.0, 0.0, 0.0, 1.741026104254463E9, 0.0, 2025-03-03 12:21:44.254
15.0, -19752.214223410396, 6675.192019366267, -23432.719520654624, -10806.107319129387, -187500.02235174447, -17467.50831216673, -22644.82052860505, -37138.585703204364, 0.04, 0.848, -0.502, 192.0, 0.0, 0.0, 0.0, 0.0, 0.0, 0.0, 0.0, 0.0, 0.0, 1.741026104254479E9, 0.0, 2025-03-03 12:21:44.254
16.0, -19716.026749137254, 6758.966357584758, -23429.858497364345, -10809.169508119763, -187500.02235174447, -17473.36446921402, -22657.382208988933, -37154.3213313009, 0.04, 0.848, -0.502, 192.0, 0.0, 0.0, 0.0, 0.0, 0.0, 0.0, 0.0, 0.0, 0.0, 1.741026104314443E9, 0.0, 2025-03-03 12:21:44.314
17.0, -19727.537897531736, 6757.960529084269, -23424.672892650713, -10805.816746451468, -187500.02235174447, -17464.35671619853, -22644.619362904952, -37127.454534465614, 0.04, 0.848, -0.502, 192.0, 0.0, 0.0, 0.0, 0.0, 0.0, 0.0, 0.0, 0.0, 0.0, 1.741026104314473E9, 0.0, 2025-03-03 12:21:44.314
18.0, -19760.372610136583, 6685.295007860066, -23428.852668863856, -10805.794394707013, -187500.02235174447, -17457.293564950654, -22647.43568270632, -37125.35347048682, 0.04, 0.844, -0.51, 192.0, 1.0, 64.0, 26.0, 96.0, 240.0, 16.0, 0.0, 0.0, 0.0, 1.74102610431449E9, 0.0, 2025-03-03 12:21:44.314
19.0, -19752.23657515485, 6673.381528065387, -23437.21222129014, -10810.354150575895, -187500.02235174447, -17463.149721997943, -22655.61642117696, -37145.24652305204, 0.04, 0.844, -0.51, 192.0, 0.0, 0.0, 0.0, 0.0, 0.0, 0.0, 0.0, 0.0, 0.0, 1.741026104314507E9, 0.0, 2025-03-03 12:21:44.314
20.0, -19728.09669114312, 6746.829360345526, -23439.64856143577, -10813.99748492211, -187500.02235174447, -17469.36350695652, -22662.411351491377, -37156.15417434623, 0.04, 0.844, -0.51, 192.0, 0.0, 0.0, 0.0, 0.0, 0.0, 0.0, 0.0, 0.0, 0.0, 1.741026104314522E9, 0.0, 2025-03-03 12:21:44.314
21.0, -19757.466883357392, 6766.185971043822, -23447.292858039484, -10812.634028510336, -187500.02235174447, -17472.15747501343, -22667.82047364956, -37158.38934879176, 0.04, 0.844, -0.51, 192.0, 0.0, 0.0, 0.0, 0.0, 0.0, 0.0, 0.0, 0.0, 0.0, 1.741026104314564E9, 0.0, 2025-03-03 12:21:44.314
22.0, -19772.48725563136, 6683.305702603544, -23442.040198092487, -10808.454252297193, -187500.02235174447, -17473.58798665857, -22664.53476721463, -37161.16096510422, 0.04, 0.844, -0.51, 192.0, 0.0, 0.0, 0.0, 0.0, 0.0, 0.0, 0.0, 0.0, 0.0, 1.74102610431458E9, 0.0, 2025-03-03 12:21:44.314
23.0, -19753.555328077713, 6664.016147138614, -23439.045064335474, -10815.070368655965, -187500.02235174447, -17479.041812305666, -22654.744703143206, -37155.66243596822, 0.04, 0.844, -0.51, 192.0, 0.0, 0.0, 0.0, 0.0, 0.0, 0.0, 0.0, 0.0, 0.0, 1.741026104314595E9, 0.0, 2025-03-03 12:21:44.314
24.0, -19719.357159061095, 6727.897432791881, -23432.54070669898, -10812.14229013232, -187500.02235174447, -17476.98545181578, -22653.33654324252, -37144.2183428071, 0.04, 0.844, -0.51, 192.0, 0.0, 0.0, 0.0, 0.0, 0.0, 0.0, 0.0, 0.0, 0.0, 1.741026104314611E9, 0.0, 2025-03-03 12:21:44.314
25.0, -19722.486403284838, 6778.412375260875, -23437.10046256786, -10816.769101234568, -187500.02235174447, -17479.22062626131, -22659.170348545354, -37148.35341553133, 0.04, 0.844, -0.51, 192.0, 0.0, 0.0, 0.0, 0.0, 0.0, 0.0, 0.0, 0.0, 0.0, 1.741026104314626E9, 0.0, 2025-03-03 12:21:44.314
26.0, -19780.019793512798, 6692.626380041406, -23446.845823150376, -10827.09560717292, -187500.02235174447, -17479.55590242814, -22666.38996200442, -37146.833496908366, 0.04, 0.844, -0.51, 192.0, 0.0, 0.0, 0.0, 0.0, 0.0, 0.0, 0.0, 0.0, 0.0, 1.741026104314649E9, 0.0, 2025-03-03 12:21:44.314
27.0, -19775.571796366192, 6651.454466754731, -23448.298686539973, -10826.492110072626, -187500.02235174447, -17479.891178594968, -22662.970145102758, -37142.81018290641, 0.04, 0.844, -0.51, 192.0, 0.0, 0.0, 0.0, 0.0, 0.0, 0.0, 0.0, 0.0, 0.0, 1.741026104314665E9, 0.0, 2025-03-03 12:21:44.314
28.0, -19746.782749507758, 6706.417406370331, -23448.65631445126, -10835.946897977221, -187500.02235174447, -17480.561730928628, -22663.90891836988, -37148.867505653805, 0.044, 0.842, -0.514, 192.0, 1.0, 96.0, 26.0, 80.0, 239.0, 240.0, 0.0, 0.0, 0.0, 1.741026104314686E9, 0.0, 2025-03-03 12:21:44.314
29.0, -19730.689493499936, 6782.05570960709, -23442.35312251486, -10826.983848450644, -187500.02235174447, -17475.55494017064, -22660.734970657228, -37142.87723813978, 0.044, 0.842, -0.514, 192.0, 0.0, 0.0, 0.0, 0.0, 0.0, 0.0, 0.0, 0.0, 0.0, 1.741026104314703E9, 0.0, 2025-03-03 12:21:44.314
30.0, -19762.607784582113, 6728.053895003069, -23440.296762024973, -10820.010104180588, -187500.02235174447, -17474.01266980322, -22658.276278767145, -37137.937502615154, 0.044, 0.842, -0.514, 192.0, 0.0, 0.0, 0.0, 0.0, 0.0, 0.0, 0.0, 0.0, 0.0, 1.741026104314719E9, 0.0, 2025-03-03 12:21:44.314
31.0, -19774.208339954417, 6679.1706298793115, -23436.49696546757, -10814.645685511314, -187500.02235174447, -17474.01266980322, -22654.364723487466, -37128.39330773274, 0.044, 0.842, -0.514, 192.0, 0.0, 0.0, 0.0, 0.0, 0.0, 0.0, 0.0, 0.0, 0.0, 1.741026104374742E9, 0.0, 2025-03-03 12:21:44.374
32.0, -19744.547575062224, 6712.9217640068255, -23433.81475613293, -10812.85754595489, -187500.02235174447, -17478.281852994187, -22651.079017052536, -37123.67708965267, 0.044, 0.842, -0.514, 192.0, 0.0, 0.0, 0.0, 0.0, 0.0, 0.0, 0.0, 0.0, 0.0, 1.741026104374773E9, 0.0, 2025-03-03 12:21:44.374
33.0, -19736.120967402574, 6791.376387044953, -23438.508622468547, -10821.552374548004, -187500.02235174447, -17483.400402474454, -22657.091636311012, -37130.06968856689, 0.044, 0.842, -0.514, 192.0, 0.0, 0.0, 0.0, 0.0, 0.0, 0.0, 0.0, 0.0, 0.0, 1.741026104374789E9, 0.0, 2025-03-03 12:21:44.374
34.0, -19768.933328262967, 6743.610709143962, -23434.284142766493, -10821.462967570182, -187500.02235174447, -17478.326556483098, -22653.738874642717, -37142.65372069523, 0.044, 0.842, -0.514, 192.0, 0.0, 0.0, 0.0, 0.0, 0.0, 0.0, 0.0, 0.0, 0.0, 1.741026104374805E9, 0.0, 2025-03-03 12:21:44.374
35.0, -19765.938194505954, 6686.054967171546, -23432.943038099176, -10816.813804723479, -187500.02235174447, -17473.2750622362, -22647.748607128695, -37161.54094475996, 0.044, 0.842, -0.514, 192.0, 0.0, 0.0, 0.0, 0.0, 0.0, 0.0, 0.0, 0.0, 0.0, 1.74102610437482E9, 0.0, 2025-03-03 12:21:44.374
36.0, -19745.10636867361, 6700.85182200096, -23428.182116530195, -10812.790490721523, -187500.02235174447, -17464.379067942988, -22647.81566236206, -37124.4146972197, 0.044, 0.842, -0.514, 192.0, 0.0, 0.0, 0.0, 0.0, 0.0, 0.0, 0.0, 0.0, 0.0, 1.741026104374864E9, 0.0, 2025-03-03 12:21:44.374
37.0, -19704.60500772059, 6789.923523655359, -23416.8274303469, -10806.196726107208, -187500.02235174447, -17460.847492319048, -22647.078054795034, -37110.80248484641, 0.044, 0.842, -0.514, 192.0, 0.0, 0.0, 0.0, 0.0, 0.0, 0.0, 0.0, 0.0, 0.0, 1.74102610437488E9, 0.0, 2025-03-03 12:21:44.374
38.0, -19741.217165138383, 6769.426973989842, -23422.12479378281, -10814.444519811215, -187500.02235174447, -17473.45387619184, -22653.29183975361, -37135.47881072507, 0.038, 0.84, -0.518, 192.0, 1.0, 48.0, 26.0, 64.0, 239.0, 208.0, 0.0, 0.0, 0.0, 1.741026104374895E9, 0.0, 2025-03-03 12:21:44.374
39.0, -19771.324964919684, 6695.889734731882, -23422.638883905278, -10818.356075090895, -187500.02235174447, -17473.565634914117, -22661.137302057425, -37152.04145336646, 0.038, 0.84, -0.518, 192.0, 0.0, 0.0, 0.0, 0.0, 0.0, 0.0, 0.0, 0.0, 0.0, 1.741026104374912E9, 0.0, 2025-03-03 12:21:44.374
40.0, -19746.648639041025, 6713.525261107119, -23411.86534307782, -10812.119938387865, -187500.02235174447, -17460.534567896673, -22644.172328015844, -37156.37769179078, 0.038, 0.84, -0.518, 192.0, 0.0, 0.0, 0.0, 0.0, 0.0, 0.0, 0.0, 0.0, 0.0, 1.741026104374927E9, 0.0, 2025-03-03 12:21:44.374
41.0, -19693.876170382046, 6793.768023701671, -23401.40472667274, -10812.18699362123, -187500.02235174447, -17459.372277184997, -22639.277295980133, -37157.316465057906, 0.038, 0.84, -0.518, 192.0, 0.0, 0.0, 0.0, 0.0, 0.0, 0.0, 0.0, 0.0, 0.0, 1.74102610437495E9, 0.0, 2025-03-03 12:21:44.374
42.0, -19717.300798571207, 6795.019721391168, -23405.04806101895, -10828.794339751523, -187500.02235174447, -17468.98352730078, -22651.39194147491, -37170.30282858644, 0.038, 0.84, -0.518, 192.0, 0.0, 0.0, 0.0, 0.0, 0.0, 0.0, 0.0, 0.0, 0.0, 1.741026104374966E9, 0.0, 2025-03-03 12:21:44.374
43.0, -19764.462979371903, 6708.384359882398, -23405.271578463507, -10828.928450218255, -187500.02235174447, -17470.50344592374, -22656.085807810523, -37174.21438386612, 0.038, 0.84, -0.518, 192.0, 0.0, 0.0, 0.0, 0.0, 0.0, 0.0, 0.0, 0.0, 0.0, 1.741026104374981E9, 0.0, 2025-03-03 12:21:44.374
44.0, -19750.80606350971, 6695.934438220792, -23389.06656373341, -10809.214211608674, -187500.02235174447, -17456.69006785036, -22635.969237800746, -37163.73141571658, 0.038, 0.84, -0.518, 192.0, 0.0, 0.0, 0.0, 0.0, 0.0, 0.0, 0.0, 0.0, 0.0, 1.741026104375002E9, 0.0, 2025-03-03 12:21:44.375
45.0, -19714.08214736964, 6757.781715128626, -23383.120999708295, -10815.249182611607, -187500.02235174447, -17466.100152266044, -22642.0936157815, -37166.65949424023, 0.038, 0.84, -0.518, 192.0, 0.0, 0.0, 0.0, 0.0, 0.0, 0.0, 0.0, 0.0, 0.0, 1.741026104375018E9, 0.0, 2025-03-03 12:21:44.375
46.0, -19724.0063219078, 6778.635892705428, -23396.509694637025, -10829.643706040824, -187500.02235174447, -17486.9766815873, -22659.371514245453, -37162.88204942728, 0.038, 0.84, -0.518, 192.0, 0.0, 0.0, 0.0, 0.0, 0.0, 0.0, 0.0, 0.0, 0.0, 1.741026104435009E9, 0.0, 2025-03-03 12:21:44.435
47.0, -19765.602918339126, 6695.75562426515, -23406.67973836419, -10835.924546232765, -187500.02235174447, -17498.376071259507, -22683.01965987917, -37160.24454358155, 0.038, 0.84, -0.518, 192.0, 0.0, 0.0, 0.0, 0.0, 0.0, 0.0, 0.0, 0.0, 0.0, 1.741026104435039E9, 0.0, 2025-03-03 12:21:44.435
48.0, -19763.077171215675, 6658.65172846934, -23390.47472363409, -10823.921659460266, -187500.02235174447, -17483.422754218907, -22659.57267994555, -37121.106639040314, 0.042, 0.842, -0.514, 192.0, 1.0, 80.0, 26.0, 80.0, 239.0, 240.0, 0.0, 0.0, 0.0, 1.741026104435056E9, 0.0, 2025-03-03 12:21:44.435
49.0, -19707.51073449978, 6715.693380319283, -23367.742999523045, -10808.834231952935, -187500.02235174447, -17474.727925625793, -22642.04891229259, -37090.79767355891, 0.042, 0.842, -0.514, 192.0, 0.0, 0.0, 0.0, 0.0, 0.0, 0.0, 0.0, 0.0, 0.0, 1.741026104435073E9, 0.0, 2025-03-03 12:21:44.435
50.0, -19700.358176274083, 6770.321043768054, -23371.9674792251, -10815.830327967446, -187500.02235174447, -17481.947539084857, -22651.257831008177, -37089.83654854733, 0.042, 0.842, -0.514, 192.0, 0.0, 0.0, 0.0, 0.0, 0.0, 0.0, 0.0, 0.0, 0.0, 1.741026104435088E9, 0.0, 2025-03-03 12:21:44.435
51.0, -19751.566022821193, 6706.37270288142, -23382.472799119092, -10821.597078036915, -187500.02235174447, -17484.69680365286, -22651.615458919463, -37083.75687405549, 0.042, 0.842, -0.514, 192.0, 0.0, 0.0, 0.0, 0.0, 0.0, 0.0, 0.0, 0.0, 0.0, 1.741026104435103E9, 0.0, 2025-03-03 12:21:44.435
52.0, -19756.0140199678, 6668.665309985317, -23379.276499661984, -10818.221964624163, -187500.02235174447, -17490.3294432556, -22647.078054795034, -37109.68489762365, 0.042, 0.842, -0.514, 192.0, 0.0, 0.0, 0.0, 0.0, 0.0, 0.0, 0.0, 0.0, 0.0, 1.741026104435144E9, 0.0, 2025-03-03 12:21:44.435
53.0, -19713.165725846975, 6720.744874566183, -23370.224043157585, -10818.37842683535, -187500.02235174447, -17490.441201977876, -22651.97308683075, -37135.098831069336, 0.042, 0.842, -0.514, 192.0, 0.0, 0.0, 0.0, 0.0, 0.0, 0.0, 0.0, 0.0, 0.0, 1.74102610443516E9, 0.0, 2025-03-03 12:21:44.435
54.0, -19703.263903053274, 6792.069291123068, -23368.01122045651, -10821.217098381174, -187500.02235174447, -17471.77749535769, -22652.464825208765, -37113.32823196986, 0.042, 0.842, -0.514, 192.0, 0.0, 0.0, 0.0, 0.0, 0.0, 0.0, 0.0, 0.0, 0.0, 1.741026104435175E9, 0.0, 2025-03-03 12:21:44.435
55.0, -19747.654467541513, 6728.90326129237, -23368.391200112248, -10815.47270005616, -187500.02235174447, -17457.248861461743, -22645.312266983066, -37098.84430156282, 0.042, 0.842, -0.514, 192.0, 0.0, 0.0, 0.0, 0.0, 0.0, 0.0, 0.0, 0.0, 0.0, 1.74102610443519E9, 0.0, 2025-03-03 12:21:44.435
56.0, -19756.14813043453, 6681.808135725038, -23368.994697212544, -10809.482432542138, -187500.02235174447, -17459.08170450708, -22650.453168207787, -37113.417638947685, 0.042, 0.842, -0.514, 192.0, 0.0, 0.0, 0.0, 0.0, 0.0, 0.0, 0.0, 0.0, 0.0, 1.741026104435216E9, 0.0, 2025-03-03 12:21:44.435
57.0, -19732.499984800816, 6711.8041767840605, -23362.89267097624, -10812.455214554693, -187500.02235174447, -17459.618146374007, -22653.045970564603, -37111.51774066898, 0.042, 0.842, -0.514, 192.0, 0.0, 0.0, 0.0, 0.0, 0.0, 0.0, 0.0, 0.0, 0.0, 1.741026104435232E9, 0.0, 2025-03-03 12:21:44.435
58.0, -19704.22502806485, 6785.564933486573, -23349.74984523652, -10805.481470284638, -187500.02235174447, -17458.03117251768, -22648.66502865136, -37108.656717378704, 0.036000000000000004, 0.838, -0.514, 192.0, 1.0, 32.0, 26.0, 48.0, 239.0, 240.0, 0.0, 0.0, 0.0, 1.741026104435247E9, 0.0, 2025-03-03 12:21:44.435
59.0, -19737.126795903063, 6756.597072672495, -23350.37569408127, -10811.114109887376, -187500.02235174447, -17462.568576642105, -22646.608668161472, -37107.38266794475, 0.036000000000000004, 0.838, -0.514, 192.0, 0.0, 0.0, 0.0, 0.0, 0.0, 0.0, 0.0, 0.0, 0.0, 1.74102610443527E9, 0.0, 2025-03-03 12:21:44.435
60.0, -19752.05776119921, 6686.613760782929, -23339.222173598075, -10809.482432542138, -187500.02235174447, -17457.561785884118, -22633.80111858858, -37099.55955738539, 0.036000000000000004, 0.838, -0.514, 192.0, 0.0, 0.0, 0.0, 0.0, 0.0, 0.0, 0.0, 0.0, 0.0, 1.741026104435286E9, 0.0, 2025-03-03 12:21:44.435
61.0, -19722.262885840286, 6709.971333738725, -23336.405853796703, -10811.739958732123, -187500.02235174447, -17462.032134775178, -22633.890525566403, -37102.46528416459, 0.036000000000000004, 0.838, -0.514, 192.0, 0.0, 0.0, 0.0, 0.0, 0.0, 0.0, 0.0, 0.0, 0.0, 1.741026104495314E9, 0.0, 2025-03-03 12:21:44.495
62.0, -19723.156955618495, 6781.787488673626, -23347.9617056801, -10824.323990860461, -187500.02235174447, -17475.666698892917, -22642.965333815257, -37111.96477555809, 0.036000000000000004, 0.838, -0.514, 192.0, 0.0, 0.0, 0.0, 0.0, 0.0, 0.0, 0.0, 0.0, 0.0, 1.741026104495345E9, 0.0, 2025-03-03 12:21:44.495
63.0, -19746.805101252212, 6762.006194830679, -23349.39221732524, -10829.420188596272, -187500.02235174447, -17475.13025702599, -22638.919668068847, -37109.55078715691, 0.036000000000000004, 0.838, -0.514, 192.0, 0.0, 0.0, 0.0, 0.0, 0.0, 0.0, 0.0, 0.0, 0.0, 1.741026104495362E9, 0.0, 2025-03-03 12:21:44.495
64.0, -19747.609764052602, 6696.56028706554, -23337.52344101947, -10822.46879607067, -187500.02235174447, -17459.238166718267, -22625.128641739924, -37098.1066939958, 0.036000000000000004, 0.838, -0.514, 192.0, 0.0, 0.0, 0.0, 0.0, 0.0, 0.0, 0.0, 0.0, 0.0, 1.741026104495378E9, 0.0, 2025-03-03 12:21:44.495
65.0, -19731.918839444977, 6698.9519237222585, -23338.931600920154, -10825.709799016691, -187500.02235174447, -17463.283832464676, -22639.970200058247, -37108.4108481897, 0.036000000000000004, 0.838, -0.514, 192.0, 0.0, 0.0, 0.0, 0.0, 0.0, 0.0, 0.0, 0.0, 0.0, 1.741026104495393E9, 0.0, 2025-03-03 12:21:44.495
66.0, -19711.37758629055, 6760.91095935237, -23352.163833637696, -10843.77000853658, -187500.02235174447, -17481.299338495654, -22670.25681379519, -37137.37870900377, 0.036000000000000004, 0.838, -0.514, 192.0, 0.0, 0.0, 0.0, 0.0, 0.0, 0.0, 0.0, 0.0, 0.0, 1.741026104495409E9, 0.0, 2025-03-03 12:21:44.495
67.0, -19755.030543211764, 6758.42991571783, -23359.24933663003, -10853.135389463352, -187500.02235174447, -17493.346928757062, -22678.906938899392, -37137.24459853704, 0.036000000000000004, 0.838, -0.514, 192.0, 0.0, 0.0, 0.0, 0.0, 0.0, 0.0, 0.0, 0.0, 0.0, 1.74102610449545E9, 0.0, 2025-03-03 12:21:44.495
68.0, -19770.095618974643, 6679.729423490695, -23352.119130148785, -10850.140255706341, -187500.02235174447, -17491.33527175609, -22679.44338076632, -37138.585703204364, 0.028, 0.84, -0.51, 192.0, 0.0, 224.0, 26.0, 64.0, 240.0, 16.0, 0.0, 0.0, 0.0, 1.741026104495466E9, 0.0, 2025-03-03 12:21:44.495
69.0, -19740.09957791562, 6683.819792726015, -23340.29505733193, -10832.102397930908, -187500.02235174447, -17483.579216430095, -22656.376380488444, -37139.770345660494, 0.028, 0.84, -0.51, 192.0, 0.0, 0.0, 0.0, 0.0, 0.0, 0.0, 0.0, 0.0, 0.0, 1.741026104495483E9, 0.0, 2025-03-03 12:21:44.495
70.0, -19710.215295578873, 6751.590281914507, -23335.19885959612, -10832.012990953088, -187500.02235174447, -17479.891178594968, -22651.682514152828, -37124.30293849742, 0.028, 0.84, -0.51, 192.0, 0.0, 0.0, 0.0, 0.0, 0.0, 0.0, 0.0, 0.0, 0.0, 1.741026104495499E9, 0.0, 2025-03-03 12:21:44.495
71.0, -19719.200696849908, 6780.781660173137, -23338.261048586493, -10841.132502690853, -187500.02235174447, -17481.545207684663, -22658.2986305116, -37133.198932790634, 0.028, 0.84, -0.51, 192.0, 0.0, 0.0, 0.0, 0.0, 0.0, 0.0, 0.0, 0.0, 0.0, 1.741026104495522E9, 0.0, 2025-03-03 12:21:44.495
72.0, -19765.96054625041, 6703.981066224703, -23335.981170652052, -10835.924546232765, -187500.02235174447, -17471.3751639575, -22652.800101375593, -37135.501162469525, 0.028, 0.84, -0.51, 192.0, 0.0, 0.0, 0.0, 0.0, 0.0, 0.0, 0.0, 0.0, 0.0, 1.741026104495538E9, 0.0, 2025-03-03 12:21:44.495
73.0, -19771.548482364236, 6675.683757744284, -23333.075443872865, -10836.215118910684, -187500.02235174447, -17473.006841302737, -22652.53188044213, -37138.026909592976, 0.028, 0.84, -0.51, 192.0, 0.0, 0.0, 0.0, 0.0, 0.0, 0.0, 0.0, 0.0, 0.0, 1.741026104495553E9, 0.0, 2025-03-03 12:21:44.495
74.0, -19717.434909037936, 6748.1928167573, -23323.531248990446, -10827.43088333975, -187500.02235174447, -17471.263405235222, -22649.53674668512, -37130.404964733716, 0.028, 0.84, -0.51, 192.0, 0.0, 0.0, 0.0, 0.0, 0.0, 0.0, 0.0, 0.0, 0.0, 1.741026104495575E9, 0.0, 2025-03-03 12:21:44.495
75.0, -19709.790612434223, 6805.525041285163, -23333.589533995335, -10837.176243922264, -187500.02235174447, -17479.488847194774, -22656.979877588736, -37142.430203250675, 0.028, 0.84, -0.51, 192.0, 0.0, 0.0, 0.0, 0.0, 0.0, 0.0, 0.0, 0.0, 0.0, 1.741026104495591E9, 0.0, 2025-03-03 12:21:44.495
76.0, -19769.983860252367, 6738.290993963599, -23341.747920721522, -10842.965345736187, -187500.02235174447, -17480.248806506253, -22658.656258422885, -37126.78398213196, 0.028, 0.84, -0.51, 192.0, 0.0, 0.0, 0.0, 0.0, 0.0, 0.0, 0.0, 0.0, 0.0, 1.741026104555587E9, 0.0, 2025-03-03 12:21:44.555
77.0, -19766.653450328526, 6691.866420729926, -23334.28243807345, -10839.009086967599, -187500.02235174447, -17478.50537043874, -22657.561022944574, -37128.527418199476, 0.028, 0.84, -0.51, 192.0, 0.0, 0.0, 0.0, 0.0, 0.0, 0.0, 0.0, 0.0, 0.0, 1.741026104555617E9, 0.0, 2025-03-03 12:21:44.555
78.0, -19733.103481901107, 6734.088866006001, -23331.108490360795, -10833.91288923179, -187500.02235174447, -17478.818294861114, -22658.164520044866, -37134.36122350231, 0.032, 0.834, -0.51, 192.0, 1.0, 0.0, 26.0, 16.0, 240.0, 16.0, 0.0, 0.0, 0.0, 1.741026104555633E9, 0.0, 2025-03-03 12:21:44.555
79.0, -19690.299891269195, 6809.503651798207, -23327.62161822577, -10831.230679897151, -187500.02235174447, -17480.338213484076, -22662.031371835634, -37145.89472364125, 0.032, 0.834, -0.51, 192.0, 0.0, 0.0, 0.0, 0.0, 0.0, 0.0, 0.0, 0.0, 0.0, 1.741026104555651E9, 0.0, 2025-03-03 12:21:44.555
80.0, -19746.9615634634, 6743.029563788124, -23334.483603773548, -10843.725305047668, -187500.02235174447, -17486.41788797592, -22667.284031782634, -37158.702273214134, 0.032, 0.834, -0.51, 192.0, 0.0, 0.0, 0.0, 0.0, 0.0, 0.0, 0.0, 0.0, 0.0, 1.741026104555666E9, 0.0, 2025-03-03 12:21:44.555
81.0, -19764.39592413854, 6691.240571885178, -23339.825670698367, -10846.407514382305, -187500.02235174447, -17484.07095480811, -22670.01094460618, -37168.581744263385, 0.032, 0.834, -0.51, 192.0, 0.0, 0.0, 0.0, 0.0, 0.0, 0.0, 0.0, 0.0, 0.0, 1.741026104555682E9, 0.0, 2025-03-03 12:21:44.555
82.0, -19732.120005145076, 6724.209394956755, -23338.752786964513, -10846.072238215476, -187500.02235174447, -17490.84353337807, -22675.86710165347, -37180.048189168956, 0.032, 0.834, -0.51, 192.0, 0.0, 0.0, 0.0, 0.0, 0.0, 0.0, 0.0, 0.0, 0.0, 1.741026104555721E9, 0.0, 2025-03-03 12:21:44.555
83.0, -19702.23572280833, 6819.204308891811, -23341.122071876773, -10844.418209125783, -187500.02235174447, -17498.08549858159, -22680.449209266808, -37189.43592184018, 0.032, 0.834, -0.51, 192.0, 0.0, 0.0, 0.0, 0.0, 0.0, 0.0, 0.0, 0.0, 0.0, 1.741026104555737E9, 0.0, 2025-03-03 12:21:44.555
84.0, -19752.23657515485, 6782.279227051643, -23338.66337998669, -10842.071275957976, -187500.02235174447, -17486.127315298, -22669.20628180579, -37174.46025305513, 0.032, 0.834, -0.51, 192.0, 0.0, 0.0, 0.0, 0.0, 0.0, 0.0, 0.0, 0.0, 0.0, 1.741026104555753E9, 0.0, 2025-03-03 12:21:44.555
85.0, -19756.885738001554, 6730.33377293751, -23337.43403404165, -10845.267575415084, -187500.02235174447, -17490.70942291134, -22667.10521782699, -37180.0258374245, 0.032, 0.834, -0.51, 192.0, 0.0, 0.0, 0.0, 0.0, 0.0, 0.0, 0.0, 0.0, 0.0, 1.741026104555768E9, 0.0, 2025-03-03 12:21:44.555
86.0, -19735.89744995802, 6750.092715036001, -23329.61092348229, -10833.264688642585, -187500.02235174447, -17486.149667042457, -22665.09356082601, -37188.40774159524, 0.032, 0.834, -0.51, 192.0, 0.0, 0.0, 0.0, 0.0, 0.0, 0.0, 0.0, 0.0, 0.0, 1.741026104555783E9, 0.0, 2025-03-03 12:21:44.555
87.0, -19698.45827799538, 6829.754332274715, -23323.307731545894, -10826.939144961732, -187500.02235174447, -17475.756105870736, -22662.232537535732, -37187.670134028216, 0.032, 0.834, -0.51, 192.0, 0.0, 0.0, 0.0, 0.0, 0.0, 0.0, 0.0, 0.0, 0.0, 1.741026104555806E9, 0.0, 2025-03-03 12:21:44.555
88.0, -19742.826490739168, 6815.225698378766, -23339.222173598075, -10838.494996845127, -187500.02235174447, -17486.619053676015, -22663.68540092533, -37184.83146248239, 0.038, 0.84, -0.512, 192.0, 1.0, 48.0, 26.0, 64.0, 240.0, 0.0, 0.0, 0.0, 0.0, 1.741026104555822E9, 0.0, 2025-03-03 12:21:44.555
89.0, -19783.77488658129, 6726.37751416892, -23339.222173598075, -10838.986735223143, -187500.02235174447, -17494.35275725755, -22663.350124758497, -37178.81884322391, 0.038, 0.84, -0.512, 192.0, 0.0, 0.0, 0.0, 0.0, 0.0, 0.0, 0.0, 0.0, 0.0, 1.741026104555844E9, 0.0, 2025-03-03 12:21:44.555
90.0, -19740.412502337993, 6729.640868859395, -23335.824708440865, -10841.62424106887, -187500.02235174447, -17500.723004427316, -22675.86710165347, -37172.33683733187, 0.038, 0.84, -0.512, 192.0, 0.0, 0.0, 0.0, 0.0, 0.0, 0.0, 0.0, 0.0, 0.0, 1.74102610455586E9, 0.0, 2025-03-03 12:21:44.555
91.0, -19703.465068753372, 6809.146023886922, -23334.863583429287, -10842.250089913618, -187500.02235174447, -17500.767707916228, -22674.05661035259, -37171.30865708693, 0.038, 0.84, -0.512, 192.0, 0.0, 0.0, 0.0, 0.0, 0.0, 0.0, 0.0, 0.0, 0.0, 1.741026104615065E9, 0.0, 2025-03-03 12:21:44.615
92.0, -19737.305609858708, 6820.791282748138, -23340.04918814292, -10851.81663654049, -187500.02235174447, -17498.621940448516, -22670.145055072913, -37167.19593610716, 0.038, 0.84, -0.512, 192.0, 0.0, 0.0, 0.0, 0.0, 0.0, 0.0, 0.0, 0.0, 0.0, 1.741026104615095E9, 0.0, 2025-03-03 12:21:44.615
93.0, -19777.181121966973, 6733.910052050359, -23336.942295663634, -10840.48430210165, -187500.02235174447, -17489.345966499564, -22660.086770068025, -37158.098776113846, 0.038, 0.84, -0.512, 192.0, 0.0, 0.0, 0.0, 0.0, 0.0, 0.0, 0.0, 0.0, 0.0, 1.741026104615112E9, 0.0, 2025-03-03 12:21:44.615
94.0, -19762.183101437462, 6726.176348468823, -23334.595362495824, -10837.332706133451, -187500.02235174447, -17492.966949101323, -22659.885604367926, -37165.05016863944, 0.038, 0.84, -0.512, 192.0, 0.0, 0.0, 0.0, 0.0, 0.0, 0.0, 0.0, 0.0, 0.0, 1.741026104615127E9, 0.0, 2025-03-03 12:21:44.615
95.0, -19703.353310031096, 6806.866145952481, -23325.31938854687, -10831.968287464177, -187500.02235174447, -17489.03304207719, -22653.671819409352, -37155.88595341277, 0.038, 0.84, -0.512, 192.0, 0.0, 0.0, 0.0, 0.0, 0.0, 0.0, 0.0, 0.0, 0.0, 1.741026104615143E9, 0.0, 2025-03-03 12:21:44.615
96.0, -19716.205563092895, 6845.02057373769, -23331.220249083075, -10826.268592628074, -187500.02235174447, -17493.61514969053, -22663.126607313945, -37162.010331393525, 0.038, 0.84, -0.512, 192.0, 0.0, 0.0, 0.0, 0.0, 0.0, 0.0, 0.0, 0.0, 0.0, 1.741026104615158E9, 0.0, 2025-03-03 12:21:44.615
97.0, -19763.01011598231, 6764.621348931951, -23336.651722985713, -10827.8555664844, -187500.02235174447, -17495.1797718024, -22663.26071778068, -37164.71489247261, 0.038, 0.84, -0.512, 192.0, 0.0, 0.0, 0.0, 0.0, 0.0, 0.0, 0.0, 0.0, 0.0, 1.741026104615201E9, 0.0, 2025-03-03 12:21:44.615
98.0, -19769.022735240786, 6738.849787574982, -23344.76540622299, -10834.516386332081, -187500.02235174447, -17504.142821328976, -22672.67080219636, -37169.74403497506, 0.036000000000000004, 0.848, -0.516, 192.0, 1.0, 32.0, 26.0, 128.0, 239.0, 224.0, 0.0, 0.0, 0.0, 1.741026104615217E9, 0.0, 2025-03-03 12:21:44.615
99.0, -19752.996534466332, 6798.752462715204, -23341.971438166078, -10838.249127656118, -187500.02235174447, -17507.674396952916, -22668.289860283123, -37174.41554956622, 0.036000000000000004, 0.848, -0.516, 192.0, 0.0, 0.0, 0.0, 0.0, 0.0, 0.0, 0.0, 0.0, 0.0, 1.741026104615234E9, 0.0, 2025-03-03 12:21:44.615
100.0, -19728.81194696569, 6856.598777365539, -23338.752786964513, -10842.831235269456, -187500.02235174447, -17508.94844638687, -22670.592089962018, -37173.20855536563, 0.036000000000000004, 0.848, -0.516, 192.0, 0.0, 0.0, 0.0, 0.0, 0.0, 0.0, 0.0, 0.0, 0.0, 1.741026104615249E9, 0.0, 2025-03-03 12:21:44.615
101.0, -19757.62334556858, 6793.186878345833, -23335.601190996313, -10834.33757237644, -187500.02235174447, -17505.975664374313, -22664.15478755889, -37149.87333415429, 0.036000000000000004, 0.848, -0.516, 192.0, 0.0, 0.0, 0.0, 0.0, 0.0, 0.0, 0.0, 0.0, 0.0, 1.741026104615264E9, 0.0, 2025-03-03 12:21:44.615
102.0, -19751.141339676542, 6758.787543629115, -23332.695464217122, -10830.694238030224, -187500.02235174447, -17500.208914304843, -22658.879775867437, -37134.383575246764, 0.036000000000000004, 0.848, -0.516, 192.0, 0.0, 0.0, 0.0, 0.0, 0.0, 0.0, 0.0, 0.0, 0.0, 1.741026104615287E9, 0.0, 2025-03-03 12:21:44.615
103.0, -19723.492231785327, 6808.8330994645485, -23329.90149616021, -10832.616488053382, -187500.02235174447, -17495.85032413606, -22659.32681075654, -37145.93942713016, 0.036000000000000004, 0.848, -0.516, 192.0, 0.0, 0.0, 0.0, 0.0, 0.0, 0.0, 0.0, 0.0, 0.0, 1.741026104615303E9, 0.0, 2025-03-03 12:21:44.615
104.0, -19711.087013612632, 6869.719251360804, -23340.29505733193, -10847.390991138338, -187500.02235174447, -17504.768670173726, -22666.14409281541, -37168.26881984101, 0.036000000000000004, 0.848, -0.516, 192.0, 0.0, 0.0, 0.0, 0.0, 0.0, 0.0, 0.0, 0.0, 0.0, 1.741026104615323E9, 0.0, 2025-03-03 12:21:44.615
105.0, -19755.902261245523, 6815.918602456881, -23347.782891724455, -10847.793322538535, -187500.02235174447, -17506.93678938589, -22665.384133503932, -37161.36213080432, 0.036000000000000004, 0.848, -0.516, 192.0, 0.0, 0.0, 0.0, 0.0, 0.0, 0.0, 0.0, 0.0, 0.0, 1.741026104615345E9, 0.0, 2025-03-03 12:21:44.615
106.0, -19764.61944158309, 6773.67380543635, -23348.14051963574, -10847.614508582892, -187500.02235174447, -17505.26040855174, -22671.01677310667, -37173.83440421038, 0.036000000000000004, 0.848, -0.516, 192.0, 0.0, 0.0, 0.0, 0.0, 0.0, 0.0, 0.0, 0.0, 0.0, 1.741026104674805E9, 0.0, 2025-03-03 12:21:44.674
107.0, -19741.641848283034, 6795.623218491462, -23344.027798655963, -10841.087799201941, -187500.02235174447, -17496.587931703085, -22672.91667138537, -37179.26587811302, 0.036000000000000004, 0.848, -0.516, 192.0, 0.0, 0.0, 0.0, 0.0, 0.0, 0.0, 0.0, 0.0, 0.0, 1.741026104674836E9, 0.0, 2025-03-03 12:21:44.674
108.0, -19711.019958379264, 6883.532629434184, -23347.00058066852, -10846.563976593492, -187500.02235174447, -17502.511143983742, -22676.984688876237, -37171.55452627594, 0.038, 0.84, -0.522, 192.0, 1.0, 48.0, 26.0, 64.0, 239.0, 176.0, 0.0, 0.0, 0.0, 1.741026104674852E9, 0.0, 2025-03-03 12:21:44.674
109.0, -19770.58735735266, 6836.705724800316, -23350.107473147807, -10852.9118720188, -187500.02235174447, -17508.635521964494, -22670.100351584002, -37171.64393325376, 0.038, 0.84, -0.522, 192.0, 0.0, 0.0, 0.0, 0.0, 0.0, 0.0, 0.0, 0.0, 0.0, 1.74102610467487E9, 0.0, 2025-03-03 12:21:44.674
110.0, -19776.95760452242, 6771.550389713096, -23345.793586467935, -10850.855511528911, -187500.02235174447, -17507.94261788638, -22674.704810941796, -37173.946162932654, 0.038, 0.84, -0.522, 192.0, 0.0, 0.0, 0.0, 0.0, 0.0, 0.0, 0.0, 0.0, 0.0, 1.741026104674885E9, 0.0, 2025-03-03 12:21:44.674
111.0, -19730.53303128875, 6781.429860762341, -23345.301848089915, -10846.541624849036, -187500.02235174447, -17508.210838819843, -22679.130456343944, -37173.320314087905, 0.038, 0.84, -0.522, 192.0, 0.0, 0.0, 0.0, 0.0, 0.0, 0.0, 0.0, 0.0, 0.0, 1.741026104674901E9, 0.0, 2025-03-03 12:21:44.674
112.0, -19704.314435042674, 6848.082762728067, -23349.883955703255, -10852.464837129693, -187500.02235174447, -17512.345911544075, -22676.984688876237, -37181.568107791914, 0.038, 0.84, -0.522, 192.0, 0.0, 0.0, 0.0, 0.0, 0.0, 0.0, 0.0, 0.0, 0.0, 1.741026104674942E9, 0.0, 2025-03-03 12:21:44.674
113.0, -19733.103481901107, 6851.457876140818, -23364.859624488312, -10859.282119188561, -187500.02235174447, -17520.213725592344, -22687.24413958122, -37188.51950031752, 0.038, 0.84, -0.522, 192.0, 0.0, 0.0, 0.0, 0.0, 0.0, 0.0, 0.0, 0.0, 0.0, 1.741026104674958E9, 0.0, 2025-03-03 12:21:44.674
114.0, -19759.90322350302, 6783.82149741906, -23358.534080807458, -10852.643651085336, -187500.02235174447, -17513.351740044563, -22678.839883666027, -37182.52923280349, 0.038, 0.84, -0.522, 192.0, 0.0, 0.0, 0.0, 0.0, 0.0, 0.0, 0.0, 0.0, 0.0, 1.741026104674973E9, 0.0, 2025-03-03 12:21:44.674
115.0, -19740.166633148987, 6775.037261848124, -23351.716798748592, -10849.760276050602, -187500.02235174447, -17513.642312722484, -22673.564871974573, -37190.821729996416, 0.038, 0.84, -0.522, 192.0, 0.0, 0.0, 0.0, 0.0, 0.0, 0.0, 0.0, 0.0, 0.0, 1.741026104674989E9, 0.0, 2025-03-03 12:21:44.674
116.0, -19697.944187872912, 6866.411193181419, -23357.058865673407, -10847.905081260811, -187500.02235174447, -17521.018388392735, -22682.97495639026, -37197.102570188355, 0.038, 0.84, -0.522, 192.0, 0.0, 0.0, 0.0, 0.0, 0.0, 0.0, 0.0, 0.0, 0.0, 1.741026104675004E9, 0.0, 2025-03-03 12:21:44.675
117.0, -19717.971350904867, 6874.1225450185, -23348.05111265792, -10836.393932866327, -187500.02235174447, -17509.484888253795, -22668.75924691668, -37191.11230267433, 0.038, 0.84, -0.522, 192.0, 0.0, 0.0, 0.0, 0.0, 0.0, 0.0, 0.0, 0.0, 0.0, 1.741026104675027E9, 0.0, 2025-03-03 12:21:44.675
118.0, -19752.415389110494, 6796.4502330363075, -23355.158967394706, -10843.546491092025, -187500.02235174447, -17520.996036648277, -22676.38119177594, -37215.29689017498, 0.046, 0.842, -0.522, 192.0, 1.0, 112.0, 26.0, 80.0, 239.0, 176.0, 0.0, 0.0, 0.0, 1.741026104675043E9, 0.0, 2025-03-03 12:21:44.675
119.0, -19747.475653585872, 6779.887590394926, -23361.30569711992, -10845.602851581914, -187500.02235174447, -17522.270086082233, -22697.995328664223, -37203.092837702374, 0.046, 0.842, -0.522, 192.0, 0.0, 0.0, 0.0, 0.0, 0.0, 0.0, 0.0, 0.0, 0.0, 1.74102610467506E9, 0.0, 2025-03-03 12:21:44.675
120.0, -19712.785746191235, 6853.782457564171, -23357.707066262614, -10841.62424106887, -187500.02235174447, -17515.408100534452, -22701.817476966084, -37188.60890729534, 0.046, 0.842, -0.522, 192.0, 0.0, 0.0, 0.0, 0.0, 0.0, 0.0, 0.0, 0.0, 0.0, 1.741026104675082E9, 0.0, 2025-03-03 12:21:44.675
121.0, -19722.218182351375, 6887.578295180595, -23369.62054605729, -10854.655308086314, -187500.02235174447, -17533.982400176814, -22709.752346247715, -37221.220102455634, 0.046, 0.842, -0.522, 192.0, 0.0, 0.0, 0.0, 0.0, 0.0, 0.0, 0.0, 0.0, 0.0, 1.741026104734992E9, 0.0, 2025-03-03 12:21:44.734
122.0, -19772.24138644235, 6793.1645266013775, -23373.95678448162, -10854.38708715285, -187500.02235174447, -17528.819147207636, -22709.797049736626, -37195.96263122113, 0.046, 0.842, -0.522, 192.0, 0.0, 0.0, 0.0, 0.0, 0.0, 0.0, 0.0, 0.0, 0.0, 1.741026104735021E9, 0.0, 2025-03-03 12:21:44.735
123.0, -19768.754514307322, 6755.032450560624, -23370.268746646496, -10846.161645193297, -187500.02235174447, -17514.961065645348, -22696.050726896614, -37186.64195378327, 0.046, 0.842, -0.522, 192.0, 0.0, 0.0, 0.0, 0.0, 0.0, 0.0, 0.0, 0.0, 0.0, 1.741026104735038E9, 0.0, 2025-03-03 12:21:44.735
124.0, -19726.688531242435, 6818.489053069241, -23375.163778682207, -10845.28992715954, -187500.02235174447, -17507.584989975094, -22698.844694953525, -37191.04524744097, 0.046, 0.842, -0.522, 192.0, 0.0, 0.0, 0.0, 0.0, 0.0, 0.0, 0.0, 0.0, 0.0, 1.741026104735054E9, 0.0, 2025-03-03 12:21:44.735
125.0, -19720.072414883663, 6882.347986978053, -23382.025764229988, -10851.459008629205, -187500.02235174447, -17508.881391153504, -22703.73972698924, -37192.85573874185, 0.046, 0.842, -0.522, 192.0, 0.0, 0.0, 0.0, 0.0, 0.0, 0.0, 0.0, 0.0, 0.0, 1.74102610473507E9, 0.0, 2025-03-03 12:21:44.735
126.0, -19770.609709097112, 6801.255858094199, -23388.977156755587, -10855.929357520266, -187500.02235174447, -17512.167097588434, -22700.811648465595, -37185.278497371495, 0.046, 0.842, -0.522, 192.0, 0.0, 0.0, 0.0, 0.0, 0.0, 0.0, 0.0, 0.0, 0.0, 1.741026104735085E9, 0.0, 2025-03-03 12:21:44.735
127.0, -19764.954717749923, 6744.1471510108895, -23381.466970618603, -10853.694183074735, -187500.02235174447, -17506.020367863224, -22693.81555245108, -37168.425282052194, 0.042, 0.842, -0.516, 192.0, 1.0, 80.0, 26.0, 80.0, 239.0, 224.0, 0.0, 0.0, 0.0, 1.741026104735101E9, 0.0, 2025-03-03 12:21:44.735
128.0, -19729.683664999448, 6779.86523865047, -23375.25318566003, -10849.514406861594, -187500.02235174447, -17503.159344572945, -22686.05949712509, -37155.215401079106, 0.042, 0.842, -0.516, 192.0, 0.0, 0.0, 0.0, 0.0, 0.0, 0.0, 0.0, 0.0, 0.0, 1.741026104735139E9, 0.0, 2025-03-03 12:21:44.735
129.0, -19715.803231692702, 6847.658079583416, -23375.63316531577, -10849.760276050602, -187500.02235174447, -17503.1816963174, -22683.44434302382, -37154.70131095664, 0.042, 0.842, -0.516, 192.0, 0.0, 0.0, 0.0, 0.0, 0.0, 0.0, 0.0, 0.0, 0.0, 1.741026104735155E9, 0.0, 2025-03-03 12:21:44.735
130.0, -19771.660241086513, 6773.092660080512, -23377.220139172096, -10851.034325484554, -187500.02235174447, -17497.861981137037, -22679.68924995533, -37161.11626161531, 0.042, 0.842, -0.516, 192.0, 0.0, 0.0, 0.0, 0.0, 0.0, 0.0, 0.0, 0.0, 0.0, 1.741026104735171E9, 0.0, 2025-03-03 12:21:44.735
131.0, -19780.377421424084, 6718.353237909465, -23383.120999708295, -10849.179130694763, -187500.02235174447, -17504.120469584523, -22693.100296628512, -37181.299886858455, 0.042, 0.842, -0.516, 192.0, 0.0, 0.0, 0.0, 0.0, 0.0, 0.0, 0.0, 0.0, 0.0, 1.741026104735186E9, 0.0, 2025-03-03 12:21:44.735
132.0, -19754.047066455732, 6759.905130851881, -23388.887749777765, -10853.917700519289, -187500.02235174447, -17511.630655721507, -22702.644491510928, -37202.42228536872, 0.042, 0.842, -0.516, 192.0, 0.0, 0.0, 0.0, 0.0, 0.0, 0.0, 0.0, 0.0, 0.0, 1.741026104735211E9, 0.0, 2025-03-03 12:21:44.735
133.0, -19738.53495580375, 6844.30531791512, -23388.753639311035, -10852.017802240587, -187500.02235174447, -17516.257466823754, -22707.40541307991, -37217.82263729842, 0.042, 0.842, -0.516, 192.0, 0.0, 0.0, 0.0, 0.0, 0.0, 0.0, 0.0, 0.0, 0.0, 1.741026104735227E9, 0.0, 2025-03-03 12:21:44.735
134.0, -19757.0645519572, 6810.643590765428, -23384.640918331257, -10848.620337083381, -187500.02235174447, -17510.04368186518, -22696.698927485817, -37212.25705292905, 0.042, 0.842, -0.516, 192.0, 0.0, 0.0, 0.0, 0.0, 0.0, 0.0, 0.0, 0.0, 0.0, 1.741026104735243E9, 0.0, 2025-03-03 12:21:44.735
135.0, -19769.358011407618, 6748.3716307129425, -23377.71187755011, -10842.473607358172, -187500.02235174447, -17503.092289339576, -22685.2548343247, -37220.05781174396, 0.042, 0.842, -0.516, 192.0, 0.0, 0.0, 0.0, 0.0, 0.0, 0.0, 0.0, 0.0, 0.0, 1.741026104735264E9, 0.0, 2025-03-03 12:21:44.735
136.0, -19755.522281589783, 6761.022718074646, -23373.710915292613, -10839.277307901062, -187500.02235174447, -17492.51991421222, -22682.416162778874, -37213.396991896276, 0.042, 0.842, -0.516, 192.0, 0.0, 0.0, 0.0, 0.0, 0.0, 0.0, 0.0, 0.0, 0.0, 1.741026104795375E9, 0.0, 2025-03-03 12:21:44.795
137.0, -19706.90723739949, 6841.1760736913775, -23362.33387736486, -10828.392008351328, -187500.02235174447, -17489.949463599856, -22679.957470888792, -37205.86445401484, 0.04, 0.838, -0.516, 192.0, 1.0, 64.0, 26.0, 48.0, 239.0, 224.0, 0.0, 0.0, 0.0, 1.741026104795406E9, 0.0, 2025-03-03 12:21:44.795
138.0, -19734.489290057336, 6835.945765488836, -23377.73422929457, -10837.064485199988, -187500.02235174447, -17499.35954801554, -22698.77763972016, -37215.56511110844, 0.04, 0.838, -0.516, 192.0, 0.0, 0.0, 0.0, 0.0, 0.0, 0.0, 0.0, 0.0, 0.0, 1.741026104795424E9, 0.0, 2025-03-03 12:21:44.795
139.0, -19779.930386534976, 6753.1325522819225, -23393.380450413282, -10845.558148093003, -187500.02235174447, -17509.216667320332, -22706.556046790607, -37233.69237586169, 0.04, 0.838, -0.516, 192.0, 0.0, 0.0, 0.0, 0.0, 0.0, 0.0, 0.0, 0.0, 0.0, 1.74102610479544E9, 0.0, 2025-03-03 12:21:44.795
140.0, -19764.39592413854, 6756.328851739032, -23392.73224982408, -10845.938127748745, -187500.02235174447, -17509.37312953152, -22698.19649436432, -37244.2423992446, 0.04, 0.838, -0.516, 192.0, 0.0, 0.0, 0.0, 0.0, 0.0, 0.0, 0.0, 0.0, 0.0, 1.741026104795455E9, 0.0, 2025-03-03 12:21:44.795
141.0, -19708.47185951136, 6845.668774326894, -23380.841121773854, -10838.38323812285, -187500.02235174447, -17500.54419047167, -22701.571607777074, -37234.45233517317, 0.04, 0.838, -0.516, 192.0, 0.0, 0.0, 0.0, 0.0, 0.0, 0.0, 0.0, 0.0, 0.0, 1.741026104795471E9, 0.0, 2025-03-03 12:21:44.795
142.0, -19728.789595221235, 6863.97485303579, -23380.99758398504, -10825.352171105405, -187500.02235174447, -17492.251693278755, -22711.853410226515, -37222.7847245675, 0.04, 0.838, -0.516, 192.0, 0.0, 0.0, 0.0, 0.0, 0.0, 0.0, 0.0, 0.0, 0.0, 1.741026104795487E9, 0.0, 2025-03-03 12:21:44.795
143.0, -19775.05770624372, 6777.585360716029, -23387.881921277276, -10831.633011297346, -187500.02235174447, -17498.197257303866, -22712.278093371166, -37241.001396298576, 0.04, 0.838, -0.516, 192.0, 0.0, 0.0, 0.0, 0.0, 0.0, 0.0, 0.0, 0.0, 0.0, 1.741026104795528E9, 0.0, 2025-03-03 12:21:44.795
144.0, -19766.54169160625, 6759.5251511961405, -23383.143351452753, -10833.756427020602, -187500.02235174447, -17502.242923050275, -22709.64058752544, -37232.57478863893, 0.04, 0.838, -0.516, 192.0, 0.0, 0.0, 0.0, 0.0, 0.0, 0.0, 0.0, 0.0, 0.0, 1.741026104795544E9, 0.0, 2025-03-03 12:21:44.795
145.0, -19730.08599639964, 6827.630916551461, -23380.77406654049, -10835.075179943464, -187500.02235174447, -17504.120469584523, -22697.570645519572, -37234.631149128814, 0.04, 0.838, -0.516, 192.0, 0.0, 0.0, 0.0, 0.0, 0.0, 0.0, 0.0, 0.0, 0.0, 1.74102610479556E9, 0.0, 2025-03-03 12:21:44.795
146.0, -19739.94311570443, 6860.398573922941, -23388.57482535539, -10844.887595759345, -187500.02235174447, -17514.223458078322, -22694.93313967385, -37236.95573055217, 0.04, 0.838, -0.516, 192.0, 0.0, 0.0, 0.0, 0.0, 0.0, 0.0, 0.0, 0.0, 0.0, 1.741026104795575E9, 0.0, 2025-03-03 12:21:44.795
147.0, -19787.038241271763, 6776.1995525597995, -23393.35809866883, -10853.202444696719, -187500.02235174447, -17517.777385446716, -22696.09543038552, -37221.55537862246, 0.044, 0.838, -0.518, 192.0, 1.0, 96.0, 26.0, 48.0, 239.0, 208.0, 0.0, 0.0, 0.0, 1.741026104795591E9, 0.0, 2025-03-03 12:21:44.795
148.0, -19784.40073542604, 6743.118970765945, -23387.01020324352, -10847.413342882794, -187500.02235174447, -17510.937751643392, -22694.374346062465, -37216.57093960893, 0.044, 0.838, -0.518, 192.0, 0.0, 0.0, 0.0, 0.0, 0.0, 0.0, 0.0, 0.0, 0.0, 1.741026104795616E9, 0.0, 2025-03-03 12:21:44.795
149.0, -19741.86536572759, 6803.781605217649, -23382.137522952264, -10837.064485199988, -187500.02235174447, -17504.299283540164, -22691.58037800555, -37227.21036996965, 0.044, 0.838, -0.518, 192.0, 0.0, 0.0, 0.0, 0.0, 0.0, 0.0, 0.0, 0.0, 0.0, 1.741026104795632E9, 0.0, 2025-03-03 12:21:44.795
150.0, -19738.08792091464, 6869.719251360804, -23390.765296312013, -10842.630069569359, -187500.02235174447, -17502.242923050275, -22699.671709498372, -37230.160800237754, 0.044, 0.838, -0.518, 192.0, 0.0, 0.0, 0.0, 0.0, 0.0, 0.0, 0.0, 0.0, 0.0, 1.741026104795653E9, 0.0, 2025-03-03 12:21:44.795
151.0, -19781.87498830259, 6793.790375446127, -23387.904273021733, -10836.930374733254, -187500.02235174447, -17498.26431253723, -22698.308253086598, -37199.27068940052, 0.044, 0.838, -0.518, 192.0, 0.0, 0.0, 0.0, 0.0, 0.0, 0.0, 0.0, 0.0, 0.0, 1.741026104855566E9, 0.0, 2025-03-03 12:21:44.855
152.0, -19772.643717842548, 6751.500874936685, -23389.62535734479, -10834.024647954066, -187500.02235174447, -17499.851286393558, -22702.152753132912, -37196.521424832514, 0.044, 0.838, -0.518, 192.0, 0.0, 0.0, 0.0, 0.0, 0.0, 0.0, 0.0, 0.0, 0.0, 1.741026104855596E9, 0.0, 2025-03-03 12:21:44.855
153.0, -19744.77109250678, 6800.875878438459, -23387.39018289926, -10832.415322353283, -187500.02235174447, -17498.152553814954, -22701.63866301044, -37188.81007299544, 0.044, 0.838, -0.518, 192.0, 0.0, 0.0, 0.0, 0.0, 0.0, 0.0, 0.0, 0.0, 0.0, 1.741026104855613E9, 0.0, 2025-03-03 12:21:44.855
154.0, -19711.04231012372, 6886.214838768821, -23387.01020324352, -10833.957592720699, -187500.02235174447, -17499.471306737818, -22703.247988611223, -37195.493244587575, 0.044, 0.838, -0.518, 192.0, 0.0, 0.0, 0.0, 0.0, 0.0, 0.0, 0.0, 0.0, 0.0, 1.741026104855628E9, 0.0, 2025-03-03 12:21:44.855
155.0, -19765.737028805856, 6825.708666528305, -23392.396973657247, -10839.612584067892, -187500.02235174447, -17493.682204923894, -22692.787372206138, -37197.50490158855, 0.044, 0.838, -0.518, 192.0, 0.0, 0.0, 0.0, 0.0, 0.0, 0.0, 0.0, 0.0, 0.0, 1.741026104855644E9, 0.0, 2025-03-03 12:21:44.855
156.0, -19788.558159894725, 6767.191799544311, -23394.7215550806, -10837.824444511467, -187500.02235174447, -17491.581140945094, -22684.740744202227, -37201.707029546145, 0.044, 0.838, -0.518, 192.0, 0.0, 0.0, 0.0, 0.0, 0.0, 0.0, 0.0, 0.0, 0.0, 1.74102610485566E9, 0.0, 2025-03-03 12:21:44.855
157.0, -19743.34058086164, 6799.91475342688, -23389.804171300435, -10823.318162359974, -187500.02235174447, -17491.379975244996, -22685.321889558065, -37208.09962846037, 0.042, 0.842, -0.52, 192.0, 1.0, 80.0, 26.0, 80.0, 239.0, 192.0, 0.0, 0.0, 0.0, 1.741026104855675E9, 0.0, 2025-03-03 12:21:44.855
158.0, -19710.416461278972, 6877.721175875804, -23399.080145249387, -10833.041171198032, -187500.02235174447, -17498.93486487089, -22698.77763972016, -37218.58259660991, 0.042, 0.842, -0.52, 192.0, 0.0, 0.0, 0.0, 0.0, 0.0, 0.0, 0.0, 0.0, 0.0, 1.741026104855713E9, 0.0, 2025-03-03 12:21:44.855
159.0, -19756.326944390174, 6841.69016381385, -23411.373604699806, -10849.223834183675, -187500.02235174447, -17506.422699263418, -22705.840790968035, -37232.12775374982, 0.042, 0.842, -0.52, 192.0, 0.0, 0.0, 0.0, 0.0, 0.0, 0.0, 0.0, 0.0, 0.0, 1.741026104855729E9, 0.0, 2025-03-03 12:21:44.855
160.0, -19780.265662701808, 6767.3929652444085, -23412.982930300586, -10851.369601651384, -187500.02235174447, -17507.205010319354, -22707.941854946836, -37239.4367741867, 0.042, 0.842, -0.52, 192.0, 0.0, 0.0, 0.0, 0.0, 0.0, 0.0, 0.0, 0.0, 0.0, 1.741026104855744E9, 0.0, 2025-03-03 12:21:44.855
161.0, -19761.937232248456, 6778.524133983152, -23406.50092440855, -10846.00518298211, -187500.02235174447, -17503.718138184326, -22702.845657211026, -37236.01695728504, 0.042, 0.842, -0.52, 192.0, 0.0, 0.0, 0.0, 0.0, 0.0, 0.0, 0.0, 0.0, 0.0, 1.74102610485576E9, 0.0, 2025-03-03 12:21:44.855
162.0, -19727.6049527651, 6849.893254028947, -23402.455258662136, -10842.741828291635, -187500.02235174447, -17502.958178872846, -22698.06238389759, -37236.08401251841, 0.042, 0.842, -0.52, 192.0, 0.0, 0.0, 0.0, 0.0, 0.0, 0.0, 0.0, 0.0, 0.0, 1.741026104855775E9, 0.0, 2025-03-03 12:21:44.855
163.0, -19753.264755399796, 6835.565785833095, -23408.57963664289, -10845.781665537557, -187500.02235174447, -17503.584027717596, -22699.716412987284, -37244.220047500145, 0.042, 0.842, -0.52, 192.0, 0.0, 0.0, 0.0, 0.0, 0.0, 0.0, 0.0, 0.0, 0.0, 1.741026104855797E9, 0.0, 2025-03-03 12:21:44.855
164.0, -19776.801142311233, 6766.00715708818, -23406.992662786564, -10843.635898069848, -187500.02235174447, -17500.61124570504, -22697.123610630468, -37233.89354156179, 0.042, 0.842, -0.52, 192.0, 0.0, 0.0, 0.0, 0.0, 0.0, 0.0, 0.0, 0.0, 0.0, 1.741026104855813E9, 0.0, 2025-03-03 12:21:44.855
165.0, -19757.355124635116, 6773.159715313878, -23409.138430254276, -10847.502749860616, -187500.02235174447, -17502.42173700592, -22714.334453861054, -37240.442602687195, 0.042, 0.842, -0.52, 192.0, 0.0, 0.0, 0.0, 0.0, 0.0, 0.0, 0.0, 0.0, 0.0, 1.741026104855834E9, 0.0, 2025-03-03 12:21:44.855
166.0, -19723.71574922988, 6846.473437127285, -23407.52910465349, -10846.541624849036, -187500.02235174447, -17503.22639980631, -22702.35391883301, -37243.90712307777, 0.042, 0.842, -0.52, 192.0, 0.0, 0.0, 0.0, 0.0, 0.0, 0.0, 0.0, 0.0, 0.0, 1.741026104915869E9, 0.0, 2025-03-03 12:21:44.915
167.0, -19734.04225516823, 6866.612358881517, -23411.798287844456, -10849.983793495154, -187500.02235174447, -17511.27302781022, -22704.745555489728, -37254.81477437196, 0.046, 0.838, -0.518, 192.0, 1.0, 112.0, 26.0, 48.0, 239.0, 208.0, 0.0, 0.0, 0.0, 1.741026104915903E9, 0.0, 2025-03-03 12:21:44.915
168.0, -19773.96247076541, 6779.90994213938, -23422.214200760627, -10858.76802906609, -187500.02235174447, -17520.683112225906, -22715.69791027283, -37266.50473672208, 0.046, 0.838, -0.518, 192.0, 0.0, 0.0, 0.0, 0.0, 0.0, 0.0, 0.0, 0.0, 0.0, 1.741026104915921E9, 0.0, 2025-03-03 12:21:44.915
169.0, -19768.262775929306, 6766.789468144116, -23415.173401257205, -10852.53189236306, -187500.02235174447, -17520.057263381157, -22709.50647705871, -37264.2472105321, 0.046, 0.838, -0.518, 192.0, 0.0, 0.0, 0.0, 0.0, 0.0, 0.0, 0.0, 0.0, 0.0, 1.741026104915937E9, 0.0, 2025-03-03 12:21:44.915
170.0, -19722.799327707213, 6838.627974823472, -23406.657386619736, -10855.370563908884, -187500.02235174447, -17517.196240090878, -22705.39375607893, -37261.38618724182, 0.046, 0.838, -0.518, 192.0, 0.0, 0.0, 0.0, 0.0, 0.0, 0.0, 0.0, 0.0, 0.0, 1.741026104915953E9, 0.0, 2025-03-03 12:21:44.915
171.0, -19740.591316293638, 6867.282911215176, -23408.065546520418, -10855.437619142249, -187500.02235174447, -17513.84347842258, -22708.701814258315, -37247.41634695725, 0.046, 0.838, -0.518, 192.0, 0.0, 0.0, 0.0, 0.0, 0.0, 0.0, 0.0, 0.0, 0.0, 1.741026104915968E9, 0.0, 2025-03-03 12:21:44.915
172.0, -19761.065514214697, 6800.272381338165, -23406.992662786564, -10853.314203418995, -187500.02235174447, -17516.65979822395, -22700.92340718787, -37255.395919727795, 0.046, 0.838, -0.518, 192.0, 0.0, 0.0, 0.0, 0.0, 0.0, 0.0, 0.0, 0.0, 0.0, 1.741026104915984E9, 0.0, 2025-03-03 12:21:44.915
173.0, -19764.462979371903, 6765.0460320766015, -23413.340558211872, -10857.225758698674, -187500.02235174447, -17516.436280779395, -22706.57839853506, -37258.391053484804, 0.046, 0.838, -0.518, 192.0, 0.0, 0.0, 0.0, 0.0, 0.0, 0.0, 0.0, 0.0, 0.0, 1.741026104916025E9, 0.0, 2025-03-03 12:21:44.916
174.0, -19732.499984800816, 6811.1576808879, -23415.575732657402, -10857.851607543422, -187500.02235174447, -17513.239981322287, -22714.64737828343, -37250.366777225354, 0.046, 0.838, -0.518, 192.0, 0.0, 0.0, 0.0, 0.0, 0.0, 0.0, 0.0, 0.0, 0.0, 1.74102610491604E9, 0.0, 2025-03-03 12:21:44.916
175.0, -19727.694359742924, 6868.1769809933885, -23414.63695939028, -10865.741773336145, -187500.02235174447, -17513.95523714486, -22713.753308505216, -37256.6923209062, 0.046, 0.838, -0.518, 192.0, 0.0, 0.0, 0.0, 0.0, 0.0, 0.0, 0.0, 0.0, 0.0, 1.741026104916056E9, 0.0, 2025-03-03 12:21:44.916
176.0, -19782.90316854753, 6799.713587726783, -23422.54947692746, -10860.869093044888, -187500.02235174447, -17518.47028952483, -22718.290712629645, -37266.50473672208, 0.046, 0.838, -0.518, 192.0, 0.0, 0.0, 0.0, 0.0, 0.0, 0.0, 0.0, 0.0, 0.0, 1.741026104916071E9, 0.0, 2025-03-03 12:21:44.916
177.0, -19789.25106397284, 6750.517398180652, -23428.427985719205, -10864.378316924372, -187500.02235174447, -17526.27104833973, -22723.901000487924, -37302.35693482839, 0.05, 0.84, -0.52, 192.0, 1.0, 144.0, 26.0, 64.0, 239.0, 192.0, 0.0, 0.0, 0.0, 1.741026104916087E9, 0.0, 2025-03-03 12:21:44.916
178.0, -19742.513566316793, 6801.546430772118, -23423.01886356102, -10855.05763948651, -187500.02235174447, -17510.244847565275, -22722.559895820606, -37243.6389021443, 0.05, 0.84, -0.52, 192.0, 0.0, 0.0, 0.0, 0.0, 0.0, 0.0, 0.0, 0.0, 0.0, 1.741026104916111E9, 0.0, 2025-03-03 12:21:44.916
179.0, -19718.127813116054, 6878.771707865204, -23429.858497364345, -10861.874921545377, -187500.02235174447, -17513.53055400021, -22724.035110954657, -37238.87798057532, 0.05, 0.84, -0.52, 192.0, 0.0, 0.0, 0.0, 0.0, 0.0, 0.0, 0.0, 0.0, 0.0, 1.741026104916127E9, 0.0, 2025-03-03 12:21:44.916
180.0, -19781.427953413484, 6805.212116862788, -23436.362855000836, -10871.642633872347, -187500.02235174447, -17521.75599595976, -22719.005968452213, -37251.99845457059, 0.05, 0.84, -0.52, 192.0, 0.0, 0.0, 0.0, 0.0, 0.0, 0.0, 0.0, 0.0, 0.0, 1.741026104916142E9, 0.0, 2025-03-03 12:21:44.916
181.0, -19785.898302304544, 6754.920691838347, -23430.461994464637, -10860.176188966774, -187500.02235174447, -17504.858077151548, -22712.322796860077, -37221.845951300376, 0.05, 0.84, -0.52, 192.0, 0.0, 0.0, 0.0, 0.0, 0.0, 0.0, 0.0, 0.0, 0.0, 1.74102610497532E9, 0.0, 2025-03-03 12:21:44.975
182.0, -19749.643772798037, 6791.264628322677, -23425.20933451764, -10847.905081260811, -187500.02235174447, -17499.918341626926, -22698.755287975706, -37215.766276808536, 0.05, 0.84, -0.52, 192.0, 0.0, 0.0, 0.0, 0.0, 0.0, 0.0, 0.0, 0.0, 0.0, 1.741026104975351E9, 0.0, 2025-03-03 12:21:44.975
183.0, -19708.829487422645, 6882.303283489142, -23424.292912994973, -10844.99935448162, -187500.02235174447, -17499.113678826532, -22696.92244493037, -37214.89455877478, 0.05, 0.84, -0.52, 192.0, 0.0, 0.0, 0.0, 0.0, 0.0, 0.0, 0.0, 0.0, 0.0, 1.741026104975368E9, 0.0, 2025-03-03 12:21:44.975
184.0, -19740.09957791562, 6842.070143469589, -23425.946942084665, -10847.323935904973, -187500.02235174447, -17495.93973111388, -22689.903997171405, -37210.088933716885, 0.05, 0.84, -0.52, 192.0, 0.0, 0.0, 0.0, 0.0, 0.0, 0.0, 0.0, 0.0, 0.0, 1.741026104975399E9, 0.0, 2025-03-03 12:21:44.975
185.0, -19765.28999391675, 6768.287035022621, -23439.9838376026, -10862.321956434484, -187500.02235174447, -17507.249713808265, -22702.264511855188, -37222.3823931673, 0.05, 0.84, -0.52, 192.0, 0.0, 0.0, 0.0, 0.0, 0.0, 0.0, 0.0, 0.0, 0.0, 1.741026104975412E9, 0.0, 2025-03-03 12:21:44.975
186.0, -19749.755531520314, 6770.924540868347, -23445.12473882732, -10860.734982578157, -187500.02235174447, -17510.267199309732, -22704.76790723418, -37222.56120712295, 0.05, 0.84, -0.52, 192.0, 0.0, 0.0, 0.0, 0.0, 0.0, 0.0, 0.0, 0.0, 0.0, 1.741026104975423E9, 0.0, 2025-03-03 12:21:44.975
187.0, -19709.74590894531, 6857.559902377117, -23443.001323104065, -10855.594081353436, -187500.02235174447, -17503.338158528586, -22698.06238389759, -37212.01118374005, 0.042, 0.838, -0.52, 192.0, 1.0, 80.0, 26.0, 48.0, 239.0, 192.0, 0.0, 0.0, 0.0, 1.741026104975434E9, 0.0, 2025-03-03 12:21:44.975
188.0, -19752.080112943666, 6836.929242244869, -23454.98185813211, -10863.931282035266, -187500.02235174447, -17506.26623705223, -22703.87383745597, -37215.78862855299, 0.042, 0.838, -0.52, 192.0, 0.0, 0.0, 0.0, 0.0, 0.0, 0.0, 0.0, 0.0, 0.0, 1.741026104975461E9, 0.0, 2025-03-03 12:21:44.975
189.0, -19781.58441562467, 6741.0402585316015, -23462.82732043592, -10874.995395540644, -187500.02235174447, -17516.101004612567, -22701.571607777074, -37227.23272171411, 0.042, 0.838, -0.52, 192.0, 0.0, 0.0, 0.0, 0.0, 0.0, 0.0, 0.0, 0.0, 0.0, 1.741026104975472E9, 0.0, 2025-03-03 12:21:44.975
190.0, -19768.70981081841, 6718.129720464912, -23465.353067559372, -10881.432697943772, -187500.02235174447, -17518.313827313643, -22704.320872345077, -37205.50682610355, 0.042, 0.838, -0.52, 192.0, 0.0, 0.0, 0.0, 0.0, 0.0, 0.0, 0.0, 0.0, 0.0, 1.741026104975483E9, 0.0, 2025-03-03 12:21:44.975
191.0, -19738.892583715035, 6781.206343317788, -23458.580488989413, -10877.67760487528, -187500.02235174447, -17514.871658667525, -22702.48802929974, -37198.756599278044, 0.042, 0.838, -0.52, 192.0, 0.0, 0.0, 0.0, 0.0, 0.0, 0.0, 0.0, 0.0, 0.0, 1.741026104975494E9, 0.0, 2025-03-03 12:21:44.975
192.0, -19730.37656907756, 6803.178108117356, -23466.11302687085, -10882.192657255251, -187500.02235174447, -17517.21859183533, -22718.022491696178, -37217.26384368704, 0.042, 0.838, -0.52, 192.0, 0.0, 0.0, 0.0, 0.0, 0.0, 0.0, 0.0, 0.0, 0.0, 1.741026104975505E9, 0.0, 2025-03-03 12:21:44.975
193.0, -19782.210264469417, 6711.647714572873, -23472.103294384873, -10889.188753269764, -187500.02235174447, -17519.27495232522, -22710.579360792563, -37212.21234944014, 0.042, 0.838, -0.52, 192.0, 0.0, 0.0, 0.0, 0.0, 0.0, 0.0, 0.0, 0.0, 0.0, 1.74102610497552E9, 0.0, 2025-03-03 12:21:44.975
194.0, -19777.00230801133, 6688.334845105987, -23462.760265202556, -10884.226666000684, -187500.02235174447, -17516.928019157414, -22692.2062268503, -37198.46602660013, 0.042, 0.838, -0.52, 192.0, 0.0, 0.0, 0.0, 0.0, 0.0, 0.0, 0.0, 0.0, 0.0, 1.741026104975531E9, 0.0, 2025-03-03 12:21:44.975
195.0, -19741.753607005314, 6766.72241291075, -23453.439587764693, -10872.179075739274, -187500.02235174447, -17516.74920520177, -22690.97688090526, -37189.83825324038, 0.042, 0.838, -0.52, 192.0, 0.0, 0.0, 0.0, 0.0, 0.0, 0.0, 0.0, 0.0, 0.0, 1.741026104975541E9, 0.0, 2025-03-03 12:21:44.975
196.0, -19752.6612582995, 6821.551242059618, -23458.781654689512, -10874.973043796188, -187500.02235174447, -17526.04753089518, -22696.900093185915, -37198.93541323369, 0.042, 0.838, -0.52, 192.0, 0.0, 0.0, 0.0, 0.0, 0.0, 0.0, 0.0, 0.0, 0.0, 1.741026105034947E9, 0.0, 2025-03-03 12:21:45.034
197.0, -19789.027546528287, 6745.108276022467, -23467.56589026045, -10885.791288112556, -187500.02235174447, -17531.635467009004, -22697.905921686404, -37207.78670403799, 0.044, 0.84, -0.522, 192.0, 1.0, 96.0, 26.0, 64.0, 239.0, 176.0, 0.0, 0.0, 0.0, 1.741026105034962E9, 0.0, 2025-03-03 12:21:45.034
198.0, -19779.77392432379, 6699.689531289284, -23467.252965838074, -10889.546381181048, -187500.02235174447, -17530.160251874953, -22696.698927485817, -37195.135616676285, 0.044, 0.84, -0.522, 192.0, 0.0, 0.0, 0.0, 0.0, 0.0, 0.0, 0.0, 0.0, 0.0, 1.741026105034974E9, 0.0, 2025-03-03 12:21:45.034
199.0, -19752.638906555047, 6734.33473519501, -23463.27435532503, -10885.411308456816, -187500.02235174447, -17521.420719792928, -22700.699889743315, -37195.068561442924, 0.044, 0.84, -0.522, 192.0, 0.0, 0.0, 0.0, 0.0, 0.0, 0.0, 0.0, 0.0, 0.0, 1.741026105034985E9, 0.0, 2025-03-03 12:21:45.034
200.0, -19748.302668130716, 6782.167468329367, -23473.377343818825, -10888.808773614022, -187500.02235174447, -17520.549001759173, -22713.060404427102, -37201.66232605724, 0.044, 0.84, -0.522, 192.0, 0.0, 0.0, 0.0, 0.0, 0.0, 0.0, 0.0, 0.0, 0.0, 1.741026105034995E9, 0.0, 2025-03-03 12:21:45.034
201.0, -19805.500782191848, 6711.446548872776, -23476.059553153464, -10893.167363782808, -187500.02235174447, -17519.207897091856, -22704.16441013389, -37205.417419125726, 0.044, 0.84, -0.522, 192.0, 0.0, 0.0, 0.0, 0.0, 0.0, 0.0, 0.0, 0.0, 0.0, 1.741026105035006E9, 0.0, 2025-03-03 12:21:45.035
202.0, -19807.490087448372, 6660.395164536854, -23472.729143229622, -10892.429756215783, -187500.02235174447, -17516.838612179592, -22703.091526400036, -37213.97813725211, 0.044, 0.84, -0.522, 192.0, 0.0, 0.0, 0.0, 0.0, 0.0, 0.0, 0.0, 0.0, 0.0, 1.741026105035016E9, 0.0, 2025-03-03 12:21:45.035
203.0, -19780.62329061309, 6680.2211618687115, -23468.638773994302, -10884.718404378702, -187500.02235174447, -17516.0339493792, -22701.86218045499, -37228.59617812588, 0.044, 0.84, -0.522, 192.0, 0.0, 0.0, 0.0, 0.0, 0.0, 0.0, 0.0, 0.0, 0.0, 1.741026105035027E9, 0.0, 2025-03-03 12:21:45.035
204.0, -19764.39592413854, 6753.311366237565, -23473.31028858546, -10879.845724087445, -187500.02235174447, -17511.1836208324, -22708.902979958413, -37231.65836711626, 0.044, 0.84, -0.522, 192.0, 0.0, 0.0, 0.0, 0.0, 0.0, 0.0, 0.0, 0.0, 0.0, 1.741026105035047E9, 0.0, 2025-03-03 12:21:45.035
205.0, -19803.24325600186, 6710.75364479466, -23486.676631769733, -10897.905933607333, -187500.02235174447, -17521.532478515208, -22716.837849240048, -37243.437736444204, 0.044, 0.84, -0.522, 192.0, 0.0, 0.0, 0.0, 0.0, 0.0, 0.0, 0.0, 0.0, 0.0, 1.741026105035057E9, 0.0, 2025-03-03 12:21:45.035
206.0, -19797.275340232296, 6650.2698242986, -23475.187835119705, -10884.494886934148, -187500.02235174447, -17511.161269087945, -22708.768869491683, -37224.282291446005, 0.044, 0.84, -0.522, 192.0, 0.0, 0.0, 0.0, 0.0, 0.0, 0.0, 0.0, 0.0, 0.0, 1.741026105035068E9, 0.0, 2025-03-03 12:21:45.035
207.0, -19771.324964919684, 6671.459278042231, -23464.6378117368, -10876.716479863702, -187500.02235174447, -17502.22057130582, -22694.91078792939, -37212.21234944014, 0.044, 0.854, -0.526, 192.0, 1.0, 96.0, 26.0, 176.0, 239.0, 144.0, 0.0, 0.0, 0.0, 1.741026105035078E9, 0.0, 2025-03-03 12:21:45.035
208.0, -19736.14331914703, 6755.703002894284, -23458.580488989413, -10877.275273475085, -187500.02235174447, -17503.069937595123, -22692.720316972773, -37207.78670403799, 0.044, 0.854, -0.526, 192.0, 0.0, 0.0, 0.0, 0.0, 0.0, 0.0, 0.0, 0.0, 0.0, 1.741026105035092E9, 0.0, 2025-03-03 12:21:45.035
209.0, -19786.702965104934, 6713.2346884292, -23462.760265202556, -10878.705785120224, -187500.02235174447, -17502.242923050275, -22694.039069895636, -37206.959689493146, 0.044, 0.854, -0.526, 192.0, 0.0, 0.0, 0.0, 0.0, 0.0, 0.0, 0.0, 0.0, 0.0, 1.741026105035103E9, 0.0, 2025-03-03 12:21:45.035
210.0, -19803.01973855731, 6634.713010157706, -23465.844805937388, -10879.53279966507, -187500.02235174447, -17510.490716754284, -22687.624119236963, -37217.59911985387, 0.044, 0.854, -0.526, 192.0, 0.0, 0.0, 0.0, 0.0, 0.0, 0.0, 0.0, 0.0, 0.0, 1.741026105035114E9, 0.0, 2025-03-03 12:21:45.035
211.0, -19780.377421424084, 6635.472969469187, -23470.85159669538, -10884.226666000684, -187500.02235174447, -17525.354626817065, -22688.29467157062, -37224.21523621264, 0.044, 0.854, -0.526, 192.0, 0.0, 0.0, 0.0, 0.0, 0.0, 0.0, 0.0, 0.0, 0.0, 1.741026105095222E9, 0.0, 2025-03-03 12:21:45.095
212.0, -19755.924612989977, 6708.764339538138, -23476.77480897603, -10893.502639949636, -187500.02235174447, -17536.0387606667, -22711.629892781963, -37242.61072189936, 0.044, 0.854, -0.526, 192.0, 0.0, 0.0, 0.0, 0.0, 0.0, 0.0, 0.0, 0.0, 0.0, 1.741026105095238E9, 0.0, 2025-03-03 12:21:45.095
213.0, -19782.187912724963, 6711.245383172677, -23466.001268148575, -10883.779631111578, -187500.02235174447, -17525.354626817065, -22700.29755834312, -37217.04032624249, 0.044, 0.854, -0.526, 192.0, 0.0, 0.0, 0.0, 0.0, 0.0, 0.0, 0.0, 0.0, 0.0, 1.741026105095248E9, 0.0, 2025-03-03 12:21:45.095
214.0, -19811.222828772407, 6638.9598416042145, -23462.894375669286, -10874.883636818366, -187500.02235174447, -17516.480984268306, -22688.607595992995, -37203.85279701386, 0.044, 0.854, -0.526, 192.0, 0.0, 0.0, 0.0, 0.0, 0.0, 0.0, 0.0, 0.0, 0.0, 1.741026105095259E9, 0.0, 2025-03-03 12:21:45.095
215.0, -19798.258816988327, 6633.863643868404, -23460.703904712667, -10874.436601929261, -187500.02235174447, -17514.536382500697, -22688.74170645973, -37204.8809772588, 0.044, 0.854, -0.526, 192.0, 0.0, 0.0, 0.0, 0.0, 0.0, 0.0, 0.0, 0.0, 0.0, 1.74102610509527E9, 0.0, 2025-03-03 12:21:45.095
216.0, -19757.44453161294, 6712.430025628809, -23458.222861078128, -10881.432697943772, -187500.02235174447, -17516.525687757217, -22692.362689061487, -37205.75269529256, 0.044, 0.854, -0.526, 192.0, 0.0, 0.0, 0.0, 0.0, 0.0, 0.0, 0.0, 0.0, 0.0, 1.741026105095281E9, 0.0, 2025-03-03 12:21:45.095
217.0, -19790.033375028775, 6730.736104337705, -23464.995439648086, -10892.876791104889, -187500.02235174447, -17520.012559892246, -22693.994366406725, -37203.60692782485, 0.04, 0.838, -0.518, 192.0, 1.0, 64.0, 26.0, 48.0, 239.0, 208.0, 0.0, 0.0, 0.0, 1.741026105095292E9, 0.0, 2025-03-03 12:21:45.095
218.0, -19851.61243100315, 6630.063847311002, -23467.722352471632, -10885.38895671236, -187500.02235174447, -17515.60926623455, -22684.24900582421, -37200.455331856654, 0.04, 0.838, -0.518, 192.0, 0.0, 0.0, 0.0, 0.0, 0.0, 0.0, 0.0, 0.0, 0.0, 1.741026105095303E9, 0.0, 2025-03-03 12:21:45.095
219.0, -19805.59018916967, 6621.033742551058, -23457.708770955654, -10865.831180313968, -187500.02235174447, -17508.926094642415, -22680.73978194473, -37178.61767752381, 0.04, 0.838, -0.518, 192.0, 0.0, 0.0, 0.0, 0.0, 0.0, 0.0, 0.0, 0.0, 0.0, 1.741026105095324E9, 0.0, 2025-03-03 12:21:45.095
220.0, -19764.462979371903, 6686.546705549563, -23459.36280004535, -10870.323880949483, -187500.02235174447, -17509.79781267617, -22686.327718058554, -37182.84215722587, 0.04, 0.838, -0.518, 192.0, 0.0, 0.0, 0.0, 0.0, 0.0, 0.0, 0.0, 0.0, 0.0, 1.741026105095334E9, 0.0, 2025-03-03 12:21:45.095
221.0, -19775.95177602193, 6734.088866006001, -23457.50760525556, -10869.653328615825, -187500.02235174447, -17505.528629485205, -22679.28691855513, -37176.538965289474, 0.04, 0.838, -0.518, 192.0, 0.0, 0.0, 0.0, 0.0, 0.0, 0.0, 0.0, 0.0, 0.0, 1.741026105095345E9, 0.0, 2025-03-03 12:21:45.095
222.0, -19816.274323019305, 6667.659481484829, -23463.609631491858, -10872.559055395015, -187500.02235174447, -17505.975664374313, -22674.883624897437, -37179.1764711352, 0.04, 0.838, -0.518, 192.0, 0.0, 0.0, 0.0, 0.0, 0.0, 0.0, 0.0, 0.0, 0.0, 1.741026105095355E9, 0.0, 2025-03-03 12:21:45.095
223.0, -19814.01679682932, 6632.8578153679155, -23458.848709922877, -10863.797171568534, -187500.02235174447, -17499.784231160193, -22667.284031782634, -37176.58366877838, 0.04, 0.838, -0.518, 192.0, 0.0, 0.0, 0.0, 0.0, 0.0, 0.0, 0.0, 0.0, 0.0, 1.741026105095369E9, 0.0, 2025-03-03 12:21:45.095
224.0, -19779.304537690226, 6689.564191051029, -23455.808872676957, -10860.466761644693, -187500.02235174447, -17494.062184579634, -22673.92249988586, -37168.157061118734, 0.04, 0.838, -0.518, 192.0, 0.0, 0.0, 0.0, 0.0, 0.0, 0.0, 0.0, 0.0, 0.0, 1.74102610509538E9, 0.0, 2025-03-03 12:21:45.095
225.0, -19770.408543397018, 6759.726316896238, -23465.621288492835, -10867.775782081579, -187500.02235174447, -17500.94652187187, -22689.814590193582, -37180.65168626925, 0.04, 0.838, -0.518, 192.0, 0.0, 0.0, 0.0, 0.0, 0.0, 0.0, 0.0, 0.0, 0.0, 1.741026105095391E9, 0.0, 2025-03-03 12:21:45.095
226.0, -19819.649436432057, 6684.311531104033, -23464.07901812542, -10861.204369211719, -187500.02235174447, -17495.671510180415, -22680.784485433636, -37178.014180423525, 0.04, 0.838, -0.518, 192.0, 0.0, 0.0, 0.0, 0.0, 0.0, 0.0, 0.0, 0.0, 0.0, 1.741026105155522E9, 0.0, 2025-03-03 12:21:45.155
227.0, -19812.005139828343, 6621.279611740067, -23459.36280004535, -10854.722363319679, -187500.02235174447, -17492.586969445583, -22675.33065978654, -37172.20272686514, 0.036000000000000004, 0.84, -0.518, 192.0, 1.0, 32.0, 26.0, 64.0, 239.0, 208.0, 0.0, 0.0, 0.0, 1.741026105155538E9, 0.0, 2025-03-03 12:21:45.155
228.0, -19780.91386329101, 6658.361155791421, -23467.56589026045, -10868.714555348703, -187500.02235174447, -17498.75605091525, -22680.024526122157, -37181.009314180534, 0.036000000000000004, 0.84, -0.518, 192.0, 0.0, 0.0, 0.0, 0.0, 0.0, 0.0, 0.0, 0.0, 0.0, 1.741026105155549E9, 0.0, 2025-03-03 12:21:45.155
229.0, -19738.981990692853, 6748.416334201853, -23470.672782739734, -10872.24613097264, -187500.02235174447, -17497.83962939258, -22679.756305188694, -37179.08706415738, 0.036000000000000004, 0.84, -0.518, 192.0, 0.0, 0.0, 0.0, 0.0, 0.0, 0.0, 0.0, 0.0, 0.0, 1.74102610515556E9, 0.0, 2025-03-03 12:21:45.155
230.0, -19806.01487231432, 6691.5534963075515, -23487.794218992498, -10877.744660108645, -187500.02235174447, -17499.873638138015, -22682.9526046458, -37188.34068636187, 0.036000000000000004, 0.84, -0.518, 192.0, 0.0, 0.0, 0.0, 0.0, 0.0, 0.0, 0.0, 0.0, 0.0, 1.741026105155571E9, 0.0, 2025-03-03 12:21:45.155
231.0, -19811.178125283495, 6617.971553560681, -23477.40065782078, -10872.380241439372, -187500.02235174447, -17496.096193325066, -22669.4521509948, -37202.44463711317, 0.036000000000000004, 0.84, -0.518, 192.0, 0.0, 0.0, 0.0, 0.0, 0.0, 0.0, 0.0, 0.0, 0.0, 1.741026105155581E9, 0.0, 2025-03-03 12:21:45.155
232.0, -19787.48527616087, 6632.991925834647, -23478.004154921076, -10877.208218241718, -187500.02235174447, -17501.706481183348, -22669.228633550243, -37210.89359651728, 0.036000000000000004, 0.84, -0.518, 192.0, 0.0, 0.0, 0.0, 0.0, 0.0, 0.0, 0.0, 0.0, 0.0, 1.741026105155592E9, 0.0, 2025-03-03 12:21:45.155
233.0, -19752.52714783277, 6715.38045589691, -23484.329698601927, -10884.763107867611, -187500.02235174447, -17507.80850741965, -22678.549310988106, -37204.8809772588, 0.036000000000000004, 0.84, -0.518, 192.0, 0.0, 0.0, 0.0, 0.0, 0.0, 0.0, 0.0, 0.0, 0.0, 1.741026105155603E9, 0.0, 2025-03-03 12:21:45.155
234.0, -19798.080003032686, 6686.166725893823, -23495.50557082958, -10887.11004103542, -187500.02235174447, -17512.927056899913, -22689.412258793385, -37222.69531758968, 0.036000000000000004, 0.84, -0.518, 192.0, 0.0, 0.0, 0.0, 0.0, 0.0, 0.0, 0.0, 0.0, 0.0, 1.741026105155622E9, 0.0, 2025-03-03 12:21:45.155
235.0, -19823.560991711736, 6605.745149343628, -23492.80100975049, -10882.416174699805, -187500.02235174447, -17505.75214692976, -22688.182912848344, -37222.15887572275, 0.036000000000000004, 0.84, -0.518, 192.0, 0.0, 0.0, 0.0, 0.0, 0.0, 0.0, 0.0, 0.0, 0.0, 1.741026105155633E9, 0.0, 2025-03-03 12:21:45.155
236.0, -19806.81953511471, 6617.099835526924, -23493.717431273155, -10881.633863643869, -187500.02235174447, -17502.488792239285, -22684.24900582421, -37203.69633480267, 0.036000000000000004, 0.84, -0.518, 192.0, 0.0, 0.0, 0.0, 0.0, 0.0, 0.0, 0.0, 0.0, 0.0, 1.741026105155644E9, 0.0, 2025-03-03 12:21:45.155
237.0, -19778.365764423106, 6693.363987608432, -23488.576530048435, -10878.258750231118, -187500.02235174447, -17502.287626539186, -22677.610537720986, -37204.098666202866, 0.04, 0.842, -0.518, 192.0, 1.0, 64.0, 26.0, 80.0, 239.0, 208.0, 0.0, 0.0, 0.0, 1.741026105155655E9, 0.0, 2025-03-03 12:21:45.155
238.0, -19791.35212795164, 6686.770222994116, -23484.866140468854, -10880.24805548764, -187500.02235174447, -17504.61220796254, -22667.57460446055, -37202.53404409099, 0.04, 0.842, -0.518, 192.0, 0.0, 0.0, 0.0, 0.0, 0.0, 0.0, 0.0, 0.0, 0.0, 1.741026105155666E9, 0.0, 2025-03-03 12:21:45.155
239.0, -19828.947762125466, 6611.534251157553, -23501.205265665685, -10894.240247516662, -187500.02235174447, -17516.70450171286, -22689.993404149223, -37198.04134345548, 0.04, 0.842, -0.518, 192.0, 0.0, 0.0, 0.0, 0.0, 0.0, 0.0, 0.0, 0.0, 0.0, 1.74102610515568E9, 0.0, 2025-03-03 12:21:45.155
240.0, -19816.274323019305, 6596.692692839229, -23504.26745465606, -10893.904971349833, -187500.02235174447, -17519.94550465888, -22695.78250596315, -37200.96942197912, 0.04, 0.842, -0.518, 192.0, 0.0, 0.0, 0.0, 0.0, 0.0, 0.0, 0.0, 0.0, 0.0, 1.741026105155691E9, 0.0, 2025-03-03 12:21:45.155
241.0, -19771.8167032977, 6674.677929243795, -23498.344242375406, -10890.127526536886, -187500.02235174447, -17516.145708101478, -22684.986613391236, -37199.605965567345, 0.04, 0.842, -0.518, 192.0, 0.0, 0.0, 0.0, 0.0, 0.0, 0.0, 0.0, 0.0, 0.0, 1.741026105215822E9, 0.0, 2025-03-03 12:21:45.215
242.0, -19784.19956972594, 6705.836261014493, -23506.010890723574, -10895.000206828143, -187500.02235174447, -17513.84347842258, -22683.734915701738, -37198.577785322406, 0.04, 0.842, -0.518, 192.0, 0.0, 0.0, 0.0, 0.0, 0.0, 0.0, 0.0, 0.0, 0.0, 1.741026105215842E9, 0.0, 2025-03-03 12:21:45.215
243.0, -19833.663980205536, 6622.4642541961975, -23512.60465533789, -10894.977855083687, -187500.02235174447, -17510.915399898935, -22691.669784983373, -37205.50682610355, 0.04, 0.842, -0.518, 192.0, 0.0, 0.0, 0.0, 0.0, 0.0, 0.0, 0.0, 0.0, 0.0, 1.741026105215853E9, 0.0, 2025-03-03 12:21:45.215
244.0, -19831.40645401555, 6592.44586139272, -23506.18970467922, -10892.608570171426, -187500.02235174447, -17510.311902798643, -22683.936081401836, -37205.283308658996, 0.04, 0.842, -0.518, 192.0, 0.0, 0.0, 0.0, 0.0, 0.0, 0.0, 0.0, 0.0, 0.0, 1.741026105215864E9, 0.0, 2025-03-03 12:21:45.215
245.0, -19788.8710843171, 6652.84027491096, -23500.26649239856, -10884.696052634246, -187500.02235174447, -17506.445051007875, -22674.838921408525, -37202.93637549119, 0.04, 0.842, -0.518, 192.0, 0.0, 0.0, 0.0, 0.0, 0.0, 0.0, 0.0, 0.0, 0.0, 1.741026105215874E9, 0.0, 2025-03-03 12:21:45.215
246.0, -19777.985784767367, 6720.990743755191, -23505.74266979011, -10887.333558479973, -187500.02235174447, -17519.632580236506, -22680.58331973354, -37215.900387275266, 0.04, 0.842, -0.518, 192.0, 0.0, 0.0, 0.0, 0.0, 0.0, 0.0, 0.0, 0.0, 0.0, 1.741026105215885E9, 0.0, 2025-03-03 12:21:45.215
247.0, -19827.91958188052, 6650.448638254242, -23507.933140746733, -10886.126564279386, -187500.02235174447, -17519.342007558585, -22678.571662732564, -37220.728364077615, 0.032, 0.8300000000000001, -0.516, 192.0, 1.0, 0.0, 25.0, 240.0, 239.0, 224.0, 0.0, 0.0, 0.0, 1.741026105215895E9, 0.0, 2025-03-03 12:21:45.215
248.0, -19831.518212737825, 6613.501204669619, -23508.313120402472, -10888.026462558088, -187500.02235174447, -17516.19041159039, -22670.01094460618, -37227.1880182252, 0.032, 0.8300000000000001, -0.516, 192.0, 0.0, 0.0, 0.0, 0.0, 0.0, 0.0, 0.0, 0.0, 0.0, 1.741026105215907E9, 0.0, 2025-03-03 12:21:45.215
249.0, -19793.00615704133, 6661.311586059522, -23498.456001097682, -10882.863209588912, -187500.02235174447, -17506.489754496786, -22670.234462050732, -37225.60104436887, 0.032, 0.8300000000000001, -0.516, 192.0, 0.0, 0.0, 0.0, 0.0, 0.0, 0.0, 0.0, 0.0, 0.0, 1.741026105215926E9, 0.0, 2025-03-03 12:21:45.215
250.0, -19769.7156393189, 6738.179235241322, -23498.210131908672, -10880.181000254273, -187500.02235174447, -17504.791021918183, -22669.094523083513, -37208.52431160502, 0.032, 0.8300000000000001, -0.516, 192.0, 0.0, 0.0, 0.0, 0.0, 0.0, 0.0, 0.0, 0.0, 0.0, 1.741026105215937E9, 0.0, 2025-03-03 12:21:45.215
251.0, -19836.256782562352, 6659.702260458739, -23509.810687280977, -10887.467668946705, -187500.02235174447, -17507.60734171955, -22675.174197575358, -37225.04225075749, 0.032, 0.8300000000000001, -0.516, 192.0, 0.0, 0.0, 0.0, 0.0, 0.0, 0.0, 0.0, 0.0, 0.0, 1.741026105215947E9, 0.0, 2025-03-03 12:21:45.215
252.0, -19833.418111016526, 6593.49639338212, -23507.55316109099, -10889.322863736495, -187500.02235174447, -17505.50627774075, -22673.877796396948, -37230.54077989349, 0.032, 0.8300000000000001, -0.516, 192.0, 0.0, 0.0, 0.0, 0.0, 0.0, 0.0, 0.0, 0.0, 0.0, 1.741026105215958E9, 0.0, 2025-03-03 12:21:45.215
253.0, -19786.166523238007, 6632.388428734354, -23504.37921337834, -10888.026462558088, -187500.02235174447, -17498.75605091525, -22670.949717873304, -37217.59911985387, 0.032, 0.8300000000000001, -0.516, 192.0, 0.0, 0.0, 0.0, 0.0, 0.0, 0.0, 0.0, 0.0, 0.0, 1.741026105215968E9, 0.0, 2025-03-03 12:21:45.215
254.0, -19754.71761878939, 6714.016999485136, -23507.351995390894, -10896.363663239916, -187500.02235174447, -17500.812411405135, -22672.58139521854, -37220.05781174396, 0.032, 0.8300000000000001, -0.516, 192.0, 0.0, 0.0, 0.0, 0.0, 0.0, 0.0, 0.0, 0.0, 0.0, 1.741026105215983E9, 0.0, 2025-03-03 12:21:45.215
255.0, -19810.842849116667, 6665.647824483851, -23512.492896615615, -10894.709634150224, -187500.02235174447, -17506.243885307777, -22659.885604367926, -37228.8867508038, 0.032, 0.8300000000000001, -0.516, 192.0, 0.0, 0.0, 0.0, 0.0, 0.0, 0.0, 0.0, 0.0, 0.0, 1.741026105215993E9, 0.0, 2025-03-03 12:21:45.215
0.0, -19827.91958188052, 6593.339931170933, -23524.27226594356, -10899.917590608311, -187500.02235174447, -17520.996036648277, -22657.829243878037, -37252.46784120415, 0.032, 0.8300000000000001, -0.516, 192.0, 0.0, 0.0, 0.0, 0.0, 0.0, 0.0, 0.0, 0.0, 0.0, 1.741026105276124E9, 0.0, 2025-03-03 12:21:45.276
1.0, -19802.05861354573, 6604.06876850948, -23517.834963540434, -10894.374357983394, -187500.02235174447, -17510.267199309732, -22661.67374392435, -37227.41153566975, 0.034, 0.844, -0.516, 192.0, 1.0, 16.0, 26.0, 96.0, 239.0, 224.0, 0.0, 0.0, 0.0, 1.741026105276139E9, 0.0, 2025-03-03 12:21:45.276
2.0, -19766.608746839614, 6681.696377002761, -23513.968111749666, -10893.033253316076, -187500.02235174447, -17513.061167366646, -22672.44728475181, -37214.06754422993, 0.034, 0.844, -0.516, 192.0, 0.0, 0.0, 0.0, 0.0, 0.0, 0.0, 0.0, 0.0, 0.0, 1.74102610527615E9, 0.0, 2025-03-03 12:21:45.276
3.0, -19801.499819934346, 6665.357251805932, -23524.02639675455, -10899.425852230293, -187500.02235174447, -17516.79390869068, -22682.907901156894, -37213.35228840736, 0.034, 0.844, -0.516, 192.0, 0.0, 0.0, 0.0, 0.0, 0.0, 0.0, 0.0, 0.0, 0.0, 1.741026105276161E9, 0.0, 2025-03-03 12:21:45.276
4.0, -19839.989523886386, 6594.502221882609, -23525.769832822065, -10893.368529482905, -187500.02235174447, -17502.645254450472, -22672.31317428508, -37207.294965659974, 0.034, 0.844, -0.516, 192.0, 0.0, 0.0, 0.0, 0.0, 0.0, 0.0, 0.0, 0.0, 0.0, 1.741026105276171E9, 0.0, 2025-03-03 12:21:45.276
5.0, -19828.567782469723, 6606.348646443921, -23525.94864677771, -10888.24998000264, -187500.02235174447, -17508.255542308754, -22668.714543427774, -37205.350363892365, 0.034, 0.844, -0.516, 192.0, 0.0, 0.0, 0.0, 0.0, 0.0, 0.0, 0.0, 0.0, 0.0, 1.741026105276181E9, 0.0, 2025-03-03 12:21:45.276
6.0, -19778.58928186766, 6694.101595175457, -23524.071100243462, -10887.355910224427, -187500.02235174447, -17511.340083043586, -22669.42979925034, -37199.94124173418, 0.034, 0.844, -0.516, 192.0, 0.0, 0.0, 0.0, 0.0, 0.0, 0.0, 0.0, 0.0, 0.0, 1.741026105276191E9, 0.0, 2025-03-03 12:21:45.276
7.0, -19772.263738186808, 6720.4319501438085, -23516.829135039945, -10880.069241531997, -187500.02235174447, -17507.093251597078, -22664.87004338146, -37191.40287535225, 0.034, 0.844, -0.516, 192.0, 0.0, 0.0, 0.0, 0.0, 0.0, 0.0, 0.0, 0.0, 0.0, 1.741026105276202E9, 0.0, 2025-03-03 12:21:45.276
8.0, -19834.423939517015, 6612.383617446854, -23516.426803639748, -10884.472535189692, -187500.02235174447, -17499.828934649104, -22655.86229036597, -37186.70900901664, 0.034, 0.844, -0.516, 192.0, 0.0, 0.0, 0.0, 0.0, 0.0, 0.0, 0.0, 0.0, 0.0, 1.741026105276223E9, 0.0, 2025-03-03 12:21:45.276
9.0, -19819.35886375414, 6597.251486450611, -23513.923408260755, -10879.91277932081, -187500.02235174447, -17500.387728260484, -22656.1975665328, -37190.50880557404, 0.034, 0.844, -0.516, 192.0, 0.0, 0.0, 0.0, 0.0, 0.0, 0.0, 0.0, 0.0, 0.0, 1.741026105276234E9, 0.0, 2025-03-03 12:21:45.276
10.0, -19786.412392427017, 6674.387356565876, -23513.074041971453, -10872.268482717096, -187500.02235174447, -17502.84642015057, -22663.01484859167, -37197.12492193281, 0.034, 0.844, -0.516, 192.0, 0.0, 0.0, 0.0, 0.0, 0.0, 0.0, 0.0, 0.0, 0.0, 1.741026105276244E9, 0.0, 2025-03-03 12:21:45.276
11.0, -19776.868197544598, 6710.351313394465, -23510.213018681174, -10870.43563967176, -187500.02235174447, -17495.93973111388, -22661.58433694653, -37196.36496262133, 0.036000000000000004, 0.84, -0.52, 192.0, 1.0, 32.0, 26.0, 64.0, 239.0, 192.0, 0.0, 0.0, 0.0, 1.741026105276254E9, 0.0, 2025-03-03 12:21:45.276
12.0, -19823.02454984481, 6636.098818313935, -23511.665882070767, -10876.381203696872, -187500.02235174447, -17489.88240836649, -22657.158691544377, -37198.68954404468, 0.036000000000000004, 0.84, -0.52, 192.0, 0.0, 0.0, 0.0, 0.0, 0.0, 0.0, 0.0, 0.0, 0.0, 1.741026105276266E9, 0.0, 2025-03-03 12:21:45.276
13.0, -19815.134384052086, 6614.395274447832, -23507.016719224062, -10872.022613528086, -187500.02235174447, -17489.055393821644, -22659.282107267634, -37204.50099760306, 0.036000000000000004, 0.84, -0.52, 192.0, 0.0, 0.0, 0.0, 0.0, 0.0, 0.0, 0.0, 0.0, 0.0, 1.74102610527628E9, 0.0, 2025-03-03 12:21:45.276
14.0, -19769.670935829992, 6674.9461501772585, -23502.814591266466, -10875.576540896482, -187500.02235174447, -17489.547132199663, -22648.15093852889, -37202.28817490199, 0.036000000000000004, 0.84, -0.52, 192.0, 0.0, 0.0, 0.0, 0.0, 0.0, 0.0, 0.0, 0.0, 0.0, 1.74102610527629E9, 0.0, 2025-03-03 12:21:45.276
15.0, -19762.898357260034, 6733.977107283725, -23509.31894890296, -10874.883636818366, -187500.02235174447, -17487.714289154326, -22651.503700197187, -37201.774084779514, 0.036000000000000004, 0.84, -0.52, 192.0, 0.0, 0.0, 0.0, 0.0, 0.0, 0.0, 0.0, 0.0, 0.0, 1.741026105335461E9, 0.0, 2025-03-03 12:21:45.335
16.0, -19828.567782469723, 6648.146408575346, -23522.014739753573, -10883.846686344945, -187500.02235174447, -17500.030100349202, -22661.561985202075, -37218.04615474298, 0.036000000000000004, 0.84, -0.52, 192.0, 0.0, 0.0, 0.0, 0.0, 0.0, 0.0, 0.0, 0.0, 0.0, 1.741026105335518E9, 0.0, 2025-03-03 12:21:45.335
17.0, -19827.941933624978, 6595.4633468941865, -23519.75721356359, -10884.003148556132, -187500.02235174447, -17505.171001573923, -22676.112970842478, -37216.70505007566, 0.036000000000000004, 0.84, -0.52, 192.0, 0.0, 0.0, 0.0, 0.0, 0.0, 0.0, 0.0, 0.0, 0.0, 1.741026105335528E9, 0.0, 2025-03-03 12:21:45.335
18.0, -19796.470677431906, 6637.998716592636, -23519.198419952205, -10877.968177553199, -187500.02235174447, -17503.1816963174, -22672.894319640913, -37222.069468744936, 0.036000000000000004, 0.84, -0.52, 192.0, 0.0, 0.0, 0.0, 0.0, 0.0, 0.0, 0.0, 0.0, 0.0, 1.741026105335539E9, 0.0, 2025-03-03 12:21:45.335
19.0, -19777.58345336717, 6716.341580908487, -23511.37530939285, -10869.027479771075, -187500.02235174447, -17490.977643844803, -22651.838976364015, -37187.536023561486, 0.036000000000000004, 0.84, -0.52, 192.0, 0.0, 0.0, 0.0, 0.0, 0.0, 0.0, 0.0, 0.0, 0.0, 1.74102610533555E9, 0.0, 2025-03-03 12:21:45.335
20.0, -19817.0789858197, 6660.573978492496, -23516.09152747292, -10865.987642525155, -187500.02235174447, -17488.295434510164, -22654.00709557618, -37181.0763694139, 0.036000000000000004, 0.84, -0.52, 192.0, 0.0, 0.0, 0.0, 0.0, 0.0, 0.0, 0.0, 0.0, 0.0, 1.741026105335561E9, 0.0, 2025-03-03 12:21:45.335
21.0, -19829.372445270117, 6613.8364808364495, -23529.256704957093, -10866.345270436439, -187500.02235174447, -17489.815353133126, -22658.90212761189, -37193.682753286696, 0.04, 0.842, -0.526, 192.0, 1.0, 64.0, 26.0, 80.0, 239.0, 144.0, 0.0, 0.0, 0.0, 1.741026105335572E9, 0.0, 2025-03-03 12:21:45.335
22.0, -19801.45511644544, 6654.583710978474, -23530.977789280154, -10863.10426749042, -187500.02235174447, -17480.539379184174, -22648.776787373637, -37193.88391898679, 0.04, 0.842, -0.526, 192.0, 0.0, 0.0, 0.0, 0.0, 0.0, 0.0, 0.0, 0.0, 0.0, 1.741026105335583E9, 0.0, 2025-03-03 12:21:45.335
23.0, -19767.838092784656, 6718.934383265303, -23527.51326888958, -10860.153837222319, -187500.02235174447, -17483.378050729996, -22650.631982163428, -37202.131712690796, 0.04, 0.842, -0.526, 192.0, 0.0, 0.0, 0.0, 0.0, 0.0, 0.0, 0.0, 0.0, 0.0, 1.741026105335594E9, 0.0, 2025-03-03 12:21:45.335
24.0, -19803.332662979683, 6684.84797297096, -23532.005969525097, -10875.375375196383, -187500.02235174447, -17488.18367578789, -22657.158691544377, -37200.32122138992, 0.04, 0.842, -0.526, 192.0, 0.0, 0.0, 0.0, 0.0, 0.0, 0.0, 0.0, 0.0, 0.0, 1.741026105335608E9, 0.0, 2025-03-03 12:21:45.335
25.0, -19833.172241827517, 6614.797605848027, -23527.781489823043, -10875.330671707472, -187500.02235174447, -17485.255597264244, -22657.896299111402, -37181.88103221429, 0.04, 0.842, -0.526, 192.0, 0.0, 0.0, 0.0, 0.0, 0.0, 0.0, 0.0, 0.0, 0.0, 1.741026105335619E9, 0.0, 2025-03-03 12:21:45.335
26.0, -19795.934235564975, 6640.278594527077, -23521.143021719818, -10868.558093137515, -187500.02235174447, -17480.0252890617, -22659.885604367926, -37193.101607930854, 0.04, 0.842, -0.526, 192.0, 0.0, 0.0, 0.0, 0.0, 0.0, 0.0, 0.0, 0.0, 0.0, 1.741026105335634E9, 0.0, 2025-03-03 12:21:45.335
27.0, -19781.450305157938, 6715.559269852552, -23534.665827115277, -10885.120735778897, -187500.02235174447, -17495.85032413606, -22672.31317428508, -37223.67879434572, 0.04, 0.842, -0.526, 192.0, 0.0, 0.0, 0.0, 0.0, 0.0, 0.0, 0.0, 0.0, 0.0, 1.741026105335645E9, 0.0, 2025-03-03 12:21:45.335
28.0, -19817.86129687563, 6690.815888740527, -23541.52781266306, -10894.977855083687, -187500.02235174447, -17497.90668462595, -22673.207244063287, -37214.849855285865, 0.04, 0.842, -0.526, 192.0, 0.0, 0.0, 0.0, 0.0, 0.0, 0.0, 0.0, 0.0, 0.0, 1.741026105335659E9, 0.0, 2025-03-03 12:21:45.335
29.0, -19833.88749765009, 6619.69263788374, -23544.746463864623, -10898.174154540797, -187500.02235174447, -17503.584027717596, -22671.30734578459, -37215.94509076418, 0.04, 0.842, -0.526, 192.0, 0.0, 0.0, 0.0, 0.0, 0.0, 0.0, 0.0, 0.0, 0.0, 1.741026105335669E9, 0.0, 2025-03-03 12:21:45.335
30.0, -19813.279189262295, 6618.105664027413, -23533.615295125877, -10878.929302564777, -187500.02235174447, -17492.452858978853, -22663.573642203053, -37214.916910519234, 0.04, 0.842, -0.526, 192.0, 0.0, 0.0, 0.0, 0.0, 0.0, 0.0, 0.0, 0.0, 0.0, 1.741026105395952E9, 0.0, 2025-03-03 12:21:45.395
31.0, -19775.795313810744, 6697.096728932468, -23534.062330014985, -10879.041061287053, -187500.02235174447, -17494.62097819102, -22668.4016190054, -37221.89065478929, 0.034, 0.838, -0.522, 192.0, 1.0, 16.0, 26.0, 48.0, 239.0, 176.0, 0.0, 0.0, 0.0, 1.741026105395977E9, 0.0, 2025-03-03 12:21:45.395
32.0, -19794.526075664293, 6701.745891779172, -23543.919449319776, -10897.436546973771, -187500.02235174447, -17503.27110329522, -22671.977898118246, -37229.15497173726, 0.034, 0.838, -0.522, 192.0, 0.0, 0.0, 0.0, 0.0, 0.0, 0.0, 0.0, 0.0, 0.0, 1.741026105395989E9, 0.0, 2025-03-03 12:21:45.395
33.0, -19827.204326057952, 6612.785948847049, -23543.98650455314, -10897.078919062486, -187500.02235174447, -17504.70161494036, -22664.49006372572, -37221.66713734474, 0.034, 0.838, -0.522, 192.0, 0.0, 0.0, 0.0, 0.0, 0.0, 0.0, 0.0, 0.0, 0.0, 1.741026105395999E9, 0.0, 2025-03-03 12:21:45.395
34.0, -19824.700930678955, 6600.626599863363, -23547.451024943715, -10888.831125358478, -187500.02235174447, -17501.37120501652, -22664.15478755889, -37228.14914323678, 0.034, 0.838, -0.522, 192.0, 0.0, 0.0, 0.0, 0.0, 0.0, 0.0, 0.0, 0.0, 0.0, 1.741026105396014E9, 0.0, 2025-03-03 12:21:45.396
35.0, -19801.87979959009, 6661.959786648726, -23543.18184175275, -10890.351043981438, -187500.02235174447, -17495.537399713685, -22658.879775867437, -37227.25507345856, 0.034, 0.838, -0.522, 192.0, 0.0, 0.0, 0.0, 0.0, 0.0, 0.0, 0.0, 0.0, 0.0, 1.741026105396025E9, 0.0, 2025-03-03 12:21:45.396
36.0, -19799.711680377924, 6710.775996539116, -23550.692027889734, -10896.67658766229, -187500.02235174447, -17502.354681772555, -22663.931270114335, -37230.18315198221, 0.034, 0.838, -0.522, 192.0, 0.0, 0.0, 0.0, 0.0, 0.0, 0.0, 0.0, 0.0, 0.0, 1.741026105396035E9, 0.0, 2025-03-03 12:21:45.396
37.0, -19836.569706984727, 6627.739265887651, -23560.95147859472, -10906.176079055796, -187500.02235174447, -17507.60734171955, -22674.01190686368, -37230.56313163795, 0.034, 0.838, -0.522, 192.0, 0.0, 0.0, 0.0, 0.0, 0.0, 0.0, 0.0, 0.0, 0.0, 1.741026105396046E9, 0.0, 2025-03-03 12:21:45.396
38.0, -19847.142082112085, 6594.859849793894, -23574.831911901467, -10915.340294282472, -187500.02235174447, -17517.75503370226, -22671.24029055122, -37243.95182656668, 0.034, 0.838, -0.522, 192.0, 0.0, 0.0, 0.0, 0.0, 0.0, 0.0, 0.0, 0.0, 0.0, 1.741026105396056E9, 0.0, 2025-03-03 12:21:45.396
39.0, -19819.91765736552, 6648.325222530988, -23575.86009214641, -10909.841765146466, -187500.02235174447, -17519.744338958782, -22677.498778998706, -37250.27737024753, 0.034, 0.838, -0.522, 192.0, 0.0, 0.0, 0.0, 0.0, 0.0, 0.0, 0.0, 0.0, 0.0, 1.74102610539607E9, 0.0, 2025-03-03 12:21:45.396
40.0, -19782.657299358525, 6702.639961557385, -23560.258574516603, -10895.15666903933, -187500.02235174447, -17505.41687076293, -22652.375418230942, -37216.50388437556, 0.034, 0.838, -0.522, 192.0, 0.0, 0.0, 0.0, 0.0, 0.0, 0.0, 0.0, 0.0, 0.0, 1.741026105396081E9, 0.0, 2025-03-03 12:21:45.396
41.0, -19834.40158777256, 6631.717876400695, -23566.98644959765, -10893.949674838743, -187500.02235174447, -17503.919303884424, -22658.857424122984, -37214.64868958577, 0.038, 0.838, -0.528, 192.0, 1.0, 48.0, 26.0, 48.0, 239.0, 128.0, 0.0, 0.0, 0.0, 1.741026105396091E9, 0.0, 2025-03-03 12:21:45.396
42.0, -19864.241166620395, 6588.310788668488, -23575.65892644631, -10894.39670972785, -187500.02235174447, -17510.17779233191, -22664.266546281167, -37230.652538615774, 0.038, 0.838, -0.528, 192.0, 0.0, 0.0, 0.0, 0.0, 0.0, 0.0, 0.0, 0.0, 0.0, 1.741026105396103E9, 0.0, 2025-03-03 12:21:45.396
43.0, -19809.613503171626, 6637.149350303334, -23563.656039673813, -10888.786421869567, -187500.02235174447, -17503.02523410621, -22662.523110213653, -37236.64280612979, 0.038, 0.838, -0.528, 192.0, 0.0, 0.0, 0.0, 0.0, 0.0, 0.0, 0.0, 0.0, 0.0, 1.741026105396113E9, 0.0, 2025-03-03 12:21:45.396
44.0, -19772.777828309278, 6710.731293050206, -23556.61524017039, -10884.852514845434, -187500.02235174447, -17499.76187941574, -22663.573642203053, -37268.270524534055, 0.038, 0.838, -0.528, 192.0, 0.0, 0.0, 0.0, 0.0, 0.0, 0.0, 0.0, 0.0, 0.0, 1.741026105396127E9, 0.0, 2025-03-03 12:21:45.396
45.0, -19827.763119669333, 6658.9199494028035, -23562.203176284216, -10891.513334693114, -187500.02235174447, -17495.60445494705, -22663.528938714142, -37256.021768572544, 0.038, 0.838, -0.528, 192.0, 0.0, 0.0, 0.0, 0.0, 0.0, 0.0, 0.0, 0.0, 0.0, 1.741026105457826E9, 0.0, 2025-03-03 12:21:45.457
46.0, -19831.741730182377, 6602.772367331072, -23551.6084494124, -10884.047852045042, -187500.02235174447, -17482.014594318225, -22655.728179899237, -37202.15406443526, 0.038, 0.838, -0.528, 192.0, 0.0, 0.0, 0.0, 0.0, 0.0, 0.0, 0.0, 0.0, 0.0, 1.741026105457855E9, 0.0, 2025-03-03 12:21:45.457
47.0, -19793.96728205291, 6638.713972415206, -23551.295524990026, -10874.324843206983, -187500.02235174447, -17485.12148679751, -22658.857424122984, -37217.576768109415, 0.038, 0.838, -0.528, 192.0, 0.0, 0.0, 0.0, 0.0, 0.0, 0.0, 0.0, 0.0, 0.0, 1.741026105457866E9, 0.0, 2025-03-03 12:21:45.457
48.0, -19764.284165416262, 6732.926575294326, -23554.961211080696, -10888.115869535908, -187500.02235174447, -17493.682204923894, -22658.52214795615, -37240.08497477591, 0.038, 0.838, -0.528, 192.0, 0.0, 0.0, 0.0, 0.0, 0.0, 0.0, 0.0, 0.0, 0.0, 1.741026105457877E9, 0.0, 2025-03-03 12:21:45.457
49.0, -19800.96337806742, 6691.888772474382, -23545.349960964915, -10872.670814117291, -187500.02235174447, -17485.434411219885, -22646.988647817212, -37230.9878147826, 0.038, 0.838, -0.528, 192.0, 0.0, 0.0, 0.0, 0.0, 0.0, 0.0, 0.0, 0.0, 0.0, 1.741026105457887E9, 0.0, 2025-03-03 12:21:45.457
50.0, -19797.409450699026, 6645.084219584968, -23541.013722540585, -10870.301529205028, -187500.02235174447, -17476.471361693308, -22639.836089591514, -37225.13165773531, 0.038, 0.838, -0.528, 192.0, 0.0, 0.0, 0.0, 0.0, 0.0, 0.0, 0.0, 0.0, 0.0, 1.741026105457898E9, 0.0, 2025-03-03 12:21:45.457
51.0, -19787.01588952731, 6661.244530826156, -23536.40926318279, -10873.609587384413, -187500.02235174447, -17471.55397791314, -22638.13735701291, -37228.08208800341, 0.036000000000000004, 0.84, -0.526, 192.0, 1.0, 32.0, 26.0, 64.0, 239.0, 144.0, 0.0, 0.0, 0.0, 1.741026105457909E9, 0.0, 2025-03-03 12:21:45.457
52.0, -19757.690400801945, 6730.445531659786, -23541.61721964088, -10876.358851952416, -187500.02235174447, -17487.088440309577, -22655.459958965774, -37252.736062137614, 0.036000000000000004, 0.84, -0.526, 192.0, 0.0, 0.0, 0.0, 0.0, 0.0, 0.0, 0.0, 0.0, 0.0, 1.741026105457921E9, 0.0, 2025-03-03 12:21:45.457
53.0, -19797.49885767685, 6714.508737863152, -23548.255687744106, -10880.359814209916, -187500.02235174447, -17493.57044620162, -22655.839938621517, -37257.161707539766, 0.036000000000000004, 0.84, -0.526, 192.0, 0.0, 0.0, 0.0, 0.0, 0.0, 0.0, 0.0, 0.0, 0.0, 1.741026105457931E9, 0.0, 2025-03-03 12:21:45.457
54.0, -19794.973110553397, 6662.228007582189, -23530.977789280154, -10867.216988470196, -187500.02235174447, -17478.304204738644, -22633.28702846611, -37226.07043100243, 0.036000000000000004, 0.84, -0.526, 192.0, 0.0, 0.0, 0.0, 0.0, 0.0, 0.0, 0.0, 0.0, 0.0, 1.741026105457946E9, 0.0, 2025-03-03 12:21:45.457
55.0, -19792.58147389668, 6656.349498790443, -23537.258629472093, -10872.313186206005, -187500.02235174447, -17483.400402474454, -22639.724330869238, -37227.03155601401, 0.036000000000000004, 0.84, -0.526, 192.0, 0.0, 0.0, 0.0, 0.0, 0.0, 0.0, 0.0, 0.0, 0.0, 1.741026105457957E9, 0.0, 2025-03-03 12:21:45.457
56.0, -19761.669011314993, 6722.130682722412, -23530.17312647976, -10866.233511714163, -187500.02235174447, -17478.55007392765, -22641.400711703387, -37226.9868525251, 0.036000000000000004, 0.84, -0.526, 192.0, 0.0, 0.0, 0.0, 0.0, 0.0, 0.0, 0.0, 0.0, 0.0, 1.741026105457967E9, 0.0, 2025-03-03 12:21:45.457
57.0, -19772.777828309278, 6736.502854407175, -23535.336379448938, -10875.420078685294, -187500.02235174447, -17483.758030385736, -22647.05570305058, -37230.96546303815, 0.036000000000000004, 0.84, -0.526, 192.0, 0.0, 0.0, 0.0, 0.0, 0.0, 0.0, 0.0, 0.0, 0.0, 1.741026105457978E9, 0.0, 2025-03-03 12:21:45.457
58.0, -19822.845735889165, 6643.631356195374, -23537.258629472093, -10877.409383941816, -187500.02235174447, -17483.55686468564, -22640.797214603095, -37221.55537862246, 0.036000000000000004, 0.84, -0.526, 192.0, 0.0, 0.0, 0.0, 0.0, 0.0, 0.0, 0.0, 0.0, 0.0, 1.741026105457989E9, 0.0, 2025-03-03 12:21:45.457
59.0, -19816.408433486038, 6625.817015864493, -23536.40926318279, -10870.234473971663, -187500.02235174447, -17483.51216119673, -22641.0430837921, -37220.728364077615, 0.036000000000000004, 0.84, -0.526, 192.0, 0.0, 0.0, 0.0, 0.0, 0.0, 0.0, 0.0, 0.0, 0.0, 1.741026105458004E9, 0.0, 2025-03-03 12:21:45.458
60.0, -19758.85269151362, 6702.483499346197, -23529.569629379468, -10872.313186206005, -187500.02235174447, -17483.154533285444, -22646.876889094936, -37220.25897744405, 0.036000000000000004, 0.84, -0.526, 192.0, 0.0, 0.0, 0.0, 0.0, 0.0, 0.0, 0.0, 0.0, 0.0, 1.741026105515699E9, 0.0, 2025-03-03 12:21:45.515
61.0, -19778.611633612112, 6730.8255113155265, -23532.90003930331, -10870.234473971663, -187500.02235174447, -17492.631672934494, -22649.33558098502, -37218.493189632085, 0.036000000000000004, 0.846, -0.524, 192.0, 1.0, 32.0, 26.0, 112.0, 239.0, 160.0, 0.0, 0.0, 0.0, 1.741026105515722E9, 0.0, 2025-03-03 12:21:45.515
62.0, -19813.39094798457, 6653.846103411449, -23534.79993758201, -10868.111058248409, -187500.02235174447, -17496.096193325066, -22650.073188552047, -37216.34742216438, 0.036000000000000004, 0.846, -0.524, 192.0, 0.0, 0.0, 0.0, 0.0, 0.0, 0.0, 0.0, 0.0, 0.0, 1.741026105515734E9, 0.0, 2025-03-03 12:21:45.515
63.0, -19782.09850574714, 6628.610983921407, -23527.870896800865, -10868.021651270587, -187500.02235174447, -17495.42564099141, -22645.312266983066, -37208.770180794025, 0.036000000000000004, 0.846, -0.524, 192.0, 0.0, 0.0, 0.0, 0.0, 0.0, 0.0, 0.0, 0.0, 0.0, 1.741026105515745E9, 0.0, 2025-03-03 12:21:45.515
64.0, -19752.840072255145, 6695.08507193149, -23527.960303778687, -10869.541569893549, -187500.02235174447, -17495.98443460279, -22649.00030481819, -37209.41838138323, 0.036000000000000004, 0.846, -0.524, 192.0, 0.0, 0.0, 0.0, 0.0, 0.0, 0.0, 0.0, 0.0, 0.0, 1.741026105515755E9, 0.0, 2025-03-03 12:21:45.515
65.0, -19754.449397855926, 6750.070363291546, -23527.669731100767, -10875.062450774009, -187500.02235174447, -17497.347891014564, -22647.01099956167, -37207.40672438225, 0.036000000000000004, 0.846, -0.524, 192.0, 0.0, 0.0, 0.0, 0.0, 0.0, 0.0, 0.0, 0.0, 0.0, 1.741026105515766E9, 0.0, 2025-03-03 12:21:45.515
66.0, -19778.58928186766, 6695.219182398222, -23528.13911773433, -10869.049831515531, -187500.02235174447, -17495.98443460279, -22639.43375819132, -37219.99075651059, 0.036000000000000004, 0.846, -0.524, 192.0, 0.0, 0.0, 0.0, 0.0, 0.0, 0.0, 0.0, 0.0, 0.0, 1.741026105515777E9, 0.0, 2025-03-03 12:21:45.515
67.0, -19791.419183185004, 6647.609966708418, -23529.83785031293, -10867.619319870391, -187500.02235174447, -17497.21378054783, -22639.21024074677, -37223.74584957908, 0.036000000000000004, 0.846, -0.524, 192.0, 0.0, 0.0, 0.0, 0.0, 0.0, 0.0, 0.0, 0.0, 0.0, 1.741026105515787E9, 0.0, 2025-03-03 12:21:45.515
68.0, -19757.533938590757, 6696.873211487915, -23531.71539684718, -10878.571674653493, -187500.02235174447, -17497.90668462595, -22649.67085715185, -37217.64382334278, 0.036000000000000004, 0.846, -0.524, 192.0, 0.0, 0.0, 0.0, 0.0, 0.0, 0.0, 0.0, 0.0, 0.0, 1.741026105515798E9, 0.0, 2025-03-03 12:21:45.515
69.0, -19753.823549011177, 6765.180142543333, -23537.86212657239, -10882.594988655448, -187500.02235174447, -17497.303187525653, -22653.76122638717, -37214.916910519234, 0.036000000000000004, 0.846, -0.524, 192.0, 0.0, 0.0, 0.0, 0.0, 0.0, 0.0, 0.0, 0.0, 0.0, 1.741026105515813E9, 0.0, 2025-03-03 12:21:45.515
70.0, -19799.465811188915, 6704.070473202524, -23541.12548126286, -10879.018709542599, -187500.02235174447, -17498.21960904832, -22652.33071474203, -37205.775047037016, 0.036000000000000004, 0.846, -0.524, 192.0, 0.0, 0.0, 0.0, 0.0, 0.0, 0.0, 0.0, 0.0, 0.0, 1.741026105515823E9, 0.0, 2025-03-03 12:21:45.515
71.0, -19817.235448030886, 6634.9141758578035, -23533.52588814806, -10879.421040942794, -187500.02235174447, -17492.162286300932, -22654.655296165383, -37204.366887136326, 0.038, 0.84, -0.522, 192.0, 1.0, 48.0, 26.0, 64.0, 239.0, 176.0, 0.0, 0.0, 0.0, 1.741026105515834E9, 0.0, 2025-03-03 12:21:45.515
72.0, -19776.175293466484, 6657.824713924493, -23530.396643924316, -10876.470610674693, -187500.02235174447, -17496.565579958627, -22651.95073508629, -37207.78670403799, 0.038, 0.84, -0.522, 192.0, 0.0, 0.0, 0.0, 0.0, 0.0, 0.0, 0.0, 0.0, 0.0, 1.741026105515845E9, 0.0, 2025-03-03 12:21:45.515
73.0, -19744.10054017312, 6744.057744033068, -23531.916562547274, -10882.326767721983, -187500.02235174447, -17496.2303037918, -22647.68155189533, -37200.34357313437, 0.038, 0.84, -0.522, 192.0, 0.0, 0.0, 0.0, 0.0, 0.0, 0.0, 0.0, 0.0, 0.0, 1.741026105515856E9, 0.0, 2025-03-03 12:21:45.515
74.0, -19791.285072718274, 6695.4874033316855, -23541.170184751772, -10885.500715434637, -187500.02235174447, -17504.165173073434, -22664.24419453671, -37213.01701224053, 0.038, 0.84, -0.522, 192.0, 0.0, 0.0, 0.0, 0.0, 0.0, 0.0, 0.0, 0.0, 0.0, 1.74102610551587E9, 0.0, 2025-03-03 12:21:45.515
75.0, -19801.566875167715, 6626.956954831714, -23533.5035364036, -10877.074107774986, -187500.02235174447, -17506.445051007875, -22663.372476502955, -37215.967442508634, 0.038, 0.84, -0.522, 192.0, 0.0, 0.0, 0.0, 0.0, 0.0, 0.0, 0.0, 0.0, 0.0, 1.741026105575468E9, 0.0, 2025-03-03 12:21:45.575
76.0, -19761.601956081624, 6648.012298108613, -23528.496745645614, -10874.034270529064, -187500.02235174447, -17502.734661428294, -22657.605726433485, -37213.82167504093, 0.038, 0.84, -0.522, 192.0, 0.0, 0.0, 0.0, 0.0, 0.0, 0.0, 0.0, 0.0, 0.0, 1.741026105575486E9, 0.0, 2025-03-03 12:21:45.575
77.0, -19731.538859789238, 6744.1471510108895, -23531.447175913716, -10872.827276328479, -187500.02235174447, -17503.584027717596, -22661.472578224253, -37222.62826235632, 0.038, 0.84, -0.522, 192.0, 0.0, 0.0, 0.0, 0.0, 0.0, 0.0, 0.0, 0.0, 0.0, 1.74102610557551E9, 0.0, 2025-03-03 12:21:45.575
78.0, -19773.29191843175, 6721.437778644297, -23544.56764990898, -10881.119773521397, -187500.02235174447, -17507.830859164103, -22668.62513644995, -37227.6350531143, 0.038, 0.84, -0.522, 192.0, 0.0, 0.0, 0.0, 0.0, 0.0, 0.0, 0.0, 0.0, 0.0, 1.741026105575521E9, 0.0, 2025-03-03 12:21:45.575
79.0, -19814.061500318232, 6638.423399737287, -23551.496690690125, -10889.635788158868, -187500.02235174447, -17515.74337670128, -22672.62609870745, -37231.770125838535, 0.038, 0.84, -0.522, 192.0, 0.0, 0.0, 0.0, 0.0, 0.0, 0.0, 0.0, 0.0, 0.0, 1.741026105575532E9, 0.0, 2025-03-03 12:21:45.575
80.0, -19788.69227036146, 6639.876263126882, -23545.931106320753, -10884.606645656426, -187500.02235174447, -17508.814335920135, -22669.854482394992, -37238.85562883087, 0.038, 0.84, -0.522, 192.0, 0.0, 0.0, 0.0, 0.0, 0.0, 0.0, 0.0, 0.0, 0.0, 1.741026105575543E9, 0.0, 2025-03-03 12:21:45.575
81.0, -19733.058778412196, 6725.148168223878, -23545.126443520363, -10886.663006146313, -187500.02235174447, -17500.70065268286, -22673.47546499675, -37226.56216938045, 0.046, 0.84, -0.516, 192.0, 1.0, 112.0, 26.0, 64.0, 239.0, 224.0, 0.0, 0.0, 0.0, 1.741026105575554E9, 0.0, 2025-03-03 12:21:45.575
82.0, -19782.947872036442, 6726.4222176578305, -23561.309106506003, -10898.196506285252, -187500.02235174447, -17513.79877493367, -22682.81849417907, -37236.37458519633, 0.046, 0.84, -0.516, 192.0, 0.0, 0.0, 0.0, 0.0, 0.0, 0.0, 0.0, 0.0, 0.0, 1.741026105575566E9, 0.0, 2025-03-03 12:21:45.575
83.0, -19824.857392890142, 6649.755734176128, -23569.221624043184, -10895.559000439525, -187500.02235174447, -17523.968818660836, -22690.57454950506, -37245.047062044985, 0.046, 0.84, -0.516, 192.0, 0.0, 0.0, 0.0, 0.0, 0.0, 0.0, 0.0, 0.0, 0.0, 1.741026105575576E9, 0.0, 2025-03-03 12:21:45.575
84.0, -19773.381325409573, 6639.608042193418, -23557.643420415334, -10895.357834739427, -187500.02235174447, -17515.676321467916, -22681.790313934125, -37245.65055914528, 0.046, 0.84, -0.516, 192.0, 0.0, 0.0, 0.0, 0.0, 0.0, 0.0, 0.0, 0.0, 0.0, 1.741026105575587E9, 0.0, 2025-03-03 12:21:45.575
85.0, -19747.699171030425, 6702.036464457091, -23553.173071524274, -10891.200410270741, -187500.02235174447, -17513.396443533475, -22678.996345877214, -37247.05871904596, 0.046, 0.84, -0.516, 192.0, 0.0, 0.0, 0.0, 0.0, 0.0, 0.0, 0.0, 0.0, 0.0, 1.741026105575602E9, 0.0, 2025-03-03 12:21:45.575
86.0, -19751.09663618763, 6738.469807919241, -23563.70074316272, -10894.240247516662, -187500.02235174447, -17514.31286505614, -22691.558026261097, -37230.9878147826, 0.046, 0.84, -0.516, 192.0, 0.0, 0.0, 0.0, 0.0, 0.0, 0.0, 0.0, 0.0, 0.0, 1.741026105575612E9, 0.0, 2025-03-03 12:21:45.575
87.0, -19805.366671725114, 6648.816960909005, -23568.03698158705, -10902.622151687403, -187500.02235174447, -17513.12822260001, -22681.96912788977, -37229.78082058201, 0.046, 0.84, -0.516, 192.0, 0.0, 0.0, 0.0, 0.0, 0.0, 0.0, 0.0, 0.0, 0.0, 1.741026105575623E9, 0.0, 2025-03-03 12:21:45.575
88.0, -19788.73697385037, 6622.240736751644, -23559.789187883045, -10898.308265007528, -187500.02235174447, -17506.668568452427, -22677.67759295435, -37226.09278274689, 0.046, 0.84, -0.516, 192.0, 0.0, 0.0, 0.0, 0.0, 0.0, 0.0, 0.0, 0.0, 0.0, 1.741026105575634E9, 0.0, 2025-03-03 12:21:45.575
89.0, -19756.05872345671, 6671.101650130946, -23553.84362385793, -10887.400613713338, -187500.02235174447, -17497.973739859313, -22677.34231678752, -37228.99850952608, 0.046, 0.84, -0.516, 192.0, 0.0, 0.0, 0.0, 0.0, 0.0, 0.0, 0.0, 0.0, 0.0, 1.741026105575648E9, 0.0, 2025-03-03 12:21:45.575
90.0, -19746.916859974488, 6729.350296181477, -23561.443216972737, -10896.274256262095, -187500.02235174447, -17504.142821328976, -22690.172218104868, -37234.40763168426, 0.046, 0.84, -0.516, 192.0, 0.0, 0.0, 0.0, 0.0, 0.0, 0.0, 0.0, 0.0, 0.0, 1.741026105635649E9, 0.0, 2025-03-03 12:21:45.635
91.0, -19798.080003032686, 6678.790650223572, -23571.8144264, -10897.235381273673, -187500.02235174447, -17515.251638323265, -22691.87095068347, -37243.3930329553, 0.048, 0.84, -0.514, 192.0, 1.0, 128.0, 26.0, 64.0, 239.0, 240.0, 0.0, 0.0, 0.0, 1.741026105635665E9, 0.0, 2025-03-03 12:21:45.635
92.0, -19794.19079949746, 6637.0822950699685, -23564.214833285194, -10900.163459797319, -187500.02235174447, -17518.313827313643, -22683.310232557087, -37250.32207373644, 0.048, 0.84, -0.514, 192.0, 0.0, 0.0, 0.0, 0.0, 0.0, 0.0, 0.0, 0.0, 0.0, 1.741026105635688E9, 0.0, 2025-03-03 12:21:45.635
93.0, -19763.904185760523, 6665.066679128013, -23568.03698158705, -10901.549267953547, -187500.02235174447, -17526.94160067339, -22703.247988611223, -37250.18796326971, 0.048, 0.84, -0.514, 192.0, 0.0, 0.0, 0.0, 0.0, 0.0, 0.0, 0.0, 0.0, 0.0, 1.741026105635699E9, 0.0, 2025-03-03 12:21:45.635
94.0, -19735.159842390996, 6737.888662563403, -23564.684219918756, -10903.695035421257, -187500.02235174447, -17523.298266327176, -22694.173180362366, -37244.17534401123, 0.048, 0.84, -0.514, 192.0, 0.0, 0.0, 0.0, 0.0, 0.0, 0.0, 0.0, 0.0, 0.0, 1.74102610563571E9, 0.0, 2025-03-03 12:21:45.635
95.0, -19788.781677339277, 6678.433022312287, -23565.42182748578, -10904.454994732738, -187500.02235174447, -17520.66076048145, -22688.11585761498, -37235.346404951386, 0.048, 0.84, -0.514, 192.0, 0.0, 0.0, 0.0, 0.0, 0.0, 0.0, 0.0, 0.0, 0.0, 1.741026105635721E9, 0.0, 2025-03-03 12:21:45.635
96.0, -19805.63489265858, 6613.814129091994, -23559.543318694035, -10894.933151594776, -187500.02235174447, -17512.189449332887, -22678.39284877692, -37219.99075651059, 0.048, 0.84, -0.514, 192.0, 0.0, 0.0, 0.0, 0.0, 0.0, 0.0, 0.0, 0.0, 0.0, 1.741026105635731E9, 0.0, 2025-03-03 12:21:45.635
97.0, -19783.35020343664, 6653.644937711351, -23559.00687682711, -10892.452107960238, -187500.02235174447, -17516.212763334843, -22684.763095946684, -37225.623396113326, 0.048, 0.84, -0.514, 192.0, 0.0, 0.0, 0.0, 0.0, 0.0, 0.0, 0.0, 0.0, 0.0, 1.741026105635742E9, 0.0, 2025-03-03 12:21:45.635
98.0, -19755.321115889685, 6731.071380504534, -23567.835815886952, -10914.178003570796, -187500.02235174447, -17524.639370994493, -22692.407392550398, -37239.4367741867, 0.048, 0.84, -0.514, 192.0, 0.0, 0.0, 0.0, 0.0, 0.0, 0.0, 0.0, 0.0, 0.0, 1.741026105635753E9, 0.0, 2025-03-03 12:21:45.635
99.0, -19785.697136604445, 6701.164746423334, -23571.99324035564, -10909.662951190825, -187500.02235174447, -17516.838612179592, -22693.68144198435, -37239.86145733135, 0.048, 0.84, -0.514, 192.0, 0.0, 0.0, 0.0, 0.0, 0.0, 0.0, 0.0, 0.0, 0.0, 1.741026105635764E9, 0.0, 2025-03-03 12:21:45.635
100.0, -19804.517305435813, 6629.92973684427, -23563.074894317975, -10895.514296950614, -187500.02235174447, -17508.456708008853, -22682.237348823233, -37239.32501546443, 0.048, 0.84, -0.514, 192.0, 0.0, 0.0, 0.0, 0.0, 0.0, 0.0, 0.0, 0.0, 0.0, 1.741026105635778E9, 0.0, 2025-03-03 12:21:45.635
101.0, -19797.074174532198, 6644.145446317845, -23565.80180714152, -10894.575523683492, -187500.02235174447, -17505.998016118767, -22683.01965987917, -37251.37260572584, 0.046, 0.836, -0.508, 192.0, 1.0, 112.0, 26.0, 32.0, 240.0, 32.0, 0.0, 0.0, 0.0, 1.741026105635788E9, 0.0, 2025-03-03 12:21:45.635
102.0, -19751.700133287923, 6737.061648018557, -23559.766836138588, -10890.149878281341, -187500.02235174447, -17500.298321282666, -22684.96426164678, -37261.967332597655, 0.046, 0.836, -0.508, 192.0, 0.0, 0.0, 0.0, 0.0, 0.0, 0.0, 0.0, 0.0, 0.0, 1.741026105635801E9, 0.0, 2025-03-03 12:21:45.635
103.0, -19773.42602889848, 6726.735142080205, -23567.768760653587, -10900.96812259771, -187500.02235174447, -17508.680225453405, -22692.608558250497, -37277.88177464983, 0.046, 0.836, -0.508, 192.0, 0.0, 0.0, 0.0, 0.0, 0.0, 0.0, 0.0, 0.0, 0.0, 1.741026105635812E9, 0.0, 2025-03-03 12:21:45.635
104.0, -19816.363729997127, 6641.597347449941, -23570.47332173268, -10905.796099400057, -187500.02235174447, -17512.27885631071, -22688.831113437547, -37266.70590242218, 0.046, 0.836, -0.508, 192.0, 0.0, 0.0, 0.0, 0.0, 0.0, 0.0, 0.0, 0.0, 0.0, 1.741026105635823E9, 0.0, 2025-03-03 12:21:45.635
105.0, -19811.91573285052, 6639.496283471141, -23562.09141756194, -10893.055605060532, -187500.02235174447, -17509.708405698348, -22683.913729657383, -37264.984818099125, 0.046, 0.836, -0.508, 192.0, 0.0, 0.0, 0.0, 0.0, 0.0, 0.0, 0.0, 0.0, 0.0, 1.741026105695995E9, 0.0, 2025-03-03 12:21:45.695
106.0, -19750.359028620605, 6725.148168223878, -23558.246917515626, -10893.212067271717, -187500.02235174447, -17511.85417316606, -22688.071154126068, -37258.88279186282, 0.046, 0.836, -0.508, 192.0, 0.0, 0.0, 0.0, 0.0, 0.0, 0.0, 0.0, 0.0, 0.0, 1.741026105696011E9, 0.0, 2025-03-03 12:21:45.696
107.0, -19769.58152885217, 6753.311366237565, -23571.233281044162, -10905.416119744315, -187500.02235174447, -17517.330350557608, -22694.195532106824, -37260.06743431895, 0.046, 0.836, -0.508, 192.0, 0.0, 0.0, 0.0, 0.0, 0.0, 0.0, 0.0, 0.0, 0.0, 1.741026105696031E9, 0.0, 2025-03-03 12:21:45.696
108.0, -19807.95947408193, 6671.74985072015, -23572.6637926893, -10914.334465781983, -187500.02235174447, -17512.994112133278, -22683.511398257186, -37259.95567559668, 0.046, 0.836, -0.508, 192.0, 0.0, 0.0, 0.0, 0.0, 0.0, 0.0, 0.0, 0.0, 0.0, 1.741026105696042E9, 0.0, 2025-03-03 12:21:45.696
109.0, -19798.54938966625, 6644.50307422913, -23559.543318694035, -10880.58333165447, -187500.02235174447, -17495.380937502498, -22680.73978194473, -37258.16753604025, 0.046, 0.836, -0.508, 192.0, 0.0, 0.0, 0.0, 0.0, 0.0, 0.0, 0.0, 0.0, 0.0, 1.741026105696053E9, 0.0, 2025-03-03 12:21:45.696
110.0, -19761.7137148039, 6696.873211487915, -23567.746408909134, -10883.042023544553, -187500.02235174447, -17497.66081543694, -22691.96035766129, -37270.12571932384, 0.046, 0.836, -0.508, 192.0, 0.0, 0.0, 0.0, 0.0, 0.0, 0.0, 0.0, 0.0, 0.0, 1.741026105696063E9, 0.0, 2025-03-03 12:21:45.696
111.0, -19767.569871851192, 6742.403714943375, -23576.932975880263, -10890.686320148268, -187500.02235174447, -17500.61124570504, -22690.59690124952, -37282.597992729905, 0.042, 0.842, -0.51, 192.0, 1.0, 80.0, 26.0, 80.0, 240.0, 16.0, 0.0, 0.0, 0.0, 1.741026105696074E9, 0.0, 2025-03-03 12:21:45.696
112.0, -19814.061500318232, 6664.239664583167, -23571.792074655543, -10895.022558572598, -187500.02235174447, -17497.75022241476, -22676.76117143168, -37268.44933848969, 0.042, 0.842, -0.51, 192.0, 0.0, 0.0, 0.0, 0.0, 0.0, 0.0, 0.0, 0.0, 0.0, 1.741026105696086E9, 0.0, 2025-03-03 12:21:45.696
113.0, -19784.892473804055, 6637.126998558879, -23562.80667338451, -10878.929302564777, -187500.02235174447, -17491.22351303381, -22671.26264229568, -37256.75937613957, 0.042, 0.842, -0.51, 192.0, 0.0, 0.0, 0.0, 0.0, 0.0, 0.0, 0.0, 0.0, 0.0, 1.741026105696096E9, 0.0, 2025-03-03 12:21:45.696
114.0, -19744.636982040047, 6689.050100928557, -23562.94078385124, -10872.424944928283, -187500.02235174447, -17485.74733564226, -22674.458941752786, -37246.32111147894, 0.042, 0.842, -0.51, 192.0, 0.0, 0.0, 0.0, 0.0, 0.0, 0.0, 0.0, 0.0, 0.0, 1.741026105696107E9, 0.0, 2025-03-03 12:21:45.696
115.0, -19743.76526400629, 6746.00234580068, -23574.80956015701, -10888.741718380657, -187500.02235174447, -17498.3313677706, -22690.59690124952, -37257.51933545105, 0.042, 0.842, -0.51, 192.0, 0.0, 0.0, 0.0, 0.0, 0.0, 0.0, 0.0, 0.0, 0.0, 1.741026105696121E9, 0.0, 2025-03-03 12:21:45.696
116.0, -19785.697136604445, 6666.586597750974, -23569.400437998826, -10892.474459704694, -187500.02235174447, -17502.42173700592, -22685.500703513706, -37259.732158152125, 0.042, 0.842, -0.51, 192.0, 0.0, 0.0, 0.0, 0.0, 0.0, 0.0, 0.0, 0.0, 0.0, 1.741026105696132E9, 0.0, 2025-03-03 12:21:45.696
117.0, -19793.184970996976, 6621.9948675626365, -23567.701705420222, -10885.523067179092, -187500.02235174447, -17492.050527578656, -22687.91469191488, -37244.488268433604, 0.042, 0.842, -0.51, 192.0, 0.0, 0.0, 0.0, 0.0, 0.0, 0.0, 0.0, 0.0, 0.0, 1.741026105696142E9, 0.0, 2025-03-03 12:21:45.696
118.0, -19774.275395187786, 6668.441792540764, -23569.95923161021, -10885.321901478996, -187500.02235174447, -17489.88240836649, -22696.78833446364, -37241.60489339887, 0.042, 0.842, -0.51, 192.0, 0.0, 0.0, 0.0, 0.0, 0.0, 0.0, 0.0, 0.0, 0.0, 1.741026105696153E9, 0.0, 2025-03-03 12:21:45.696
119.0, -19745.15107216252, 6737.687496863306, -23563.454873973715, -10882.416174699805, -187500.02235174447, -17491.51408571173, -22698.57647402006, -37242.744832366094, 0.042, 0.842, -0.51, 192.0, 0.0, 0.0, 0.0, 0.0, 0.0, 0.0, 0.0, 0.0, 0.0, 1.741026105696164E9, 0.0, 2025-03-03 12:21:45.696
120.0, -19788.20053198344, 6687.686644516783, -23564.818330385486, -10883.287892733562, -187500.02235174447, -17488.384841487987, -22692.854427439503, -37251.10438479238, 0.042, 0.842, -0.51, 192.0, 0.0, 0.0, 0.0, 0.0, 0.0, 0.0, 0.0, 0.0, 0.0, 1.741026105756225E9, 0.0, 2025-03-03 12:21:45.756
121.0, -19829.864183648133, 6618.820919849983, -23572.306164778016, -10887.91470383581, -187500.02235174447, -17497.21378054783, -22702.175104877366, -37259.866268618855, 0.044, 0.844, -0.514, 192.0, 1.0, 96.0, 26.0, 96.0, 239.0, 240.0, 0.0, 0.0, 0.0, 1.741026105756247E9, 0.0, 2025-03-03 12:21:45.756
122.0, -19778.611633612112, 6633.774236890583, -23559.6103739274, -10872.58140713947, -187500.02235174447, -17483.914492596923, -22705.997253179223, -37242.387204454804, 0.044, 0.844, -0.514, 192.0, 0.0, 0.0, 0.0, 0.0, 0.0, 0.0, 0.0, 0.0, 0.0, 1.74102610575627E9, 0.0, 2025-03-03 12:21:45.756
123.0, -19729.415444065984, 6719.470825132231, -23571.27798453307, -10886.551247424037, -187500.02235174447, -17502.153516072456, -22709.171200891877, -37270.081015834934, 0.044, 0.844, -0.514, 192.0, 0.0, 0.0, 0.0, 0.0, 0.0, 0.0, 0.0, 0.0, 0.0, 1.74102610575628E9, 0.0, 2025-03-03 12:21:45.756
124.0, -19776.35410742213, 6694.414519597831, -23584.28669980606, -10895.313131250517, -187500.02235174447, -17512.07769061061, -22710.624064281474, -37283.98380088613, 0.044, 0.844, -0.514, 192.0, 0.0, 0.0, 0.0, 0.0, 0.0, 0.0, 0.0, 0.0, 0.0, 1.741026105756291E9, 0.0, 2025-03-03 12:21:45.756
125.0, -19811.87102936161, 6616.205765748712, -23587.170074840793, -10905.661988933325, -187500.02235174447, -17507.540286486183, -22707.137192146445, -37277.36768452736, 0.044, 0.844, -0.514, 192.0, 0.0, 0.0, 0.0, 0.0, 0.0, 0.0, 0.0, 0.0, 0.0, 1.741026105756302E9, 0.0, 2025-03-03 12:21:45.756
126.0, -19784.423087170493, 6619.871451839382, -23575.211891557206, -10890.73102363718, -187500.02235174447, -17501.684129438894, -22693.279110584153, -37262.682588420226, 0.044, 0.844, -0.514, 192.0, 0.0, 0.0, 0.0, 0.0, 0.0, 0.0, 0.0, 0.0, 0.0, 1.741026105756315E9, 0.0, 2025-03-03 12:21:45.756
127.0, -19737.28325811425, 6712.295915162077, -23568.171092053784, -10882.796154355545, -187500.02235174447, -17497.03496659219, -22692.854427439503, -37249.85268710288, 0.044, 0.844, -0.514, 192.0, 0.0, 0.0, 0.0, 0.0, 0.0, 0.0, 0.0, 0.0, 0.0, 1.741026105756325E9, 0.0, 2025-03-03 12:21:45.756
128.0, -19771.906110275522, 6706.1715371813225, -23570.450969988226, -10884.15961076732, -187500.02235174447, -17490.396498488964, -22685.992441891725, -37238.29683521949, 0.044, 0.844, -0.514, 192.0, 0.0, 0.0, 0.0, 0.0, 0.0, 0.0, 0.0, 0.0, 0.0, 1.741026105756336E9, 0.0, 2025-03-03 12:21:45.756
