%OpenBCI Raw EXG Data
%Number of channels = 8
%Sample Rate = 250 Hz
%Board = OpenBCI_GUI$BoardCytonSerial
Sample Index, EXG Channel 0, EXG Channel 1, EXG Channel 2, EXG Channel 3, EXG Channel 4, EXG Channel 5, EXG Channel 6, EXG Channel 7, Accel Channel 0, Accel Channel 1, Accel Channel 2, Not Used, Digital Channel 0 (D11), Digital Channel 1 (D12), Digital Channel 2 (D13), Digital Channel 3 (D17), Not Used, Digital Channel 4 (D18), Analog Channel 0, Analog Channel 1, Analog Channel 2, Timestamp, Marker Channel, Timestamp (Formatted)
27.0, -18873.12011398317, 6046.638613538577, -23422.59418041637, -11349.701744282454, -187500.02235174447, -17800.728118506446, -22833.357493085565, -37251.23849525911, 0.0, 0.0, 0.0, 192.0, 0.0, 0.0, 0.0, 0.0, 0.0, 0.0, 0.0, 0.0, 0.0, 1.74102615734507E9, 0.0, 2025-03-03 12:22:37.345
28.0, -18823.365130825656, 6122.4110272420685, -23409.451354676647, -11344.33732561318, -187500.02235174447, -17797.509467304884, -22831.971684929336, -37247.25988474606, 0.0, 0.0, 0.0, 192.0, 0.0, 0.0, 0.0, 0.0, 0.0, 0.0, 0.0, 0.0, 0.0, 1.741026157345108E9, 0.0, 2025-03-03 12:22:37.345
29.0, -18841.246526389903, 6133.184568069526, -23413.854648334345, -11355.15556992955, -187500.02235174447, -17800.772821995357, -22829.42358606143, -37235.88284681831, 0.0, 0.0, 0.0, 192.0, 0.0, 0.0, 0.0, 0.0, 0.0, 0.0, 0.0, 0.0, 0.0, 1.741026157345154E9, 0.0, 2025-03-03 12:22:37.345
30.0, -18891.40384094761, 6043.934052459485, -23418.615569903322, -11369.617148592133, -187500.02235174447, -17801.868057473668, -22827.166059871444, -37229.64671011528, 0.0, 0.0, 0.0, 192.0, 0.0, 0.0, 0.0, 0.0, 0.0, 0.0, 0.0, 0.0, 0.0, 1.741026157345177E9, 0.0, 2025-03-03 12:22:37.345
31.0, -18860.558433599286, 6035.172168633005, -23407.90908430923, -11350.5287588273, -187500.02235174447, -17794.871961459157, -22820.147612112476, -37219.543721621485, 0.01, 0.866, -0.49, 192.0, 0.0, 80.0, 27.0, 16.0, 240.0, 176.0, 0.0, 0.0, 0.0, 1.741026157345208E9, 0.0, 2025-03-03 12:22:37.345
32.0, -18825.130918637624, 6114.185585282516, -23404.086936007374, -11345.209043646937, -187500.02235174447, -17795.430755070538, -22823.433318547406, -37220.50484663306, 0.01, 0.866, -0.49, 192.0, 0.0, 0.0, 0.0, 0.0, 0.0, 0.0, 0.0, 0.0, 0.0, 1.741026157345235E9, 0.0, 2025-03-03 12:22:37.345
33.0, -18833.28930536381, 6148.316699065769, -23404.91395055222, -11349.366468115624, -187500.02235174447, -17801.398670840106, -22829.71415873935, -37224.72932633512, 0.01, 0.866, -0.49, 192.0, 0.0, 0.0, 0.0, 0.0, 0.0, 0.0, 0.0, 0.0, 0.0, 1.741026157345258E9, 0.0, 2025-03-03 12:22:37.345
34.0, -18886.97819554546, 6058.462686355435, -23410.25601747704, -11349.09824718216, -187500.02235174447, -17799.029385927843, -22831.524650040228, -37233.20063748368, 0.01, 0.866, -0.49, 192.0, 0.0, 0.0, 0.0, 0.0, 0.0, 0.0, 0.0, 0.0, 0.0, 1.741026157345281E9, 0.0, 2025-03-03 12:22:37.345
35.0, -18862.63714583363, 6042.168264647516, -23405.42804067469, -11346.661907036532, -187500.02235174447, -17792.077993402243, -22829.647103505984, -37224.17053272373, 0.01, 0.866, -0.49, 192.0, 0.0, 0.0, 0.0, 0.0, 0.0, 0.0, 0.0, 0.0, 0.0, 1.741026157345322E9, 0.0, 2025-03-03 12:22:37.345
36.0, -18829.78008148433, 6110.3187334917475, -23396.464991148114, -11344.985526202385, -187500.02235174447, -17792.122696891154, -22831.010559917755, -37227.21036996965, 0.01, 0.866, -0.49, 192.0, 0.0, 0.0, 0.0, 0.0, 0.0, 0.0, 0.0, 0.0, 0.0, 1.741026157345347E9, 0.0, 2025-03-03 12:22:37.345
37.0, -18840.53127056733, 6165.482838807445, -23398.566055126914, -11345.097284924661, -187500.02235174447, -17784.18782760952, -22825.46732729284, -37220.34838442187, 0.01, 0.866, -0.49, 192.0, 0.0, 0.0, 0.0, 0.0, 0.0, 0.0, 0.0, 0.0, 0.0, 1.741026157345382E9, 0.0, 2025-03-03 12:22:37.345
38.0, -18852.310639895277, 6090.470384415435, -23398.387241171273, -11344.382029102091, -187500.02235174447, -17782.109115375177, -22819.85703943456, -37216.235663442094, 0.01, 0.866, -0.49, 192.0, 0.0, 0.0, 0.0, 0.0, 0.0, 0.0, 0.0, 0.0, 0.0, 1.741026157345398E9, 0.0, 2025-03-03 12:22:37.345
39.0, -18867.800398802807, 6048.940843217474, -23414.704014623647, -11357.167226930527, -187500.02235174447, -17794.112002147675, -22839.884202466514, -37240.2414369871, 0.01, 0.866, -0.49, 192.0, 0.0, 0.0, 0.0, 0.0, 0.0, 0.0, 0.0, 0.0, 0.0, 1.741026157345414E9, 0.0, 2025-03-03 12:22:37.345
40.0, -18848.86847124916, 6089.755128592865, -23423.890581594776, -11370.5335701148, -187500.02235174447, -17811.52401107836, -22860.179586431932, -37280.34046653992, 0.01, 0.866, -0.49, 192.0, 0.0, 0.0, 0.0, 0.0, 0.0, 0.0, 0.0, 0.0, 0.0, 1.74102615734543E9, 0.0, 2025-03-03 12:22:37.345
41.0, -18828.97541868394, 6160.453696305, -23408.892561065266, -11352.071029194716, -187500.02235174447, -17784.254882842884, -22838.163118143453, -37243.169515510745, 0.01, 0.872, -0.488, 192.0, 0.0, 80.0, 27.0, 64.0, 240.0, 192.0, 0.0, 0.0, 0.0, 1.741026157345447E9, 0.0, 2025-03-03 12:22:37.345
42.0, -18865.11818946817, 6091.0068262823615, -23405.49509590806, -11345.544319813767, -187500.02235174447, -17767.021687867844, -22825.288513337196, -37227.567997880935, 0.01, 0.872, -0.488, 192.0, 0.0, 0.0, 0.0, 0.0, 0.0, 0.0, 0.0, 0.0, 0.0, 1.741026157345471E9, 0.0, 2025-03-03 12:22:37.345
43.0, -18870.415552904076, 6037.317936100714, -23406.456220919637, -11346.617203547621, -187500.02235174447, -17782.04206014181, -22826.42845230442, -37240.2414369871, 0.01, 0.872, -0.488, 192.0, 0.0, 0.0, 0.0, 0.0, 0.0, 0.0, 0.0, 0.0, 0.0, 1.741026157345492E9, 0.0, 2025-03-03 12:22:37.345
44.0, -18865.520520868366, 6061.4801718569015, -23414.391090201272, -11358.307165897748, -187500.02235174447, -17789.395784067605, -22838.833670477114, -37223.49998039007, 0.01, 0.872, -0.488, 192.0, 0.0, 0.0, 0.0, 0.0, 0.0, 0.0, 0.0, 0.0, 0.0, 1.741026157345511E9, 0.0, 2025-03-03 12:22:37.345
0.0, 0.0, 0.0, 0.0, 0.0, 0.0, 0.0, 0.0, 0.0, 0.01, 0.872, -0.488, 192.0, 0.0, 0.0, 0.0, 0.0, 0.0, 0.0, 0.0, 0.0, 0.0, 1.741026157432337E9, 0.0, 2025-03-03 12:22:37.432
1.0, -21442.52019435408, -1772.7168527504032, -25915.886570916962, -10434.598974537728, -187500.02235174447, -17325.731197086716, -24558.353371423887, -30871.268316658538, 0.004, 0.906, -0.43, 192.0, 0.0, 32.0, 28.0, 80.0, 242.0, 144.0, 0.0, 0.0, 0.0, 1.741026157494878E9, 0.0, 2025-03-03 12:22:37.494
2.0, -21261.292250310453, -1634.0242784052227, -25932.806841469628, -10410.39203529263, -187500.02235174447, -17317.595162104986, -24588.505874694096, -30968.431349805756, 0.004, 0.906, -0.43, 192.0, 0.0, 0.0, 0.0, 0.0, 0.0, 0.0, 0.0, 0.0, 0.0, 1.74102615749494E9, 0.0, 2025-03-03 12:22:37.494
3.0, -21219.986226557045, -1629.6880399808933, -25945.837908487072, -10384.553418702295, -187500.02235174447, -17320.612647606453, -24620.64768322083, -31053.01035082464, 0.004, 0.906, -0.43, 192.0, 0.0, 0.0, 0.0, 0.0, 0.0, 0.0, 0.0, 0.0, 0.0, 1.741026157494957E9, 0.0, 2025-03-03 12:22:37.494
4.0, -21226.62469466027, -1621.0379148766895, -25937.99244618326, -10337.659458835062, -187500.02235174447, -17322.892525540894, -24639.9148869413, -31137.87992452144, 0.004, 0.906, -0.43, 192.0, 0.0, 0.0, 0.0, 0.0, 0.0, 0.0, 0.0, 0.0, 0.0, 1.741026157494973E9, 0.0, 2025-03-03 12:22:37.494
5.0, -21152.66277225766, -1528.993431209735, -25936.56193453812, -10324.248412161876, -187500.02235174447, -17320.031502250615, -24680.371544405407, -31223.84473369655, 0.004, 0.906, -0.43, 192.0, 0.0, 0.0, 0.0, 0.0, 0.0, 0.0, 0.0, 0.0, 0.0, 1.74102615749499E9, 0.0, 2025-03-03 12:22:37.494
6.0, -21021.659198005105, -1380.1308131373899, -25933.5220972922, -10294.900571692058, -187500.02235174447, -17328.72633084373, -24708.64650114137, -31299.751257866774, 0.004, 0.906, -0.43, 192.0, 0.0, 0.0, 0.0, 0.0, 0.0, 0.0, 0.0, 0.0, 0.0, 1.741026157495006E9, 0.0, 2025-03-03 12:22:37.495
7.0, -21020.563962526794, -1348.4583912442197, -25939.89234446196, -10284.88699017608, -187500.02235174447, -17348.23940375321, -24739.111928833954, -31372.953220957905, 0.004, 0.906, -0.43, 192.0, 0.0, 0.0, 0.0, 0.0, 0.0, 0.0, 0.0, 0.0, 0.0, 1.741026157495028E9, 0.0, 2025-03-03 12:22:37.495
8.0, -21044.435625605063, -1331.068734057991, -25927.777698967184, -10265.373917266597, -187500.02235174447, -17348.597031664496, -24759.452016288284, -31444.210582281423, 0.024, 0.91, -0.392, 192.0, 0.0, 192.0, 28.0, 112.0, 243.0, 192.0, 0.0, 0.0, 0.0, 1.741026157495044E9, 0.0, 2025-03-03 12:22:37.495
9.0, -20986.745773165916, -1228.0271921190254, -25907.281149301667, -10232.673315128484, -187500.02235174447, -17341.53388041662, -24772.483083305728, -31493.585585783196, 0.024, 0.91, -0.392, 192.0, 0.0, 0.0, 0.0, 0.0, 0.0, 0.0, 0.0, 0.0, 0.0, 1.741026157495062E9, 0.0, 2025-03-03 12:22:37.495
10.0, -20896.914112200036, -1079.0528153244038, -25901.581454465566, -10206.521774115774, -187500.02235174447, -17332.883755312414, -24804.17785694335, -31563.9488773285, 0.024, 0.91, -0.392, 192.0, 0.0, 0.0, 0.0, 0.0, 0.0, 0.0, 0.0, 0.0, 0.0, 1.741026157495077E9, 0.0, 2025-03-03 12:22:37.495
11.0, -20895.774173232818, -1033.3434979133008, -25889.332698504055, -10191.523753586263, -187500.02235174447, -17326.84878430948, -24823.556819386104, -31634.35687236272, 0.024, 0.91, -0.392, 192.0, 0.0, 0.0, 0.0, 0.0, 0.0, 0.0, 0.0, 0.0, 0.0, 1.741026157495093E9, 0.0, 2025-03-03 12:22:37.495
12.0, -20945.52915639033, -1039.8478555497952, -25881.08490480005, -10158.420820047953, -187500.02235174447, -17337.37645594793, -24848.054331309122, -31710.151637810664, 0.024, 0.91, -0.392, 192.0, 0.0, 0.0, 0.0, 0.0, 0.0, 0.0, 0.0, 0.0, 0.0, 1.741026157495113E9, 0.0, 2025-03-03 12:22:37.495
13.0, -20920.539906089296, -949.9714910950055, -25868.031486038148, -10132.135168568513, -187500.02235174447, -17331.721464600738, -24868.796750163645, -31796.71994408607, 0.024, 0.91, -0.392, 192.0, 0.0, 0.0, 0.0, 0.0, 0.0, 0.0, 0.0, 0.0, 0.0, 1.741026157495135E9, 0.0, 2025-03-03 12:22:37.495
14.0, -20830.484727678864, -790.5588496397555, -25864.566965647577, -10129.274145278234, -187500.02235174447, -17342.85263333948, -24894.322442331606, -31897.146331923766, 0.024, 0.91, -0.392, 192.0, 0.0, 0.0, 0.0, 0.0, 0.0, 0.0, 0.0, 0.0, 0.0, 1.741026157495152E9, 0.0, 2025-03-03 12:22:37.495
15.0, -20822.527506652776, -707.1868428214601, -25868.702038371808, -10098.182868740902, -187500.02235174447, -17336.661200125363, -24910.236884383787, -31888.16093065273, 0.024, 0.91, -0.392, 192.0, 0.0, 0.0, 0.0, 0.0, 0.0, 0.0, 0.0, 0.0, 0.0, 1.741026157495171E9, 0.0, 2025-03-03 12:22:37.495
16.0, -20866.024001362803, -709.4220172669909, -25861.12479700146, -10071.2266649278, -187500.02235174447, -17334.269563468642, -24921.12218393352, -31938.340596954895, 0.024, 0.91, -0.392, 192.0, 0.0, 0.0, 0.0, 0.0, 0.0, 0.0, 0.0, 0.0, 0.0, 1.741026157555187E9, 0.0, 2025-03-03 12:22:37.555
17.0, -20843.404035974032, -662.0810225106505, -25849.948924773806, -10050.41719083991, -187500.02235174447, -17316.3881679044, -24936.477832374316, -31984.18402483273, 0.024, 0.91, -0.392, 192.0, 0.0, 0.0, 0.0, 0.0, 0.0, 0.0, 0.0, 0.0, 0.0, 1.741026157555229E9, 0.0, 2025-03-03 12:22:37.555
18.0, -20765.932889691936, -515.3641719060149, -25847.669046839364, -10041.476493057788, -187500.02235174447, -17308.60976083395, -24953.241640715798, -32049.898153531332, 0.032, 0.908, -0.382, 192.0, 1.0, 0.0, 28.0, 96.0, 244.0, 16.0, 0.0, 0.0, 0.0, 1.741026157555245E9, 0.0, 2025-03-03 12:22:37.555
19.0, -20721.989360092804, -384.60646684246865, -25851.78176781914, -10017.470719512787, -187500.02235174447, -17313.14716495838, -24966.451521688883, -32131.526724282114, 0.032, 0.908, -0.382, 192.0, 0.0, 0.0, 0.0, 0.0, 0.0, 0.0, 0.0, 0.0, 0.0, 1.741026157555263E9, 0.0, 2025-03-03 12:22:37.555
20.0, -20798.767602296783, -422.4926736942141, -25867.986782549237, -10007.188917063346, -187500.02235174447, -17320.076205739522, -24994.52531272475, -32189.775370332645, 0.032, 0.908, -0.382, 192.0, 0.0, 0.0, 0.0, 0.0, 0.0, 0.0, 0.0, 0.0, 0.0, 1.741026157555279E9, 0.0, 2025-03-03 12:22:37.555
21.0, -20782.607291055596, -390.68614133431214, -25879.944965832827, -10006.205440307313, -187500.02235174447, -17344.260793240166, -25033.283237610252, -32301.601147842546, 0.032, 0.908, -0.382, 192.0, 0.0, 0.0, 0.0, 0.0, 0.0, 0.0, 0.0, 0.0, 0.0, 1.741026157555295E9, 0.0, 2025-03-03 12:22:37.555
22.0, -20692.216836478336, -257.6485583363245, -25872.83711109604, -9986.960588331292, -187500.02235174447, -17322.244324951687, -25029.349330586116, -32241.47495525777, 0.032, 0.908, -0.382, 192.0, 0.0, 0.0, 0.0, 0.0, 0.0, 0.0, 0.0, 0.0, 0.0, 1.741026157555313E9, 0.0, 2025-03-03 12:22:37.555
23.0, -20616.89145766395, -132.3223271754178, -25885.756419391208, -9973.504838169198, -187500.02235174447, -17322.9372290298, -25059.52418560078, -32284.367952867506, 0.032, 0.908, -0.382, 192.0, 0.0, 0.0, 0.0, 0.0, 0.0, 0.0, 0.0, 0.0, 0.0, 1.741026157555334E9, 0.0, 2025-03-03 12:22:37.555
24.0, -20676.011821748238, -144.5934348813814, -25909.628082469477, -9997.063576825092, -187500.02235174447, -17344.216089751255, -25083.708773101425, -32360.296828782182, 0.032, 0.908, -0.382, 192.0, 0.0, 0.0, 0.0, 0.0, 0.0, 0.0, 0.0, 0.0, 0.0, 1.74102615755535E9, 0.0, 2025-03-03 12:22:37.555
25.0, -20710.969950076338, -137.93261503369988, -25914.389004038454, -9987.497030198221, -187500.02235174447, -17338.38228444842, -25108.139229791075, -32414.633919553035, 0.032, 0.908, -0.382, 192.0, 0.0, 0.0, 0.0, 0.0, 0.0, 0.0, 0.0, 0.0, 0.0, 1.741026157555366E9, 0.0, 2025-03-03 12:22:37.555
26.0, -20658.599812817552, -22.888186322234432, -25921.899190175438, -9975.851771337006, -187500.02235174447, -17331.18502273381, -25132.569686480725, -32471.362646980604, 0.032, 0.908, -0.382, 192.0, 0.0, 0.0, 0.0, 0.0, 0.0, 0.0, 0.0, 0.0, 0.0, 1.741026157555382E9, 0.0, 2025-03-03 12:22:37.555
27.0, -20595.63494868695, 106.23784139607447, -25928.291789089657, -9981.774983617663, -187500.02235174447, -17341.10919727197, -25143.611448241645, -32523.039880161272, 0.032, 0.908, -0.382, 192.0, 0.0, 0.0, 0.0, 0.0, 0.0, 0.0, 0.0, 0.0, 0.0, 1.741026157555402E9, 0.0, 2025-03-03 12:22:37.555
28.0, -20652.14015866997, 97.92299245870024, -25940.875821217993, -9981.104431284002, -187500.02235174447, -17343.210261250766, -25146.472471531924, -32565.418787648534, 0.04, 0.89, -0.382, 192.0, 1.0, 64.0, 27.0, 208.0, 244.0, 16.0, 0.0, 0.0, 0.0, 1.741026157555421E9, 0.0, 2025-03-03 12:22:37.555
29.0, -20688.260577709745, 101.72278901610244, -25945.18970789787, -9976.49997192621, -187500.02235174447, -17337.37645594793, -25142.44915752997, -32601.36039273267, 0.04, 0.89, -0.382, 192.0, 0.0, 0.0, 0.0, 0.0, 0.0, 0.0, 0.0, 0.0, 0.0, 1.741026157555439E9, 0.0, 2025-03-03 12:22:37.555
30.0, -20615.706815207817, 193.85667966087814, -25962.24408891727, -9976.723489370763, -187500.02235174447, -17336.392979191896, -25160.062332160753, -32648.880201444652, 0.04, 0.89, -0.382, 192.0, 0.0, 0.0, 0.0, 0.0, 0.0, 0.0, 0.0, 0.0, 0.0, 1.74102615755546E9, 0.0, 2025-03-03 12:22:37.555
31.0, -20544.11417771747, 313.12558807439666, -25975.85630129055, -9961.703117096797, -187500.02235174447, -17337.465862925754, -25169.494768320892, -32696.847045045743, 0.04, 0.89, -0.382, 192.0, 0.0, 0.0, 0.0, 0.0, 0.0, 0.0, 0.0, 0.0, 0.0, 1.741026157615512E9, 0.0, 2025-03-03 12:22:37.615
32.0, -20580.01107931269, 311.8515386404441, -25997.00105154527, -9956.83043680554, -187500.02235174447, -17327.072301754037, -25180.55888182627, -32733.883885608186, 0.04, 0.89, -0.382, 192.0, 0.0, 0.0, 0.0, 0.0, 0.0, 0.0, 0.0, 0.0, 0.0, 1.74102615761557E9, 0.0, 2025-03-03 12:22:37.615
33.0, -20642.70772250983, 294.14895703184095, -26004.041851048692, -9945.185177944324, -187500.02235174447, -17319.00332200567, -25184.112809194663, -32773.96056341655, 0.04, 0.89, -0.382, 192.0, 0.0, 0.0, 0.0, 0.0, 0.0, 0.0, 0.0, 0.0, 0.0, 1.741026157615587E9, 0.0, 2025-03-03 12:22:37.615
34.0, -20601.580512712066, 364.73576602170067, -25995.212911988845, -9921.626439288431, -187500.02235174447, -17325.0382930086, -25185.386858628615, -32805.185950420615, 0.04, 0.89, -0.382, 192.0, 0.0, 0.0, 0.0, 0.0, 0.0, 0.0, 0.0, 0.0, 0.0, 1.741026157615603E9, 0.0, 2025-03-03 12:22:37.615
35.0, -20513.179363391326, 491.9618954613085, -25990.56374914214, -9912.417520572844, -187500.02235174447, -17313.795365547583, -25189.41017263057, -32837.484221158535, 0.04, 0.89, -0.382, 192.0, 0.0, 0.0, 0.0, 0.0, 0.0, 0.0, 0.0, 0.0, 0.0, 1.74102615761562E9, 0.0, 2025-03-03 12:22:37.615
36.0, -20543.085997472524, 511.31850615960434, -26000.443220191388, -9903.096843134981, -187500.02235174447, -17308.877981767415, -25185.69978305099, -32874.85633788781, 0.04, 0.89, -0.382, 192.0, 0.0, 0.0, 0.0, 0.0, 0.0, 0.0, 0.0, 0.0, 0.0, 1.741026157615635E9, 0.0, 2025-03-03 12:22:37.615
37.0, -20599.680614433364, 460.93767415734226, -26001.806676603162, -9894.916104664338, -187500.02235174447, -17306.598103832974, -25206.978643772443, -32908.56276852641, 0.04, 0.89, -0.382, 192.0, 0.0, 0.0, 0.0, 0.0, 0.0, 0.0, 0.0, 0.0, 0.0, 1.741026157615651E9, 0.0, 2025-03-03 12:22:37.615
38.0, -20565.39303843892, 521.4438463978585, -26005.517066182743, -9897.598313998975, -187500.02235174447, -17327.29581919859, -25232.19141151803, -32960.24000170708, 0.052000000000000005, 0.9, -0.38, 192.0, 1.0, 160.0, 28.0, 32.0, 244.0, 32.0, 0.0, 0.0, 0.0, 1.741026157615672E9, 0.0, 2025-03-03 12:22:37.615
39.0, -20477.86360715194, 653.4979526398126, -26011.082650552115, -9890.289293562091, -187500.02235174447, -17332.57083089004, -25260.265202553896, -33006.86574064085, 0.052000000000000005, 0.9, -0.38, 192.0, 0.0, 0.0, 0.0, 0.0, 0.0, 0.0, 0.0, 0.0, 0.0, 1.74102615761569E9, 0.0, 2025-03-03 12:22:37.615
40.0, -20474.913176883838, 694.8933833710413, -26010.926188340927, -9869.166895051825, -187500.02235174447, -17332.01203727866, -25263.8638334112, -33045.22133412616, 0.052000000000000005, 0.9, -0.38, 192.0, 0.0, 0.0, 0.0, 0.0, 0.0, 0.0, 0.0, 0.0, 0.0, 1.74102615761571E9, 0.0, 2025-03-03 12:22:37.615
41.0, -20550.953811520794, 628.7992750166983, -26018.615188433552, -9869.166895051825, -187500.02235174447, -17319.3385981725, -25267.685981713057, -33053.26796213007, 0.052000000000000005, 0.9, -0.38, 192.0, 0.0, 0.0, 0.0, 0.0, 0.0, 0.0, 0.0, 0.0, 0.0, 1.741026157615726E9, 0.0, 2025-03-03 12:22:37.615
42.0, -20539.196793937303, 669.1888772474382, -26030.34985427259, -9867.33405200649, -187500.02235174447, -17319.22683945022, -25286.215577866507, -33097.770285340586, 0.052000000000000005, 0.9, -0.38, 192.0, 0.0, 0.0, 0.0, 0.0, 0.0, 0.0, 0.0, 0.0, 0.0, 1.741026157615742E9, 0.0, 2025-03-03 12:22:37.615
43.0, -20444.00071430215, 798.7395881103979, -26026.05831933717, -9850.436133198278, -187500.02235174447, -17319.942095272792, -25296.206807638027, -33128.50393396663, 0.052000000000000005, 0.9, -0.38, 192.0, 0.0, 0.0, 0.0, 0.0, 0.0, 0.0, 0.0, 0.0, 0.0, 1.741026157615762E9, 0.0, 2025-03-03 12:22:37.615
44.0, -20400.66068180331, 881.731615272953, -26030.595723461596, -9832.867662056406, -187500.02235174447, -17311.560191102053, -25287.959013934018, -33157.15887035833, 0.052000000000000005, 0.9, -0.38, 192.0, 0.0, 0.0, 0.0, 0.0, 0.0, 0.0, 0.0, 0.0, 0.0, 1.741026157615781E9, 0.0, 2025-03-03 12:22:37.615
45.0, -20457.434112719788, 831.4848937374227, -26043.112700356567, -9845.42934244029, -187500.02235174447, -17324.85947905296, -25309.05906069983, -33193.65926905385, 0.052000000000000005, 0.9, -0.38, 192.0, 0.0, 0.0, 0.0, 0.0, 0.0, 0.0, 0.0, 0.0, 0.0, 1.741026157615801E9, 0.0, 2025-03-03 12:22:37.615
46.0, -20473.460313494244, 851.1320771136376, -26048.700636470396, -9849.743229120164, -187500.02235174447, -17332.280258212122, -25314.91521774712, -33254.16544129437, 0.052000000000000005, 0.9, -0.38, 192.0, 0.0, 0.0, 0.0, 0.0, 0.0, 0.0, 0.0, 0.0, 0.0, 1.741026157675863E9, 0.0, 2025-03-03 12:22:37.675
47.0, -20417.4691936337, 963.0696133458154, -26040.251677066288, -9808.995998978138, -187500.02235174447, -17318.936266772303, -25305.214560653516, -33293.19158711333, 0.052000000000000005, 0.9, -0.38, 192.0, 0.0, 0.0, 0.0, 0.0, 0.0, 0.0, 0.0, 0.0, 0.0, 1.741026157675891E9, 0.0, 2025-03-03 12:22:37.675
48.0, -20362.34979180691, 1085.3113037718897, -26043.045645123202, -9811.27587691258, -187500.02235174447, -17314.95765625926, -25305.035746697875, -33237.781612608625, 0.07, 0.92, -0.38, 192.0, 2.0, 48.0, 28.0, 192.0, 244.0, 32.0, 0.0, 0.0, 0.0, 1.741026157675925E9, 0.0, 2025-03-03 12:22:37.675
49.0, -20431.550792640544, 1057.7516028584962, -26045.079653868637, -9792.723929014675, -187500.02235174447, -17307.71569105574, -25299.76073500642, -33263.53082222114, 0.07, 0.92, -0.38, 192.0, 0.0, 0.0, 0.0, 0.0, 0.0, 0.0, 0.0, 0.0, 0.0, 1.741026157675942E9, 0.0, 2025-03-03 12:22:37.675
50.0, -20458.81992087602, 1059.785611603929, -26040.877525911037, -9774.976643917162, -187500.02235174447, -17301.479554352707, -25315.38460438068, -33309.32954661007, 0.07, 0.92, -0.38, 192.0, 0.0, 0.0, 0.0, 0.0, 0.0, 0.0, 0.0, 0.0, 0.0, 1.741026157675957E9, 0.0, 2025-03-03 12:22:37.675
51.0, -20403.767574282596, 1168.5715518679085, -26052.947467916903, -9780.832800964452, -187500.02235174447, -17311.828412035517, -25338.54101163638, -33355.91058205492, 0.07, 0.92, -0.38, 192.0, 0.0, 0.0, 0.0, 0.0, 0.0, 0.0, 0.0, 0.0, 0.0, 1.741026157675973E9, 0.0, 2025-03-03 12:22:37.675
52.0, -20333.35957924838, 1303.6207918668738, -26048.097139370104, -9771.22155084867, -187500.02235174447, -17303.80413577606, -25350.275677475416, -33384.386704490986, 0.07, 0.92, -0.38, 192.0, 0.0, 0.0, 0.0, 0.0, 0.0, 0.0, 0.0, 0.0, 0.0, 1.741026157675989E9, 0.0, 2025-03-03 12:22:37.675
53.0, -20381.08055366046, 1285.3817683913433, -26055.40615980699, -9771.825047948963, -187500.02235174447, -17303.62532182042, -25361.16097702515, -33409.688879214395, 0.07, 0.92, -0.38, 192.0, 0.0, 0.0, 0.0, 0.0, 0.0, 0.0, 0.0, 0.0, 0.0, 1.741026157676014E9, 0.0, 2025-03-03 12:22:37.676
54.0, -20416.46336513321, 1269.422622850254, -26048.231249836834, -9757.40817277529, -187500.02235174447, -17303.42415612032, -25374.79554114289, -33460.06971121665, 0.07, 0.92, -0.38, 192.0, 0.0, 0.0, 0.0, 0.0, 0.0, 0.0, 0.0, 0.0, 0.0, 1.741026157676029E9, 0.0, 2025-03-03 12:22:37.676
55.0, -20370.619937255375, 1366.0492141305465, -26031.71331068436, -9735.950498098195, -187500.02235174447, -17294.058775193545, -25374.30380276487, -33456.47108035935, 0.07, 0.92, -0.38, 192.0, 0.0, 0.0, 0.0, 0.0, 0.0, 0.0, 0.0, 0.0, 0.0, 1.741026157676046E9, 0.0, 2025-03-03 12:22:37.676
56.0, -20300.25664571007, 1521.9749834507686, -26018.302264011178, -9734.788207386518, -187500.02235174447, -17301.725423541717, -25386.016116859453, -33502.13569428155, 0.07, 0.92, -0.38, 192.0, 0.0, 0.0, 0.0, 0.0, 0.0, 0.0, 0.0, 0.0, 0.0, 1.741026157676061E9, 0.0, 2025-03-03 12:22:37.676
57.0, -20343.104939830893, 1525.1042276745115, -26008.176923772924, -9716.370369955346, -187500.02235174447, -17303.401804375866, -25398.376631543237, -33527.840200405146, 0.07, 0.92, -0.38, 192.0, 0.0, 0.0, 0.0, 0.0, 0.0, 0.0, 0.0, 0.0, 0.0, 1.741026157676078E9, 0.0, 2025-03-03 12:22:37.676
58.0, -20396.927940479272, 1490.9731138912575, -26001.158476013956, -9739.839701633418, -187500.02235174447, -17324.770072075138, -25417.487373052525, -33563.670046767, 0.064, 0.9540000000000001, -0.384, 192.0, 2.0, 0.0, 29.0, 208.0, 244.0, 0.0, 0.0, 0.0, 0.0, 1.741026157676098E9, 0.0, 2025-03-03 12:22:37.676
59.0, -20363.26621332958, 1552.8650942880029, -25975.61043210154, -9724.327590981435, -187500.02235174447, -17304.117060198434, -25412.12295438325, -33585.64181156657, 0.064, 0.9540000000000001, -0.384, 192.0, 0.0, 0.0, 0.0, 0.0, 0.0, 0.0, 0.0, 0.0, 0.0, 1.741026157676118E9, 0.0, 2025-03-03 12:22:37.676
60.0, -20288.700793826676, 1697.7938053362138, -25965.887423263484, -9723.522928181044, -187500.02235174447, -17305.256999165656, -25420.84013472082, -33617.805971837755, 0.064, 0.9540000000000001, -0.384, 192.0, 0.0, 0.0, 0.0, 0.0, 0.0, 0.0, 0.0, 0.0, 0.0, 1.741026157676134E9, 0.0, 2025-03-03 12:22:37.676
61.0, -20312.01366329356, 1745.7159454483922, -25957.058484203637, -9722.315933980457, -187500.02235174447, -17311.493135868684, -25412.59234101681, -33637.85548661417, 0.064, 0.9540000000000001, -0.384, 192.0, 0.0, 0.0, 0.0, 0.0, 0.0, 0.0, 0.0, 0.0, 0.0, 1.74102615773605E9, 0.0, 2025-03-03 12:22:37.736
62.0, -20372.586890767445, 1716.8151398676803, -25944.38504509748, -9719.11963452335, -187500.02235174447, -17306.53104859961, -25403.18225660113, -33652.205306554475, 0.064, 0.9540000000000001, -0.384, 192.0, 0.0, 0.0, 0.0, 0.0, 0.0, 0.0, 0.0, 0.0, 0.0, 1.741026157736076E9, 0.0, 2025-03-03 12:22:37.736
63.0, -20347.30706778849, 1771.7333759943697, -25947.156661409936, -9727.725056138643, -187500.02235174447, -17317.684569082805, -25415.967454429563, -33677.75335046689, 0.064, 0.9540000000000001, -0.384, 192.0, 0.0, 0.0, 0.0, 0.0, 0.0, 0.0, 0.0, 0.0, 0.0, 1.741026157736111E9, 0.0, 2025-03-03 12:22:37.736
64.0, -20283.179912946216, 1896.0761303992429, -25946.508460820733, -9729.937878839717, -187500.02235174447, -17321.819641807037, -25432.12776567075, -33689.756237239395, 0.064, 0.9540000000000001, -0.384, 192.0, 0.0, 0.0, 0.0, 0.0, 0.0, 0.0, 0.0, 0.0, 0.0, 1.741026157736127E9, 0.0, 2025-03-03 12:22:37.736
65.0, -20263.219805147626, 1959.040994529843, -25939.534716550676, -9710.268343719048, -187500.02235174447, -17310.152031201367, -25424.595227789312, -33714.72313579597, 0.064, 0.9540000000000001, -0.384, 192.0, 0.0, 0.0, 0.0, 0.0, 0.0, 0.0, 0.0, 0.0, 0.0, 1.741026157736143E9, 0.0, 2025-03-03 12:22:37.736
66.0, -20348.670524200264, 1899.6971130010027, -25936.651341515942, -9693.057500488461, -187500.02235174447, -17296.718632783726, -25422.89649521071, -33749.97183680199, 0.064, 0.9540000000000001, -0.384, 192.0, 0.0, 0.0, 0.0, 0.0, 0.0, 0.0, 0.0, 0.0, 0.0, 1.741026157736159E9, 0.0, 2025-03-03 12:22:37.736
67.0, -20347.93291663324, 1930.6766308160582, -25948.006027699237, -9707.094396006394, -187500.02235174447, -17296.986853717193, -25436.016969205975, -33782.806549406836, 0.064, 0.9540000000000001, -0.384, 192.0, 0.0, 0.0, 0.0, 0.0, 0.0, 0.0, 0.0, 0.0, 0.0, 1.741026157736175E9, 0.0, 2025-03-03 12:22:37.736
68.0, -20290.44422989419, 2030.678335509102, -25956.94672548136, -9721.801843857986, -187500.02235174447, -17298.90910374035, -25434.519402327467, -33780.839595894766, 0.058, 0.962, -0.376, 192.0, 1.0, 208.0, 30.0, 16.0, 244.0, 64.0, 0.0, 0.0, 0.0, 1.741026157736191E9, 0.0, 2025-03-03 12:22:37.736
69.0, -20251.61924977532, 2111.6363539262243, -25970.268365176722, -9705.529773894523, -187500.02235174447, -17297.813868262037, -25444.197707676616, -33775.318715014306, 0.058, 0.962, -0.376, 192.0, 0.0, 0.0, 0.0, 0.0, 0.0, 0.0, 0.0, 0.0, 0.0, 1.741026157736213E9, 0.0, 2025-03-03 12:22:37.736
70.0, -20325.000026822094, 2052.5606933308477, -25978.583214114096, -9694.10803247786, -187500.02235174447, -17299.42319386282, -25443.571858831867, -33797.98338389199, 0.058, 0.962, -0.376, 192.0, 0.0, 0.0, 0.0, 0.0, 0.0, 0.0, 0.0, 0.0, 0.0, 1.741026157736228E9, 0.0, 2025-03-03 12:22:37.736
71.0, -20331.996122836605, 2057.053393966364, -25984.327612439112, -9697.281980190513, -187500.02235174447, -17296.65157755036, -25450.679713568654, -33811.0815061428, 0.058, 0.962, -0.376, 192.0, 0.0, 0.0, 0.0, 0.0, 0.0, 0.0, 0.0, 0.0, 0.0, 1.741026157736244E9, 0.0, 2025-03-03 12:22:37.736
72.0, -20291.83003805042, 2136.6256042272576, -25993.178903243414, -9698.556029624466, -187500.02235174447, -17300.719595041228, -25458.48047238356, -33849.347692650284, 0.058, 0.962, -0.376, 192.0, 0.0, 0.0, 0.0, 0.0, 0.0, 0.0, 0.0, 0.0, 0.0, 1.741026157736259E9, 0.0, 2025-03-03 12:22:37.736
73.0, -20224.148955839748, 2248.339623014882, -25990.541397397687, -9694.06332898895, -187500.02235174447, -17302.686548553294, -25458.189899705638, -33896.84514961781, 0.058, 0.962, -0.376, 192.0, 0.0, 0.0, 0.0, 0.0, 0.0, 0.0, 0.0, 0.0, 0.0, 1.741026157736279E9, 0.0, 2025-03-03 12:22:37.736
74.0, -20293.573474117933, 2197.087072978863, -26003.57246441513, -9690.554105109466, -187500.02235174447, -17290.728365269704, -25450.545603101924, -33902.835417131835, 0.058, 0.962, -0.376, 192.0, 0.0, 0.0, 0.0, 0.0, 0.0, 0.0, 0.0, 0.0, 0.0, 1.741026157736298E9, 0.0, 2025-03-03 12:22:37.736
75.0, -20334.65598042679, 2172.1425261667405, -26000.86790333604, -9673.38796536779, -187500.02235174447, -17278.23374011919, -25458.27930668346, -33907.28341427844, 0.058, 0.962, -0.376, 192.0, 0.0, 0.0, 0.0, 0.0, 0.0, 0.0, 0.0, 0.0, 0.0, 1.741026157736317E9, 0.0, 2025-03-03 12:22:37.736
76.0, -20268.67363079472, 2255.089849840385, -25996.71047886735, -9654.612500025332, -187500.02235174447, -17267.728420225194, -25452.959591503095, -33943.157964129205, 0.058, 0.962, -0.376, 192.0, 0.0, 0.0, 0.0, 0.0, 0.0, 0.0, 0.0, 0.0, 0.0, 1.741026157796348E9, 0.0, 2025-03-03 12:22:37.796
77.0, -20217.175211569695, 2361.3723947253698, -25998.588025401597, -9660.312194861435, -187500.02235174447, -17276.579711029495, -25453.451329881114, -33972.93048774367, 0.058, 0.962, -0.376, 192.0, 0.0, 0.0, 0.0, 0.0, 0.0, 0.0, 0.0, 0.0, 0.0, 1.741026157796374E9, 0.0, 2025-03-03 12:22:37.796
78.0, -20284.54336935799, 2331.979850766641, -26006.90287433897, -9652.28791860198, -187500.02235174447, -17280.759487242638, -25447.058730966895, -33980.32891515838, 0.052000000000000005, 0.9480000000000001, -0.36, 192.0, 1.0, 160.0, 29.0, 160.0, 244.0, 192.0, 0.0, 0.0, 0.0, 1.741026157796408E9, 0.0, 2025-03-03 12:22:37.796
79.0, -20313.578285405434, 2291.12086190234, -25999.99618530228, -9652.310270346436, -187500.02235174447, -17285.56511230053, -25445.359998388292, -33983.88284252678, 0.052000000000000005, 0.9480000000000001, -0.36, 192.0, 0.0, 0.0, 0.0, 0.0, 0.0, 0.0, 0.0, 0.0, 0.0, 1.741026157796426E9, 0.0, 2025-03-03 12:22:37.796
80.0, -20279.044840221984, 2336.181978724239, -25995.39172594449, -9650.745648234564, -187500.02235174447, -17284.961615200238, -25446.924620500162, -34004.28998521447, 0.052000000000000005, 0.9480000000000001, -0.36, 192.0, 0.0, 0.0, 0.0, 0.0, 0.0, 0.0, 0.0, 0.0, 0.0, 1.741026157796442E9, 0.0, 2025-03-03 12:22:37.796
81.0, -20202.177191040184, 2459.653015095355, -25992.150722998467, -9652.042049412972, -187500.02235174447, -17283.28523436609, -25457.206422949606, -34035.31420651844, 0.052000000000000005, 0.9480000000000001, -0.36, 192.0, 0.0, 0.0, 0.0, 0.0, 0.0, 0.0, 0.0, 0.0, 0.0, 1.741026157796458E9, 0.0, 2025-03-03 12:22:37.796
82.0, -20255.508453310544, 2428.8299594914865, -25991.413115431442, -9636.038200382973, -187500.02235174447, -17297.389185117387, -25461.967344518584, -33998.09855200035, 0.052000000000000005, 0.9480000000000001, -0.36, 192.0, 0.0, 0.0, 0.0, 0.0, 0.0, 0.0, 0.0, 0.0, 0.0, 1.741026157796478E9, 0.0, 2025-03-03 12:22:37.796
83.0, -20313.22065749415, 2360.9924150696297, -25992.217778231836, -9633.199528837149, -187500.02235174447, -17337.063531525557, -25458.145196216727, -33847.44779437158, 0.052000000000000005, 0.9480000000000001, -0.36, 192.0, 0.0, 0.0, 0.0, 0.0, 0.0, 0.0, 0.0, 0.0, 0.0, 1.741026157796494E9, 0.0, 2025-03-03 12:22:37.796
84.0, -20312.103070271383, 2373.3529297534146, -25985.46755140633, -9637.602822494844, -187500.02235174447, -17357.96241259127, -25441.582553575347, -33770.64720042315, 0.052000000000000005, 0.9480000000000001, -0.36, 192.0, 0.0, 0.0, 0.0, 0.0, 0.0, 0.0, 0.0, 0.0, 0.0, 1.741026157796514E9, 0.0, 2025-03-03 12:22:37.796
85.0, -20223.880734906284, 2483.368215962436, -25992.128371254013, -9649.784523222987, -187500.02235174447, -17376.44730525581, -25452.13257695825, -33720.713403309994, 0.052000000000000005, 0.9480000000000001, -0.36, 192.0, 0.0, 0.0, 0.0, 0.0, 0.0, 0.0, 0.0, 0.0, 0.0, 1.741026157796531E9, 0.0, 2025-03-03 12:22:37.796
86.0, -20273.948642486175, 2463.564570375034, -26012.289644752702, -9645.492988287568, -187500.02235174447, -17383.041069870123, -25451.126748457762, -33704.24016764643, 0.052000000000000005, 0.9480000000000001, -0.36, 192.0, 0.0, 0.0, 0.0, 0.0, 0.0, 0.0, 0.0, 0.0, 0.0, 1.741026157796546E9, 0.0, 2025-03-03 12:22:37.796
87.0, -20342.45673924169, 2362.557037181501, -26016.24590352129, -9645.805912709942, -187500.02235174447, -17390.57360775156, -25452.110225213793, -33697.04290593182, 0.052000000000000005, 0.9480000000000001, -0.36, 192.0, 0.0, 0.0, 0.0, 0.0, 0.0, 0.0, 0.0, 0.0, 0.0, 1.741026157796562E9, 0.0, 2025-03-03 12:22:37.796
88.0, -20326.318779744957, 2364.9263220937637, -26021.923246612936, -9649.985688923083, -187500.02235174447, -17400.318968334075, -25452.914888014187, -33728.335348169254, 0.04, 0.918, -0.342, 192.0, 1.0, 64.0, 28.0, 176.0, 245.0, 80.0, 0.0, 0.0, 0.0, 1.741026157796578E9, 0.0, 2025-03-03 12:22:37.796
89.0, -20246.791272972976, 2466.0232622651174, -26023.599627447085, -9624.035313610473, -187500.02235174447, -17372.803970909594, -25440.710835541588, -33775.318715014306, 0.04, 0.918, -0.342, 192.0, 0.0, 0.0, 0.0, 0.0, 0.0, 0.0, 0.0, 0.0, 0.0, 1.741026157796599E9, 0.0, 2025-03-03 12:22:37.796
90.0, -20239.281086835992, 2494.2088120232597, -26025.745394914797, -9609.260810525515, -187500.02235174447, -17344.059627540068, -25429.959646458585, -33858.95894276607, 0.04, 0.918, -0.342, 192.0, 0.0, 0.0, 0.0, 0.0, 0.0, 0.0, 0.0, 0.0, 0.0, 1.741026157796618E9, 0.0, 2025-03-03 12:22:37.796
91.0, -20330.342093746913, 2392.5530782405235, -26049.9970376488, -9624.281182799481, -187500.02235174447, -17316.835202793503, -25438.94504772962, -34044.59018046739, 0.04, 0.918, -0.342, 192.0, 0.0, 0.0, 0.0, 0.0, 0.0, 0.0, 0.0, 0.0, 0.0, 1.741026157855807E9, 0.0, 2025-03-03 12:22:37.855
92.0, -20360.293431317026, 2354.7786301110546, -26077.82495949566, -9637.826339939396, -187500.02235174447, -17311.18021144631, -25460.827405551365, -34126.62108261837, 0.04, 0.918, -0.342, 192.0, 0.0, 0.0, 0.0, 0.0, 0.0, 0.0, 0.0, 0.0, 0.0, 1.741026157855832E9, 0.0, 2025-03-03 12:22:37.855
93.0, -20258.995325445572, 2417.4752733081905, -26074.002811193805, -9622.247174054048, -187500.02235174447, -17307.17924918881, -25463.911946286196, -34151.83385036395, 0.04, 0.918, -0.342, 192.0, 0.0, 0.0, 0.0, 0.0, 0.0, 0.0, 0.0, 0.0, 0.0, 1.741026157855849E9, 0.0, 2025-03-03 12:22:37.855
94.0, -20245.38311307229, 2435.177854916794, -26100.511980117797, -9631.299630558447, -187500.02235174447, -17317.706920827262, -25463.19669046363, -34147.788184617544, 0.04, 0.918, -0.342, 192.0, 0.0, 0.0, 0.0, 0.0, 0.0, 0.0, 0.0, 0.0, 0.0, 1.741026157855884E9, 0.0, 2025-03-03 12:22:37.855
95.0, -20339.72982641814, 2312.2656121570603, -26119.466259415898, -9628.706828201632, -187500.02235174447, -17297.45624035075, -25457.452292138612, -34191.6199554944, 0.04, 0.918, -0.342, 192.0, 0.0, 0.0, 0.0, 0.0, 0.0, 0.0, 0.0, 0.0, 0.0, 1.7410261578559E9, 0.0, 2025-03-03 12:22:37.855
96.0, -20354.72784694765, 2241.4552857226477, -26128.02697754228, -9653.204340124648, -187500.02235174447, -17296.115135683434, -25452.423149636168, -34228.99207222367, 0.04, 0.918, -0.342, 192.0, 0.0, 0.0, 0.0, 0.0, 0.0, 0.0, 0.0, 0.0, 0.0, 1.741026157855916E9, 0.0, 2025-03-03 12:22:37.855
97.0, -20297.462677653155, 2278.3133123294488, -26123.958960051415, -9616.52512747349, -187500.02235174447, -17281.720612254216, -25446.94697224462, -34182.34398154545, 0.04, 0.918, -0.342, 192.0, 0.0, 0.0, 0.0, 0.0, 0.0, 0.0, 0.0, 0.0, 0.0, 1.741026157855932E9, 0.0, 2025-03-03 12:22:37.855
98.0, -20245.561927027935, 2337.456028158191, -26131.893829333047, -9599.403691220725, -187500.02235174447, -17283.620510532917, -25438.27449539596, -34116.249873191104, 0.046, 0.876, -0.33, 192.0, 1.0, 112.0, 27.0, 96.0, 245.0, 176.0, 0.0, 0.0, 0.0, 1.741026157855949E9, 0.0, 2025-03-03 12:22:37.855
99.0, -20308.05740452497, 2240.4941607110695, -26152.636248187573, -9602.644694166744, -187500.02235174447, -17299.51260084064, -25431.45721333709, -34144.32366422697, 0.046, 0.876, -0.33, 192.0, 0.0, 0.0, 0.0, 0.0, 0.0, 0.0, 0.0, 0.0, 0.0, 1.741026157855971E9, 0.0, 2025-03-03 12:22:37.855
100.0, -20335.482994971633, 2168.499191820525, -26156.391341256065, -9585.970292803084, -187500.02235174447, -17278.814885475025, -25420.281341109436, -34178.16420533231, 0.046, 0.876, -0.33, 192.0, 0.0, 0.0, 0.0, 0.0, 0.0, 0.0, 0.0, 0.0, 0.0, 1.741026157855987E9, 0.0, 2025-03-03 12:22:37.855
101.0, -20295.54042763, 2169.929703465665, -26173.98216414239, -9605.483365712567, -187500.02235174447, -17276.535007540584, -25427.65741677969, -34198.66075499782, 0.046, 0.876, -0.33, 192.0, 0.0, 0.0, 0.0, 0.0, 0.0, 0.0, 0.0, 0.0, 0.0, 1.741026157856002E9, 0.0, 2025-03-03 12:22:37.856
102.0, -20255.62021203282, 2195.0083607445195, -26193.606995774153, -9614.736987917066, -187500.02235174447, -17275.238606362178, -25431.54662031491, -34218.48675232968, 0.046, 0.876, -0.33, 192.0, 0.0, 0.0, 0.0, 0.0, 0.0, 0.0, 0.0, 0.0, 0.0, 1.741026157856018E9, 0.0, 2025-03-03 12:22:37.856
103.0, -20301.240122466104, 2103.4556154555817, -26197.965585942937, -9599.917781343196, -187500.02235174447, -17277.004394174146, -25421.823611476855, -34219.939615719275, 0.046, 0.876, -0.33, 192.0, 0.0, 0.0, 0.0, 0.0, 0.0, 0.0, 0.0, 0.0, 0.0, 1.741026157856034E9, 0.0, 2025-03-03 12:22:37.856
104.0, -20320.97671282014, 2037.2721001234174, -26194.590472530184, -9586.842010836841, -187500.02235174447, -17276.669118007318, -25407.87612293674, -34204.427505067295, 0.046, 0.876, -0.33, 192.0, 0.0, 0.0, 0.0, 0.0, 0.0, 0.0, 0.0, 0.0, 0.0, 1.741026157856054E9, 0.0, 2025-03-03 12:22:37.856
105.0, -20283.291671668492, 2067.2681411824396, -26201.27364412232, -9585.031519535962, -187500.02235174447, -17273.919853439314, -25413.01702416146, -34209.70251675874, 0.046, 0.876, -0.33, 192.0, 0.0, 0.0, 0.0, 0.0, 0.0, 0.0, 0.0, 0.0, 0.0, 1.741026157856073E9, 0.0, 2025-03-03 12:22:37.856
106.0, -20203.585350940866, 2151.3107003343944, -26210.52726632682, -9589.479516682568, -187500.02235174447, -17291.89065598138, -25430.607847047788, -34229.81908676852, 0.046, 0.876, -0.33, 192.0, 0.0, 0.0, 0.0, 0.0, 0.0, 0.0, 0.0, 0.0, 0.0, 1.741026157915572E9, 0.0, 2025-03-03 12:22:37.915
107.0, -20243.214993860125, 2115.5702609503583, -26199.41844933253, -9579.42123167768, -187500.02235174447, -17291.555379814552, -25423.835268477833, -34225.48284834419, 0.07, 0.876, -0.342, 192.0, 2.0, 48.0, 27.0, 96.0, 245.0, 80.0, 0.0, 0.0, 0.0, 1.741026157915617E9, 0.0, 2025-03-03 12:22:37.915
108.0, -20295.36161367436, 2036.1768646451076, -26172.417542030522, -9520.032646659929, -187500.02235174447, -17263.57099575651, -25412.905265439185, -34215.84924648395, 0.07, 0.876, -0.342, 192.0, 0.0, 0.0, 0.0, 0.0, 0.0, 0.0, 0.0, 0.0, 0.0, 1.741026157915635E9, 0.0, 2025-03-03 12:22:37.915
109.0, -20251.39573233077, 2055.3323096433055, -26160.61582095812, -9520.323219337848, -187500.02235174447, -17263.682754478785, -25421.89066671022, -34239.54209560658, 0.07, 0.876, -0.342, 192.0, 0.0, 0.0, 0.0, 0.0, 0.0, 0.0, 0.0, 0.0, 0.0, 1.741026157915655E9, 0.0, 2025-03-03 12:22:37.915
110.0, -20185.18986525415, 2143.062906630386, -26147.204774284935, -9507.31450406486, -187500.02235174447, -17258.586556742976, -25416.056861407385, -34252.64021785739, 0.07, 0.876, -0.342, 192.0, 0.0, 0.0, 0.0, 0.0, 0.0, 0.0, 0.0, 0.0, 0.0, 1.741026157915671E9, 0.0, 2025-03-03 12:22:37.915
111.0, -20205.99933934204, 2138.257281572495, -26138.93462883647, -9496.898591148685, -187500.02235174447, -17244.192033313757, -25393.794523929897, -34224.85699949944, 0.07, 0.876, -0.342, 192.0, 0.0, 0.0, 0.0, 0.0, 0.0, 0.0, 0.0, 0.0, 0.0, 1.741026157915687E9, 0.0, 2025-03-03 12:22:37.915
112.0, -20257.855386478353, 2053.320652642328, -26150.69164641996, -9509.192050599106, -187500.02235174447, -17262.14048411137, -25401.237654833516, -34250.11447073394, 0.07, 0.876, -0.342, 192.0, 0.0, 0.0, 0.0, 0.0, 0.0, 0.0, 0.0, 0.0, 0.0, 1.741026157915702E9, 0.0, 2025-03-03 12:22:37.915
113.0, -20234.453110033646, 2075.1136034862525, -26137.146489280047, -9497.390329526703, -187500.02235174447, -17251.27753630609, -25402.288186822916, -34266.63240988641, 0.07, 0.876, -0.342, 192.0, 0.0, 0.0, 0.0, 0.0, 0.0, 0.0, 0.0, 0.0, 0.0, 1.741026157915718E9, 0.0, 2025-03-03 12:22:37.915
114.0, -20149.18120493665, 2180.055043703919, -26114.88415180256, -9477.027890327918, -187500.02235174447, -17239.766387911604, -25405.685651980122, -34261.69267436179, 0.07, 0.876, -0.342, 192.0, 0.0, 0.0, 0.0, 0.0, 0.0, 0.0, 0.0, 0.0, 0.0, 1.741026157915734E9, 0.0, 2025-03-03 12:22:37.915
115.0, -20150.678771815154, 2197.7799770569777, -26098.54502660573, -9455.480808673003, -187500.02235174447, -17242.694466435252, -25402.288186822916, -34260.03864527209, 0.07, 0.876, -0.342, 192.0, 0.0, 0.0, 0.0, 0.0, 0.0, 0.0, 0.0, 0.0, 0.0, 1.741026157915756E9, 0.0, 2025-03-03 12:22:37.915
116.0, -20207.899237620742, 2126.0755808443523, -26088.196168922925, -9463.683898888099, -187500.02235174447, -17248.97530662719, -25410.044242148906, -34268.71112212075, 0.07, 0.876, -0.342, 192.0, 0.0, 0.0, 0.0, 0.0, 0.0, 0.0, 0.0, 0.0, 0.0, 1.741026157915772E9, 0.0, 2025-03-03 12:22:37.915
117.0, -20207.80983064292, 2130.478874502048, -26079.188415907436, -9475.820896127332, -187500.02235174447, -17263.861568434426, -25428.819707491366, -34278.098854791984, 0.076, 0.9380000000000001, -0.352, 192.0, 2.0, 96.0, 29.0, 80.0, 245.0, 0.0, 0.0, 0.0, 0.0, 1.741026157915788E9, 0.0, 2025-03-03 12:22:37.915
118.0, -20137.08891118633, 2221.0704947794075, -26052.992171405815, -9454.519683661423, -187500.02235174447, -17266.811998702527, -25422.158887643684, -34282.88212810542, 0.076, 0.9380000000000001, -0.352, 192.0, 0.0, 0.0, 0.0, 0.0, 0.0, 0.0, 0.0, 0.0, 0.0, 1.741026157915805E9, 0.0, 2025-03-03 12:22:37.915
119.0, -20104.701233470587, 2282.2919228424935, -26031.2439240508, -9444.416695167625, -187500.02235174447, -17260.151178854845, -25409.820724704354, -34266.65476163087, 0.076, 0.9380000000000001, -0.352, 192.0, 0.0, 0.0, 0.0, 0.0, 0.0, 0.0, 0.0, 0.0, 0.0, 1.741026157915825E9, 0.0, 2025-03-03 12:22:37.915
120.0, -20168.448408657125, 2204.1055207378295, -26025.09719432559, -9447.456532413547, -187500.02235174447, -17253.915042151813, -25408.814896203865, -34264.196069740785, 0.076, 0.9380000000000001, -0.352, 192.0, 0.0, 0.0, 0.0, 0.0, 0.0, 0.0, 0.0, 0.0, 0.0, 1.741026157915845E9, 0.0, 2025-03-03 12:22:37.915
121.0, -20180.51835066299, 2202.7867678149664, -26019.19633378939, -9455.100829017261, -187500.02235174447, -17269.18128361479, -25426.338663856826, -34308.13959933992, 0.076, 0.9380000000000001, -0.352, 192.0, 0.0, 0.0, 0.0, 0.0, 0.0, 0.0, 0.0, 0.0, 0.0, 1.741026157975807E9, 0.0, 2025-03-03 12:22:37.975
122.0, -20134.049073940405, 2295.8370799824097, -26003.99714755978, -9450.608128381746, -187500.02235174447, -17260.88878642187, -25421.622445776757, -34337.7556607432, 0.076, 0.9380000000000001, -0.352, 192.0, 0.0, 0.0, 0.0, 0.0, 0.0, 0.0, 0.0, 0.0, 0.0, 1.741026157975865E9, 0.0, 2025-03-03 12:22:37.975
123.0, -20067.82085511933, 2408.981610415174, -25995.302318966667, -9445.020192267919, -187500.02235174447, -17250.22700431669, -25413.799335217398, -34337.17451538736, 0.076, 0.9380000000000001, -0.352, 192.0, 0.0, 0.0, 0.0, 0.0, 0.0, 0.0, 0.0, 0.0, 0.0, 1.741026157975883E9, 0.0, 2025-03-03 12:22:37.975
124.0, -20158.83715854134, 2339.467685159169, -26005.472362693832, -9464.332099477304, -187500.02235174447, -17280.938301198283, -25421.22011437656, -34358.69924529782, 0.076, 0.9380000000000001, -0.352, 192.0, 0.0, 0.0, 0.0, 0.0, 0.0, 0.0, 0.0, 0.0, 0.0, 1.741026157975903E9, 0.0, 2025-03-03 12:22:37.975
125.0, -20199.204409027625, 2303.280210886027, -26009.607435418064, -9460.956986064552, -187500.02235174447, -17267.996641158657, -25430.049053436407, -34385.23076596627, 0.076, 0.9380000000000001, -0.352, 192.0, 0.0, 0.0, 0.0, 0.0, 0.0, 0.0, 0.0, 0.0, 0.0, 1.741026157975919E9, 0.0, 2025-03-03 12:22:37.975
126.0, -20126.717701759066, 2391.23432531766, -25992.41894393193, -9453.513855160934, -187500.02235174447, -17254.071504363, -25422.292998110413, -34388.829396823574, 0.076, 0.9380000000000001, -0.352, 192.0, 0.0, 0.0, 0.0, 0.0, 0.0, 0.0, 0.0, 0.0, 0.0, 1.741026157975935E9, 0.0, 2025-03-03 12:22:37.975
127.0, -20044.57504088581, 2513.364257021458, -25991.01078403125, -9440.639250354678, -187500.02235174447, -17264.777989957096, -25424.12584115575, -34392.338620703056, 0.058, 0.96, -0.35000000000000003, 192.0, 1.0, 208.0, 30.0, 0.0, 245.0, 16.0, 0.0, 0.0, 0.0, 1.741026157975951E9, 0.0, 2025-03-03 12:22:37.975
128.0, -20114.08896614182, 2485.290465985592, -26000.353813213565, -9447.165959735628, -187500.02235174447, -17260.75467595514, -25413.240541606017, -34381.40861766441, 0.058, 0.96, -0.35000000000000003, 192.0, 0.0, 0.0, 0.0, 0.0, 0.0, 0.0, 0.0, 0.0, 0.0, 1.741026157975969E9, 0.0, 2025-03-03 12:22:37.975
129.0, -20151.997524738017, 2460.9717680182184, -25988.462685163344, -9442.24857595546, -187500.02235174447, -17256.194920086255, -25395.35914604177, -34381.94505953134, 0.058, 0.96, -0.35000000000000003, 192.0, 0.0, 0.0, 0.0, 0.0, 0.0, 0.0, 0.0, 0.0, 0.0, 1.741026157975985E9, 0.0, 2025-03-03 12:22:37.975
130.0, -20124.594286035812, 2517.5440332346, -25992.62010963203, -9446.428352168603, -187500.02235174447, -17256.731361953185, -25378.05889583336, -34406.75549587673, 0.058, 0.96, -0.35000000000000003, 192.0, 0.0, 0.0, 0.0, 0.0, 0.0, 0.0, 0.0, 0.0, 0.0, 1.741026157976006E9, 0.0, 2025-03-03 12:22:37.976
131.0, -20067.105599296763, 2624.720647897798, -26002.52193242573, -9460.644061642179, -187500.02235174447, -17259.972364899204, -25388.251291304983, -34422.8264001401, 0.058, 0.96, -0.35000000000000003, 192.0, 0.0, 0.0, 0.0, 0.0, 0.0, 0.0, 0.0, 0.0, 0.0, 1.741026157976022E9, 0.0, 2025-03-03 12:22:37.976
132.0, -20113.127841130237, 2602.257144720214, -26016.871752366038, -9470.568236180334, -187500.02235174447, -17269.76242897063, -25395.672070464145, -34445.267551573226, 0.058, 0.96, -0.35000000000000003, 192.0, 0.0, 0.0, 0.0, 0.0, 0.0, 0.0, 0.0, 0.0, 0.0, 1.741026157976038E9, 0.0, 2025-03-03 12:22:37.976
133.0, -20178.014955283994, 2535.0007456541953, -26033.00971186277, -9479.553637451369, -187500.02235174447, -17283.352289599454, -25400.79061994441, -34476.87291823303, 0.058, 0.96, -0.35000000000000003, 192.0, 0.0, 0.0, 0.0, 0.0, 0.0, 0.0, 0.0, 0.0, 0.0, 1.741026157976054E9, 0.0, 2025-03-03 12:22:37.976
134.0, -20158.367771907782, 2559.7441267662202, -26031.556848473174, -9455.480808673003, -187500.02235174447, -17259.950013154747, -25401.639986233713, -34479.42101710093, 0.058, 0.96, -0.35000000000000003, 192.0, 0.0, 0.0, 0.0, 0.0, 0.0, 0.0, 0.0, 0.0, 0.0, 1.74102615797607E9, 0.0, 2025-03-03 12:22:37.976
135.0, -20075.331041256315, 2654.671985467909, -26056.479043540843, -9479.77715489592, -187500.02235174447, -17258.318335809512, -25417.97911143054, -34509.90879653797, 0.058, 0.96, -0.35000000000000003, 192.0, 0.0, 0.0, 0.0, 0.0, 0.0, 0.0, 0.0, 0.0, 0.0, 1.741026157976097E9, 0.0, 2025-03-03 12:22:37.976
136.0, -20077.83443663531, 2660.483439026289, -26065.86677621207, -9493.277608546927, -187500.02235174447, -17269.784780715083, -25401.707041467078, -34511.78634307222, 0.058, 0.96, -0.35000000000000003, 192.0, 0.0, 0.0, 0.0, 0.0, 0.0, 0.0, 0.0, 0.0, 0.0, 1.741026158036512E9, 0.0, 2025-03-03 12:22:38.036
137.0, -20116.5476580319, 2577.849039775019, -26066.380866334544, -9485.678015432122, -187500.02235174447, -17275.931510440292, -25399.337756554814, -34493.703781807875, 0.042, 0.926, -0.34600000000000003, 192.0, 1.0, 80.0, 28.0, 240.0, 245.0, 48.0, 0.0, 0.0, 0.0, 1.741026158036559E9, 0.0, 2025-03-03 12:22:38.036
138.0, -20105.349434059794, 2575.3456443960245, -26066.49262505682, -9473.518666448435, -187500.02235174447, -17260.821731188506, -25391.157018084174, -34511.2946046942, 0.042, 0.926, -0.34600000000000003, 192.0, 0.0, 0.0, 0.0, 0.0, 0.0, 0.0, 0.0, 0.0, 0.0, 1.741026158036577E9, 0.0, 2025-03-03 12:22:38.036
139.0, -20052.44285493408, 2650.71572669932, -26077.73555251784, -9486.326216021325, -187500.02235174447, -17277.920815696816, -25400.298881566392, -34534.02632880525, 0.042, 0.926, -0.34600000000000003, 192.0, 0.0, 0.0, 0.0, 0.0, 0.0, 0.0, 0.0, 0.0, 0.0, 1.741026158036598E9, 0.0, 2025-03-03 12:22:38.036
140.0, -20069.229015020017, 2660.706956470842, -26087.413857866988, -9485.230980543016, -187500.02235174447, -17282.65938552134, -25404.568064757357, -34531.679395637446, 0.042, 0.926, -0.34600000000000003, 192.0, 0.0, 0.0, 0.0, 0.0, 0.0, 0.0, 0.0, 0.0, 0.0, 1.741026158036614E9, 0.0, 2025-03-03 12:22:38.036
141.0, -20124.214306380072, 2573.8927810064297, -26077.422628095464, -9475.73148914951, -187500.02235174447, -17266.02968764659, -25382.97627961353, -34509.03707850422, 0.042, 0.926, -0.34600000000000003, 192.0, 0.0, 0.0, 0.0, 0.0, 0.0, 0.0, 0.0, 0.0, 0.0, 1.741026158036629E9, 0.0, 2025-03-03 12:22:38.036
142.0, -20134.741978018523, 2555.9890336977287, -26092.39829688052, -9474.6362536712, -187500.02235174447, -17267.191978358267, -25384.920881381142, -34519.40828793148, 0.042, 0.926, -0.34600000000000003, 192.0, 0.0, 0.0, 0.0, 0.0, 0.0, 0.0, 0.0, 0.0, 0.0, 1.741026158036645E9, 0.0, 2025-03-03 12:22:38.036
143.0, -20080.7401634145, 2610.907269824418, -26095.907520760004, -9491.73533817951, -187500.02235174447, -17281.47474306521, -25388.11718083825, -34533.08755553813, 0.042, 0.926, -0.34600000000000003, 192.0, 0.0, 0.0, 0.0, 0.0, 0.0, 0.0, 0.0, 0.0, 0.0, 1.741026158036661E9, 0.0, 2025-03-03 12:22:38.036
144.0, -20034.67321809211, 2656.5271802577, -26097.583901594153, -9464.645023899679, -187500.02235174447, -17277.250263363156, -25393.727468696532, -34536.775593373255, 0.042, 0.926, -0.34600000000000003, 192.0, 0.0, 0.0, 0.0, 0.0, 0.0, 0.0, 0.0, 0.0, 0.0, 1.741026158036677E9, 0.0, 2025-03-03 12:22:38.036
145.0, -20100.521457257444, 2571.7023100498095, -26091.12424744657, -9447.322421946816, -187500.02235174447, -17270.432981304286, -25376.986012099507, -34524.63859613402, 0.042, 0.926, -0.34600000000000003, 192.0, 0.0, 0.0, 0.0, 0.0, 0.0, 0.0, 0.0, 0.0, 0.0, 1.741026158036697E9, 0.0, 2025-03-03 12:22:38.036
146.0, -20121.241524367517, 2540.7674957236645, -26090.610157324096, -9458.095962774272, -187500.02235174447, -17290.840123991984, -25377.410695244158, -34531.657043892985, 0.042, 0.926, -0.34600000000000003, 192.0, 0.0, 0.0, 0.0, 0.0, 0.0, 0.0, 0.0, 0.0, 0.0, 1.741026158036712E9, 0.0, 2025-03-03 12:22:38.036
147.0, -20070.12308479823, 2605.0287610326723, -26091.34776489112, -9468.10954429025, -187500.02235174447, -17294.75167927166, -25383.22214880254, -34540.3518724861, 0.028, 0.908, -0.34800000000000003, 192.0, 0.0, 224.0, 28.0, 96.0, 245.0, 32.0, 0.0, 0.0, 0.0, 1.741026158036728E9, 0.0, 2025-03-03 12:22:38.036
148.0, -20013.886095748676, 2686.255000383258, -26087.704430544905, -9471.149381536172, -187500.02235174447, -17284.224007633213, -25389.279471549926, -34546.36449174458, 0.028, 0.908, -0.34800000000000003, 192.0, 0.0, 0.0, 0.0, 0.0, 0.0, 0.0, 0.0, 0.0, 0.0, 1.741026158036746E9, 0.0, 2025-03-03 12:22:38.036
149.0, -20083.981166360518, 2603.4417871763453, -26080.842444997128, -9434.313706673825, -187500.02235174447, -17268.868359192416, -25372.739180653, -34549.896067368514, 0.028, 0.908, -0.34800000000000003, 192.0, 0.0, 0.0, 0.0, 0.0, 0.0, 0.0, 0.0, 0.0, 0.0, 1.741026158036762E9, 0.0, 2025-03-03 12:22:38.036
150.0, -20133.98201870704, 2548.367088838469, -26080.44011359693, -9436.079494485795, -187500.02235174447, -17271.61762376042, -25380.383477256713, -34568.26920131078, 0.028, 0.908, -0.34800000000000003, 192.0, 0.0, 0.0, 0.0, 0.0, 0.0, 0.0, 0.0, 0.0, 0.0, 1.741026158036781E9, 0.0, 2025-03-03 12:22:38.036
151.0, -20074.481674967014, 2610.259069235214, -26066.291459356722, -9433.263174684427, -187500.02235174447, -17265.761466713127, -25388.720677938545, -34594.62190802359, 0.028, 0.908, -0.34800000000000003, 192.0, 0.0, 0.0, 0.0, 0.0, 0.0, 0.0, 0.0, 0.0, 0.0, 1.74102615809636E9, 0.0, 2025-03-03 12:22:38.096
152.0, -19977.273938330884, 2711.065436728649, -26067.565508790674, -9448.48471265849, -187500.02235174447, -17275.08214415099, -25395.292090808405, -34609.66463204201, 0.028, 0.908, -0.34800000000000003, 192.0, 0.0, 0.0, 0.0, 0.0, 0.0, 0.0, 0.0, 0.0, 0.0, 1.741026158096409E9, 0.0, 2025-03-03 12:22:38.096
153.0, -20044.77620658591, 2640.8139039056186, -26083.63641305404, -9445.981317279497, -187500.02235174447, -17285.006318689146, -25395.60501523078, -34591.98440217786, 0.028, 0.908, -0.34800000000000003, 192.0, 0.0, 0.0, 0.0, 0.0, 0.0, 0.0, 0.0, 0.0, 0.0, 1.741026158096425E9, 0.0, 2025-03-03 12:22:38.096
154.0, -20083.511779726956, 2580.1959729428263, -26060.05532265369, -9415.71705528701, -187500.02235174447, -17263.682754478785, -25382.149265068685, -34589.99509692134, 0.028, 0.908, -0.34800000000000003, 192.0, 0.0, 0.0, 0.0, 0.0, 0.0, 0.0, 0.0, 0.0, 0.0, 1.741026158096441E9, 0.0, 2025-03-03 12:22:38.096
155.0, -20044.843261819275, 2620.071485051094, -26053.796834206205, -9404.630590037179, -187500.02235174447, -17257.46896952021, -25381.255195290472, -34600.70158251543, 0.028, 0.908, -0.34800000000000003, 192.0, 0.0, 0.0, 0.0, 0.0, 0.0, 0.0, 0.0, 0.0, 0.0, 1.741026158096461E9, 0.0, 2025-03-03 12:22:38.096
156.0, -19973.138865606652, 2729.170349737448, -26055.696732484907, -9406.217563893506, -187500.02235174447, -17268.93541442578, -25385.792599414897, -34623.96974849341, 0.028, 0.908, -0.34800000000000003, 192.0, 0.0, 0.0, 0.0, 0.0, 0.0, 0.0, 0.0, 0.0, 0.0, 1.741026158096477E9, 0.0, 2025-03-03 12:22:38.096
157.0, -20022.24564817496, 2696.715616788342, -26063.050456410703, -9408.229220894484, -187500.02235174447, -17276.914987196327, -25388.474808749535, -34625.31085316072, 0.028, 0.922, -0.352, 192.0, 0.0, 224.0, 28.0, 208.0, 245.0, 0.0, 0.0, 0.0, 0.0, 1.741026158096493E9, 0.0, 2025-03-03 12:22:38.096
158.0, -20086.30574778387, 2617.5904414165548, -26060.658819753986, -9408.810366250322, -187500.02235174447, -17270.053001648546, -25387.089000593307, -34609.03878319726, 0.028, 0.922, -0.352, 192.0, 0.0, 0.0, 0.0, 0.0, 0.0, 0.0, 0.0, 0.0, 0.0, 1.741026158096511E9, 0.0, 2025-03-03 12:22:38.096
159.0, -20082.438895993102, 2627.604022932532, -26065.911479700982, -9410.687912784566, -187500.02235174447, -17278.390202330374, -25407.049108391897, -34626.62960608359, 0.028, 0.922, -0.352, 192.0, 0.0, 0.0, 0.0, 0.0, 0.0, 0.0, 0.0, 0.0, 0.0, 1.741026158096527E9, 0.0, 2025-03-03 12:22:38.096
160.0, -20011.33799688077, 2732.5231114057437, -26056.613154007573, -9419.047465210851, -187500.02235174447, -17278.412554074832, -25398.108410609773, -34633.67040558701, 0.028, 0.922, -0.352, 192.0, 0.0, 0.0, 0.0, 0.0, 0.0, 0.0, 0.0, 0.0, 0.0, 1.741026158096547E9, 0.0, 2025-03-03 12:22:38.096
161.0, -20005.079508433286, 2731.5619863941656, -26034.395520019, -9384.849296194232, -187500.02235174447, -17276.870283707416, -25378.707096422568, -34626.98723399487, 0.028, 0.922, -0.352, 192.0, 0.0, 0.0, 0.0, 0.0, 0.0, 0.0, 0.0, 0.0, 0.0, 1.741026158096562E9, 0.0, 2025-03-03 12:22:38.096
162.0, -20088.98795711851, 2641.4621044948226, -26048.901802170494, -9393.208848620516, -187500.02235174447, -17287.263844879133, -25395.873236164243, -34644.46629815892, 0.028, 0.922, -0.352, 192.0, 0.0, 0.0, 0.0, 0.0, 0.0, 0.0, 0.0, 0.0, 0.0, 1.741026158096579E9, 0.0, 2025-03-03 12:22:38.096
163.0, -20073.386439488702, 2651.229816821792, -26026.52770597073, -9379.61898799169, -187500.02235174447, -17289.409612346844, -25380.182311556615, -34644.30983594774, 0.028, 0.922, -0.352, 192.0, 0.0, 0.0, 0.0, 0.0, 0.0, 0.0, 0.0, 0.0, 0.0, 1.741026158096595E9, 0.0, 2025-03-03 12:22:38.096
164.0, -19984.42649655658, 2755.6795186614418, -26026.550057715187, -9399.266171367904, -187500.02235174447, -17280.401859331352, -25396.253215819983, -34668.09209204818, 0.028, 0.922, -0.352, 192.0, 0.0, 0.0, 0.0, 0.0, 0.0, 0.0, 0.0, 0.0, 0.0, 1.74102615809661E9, 0.0, 2025-03-03 12:22:38.096
165.0, -19988.76273498091, 2775.3267020376566, -26029.88046763903, -9398.774432989889, -187500.02235174447, -17274.635109261886, -25386.50785523747, -34683.090112577695, 0.028, 0.922, -0.352, 192.0, 0.0, 0.0, 0.0, 0.0, 0.0, 0.0, 0.0, 0.0, 0.0, 1.74102615809663E9, 0.0, 2025-03-03 12:22:38.096
166.0, -20078.281471524417, 2680.2423811247804, -26033.412043262964, -9389.453755552026, -187500.02235174447, -17273.204597616746, -25380.003497600974, -34663.934667579495, 0.028, 0.922, -0.352, 192.0, 0.0, 0.0, 0.0, 0.0, 0.0, 0.0, 0.0, 0.0, 0.0, 1.741026158156508E9, 0.0, 2025-03-03 12:22:38.156
167.0, -20086.529265228422, 2673.4698025548223, -26029.411081005466, -9380.446002536537, -187500.02235174447, -17288.80611524655, -25379.645869689688, -34666.01337981384, 0.02, 0.934, -0.356, 192.0, 0.0, 160.0, 29.0, 48.0, 244.0, 224.0, 0.0, 0.0, 0.0, 1.741026158156529E9, 0.0, 2025-03-03 12:22:38.156
168.0, -20012.38852887017, 2756.864161117573, -26025.29836002569, -9389.990197418952, -187500.02235174447, -17279.507789553143, -25386.373744770735, -34680.00557184286, 0.02, 0.934, -0.356, 192.0, 0.0, 0.0, 0.0, 0.0, 0.0, 0.0, 0.0, 0.0, 0.0, 1.741026158156557E9, 0.0, 2025-03-03 12:22:38.156
169.0, -19980.269072087893, 2813.212908889402, -26033.56850547415, -9390.169011374595, -187500.02235174447, -17294.885789738393, -25396.36497454226, -34673.54591769528, 0.02, 0.934, -0.356, 192.0, 0.0, 0.0, 0.0, 0.0, 0.0, 0.0, 0.0, 0.0, 0.0, 1.741026158156577E9, 0.0, 2025-03-03 12:22:38.156
170.0, -20046.318476953325, 2721.1684252224477, -26032.562676973663, -9378.6131594912, -187500.02235174447, -17278.54666454156, -25388.02777386043, -34678.887984620094, 0.02, 0.934, -0.356, 192.0, 0.0, 0.0, 0.0, 0.0, 0.0, 0.0, 0.0, 0.0, 0.0, 1.741026158156597E9, 0.0, 2025-03-03 12:22:38.156
171.0, -20070.324250498325, 2677.359006090046, -26022.191467546403, -9366.90084539662, -187500.02235174447, -17263.906271923337, -25371.44277947459, -34673.031827572806, 0.02, 0.934, -0.356, 192.0, 0.0, 0.0, 0.0, 0.0, 0.0, 0.0, 0.0, 0.0, 0.0, 1.741026158156613E9, 0.0, 2025-03-03 12:22:38.156
172.0, -20014.91427599362, 2752.5279226932435, -26023.28670302471, -9370.722993698477, -187500.02235174447, -17272.399934816352, -25373.320326008838, -34687.40399925756, 0.02, 0.934, -0.356, 192.0, 0.0, 0.0, 0.0, 0.0, 0.0, 0.0, 0.0, 0.0, 0.0, 1.74102615815663E9, 0.0, 2025-03-03 12:22:38.156
173.0, -19951.994115351932, 2837.7551243013295, -26018.48107796682, -9374.500438511424, -187500.02235174447, -17264.93445216828, -25362.97146832603, -34687.40399925756, 0.02, 0.934, -0.356, 192.0, 0.0, 0.0, 0.0, 0.0, 0.0, 0.0, 0.0, 0.0, 0.0, 1.741026158156646E9, 0.0, 2025-03-03 12:22:38.156
174.0, -20014.802517271342, 2776.712510193886, -26023.219647791346, -9364.352746528715, -187500.02235174447, -17261.93931841127, -25354.053122288362, -34685.97348761243, 0.02, 0.934, -0.356, 192.0, 0.0, 0.0, 0.0, 0.0, 0.0, 0.0, 0.0, 0.0, 0.0, 1.741026158156661E9, 0.0, 2025-03-03 12:22:38.156
175.0, -20048.82187233232, 2733.5959951395985, -26029.545191472196, -9374.388679789148, -187500.02235174447, -17268.71189698123, -25359.506947935457, -34684.542975967284, 0.02, 0.934, -0.356, 192.0, 0.0, 0.0, 0.0, 0.0, 0.0, 0.0, 0.0, 0.0, 0.0, 1.741026158156677E9, 0.0, 2025-03-03 12:22:38.156
176.0, -20010.04159570236, 2779.5511817397096, -26040.363435788568, -9389.789031718854, -187500.02235174447, -17287.219141390222, -25360.557479924857, -34697.77520868483, 0.02, 0.934, -0.356, 192.0, 0.0, 0.0, 0.0, 0.0, 0.0, 0.0, 0.0, 0.0, 0.0, 1.741026158156696E9, 0.0, 2025-03-03 12:22:38.156
177.0, -19960.33131603376, 2846.382897661078, -26039.447014265897, -9396.38279633317, -187500.02235174447, -17296.42806010581, -25353.40492169916, -34704.03369713231, 0.01, 0.928, -0.354, 192.0, 0.0, 80.0, 29.0, 0.0, 244.0, 240.0, 0.0, 0.0, 0.0, 1.741026158156712E9, 0.0, 2025-03-03 12:22:38.156
178.0, -20024.88315402069, 2788.5812864996537, -26042.173927089447, -9385.43044155007, -187500.02235174447, -17278.457257563743, -25339.569191881325, -34697.976374384925, 0.01, 0.928, -0.354, 192.0, 0.0, 0.0, 0.0, 0.0, 0.0, 0.0, 0.0, 0.0, 0.0, 1.74102615815673E9, 0.0, 2025-03-03 12:22:38.156
179.0, -20060.511834682446, 2735.5182451627547, -26034.462575252364, -9362.408144761104, -187500.02235174447, -17274.23277786169, -25334.87532554571, -34701.21737733095, 0.01, 0.928, -0.354, 192.0, 0.0, 0.0, 0.0, 0.0, 0.0, 0.0, 0.0, 0.0, 0.0, 1.741026158156746E9, 0.0, 2025-03-03 12:22:38.156
180.0, -20040.171747228116, 2743.0060795552827, -26051.67341848295, -9392.448889309037, -187500.02235174447, -17290.124868169412, -25353.673142632622, -34719.43404906202, 0.01, 0.928, -0.354, 192.0, 0.0, 0.0, 0.0, 0.0, 0.0, 0.0, 0.0, 0.0, 0.0, 1.741026158156765E9, 0.0, 2025-03-03 12:22:38.156
181.0, -19968.08737135975, 2832.480112609877, -26054.86971794006, -9395.28756085486, -187500.02235174447, -17294.841086249482, -25363.97729682652, -34728.24063637741, 0.01, 0.928, -0.354, 192.0, 0.0, 0.0, 0.0, 0.0, 0.0, 0.0, 0.0, 0.0, 0.0, 1.741026158216809E9, 0.0, 2025-03-03 12:22:38.216
182.0, -19969.227310326973, 2829.0826474526702, -26048.20889809238, -9368.353708786215, -187500.02235174447, -17283.88873146638, -25359.082264790806, -34729.55938930027, 0.01, 0.928, -0.354, 192.0, 0.0, 0.0, 0.0, 0.0, 0.0, 0.0, 0.0, 0.0, 0.0, 1.741026158216831E9, 0.0, 2025-03-03 12:22:38.216
183.0, -20049.648886877167, 2739.3403934646126, -26054.936773173427, -9375.752136200921, -187500.02235174447, -17285.162780900333, -25343.368988438724, -34734.07444168025, 0.01, 0.928, -0.354, 192.0, 0.0, 0.0, 0.0, 0.0, 0.0, 0.0, 0.0, 0.0, 0.0, 1.741026158216857E9, 0.0, 2025-03-03 12:22:38.216
184.0, -20067.77615163042, 2726.8234165696404, -26087.950299733915, -9412.140776174161, -187500.02235174447, -17316.3881679044, -25368.26883176194, -34765.433939151044, 0.01, 0.928, -0.354, 192.0, 0.0, 0.0, 0.0, 0.0, 0.0, 0.0, 0.0, 0.0, 0.0, 1.741026158216873E9, 0.0, 2025-03-03 12:22:38.216
185.0, -19990.170894881594, 2818.9126037255055, -26072.147616404014, -9412.029017451885, -187500.02235174447, -17310.554362601564, -25358.79169211289, -34764.472814139466, 0.01, 0.928, -0.354, 192.0, 0.0, 0.0, 0.0, 0.0, 0.0, 0.0, 0.0, 0.0, 0.0, 1.741026158216893E9, 0.0, 2025-03-03 12:22:38.216
186.0, -20000.76562175341, 2814.933993212461, -26073.555776304696, -9398.886191712165, -187500.02235174447, -17306.016958477136, -25341.022055270918, -34769.72547408646, 0.01, 0.928, -0.354, 192.0, 0.0, 0.0, 0.0, 0.0, 0.0, 0.0, 0.0, 0.0, 0.0, 1.741026158216909E9, 0.0, 2025-03-03 12:22:38.216
187.0, -20050.051218277364, 2722.420122911945, -26070.53829080323, -9388.023243906886, -187500.02235174447, -17286.57094080102, -25327.72276732001, -34768.4067211636, 0.004, 0.91, -0.356, 192.0, 0.0, 32.0, 28.0, 112.0, 244.0, 224.0, 0.0, 0.0, 0.0, 1.741026158216925E9, 0.0, 2025-03-03 12:22:38.216
188.0, -20032.86272679123, 2716.765131564752, -26082.518825831274, -9407.268095882904, -187500.02235174447, -17289.767240258127, -25328.34861616476, -34772.87707005466, 0.004, 0.91, -0.356, 192.0, 0.0, 0.0, 0.0, 0.0, 0.0, 0.0, 0.0, 0.0, 0.0, 1.741026158216942E9, 0.0, 2025-03-03 12:22:38.216
189.0, -19966.410990525605, 2800.9418011834387, -26079.38958160753, -9395.444023066048, -187500.02235174447, -17275.976213929203, -25329.15327896515, -34774.374636933164, 0.004, 0.91, -0.356, 192.0, 0.0, 0.0, 0.0, 0.0, 0.0, 0.0, 0.0, 0.0, 0.0, 1.741026158216958E9, 0.0, 2025-03-03 12:22:38.216
190.0, -19960.89010964514, 2827.450970107433, -26092.957090491902, -9404.921162715098, -187500.02235174447, -17286.034498934092, -25340.038578514886, -34779.53788990234, 0.004, 0.91, -0.356, 192.0, 0.0, 0.0, 0.0, 0.0, 0.0, 0.0, 0.0, 0.0, 0.0, 1.741026158216974E9, 0.0, 2025-03-03 12:22:38.216
191.0, -20030.87342153471, 2736.836998085618, -26111.374927923076, -9400.450813824036, -187500.02235174447, -17292.717670526228, -25341.603200626756, -34793.93241333156, 0.004, 0.91, -0.356, 192.0, 0.0, 0.0, 0.0, 0.0, 0.0, 0.0, 0.0, 0.0, 0.0, 1.741026158216994E9, 0.0, 2025-03-03 12:22:38.216
192.0, -20026.91716276612, 2717.9497740208835, -26112.87249480158, -9401.7695667469, -187500.02235174447, -17307.648635822374, -25337.244610457972, -34823.14614333465, 0.004, 0.91, -0.356, 192.0, 0.0, 0.0, 0.0, 0.0, 0.0, 0.0, 0.0, 0.0, 0.0, 1.74102615821701E9, 0.0, 2025-03-03 12:22:38.217
193.0, -19943.70161815901, 2802.3276093396676, -26107.284558687756, -9401.613104535712, -187500.02235174447, -17309.973217245726, -25345.917087306632, -34841.98866391047, 0.004, 0.91, -0.356, 192.0, 0.0, 0.0, 0.0, 0.0, 0.0, 0.0, 0.0, 0.0, 0.0, 1.741026158217026E9, 0.0, 2025-03-03 12:22:38.217
194.0, -19916.633655623635, 2869.896932828061, -26097.69566031643, -9392.180668375573, -187500.02235174447, -17296.875094994914, -25334.428290656604, -34794.111227287205, 0.004, 0.91, -0.356, 192.0, 0.0, 0.0, 0.0, 0.0, 0.0, 0.0, 0.0, 0.0, 0.0, 1.741026158217042E9, 0.0, 2025-03-03 12:22:38.217
195.0, -20018.691720806568, 2774.2314665593467, -26100.489628373343, -9389.565514274302, -187500.02235174447, -17286.41447858983, -25318.469145115512, -34802.157855291116, 0.004, 0.91, -0.356, 192.0, 0.0, 0.0, 0.0, 0.0, 0.0, 0.0, 0.0, 0.0, 0.0, 1.741026158217057E9, 0.0, 2025-03-03 12:22:38.217
196.0, -20019.026996973396, 2743.0284312997383, -26106.74811682083, -9387.352691573225, -187500.02235174447, -17283.41934483282, -25328.370967909214, -34817.96053862102, 0.004, 0.91, -0.356, 192.0, 0.0, 0.0, 0.0, 0.0, 0.0, 0.0, 0.0, 0.0, 0.0, 1.741026158275716E9, 0.0, 2025-03-03 12:22:38.275
197.0, -19962.99117362394, 2797.4996325373213, -26116.761698336806, -9400.696683013044, -187500.02235174447, -17317.66221733835, -25361.429197958612, -34845.16261162313, 0.004, 0.91, -0.356, 192.0, 0.0, 0.0, 28.0, 112.0, 244.0, 160.0, 0.0, 0.0, 0.0, 1.741026158275739E9, 0.0, 2025-03-03 12:22:38.275
198.0, -19914.84551606721, 2857.9834530333824, -26100.132000462057, -9368.75604018641, -187500.02235174447, -17295.24341764968, -25348.286372218892, -34839.820544698305, 0.004, 0.91, -0.356, 192.0, 0.0, 0.0, 0.0, 0.0, 0.0, 0.0, 0.0, 0.0, 0.0, 1.741026158275767E9, 0.0, 2025-03-03 12:22:38.275
199.0, -19993.456601316524, 2775.2149433153804, -26113.11836399059, -9375.863894923199, -187500.02235174447, -17295.399879860866, -25340.86559305973, -34845.38612906768, 0.004, 0.91, -0.356, 192.0, 0.0, 0.0, 0.0, 0.0, 0.0, 0.0, 0.0, 0.0, 0.0, 1.741026158275787E9, 0.0, 2025-03-03 12:22:38.275
200.0, -20025.464299376526, 2732.0760765166374, -26108.290387188244, -9381.742403714945, -187500.02235174447, -17302.2842171531, -25358.389360712692, -34864.47451883251, 0.004, 0.91, -0.356, 192.0, 0.0, 0.0, 0.0, 0.0, 0.0, 0.0, 0.0, 0.0, 0.0, 1.741026158275807E9, 0.0, 2025-03-03 12:22:38.275
201.0, -19984.404144812124, 2790.749405711819, -26101.897788274026, -9361.201150560517, -187500.02235174447, -17306.95573174426, -25352.82377634332, -34871.5823735693, 0.004, 0.91, -0.356, 192.0, 0.0, 0.0, 0.0, 0.0, 0.0, 0.0, 0.0, 0.0, 0.0, 1.741026158275823E9, 0.0, 2025-03-03 12:22:38.275
202.0, -19917.281856212838, 2887.2418865253794, -26094.63347132605, -9366.163237829594, -187500.02235174447, -17304.742909043183, -25345.514755906435, -34861.23351588649, 0.004, 0.91, -0.356, 192.0, 0.0, 0.0, 0.0, 0.0, 0.0, 0.0, 0.0, 0.0, 0.0, 1.741026158275839E9, 0.0, 2025-03-03 12:22:38.275
203.0, -19980.157313365617, 2841.3537551586337, -26101.517808618286, -9366.073830851774, -187500.02235174447, -17297.500943839663, -25344.665389617134, -34866.84380374477, 0.004, 0.91, -0.356, 192.0, 0.0, 0.0, 0.0, 0.0, 0.0, 0.0, 0.0, 0.0, 0.0, 1.741026158275854E9, 0.0, 2025-03-03 12:22:38.275
204.0, -20002.374947354194, 2796.516155781288, -26093.046497469724, -9338.93881308303, -187500.02235174447, -17291.08599318099, -25342.653732616156, -34867.53670782289, 0.004, 0.91, -0.356, 192.0, 0.0, 0.0, 0.0, 0.0, 0.0, 0.0, 0.0, 0.0, 0.0, 1.74102615827587E9, 0.0, 2025-03-03 12:22:38.275
205.0, -19954.117531075186, 2832.2342434208686, -26073.89105247153, -9329.349914711704, -187500.02235174447, -17287.308548368044, -25336.797575568864, -34866.84380374477, 0.004, 0.91, -0.356, 192.0, 0.0, 0.0, 0.0, 0.0, 0.0, 0.0, 0.0, 0.0, 0.0, 1.741026158275885E9, 0.0, 2025-03-03 12:22:38.275
206.0, -19909.190524720016, 2938.315622605756, -26087.860892756093, -9349.488836465936, -187500.02235174447, -17292.740022270682, -25350.745064108978, -34889.731990067005, 0.004, 0.91, -0.356, 192.0, 0.0, 0.0, 0.0, 0.0, 0.0, 0.0, 0.0, 0.0, 0.0, 1.741026158275906E9, 0.0, 2025-03-03 12:22:38.275
207.0, -19932.95042907601, 2920.3895235525997, -26081.937680475436, -9347.365420742683, -187500.02235174447, -17278.501961052654, -25343.614857627734, -34883.518205108434, 0.012, 0.936, -0.372, 192.0, 0.0, 96.0, 29.0, 64.0, 244.0, 96.0, 0.0, 0.0, 0.0, 1.741026158275922E9, 0.0, 2025-03-03 12:22:38.275
208.0, -20005.5712468113, 2832.5918713321535, -26090.051363712715, -9352.148694056117, -187500.02235174447, -17294.75167927166, -25337.95986628054, -34871.53767008039, 0.012, 0.936, -0.372, 192.0, 0.0, 0.0, 0.0, 0.0, 0.0, 0.0, 0.0, 0.0, 0.0, 1.74102615827594E9, 0.0, 2025-03-03 12:22:38.275
209.0, -19968.95908939351, 2866.924150815505, -26069.867738469573, -9324.790158842821, -187500.02235174447, -17288.04615593507, -25327.34278766427, -34847.26367560192, 0.012, 0.936, -0.372, 192.0, 0.0, 0.0, 0.0, 0.0, 0.0, 0.0, 0.0, 0.0, 0.0, 1.741026158275955E9, 0.0, 2025-03-03 12:22:38.275
210.0, -19888.895140754597, 2972.737309066929, -26068.77250299126, -9328.545251911313, -187500.02235174447, -17283.66521402183, -25337.557534880347, -34862.73108276499, 0.012, 0.936, -0.372, 192.0, 0.0, 0.0, 0.0, 0.0, 0.0, 0.0, 0.0, 0.0, 0.0, 1.741026158275971E9, 0.0, 2025-03-03 12:22:38.275
211.0, -19885.45297210848, 2989.277599963856, -26082.83175025365, -9335.317830481272, -187500.02235174447, -17291.51067632564, -25352.846128087775, -34873.23640265899, 0.012, 0.936, -0.372, 192.0, 0.0, 0.0, 0.0, 0.0, 0.0, 0.0, 0.0, 0.0, 0.0, 1.741026158336009E9, 0.0, 2025-03-03 12:22:38.336
212.0, -19991.690813504556, 2893.969761606427, -26095.21461668189, -9347.23131027595, -187500.02235174447, -17298.842048506984, -25344.464223917035, -34871.89529799167, 0.012, 0.936, -0.372, 192.0, 0.0, 0.0, 0.0, 0.0, 0.0, 0.0, 0.0, 0.0, 0.0, 1.741026158336039E9, 0.0, 2025-03-03 12:22:38.336
213.0, -19982.034859899864, 2898.3060000307564, -26088.553796834207, -9340.481083450448, -187500.02235174447, -17287.085030923492, -25336.886982546686, -34873.459920103545, 0.012, 0.936, -0.372, 192.0, 0.0, 0.0, 0.0, 0.0, 0.0, 0.0, 0.0, 0.0, 0.0, 1.741026158336059E9, 0.0, 2025-03-03 12:22:38.336
214.0, -19858.429713062014, 3008.1201205396796, -26068.325468102154, -9329.215804244972, -187500.02235174447, -17263.302774823045, -25327.789822553375, -34883.07117021932, 0.012, 0.936, -0.372, 192.0, 0.0, 0.0, 0.0, 0.0, 0.0, 0.0, 0.0, 0.0, 0.0, 1.741026158336075E9, 0.0, 2025-03-03 12:22:38.336
215.0, -19873.070105680243, 3027.0073446044144, -26082.11649443108, -9320.386865185126, -187500.02235174447, -17260.061771877023, -25331.43315689959, -34906.07111526383, 0.012, 0.936, -0.372, 192.0, 0.0, 0.0, 0.0, 0.0, 0.0, 0.0, 0.0, 0.0, 0.0, 1.741026158336091E9, 0.0, 2025-03-03 12:22:38.336
216.0, -19961.448903256525, 2943.5906342972085, -26095.706355059905, -9327.584126899736, -187500.02235174447, -17259.435923032277, -25337.19990696906, -34932.35676674328, 0.012, 0.936, -0.372, 192.0, 0.0, 0.0, 0.0, 0.0, 0.0, 0.0, 0.0, 0.0, 0.0, 1.741026158336115E9, 0.0, 2025-03-03 12:22:38.336
217.0, -19970.546063249836, 2950.1620471670685, -26098.32150916118, -9336.010734559386, -187500.02235174447, -17257.46896952021, -25331.902543533153, -34920.0409555484, 0.02, 0.9380000000000001, -0.376, 192.0, 0.0, 160.0, 29.0, 80.0, 244.0, 64.0, 0.0, 0.0, 0.0, 1.741026158336131E9, 0.0, 2025-03-03 12:22:38.336
218.0, -19927.22838249545, 3036.283318553367, -26091.437171868944, -9330.489853678924, -187500.02235174447, -17260.821731188506, -25316.792764281367, -34914.11774326774, 0.02, 0.9380000000000001, -0.376, 192.0, 0.0, 0.0, 0.0, 0.0, 0.0, 0.0, 0.0, 0.0, 0.0, 1.741026158336148E9, 0.0, 2025-03-03 12:22:38.336
219.0, -19875.484094081414, 3095.917772760126, -26087.078581700156, -9327.695885622012, -187500.02235174447, -17258.139521853867, -25319.49732536046, -34920.66680439315, 0.02, 0.9380000000000001, -0.376, 192.0, 0.0, 0.0, 0.0, 0.0, 0.0, 0.0, 0.0, 0.0, 0.0, 1.741026158336164E9, 0.0, 2025-03-03 12:22:38.336
220.0, -19947.859042627697, 2996.340751211733, -26113.565398879695, -9357.580167958757, -187500.02235174447, -17274.99273717317, -25337.848107558264, -34929.56279868636, 0.02, 0.9380000000000001, -0.376, 192.0, 0.0, 0.0, 0.0, 0.0, 0.0, 0.0, 0.0, 0.0, 0.0, 1.74102615833618E9, 0.0, 2025-03-03 12:22:38.336
221.0, -19946.33912400474, 2969.2951404208115, -26108.335090677156, -9345.823150375265, -187500.02235174447, -17287.956748957247, -25318.53620034888, -34931.17212428714, 0.02, 0.9380000000000001, -0.376, 192.0, 0.0, 0.0, 0.0, 0.0, 0.0, 0.0, 0.0, 0.0, 0.0, 1.741026158336199E9, 0.0, 2025-03-03 12:22:38.336
222.0, -19915.828992823244, 3027.07439983778, -26101.83073304066, -9327.740589110923, -187500.02235174447, -17266.70023998025, -25299.805438495332, -34917.53756016941, 0.02, 0.9380000000000001, -0.376, 192.0, 0.0, 0.0, 0.0, 0.0, 0.0, 0.0, 0.0, 0.0, 0.0, 1.741026158336215E9, 0.0, 2025-03-03 12:22:38.336
223.0, -19850.718361224936, 3114.782645080405, -26090.67721255746, -9306.305266178282, -187500.02235174447, -17243.70029493574, -25297.52556056089, -34897.935080282106, 0.02, 0.9380000000000001, -0.376, 192.0, 0.0, 0.0, 0.0, 0.0, 0.0, 0.0, 0.0, 0.0, 0.0, 1.741026158336231E9, 0.0, 2025-03-03 12:22:38.336
224.0, -19892.761992545366, 3066.234656123478, -26087.59267182263, -9313.234306959428, -187500.02235174447, -17246.02487635909, -25292.362307591717, -34914.92240606814, 0.02, 0.9380000000000001, -0.376, 192.0, 0.0, 0.0, 0.0, 0.0, 0.0, 0.0, 0.0, 0.0, 0.0, 1.741026158336247E9, 0.0, 2025-03-03 12:22:38.336
225.0, -19970.52371150538, 3010.221184518479, -26121.276750716777, -9348.61711843218, -187500.02235174447, -17268.734248725683, -25326.605180097245, -34953.97090363156, 0.02, 0.9380000000000001, -0.376, 192.0, 0.0, 0.0, 0.0, 0.0, 0.0, 0.0, 0.0, 0.0, 0.0, 1.741026158336263E9, 0.0, 2025-03-03 12:22:38.336
226.0, -19949.42366473957, 3043.815856434805, -26119.73448034936, -9340.458731705992, -187500.02235174447, -17272.13171388289, -25337.40107266916, -34969.68417998364, 0.02, 0.9380000000000001, -0.376, 192.0, 0.0, 0.0, 0.0, 0.0, 0.0, 0.0, 0.0, 0.0, 0.0, 1.741026158396312E9, 0.0, 2025-03-03 12:22:38.396
227.0, -19862.02834391932, 3129.9594795655585, -26119.041576271247, -9336.547176426313, -187500.02235174447, -17265.247376590654, -25306.846237998754, -34978.5578225324, 0.008, 0.916, -0.372, 192.0, 0.0, 64.0, 28.0, 160.0, 244.0, 96.0, 0.0, 0.0, 0.0, 1.741026158396348E9, 0.0, 2025-03-03 12:22:38.396
228.0, -19920.120527758663, 3081.2550283974447, -26134.352521223132, -9331.741551368423, -187500.02235174447, -17262.721629467207, -25313.95409273554, -34973.34986607431, 0.008, 0.916, -0.372, 192.0, 0.0, 0.0, 0.0, 0.0, 0.0, 0.0, 0.0, 0.0, 0.0, 1.741026158396366E9, 0.0, 2025-03-03 12:22:38.396
229.0, -19971.99892663943, 3009.014190317892, -26139.89575384805, -9347.678345165055, -187500.02235174447, -17284.1793041443, -25329.7791278099, -34974.266287596976, 0.008, 0.916, -0.372, 192.0, 0.0, 0.0, 0.0, 0.0, 0.0, 0.0, 0.0, 0.0, 0.0, 1.741026158396387E9, 0.0, 2025-03-03 12:22:38.396
230.0, -19944.796853637323, 3028.527263227375, -26149.32819000819, -9358.51894122588, -187500.02235174447, -17286.928568712305, -25338.40690116965, -34982.69289525663, 0.008, 0.916, -0.372, 192.0, 0.0, 0.0, 0.0, 0.0, 0.0, 0.0, 0.0, 0.0, 0.0, 1.741026158396403E9, 0.0, 2025-03-03 12:22:38.396
231.0, -19891.08561171122, 3128.8642440872486, -26153.396207499052, -9360.597653460223, -187500.02235174447, -17282.748792499162, -25330.695549332566, -34984.63749702424, 0.008, 0.916, -0.372, 192.0, 0.0, 0.0, 0.0, 0.0, 0.0, 0.0, 0.0, 0.0, 0.0, 1.741026158396426E9, 0.0, 2025-03-03 12:22:38.396
232.0, -19905.100155484695, 3107.3171624323327, -26124.048367029234, -9316.74353083891, -187500.02235174447, -17261.916966666813, -25305.48278158698, -34963.850374680806, 0.008, 0.916, -0.372, 192.0, 0.0, 0.0, 0.0, 0.0, 0.0, 0.0, 0.0, 0.0, 0.0, 1.741026158396442E9, 0.0, 2025-03-03 12:22:38.396
233.0, -19951.48002522946, 3023.341658513744, -26133.816079356206, -9333.08265603574, -187500.02235174447, -17270.812960960026, -25308.924950233097, -34974.82508120836, 0.008, 0.916, -0.372, 192.0, 0.0, 0.0, 0.0, 0.0, 0.0, 0.0, 0.0, 0.0, 0.0, 1.741026158396458E9, 0.0, 2025-03-03 12:22:38.396
234.0, -19957.80556891031, 3030.918899884093, -26143.69555040545, -9334.446112447515, -187500.02235174447, -17276.289138351578, -25315.652825314144, -34979.25072661051, 0.008, 0.916, -0.372, 192.0, 0.0, 0.0, 0.0, 0.0, 0.0, 0.0, 0.0, 0.0, 0.0, 1.741026158396474E9, 0.0, 2025-03-03 12:22:38.396
235.0, -19881.40730636207, 3128.461912687053, -26119.622721627085, -9322.487929163924, -187500.02235174447, -17259.771199199105, -25303.6722902861, -34962.084586868834, 0.008, 0.916, -0.372, 192.0, 0.0, 0.0, 0.0, 0.0, 0.0, 0.0, 0.0, 0.0, 0.0, 1.74102615839649E9, 0.0, 2025-03-03 12:22:38.396
236.0, -19901.725042071947, 3131.7029156330727, -26146.824794629192, -9329.305211222794, -187500.02235174447, -17266.61083300243, -25317.552723592846, -34961.3022758129, 0.008, 0.916, -0.372, 192.0, 0.0, 0.0, 0.0, 0.0, 0.0, 0.0, 0.0, 0.0, 0.0, 1.741026158396506E9, 0.0, 2025-03-03 12:22:38.396
237.0, -19986.304043090826, 3044.821684935294, -26150.021094086303, -9327.092388521718, -187500.02235174447, -17283.26288262163, -25318.6256073267, -34965.929086915145, 0.01, 0.922, -0.366, 192.0, 0.0, 80.0, 28.0, 208.0, 244.0, 144.0, 0.0, 0.0, 0.0, 1.741026158396525E9, 0.0, 2025-03-03 12:22:38.396
238.0, -19971.99892663943, 3041.781847689372, -26124.964788551904, -9311.870850547653, -187500.02235174447, -17273.584577272486, -25297.39145009416, -34982.06704641188, 0.01, 0.922, -0.366, 192.0, 0.0, 0.0, 0.0, 0.0, 0.0, 0.0, 0.0, 0.0, 0.0, 1.741026158396543E9, 0.0, 2025-03-03 12:22:38.396
239.0, -19880.066201694754, 3125.176206252123, -26124.048367029234, -9309.635676102123, -187500.02235174447, -17267.79547545856, -25302.308833874326, -34943.73380467103, 0.01, 0.922, -0.366, 192.0, 0.0, 0.0, 0.0, 0.0, 0.0, 0.0, 0.0, 0.0, 0.0, 1.741026158396559E9, 0.0, 2025-03-03 12:22:38.396
240.0, -19890.21389367746, 3142.945843094092, -26142.712073649418, -9316.140033738619, -187500.02235174447, -17268.89071093687, -25308.410860110627, -34961.3022758129, 0.01, 0.922, -0.366, 192.0, 0.0, 0.0, 0.0, 0.0, 0.0, 0.0, 0.0, 0.0, 0.0, 1.741026158396575E9, 0.0, 2025-03-03 12:22:38.396
241.0, -19964.555795735814, 3051.0578216383246, -26123.802497840228, -9282.165382166551, -187500.02235174447, -17242.828576901982, -25294.217502381507, -34963.31393281388, 0.01, 0.922, -0.366, 192.0, 0.0, 0.0, 0.0, 0.0, 0.0, 0.0, 0.0, 0.0, 0.0, 1.741026158456511E9, 0.0, 2025-03-03 12:22:38.456
242.0, -19962.074752101274, 3048.397964048143, -26136.07360554619, -9296.22462942894, -187500.02235174447, -17248.50591999363, -25313.238836912973, -34986.3585813473, 0.01, 0.922, -0.366, 192.0, 0.0, 0.0, 0.0, 0.0, 0.0, 0.0, 0.0, 0.0, 0.0, 1.741026158456545E9, 0.0, 2025-03-03 12:22:38.456
243.0, -19901.009786249375, 3132.328764477821, -26145.41663472851, -9320.65508611859, -187500.02235174447, -17271.014126660124, -25318.96088349353, -35021.651985842225, 0.01, 0.922, -0.366, 192.0, 0.0, 0.0, 0.0, 0.0, 0.0, 0.0, 0.0, 0.0, 0.0, 1.741026158456561E9, 0.0, 2025-03-03 12:22:38.456
244.0, -19849.31020132425, 3197.037064675935, -26145.081358561678, -9308.920420279554, -187500.02235174447, -17275.305661595543, -25315.049328213852, -35030.43622141316, 0.01, 0.922, -0.366, 192.0, 0.0, 0.0, 0.0, 0.0, 0.0, 0.0, 0.0, 0.0, 0.0, 1.741026158456586E9, 0.0, 2025-03-03 12:22:38.456
245.0, -19977.34099356425, 3091.1568511911455, -26149.954038852935, -9306.551135367292, -187500.02235174447, -17265.090914379467, -25304.499304830948, -35017.181636951165, 0.01, 0.922, -0.366, 192.0, 0.0, 0.0, 0.0, 0.0, 0.0, 0.0, 0.0, 0.0, 0.0, 1.741026158456602E9, 0.0, 2025-03-03 12:22:38.456
246.0, -19972.200092339528, 3057.6068827637296, -26138.666407903005, -9272.8894082176, -187500.02235174447, -17251.813978173017, -25303.53817981937, -34990.78422674945, 0.01, 0.922, -0.366, 192.0, 0.0, 0.0, 0.0, 0.0, 0.0, 0.0, 0.0, 0.0, 0.0, 1.741026158456622E9, 0.0, 2025-03-03 12:22:38.456
247.0, -19883.8436465077, 3124.528005662919, -26129.390433954053, -9281.31601587725, -187500.02235174447, -17253.400952029344, -25291.20001688004, -34998.40617160871, 0.018000000000000002, 0.922, -0.364, 192.0, 0.0, 144.0, 28.0, 208.0, 244.0, 160.0, 0.0, 0.0, 0.0, 1.741026158456638E9, 0.0, 2025-03-03 12:22:38.456
248.0, -19849.019628646332, 3188.141070382723, -26137.97350382489, -9289.519106092346, -187500.02235174447, -17254.60794622993, -25299.20194139504, -35020.93673001966, 0.018000000000000002, 0.922, -0.364, 192.0, 0.0, 0.0, 0.0, 0.0, 0.0, 0.0, 0.0, 0.0, 0.0, 1.741026158456655E9, 0.0, 2025-03-03 12:22:38.456
249.0, -19960.308964289306, 3108.5465083773743, -26153.46326273242, -9293.229495671929, -187500.02235174447, -17256.016106130613, -25304.454601342037, -35029.87742780178, 0.018000000000000002, 0.922, -0.364, 192.0, 0.0, 0.0, 0.0, 0.0, 0.0, 0.0, 0.0, 0.0, 0.0, 1.741026158456671E9, 0.0, 2025-03-03 12:22:38.456
250.0, -20012.38852887017, 3058.9926909199585, -26154.424387744, -9300.158536453073, -187500.02235174447, -17259.36886779891, -25299.939548962066, -35020.24382594154, 0.018000000000000002, 0.922, -0.364, 192.0, 0.0, 0.0, 0.0, 0.0, 0.0, 0.0, 0.0, 0.0, 0.0, 1.741026158456687E9, 0.0, 2025-03-03 12:22:38.456
251.0, -19940.527670446358, 3115.699066603073, -26147.428291729488, -9287.440393858004, -187500.02235174447, -17260.732324210683, -25297.34674660525, -35018.90272127423, 0.018000000000000002, 0.922, -0.364, 192.0, 0.0, 0.0, 0.0, 0.0, 0.0, 0.0, 0.0, 0.0, 0.0, 1.741026158456702E9, 0.0, 2025-03-03 12:22:38.456
252.0, -19843.20817508795, 3198.422872832164, -26150.781053397783, -9293.698882305489, -187500.02235174447, -17263.973327156702, -25297.793781494354, -35026.23409345557, 0.018000000000000002, 0.922, -0.364, 192.0, 0.0, 0.0, 0.0, 0.0, 0.0, 0.0, 0.0, 0.0, 0.0, 1.741026158456723E9, 0.0, 2025-03-03 12:22:38.456
253.0, -19909.011710764375, 3138.8331221143153, -26157.71009417893, -9276.465687330448, -187500.02235174447, -17265.336783568477, -25298.33022336128, -35037.16409649421, 0.018000000000000002, 0.922, -0.364, 192.0, 0.0, 0.0, 0.0, 0.0, 0.0, 0.0, 0.0, 0.0, 0.0, 1.741026158456739E9, 0.0, 2025-03-03 12:22:38.456
254.0, -19969.361420793703, 3073.051938182347, -26160.481710491385, -9298.191582941006, -187500.02235174447, -17272.332879582988, -25305.34867112025, -35044.33900646437, 0.018000000000000002, 0.922, -0.364, 192.0, 0.0, 0.0, 0.0, 0.0, 0.0, 0.0, 0.0, 0.0, 0.0, 1.741026158456755E9, 0.0, 2025-03-03 12:22:38.456
255.0, -19966.94743239253, 3093.9955227369696, -26168.03660011728, -9299.420928886047, -187500.02235174447, -17269.538911526073, -25306.667424043113, -35048.96581756661, 0.018000000000000002, 0.922, -0.364, 192.0, 0.0, 0.0, 0.0, 0.0, 0.0, 0.0, 0.0, 0.0, 0.0, 1.74102615845677E9, 0.0, 2025-03-03 12:22:38.456
0.0, -19900.4956961269, 3190.1750791281556, -26172.596355986163, -9310.820318558255, -187500.02235174447, -17276.69146975177, -25298.441982083557, -35056.74422463706, 0.018000000000000002, 0.922, -0.364, 192.0, 0.0, 0.0, 0.0, 0.0, 0.0, 0.0, 0.0, 0.0, 0.0, 1.74102615851683E9, 0.0, 2025-03-03 12:22:38.516
1.0, -19970.657821972112, 3150.232511786522, -26193.606995774153, -9321.616211130167, -187500.02235174447, -17297.120964183923, -25300.58774955127, -35068.52359396501, 0.014, 0.916, -0.36, 192.0, 0.0, 112.0, 28.0, 160.0, 244.0, 192.0, 0.0, 0.0, 0.0, 1.741026158516863E9, 0.0, 2025-03-03 12:22:38.516
2.0, -19974.792894696344, 3073.99071144947, -26162.761588425827, -9281.338367621705, -187500.02235174447, -17265.47089403521, -25276.492569028447, -35054.03966355797, 0.014, 0.916, -0.36, 192.0, 0.0, 0.0, 0.0, 0.0, 0.0, 0.0, 0.0, 0.0, 0.0, 1.74102615851688E9, 0.0, 2025-03-03 12:22:38.516
3.0, -19922.869792326666, 3100.812804795838, -26161.66635294752, -9287.529800835824, -187500.02235174447, -17265.202673101747, -25282.10285688673, -35062.779195639996, 0.014, 0.916, -0.36, 192.0, 0.0, 0.0, 0.0, 0.0, 0.0, 0.0, 0.0, 0.0, 0.0, 1.7410261585169E9, 0.0, 2025-03-03 12:22:38.516
4.0, -19870.27613762333, 3195.807718730893, -26161.062855847224, -9302.326655665238, -187500.02235174447, -17271.75173422715, -25285.701487744034, -35074.24564054557, 0.014, 0.916, -0.36, 192.0, 0.0, 0.0, 0.0, 0.0, 0.0, 0.0, 0.0, 0.0, 0.0, 1.741026158516916E9, 0.0, 2025-03-03 12:22:38.516
5.0, -19890.996204733397, 3206.558907813896, -26166.337867538678, -9275.571617552236, -187500.02235174447, -17265.582652757486, -25294.105743659227, -35072.30103877796, 0.014, 0.916, -0.36, 192.0, 0.0, 0.0, 0.0, 0.0, 0.0, 0.0, 0.0, 0.0, 0.0, 1.741026158516935E9, 0.0, 2025-03-03 12:22:38.516
6.0, -19980.827865699277, 3105.3502089202657, -26178.56427175573, -9278.298530375783, -187500.02235174447, -17271.774085971607, -25306.130982176186, -35072.61396320033, 0.014, 0.916, -0.36, 192.0, 0.0, 0.0, 0.0, 0.0, 0.0, 0.0, 0.0, 0.0, 0.0, 1.741026158516951E9, 0.0, 2025-03-03 12:22:38.516
7.0, -19964.66755445809, 3107.4289211546093, -26181.626460746105, -9297.230457929429, -187500.02235174447, -17288.493190824174, -25296.072697171297, -35090.1824343422, 0.014, 0.916, -0.36, 192.0, 0.0, 0.0, 0.0, 0.0, 0.0, 0.0, 0.0, 0.0, 0.0, 1.741026158516967E9, 0.0, 2025-03-03 12:22:38.516
8.0, -19920.344045203216, 3176.0487766324018, -26187.95200442696, -9302.214896942962, -187500.02235174447, -17288.493190824174, -25298.218464639005, -35104.37579207132, 0.014, 0.916, -0.36, 192.0, 0.0, 0.0, 0.0, 0.0, 0.0, 0.0, 0.0, 0.0, 0.0, 1.741026158516987E9, 0.0, 2025-03-03 12:22:38.516
9.0, -19922.422757437558, 3208.3470473703205, -26191.70709749545, -9308.629847601635, -187500.02235174447, -17297.85857175095, -25297.838484983266, -35100.106608880356, 0.014, 0.916, -0.36, 192.0, 0.0, 0.0, 0.0, 0.0, 0.0, 0.0, 0.0, 0.0, 0.0, 1.741026158517002E9, 0.0, 2025-03-03 12:22:38.517
10.0, -19991.936682693566, 3127.657249886662, -26180.017135145325, -9288.043890958297, -187500.02235174447, -17265.247376590654, -25279.353592318726, -35077.5313469805, 0.014, 0.916, -0.36, 192.0, 0.0, 0.0, 0.0, 0.0, 0.0, 0.0, 0.0, 0.0, 0.0, 1.741026158517018E9, 0.0, 2025-03-03 12:22:38.517
11.0, -19958.878452644167, 3103.7632350639387, -26189.494274794375, -9296.984588740419, -187500.02235174447, -17272.62345226091, -25278.01248765141, -35091.501187265065, 0.02, 0.912, -0.356, 192.0, 0.0, 160.0, 28.0, 128.0, 244.0, 224.0, 0.0, 0.0, 0.0, 1.741026158517038E9, 0.0, 2025-03-03 12:22:38.517
12.0, -19896.874713525143, 3168.0915556063123, -26202.435934833997, -9287.485097346915, -187500.02235174447, -17289.119039668924, -25298.687851272567, -35123.799458002984, 0.02, 0.912, -0.356, 192.0, 0.0, 0.0, 0.0, 0.0, 0.0, 0.0, 0.0, 0.0, 0.0, 1.741026158517056E9, 0.0, 2025-03-03 12:22:38.517
13.0, -19888.626919821134, 3237.583129117862, -26204.961681957448, -9286.054585701775, -187500.02235174447, -17291.823600748015, -25308.81319151082, -35110.3884113298, 0.02, 0.912, -0.356, 192.0, 0.0, 0.0, 0.0, 0.0, 0.0, 0.0, 0.0, 0.0, 0.0, 1.741026158517072E9, 0.0, 2025-03-03 12:22:38.517
14.0, -19960.867757900687, 3162.034232858924, -26187.52732128231, -9275.281044874317, -187500.02235174447, -17264.956803912737, -25286.103819144228, -35093.110512865846, 0.02, 0.912, -0.356, 192.0, 0.0, 0.0, 0.0, 0.0, 0.0, 0.0, 0.0, 0.0, 0.0, 1.741026158517088E9, 0.0, 2025-03-03 12:22:38.517
15.0, -19969.09319986024, 3113.396836924176, -26198.077344665213, -9297.945713751998, -187500.02235174447, -17275.819751718016, -25290.462409313015, -35099.748980969074, 0.02, 0.912, -0.356, 192.0, 0.0, 0.0, 0.0, 0.0, 0.0, 0.0, 0.0, 0.0, 0.0, 1.741026158576236E9, 0.0, 2025-03-03 12:22:38.576
16.0, -19949.60247869521, 3151.685375176117, -26214.215304161946, -9287.79802176929, -187500.02235174447, -17273.919853439314, -25299.514865817415, -35112.78004798652, 0.02, 0.912, -0.356, 192.0, 0.0, 0.0, 0.0, 0.0, 0.0, 0.0, 0.0, 0.0, 0.0, 1.741026158576267E9, 0.0, 2025-03-03 12:22:38.576
17.0, -19921.08165277024, 3226.586070845851, -26226.732281056917, -9297.453975373981, -187500.02235174447, -17271.215292360223, -25299.96190070652, -35119.55262655648, 0.02, 0.912, -0.356, 192.0, 0.0, 0.0, 0.0, 0.0, 0.0, 0.0, 0.0, 0.0, 0.0, 1.741026158576286E9, 0.0, 2025-03-03 12:22:38.576
18.0, -20002.509057820924, 3156.8709798897485, -26211.13076342711, -9282.45595484447, -187500.02235174447, -17268.443676047766, -25287.556682533825, -35114.635242776305, 0.02, 0.912, -0.356, 192.0, 0.0, 0.0, 0.0, 0.0, 0.0, 0.0, 0.0, 0.0, 0.0, 1.741026158576309E9, 0.0, 2025-03-03 12:22:38.576
19.0, -20039.098863494262, 3115.073217758324, -26210.974301215923, -9278.92437922053, -187500.02235174447, -17256.820768931004, -25287.154351133628, -35105.31456533844, 0.02, 0.912, -0.356, 192.0, 0.0, 0.0, 0.0, 0.0, 0.0, 0.0, 0.0, 0.0, 0.0, 1.741026158576325E9, 0.0, 2025-03-03 12:22:38.576
20.0, -19957.17972006556, 3164.3811660267315, -26210.214341904444, -9290.904914248576, -187500.02235174447, -17283.978138444203, -25296.810304738323, -35124.71587952565, 0.02, 0.912, -0.356, 192.0, 0.0, 0.0, 0.0, 0.0, 0.0, 0.0, 0.0, 0.0, 0.0, 1.741026158576341E9, 0.0, 2025-03-03 12:22:38.576
21.0, -19901.9485595165, 3259.8231148508926, -26219.356205386666, -9280.511353076858, -187500.02235174447, -17256.574899741998, -25306.77918276539, -35131.80138251798, 0.028, 0.914, -0.354, 192.0, 0.0, 224.0, 28.0, 144.0, 244.0, 240.0, 0.0, 0.0, 0.0, 1.741026158576361E9, 0.0, 2025-03-03 12:22:38.576
22.0, -19951.927060118564, 3214.136149184245, -26198.546731298775, -9257.869035943631, -187500.02235174447, -17231.585649440964, -25293.47989481448, -35114.45642882066, 0.028, 0.914, -0.354, 192.0, 0.0, 0.0, 0.0, 0.0, 0.0, 0.0, 0.0, 0.0, 0.0, 1.741026158576379E9, 0.0, 2025-03-03 12:22:38.576
23.0, -19962.544138734836, 3139.3695639812427, -26206.213379646946, -9260.797114467277, -187500.02235174447, -17255.837292174972, -25278.99596440744, -35119.93260621221, 0.028, 0.914, -0.354, 192.0, 0.0, 0.0, 0.0, 0.0, 0.0, 0.0, 0.0, 0.0, 0.0, 1.741026158576395E9, 0.0, 2025-03-03 12:22:38.576
24.0, -19988.136886136163, 3134.362773223254, -26236.790566061805, -9293.453013116481, -187500.02235174447, -17290.437792591787, -25281.253490597428, -35157.37177817486, 0.028, 0.914, -0.354, 192.0, 0.0, 0.0, 0.0, 0.0, 0.0, 0.0, 0.0, 0.0, 0.0, 1.741026158576411E9, 0.0, 2025-03-03 12:22:38.576
25.0, -19885.11769594165, 3256.5150566715074, -26215.0870221957, -9288.580332825224, -187500.02235174447, -17269.60596675944, -25270.14467360314, -35134.12596394133, 0.028, 0.914, -0.354, 192.0, 0.0, 0.0, 0.0, 0.0, 0.0, 0.0, 0.0, 0.0, 0.0, 1.741026158576428E9, 0.0, 2025-03-03 12:22:38.576
26.0, -19924.18854524953, 3240.3100419414095, -26228.743938057894, -9283.618245556147, -187500.02235174447, -17273.115190638924, -25269.362362547203, -35127.487495838104, 0.028, 0.914, -0.354, 192.0, 0.0, 0.0, 0.0, 0.0, 0.0, 0.0, 0.0, 0.0, 0.0, 1.741026158576448E9, 0.0, 2025-03-03 12:22:38.576
27.0, -19981.47606628848, 3169.72323295155, -26229.593304347196, -9269.179018638019, -187500.02235174447, -17262.833388189483, -25273.028048637876, -35123.732402769616, 0.028, 0.914, -0.354, 192.0, 0.0, 0.0, 0.0, 0.0, 0.0, 0.0, 0.0, 0.0, 0.0, 1.741026158576464E9, 0.0, 2025-03-03 12:22:38.576
28.0, -19956.017429353888, 3191.5385355399294, -26213.790621017295, -9278.07501293123, -187500.02235174447, -17259.79355094356, -25272.312792815304, -35112.9365101977, 0.028, 0.914, -0.354, 192.0, 0.0, 0.0, 0.0, 0.0, 0.0, 0.0, 0.0, 0.0, 0.0, 1.741026158576479E9, 0.0, 2025-03-03 12:22:38.576
29.0, -19939.56654543478, 3283.583019206884, -26228.788641546806, -9301.946676009498, -187500.02235174447, -17272.55639702754, -25265.115531100695, -35130.437926106206, 0.028, 0.914, -0.354, 192.0, 0.0, 0.0, 0.0, 0.0, 0.0, 0.0, 0.0, 0.0, 0.0, 1.741026158576495E9, 0.0, 2025-03-03 12:22:38.576
30.0, -19946.294420515827, 3278.93385636018, -26230.643836336596, -9279.952559465475, -187500.02235174447, -17257.78189394258, -25257.38182751916, -35130.504981339574, 0.028, 0.914, -0.354, 192.0, 0.0, 0.0, 0.0, 0.0, 0.0, 0.0, 0.0, 0.0, 0.0, 1.741026158637387E9, 0.0, 2025-03-03 12:22:38.637
31.0, -20034.71792158102, 3190.5327070394405, -26235.33770267221, -9267.16736163704, -187500.02235174447, -17259.346516054455, -25268.982382891463, -35142.127888456336, 0.032, 0.92, -0.354, 192.0, 1.0, 0.0, 28.0, 192.0, 244.0, 240.0, 0.0, 0.0, 0.0, 1.741026158637417E9, 0.0, 2025-03-03 12:22:38.637
32.0, -19976.29046157485, 3188.1634221271784, -26229.079214224723, -9279.751393765378, -187500.02235174447, -17272.13171388289, -25272.737475959955, -35149.28044668203, 0.032, 0.92, -0.354, 192.0, 0.0, 0.0, 0.0, 0.0, 0.0, 0.0, 0.0, 0.0, 0.0, 1.741026158637438E9, 0.0, 2025-03-03 12:22:38.637
33.0, -19856.708628738957, 3279.0232633380015, -26234.2424671939, -9295.822298028743, -187500.02235174447, -17279.03840291958, -25288.741324989955, -35160.2998566985, 0.032, 0.92, -0.354, 192.0, 0.0, 0.0, 0.0, 0.0, 0.0, 0.0, 0.0, 0.0, 0.0, 1.741026158637453E9, 0.0, 2025-03-03 12:22:38.637
34.0, -19869.851454478678, 3325.1125604048448, -26229.48154562492, -9285.473440345937, -187500.02235174447, -17268.667193492318, -25275.039705638854, -35152.78967056151, 0.032, 0.92, -0.354, 192.0, 0.0, 0.0, 0.0, 0.0, 0.0, 0.0, 0.0, 0.0, 0.0, 1.741026158637472E9, 0.0, 2025-03-03 12:22:38.637
35.0, -19952.195281052027, 3247.5743588893843, -26212.583626816708, -9257.578463265714, -187500.02235174447, -17250.495225250153, -25256.487757740946, -35141.63615007832, 0.032, 0.92, -0.354, 192.0, 0.0, 0.0, 0.0, 0.0, 0.0, 0.0, 0.0, 0.0, 0.0, 1.741026158637488E9, 0.0, 2025-03-03 12:22:38.637
36.0, -19955.548042720326, 3224.462655122597, -26219.80324027577, -9268.083783159707, -187500.02235174447, -17260.553510255042, -25262.835653166254, -35148.02874899253, 0.032, 0.92, -0.354, 192.0, 0.0, 0.0, 0.0, 0.0, 0.0, 0.0, 0.0, 0.0, 0.0, 1.741026158637507E9, 0.0, 2025-03-03 12:22:38.637
37.0, -19896.002995491388, 3299.1845368366885, -26213.835324506203, -9263.166399379541, -187500.02235174447, -17256.46314101972, -25261.51690024339, -35148.833411792926, 0.032, 0.92, -0.354, 192.0, 0.0, 0.0, 0.0, 0.0, 0.0, 0.0, 0.0, 0.0, 0.0, 1.741026158637523E9, 0.0, 2025-03-03 12:22:38.637
38.0, -19884.64830930809, 3356.2038369421766, -26245.194821977, -9281.494829832893, -187500.02235174447, -17277.18320812979, -25289.47893255698, -35175.96842956167, 0.032, 0.92, -0.354, 192.0, 0.0, 0.0, 0.0, 0.0, 0.0, 0.0, 0.0, 0.0, 0.0, 1.741026158637539E9, 0.0, 2025-03-03 12:22:38.637
39.0, -20013.640226559666, 3251.932949058169, -26258.62822039464, -9289.094422947695, -187500.02235174447, -17291.063641436536, -25277.72191497349, -35189.088903556934, 0.032, 0.92, -0.354, 192.0, 0.0, 0.0, 0.0, 0.0, 0.0, 0.0, 0.0, 0.0, 0.0, 1.741026158637555E9, 0.0, 2025-03-03 12:22:38.637
40.0, -20045.759683341945, 3200.8592129777926, -26257.24241223841, -9272.97881519542, -187500.02235174447, -17280.55832154254, -25271.172853848086, -35186.54080468903, 0.032, 0.92, -0.354, 192.0, 0.0, 0.0, 0.0, 0.0, 0.0, 0.0, 0.0, 0.0, 0.0, 1.741026158637571E9, 0.0, 2025-03-03 12:22:38.637
41.0, -19982.168970366594, 3270.417841722708, -26243.67490335404, -9259.254844099862, -187500.02235174447, -17269.494208037166, -25270.681115470066, -35176.59427840642, 0.03, 0.932, -0.36, 192.0, 0.0, 240.0, 29.0, 32.0, 244.0, 192.0, 0.0, 0.0, 0.0, 1.741026158637587E9, 0.0, 2025-03-03 12:22:38.637
42.0, -19850.807768202754, 3384.009407044579, -26211.823667505225, -9259.768934222333, -187500.02235174447, -17272.712859238727, -25264.489682255946, -35165.21724047867, 0.03, 0.932, -0.36, 192.0, 0.0, 0.0, 0.0, 0.0, 0.0, 0.0, 0.0, 0.0, 0.0, 1.741026158637609E9, 0.0, 2025-03-03 12:22:38.637
43.0, -19933.97860932095, 3305.5100805175402, -26222.820725777237, -9264.59691102468, -187500.02235174447, -17262.94514691176, -25247.547059958826, -35162.98206603314, 0.03, 0.932, -0.36, 192.0, 0.0, 0.0, 0.0, 0.0, 0.0, 0.0, 0.0, 0.0, 0.0, 1.741026158637629E9, 0.0, 2025-03-03 12:22:38.637
44.0, -19992.942511194055, 3232.5763383598733, -26227.469888623942, -9262.249977856873, -187500.02235174447, -17251.501053750642, -25250.788062904845, -35185.75849363309, 0.03, 0.932, -0.36, 192.0, 0.0, 0.0, 0.0, 0.0, 0.0, 0.0, 0.0, 0.0, 0.0, 1.741026158637645E9, 0.0, 2025-03-03 12:22:38.637
45.0, -20002.017319442908, 3273.8600103688254, -26230.152097958577, -9274.990472196398, -187500.02235174447, -17268.644841747864, -25266.43428402356, -35182.785711620534, 0.03, 0.932, -0.36, 192.0, 0.0, 0.0, 0.0, 0.0, 0.0, 0.0, 0.0, 0.0, 0.0, 1.741026158696391E9, 0.0, 2025-03-03 12:22:38.696
46.0, -19888.22458842094, 3376.81214532997, -26239.070443996246, -9293.900048005587, -187500.02235174447, -17279.440734319774, -25282.996926664942, -35164.18906023372, 0.03, 0.932, -0.36, 192.0, 0.0, 0.0, 0.0, 0.0, 0.0, 0.0, 0.0, 0.0, 0.0, 1.741026158696433E9, 0.0, 2025-03-03 12:22:38.696
47.0, -19989.545046036845, 3306.3147433179315, -26246.11124349967, -9268.284948859806, -187500.02235174447, -17274.03161216159, -25274.48091202747, -35175.43198769474, 0.03, 0.932, -0.36, 192.0, 0.0, 0.0, 0.0, 0.0, 0.0, 0.0, 0.0, 0.0, 0.0, 1.741026158696452E9, 0.0, 2025-03-03 12:22:38.696
48.0, -19998.373985096692, 3243.752210587527, -26239.13749922961, -9266.675623259023, -187500.02235174447, -17275.976213929203, -25269.362362547203, -35180.88581334184, 0.03, 0.932, -0.36, 192.0, 0.0, 0.0, 0.0, 0.0, 0.0, 0.0, 0.0, 0.0, 0.0, 1.741026158696468E9, 0.0, 2025-03-03 12:22:38.696
49.0, -19992.361365838216, 3274.038824324468, -26258.91879307256, -9283.774707767334, -187500.02235174447, -17278.591368030473, -25286.86377845571, -35193.78276989255, 0.03, 0.932, -0.36, 192.0, 0.0, 0.0, 0.0, 0.0, 0.0, 0.0, 0.0, 0.0, 0.0, 1.741026158696488E9, 0.0, 2025-03-03 12:22:38.696
50.0, -19920.23228648094, 3371.157153982777, -26266.339572231722, -9281.763050766356, -187500.02235174447, -17286.883865223394, -25290.596519779745, -35204.1092758309, 0.03, 0.932, -0.36, 192.0, 0.0, 0.0, 0.0, 0.0, 0.0, 0.0, 0.0, 0.0, 0.0, 1.741026158696504E9, 0.0, 2025-03-03 12:22:38.696
51.0, -19984.113572134207, 3349.4089066277634, -26283.72922941795, -9289.787327025811, -187500.02235174447, -17290.773068758615, -25284.896824943644, -35210.50187474512, 0.022, 0.936, -0.358, 192.0, 0.0, 176.0, 29.0, 64.0, 244.0, 208.0, 0.0, 0.0, 0.0, 1.741026158696526E9, 0.0, 2025-03-03 12:22:38.696
52.0, -20056.15324451366, 3276.5422197034623, -26256.19188024901, -9275.616321041147, -187500.02235174447, -17284.31341461103, -25270.055266625317, -35199.437761239744, 0.022, 0.936, -0.358, 192.0, 0.0, 0.0, 0.0, 0.0, 0.0, 0.0, 0.0, 0.0, 0.0, 1.741026158696544E9, 0.0, 2025-03-03 12:22:38.696
53.0, -19973.496493517934, 3296.0552926129453, -26230.599132847685, -9255.276233586817, -187500.02235174447, -17267.70606848074, -25255.39252226264, -35187.65839191179, 0.022, 0.936, -0.358, 192.0, 0.0, 0.0, 0.0, 0.0, 0.0, 0.0, 0.0, 0.0, 0.0, 1.74102615869656E9, 0.0, 2025-03-03 12:22:38.696
54.0, -19939.834766368243, 3382.8471163329027, -26249.464005167963, -9277.918550720042, -187500.02235174447, -17264.75563821264, -25262.925060144076, -35197.98489785015, 0.022, 0.936, -0.358, 192.0, 0.0, 0.0, 0.0, 0.0, 0.0, 0.0, 0.0, 0.0, 0.0, 1.741026158696576E9, 0.0, 2025-03-03 12:22:38.696
55.0, -19923.830917338244, 3399.096834551911, -26245.06071151027, -9263.12169589063, -187500.02235174447, -17272.489341794175, -25248.7093506705, -35187.81485412298, 0.022, 0.936, -0.358, 192.0, 0.0, 0.0, 0.0, 0.0, 0.0, 0.0, 0.0, 0.0, 0.0, 1.741026158696592E9, 0.0, 2025-03-03 12:22:38.696
56.0, -19948.551946705815, 3322.452702814663, -26233.482507882418, -9241.284041557794, -187500.02235174447, -17247.14246358186, -25247.122376814175, -35179.74587437462, 0.022, 0.936, -0.358, 192.0, 0.0, 0.0, 0.0, 0.0, 0.0, 0.0, 0.0, 0.0, 0.0, 1.741026158696607E9, 0.0, 2025-03-03 12:22:38.696
57.0, -19964.153464335617, 3318.272926601521, -26245.552449888284, -9262.562902279247, -187500.02235174447, -17258.050114876045, -25251.05628383831, -35187.81485412298, 0.022, 0.936, -0.358, 192.0, 0.0, 0.0, 0.0, 0.0, 0.0, 0.0, 0.0, 0.0, 0.0, 1.741026158696627E9, 0.0, 2025-03-03 12:22:38.696
58.0, -19969.316717304795, 3387.451575690696, -26264.19380476401, -9273.984643695909, -187500.02235174447, -17269.449504548254, -25265.89784215663, -35196.375572249366, 0.022, 0.936, -0.358, 192.0, 0.0, 0.0, 0.0, 0.0, 0.0, 0.0, 0.0, 0.0, 0.0, 1.741026158696643E9, 0.0, 2025-03-03 12:22:38.696
59.0, -19971.149560350128, 3399.0744828074558, -26284.243319540423, -9276.420983841537, -187500.02235174447, -17286.347423356467, -25266.993077634943, -35208.467865999686, 0.022, 0.936, -0.358, 192.0, 0.0, 0.0, 0.0, 0.0, 0.0, 0.0, 0.0, 0.0, 0.0, 1.741026158696659E9, 0.0, 2025-03-03 12:22:38.696
60.0, -20048.397189187668, 3313.0202666545233, -26260.818691351258, -9269.201370382472, -187500.02235174447, -17281.877074465403, -25252.978533861464, -35195.12387455987, 0.022, 0.936, -0.358, 192.0, 0.0, 0.0, 0.0, 0.0, 0.0, 0.0, 0.0, 0.0, 0.0, 1.741026158756616E9, 0.0, 2025-03-03 12:22:38.756
61.0, -20045.49146240848, 3293.7307111895934, -26273.49213045742, -9293.229495671929, -187500.02235174447, -17293.120001926425, -25257.784158919356, -35205.71860143168, 0.016, 0.934, -0.358, 192.0, 0.0, 128.0, 29.0, 48.0, 244.0, 208.0, 0.0, 0.0, 0.0, 1.741026158756643E9, 0.0, 2025-03-03 12:22:38.756
62.0, -19949.781292650856, 3381.550715154495, -26245.328932443732, -9278.298530375783, -187500.02235174447, -17287.1297344124, -25243.94842910152, -35188.23953726763, 0.016, 0.934, -0.358, 192.0, 0.0, 0.0, 0.0, 0.0, 0.0, 0.0, 0.0, 0.0, 0.0, 1.741026158756684E9, 0.0, 2025-03-03 12:22:38.756
63.0, -19935.02914131035, 3455.44558232374, -26251.319199957754, -9267.413230826049, -187500.02235174447, -17292.404746103854, -25249.893993126632, -35201.739990918635, 0.016, 0.934, -0.358, 192.0, 0.0, 0.0, 0.0, 0.0, 0.0, 0.0, 0.0, 0.0, 0.0, 1.741026158756705E9, 0.0, 2025-03-03 12:22:38.756
64.0, -19977.251586586426, 3368.6090551148723, -26286.21027305249, -9288.870905503143, -187500.02235174447, -17311.783708546605, -25259.818167664787, -35220.35899404991, 0.016, 0.934, -0.358, 192.0, 0.0, 0.0, 0.0, 0.0, 0.0, 0.0, 0.0, 0.0, 0.0, 1.741026158756726E9, 0.0, 2025-03-03 12:22:38.756
65.0, -19939.119510545675, 3354.1698281967438, -26239.04809225179, -9252.92930041901, -187500.02235174447, -17267.437847547277, -25219.540324156325, -35149.5486676155, 0.016, 0.934, -0.358, 192.0, 0.0, 0.0, 0.0, 0.0, 0.0, 0.0, 0.0, 0.0, 0.0, 1.741026158756743E9, 0.0, 2025-03-03 12:22:38.756
66.0, -19957.17972006556, 3375.873372062847, -26268.53004318834, -9251.968175407432, -187500.02235174447, -17268.913062681328, -25230.13505102814, -35142.06083322297, 0.016, 0.934, -0.358, 192.0, 0.0, 0.0, 0.0, 0.0, 0.0, 0.0, 0.0, 0.0, 0.0, 1.741026158756763E9, 0.0, 2025-03-03 12:22:38.756
67.0, -20002.28554037637, 3424.130788341855, -26267.077179798747, -9258.517236532836, -187500.02235174447, -17270.209463859734, -25221.015539290376, -35132.22606566263, 0.016, 0.934, -0.358, 192.0, 0.0, 0.0, 0.0, 0.0, 0.0, 0.0, 0.0, 0.0, 0.0, 1.741026158756779E9, 0.0, 2025-03-03 12:22:38.756
68.0, -19977.98919415345, 3368.2737789480425, -26267.85949085468, -9253.555149263759, -187500.02235174447, -17278.79253373057, -25214.600588631703, -35138.64101632131, 0.016, 0.934, -0.358, 192.0, 0.0, 0.0, 0.0, 0.0, 0.0, 0.0, 0.0, 0.0, 0.0, 1.741026158756795E9, 0.0, 2025-03-03 12:22:38.756
69.0, -20030.15816571214, 3321.871557458825, -26268.10536004369, -9250.202387595462, -187500.02235174447, -17265.962632413226, -25216.098155510208, -35115.395202087784, 0.016, 0.934, -0.358, 192.0, 0.0, 0.0, 0.0, 0.0, 0.0, 0.0, 0.0, 0.0, 0.0, 1.741026158756811E9, 0.0, 2025-03-03 12:22:38.756
70.0, -19974.010583640407, 3365.122182979844, -26249.709874356973, -9238.847701412165, -187500.02235174447, -17259.21240558772, -25196.98741400092, -35096.91030942325, 0.016, 0.934, -0.358, 192.0, 0.0, 0.0, 0.0, 0.0, 0.0, 0.0, 0.0, 0.0, 0.0, 1.741026158756827E9, 0.0, 2025-03-03 12:22:38.756
71.0, -19938.918344845577, 3444.247358351631, -26254.604906392684, -9244.167416592529, -187500.02235174447, -17264.576824256997, -25197.45680063448, -35107.41562931724, 0.014, 0.924, -0.356, 192.0, 0.0, 112.0, 28.0, 224.0, 244.0, 224.0, 0.0, 0.0, 0.0, 1.741026158756843E9, 0.0, 2025-03-03 12:22:38.756
72.0, -19997.122287407194, 3392.905401337791, -26252.48149066943, -9239.294736301272, -187500.02235174447, -17259.994716643658, -25179.46364634796, -35098.85491119086, 0.014, 0.924, -0.356, 192.0, 0.0, 0.0, 0.0, 0.0, 0.0, 0.0, 0.0, 0.0, 0.0, 1.741026158756865E9, 0.0, 2025-03-03 12:22:38.756
73.0, -20018.982293484485, 3324.486711560096, -26243.496089398395, -9242.982774136397, -187500.02235174447, -17262.721629467207, -25185.94565224, -35097.67026873473, 0.014, 0.924, -0.356, 192.0, 0.0, 0.0, 0.0, 0.0, 0.0, 0.0, 0.0, 0.0, 0.0, 1.741026158756881E9, 0.0, 2025-03-03 12:22:38.756
74.0, -20062.277622494417, 3328.286508117498, -26273.96151709098, -9264.105172646663, -187500.02235174447, -17276.13267614039, -25195.713364566967, -35109.06965840694, 0.014, 0.924, -0.356, 192.0, 0.0, 0.0, 0.0, 0.0, 0.0, 0.0, 0.0, 0.0, 0.0, 1.741026158756897E9, 0.0, 2025-03-03 12:22:38.756
75.0, -20002.777278754387, 3412.127901569355, -26254.180223248033, -9266.608568025656, -187500.02235174447, -17269.51655978162, -25184.045753961298, -35098.87726293531, 0.014, 0.924, -0.356, 192.0, 0.0, 0.0, 0.0, 0.0, 0.0, 0.0, 0.0, 0.0, 0.0, 1.741026158816886E9, 0.0, 2025-03-03 12:22:38.816
76.0, -19904.78723106232, 3394.827651360947, -26229.638007836107, -9234.556166476747, -187500.02235174447, -17243.946164124747, -25178.815445758755, -35089.46717851963, 0.014, 0.924, -0.356, 192.0, 0.0, 0.0, 0.0, 0.0, 0.0, 0.0, 0.0, 0.0, 0.0, 1.741026158816913E9, 0.0, 2025-03-03 12:22:38.816
77.0, -20007.851124745743, 3300.659751970739, -26236.05295849478, -9253.555149263759, -187500.02235174447, -17266.4767225357, -25176.6920300355, -35094.853948933356, 0.014, 0.924, -0.356, 192.0, 0.0, 0.0, 0.0, 0.0, 0.0, 0.0, 0.0, 0.0, 0.0, 1.741026158816949E9, 0.0, 2025-03-03 12:22:38.816
78.0, -19995.892941462153, 3297.7316734470933, -26229.325083413733, -9244.033306125797, -187500.02235174447, -17248.863547904915, -25166.253765374873, -35086.44969301816, 0.014, 0.924, -0.356, 192.0, 0.0, 0.0, 0.0, 0.0, 0.0, 0.0, 0.0, 0.0, 0.0, 1.741026158816969E9, 0.0, 2025-03-03 12:22:38.816
79.0, -19928.189507507028, 3391.1172617813663, -26233.258990437866, -9238.35596303415, -187500.02235174447, -17247.835367659973, -25170.165320654552, -35092.77523669902, 0.014, 0.924, -0.356, 192.0, 0.0, 0.0, 0.0, 0.0, 0.0, 0.0, 0.0, 0.0, 0.0, 1.741026158816985E9, 0.0, 2025-03-03 12:22:38.816
80.0, -19947.76963564988, 3373.414680172763, -26237.975208517935, -9241.01582062433, -187500.02235174447, -17245.04139960306, -25155.234355358407, -35089.534233752995, 0.014, 0.924, -0.356, 192.0, 0.0, 0.0, 0.0, 0.0, 0.0, 0.0, 0.0, 0.0, 0.0, 1.741026158817005E9, 0.0, 2025-03-03 12:22:38.817
81.0, -20043.59156412978, 3265.2769404979877, -26238.33283642922, -9233.326820531705, -187500.02235174447, -17251.433998517277, -25150.473433789426, -35109.20376887367, 0.014, 0.916, -0.354, 192.0, 0.0, 112.0, 28.0, 160.0, 244.0, 240.0, 0.0, 0.0, 0.0, 1.741026158817021E9, 0.0, 2025-03-03 12:22:38.817
82.0, -20028.05710173334, 3242.455809409119, -26260.885746584627, -9252.795189952278, -187500.02235174447, -17275.46212380673, -25182.279966149326, -35136.69641455369, 0.014, 0.916, -0.354, 192.0, 0.0, 0.0, 0.0, 0.0, 0.0, 0.0, 0.0, 0.0, 0.0, 1.741026158817042E9, 0.0, 2025-03-03 12:22:38.817
83.0, -19959.884281144656, 3332.0416011859897, -26238.66811259605, -9251.40938179605, -187500.02235174447, -17269.09187663697, -25186.88442550712, -35106.722725239124, 0.014, 0.916, -0.354, 192.0, 0.0, 0.0, 0.0, 0.0, 0.0, 0.0, 0.0, 0.0, 0.0, 1.741026158817058E9, 0.0, 2025-03-03 12:22:38.817
84.0, -19966.634507970157, 3350.5041421060732, -26238.53400212932, -9248.794227694778, -187500.02235174447, -17264.196844601258, -25186.70561155148, -35107.08035315041, 0.014, 0.916, -0.354, 192.0, 0.0, 0.0, 0.0, 0.0, 0.0, 0.0, 0.0, 0.0, 0.0, 1.741026158817074E9, 0.0, 2025-03-03 12:22:38.817
85.0, -20058.321363725827, 3234.8338645498593, -26261.310429729278, -9258.628995255112, -187500.02235174447, -17263.593347500962, -25187.711440051968, -35109.62845201832, 0.014, 0.916, -0.354, 192.0, 0.0, 0.0, 0.0, 0.0, 0.0, 0.0, 0.0, 0.0, 0.0, 1.741026158817091E9, 0.0, 2025-03-03 12:22:38.817
86.0, -20164.022763254972, 3175.8923144212145, -26275.593194436216, -9266.474457558925, -187500.02235174447, -17260.866434677417, -25177.87667249163, -35115.79753348798, 0.014, 0.916, -0.354, 192.0, 0.0, 0.0, 0.0, 0.0, 0.0, 0.0, 0.0, 0.0, 0.0, 1.741026158817107E9, 0.0, 2025-03-03 12:22:38.817
87.0, -20027.453604633047, 3245.4956466550407, -26229.03451073581, -9251.454085284959, -187500.02235174447, -17262.49811202265, -25174.9932974569, -35113.60706253136, 0.014, 0.916, -0.354, 192.0, 0.0, 0.0, 0.0, 0.0, 0.0, 0.0, 0.0, 0.0, 0.0, 1.741026158817127E9, 0.0, 2025-03-03 12:22:38.817
88.0, -19953.446978741526, 3289.349769276353, -26237.416414906555, -9236.433713010993, -187500.02235174447, -17267.84017894747, -25183.397553372095, -35126.61577780435, 0.014, 0.916, -0.354, 192.0, 0.0, 0.0, 0.0, 0.0, 0.0, 0.0, 0.0, 0.0, 0.0, 1.741026158817146E9, 0.0, 2025-03-03 12:22:38.817
89.0, -20086.55161697288, 3150.8360088868153, -26251.81093833577, -9238.959460134443, -187500.02235174447, -17269.69537373726, -25185.40921037307, -35117.80919048896, 0.014, 0.916, -0.354, 192.0, 0.0, 0.0, 0.0, 0.0, 0.0, 0.0, 0.0, 0.0, 0.0, 1.741026158817162E9, 0.0, 2025-03-03 12:22:38.817
90.0, -20124.057844168885, 3062.36780433271, -26252.168566247055, -9241.239338068885, -187500.02235174447, -17277.026745918603, -25170.768817754844, -35126.302853381974, 0.014, 0.916, -0.354, 192.0, 0.0, 0.0, 0.0, 0.0, 0.0, 0.0, 0.0, 0.0, 0.0, 1.741026158877269E9, 0.0, 2025-03-03 12:22:38.877
91.0, -20090.954910630575, 3083.5796098207966, -26234.465984638453, -9231.78455016429, -187500.02235174447, -17264.487417279175, -25162.230451372918, -35119.105591667365, 0.022, 0.924, -0.354, 192.0, 0.0, 176.0, 28.0, 224.0, 244.0, 240.0, 0.0, 0.0, 0.0, 1.741026158877295E9, 0.0, 2025-03-03 12:22:38.877
92.0, -20014.53429633788, 3142.5658634383517, -26237.23760095091, -9238.490073500881, -187500.02235174447, -17270.12005688191, -25182.16820742705, -35133.18719067421, 0.022, 0.924, -0.354, 192.0, 0.0, 0.0, 0.0, 0.0, 0.0, 0.0, 0.0, 0.0, 0.0, 1.741026158877331E9, 0.0, 2025-03-03 12:22:38.877
93.0, -20067.507930696956, 3049.7167169710065, -26232.454327637475, -9221.011009336831, -187500.02235174447, -17273.89750169486, -25173.674544534035, -35133.56717032995, 0.022, 0.924, -0.354, 192.0, 0.0, 0.0, 0.0, 0.0, 0.0, 0.0, 0.0, 0.0, 0.0, 1.741026158877356E9, 0.0, 2025-03-03 12:22:38.877
94.0, -20150.723475304065, 2963.081355462236, -26250.313371457265, -9229.459968740937, -187500.02235174447, -17276.71382149623, -25179.865977748155, -35138.28338841002, 0.022, 0.924, -0.354, 192.0, 0.0, 0.0, 0.0, 0.0, 0.0, 0.0, 0.0, 0.0, 0.0, 1.741026158877372E9, 0.0, 2025-03-03 12:22:38.877
95.0, -20135.926620474653, 2983.3990911721103, -26224.228885677923, -9219.669904669512, -187500.02235174447, -17260.620565488407, -25174.859186990165, -35126.32520512643, 0.022, 0.924, -0.354, 192.0, 0.0, 0.0, 0.0, 0.0, 0.0, 0.0, 0.0, 0.0, 0.0, 1.741026158877394E9, 0.0, 2025-03-03 12:22:38.877
96.0, -20072.7382388995, 3056.3104815853217, -26224.988844989402, -9236.701933944456, -187500.02235174447, -17279.66425176433, -25174.278041634327, -35138.03751922101, 0.022, 0.924, -0.354, 192.0, 0.0, 0.0, 0.0, 0.0, 0.0, 0.0, 0.0, 0.0, 0.0, 1.74102615887741E9, 0.0, 2025-03-03 12:22:38.877
97.0, -20148.89063225873, 2974.4583933899876, -26243.741958587405, -9242.535739247292, -187500.02235174447, -17288.940225713282, -25167.818387486743, -35147.916990270256, 0.022, 0.924, -0.354, 192.0, 0.0, 0.0, 0.0, 0.0, 0.0, 0.0, 0.0, 0.0, 0.0, 1.741026158877429E9, 0.0, 2025-03-03 12:22:38.877
98.0, -20195.941054337152, 2899.6694564425297, -26240.076272496735, -9234.265593798827, -187500.02235174447, -17274.813923217527, -25170.70176252148, -35146.48647862512, 0.022, 0.924, -0.354, 192.0, 0.0, 0.0, 0.0, 0.0, 0.0, 0.0, 0.0, 0.0, 0.0, 1.741026158877445E9, 0.0, 2025-03-03 12:22:38.877
99.0, -20150.41055088169, 2946.8092854987726, -26242.490260897906, -9234.422056010015, -187500.02235174447, -17276.46795230722, -25177.161416669063, -35154.77897581804, 0.022, 0.924, -0.354, 192.0, 0.0, 0.0, 0.0, 0.0, 0.0, 0.0, 0.0, 0.0, 0.0, 1.741026158877461E9, 0.0, 2025-03-03 12:22:38.877
100.0, -20047.570174642824, 3076.002368450447, -26236.23177245042, -9237.774817678312, -187500.02235174447, -17280.021879675613, -25173.719248022946, -35169.553478903, 0.022, 0.924, -0.354, 192.0, 0.0, 0.0, 0.0, 0.0, 0.0, 0.0, 0.0, 0.0, 0.0, 1.741026158877477E9, 0.0, 2025-03-03 12:22:38.877
101.0, -20077.92384361313, 3089.5475255903634, -26256.415397693563, -9249.01774513933, -187500.02235174447, -17289.70018502476, -25172.55695731127, -35167.6535806243, 0.032, 0.928, -0.34800000000000003, 192.0, 1.0, 0.0, 29.0, 0.0, 245.0, 32.0, 0.0, 0.0, 0.0, 1.741026158877493E9, 0.0, 2025-03-03 12:22:38.877
102.0, -20114.357187075282, 3070.6379497811736, -26234.644798594094, -9221.793320392766, -187500.02235174447, -17269.628318503896, -25159.50353854937, -35123.66534753625, 0.032, 0.928, -0.34800000000000003, 192.0, 0.0, 0.0, 0.0, 0.0, 0.0, 0.0, 0.0, 0.0, 0.0, 1.74102615887751E9, 0.0, 2025-03-03 12:22:38.877
103.0, -19989.992080925953, 3131.7029156330727, -26232.029644492824, -9245.776742193311, -187500.02235174447, -17280.737135498184, -25176.93789922451, -35127.934530727216, 0.032, 0.928, -0.34800000000000003, 192.0, 0.0, 0.0, 0.0, 0.0, 0.0, 0.0, 0.0, 0.0, 0.0, 1.74102615887753E9, 0.0, 2025-03-03 12:22:38.877
104.0, -20003.49253457696, 3253.430515936675, -26258.583516905728, -9253.7339632194, -187500.02235174447, -17279.17251338631, -25182.97287022744, -35157.23766770812, 0.032, 0.928, -0.34800000000000003, 192.0, 0.0, 0.0, 0.0, 0.0, 0.0, 0.0, 0.0, 0.0, 0.0, 1.741026158877546E9, 0.0, 2025-03-03 12:22:38.877
105.0, -20049.91710781063, 3298.737501947582, -26235.04712999429, -9228.744712918367, -187500.02235174447, -17260.531158510585, -25161.336381594705, -35134.72946104163, 0.032, 0.928, -0.34800000000000003, 192.0, 0.0, 0.0, 0.0, 0.0, 0.0, 0.0, 0.0, 0.0, 0.0, 1.741026158937496E9, 0.0, 2025-03-03 12:22:38.937
106.0, -20114.98303592003, 3204.368436857276, -26259.030551794836, -9243.228643325407, -187500.02235174447, -17280.535969798086, -25172.55695731127, -35146.70999606967, 0.032, 0.928, -0.34800000000000003, 192.0, 0.0, 0.0, 0.0, 0.0, 0.0, 0.0, 0.0, 0.0, 0.0, 1.741026158937517E9, 0.0, 2025-03-03 12:22:38.937
107.0, -20009.751023024444, 3220.4840446095523, -26240.679769597027, -9244.770913692822, -187500.02235174447, -17270.2765190931, -25174.5909660567, -35151.828545549935, 0.032, 0.928, -0.34800000000000003, 192.0, 0.0, 0.0, 0.0, 0.0, 0.0, 0.0, 0.0, 0.0, 0.0, 1.741026158937533E9, 0.0, 2025-03-03 12:22:38.937
108.0, -19937.800757622812, 3324.710229004649, -26253.263801725367, -9262.942881934987, -187500.02235174447, -17286.81680999003, -25185.49861735089, -35174.29204872752, 0.032, 0.928, -0.34800000000000003, 192.0, 0.0, 0.0, 0.0, 0.0, 0.0, 0.0, 0.0, 0.0, 0.0, 1.741026158937562E9, 0.0, 2025-03-03 12:22:38.937
109.0, -20009.035767201873, 3374.956950540179, -26265.221985008957, -9253.44339054148, -187500.02235174447, -17291.913007725838, -25180.26830914835, -35162.24445846611, 0.032, 0.928, -0.34800000000000003, 192.0, 0.0, 0.0, 0.0, 0.0, 0.0, 0.0, 0.0, 0.0, 0.0, 1.741026158937578E9, 0.0, 2025-03-03 12:22:38.937
110.0, -20052.308744467347, 3296.3011618019536, -26255.52132791535, -9249.285966072794, -187500.02235174447, -17283.799324488562, -25167.304297364273, -35151.828545549935, 0.032, 0.928, -0.34800000000000003, 192.0, 0.0, 0.0, 0.0, 0.0, 0.0, 0.0, 0.0, 0.0, 0.0, 1.7410261589376E9, 0.0, 2025-03-03 12:22:38.937
111.0, -20058.321363725827, 3273.614141179817, -26273.62624092415, -9255.723268475922, -187500.02235174447, -17270.053001648546, -25182.54818708279, -35161.685664854725, 0.036000000000000004, 0.924, -0.34600000000000003, 192.0, 1.0, 32.0, 28.0, 224.0, 245.0, 48.0, 0.0, 0.0, 0.0, 1.741026158937616E9, 0.0, 2025-03-03 12:22:38.937
112.0, -19996.317624606803, 3353.0075374850676, -26258.784682605827, -9250.627070740113, -187500.02235174447, -17268.376620814397, -25171.88640497761, -35164.18906023372, 0.036000000000000004, 0.924, -0.34600000000000003, 192.0, 0.0, 0.0, 0.0, 0.0, 0.0, 0.0, 0.0, 0.0, 0.0, 1.741026158937638E9, 0.0, 2025-03-03 12:22:38.937
113.0, -19977.899787175633, 3408.2386980341316, -26241.1938597195, -9243.250995069862, -187500.02235174447, -17260.173530599302, -25144.885497675597, -35154.28723744002, 0.036000000000000004, 0.924, -0.34600000000000003, 192.0, 0.0, 0.0, 0.0, 0.0, 0.0, 0.0, 0.0, 0.0, 0.0, 1.741026158937654E9, 0.0, 2025-03-03 12:22:38.937
114.0, -20170.638879613743, 3305.6665427287276, -26279.102418315702, -9263.12169589063, -187500.02235174447, -17263.347478311953, -25163.862128718156, -35167.206545735186, 0.036000000000000004, 0.924, -0.34600000000000003, 192.0, 0.0, 0.0, 0.0, 0.0, 0.0, 0.0, 0.0, 0.0, 0.0, 1.74102615893767E9, 0.0, 2025-03-03 12:22:38.937
115.0, -20138.295905386916, 3260.292501484454, -26283.52806371785, -9268.26259711535, -187500.02235174447, -17282.94995819926, -25176.31205037976, -35185.19970002171, 0.036000000000000004, 0.924, -0.34600000000000003, 192.0, 0.0, 0.0, 0.0, 0.0, 0.0, 0.0, 0.0, 0.0, 0.0, 1.741026158937687E9, 0.0, 2025-03-03 12:22:38.937
116.0, -19992.853104216232, 3311.3438858203754, -26262.025685551846, -9250.69412597348, -187500.02235174447, -17284.447525077765, -25174.188634656508, -35187.85955761189, 0.036000000000000004, 0.924, -0.34600000000000003, 192.0, 0.0, 0.0, 0.0, 0.0, 0.0, 0.0, 0.0, 0.0, 0.0, 1.741026158937703E9, 0.0, 2025-03-03 12:22:38.937
117.0, -19898.618149592658, 3397.733378140137, -26246.96060978897, -9251.990527151887, -187500.02235174447, -17272.3775830719, -25166.097303163686, -35183.67978139875, 0.036000000000000004, 0.924, -0.34600000000000003, 192.0, 0.0, 0.0, 0.0, 0.0, 0.0, 0.0, 0.0, 0.0, 0.0, 1.741026158937719E9, 0.0, 2025-03-03 12:22:38.937
118.0, -20009.549857324346, 3320.1057696468556, -26271.279307756344, -9260.97592842292, -187500.02235174447, -17276.08797265148, -25169.606527043168, -35189.75945589059, 0.036000000000000004, 0.924, -0.34600000000000003, 192.0, 0.0, 0.0, 0.0, 0.0, 0.0, 0.0, 0.0, 0.0, 0.0, 1.741026158937739E9, 0.0, 2025-03-03 12:22:38.937
119.0, -20061.07062829383, 3262.4382689521635, -26271.413418223074, -9244.279175314805, -187500.02235174447, -17261.51463526662, -25176.580271313225, -35194.8556536264, 0.036000000000000004, 0.924, -0.34600000000000003, 192.0, 0.0, 0.0, 0.0, 0.0, 0.0, 0.0, 0.0, 0.0, 0.0, 1.741026158937755E9, 0.0, 2025-03-03 12:22:38.937
120.0, -20048.82187233232, 3298.648094969761, -26278.700086915505, -9251.364678307138, -187500.02235174447, -17277.429077318797, -25197.300338423294, -35211.68651720125, 0.036000000000000004, 0.924, -0.34600000000000003, 192.0, 0.0, 0.0, 0.0, 0.0, 0.0, 0.0, 0.0, 0.0, 0.0, 1.741026158996324E9, 0.0, 2025-03-03 12:22:38.996
121.0, -20057.15907301415, 3386.713968123671, -26277.358982248188, -9249.241262583884, -187500.02235174447, -17271.237644104676, -25174.702724778977, -35206.16563632079, 0.036000000000000004, 0.912, -0.34800000000000003, 192.0, 1.0, 32.0, 28.0, 128.0, 245.0, 32.0, 0.0, 0.0, 0.0, 1.74102615899635E9, 0.0, 2025-03-03 12:22:38.996
122.0, -20038.80829081634, 3343.7986187694814, -26267.121883287655, -9244.390934037083, -187500.02235174447, -17275.08214415099, -25168.42188458704, -35205.182159564756, 0.036000000000000004, 0.912, -0.34800000000000003, 192.0, 0.0, 0.0, 0.0, 0.0, 0.0, 0.0, 0.0, 0.0, 0.0, 1.741026158996368E9, 0.0, 2025-03-03 12:22:38.996
123.0, -20080.44959073658, 3255.2410072375546, -26294.458066756495, -9263.009937168354, -187500.02235174447, -17294.304644382555, -25189.052544719285, -35217.49797075963, 0.036000000000000004, 0.912, -0.34800000000000003, 192.0, 0.0, 0.0, 0.0, 0.0, 0.0, 0.0, 0.0, 0.0, 0.0, 1.741026158996399E9, 0.0, 2025-03-03 12:22:38.996
124.0, -20091.334890286314, 3275.916370858714, -26301.58827323774, -9255.58915800919, -187500.02235174447, -17290.169571658324, -25186.102114451187, -35228.1150493759, 0.036000000000000004, 0.912, -0.34800000000000003, 192.0, 0.0, 0.0, 0.0, 0.0, 0.0, 0.0, 0.0, 0.0, 0.0, 1.741026158996419E9, 0.0, 2025-03-03 12:22:38.996
125.0, -20056.197948002573, 3373.392328428308, -26291.597043466216, -9261.869998201133, -187500.02235174447, -17293.857609493447, -25179.68716379251, -35228.07034588699, 0.036000000000000004, 0.912, -0.34800000000000003, 192.0, 0.0, 0.0, 0.0, 0.0, 0.0, 0.0, 0.0, 0.0, 0.0, 1.741026158996439E9, 0.0, 2025-03-03 12:22:38.996
