%OpenBCI Raw EXG Data
%Number of channels = 16
%Sample Rate = 125 Hz
%Board = OpenBCI_GUI$BoardCytonSerialDaisy
Sample Index, EXG Channel 0, EXG Channel 1, EXG Channel 2, EXG Channel 3, EXG Channel 4, EXG Channel 5, EXG Channel 6, EXG Channel 7, EXG Channel 8, EXG Channel 9, EXG Channel 10, EXG Channel 11, EXG Channel 12, EXG Channel 13, EXG Channel 14, EXG Channel 15, Accel Channel 0, Accel Channel 1, Accel Channel 2, Not Used, Digital Channel 0 (D11), Digital Channel 1 (D12), Digital Channel 2 (D13), Digital Channel 3 (D17), Not Used, Digital Channel 4 (D18), Analog Channel 0, Analog Channel 1, Analog Channel 2, Timestamp, Marker Channel, Timestamp (Formatted)
0.0, -57192.12379361675, -44562.896437990246, -66728.74143466252, -67624.0629105643, -66496.35034756068, -56012.53283173237, -61654.359001440884, -51814.65170558116, 0.0, 0.0, 0.0, 0.0, 0.0, 0.0, 0.0, 0.0, 0.0, 0.0, 0.0, 192.0, 0.0, 0.0, 0.0, 0.0, 0.0, 0.0, 0.0, 0.0, 0.0, 1.741801809232438E9, 0.0, 2025-03-12 12:50:09.232
2.0, -57210.586334536834, -44585.62816210129, -66756.52465302046, -67648.44866376504, -66526.45814734198, -56040.96425067953, -61688.87009487988, -51854.88484560071, -30630.87530504171, -48900.02893209802, -57403.14661301931, 2443397.217201855, -56583.9551787323, -61416.17881252513, -50534.187320969984, -7395.208763505074, 0.0, 0.0, 0.0, 192.0, 0.0, 0.0, 0.0, 0.0, 0.0, 0.0, 0.0, 0.0, 0.0, 1.741801809232781E9, 0.0, 2025-03-12 12:50:09.232
4.0, -57220.108177674796, -44589.62912435879, -66763.47604554606, -67654.66244872361, -66529.18506016553, -56045.43459957059, -61667.166551013775, -51851.487380443505, -30641.961770291542, -48902.59938271039, -57414.657761413786, 2443257.205874587, -56597.88031552796, -61425.38773124072, -50543.35153619666, -7405.9152490991655, 0.042, 0.482, -0.099, 192.0, 1.0, 80.0, 15.0, 16.0, 124.5, 104.0, 0.0, 0.0, 0.0, 1.741801809233153E9, 0.0, 2025-03-12 12:50:09.233
6.0, -57224.89145098823, -44599.03920877448, -66770.51684504948, -67663.42433255009, -66533.54365033432, -56055.22466364201, -61678.65534766381, -51870.68752893061, -30651.64007564069, -48923.65472598728, -57425.476005730154, 2443123.631849722, -56606.508088887706, -61439.22346105856, -50553.34276596818, -7417.918135871665, 0.042, 0.482, -0.099, 192.0, 0.0, 0.0, 0.0, 0.0, 0.0, 0.0, 0.0, 0.0, 0.0, 1.741801809233564E9, 0.0, 2025-03-12 12:50:09.233
8.0, -57207.36768333527, -44582.25304868854, -66755.29530707542, -67645.45353000803, -66524.33473161873, -56030.92831741909, -61684.42209773327, -51841.92083381663, -30649.561363406345, -48915.40693228328, -57421.430339983744, 2443002.3959877966, -56606.6645510989, -61436.675362190654, -50555.5332369248, -7418.521632971959, 0.042, 0.482, -0.099, 192.0, 0.0, 0.0, 0.0, 0.0, 0.0, 0.0, 0.0, 0.0, 0.0, 1.741801809233959E9, 0.0, 2025-03-12 12:50:09.233
10.0, -57224.310305632396, -44595.86526106182, -66770.13686539375, -67658.14932085865, -66537.81283352528, -56044.85345421475, -61698.99543511814, -51835.37177269123, -30644.867497070732, -48914.89284216081, -57419.776310894056, 2442887.597428274, -56605.99399876523, -61430.595687698806, -50553.16395201254, -7406.831670621833, 0.042, 0.482, -0.099, 192.0, 0.0, 0.0, 0.0, 0.0, 0.0, 0.0, 0.0, 0.0, 0.0, 1.741801809234354E9, 0.0, 2025-03-12 12:50:09.234
12.0, -57183.183095834625, -44550.29005411745, -66728.54026896242, -67616.97740757196, -66496.86443768317, -56008.06248284131, -61651.60973687289, -51816.77512130441, -30629.936531774587, -48896.81028089646, -57405.4488426982, 2443141.3344313307, -56596.159231204896, -61419.50922244898, -50541.51869315132, -7398.8744495957435, 0.042, 0.482, -0.099, 192.0, 0.0, 0.0, 0.0, 0.0, 0.0, 0.0, 0.0, 0.0, 0.0, 1.741801809234739E9, 0.0, 2025-03-12 12:50:09.234
14.0, -57212.30741885989, -44586.81280455742, -66759.34097282184, -67650.92970739957, -66529.76620552137, -56045.65811701514, -61683.036289577045, -51864.563150949856, -30618.000700235454, -48888.36132149235, -57396.9998832941, 2443413.8468997297, -56585.475097355265, -61409.31682697735, -50529.96284126793, -7394.515859426959, 0.061, 0.725, -0.14550000000000002, 192.0, 1.0, 64.0, 15.0, 32.0, 125.0, 0.0, 0.0, 0.0, 0.0, 1.741801809235136E9, 0.0, 2025-03-12 12:50:09.235
16.0, -57211.88273571524, -44585.315237678915, -66755.83174894235, -67647.97927713148, -66525.38526360813, -56042.86414895823, -61683.7068419107, -51852.22498801053, -30641.358273191247, -48913.127054348835, -57417.22821202615, 2443261.4974095225, -56606.083405743055, -61433.41200750018, -50550.05705953325, -7423.997810363509, 0.061, 0.725, -0.14550000000000002, 192.0, 0.0, 0.0, 0.0, 0.0, 0.0, 0.0, 0.0, 0.0, 0.0, 1.74180180923553E9, 0.0, 2025-03-12 12:50:09.235
18.0, -57219.77290150797, -44591.79724357095, -66760.57031876687, -67652.76255044491, -66529.94501947702, -56042.43946581358, -61691.842876892435, -51844.915967573645, -30638.6313603677, -48907.15913857927, -57415.708293403186, 2443145.6259662663, -56604.18350746435, -61427.309981263876, -50544.178550741504, -7409.178603789641, 0.061, 0.725, -0.14550000000000002, 192.0, 0.0, 0.0, 0.0, 0.0, 0.0, 0.0, 0.0, 0.0, 0.0, 1.741801809235908E9, 0.0, 2025-03-12 12:50:09.235
0.0, -28577.8452250773, -22277.938995115637, -33353.831869820584, -33807.9299101746, -33232.35013870599, -28004.67944200986, -30808.795190905952, -25889.846788626528, -15326.166489859403, -24461.257393510034, -28715.10728777734, 1221521.0463429745, -28309.959567780446, -30720.930483452143, -25278.504226029425, -3711.2612976147293, 0.07, 0.964, -0.212, 192.0, 1.0, 24.0, 15.0, 16.0, 124.5, 48.0, 0.0, 0.0, 0.0, 1.74180180936481E9, 0.0, 2025-03-12 12:50:09.364
2.0, -57140.9382988141, -44540.298824345926, -66689.75999233246, -67599.29717770782, -66450.0822365382, -55995.45609896852, -61602.65941651576, -51768.987091658964, -30519.720079865467, -48798.93199192667, -57457.19313111224, 2442998.104452861, -56522.51023322466, -61348.40832333665, -50472.585913251154, -7375.472173151037, 0.07, 0.964, -0.212, 192.0, 0.0, 0.0, 0.0, 0.0, 0.0, 0.0, 0.0, 0.0, 0.0, 1.741801809365124E9, 0.0, 2025-03-12 12:50:09.365
4.0, -57143.30758372636, -44544.32213834788, -66691.90575980017, -67604.39337544363, -66451.62450690562, -56006.85548864073, -61599.8878002033, -51786.98024594549, -30516.121449008162, -48796.40624480322, -57452.43220954326, 2442891.8889632095, -56516.9893523442, -61344.92145120162, -50465.34394804764, -7374.198123717085, 0.07, 0.964, -0.212, 192.0, 0.0, 0.0, 0.0, 0.0, 0.0, 0.0, 0.0, 0.0, 0.0, 1.741801809365375E9, 0.0, 2025-03-12 12:50:09.365
6.0, -57150.326031485325, -44549.97712969508, -66694.87854181272, -67605.51096266639, -66454.12790228461, -56007.526040974386, -61603.75465199407, -51779.470059808504, -30514.623882129657, -48797.72499772609, -57449.83940718644, 2443264.716060724, -56517.12346281093, -61348.49773031446, -50464.65104396952, -7377.617940618747, 0.07, 0.964, -0.212, 192.0, 0.0, 0.0, 0.0, 0.0, 0.0, 0.0, 0.0, 0.0, 0.0, 1.741801809365619E9, 0.0, 2025-03-12 12:50:09.365
8.0, -57146.481531439014, -44547.71960350509, -66694.27504471243, -67605.3545004552, -66454.55258542926, -56005.156756062126, -61613.835288743416, -51770.43995504856, -30525.039795045832, -48805.45870130762, -57458.80245671302, 2443360.739154904, -56528.52285248314, -61352.38693384969, -50476.98920690885, -7385.329292455828, 0.064, 0.96, -0.218, 192.0, 1.0, 0.0, 15.0, 0.0, 124.5, 24.0, 0.0, 0.0, 0.0, 1.741801809365868E9, 0.0, 2025-03-12 12:50:09.365
10.0, -57148.29202273989, -44546.75847849351, -66689.84939931029, -67597.93372129604, -66455.15608252956, -56004.08387232827, -61620.31729463545, -51772.96570217201, -30515.13797225213, -48794.774567457986, -57448.632412985855, 2443255.0601071194, -56518.196346544784, -61342.48511105599, -50466.372128292576, -7373.304053938873, 0.064, 0.96, -0.218, 192.0, 0.0, 0.0, 0.0, 0.0, 0.0, 0.0, 0.0, 0.0, 0.0, 1.741801809366152E9, 0.0, 2025-03-12 12:50:09.366
12.0, -57152.494150697494, -44553.665167530206, -66696.4431639246, -67606.78501210034, -66460.67696341002, -56013.963343377516, -61612.96357070966, -51798.692560040065, -30524.32453922326, -48805.83868096336, -57457.28253809006, 2443132.2149195927, -56524.87951813693, -61352.81161699434, -50475.35752956361, -7383.295283710395, 0.064, 0.96, -0.218, 192.0, 0.0, 0.0, 0.0, 0.0, 0.0, 0.0, 0.0, 0.0, 0.0, 1.741801809366412E9, 0.0, 2025-03-12 12:50:09.366
14.0, -57146.50388318347, -44548.09958316083, -66687.03307950891, -67596.14558173962, -66455.64782090757, -56000.84286938225, -61617.791547512, -51762.86271367821, -30528.83959160323, -48806.84450946385, -57460.724706736175, 2443009.9061739333, -56525.818291404044, -61354.08566642829, -50476.38570980856, -7388.0115017904645, 0.064, 0.96, -0.218, 192.0, 0.0, 0.0, 0.0, 0.0, 0.0, 0.0, 0.0, 0.0, 0.0, 1.741801809366666E9, 0.0, 2025-03-12 12:50:09.366
16.0, -57146.414476205646, -44547.38432733826, -66687.30130044238, -67596.43615441753, -66455.22313776292, -55999.904096115126, -61609.87902997483, -51769.30001608134, -30517.596664142213, -48791.958247656614, -57446.62075598488, 2442900.47203308, -56516.09528256599, -61341.63574476669, -50465.43335502546, -7369.548960870381, 0.064, 0.96, -0.218, 192.0, 0.0, 0.0, 0.0, 0.0, 0.0, 0.0, 0.0, 0.0, 0.0, 1.741801809424998E9, 0.0, 2025-03-12 12:50:09.424
18.0, -57141.83236859231, -44544.85858021481, -66678.27119568244, -67590.26707294787, -66444.53900391329, -55999.50176471493, -61599.48546880311, -51770.328196326285, -30522.983434555943, -48799.71430298261, -57451.11345662039, 2443178.348920149, -56517.32462851103, -61343.33447734529, -50465.45570676991, -7374.265178950451, 0.06, 0.96, -0.216, 192.0, 0.5, 112.0, 15.0, 0.0, 124.5, 32.0, 0.0, 0.0, 0.0, 1.741801809425312E9, 0.0, 2025-03-12 12:50:09.425
20.0, -57131.63997312069, -44534.30855683191, -66669.06227696684, -67577.90655826409, -66431.93262004049, -55985.777793619374, -61580.33002380491, -51755.6654519636, -30512.344004195216, -48793.791090701954, -57437.05420935801, 2443299.584782074, -56506.30521849456, -61333.2761923404, -50449.74243041783, -7363.335175911806, 0.06, 0.96, -0.216, 192.0, 0.0, 0.0, 0.0, 0.0, 0.0, 0.0, 0.0, 0.0, 0.0, 1.741801809425597E9, 0.0, 2025-03-12 12:50:09.425
22.0, -57152.985889075506, -44552.592283796344, -66690.45289641057, -67600.23595097494, -66455.71487614095, -56006.676674685084, -61610.616637541854, -51776.78785047387, -30519.720079865467, -48792.44998603463, -57445.30200306202, 2443180.4946876164, -56513.92716335382, -61339.53468078789, -50457.69965144392, -7363.938673012099, 0.06, 0.96, -0.216, 192.0, 0.0, 0.0, 0.0, 0.0, 0.0, 0.0, 0.0, 0.0, 0.0, 1.741801809425845E9, 0.0, 2025-03-12 12:50:09.425
24.0, -57144.42517094913, -44548.59132153885, -66687.1895417201, -67598.58192188524, -66455.2901929963, -55999.07708157028, -61616.539849822504, -51766.90837942462, -30530.04658580382, -48806.933916441674, -57455.337936322445, 2443024.9265462076, -56528.61225946096, -61356.499654829466, -50472.83178244016, -7381.238923220507, 0.06, 0.96, -0.216, 192.0, 0.0, 0.0, 0.0, 0.0, 0.0, 0.0, 0.0, 0.0, 0.0, 1.741801809426115E9, 0.0, 2025-03-12 12:50:09.426
26.0, -57123.52628988341, -44525.32315556087, -66666.93886124359, -67578.17477919755, -66436.67118986502, -55981.0615755393, -61597.58557052441, -51765.47786777948, -30507.068992503762, -48783.39752953024, -57435.89191864633, 2442920.8568240236, -56506.86401210595, -61329.99048590547, -50455.21860780938, -7360.36239389925, 0.06, 0.96, -0.216, 192.0, 0.0, 0.0, 0.0, 0.0, 0.0, 0.0, 0.0, 0.0, 0.0, 1.741801809426351E9, 0.0, 2025-03-12 12:50:09.426
28.0, -57112.17160370012, -44511.80035016541, -66658.24403265047, -67570.50813084938, -66425.33885542618, -55976.72533711497, -61591.90822743276, -51750.390440272145, -30487.399457383093, -48766.6113694443, -57416.84823237041, 2442988.9849411235, -56492.71535786574, -61316.24416306546, -50441.56169194719, -7351.6228618172245, 0.066, 0.9520000000000001, -0.22, 192.0, 1.0, 8.0, 14.5, 96.0, 124.5, 16.0, 0.0, 0.0, 0.0, 1.741801809426606E9, 0.0, 2025-03-12 12:50:09.426
30.0, -57117.9830572585, -44517.38828627924, -66661.75325652996, -67571.82688377224, -66428.98218977239, -55980.6145406502, -61597.406756568766, -51752.37974552867, -30492.31684116326, -48777.20609631611, -57423.86668012937, 2443412.774015996, -56499.01854980213, -61321.98856139047, -50450.860017640596, -7357.277853164417, 0.066, 0.9520000000000001, -0.22, 192.0, 0.0, 0.0, 0.0, 0.0, 0.0, 0.0, 0.0, 0.0, 0.0, 1.741801809485381E9, 0.0, 2025-03-12 12:50:09.485
32.0, -57113.93739151209, -44514.996649622524, -66657.0817419388, -67570.03874421582, -66417.09106172217, -55980.0110435499, -61573.3339277904, -51749.205797816016, -30484.761951537366, -48763.392718242736, -57412.44493871271, 2443316.750921816, -56489.22848573071, -61313.76311943092, -50436.84547386712, -7348.113637937741, 0.066, 0.9520000000000001, -0.22, 192.0, 0.0, 0.0, 0.0, 0.0, 0.0, 0.0, 0.0, 0.0, 0.0, 1.741801809485668E9, 0.0, 2025-03-12 12:50:09.485
34.0, -57121.313467182335, -44524.786713693946, -66661.4403321076, -67576.31958440776, -66424.55654437025, -55976.70298537052, -61584.66626222924, -51741.025059345375, -30494.261442930874, -48773.69687243663, -57422.88320337334, 2443190.687083088, -56493.85529683296, -61319.865145667216, -50442.120485558575, -7351.332289139305, 0.066, 0.9520000000000001, -0.22, 192.0, 0.0, 0.0, 0.0, 0.0, 0.0, 0.0, 0.0, 0.0, 0.0, 1.741801809485932E9, 0.0, 2025-03-12 12:50:09.485
36.0, -57140.49126392499, -44542.7128127471, -66678.94174801609, -67594.35744218319, -66440.13571025559, -55995.925485602085, -61582.52049476153, -51769.30001608134, -30505.817294814267, -48789.00781738852, -57429.633430198846, 2443060.3317094245, -56504.47237544923, -61332.873860940206, -50447.79782865022, -7357.389611886694, 0.064, 0.956, -0.22, 192.0, 0.5, 120.0, 15.0, 0.0, 124.5, 16.0, 0.0, 0.0, 0.0, 1.741801809486187E9, 0.0, 2025-03-12 12:50:09.486
38.0, -57124.800339317364, -44528.87708292927, -66663.94372748658, -67578.37594489765, -66431.06090200673, -55985.88955234165, -61583.10164011737, -51761.34279505525, -30507.538379137324, -48785.409186531215, -57431.779197666554, 2442935.8771962975, -56505.09822429398, -61332.24801209546, -50451.15059031852, -7367.514952124948, 0.064, 0.956, -0.22, 192.0, 0.0, 0.0, 0.0, 0.0, 0.0, 0.0, 0.0, 0.0, 0.0, 1.741801809486461E9, 0.0, 2025-03-12 12:50:09.486
40.0, -57114.07150197882, -44522.21626308159, -66654.66775353764, -67567.6471075591, -66422.83546004718, -55970.17627598957, -61583.92865466222, -51733.112541808194, -30497.61420459917, -48777.98840737205, -57419.01635158257, 2443336.062829025, -56495.777546856116, -61327.263573081924, -50441.09230531363, -7353.142780440186, 0.064, 0.956, -0.22, 192.0, 0.0, 0.0, 0.0, 0.0, 0.0, 0.0, 0.0, 0.0, 0.0, 1.74180180948671E9, 0.0, 2025-03-12 12:50:09.486
42.0, -57129.136577741694, -44532.1627893642, -66664.92720424262, -67578.93473850904, -66433.36313168563, -55985.17429651908, -61595.640968756794, -51757.34183279775, -30494.30614641978, -48776.08850909335, -57418.79283413802, 2443358.0569455693, -56490.36842469793, -61320.58040148979, -50435.12438954406, -7345.8114082588445, 0.064, 0.956, -0.22, 192.0, 0.0, 0.0, 0.0, 0.0, 0.0, 0.0, 0.0, 0.0, 0.0, 1.741801809486964E9, 0.0, 2025-03-12 12:50:09.486
44.0, -57130.72355159802, -44534.979109165564, -66661.86501525225, -67579.87351177615, -66430.32329443972, -55984.30257848532, -61589.42718379822, -51757.00655663092, -30507.806600070788, -48786.03503537596, -57431.30981103299, 2443228.77445564, -56502.77364287063, -61332.76210221793, -50446.63553793854, -7366.330309668817, 0.064, 0.956, -0.22, 192.0, 0.0, 0.0, 0.0, 0.0, 0.0, 0.0, 0.0, 0.0, 0.0, 1.741801809487211E9, 0.0, 2025-03-12 12:50:09.487
46.0, -57135.35036270027, -44543.42806856967, -66669.33049790032, -67589.68592759203, -66436.40296893155, -55990.20343902153, -61591.21532335464, -51747.887044893156, -30504.74441108041, -48776.22261956008, -57427.84529064242, 2443117.7309891856, -56494.77171835562, -61323.88845966917, -50438.41009597899, -7355.154437441163, 0.063, 0.9570000000000001, -0.221, 192.0, 0.5, 120.0, 14.5, 120.0, 124.5, 8.0, 0.0, 0.0, 0.0, 1.741801809546988E9, 0.0, 2025-03-12 12:50:09.546
48.0, -57140.91594706964, -44549.23952212805, -66679.03115499392, -67594.26803520537, -66445.94716381397, -55991.03045356637, -61611.13072766432, -51754.19023682955, -30530.247751503917, -48810.219622876604, -57453.43803804374, 2442971.8188013816, -56521.347942512984, -61355.650288540164, -50463.98049163586, -7380.03192901992, 0.063, 0.9570000000000001, -0.221, 192.0, 0.0, 0.0, 0.0, 0.0, 0.0, 0.0, 0.0, 0.0, 0.0, 1.741801809547279E9, 0.0, 2025-03-12 12:50:09.547
50.0, -57143.82167384883, -44550.222998884085, -66683.07682074033, -67599.54304689683, -66445.85775683615, -56000.6193519377, -61606.705082262175, -51772.38455681617, -30507.583082626235, -48786.63853247625, -57432.762674422585, 2443000.2502203286, -56500.113785280446, -61329.94578241656, -50446.27791002726, -7361.077649721819, 0.063, 0.9570000000000001, -0.221, 192.0, 0.0, 0.0, 0.0, 0.0, 0.0, 0.0, 0.0, 0.0, 0.0, 1.741801809547539E9, 0.0, 2025-03-12 12:50:09.547
52.0, -57156.11513329925, -44560.12482167779, -66693.8950650567, -67609.3107592238, -66458.64295466458, -56010.29765728684, -61600.15602113677, -51778.44187956356, -30533.19818177202, -48811.22545137709, -57458.33307007946, 2443428.330830137, -56529.752198428185, -61357.57253856332, -50471.37891905057, -7386.1339552562185, 0.063, 0.9570000000000001, -0.221, 192.0, 0.0, 0.0, 0.0, 0.0, 0.0, 0.0, 0.0, 0.0, 0.0, 1.741801809547804E9, 0.0, 2025-03-12 12:50:09.547
54.0, -57164.69820317009, -44570.27251366049, -66706.03206229593, -67620.08430005125, -66474.26682403884, -56024.08868361577, -61622.708931292174, -51794.579839060294, -30534.56163818379, -48814.689971767664, -57462.13286663686, 2443317.8238055496, -56535.58600373102, -61359.89711998667, -50479.55965752121, -7392.481850681526, 0.063, 0.9570000000000001, -0.221, 192.0, 0.0, 0.0, 0.0, 0.0, 0.0, 0.0, 0.0, 0.0, 0.0, 1.741801809548061E9, 0.0, 2025-03-12 12:50:09.548
56.0, -57150.8401216078, -44552.14524890724, -66686.7872103199, -67604.23691323244, -66454.53023368481, -56013.91863988861, -61609.29788461899, -51783.806298232834, -30531.968835826974, -48815.69580026815, -57461.03763115855, 2443196.5879436242, -56538.46937876575, -61367.78728577939, -50480.38667206606, -7395.454632694082, 0.0625, 0.9615, -0.2195, 192.0, 0.5, 120.0, 15.0, 24.0, 124.5, 24.0, 0.0, 0.0, 0.0, 1.741801809548319E9, 0.0, 2025-03-12 12:50:09.548
58.0, -57162.73124965802, -44569.62431307129, -66702.52283841644, -67620.97836982946, -66471.5846147042, -56026.14504410566, -61636.81288204347, -51786.64496977866, -30527.520838680368, -48809.41496007621, -57457.23783460115, 2443086.080919037, -56530.512157739664, -61361.70761128755, -50473.18941035145, -7392.526554170437, 0.0625, 0.9615, -0.2195, 192.0, 0.0, 0.0, 0.0, 0.0, 0.0, 0.0, 0.0, 0.0, 0.0, 1.741801809548607E9, 0.0, 2025-03-12 12:50:09.548
60.0, -57148.40378146217, -44557.59907455434, -66686.5413411309, -67603.99104404343, -66454.86550985165, -56002.98863684996, -61619.11030043487, -51759.0182136319, -30535.366300984184, -48820.88140498178, -57465.64209051635, 2442984.693406188, -56537.66471596536, -61368.323727646326, -50484.164116879, -7397.823917606344, 0.0625, 0.9615, -0.2195, 192.0, 0.0, 0.0, 0.0, 0.0, 0.0, 0.0, 0.0, 0.0, 0.0, 1.7418018096074E9, 0.0, 2025-03-12 12:50:09.607
62.0, -57158.32795600033, -44567.00915897002, -66702.92516981663, -67622.92297159707, -66463.06860006673, -56017.78549167937, -61622.17248942525, -51788.567219801815, -30521.172943255064, -48799.04375064895, -57451.426381042766, 2443397.217201855, -56517.90577386687, -61348.90006171466, -50464.38282303606, -7382.17769648763, 0.0625, 0.9615, -0.2195, 192.0, 0.0, 0.0, 0.0, 0.0, 0.0, 0.0, 0.0, 0.0, 0.0, 1.741801809607667E9, 0.0, 2025-03-12 12:50:09.607
64.0, -57162.46302872456, -44567.03151071448, -66705.02623379543, -67622.87826810816, -66461.34751574368, -56021.786453936875, -61617.29980913399, -51795.4739088385, -30541.5577341983, -48817.75216075804, -57472.14644815284, 2443322.651782352, -56540.45868402228, -61369.55307359136, -50489.19325938145, -7403.411853720171, 0.0625, 0.9615, -0.2195, 192.0, 0.0, 0.0, 0.0, 0.0, 0.0, 0.0, 0.0, 0.0, 0.0, 1.741801809607927E9, 0.0, 2025-03-12 12:50:09.607
66.0, -57169.414421250156, -44570.00429272703, -66710.92709433164, -67629.89671586713, -66470.84700713718, -56023.06050337083, -61624.2959051485, -51780.20766737553, -30537.981455085453, -48819.6744107812, -57470.06773591849, 2443198.197269225, -56541.75508520068, -61370.00010848047, -50483.40415756752, -7404.9764758320425, 0.06025, 0.96075, -0.21875, 192.0, 0.5, 104.0, 15.0, 0.0, 124.5, 24.0, 0.0, 0.0, 0.0, 1.741801809608187E9, 0.0, 2025-03-12 12:50:09.608
68.0, -57149.141389029195, -44547.63019652727, -66686.11665798625, -67608.0590615343, -66450.21634700494, -56007.21311655201, -61612.091852675905, -51765.45551603503, -30530.985359070943, -48816.47811132409, -57465.73149749416, 2443079.643616634, -56541.86684392296, -61366.15560843416, -50483.60532326762, -7401.489603697015, 0.06025, 0.96075, -0.21875, 192.0, 0.0, 0.0, 0.0, 0.0, 0.0, 0.0, 0.0, 0.0, 0.0, 1.741801809608453E9, 0.0, 2025-03-12 12:50:09.608
70.0, -57144.045191293386, -44545.43972557065, -66682.24980619548, -67601.33118645324, -66443.7790446018, -56003.65918918362, -61615.91400097776, -51768.02596664739, -30500.341117422715, -48788.493727266046, -57433.4555785007, 2443010.4426158005, -56515.87176512144, -61339.914660443625, -50451.910549629996, -7372.901722538677, 0.06025, 0.96075, -0.21875, 192.0, 0.0, 0.0, 0.0, 0.0, 0.0, 0.0, 0.0, 0.0, 0.0, 1.741801809608706E9, 0.0, 2025-03-12 12:50:09.608
72.0, -57161.12192405724, -44558.7166617771, -66691.90575980017, -67609.3554627127, -66455.17843427401, -56015.25974455592, -61603.37467233833, -51789.3718826022, -30527.90081833611, -48819.60735554783, -57463.98806142665, 2442969.673033914, -56542.55974800107, -61361.50644558745, -50478.62088425409, -7395.566391416359, 0.06025, 0.96075, -0.21875, 192.0, 0.0, 0.0, 0.0, 0.0, 0.0, 0.0, 0.0, 0.0, 0.0, 1.741801809608958E9, 0.0, 2025-03-12 12:50:09.608
74.0, -57154.595214676294, -44559.07428968839, -66689.46941965455, -67608.01435804539, -66452.51857668383, -56012.59988696574, -61608.22500088513, -51787.49433606796, -30520.301225221305, -48807.76093098652, -57453.79566595503, 2443462.66310962, -56530.22158506174, -61354.15272166166, -50463.53345674676, -7391.4760221810375, 0.06025, 0.96075, -0.21875, 192.0, 0.0, 0.0, 0.0, 0.0, 0.0, 0.0, 0.0, 0.0, 0.0, 1.741801809665001E9, 0.0, 2025-03-12 12:50:09.665
76.0, -57148.381429717716, -44550.73708900656, -66682.89800678469, -67602.64993937612, -66450.6857336385, -56006.43080549608, -61614.21526839916, -51774.4185655616, -30518.6024926427, -48800.87659369429, -57450.33114556446, 2443378.4417365124, -56522.264364035655, -61348.27421286991, -50462.14764859053, -7380.188391231107, 0.060125, 0.960375, -0.219375, 192.0, 0.5, 112.0, 15.0, 0.0, 124.5, 16.0, 0.0, 0.0, 0.0, 1.741801809665317E9, 0.0, 2025-03-12 12:50:09.665
78.0, -57143.24052849299, -44545.48442905956, -66683.81442830735, -67597.91136955158, -66456.22896626341, -55985.8672005972, -61620.22788765763, -51758.504123509425, -30520.949425810508, -48799.08845413786, -57446.0619623735, 2443262.0338513893, -56521.16912855735, -61347.06721866933, -50467.355605048615, -7375.427469662127, 0.060125, 0.960375, -0.219375, 192.0, 0.0, 0.0, 0.0, 0.0, 0.0, 0.0, 0.0, 0.0, 0.0, 1.741801809665586E9, 0.0, 2025-03-12 12:50:09.665
80.0, -57158.6408804227, -44555.98974895355, -66696.0408325244, -67608.28257897885, -66469.28238502532, -56011.05761659833, -61620.25023940209, -51785.706196511535, -30523.586931656235, -48799.736654727065, -57447.04543912953, 2443133.2878033267, -56520.85620413497, -61348.47537857001, -50473.05529988472, -7379.584894130814, 0.060125, 0.960375, -0.219375, 192.0, 0.0, 0.0, 0.0, 0.0, 0.0, 0.0, 0.0, 0.0, 0.0, 1.741801809665849E9, 0.0, 2025-03-12 12:50:09.665
82.0, -57154.371697231734, -44553.35224310783, -66691.25755921096, -67603.61106438769, -66458.46414070895, -55997.44540422504, -61595.95389317917, -51750.63630946116, -30523.89985607861, -48804.1175966403, -57442.64214547183, 2443004.541755264, -56517.592849444496, -61347.73777100298, -50466.81916318169, -7380.948350542588, 0.060125, 0.960375, -0.219375, 192.0, 0.0, 0.0, 0.0, 0.0, 0.0, 0.0, 0.0, 0.0, 0.0, 1.741801809666096E9, 0.0, 2025-03-12 12:50:09.666
84.0, -57146.92856632812, -44546.602016282326, -66688.86592255425, -67600.45946841949, -66455.7372278854, -56000.75346240443, -61597.42910831322, -51770.90934168212, -30532.929960838555, -48818.6238787918, -57453.728610721664, 2442877.4050328024, -56524.790111159105, -61358.980698464, -50474.37405280758, -7381.797716831889, 0.060125, 0.960375, -0.219375, 192.0, 0.0, 0.0, 0.0, 0.0, 0.0, 0.0, 0.0, 0.0, 0.0, 1.74180180966636E9, 0.0, 2025-03-12 12:50:09.666
86.0, -57113.73622581199, -44512.560309476896, -66659.96511697354, -67568.07179070375, -66420.60028560166, -55964.878912553664, -61571.6351952118, -51738.722829666476, -30502.41982965706, -48783.64339871924, -57424.85015688541, 2443345.71878263, -56497.40922420135, -61326.41420679262, -50447.86488388359, -7359.043640976387, 0.0600625, 0.9581875, -0.21768749999999998, 192.0, 0.5, 112.0, 14.5, 112.0, 124.5, 32.0, 0.0, 0.0, 0.0, 1.741801809666614E9, 0.0, 2025-03-12 12:50:09.666
88.0, -57126.85669980726, -44523.19973983762, -66678.51706487144, -67582.77923855535, -66433.81016657474, -55976.4124126926, -61590.76828846554, -51746.72475418148, -30488.94172775051, -48768.66772993419, -57420.826842883456, 2443402.581620524, -56484.26639846163, -61309.38217751768, -50441.002898335806, -7343.4644750910375, 0.0600625, 0.9581875, -0.21768749999999998, 192.0, 0.0, 0.0, 0.0, 0.0, 0.0, 0.0, 0.0, 0.0, 0.0, 1.741801809704562E9, 0.0, 2025-03-12 12:50:09.704
90.0, -57148.82846460682, -44542.757516236015, -66703.03692853892, -67608.52844816785, -66453.88203309561, -56005.492032228954, -61589.24836984258, -51778.55363828583, -30507.001937270397, -48787.08556736536, -57444.229119328156, 2443247.549920982, -56505.12057603843, -61330.28105858339, -50458.90664564451, -7363.759859056457, 0.0600625, 0.9581875, -0.21768749999999998, 192.0, 0.0, 0.0, 0.0, 0.0, 0.0, 0.0, 0.0, 0.0, 0.0, 1.741801809704869E9, 0.0, 2025-03-12 12:50:09.704
92.0, -57146.973269817034, -44545.84205697085, -66709.20601000858, -67613.19996275901, -66458.55354768677, -56008.12953807468, -61614.70700677717, -51769.09885038124, -30522.64815838911, -48810.04080892096, -57465.75384923862, 2443083.9351515695, -56521.10207332398, -61351.40345709366, -50484.61115176811, -7385.373995944738, 0.0600625, 0.9581875, -0.21768749999999998, 192.0, 0.0, 0.0, 0.0, 0.0, 0.0, 0.0, 0.0, 0.0, 0.0, 1.741801809705125E9, 0.0, 2025-03-12 12:50:09.705
94.0, -57112.81980428932, -44511.28626004294, -66676.90773927067, -67588.0095467579, -66423.57306761421, -55992.013930322406, -61571.34462253388, -51767.668338736104, -30498.865902288664, -48787.24202957655, -57443.58091873895, 2442986.8391736555, -56495.88930557839, -61329.856375438736, -50464.002843380316, -7367.425545147127, 0.0600625, 0.9581875, -0.21768749999999998, 192.0, 0.0, 0.0, 0.0, 0.0, 0.0, 0.0, 0.0, 0.0, 0.0, 1.741801809705396E9, 0.0, 2025-03-12 12:50:09.705
96.0, -57113.66917057862, -44509.52047223097, -66676.84068403729, -67582.28750017734, -66424.75771007033, -55977.44059293754, -61560.481674728595, -51744.28841403585, -30483.309088147773, -48770.14294506823, -57432.494453489126, 2442937.4865218983, -56479.46077340374, -61320.28982881187, -50445.87557862706, -7355.69087930809, 0.061031249999999995, 0.9570937500000001, -0.21784375, 192.0, 0.5, 120.0, 14.5, 112.0, 124.5, 24.0, 0.0, 0.0, 0.0, 1.741801809753467E9, 0.0, 2025-03-12 12:50:09.753
98.0, -57108.371807142714, -44510.41454200918, -66678.36060266025, -67584.83559904524, -66425.33885542618, -55980.48043018347, -61574.63032896881, -51742.8131989018, -30484.158454437074, -48781.25176206252, -57433.03089535605, 2443329.089084755, -56479.79604957057, -61321.42976777909, -50446.50142747181, -7348.426562360116, 0.061031249999999995, 0.9570937500000001, -0.21784375, 192.0, 0.0, 0.0, 0.0, 0.0, 0.0, 0.0, 0.0, 0.0, 0.0, 1.7418018097538E9, 0.0, 2025-03-12 12:50:09.753
100.0, -57129.427150419615, -44531.827513197364, -66698.29835871438, -67603.81223008779, -66439.5322131553, -55989.555238432324, -61577.91603540374, -51753.51968449589, -30486.617146327157, -48782.59286672984, -57438.93175589225, 2443265.7889444577, -56478.432593158795, -61321.34036080127, -50451.03883159624, -7348.583024571303, 0.061031249999999995, 0.9570937500000001, -0.21784375, 192.0, 0.0, 0.0, 0.0, 0.0, 0.0, 0.0, 0.0, 0.0, 0.0, 1.74180180975406E9, 0.0, 2025-03-12 12:50:09.754
102.0, -57122.90044103866, -44524.38438229375, -66694.83383832382, -67598.8054393298, -66433.67605610802, -55989.71170064351, -61561.57691020691, -51752.67031820659, -30503.626823857645, -48798.37319831529, -57457.08137238996, 2443129.5327102584, -56496.62691314542, -61337.38891332018, -50461.45474451241, -7362.776382300423, 0.061031249999999995, 0.9570937500000001, -0.21784375, 192.0, 0.0, 0.0, 0.0, 0.0, 0.0, 0.0, 0.0, 0.0, 0.0, 1.741801809754315E9, 0.0, 2025-03-12 12:50:09.754
104.0, -57140.35715345826, -44541.95285343562, -66716.02329206745, -67615.07750929326, -66452.3844662171, -56002.631008938675, -61596.37857632382, -51780.25237086444, -30498.061239488274, -48786.03503537596, -57455.67321248927, 2443021.171453139, -56494.95053231127, -61327.24122133747, -50462.81820092419, -7359.401268887672, 0.061031249999999995, 0.9570937500000001, -0.21784375, 192.0, 0.0, 0.0, 0.0, 0.0, 0.0, 0.0, 0.0, 0.0, 0.0, 1.741801809754571E9, 0.0, 2025-03-12 12:50:09.754
106.0, -57134.92567955562, -44539.82943771237, -66706.63555939622, -67609.82484934626, -66444.65076263556, -55999.03237808137, -61576.977262136614, -51776.63138826268, -30517.57431239776, -48804.1175966403, -57475.74507901014, 2442896.716940012, -56513.100148808975, -61345.18967213508, -50479.98434066586, -7381.216571476051, 0.06351562499999999, 0.955546875, -0.219921875, 192.0, 1.0, 8.0, 14.5, 104.0, 124.5, 8.0, 0.0, 0.0, 0.0, 1.741801809754824E9, 0.0, 2025-03-12 12:50:09.754
108.0, -57151.309508241364, -44555.542714064446, -66723.06409157086, -67623.34765474172, -66464.74498090088, -56011.39289276516, -61604.33579734991, -51766.751917213434, -30506.107867492185, -48800.161337871716, -57468.36900333989, 2443317.8238055496, -56505.54525918308, -61337.03128540889, -50469.166096349494, -7366.464420135549, 0.06351562499999999, 0.955546875, -0.219921875, 192.0, 0.0, 0.0, 0.0, 0.0, 0.0, 0.0, 0.0, 0.0, 0.0, 1.74180180975509E9, 0.0, 2025-03-12 12:50:09.755
110.0, -57160.00433683448, -44559.83424899987, -66725.61219043877, -67628.9132391111, -66466.24254777939, -56020.735921947475, -61617.612733556365, -51779.17948713058, -30526.76087936889, -48816.34400085736, -57493.22414317419, 2443307.0949682114, -56530.0427711061, -61356.767875762926, -50496.47992807388, -7388.257370979473, 0.06351562499999999, 0.955546875, -0.219921875, 192.0, 0.0, 0.0, 0.0, 0.0, 0.0, 0.0, 0.0, 0.0, 0.0, 1.741801809755358E9, 0.0, 2025-03-12 12:50:09.755
112.0, -57166.195770048595, -44569.42314737119, -66734.1505568207, -67639.41855900509, -66473.19394030499, -56040.07018090131, -61617.23275390062, -51810.29311541237, -30522.916379322578, -48831.833759764886, -57489.84902976144, 2443193.9057342894, -56525.99710535969, -61365.97679447851, -50487.762747736306, -7390.157269258174, 0.06351562499999999, 0.955546875, -0.219921875, 192.0, 0.0, 0.0, 0.0, 0.0, 0.0, 0.0, 0.0, 0.0, 0.0, 1.74180180980173E9, 0.0, 2025-03-12 12:50:09.801
114.0, -57154.796380376385, -44553.374594852285, -66720.42658572514, -67626.54395419883, -66461.23575702141, -56030.34717206326, -61601.452422315175, -51801.508879841436, -30532.237056760438, -48828.34688762986, -57501.337826411465, 2443061.4045931585, -56539.72107645525, -61372.48115211501, -50501.263201387315, -7408.083368311331, 0.06351562499999999, 0.955546875, -0.219921875, 192.0, 0.0, 0.0, 0.0, 0.0, 0.0, 0.0, 0.0, 0.0, 0.0, 1.741801809802008E9, 0.0, 2025-03-12 12:50:09.802
116.0, -57158.8420461228, -44563.74580427955, -66723.08644331532, -67629.29321876683, -66463.06860006673, -56025.58625049428, -61606.14628865079, -51787.382577345685, -30513.059260017784, -48816.07577992389, -57486.56332332651, 2442961.62640591, -56524.90186988138, -61358.26544264144, -50485.102890146125, -7390.023158791442, 0.061757812499999995, 0.9557734375, -0.22596093750000001, 192.0, 0.5, 112.0, 14.5, 112.0, 124.0, 96.0, 0.0, 0.0, 0.0, 1.741801809802272E9, 0.0, 2025-03-12 12:50:09.802
118.0, -57156.40570597717, -44565.28807464696, -66719.06312931336, -67629.31557051129, -66463.33682100021, -56025.11686386071, -61603.19585838269, -51802.11237694173, -30523.6539868896, -48827.72103878511, -57494.766413541605, 2443119.8767566537, -56529.41692226135, -61366.490884600986, -50486.73456749137, -7391.140746014207, 0.061757812499999995, 0.9557734375, -0.22596093750000001, 192.0, 0.0, 0.0, 0.0, 0.0, 0.0, 0.0, 0.0, 0.0, 0.0, 1.741801809802553E9, 0.0, 2025-03-12 12:50:09.802
120.0, -57167.15689506017, -44582.74478706656, -66729.63550444072, -67640.53614622785, -66480.16768457505, -56033.811692453826, -61625.81582377146, -51787.360225601224, -30521.508219421892, -48832.48196035409, -57491.704224551235, 2443400.9722949234, -56528.36639027195, -61370.20127418057, -50487.74039599185, -7392.683016381624, 0.061757812499999995, 0.9557734375, -0.22596093750000001, 192.0, 0.0, 0.0, 0.0, 0.0, 0.0, 0.0, 0.0, 0.0, 0.0, 1.741801809802893E9, 0.0, 2025-03-12 12:50:09.802
122.0, -57182.95957839007, -44599.441540174674, -66737.36920802227, -67648.98510563196, -66489.73423120192, -56040.159587879134, -61642.89255653531, -51802.201783919554, -30546.631580189656, -48850.60922510734, -57511.08318699398, 2443256.66943272, -56547.0971521255, -61386.65215809968, -50499.229192641884, -7404.752958387489, 0.061757812499999995, 0.9557734375, -0.22596093750000001, 192.0, 0.0, 0.0, 0.0, 0.0, 0.0, 0.0, 0.0, 0.0, 0.0, 1.741801809856633E9, 0.0, 2025-03-12 12:50:09.856
124.0, -57180.45618301108, -44592.803072071445, -66730.9542573636, -67642.57015497329, -66481.10645784216, -56037.52208203341, -61629.52621335104, -51799.07253969581, -30551.370150014183, -48851.257425696545, -57509.4738613932, 2443128.4598265244, -56547.924166670346, -61384.08170748731, -50493.70831176142, -7405.155289787685, 0.061757812499999995, 0.9557734375, -0.22596093750000001, 192.0, 0.0, 0.0, 0.0, 0.0, 0.0, 0.0, 0.0, 0.0, 0.0, 1.741801809857061E9, 0.0, 2025-03-12 12:50:09.857
126.0, -57180.5455899889, -44591.5737261264, -66730.28370502993, -67641.72078868399, -66477.75369617388, -56040.78543672388, -61627.738073794615, -51808.30381015585, -30555.39346401614, -48850.139838473784, -57515.64294286287, 2443014.7341507357, -56554.31676558456, -61392.217742469045, -50500.23502114237, -7413.917173614165, 0.05887890625, 0.95588671875, -0.22898046875, 192.0, 0.5, 96.0, 14.5, 112.0, 124.0, 96.0, 0.0, 0.0, 0.0, 1.741801809857454E9, 0.0, 2025-03-12 12:50:09.857
128.0, -57185.910008658175, -44594.3229906944, -66732.4518242421, -67644.44770150754, -66477.82075140724, -56044.85345421475, -61626.86635576086, -51817.982115504994, -30552.08540583675, -48852.24090245258, -57511.53022188309, 2442896.180498145, -56554.070896395555, -61388.61911161174, -50495.33998910666, -7416.174699804152, 0.05887890625, 0.95588671875, -0.22898046875, 192.0, 0.0, 0.0, 0.0, 0.0, 0.0, 0.0, 0.0, 0.0, 0.0, 1.741801809857891E9, 0.0, 2025-03-12 12:50:09.857
130.0, -57174.443563752604, -44585.82932780139, -66722.57235319285, -67634.18825080254, -66474.84796939469, -56030.05659938534, -61631.20259418519, -51786.86848722321, -30539.52372545287, -48834.91830049972, -57500.26494267761, 2443144.0166406655, -56542.67150672335, -61373.44227712659, -50486.2651808578, -7402.093100797308, 0.05887890625, 0.95588671875, -0.22898046875, 192.0, 0.0, 0.0, 0.0, 0.0, 0.0, 0.0, 0.0, 0.0, 0.0, 1.74180180985816E9, 0.0, 2025-03-12 12:50:09.858
132.0, -57176.65638645368, -44590.992580770566, -66722.52764970394, -67637.65277119313, -66477.50782698486, -56035.063390143325, -61623.692408048206, -51802.02296996391, -30549.537306968847, -48847.65879483924, -57506.5234311251, 2443336.5992708923, -56552.90860568388, -61387.09919298878, -50491.7190065049, -7409.893859612211, 0.05887890625, 0.95588671875, -0.22898046875, 192.0, 0.0, 0.0, 0.0, 0.0, 0.0, 0.0, 0.0, 0.0, 0.0, 1.74180180985841E9, 0.0, 2025-03-12 12:50:09.858
134.0, -57174.42121200815, -44584.35411266734, -66715.08451880033, -67630.45550947852, -66470.26586178134, -56033.69993373155, -61611.53305906452, -51795.406853605135, -30541.33421675375, -48844.976585504606, -57499.92966651078, 2443222.337153237, -56543.029134634635, -61380.72894581902, -50481.973645922386, -7403.076577553342, 0.05887890625, 0.95588671875, -0.22898046875, 192.0, 0.0, 0.0, 0.0, 0.0, 0.0, 0.0, 0.0, 0.0, 0.0, 1.741801809858664E9, 0.0, 2025-03-12 12:50:09.858
136.0, -57149.23079600702, -44556.74970826504, -66687.54716963139, -67602.33701495374, -66445.74599811388, -55997.71362515851, -61587.01319539705, -51761.05222237733, -30535.27689400636, -48826.35758237333, -57486.04923320404, 2443115.585221718, -56534.60252697498, -61367.63082356821, -50467.199142837424, -7391.721891370045, 0.058439453125, 0.955943359375, -0.227490234375, 192.0, 0.5, 104.0, 14.5, 112.0, 124.0, 120.0, 0.0, 0.0, 0.0, 1.74180180985892E9, 0.0, 2025-03-12 12:50:09.858
138.0, -57164.720554914544, -44573.53586835097, -66704.48979192851, -67614.83164010425, -66462.66626866654, -56011.594058465256, -61612.96357070966, -51774.73148998398, -30520.43533568804, -48809.12438739829, -57468.92779695128, 2443022.7807787396, -56516.76583489965, -61348.318916358825, -50453.56457871969, -7367.045565491387, 0.058439453125, 0.955943359375, -0.227490234375, 192.0, 0.0, 0.0, 0.0, 0.0, 0.0, 0.0, 0.0, 0.0, 0.0, 1.741801809916955E9, 0.0, 2025-03-12 12:50:09.916
140.0, -57134.16572024414, -44543.159847636205, -66675.70074507008, -67591.92110203757, -66435.84417532018, -55988.214133765, -61594.83630595641, -51760.53813225486, -30523.206952000495, -48815.539338056966, -57468.27959636207, 2443012.588383268, -56520.722093668235, -61358.84658799727, -50456.157381076504, -7376.03096676242, 0.058439453125, 0.955943359375, -0.227490234375, 192.0, 0.0, 0.0, 0.0, 0.0, 0.0, 0.0, 0.0, 0.0, 0.0, 1.741801809917279E9, 0.0, 2025-03-12 12:50:09.917
142.0, -57137.92081331263, -44548.88189421676, -66679.3887829052, -67595.45267766151, -66433.27372470782, -55987.02949130887, -61577.133724347805, -51746.277719292375, -30499.961137766975, -48790.97477090058, -57446.55370075151, 2443500.214040305, -56493.27415147712, -61331.62216325071, -50435.07968605515, -7354.17096068513, 0.058439453125, 0.955943359375, -0.227490234375, 192.0, 0.0, 0.0, 0.0, 0.0, 0.0, 0.0, 0.0, 0.0, 0.0, 1.741801809917537E9, 0.0, 2025-03-12 12:50:09.917
144.0, -57124.822691061825, -44538.7118504896, -66668.34702114428, -67584.56737811177, -66421.78492805778, -55978.33466271576, -61570.94229113368, -51735.772399398375, -30517.70842286449, -48809.54907054294, -57461.57407302548, 2443380.051062113, -56506.41697721684, -61346.68723901358, -50445.182674548945, -7369.750126570479, 0.058439453125, 0.955943359375, -0.227490234375, 192.0, 0.0, 0.0, 0.0, 0.0, 0.0, 0.0, 0.0, 0.0, 0.0, 1.741801809917802E9, 0.0, 2025-03-12 12:50:09.917
146.0, -57143.86637733774, -44558.04610944344, -66692.4422016671, -67604.23691323244, -66441.56622190074, -55995.61256117971, -61581.1346866053, -51756.35835604172, -30501.928091279042, -48797.143852370245, -57449.07944787496, 2443273.299130595, -56490.457831675754, -61329.99048590547, -50433.29154649872, -7352.628690317713, 0.0612197265625, 0.9569716796875001, -0.2237451171875, 192.0, 1.0, 0.0, 14.5, 120.0, 124.5, 16.0, 0.0, 0.0, 0.0, 1.741801809918062E9, 0.0, 2025-03-12 12:50:09.918
148.0, -57135.97621154502, -44549.0160046835, -66678.67352708263, -67588.36717466917, -66426.23292520439, -55981.88859008415, -61571.679898700706, -51752.40209727312, -30528.48196369195, -48806.64334376375, -57471.02886093007, 2443118.8038729196, -56513.92716335382, -61345.74846574646, -50454.2574827978, -7371.158286471163, 0.0612197265625, 0.9569716796875001, -0.2237451171875, 192.0, 0.0, 0.0, 0.0, 0.0, 0.0, 0.0, 0.0, 0.0, 0.0, 1.741801809918332E9, 0.0, 2025-03-12 12:50:09.918
150.0, -57128.62248761922, -44545.6632430152, -66672.37033514623, -67582.95805251099, -66418.70038732296, -55973.37257544668, -61570.87523590031, -51729.24569001743, -30506.5996058702, -48790.863012178306, -57447.1124943629, 2443021.171453139, -56488.20030548576, -61319.52986950039, -50430.54228193072, -7347.420733859627, 0.0612197265625, 0.9569716796875001, -0.2237451171875, 192.0, 0.0, 0.0, 0.0, 0.0, 0.0, 0.0, 0.0, 0.0, 0.0, 1.741801809918585E9, 0.0, 2025-03-12 12:50:09.918
152.0, -57123.548641627865, -44541.706984246615, -66660.76977977392, -67569.61406107117, -66408.75386104034, -55966.912921299096, -61550.3786862348, -51724.14949228162, -30515.294434463318, -48800.25074484954, -57452.52161652108, 2442901.0084749474, -56495.33051196701, -61329.09641612726, -50433.89504359902, -7346.370201870228, 0.0612197265625, 0.9569716796875001, -0.2237451171875, 192.0, 0.0, 0.0, 0.0, 0.0, 0.0, 0.0, 0.0, 0.0, 0.0, 1.741801809971275E9, 0.0, 2025-03-12 12:50:09.971
154.0, -57120.39704565967, -44538.5106847895, -66657.39466636117, -67565.81426451377, -66400.75193652534, -55965.79533407633, -61532.00555229254, -51728.53043419486, -30500.60933835618, -48780.60356147332, -57432.85208140041, 2443290.4652703363, -56472.93406402279, -61305.76119491592, -50410.33630494313, -7327.058294660842, 0.0612197265625, 0.9569716796875001, -0.2237451171875, 192.0, 0.0, 0.0, 0.0, 0.0, 0.0, 0.0, 0.0, 0.0, 0.0, 1.74180180997158E9, 0.0, 2025-03-12 12:50:09.971
156.0, -57153.32116524234, -44570.27251366049, -66683.4344486516, -67586.46727639047, -66433.69840785247, -55973.327871957765, -61573.02100336803, -51738.18638779955, -30529.08546079224, -48802.03888440596, -57457.863683445896, 2443458.9080165518, -56499.89026783589, -61323.061445124324, -50430.02819180825, -7340.670507034124, 0.06460986328125, 0.9564858398437501, -0.22287255859375, 192.0, 1.0, 16.0, 14.5, 112.0, 124.5, 8.0, 0.0, 0.0, 0.0, 1.741801809971836E9, 0.0, 2025-03-12 12:50:09.971
158.0, -57138.16668250164, -44563.41052811272, -66666.93886124359, -67570.5975378272, -66415.88406752159, -55959.08981073974, -61559.14057006128, -51720.23793700194, -30534.874562606165, -48806.91156469722, -57456.85785494541, 2443322.1153404852, -56502.37131147043, -61322.882631168686, -50434.67735465495, -7338.077704677308, 0.06460986328125, 0.9564858398437501, -0.22287255859375, 192.0, 0.0, 0.0, 0.0, 0.0, 0.0, 0.0, 0.0, 0.0, 0.0, 1.741801809972105E9, 0.0, 2025-03-12 12:50:09.972
160.0, -57144.536929671405, -44570.18310668267, -66671.02923047892, -67572.58684308373, -66418.4768698784, -55963.828380564264, -61561.465151484634, -51721.22141375797, -30522.067013033273, -48790.2148115891, -57440.54108149304, 2443237.3575255107, -56484.89224730638, -61308.4210525061, -50413.42084567796, -7321.716227736024, 0.06460986328125, 0.9564858398437501, -0.22287255859375, 192.0, 0.0, 0.0, 0.0, 0.0, 0.0, 0.0, 0.0, 0.0, 0.0, 1.741801809972379E9, 0.0, 2025-03-12 12:50:09.972
162.0, -57173.5941974633, -44598.56982214091, -66698.61128313676, -67600.95120679752, -66444.1366725131, -55989.84581111024, -61584.77802095152, -51751.97741412847, -30559.305019295814, -48827.698687040654, -57475.02982318757, 2443071.0605467632, -56518.37516050043, -61340.540509288374, -50447.68606992794, -7350.728792039013, 0.06460986328125, 0.9564858398437501, -0.22287255859375, 192.0, 0.0, 0.0, 0.0, 0.0, 0.0, 0.0, 0.0, 0.0, 0.0, 1.741801809972653E9, 0.0, 2025-03-12 12:50:09.972
164.0, -57193.12962211724, -44623.626127675314, -66714.52572518894, -67618.05029130582, -66458.0394575643, -56002.496898471945, -61588.77898320901, -51758.079440364774, -30585.63537426417, -48839.52275985751, -57497.225105431695, 2442922.4661496244, -56536.41301827586, -61353.37041060572, -50465.92509340347, -7370.219513204041, 0.06460986328125, 0.9564858398437501, -0.22287255859375, 192.0, 0.0, 0.0, 0.0, 0.0, 0.0, 0.0, 0.0, 0.0, 0.0, 1.741801809972912E9, 0.0, 2025-03-12 12:50:09.972
166.0, -57175.94113063111, -44616.3841624718, -66694.9455970461, -67601.53235215334, -66436.04534102028, -55989.57759017678, -61574.71973594663, -51755.91132115261, -30584.00369691893, -48842.07085872541, -57484.57401806999, 2443121.4860822544, -56525.75123617068, -61351.15758790465, -50453.54222697523, -7362.21758868904, 0.06530493164062501, 0.957242919921875, -0.22043627929687498, 192.0, 1.0, 8.0, 14.5, 120.0, 124.5, 24.0, 0.0, 0.0, 0.0, 1.74180180997318E9, 0.0, 2025-03-12 12:50:09.973
168.0, -57186.80407843639, -44632.47741847961, -66698.85715232577, -67610.42834644656, -66441.76738760083, -55993.44444196754, -61590.544771020985, -51759.44289677655, -30595.648955780147, -48847.971719261615, -57490.720747795196, 2443371.4679922424, -56527.40526526037, -61350.554090804355, -50458.16903807748, -7367.98433875851, 0.06530493164062501, 0.957242919921875, -0.22043627929687498, 192.0, 0.0, 0.0, 0.0, 0.0, 0.0, 0.0, 0.0, 0.0, 0.0, 1.741801810034236E9, 0.0, 2025-03-12 12:50:10.034
170.0, -57214.90022121671, -44670.7436049871, -66722.23707702602, -67638.12215782668, -66462.35334424417, -56021.31706730331, -61603.17350663823, -51781.995806931955, -30615.743174045467, -48866.09898401487, -57504.57882935749, 2443229.8473393735, -56538.33526829902, -61367.51906484593, -50461.208875323406, -7373.438164405605, 0.06530493164062501, 0.957242919921875, -0.22043627929687498, 192.0, 0.0, 0.0, 0.0, 0.0, 0.0, 0.0, 0.0, 0.0, 0.0, 1.74180181003454E9, 0.0, 2025-03-12 12:50:10.034
172.0, -57236.313192404894, -44692.17892791974, -66735.51401323247, -67647.59929747574, -66477.06079209576, -56032.58234650879, -61621.18901266921, -51790.91415296962, -30649.7848808509, -48910.93658339221, -57536.787693117585, 2443065.159686227, -56564.75503024519, -61402.43248968512, -50483.73943373435, -7402.651894408691, 0.06530493164062501, 0.957242919921875, -0.22043627929687498, 192.0, 0.0, 0.0, 0.0, 0.0, 0.0, 0.0, 0.0, 0.0, 0.0, 1.741801810034786E9, 0.0, 2025-03-12 12:50:10.034
174.0, -57214.788462494434, -44675.61628527836, -66715.95623683408, -67624.97933208696, -66452.65268715056, -56006.16258456261, -61592.06468964394, -51751.97741412847, -30638.20667722305, -48884.1368417903, -57523.42134993331, 2442963.7721733777, -56552.93095742833, -61381.4889051305, -50466.12625910357, -7382.132992998719, 0.06530493164062501, 0.957242919921875, -0.22043627929687498, 192.0, 0.0, 0.0, 0.0, 0.0, 0.0, 0.0, 0.0, 0.0, 0.0, 1.741801810035056E9, 0.0, 2025-03-12 12:50:10.035
176.0, -57217.38126485125, -44680.17604114724, -66722.03591132593, -67637.07162583728, -66453.70321913996, -56021.451177770046, -61592.2882070885, -51773.9715306725, -30642.319398202828, -48887.735472647604, -57529.8810040809, 2442925.148358959, -56548.52766377064, -61381.310091174855, -50464.94161664744, -7384.36816744425, 0.0626524658203125, 0.9586214599609375, -0.2192181396484375, 192.0, 0.5, 112.0, 15.0, 0.0, 124.5, 24.0, 0.0, 0.0, 0.0, 1.741801810035295E9, 0.0, 2025-03-12 12:50:10.035
178.0, -57218.29768637392, -44683.30528537098, -66729.83667014082, -67644.62651546318, -66459.02293432032, -56017.383160279176, -61614.23762014361, -51775.04441440635, -30641.402976680158, -48888.9871703371, -57530.708018625744, 2443421.8935277336, -56551.92512892785, -61387.00978601096, -50476.20689585291, -7396.438109450115, 0.0626524658203125, 0.9586214599609375, -0.2192181396484375, 192.0, 0.0, 0.0, 0.0, 0.0, 0.0, 0.0, 0.0, 0.0, 0.0, 1.741801810035568E9, 0.0, 2025-03-12 12:50:10.035
180.0, -57231.932250491656, -44694.14588143181, -66743.09125460283, -67662.84318719426, -66472.97042286044, -56032.24707034196, -61624.25120165959, -51775.33498708427, -30651.125985518218, -48899.91717337575, -57546.82362637802, 2443345.71878263, -56564.17388488935, -61396.15164949318, -50493.484794316864, -7406.429339221638, 0.0626524658203125, 0.9586214599609375, -0.2192181396484375, 192.0, 0.0, 0.0, 0.0, 0.0, 0.0, 0.0, 0.0, 0.0, 0.0, 1.741801810035834E9, 0.0, 2025-03-12 12:50:10.035
182.0, -57256.00507927002, -44720.252718955606, -66766.3594205808, -67690.73816427447, -66500.57482726274, -56069.9321114936, -61649.553376382995, -51822.20659520705, -30664.69349440259, -48918.357362551375, -57557.95479511676, 2443213.7540833657, -56578.92603622986, -61415.32944623583, -50510.38271312508, -7432.826749423355, 0.0626524658203125, 0.9586214599609375, -0.2192181396484375, 192.0, 0.0, 0.0, 0.0, 0.0, 0.0, 0.0, 0.0, 0.0, 0.0, 1.741801810091772E9, 0.0, 2025-03-12 12:50:10.091
184.0, -57251.914710034696, -44713.524843874555, -66751.11553086228, -67671.98505067648, -66488.48253351242, -56051.40251534015, -61619.82555625744, -51799.318408884814, -30670.97433459453, -48923.02887714254, -57563.11804808594, 2443080.716500368, -56584.44691711032, -61418.92807709314, -50511.410893370026, -7430.479816255548, 0.0626524658203125, 0.9586214599609375, -0.2192181396484375, 192.0, 0.0, 0.0, 0.0, 0.0, 0.0, 0.0, 0.0, 0.0, 0.0, 1.741801810092085E9, 0.0, 2025-03-12 12:50:10.092
186.0, -57256.54152113695, -44719.73862883313, -66754.62475474176, -67678.0200216794, -66497.02089989436, -56071.22851267201, -61640.85854778988, -51833.650688368165, -30677.724561420033, -48926.49339753311, -57566.20258882077, 2442957.8713128413, -56590.72775730226, -61424.650123673695, -50513.51195734882, -7437.028877380953, 0.06132623291015625, 0.9553107299804688, -0.21760906982421874, 192.0, 0.5, 112.0, 14.5, 96.0, 124.5, 32.0, 0.0, 0.0, 0.0, 1.741801810092345E9, 0.0, 2025-03-12 12:50:10.092
188.0, -57247.06438148789, -44707.78044554954, -66741.99601912452, -67660.40684704862, -66483.60985322116, -56046.01574492642, -61639.070408233456, -51793.328141370795, -30672.49425321749, -48917.44094102871, -57563.11804808594, 2442838.2447765167, -56586.4585741113, -61413.474251446045, -50505.28651538927, -7430.368057533272, 0.06132623291015625, 0.9553107299804688, -0.21760906982421874, 192.0, 0.0, 0.0, 0.0, 0.0, 0.0, 0.0, 0.0, 0.0, 0.0, 1.741801810092619E9, 0.0, 2025-03-12 12:50:10.092
190.0, -57222.969200965075, -44680.48896556962, -66719.48781245801, -67629.31557051129, -66460.09581805418, -56018.567802735306, -61602.90528570477, -51764.42733579008, -30653.45056694157, -48894.41864423975, -57544.18612053229, 2443170.302292145, -56569.56065530308, -61392.75418433597, -50480.498430788335, -7401.310789741372, 0.06132623291015625, 0.9553107299804688, -0.21760906982421874, 192.0, 0.0, 0.0, 0.0, 0.0, 0.0, 0.0, 0.0, 0.0, 0.0, 1.741801810092868E9, 0.0, 2025-03-12 12:50:10.092
192.0, -57239.598898839824, -44692.69301804221, -66738.55385047839, -67650.99676263295, -66469.95293735898, -56042.059486157836, -61607.37563459583, -51796.97147571701, -30644.867497070732, -48888.89776335928, -57538.19585301827, 2443412.774015996, -56556.06020165208, -61380.52778011892, -50470.775421950275, -7394.962894316065, 0.06132623291015625, 0.9553107299804688, -0.21760906982421874, 192.0, 0.0, 0.0, 0.0, 0.0, 0.0, 0.0, 0.0, 0.0, 0.0, 1.741801810093128E9, 0.0, 2025-03-12 12:50:10.093
194.0, -57242.258756430005, -44691.5977825639, -66746.95810639359, -67653.00841963392, -66483.58750147671, -56033.454064542544, -61632.78956804152, -51781.504068553935, -30658.412654210646, -48892.38463549431, -57551.83041713601, 2443272.762688728, -56574.902722227904, -61392.709480847065, -50495.719968762394, -7420.354476017294, 0.06132623291015625, 0.9553107299804688, -0.21760906982421874, 192.0, 0.0, 0.0, 0.0, 0.0, 0.0, 0.0, 0.0, 0.0, 0.0, 1.741801810093378E9, 0.0, 2025-03-12 12:50:10.093
196.0, -57233.8097970259, -44679.93017195823, -66741.01254236848, -67644.53710848535, -66478.17837931853, -56025.18391909408, -61615.06463468846, -51784.54390579986, -30653.15999426365, -48890.46238547115, -57549.46113222375, 2443146.69885, -56576.71321352878, -61385.42281215463, -50502.82782349919, -7410.407949734682, 0.06266311645507813, 0.9556553649902344, -0.21680453491210938, 192.0, 1.0, 0.0, 14.5, 112.0, 124.5, 32.0, 0.0, 0.0, 0.0, 1.741801810093622E9, 0.0, 2025-03-12 12:50:10.093
198.0, -57224.5561748214, -44665.580352017925, -66733.21178355358, -67638.43508224907, -66477.12784732913, -56021.451177770046, -61618.41739635675, -51779.000673174945, -30641.44768016907, -48871.26223698405, -57537.94998382926, 2443043.70201155, -56569.0018616917, -61375.40923063865, -50497.91043971902, -7411.033798579431, 0.06266311645507813, 0.9556553649902344, -0.21680453491210938, 192.0, 0.0, 0.0, 0.0, 0.0, 0.0, 0.0, 0.0, 0.0, 0.0, 1.741801810151221E9, 0.0, 2025-03-12 12:50:10.151
200.0, -57209.64756126971, -44649.86707566585, -66716.82795486784, -67626.11927105418, -66462.26393726634, -56013.85158465524, -61604.38050083882, -51774.95500742853, -30625.376775905705, -48858.879370555806, -57525.50006216766, 2442929.976335761, -56557.62482376395, -61363.1828264216, -50487.29336110275, -7400.349664729794, 0.06266311645507813, 0.9556553649902344, -0.21680453491210938, 192.0, 0.0, 0.0, 0.0, 0.0, 0.0, 0.0, 0.0, 0.0, 0.0, 1.741801810151523E9, 0.0, 2025-03-12 12:50:10.151
202.0, -57186.42409878065, -44629.079953322405, -66693.33627144531, -67607.96965455648, -66446.46125393645, -56003.14509906115, -61601.56418103745, -51766.550751513336, -30606.087220440775, -48841.534416858485, -57502.50011712314, 2442884.3787770723, -56538.93876539931, -61350.95642220455, -50468.78611669375, -7387.452708179082, 0.06266311645507813, 0.9556553649902344, -0.21680453491210938, 192.0, 0.0, 0.0, 0.0, 0.0, 0.0, 0.0, 0.0, 0.0, 0.0, 1.741801810151801E9, 0.0, 2025-03-12 12:50:10.151
204.0, -57178.60098822129, -44625.526025954015, -66685.35669867476, -67601.53235215334, -66436.49237590938, -56005.33557001777, -61607.93442820721, -51764.13676311216, -30600.67809828259, -48845.53537911599, -57495.99575948665, 2443393.4621087867, -56528.85812864997, -61353.95155596156, -50464.11460210259, -7384.167001744152, 0.06266311645507813, 0.9556553649902344, -0.21680453491210938, 192.0, 0.0, 0.0, 0.0, 0.0, 0.0, 0.0, 0.0, 0.0, 0.0, 1.741801810152069E9, 0.0, 2025-03-12 12:50:10.152
206.0, -57193.77782270644, -44639.80879066096, -66692.68807085611, -67612.5070586809, -66434.97245728642, -56022.546413248354, -61585.515628518544, -51779.58181853078, -30593.793760990357, -48826.84932075135, -57486.60802681542, 2443375.759527178, -56516.96700059975, -61343.44623606757, -50445.29443327122, -7371.158286471163, 0.06533155822753907, 0.9588276824951172, -0.21640226745605468, 192.0, 1.0, 16.0, 15.0, 8.0, 124.5, 32.0, 0.0, 0.0, 0.0, 1.741801810152331E9, 0.0, 2025-03-12 12:50:10.152
208.0, -57212.262715370984, -44664.37335781734, -66712.15644027668, -67630.54491645633, -66452.04919005027, -56039.22081461201, -61601.608884526366, -51811.2318886795, -30619.72178455851, -48858.879370555806, -57513.18425097278, 2443208.3896646965, -56539.0952276105, -61370.827123025316, -50459.95717763391, -7396.259295494473, 0.06533155822753907, 0.9588276824951172, -0.21640226745605468, 192.0, 0.0, 0.0, 0.0, 0.0, 0.0, 0.0, 0.0, 0.0, 0.0, 1.741801810152615E9, 0.0, 2025-03-12 12:50:10.152
210.0, -57196.527087274444, -44642.46864825114, -66697.91837905865, -67611.52358192488, -66444.3825417021, -56013.806881166325, -61602.90528570477, -51769.18825735906, -30621.621682837213, -48857.404155421755, -57515.41942541831, 2443071.59698863, -56541.88919566741, -61365.66387005614, -50466.997977137326, -7396.192240261107, 0.06533155822753907, 0.9588276824951172, -0.21640226745605468, 192.0, 0.0, 0.0, 0.0, 0.0, 0.0, 0.0, 0.0, 0.0, 0.0, 1.741801810152867E9, 0.0, 2025-03-12 12:50:10.152
212.0, -57176.16464807566, -44619.35694448435, -66683.07682074033, -67601.66646262008, -66435.15127124207, -55996.39487223564, -61601.586532781905, -51753.16205658461, -30597.705316270032, -48836.39351563377, -57494.60995133042, 2442970.209475781, -56524.34307627, -61351.78343674939, -50458.03492761075, -7385.083423266819, 0.06533155822753907, 0.9588276824951172, -0.21640226745605468, 192.0, 0.0, 0.0, 0.0, 0.0, 0.0, 0.0, 0.0, 0.0, 0.0, 1.74180181021351E9, 0.0, 2025-03-12 12:50:10.213
214.0, -57161.434848479614, -44607.46581643412, -66671.16334094564, -67587.98719501343, -66425.02593100381, -55979.80987784981, -61580.17356159372, -51728.306916750305, -30575.845310192744, -48824.99412596156, -57474.7168987652, 2442882.2330096047, -56506.28286675011, -61332.158605117635, -50443.81921813718, -7360.518856110437, 0.06533155822753907, 0.9588276824951172, -0.21640226745605468, 192.0, 0.0, 0.0, 0.0, 0.0, 0.0, 0.0, 0.0, 0.0, 0.0, 1.741801810213834E9, 0.0, 2025-03-12 12:50:10.213
216.0, -57155.80220887688, -44599.866223319324, -66669.41990487813, -67589.79768631431, -66421.51670712432, -55982.1121075287, -61590.61182625435, -51742.79084715735, -30568.804510689322, -48812.79007348896, -57466.75967773911, 2443344.109457029, -56502.0360353036, -61326.03422713688, -50444.199197792914, -7361.7705537999345, 0.06466577911376953, 0.9604138412475586, -0.21720113372802735, 192.0, 1.0, 0.0, 15.0, 8.0, 124.5, 24.0, 0.0, 0.0, 0.0, 1.741801810214103E9, 0.0, 2025-03-12 12:50:10.214
218.0, -57175.96348237556, -44623.22379627512, -66682.87565504023, -67612.1047272807, -66430.25623920634, -56005.424976995586, -61582.69930871717, -51764.89672242364, -30574.370095058694, -48817.41688459121, -57471.54295105254, 2443434.231690673, -56502.818346359534, -61331.1751283616, -50444.154494304006, -7373.16994347214, 0.06466577911376953, 0.9604138412475586, -0.21720113372802735, 192.0, 0.0, 0.0, 0.0, 0.0, 0.0, 0.0, 0.0, 0.0, 0.0, 1.74180181021437E9, 0.0, 2025-03-12 12:50:10.214
220.0, -57176.36581377576, -44625.63778467629, -66686.04960275289, -67618.6090849172, -66432.71493109643, -56021.160605092125, -61594.14340187829, -51783.22515287699, -30592.922042956598, -48834.91830049972, -57487.300930893536, 2443279.736432998, -56517.41403548885, -61352.67750652761, -50455.15155257602, -7398.9862083180205, 0.06466577911376953, 0.9604138412475586, -0.21720113372802735, 192.0, 0.0, 0.0, 0.0, 0.0, 0.0, 0.0, 0.0, 0.0, 0.0, 1.741801810214621E9, 0.0, 2025-03-12 12:50:10.214
222.0, -57161.45720022407, -44612.00322055855, -66670.91747175663, -67593.955110783, -66421.24848619086, -55996.90896235812, -61584.17452385122, -51765.09788812374, -30582.48377829597, -48834.270099910515, -57479.90250347883, 2443177.8124782816, -56510.440291218794, -61350.10705591525, -50448.5577879617, -7392.280684981429, 0.06466577911376953, 0.9604138412475586, -0.21720113372802735, 192.0, 0.0, 0.0, 0.0, 0.0, 0.0, 0.0, 0.0, 0.0, 0.0, 1.741801810214876E9, 0.0, 2025-03-12 12:50:10.214
224.0, -57175.02470910844, -44625.01193583154, -66685.78138181941, -67602.58288414274, -66436.98411428739, -56002.16162230512, -61602.72647174913, -51750.34573678324, -30566.345818799236, -48813.52768105599, -57464.32333759348, 2443083.9351515695, -56499.44323294678, -61326.88359342618, -50432.37512497606, -7363.022251489431, 0.06466577911376953, 0.9604138412475586, -0.21720113372802735, 192.0, 0.0, 0.0, 0.0, 0.0, 0.0, 0.0, 0.0, 0.0, 0.0, 1.741801810215152E9, 0.0, 2025-03-12 12:50:10.215
226.0, -57183.831296423836, -44638.534741227006, -66694.65502436817, -67616.99975931642, -66450.70808538295, -56020.735921947475, -61601.05009091498, -51782.93458019908, -30605.260205895927, -48857.5829693774, -57504.46707063521, 2442901.544916814, -56538.75995144367, -61366.87086425673, -50472.5635615067, -7394.068824537853, 0.06433288955688476, 0.9622069206237793, -0.2176005668640137, 192.0, 1.0, 0.0, 15.0, 16.0, 124.5, 24.0, 0.0, 0.0, 0.0, 1.741801810215412E9, 0.0, 2025-03-12 12:50:10.215
228.0, -57156.91979609964, -44613.0314008035, -66669.33049790032, -67597.15141024011, -66426.36703567112, -56000.395834493145, -61588.13078261981, -51776.34081558476, -30570.8161676903, -48822.46837883811, -57466.9161399503, 2443215.8998508337, -56504.718244638236, -61338.84177670977, -50438.477151212355, -7370.174809715129, 0.06433288955688476, 0.9622069206237793, -0.2176005668640137, 192.0, 0.0, 0.0, 0.0, 0.0, 0.0, 0.0, 0.0, 0.0, 0.0, 1.741801810274101E9, 0.0, 2025-03-12 12:50:10.274
230.0, -57187.16170634767, -44642.513351740046, -66693.06805051185, -67628.46620422199, -66452.1385970281, -56019.99831438045, -61615.53402132202, -51764.56144625681, -30589.52457779939, -48846.921187272215, -57488.46322160521, 2443441.205434943, -56521.88438437991, -61360.65707929815, -50460.426564267465, -7388.816164590856, 0.06433288955688476, 0.9622069206237793, -0.2176005668640137, 192.0, 0.0, 0.0, 0.0, 0.0, 0.0, 0.0, 0.0, 0.0, 0.0, 1.741801810274412E9, 0.0, 2025-03-12 12:50:10.274
232.0, -57185.708842958076, -44642.7368691846, -66690.5423033884, -67625.02403557587, -66445.58953590269, -56012.063445098815, -61603.486431060606, -51753.92201589609, -30600.476932582493, -48855.81718156543, -57498.275637421095, 2443302.803433276, -56530.6909716953, -61370.22362592502, -50461.29828230123, -7388.391481446205, 0.06433288955688476, 0.9622069206237793, -0.2176005668640137, 192.0, 0.0, 0.0, 0.0, 0.0, 0.0, 0.0, 0.0, 0.0, 0.0, 1.741801810274663E9, 0.0, 2025-03-12 12:50:10.274
234.0, -57192.39201455021, -44642.31218603995, -66704.22157099504, -67632.19894554603, -66454.55258542926, -56023.462834771024, -61613.410605598765, -51777.301940596335, -30597.34768835875, -48856.845361810374, -57502.94715201225, 2443187.4684318863, -56531.003896117676, -61369.93305324711, -50464.24871256932, -7389.50906866897, 0.06433288955688476, 0.9622069206237793, -0.2176005668640137, 192.0, 0.0, 0.0, 0.0, 0.0, 0.0, 0.0, 0.0, 0.0, 0.0, 1.741801810274926E9, 0.0, 2025-03-12 12:50:10.274
236.0, -57213.26854387147, -44662.67462523873, -66726.84153638381, -67652.29316381135, -66471.38344900412, -56047.26744261592, -61632.58840234142, -51800.97243797451, -30600.789857004867, -48865.42843168121, -57509.63032360439, 2443066.7690118277, -56543.56557650156, -61375.96802425004, -50475.7151574749, -7404.0377025649195, 0.06316644477844238, 0.9591034603118898, -0.21780028343200686, 192.0, 0.5, 120.0, 14.5, 112.0, 124.5, 24.0, 0.0, 0.0, 0.0, 1.74180181027518E9, 0.0, 2025-03-12 12:50:10.275
238.0, -57221.158709664196, -44664.8427444509, -66735.24579229901, -67656.94232665806, -66482.8945973986, -56057.90687297665, -61645.73122808114, -51820.95489751756, -30623.6780433271, -48885.947333091186, -57538.55348092956, 2442902.617800548, -56568.398364591405, -61400.756108850976, -50503.58778281067, -7437.207691336595, 0.06316644477844238, 0.9591034603118898, -0.21780028343200686, 192.0, 0.0, 0.0, 0.0, 0.0, 0.0, 0.0, 0.0, 0.0, 0.0, 1.741801810275455E9, 0.0, 2025-03-12 12:50:10.275
240.0, -57206.87594495725, -44649.73296519911, -66716.96206533458, -67638.45743399352, -66466.68958266849, -56041.56774777982, -61631.649629074294, -51796.70325478355, -30609.507037342435, -48865.76370784804, -57524.29306796707, 2442885.4516608063, -56557.60247201949, -61384.21581795405, -50493.30598036123, -7427.663496454179, 0.06316644477844238, 0.9591034603118898, -0.21780028343200686, 192.0, 0.0, 0.0, 0.0, 0.0, 0.0, 0.0, 0.0, 0.0, 0.0, 1.741801810275696E9, 0.0, 2025-03-12 12:50:10.275
242.0, -57193.30843607288, -44634.7349446696, -66701.56171340487, -67623.74998614192, -66452.11624528364, -56022.36759929271, -61622.775986525536, -51783.71689125501, -30593.7714092459, -48847.23411169459, -57509.22799220419, 2443341.9636895615, -56543.18559684582, -61362.780495021405, -50475.42458479698, -7398.9862083180205, 0.06316644477844238, 0.9591034603118898, -0.21780028343200686, 192.0, 0.0, 0.0, 0.0, 0.0, 0.0, 0.0, 0.0, 0.0, 0.0, 1.741801810331495E9, 0.0, 2025-03-12 12:50:10.331
244.0, -57187.83225868133, -44627.5823864439, -66697.44899242508, -67622.99002683045, -66450.9316028275, -56028.69314297356, -61616.00340795558, -51795.31744662732, -30589.993964432953, -48852.26325419704, -57506.99281775866, 2443275.9813399296, -56543.83379743502, -61372.48115211501, -50480.16315462151, -7410.139728801219, 0.06316644477844238, 0.9591034603118898, -0.21780028343200686, 192.0, 0.0, 0.0, 0.0, 0.0, 0.0, 0.0, 0.0, 0.0, 0.0, 1.741801810331822E9, 0.0, 2025-03-12 12:50:10.331
246.0, -57190.02272963795, -44626.151874798765, -66697.87367556973, -67624.93462859806, -66453.3902947176, -56019.10424460223, -61605.90041946178, -51782.35343484324, -30577.208766604515, -48840.059201724434, -57496.91218100932, 2443168.692966544, -56532.389704273904, -61356.65611704065, -50464.069898613685, -7398.56152517337, 0.06158322238922119, 0.9595517301559449, -0.21790014171600341, 192.0, 0.5, 112.0, 15.0, 0.0, 124.5, 24.0, 0.0, 0.0, 0.0, 1.741801810332088E9, 0.0, 2025-03-12 12:50:10.332
248.0, -57195.40950005168, -44628.72232541112, -66702.74635586099, -67628.2650385219, -66459.24645176488, -56022.725227204, -61605.83336422841, -51777.458402807526, -30582.90846144062, -48848.08347798389, -57505.42819564679, 2443049.066430219, -56540.592794489006, -61366.62499506772, -50470.50720101681, -7402.718949642057, 0.06158322238922119, 0.9595517301559449, -0.21790014171600341, 192.0, 0.0, 0.0, 0.0, 0.0, 0.0, 0.0, 0.0, 0.0, 0.0, 1.741801810332365E9, 0.0, 2025-03-12 12:50:10.332
250.0, -57206.69713100161, -44634.958462114155, -66724.6510654272, -67644.96179163, -66479.63124270811, -56039.31022158983, -61624.47471910414, -51790.10949016923, -30590.999792933442, -48856.91241704374, -57517.4757859082, 2442905.8364517493, -56549.95817541578, -61377.15266670617, -50486.19812562444, -7413.157214302685, 0.06158322238922119, 0.9595517301559449, -0.21790014171600341, 192.0, 0.0, 0.0, 0.0, 0.0, 0.0, 0.0, 0.0, 0.0, 0.0, 1.74180181033262E9, 0.0, 2025-03-12 12:50:10.332
252.0, -57170.8449328953, -44597.04990351795, -66696.89019881371, -67612.66352089209, -66452.51857668383, -56009.694160186555, -61606.48156481762, -51771.378728315685, -30570.056208378817, -48826.40228586225, -57495.59342808645, 2443006.151080865, -56532.09913159599, -61359.76300951994, -50474.485811529856, -7397.801565861889, 0.06158322238922119, 0.9595517301559449, -0.21790014171600341, 192.0, 0.0, 0.0, 0.0, 0.0, 0.0, 0.0, 0.0, 0.0, 0.0, 1.741801810332881E9, 0.0, 2025-03-12 12:50:10.332
254.0, -57181.61847372276, -44606.839967589374, -66713.78811762192, -67626.25338152092, -66471.04817283728, -56023.820462682306, -61612.494184076095, -51792.05409193684, -30563.216574575494, -48830.02326846401, -57487.94913148274, 2443406.336713593, -56524.47718673673, -61355.29266062888, -50474.2622940853, -7393.442975693104, 0.06158322238922119, 0.9595517301559449, -0.21790014171600341, 192.0, 0.0, 0.0, 0.0, 0.0, 0.0, 0.0, 0.0, 0.0, 0.0, 1.74180181033313E9, 0.0, 2025-03-12 12:50:10.333
0.0, -57177.997491120994, -44597.98867678508, -66711.35177747629, -67621.7606808854, -66469.61766119214, -56014.25391605544, -61615.221096899644, -51773.39038531666, -30573.81130144731, -48840.43918138018, -57500.30964616653, 2443260.4245257885, -56536.83770142051, -61367.92139624613, -50492.858945472115, -7409.871507867755, 0.0637916111946106, 0.9577758650779724, -0.21895007085800172, 192.0, 1.0, 8.0, 14.5, 112.0, 124.5, 16.0, 0.0, 0.0, 0.0, 1.741801810333391E9, 0.0, 2025-03-12 12:50:10.333
2.0, -57171.35902301777, -44586.90221153524, -66707.82020185234, -67614.69752963752, -66462.26393726634, -56005.20145955103, -61601.027739170524, -51763.68972822306, -30553.225344803974, -48816.90279446874, -57483.791707014054, 2443148.3081756006, -56518.4422157338, -61346.30725935785, -50470.775421950275, -7382.512972654459, 0.0637916111946106, 0.9577758650779724, -0.21895007085800172, 192.0, 0.0, 0.0, 0.0, 0.0, 0.0, 0.0, 0.0, 0.0, 0.0, 1.741801810377825E9, 0.0, 2025-03-12 12:50:10.377
4.0, -57163.58061594732, -44576.19572594115, -66699.7959255929, -67607.34380571173, -66455.31254474075, -56007.05665434083, -61598.725509491625, -51769.79175445936, -30544.776385399866, -48809.459663565125, -57480.66246279031, 2443038.3375928807, -56514.016570331645, -61342.507462800444, -50471.73654696185, -7378.512010396959, 0.0637916111946106, 0.9577758650779724, -0.21895007085800172, 192.0, 0.0, 0.0, 0.0, 0.0, 0.0, 0.0, 0.0, 0.0, 0.0, 1.741801810378151E9, 0.0, 2025-03-12 12:50:10.378
6.0, -57158.305604255875, -44574.519345107, -66695.03500402391, -67606.09210802223, -66446.2824399808, -55995.79137513535, -61579.12302960432, -51775.133821384174, -30540.931885353555, -48810.75606474353, -57480.19307615675, 2442908.518661084, -56508.31687549554, -61341.94866918906, -50463.06407011319, -7379.093155752797, 0.0637916111946106, 0.9577758650779724, -0.21895007085800172, 192.0, 0.0, 0.0, 0.0, 0.0, 0.0, 0.0, 0.0, 0.0, 0.0, 1.741801810378404E9, 0.0, 2025-03-12 12:50:10.378
8.0, -57135.104493511266, -44551.38528959576, -66678.24884393798, -67587.67427059106, -66428.71396883893, -55977.261778981905, -61581.46996277213, -51749.272853049384, -30528.146687525117, -48798.77552971549, -57475.99094819915, 2443221.8007113696, -56501.67840739232, -61325.386026547676, -50460.80654392321, -7369.79483005939, 0.0637916111946106, 0.9577758650779724, -0.21895007085800172, 192.0, 0.0, 0.0, 0.0, 0.0, 0.0, 0.0, 0.0, 0.0, 0.0, 1.741801810378654E9, 0.0, 2025-03-12 12:50:10.378
10.0, -57109.154118198654, -44524.227920082565, -66660.0321722069, -67565.34487788021, -66406.58574182818, -55952.78661880334, -61539.582793662885, -51718.20392825651, -30489.03113472833, -48774.38977651475, -57442.955069894204, 2443470.1732957573, -56466.832037786495, -61299.63681693516, -50423.41207544948, -7334.255556375451, 0.0668958055973053, 0.9538879325389862, -0.21747503542900087, 192.0, 1.0, 24.0, 14.5, 88.0, 124.5, 32.0, 0.0, 0.0, 0.0, 1.741801810393846E9, 0.0, 2025-03-12 12:50:10.393
12.0, -57118.1842229586, -44529.63704224075, -66669.91164325614, -67573.61502332868, -66411.68193956399, -55959.80506656231, -61535.93945931667, -51721.62374515817, -30482.54912883629, -48761.26930251948, -57443.9608983947, 2443366.64001544, -56467.256720931146, -61293.95947384352, -50427.144816773514, -7328.980544683999, 0.0668958055973053, 0.9538879325389862, -0.21747503542900087, 192.0, 0.0, 0.0, 0.0, 0.0, 0.0, 0.0, 0.0, 0.0, 0.0, 1.741801810451817E9, 0.0, 2025-03-12 12:50:10.451
14.0, -57123.43688290559, -44537.84013245584, -66678.3382509158, -67582.73453506644, -66419.25918093434, -55972.94789230203, -61540.45451169664, -51740.84624538973, -30499.8493790447, -48778.480145750065, -57459.60711951341, 2443226.092246305, -56483.0817560055, -61311.63970370766, -50437.11369480058, -7343.620937302225, 0.0668958055973053, 0.9538879325389862, -0.21747503542900087, 192.0, 0.0, 0.0, 0.0, 0.0, 0.0, 0.0, 0.0, 0.0, 0.0, 1.741801810452132E9, 0.0, 2025-03-12 12:50:10.452
16.0, -57125.49324339548, -44543.13749589175, -66682.47332364004, -67584.83559904524, -66427.90930603853, -55974.736031858454, -61548.32232574491, -51752.75972518441, -30487.69003006101, -48769.673558434675, -57449.057096130506, 2443124.704733456, -56467.524941864605, -61298.89920936814, -50428.57532841866, -7335.5966610427695, 0.0668958055973053, 0.9538879325389862, -0.21747503542900087, 192.0, 0.0, 0.0, 0.0, 0.0, 0.0, 0.0, 0.0, 0.0, 0.0, 1.741801810452404E9, 0.0, 2025-03-12 12:50:10.452
18.0, -57124.21919396153, -44543.29395810294, -66684.73084983001, -67585.79672405681, -66431.88791655158, -55971.7632498459, -61557.50889271604, -51732.218472029985, -30513.103963506695, -48794.30518082443, -57472.90640746432, 2442964.3086152445, -56493.16239275484, -61322.927334657594, -50449.96594786239, -7358.373088642727, 0.0668958055973053, 0.9538879325389862, -0.21747503542900087, 192.0, 0.0, 0.0, 0.0, 0.0, 0.0, 0.0, 0.0, 0.0, 0.0, 1.741801810452654E9, 0.0, 2025-03-12 12:50:10.452
20.0, -57119.25710669245, -44539.82943771237, -66679.41113464965, -67586.9590147685, -66421.47200363541, -55972.8137818353, -61561.107523573344, -51728.776303383864, -30491.109846962674, -48778.70366319462, -57454.82384619997, 2442999.713778462, -56475.705680335246, -61307.12465132769, -50435.77259013327, -7335.842530231778, 0.07144790279865265, 0.9549439662694932, -0.22073751771450045, 192.0, 1.0, 48.0, 14.5, 112.0, 124.5, 0.0, 0.0, 0.0, 0.0, 1.741801810452904E9, 0.0, 2025-03-12 12:50:10.452
22.0, -57136.15502550066, -44555.09567917534, -66696.21964648005, -67609.3107592238, -66437.6770183655, -55999.211192037015, -61566.47194224262, -51756.559521741816, -30506.554902381293, -48803.75996872902, -57471.207674885714, 2443382.733271448, -56489.74257585318, -61331.51040452843, -50445.76381990479, -7358.060164220353, 0.07144790279865265, 0.9549439662694932, -0.22073751771450045, 192.0, 0.0, 0.0, 0.0, 0.0, 0.0, 0.0, 0.0, 0.0, 0.0, 1.741801810453183E9, 0.0, 2025-03-12 12:50:10.453
24.0, -57126.52142364043, -44538.89066444524, -66689.82704756582, -67600.16889574158, -66436.33591369819, -55991.231619266466, -61577.29018655899, -51761.365146799704, -30501.70457383449, -48794.88632618026, -57471.74411675264, 2443285.100851667, -56487.50740140765, -61328.2246980935, -50450.79296240723, -7366.307957924361, 0.07144790279865265, 0.9549439662694932, -0.22073751771450045, 192.0, 0.0, 0.0, 0.0, 0.0, 0.0, 0.0, 0.0, 0.0, 0.0, 1.741801810453437E9, 0.0, 2025-03-12 12:50:10.453
26.0, -57131.662324865145, -44548.07723141638, -66693.51508540096, -67602.58288414274, -66440.7839108448, -55997.35599724722, -61570.45055275566, -51774.19504811705, -30505.526722136347, -48796.719169225595, -57477.13088716637, 2443156.891245472, -56497.05159629007, -61333.834985951784, -50459.75601193381, -7375.494524895493, 0.07144790279865265, 0.9549439662694932, -0.22073751771450045, 192.0, 0.0, 0.0, 0.0, 0.0, 0.0, 0.0, 0.0, 0.0, 0.0, 1.741801810501473E9, 0.0, 2025-03-12 12:50:10.501
28.0, -57140.11128426925, -44556.39208035375, -66698.56657964786, -67602.35936669819, -66449.50109118236, -55997.78068039187, -61579.61476798234, -51763.265045078406, -30501.212835456474, -48797.18855585916, -57474.918064465295, 2443038.8740347475, -56492.04480553208, -61325.05075038085, -50450.41298275149, -7361.122353210731, 0.07144790279865265, 0.9549439662694932, -0.22073751771450045, 192.0, 0.0, 0.0, 0.0, 0.0, 0.0, 0.0, 0.0, 0.0, 0.0, 1.741801810501781E9, 0.0, 2025-03-12 12:50:10.501
30.0, -57131.46115916505, -44550.13359190626, -66692.53160864492, -67599.61010213019, -66445.61188764714, -56000.14996530414, -61585.1356488628, -51762.03569913336, -30511.405230928092, -48805.59281177435, -57484.23874190316, 2442899.9355912134, -56506.2381632612, -61337.00893366444, -50463.62286372457, -7370.487734137504, 0.07172395139932633, 0.9534719831347467, -0.22336875885725022, 192.0, 1.0, 32.0, 14.5, 96.0, 124.0, 120.0, 0.0, 0.0, 0.0, 1.74180181050205E9, 0.0, 2025-03-12 12:50:10.502
32.0, -57143.64285989319, -44561.063594944906, -66706.61320765177, -67615.83746860475, -66458.4864924534, -56019.685389958075, -61597.69732924669, -51787.20376339004, -30503.962100024477, -48805.32459084089, -57478.47199183369, 2443124.704733456, -56498.16918351283, -61337.65713425364, -50457.78905842174, -7373.616978361247, 0.07172395139932633, 0.9534719831347467, -0.22336875885725022, 192.0, 0.0, 0.0, 0.0, 0.0, 0.0, 0.0, 0.0, 0.0, 0.0, 1.74180181050234E9, 0.0, 2025-03-12 12:50:10.502
34.0, -57139.06075227985, -44550.67003377319, -66697.33723370281, -67609.22135224598, -66449.09875978217, -56012.979866621485, -61592.69053848869, -51783.71689125501, -30506.398440170105, -48810.82311997689, -57480.930683723775, 2443260.4245257885, -56507.98159932871, -61343.982677934495, -50464.87456141407, -7383.451745921582, 0.07172395139932633, 0.9534719831347467, -0.22336875885725022, 192.0, 0.0, 0.0, 0.0, 0.0, 0.0, 0.0, 0.0, 0.0, 0.0, 1.741801810502603E9, 0.0, 2025-03-12 12:50:10.502
36.0, -57147.08502853931, -44556.8167634984, -66707.93196057463, -67622.18536403005, -66464.49911171188, -56023.32872430429, -61598.6361025138, -51791.2717808809, -30508.45480065999, -48811.85130022184, -57485.73630878166, 2443134.8971289275, -56510.84262261899, -61347.87188146971, -50469.54607600523, -7386.93861805661, 0.07172395139932633, 0.9534719831347467, -0.22336875885725022, 192.0, 0.0, 0.0, 0.0, 0.0, 0.0, 0.0, 0.0, 0.0, 0.0, 1.741801810502849E9, 0.0, 2025-03-12 12:50:10.502
38.0, -57130.99177253149, -44543.33866159185, -66693.0456987674, -67606.29327372233, -66448.04822779277, -56006.90019212964, -61597.16088737976, -51762.214513089006, -30504.99028026942, -48814.51115781202, -57483.925817480784, 2443024.3901043404, -56509.00977957366, -61347.67071576962, -50468.18261959346, -7386.826859334334, 0.07172395139932633, 0.9534719831347467, -0.22336875885725022, 192.0, 0.0, 0.0, 0.0, 0.0, 0.0, 0.0, 0.0, 0.0, 0.0, 1.741801810503122E9, 0.0, 2025-03-12 12:50:10.503
40.0, -57153.56703443135, -44570.38427238277, -66713.5422484329, -67624.33113149776, -66465.97432684593, -56030.101302874245, -61612.20361139818, -51798.64785655116, -30509.12535299365, -48809.28084960948, -57491.3689483844, 2442906.9093354833, -56514.508308709665, -61349.88353847069, -50473.79290745174, -7389.173792502141, 0.06886197569966317, 0.9547359915673734, -0.22368437942862512, 192.0, 1.0, 8.0, 14.5, 112.0, 124.5, 0.0, 0.0, 0.0, 0.0, 1.741801810503369E9, 0.0, 2025-03-12 12:50:10.503
42.0, -57157.1433135442, -44574.429938129186, -66711.12826003174, -67623.16884078608, -66459.7381901429, -56025.65330572764, -61600.111317647854, -51788.94719945755, -30526.403251457603, -48826.49169284006, -57504.44471889076, 2443219.1185020353, -56527.67348619384, -61360.56767232033, -50481.37014882209, -7400.975513574543, 0.06886197569966317, 0.9547359915673734, -0.22368437942862512, 192.0, 0.0, 0.0, 0.0, 0.0, 0.0, 0.0, 0.0, 0.0, 0.0, 1.741801810560094E9, 0.0, 2025-03-12 12:50:10.560
44.0, -57151.91300534165, -44566.00333046953, -66708.02136755244, -67616.59742791622, -66457.190091275, -56017.85254691274, -61608.87320147434, -51782.57695228779, -30512.053431517295, -48809.92905019868, -57489.737271039165, 2443390.243457585, -56513.43542497581, -61340.071122654816, -50466.95327364842, -7387.475059923538, 0.06886197569966317, 0.9547359915673734, -0.22368437942862512, 192.0, 0.0, 0.0, 0.0, 0.0, 0.0, 0.0, 0.0, 0.0, 0.0, 1.741801810560371E9, 0.0, 2025-03-12 12:50:10.560
46.0, -57143.57580465983, -44560.14717342224, -66694.90089355718, -67611.12125052468, -66443.68963762399, -56003.34626476125, -61585.29211107399, -51764.96377765701, -30516.702594364, -48820.81434974842, -57494.85582051943, 2443278.663549264, -56520.587983201505, -61349.19063439258, -50471.80360219522, -7395.231115249529, 0.06886197569966317, 0.9547359915673734, -0.22368437942862512, 192.0, 0.0, 0.0, 0.0, 0.0, 0.0, 0.0, 0.0, 0.0, 0.0, 1.741801810560635E9, 0.0, 2025-03-12 12:50:10.560
48.0, -57154.50580769847, -44569.870182260296, -66708.69191988611, -67628.35444549972, -66455.58076567421, -56023.865166171214, -61608.515573563054, -51792.67994078159, -30504.163265724572, -48810.778416487985, -57480.97538721268, 2443177.276036415, -56507.311046995055, -61337.29950634236, -50458.79488692223, -7380.724833098035, 0.06886197569966317, 0.9547359915673734, -0.22368437942862512, 192.0, 0.0, 0.0, 0.0, 0.0, 0.0, 0.0, 0.0, 0.0, 0.0, 1.741801810560881E9, 0.0, 2025-03-12 12:50:10.560
50.0, -57145.40864770516, -44558.9178274772, -66697.47134416955, -67616.08333779375, -66444.1366725131, -56011.75052067644, -61599.843096714394, -51766.08136487978, -30525.464478190483, -48823.8765387388, -57502.27659967859, 2443029.2180811428, -56529.77455017264, -61360.120637431224, -50481.43720405546, -7412.307848013384, 0.06343098784983159, 0.9563679957836868, -0.22084218971431258, 192.0, 0.5, 104.0, 14.5, 120.0, 124.5, 24.0, 0.0, 0.0, 0.0, 1.741801810561135E9, 0.0, 2025-03-12 12:50:10.561
52.0, -57135.484473167, -44545.14915289273, -66684.8426085523, -67597.10670675119, -66430.43505316199, -55997.378348991675, -61587.50493377506, -51761.9686439, -30503.17978896854, -48800.04957914944, -57478.02495694458, 2442951.434010438, -56503.533602182106, -61331.532756272885, -50454.03396535325, -7380.121335997741, 0.06343098784983159, 0.9563679957836868, -0.22084218971431258, 192.0, 0.0, 0.0, 0.0, 0.0, 0.0, 0.0, 0.0, 0.0, 0.0, 1.741801810561412E9, 0.0, 2025-03-12 12:50:10.561
54.0, -57128.35426668576, -44541.88579820225, -66681.26632943944, -67592.2563782044, -66428.80337581676, -55993.265628011904, -61574.51857024653, -51768.27183583639, -30490.998088240398, -48785.252724320024, -57465.820904471984, 2443088.763128372, -56490.860163075944, -61316.08770085427, -50442.969851847876, -7370.55478937087, 0.06343098784983159, 0.9563679957836868, -0.22084218971431258, 192.0, 0.0, 0.0, 0.0, 0.0, 0.0, 0.0, 0.0, 0.0, 0.0, 1.741801810561682E9, 0.0, 2025-03-12 12:50:10.561
56.0, -57145.81097910536, -44556.77206000949, -66702.29932097188, -67608.46139293449, -66451.75861737235, -56010.677636942586, -61601.49712580408, -51777.5701615298, -30509.617091371667, -48810.510195554525, -57482.741175024654, 2443393.9985506535, -56512.16137554186, -61335.53371853039, -50463.62286372457, -7382.93765579911, 0.06343098784983159, 0.9563679957836868, -0.22084218971431258, 192.0, 0.0, 0.0, 0.0, 0.0, 0.0, 0.0, 0.0, 0.0, 0.0, 1.741801810622983E9, 0.0, 2025-03-12 12:50:10.622
58.0, -57131.97524928752, -44544.500952303526, -66685.35669867476, -67597.08435500674, -66437.16292824304, -56002.56395370531, -61585.06859362943, -51767.735393969466, -30512.03107977284, -48808.34207634236, -57485.91512273731, 2443259.8880839217, -56515.067102321045, -61340.16052963264, -50468.473192271376, -7390.447841936093, 0.06343098784983159, 0.9563679957836868, -0.22084218971431258, 192.0, 0.0, 0.0, 0.0, 0.0, 0.0, 0.0, 0.0, 0.0, 0.0, 1.741801810623293E9, 0.0, 2025-03-12 12:50:10.623
60.0, -57116.64195259118, -44529.14530386273, -66670.60454733427, -67586.42257290156, -66424.82476530371, -55994.874953612685, -61566.44959049817, -51754.90549265212, -30478.905794490078, -48787.82317493238, -57451.53813976504, 2443180.4946876164, -56484.288750206084, -61319.08283461128, -50436.398438978016, -7365.346832912784, 0.05971549392491579, 0.9561839978918434, -0.22342109485715628, 192.0, 0.5, 96.0, 14.5, 112.0, 124.0, 120.0, 0.0, 0.0, 0.0, 1.741801810623555E9, 0.0, 2025-03-12 12:50:10.623
62.0, -57126.8343480628, -44536.65548999971, -66680.61812885024, -67597.91136955158, -66441.96855330093, -56000.06055832632, -61605.76630899505, -51769.121202125694, -30490.55105335129, -48793.94755291314, -57465.820904471984, 2443046.9206627514, -56498.012721301646, -61329.34228531627, -50456.62676771006, -7377.930865041121, 0.05971549392491579, 0.9561839978918434, -0.22342109485715628, 192.0, 0.0, 0.0, 0.0, 0.0, 0.0, 0.0, 0.0, 0.0, 0.0, 1.74180181062383E9, 0.0, 2025-03-12 12:50:10.623
64.0, -57113.93739151209, -44528.29593757343, -66667.96704148853, -67587.27193919086, -66425.45061414846, -55984.90607558562, -61572.41750626773, -51749.51872223839, -30487.667678316557, -48789.27603832198, -57462.15521838132, 2442941.2416149667, -56494.21292474424, -61322.9720381465, -50450.569444962675, -7377.327367940828, 0.05971549392491579, 0.9561839978918434, -0.22342109485715628, 192.0, 0.0, 0.0, 0.0, 0.0, 0.0, 0.0, 0.0, 0.0, 0.0, 1.74180181062409E9, 0.0, 2025-03-12 12:50:10.624
66.0, -57123.21336546104, -44541.0140801685, -66678.36060266025, -67599.00660502989, -66432.13378574059, -56000.12761355968, -61579.68182321571, -51762.32627181128, -30477.855262500678, -48783.933971397164, -57453.259224088106, 2443297.9754564734, -56480.22073271522, -61314.76894793141, -50434.6550029105, -7364.4751148790265, 0.05971549392491579, 0.9561839978918434, -0.22342109485715628, 192.0, 0.0, 0.0, 0.0, 0.0, 0.0, 0.0, 0.0, 0.0, 0.0, 1.74180181062434E9, 0.0, 2025-03-12 12:50:10.624
68.0, -57120.95583927105, -44540.83526621285, -66673.95730900257, -67594.04451776082, -66427.68578859398, -55995.79137513535, -61583.36986105083, -51759.73346945447, -30494.95434700899, -48800.854241949826, -57467.854913217416, 2443233.6024324424, -56494.25762823316, -61328.582326004784, -50450.70355542941, -7377.886161552211, 0.05971549392491579, 0.9561839978918434, -0.22342109485715628, 192.0, 0.0, 0.0, 0.0, 0.0, 0.0, 0.0, 0.0, 0.0, 0.0, 1.741801810624609E9, 0.0, 2025-03-12 12:50:10.624
70.0, -57123.66040035015, -44540.164713879196, -66676.79598054838, -67593.66453810508, -66434.52542239732, -56002.60865719422, -61588.53311402001, -51761.63336773317, -30490.528701606836, -48797.210907603614, -57464.8150759715, 2443117.194547319, -56489.09437526398, -61325.63189573669, -50446.657889682996, -7375.360414428761, 0.060857746962457895, 0.9570919989459217, -0.22471054742857816, 192.0, 0.5, 120.0, 14.5, 120.0, 124.0, 120.0, 0.0, 0.0, 0.0, 1.741801810624858E9, 0.0, 2025-03-12 12:50:10.624
72.0, -57124.10743523925, -44534.04033589844, -66676.75127705948, -67590.6023491147, -66433.67605610802, -55999.01002633692, -61593.539904777994, -51773.70330973904, -30484.113750948163, -48785.610352231306, -57457.997793912626, 2443009.3697320665, -56488.20030548576, -61318.43463402208, -50445.339136760136, -7370.55478937087, 0.060857746962457895, 0.9570919989459217, -0.22471054742857816, 192.0, 0.0, 0.0, 0.0, 0.0, 0.0, 0.0, 0.0, 0.0, 0.0, 1.741801810672946E9, 0.0, 2025-03-12 12:50:10.672
74.0, -57098.91701923812, -44512.00151586551, -66649.77272150191, -67564.92019473556, -66402.56242782623, -55966.756459087905, -61543.60610766484, -51728.441027217035, -30476.312992133262, -48782.43640451866, -57451.26991883158, 2442997.5680109942, -56479.59488387047, -61309.158660073124, -50433.91739534347, -7361.725850311023, 0.060857746962457895, 0.9570919989459217, -0.22471054742857816, 192.0, 0.0, 0.0, 0.0, 0.0, 0.0, 0.0, 0.0, 0.0, 0.0, 1.741801810673273E9, 0.0, 2025-03-12 12:50:10.673
76.0, -57128.44367366358, -44542.9139784472, -66682.24980619548, -67601.42059343107, -66435.17362298652, -55999.99350309295, -61589.27072158703, -51758.995861887444, -30482.12444569164, -48782.65992196321, -57454.68973573324, 2443431.5494813384, -56483.70760485025, -61311.125613585195, -50433.78328487674, -7358.93188225411, 0.060857746962457895, 0.9570919989459217, -0.22471054742857816, 192.0, 0.0, 0.0, 0.0, 0.0, 0.0, 0.0, 0.0, 0.0, 0.0, 1.741801810673534E9, 0.0, 2025-03-12 12:50:10.673
78.0, -57134.79156908889, -44557.4649640876, -66691.5928353778, -67610.74127086894, -66441.34270445618, -56011.862279398716, -61591.79646871048, -51787.40492909014, -30497.904777277086, -48799.78135821597, -57470.82769522998, 2443309.240735679, -56495.86695383394, -61327.73295971548, -50454.838628153644, -7380.546019142392, 0.060857746962457895, 0.9570919989459217, -0.22471054742857816, 192.0, 0.0, 0.0, 0.0, 0.0, 0.0, 0.0, 0.0, 0.0, 0.0, 1.741801810673791E9, 0.0, 2025-03-12 12:50:10.673
80.0, -57133.3834091882, -44554.04514718594, -66690.63171036621, -67608.9531313125, -66443.0861405237, -56007.63779969666, -61606.45921307316, -51773.34568182775, -30506.28668144783, -48810.33138159888, -57476.862666232904, 2443177.8124782816, -56502.8854015929, -61338.05946565384, -50458.63842471104, -7389.643179135702, 0.06342887348122894, 0.9565459994729608, -0.2243552737142891, 192.0, 1.0, 8.0, 14.5, 112.0, 124.5, 0.0, 0.0, 0.0, 0.0, 1.741801810674061E9, 0.0, 2025-03-12 12:50:10.674
82.0, -57146.50388318347, -44566.29390314745, -66702.07580352733, -67617.87147735017, -66450.05988479375, -56015.930296889586, -61597.65262575777, -51770.86463819321, -30507.359565181683, -48815.78520724597, -57482.405898857825, 2443049.602872086, -56509.16624178484, -61342.28394535589, -50470.484849272354, -7396.75103387249, 0.06342887348122894, 0.9565459994729608, -0.2243552737142891, 192.0, 0.0, 0.0, 0.0, 0.0, 0.0, 0.0, 0.0, 0.0, 0.0, 1.741801810674321E9, 0.0, 2025-03-12 12:50:10.674
84.0, -57129.918888797634, -44547.94312094965, -66678.5841201048, -67596.70437535101, -66423.99775075886, -55992.4162617226, -61572.70807894565, -51748.781114671365, -30509.57238788276, -48811.62778277729, -57480.75186976813, 2442926.7576845596, -56508.80861387356, -61338.171224376114, -50458.83959041114, -7384.03289127742, 0.06342887348122894, 0.9565459994729608, -0.2243552737142891, 192.0, 0.0, 0.0, 0.0, 0.0, 0.0, 0.0, 0.0, 0.0, 0.0, 1.741801810674573E9, 0.0, 2025-03-12 12:50:10.674
86.0, -57121.15700497115, -44545.08209765937, -66672.05741072386, -67591.96580552647, -66421.04732049076, -55990.98575007746, -61583.79454419548, -51756.134838597165, -30490.439294629014, -48800.94364892765, -57462.35638408142, 2443012.588383268, -56485.16046823985, -61320.066311367314, -50439.97471809086, -7368.453725392071, 0.06342887348122894, 0.9565459994729608, -0.2243552737142891, 192.0, 0.0, 0.0, 0.0, 0.0, 0.0, 0.0, 0.0, 0.0, 0.0, 1.7418018107344E9, 0.0, 2025-03-12 12:50:10.734
88.0, -57117.80424330285, -44541.39405982424, -66665.30718389836, -67591.51877063737, -66415.16881169901, -55993.75736638992, -61579.12302960432, -51757.63240547567, -30484.918413748554, -48788.672541221684, -57456.56728226749, 2443413.8468997297, -56476.77856406911, -61315.30538979833, -50430.922261586464, -7366.263254435451, 0.06342887348122894, 0.9565459994729608, -0.2243552737142891, 192.0, 0.0, 0.0, 0.0, 0.0, 0.0, 0.0, 0.0, 0.0, 0.0, 1.74180181073471E9, 0.0, 2025-03-12 12:50:10.734
90.0, -57153.72349664253, -44578.02856898648, -66702.52283841644, -67631.01430308989, -66454.21730926244, -56032.694105231065, -61616.80807075597, -51803.43112986459, -30516.210855985984, -48823.20598640513, -57488.28440764957, 2443253.4507815186, -56506.01464581664, -61349.52591055941, -50461.87942765706, -7398.270952495451, 0.06371443674061447, 0.9552729997364804, -0.22617763685714454, 192.0, 1.0, 0.0, 14.5, 104.0, 124.0, 112.0, 0.0, 0.0, 0.0, 1.741801810734968E9, 0.0, 2025-03-12 12:50:10.734
92.0, -57163.22298803604, -44587.01397025752, -66709.56363791987, -67636.5128322259, -66458.41943722003, -56033.09643663126, -61597.45146005767, -51791.18237390309, -30525.9562165685, -48829.442123108165, -57497.918009509805, 2443116.658105452, -56518.93395411181, -61357.0808001853, -50468.473192271376, -7407.926906100143, 0.06371443674061447, 0.9552729997364804, -0.22617763685714454, 192.0, 0.0, 0.0, 0.0, 0.0, 0.0, 0.0, 0.0, 0.0, 0.0, 1.741801810735244E9, 0.0, 2025-03-12 12:50:10.735
94.0, -57159.11026705626, -44582.811842299925, -66709.0942512863, -67628.30974201081, -66454.93256508501, -56022.077026614796, -61611.91303872026, -51791.40589134764, -30527.40907995809, -48829.82210276391, -57499.326169410495, 2442983.084080587, -56522.48788148021, -61354.71151527304, -50471.73654696185, -7400.796699618901, 0.06371443674061447, 0.9552729997364804, -0.22617763685714454, 192.0, 0.0, 0.0, 0.0, 0.0, 0.0, 0.0, 0.0, 0.0, 0.0, 1.741801810735504E9, 0.0, 2025-03-12 12:50:10.735
96.0, -57149.566072173846, -44573.24529567305, -66696.4431639246, -67611.03184354685, -66446.79653010327, -56009.64945669764, -61603.262913616054, -51763.44385903405, -30536.305074251304, -48839.34394590187, -57504.847050290955, 2442946.6060336363, -56529.23810830571, -61358.04192519688, -50477.54800052023, -7404.887068854221, 0.06371443674061447, 0.9552729997364804, -0.22617763685714454, 192.0, 0.0, 0.0, 0.0, 0.0, 0.0, 0.0, 0.0, 0.0, 0.0, 1.74180181073577E9, 0.0, 2025-03-12 12:50:10.735
98.0, -57138.88193832421, -44558.739013521554, -66688.2400737095, -67604.48278242144, -66439.88984106659, -56001.75929090492, -61601.608884526366, -51757.1183153532, -30515.56265539678, -48814.30999211192, -57484.484611092164, 2443449.788504814, -56510.35088424097, -61337.70183774255, -50462.43822126844, -7386.6033418897805, 0.06371443674061447, 0.9552729997364804, -0.22617763685714454, 192.0, 0.0, 0.0, 0.0, 0.0, 0.0, 0.0, 0.0, 0.0, 0.0, 1.741801810786882E9, 0.0, 2025-03-12 12:50:10.786
100.0, -57137.11615051224, -44551.765269251504, -66686.72015508654, -67605.84623883323, -66437.56525964323, -56000.50759321542, -61596.490335046095, -51759.17467584308, -30499.536454622325, -48800.3178000829, -57471.96763419719, 2443402.581620524, -56494.41409044434, -61324.13432885818, -50448.200160050415, -7375.740394084501, 0.06285721837030724, 0.9566364998682402, -0.22408881842857226, 192.0, 0.5, 120.0, 14.5, 120.0, 124.5, 8.0, 0.0, 0.0, 0.0, 1.741801810787186E9, 0.0, 2025-03-12 12:50:10.787
102.0, -57157.657403666664, -44577.31331316392, -66703.17103900564, -67622.65475066361, -66452.36211447265, -56017.13729109017, -61586.923788419226, -51790.48946982497, -30525.62094040167, -48826.648155051254, -57498.32034091, 2443250.232130317, -56521.95143961328, -61349.794131492876, -50471.3118638172, -7400.640237407713, 0.06285721837030724, 0.9566364998682402, -0.22408881842857226, 192.0, 0.0, 0.0, 0.0, 0.0, 0.0, 0.0, 0.0, 0.0, 0.0, 1.74180181078747E9, 0.0, 2025-03-12 12:50:10.787
104.0, -57145.05101979387, -44567.00915897002, -66690.96698653305, -67613.1552592701, -66440.76155910034, -56004.016817094904, -61584.04041338449, -51768.852981192234, -30520.79296359932, -48821.70841952663, -57491.681872806774, 2443135.4335707943, -56515.44708197679, -61344.541471545876, -50460.11363984509, -7394.694673382602, 0.06285721837030724, 0.9566364998682402, -0.22408881842857226, 192.0, 0.0, 0.0, 0.0, 0.0, 0.0, 0.0, 0.0, 0.0, 0.0, 1.741801810787726E9, 0.0, 2025-03-12 12:50:10.787
106.0, -57155.846912365785, -44577.62623758629, -66705.36150996227, -67626.29808500982, -66456.31837324123, -56017.78549167937, -61613.92469572124, -51777.05607140733, -30512.85809431769, -48816.522814813, -57482.540009324555, 2443023.317220607, -56507.62397141743, -61338.461797054035, -50455.531532231755, -7383.563504643858, 0.06285721837030724, 0.9566364998682402, -0.22408881842857226, 192.0, 0.0, 0.0, 0.0, 0.0, 0.0, 0.0, 0.0, 0.0, 0.0, 1.741801810787978E9, 0.0, 2025-03-12 12:50:10.787
108.0, -57143.93343257111, -44564.66222580221, -66689.58117837681, -67610.65186389111, -66438.928716055, -56003.815651394805, -61598.725509491625, -51765.32140556829, -30528.41490845858, -48830.15737893074, -57500.39905314435, 2442926.221242693, -56525.52771872613, -61354.51034957294, -50477.68211098696, -7407.234002022029, 0.06285721837030724, 0.9566364998682402, -0.22408881842857226, 192.0, 0.0, 0.0, 0.0, 0.0, 0.0, 0.0, 0.0, 0.0, 0.0, 1.741801810788234E9, 0.0, 2025-03-12 12:50:10.788
110.0, -57122.92279278312, -44550.982958195564, -66675.27606192543, -67594.49155264992, -66426.92582928251, -55988.08002329827, -61586.499105274575, -51760.471077021495, -30500.743448822912, -48802.597678017344, -57470.291253363044, 2443445.4969698787, -56494.2352764887, -61323.10614861324, -50443.08161057015, -7375.427469662127, 0.06442860918515361, 0.9563182499341201, -0.22204440921428614, 192.0, 1.0, 8.0, 14.5, 112.0, 124.5, 16.0, 0.0, 0.0, 0.0, 1.741801810788488E9, 0.0, 2025-03-12 12:50:10.788
112.0, -57131.61762137624, -44558.18021991017, -66684.19440796309, -67605.08627952174, -66437.0288177763, -56001.155793804624, -61600.51364904805, -51773.68095799458, -30505.303204691794, -48815.4722828236, -57477.62262554439, 2443391.3163413187, -56498.482107935204, -61329.2752300829, -50455.93386363195, -7383.407042432671, 0.06442860918515361, 0.9563182499341201, -0.22204440921428614, 192.0, 0.0, 0.0, 0.0, 0.0, 0.0, 0.0, 0.0, 0.0, 0.0, 1.741801810836786E9, 0.0, 2025-03-12 12:50:10.836
114.0, -57129.002467274964, -44554.96156870861, -66682.20510270658, -67608.21552374549, -66430.88208805109, -56013.51630848841, -61584.66626222924, -51792.612885548224, -30503.827989557743, -48806.28571585247, -57475.78978249905, 2443272.226246861, -56498.16918351283, -61334.17026211861, -50453.05048859722, -7388.905571568677, 0.06442860918515361, 0.9563182499341201, -0.22204440921428614, 192.0, 0.0, 0.0, 0.0, 0.0, 0.0, 0.0, 0.0, 0.0, 0.0, 1.741801810837097E9, 0.0, 2025-03-12 12:50:10.837
116.0, -57143.59815640428, -44563.81285951291, -66691.01169002196, -67611.94826506953, -66442.63910563459, -56007.83896539676, -61610.10254741938, -51766.93073116908, -30504.252672702394, -48814.01941943401, -57476.97442495519, 2443155.281919871, -56499.398529457874, -61338.81942496532, -50452.245825796825, -7389.12908901323, 0.06442860918515361, 0.9563182499341201, -0.22204440921428614, 192.0, 0.0, 0.0, 0.0, 0.0, 0.0, 0.0, 0.0, 0.0, 0.0, 1.741801810837356E9, 0.0, 2025-03-12 12:50:10.837
118.0, -57150.79541811889, -44564.39400486875, -66693.06805051185, -67612.3058929808, -66446.05892253625, -56003.63683743916, -61620.67492254674, -51753.00559437342, -30512.36635593967, -48815.405227590236, -57482.78587851356, 2443028.145197409, -56511.624933674924, -61339.087645898784, -50460.761840434294, -7383.3176354548505, 0.06442860918515361, 0.9563182499341201, -0.22204440921428614, 192.0, 0.0, 0.0, 0.0, 0.0, 0.0, 0.0, 0.0, 0.0, 0.0, 1.741801810837631E9, 0.0, 2025-03-12 12:50:10.837
120.0, -57135.59623188928, -44555.36390010881, -66677.17596020413, -67600.83944807523, -66427.64108510508, -55994.092642556745, -61554.066724069926, -51749.22814956047, -30517.015518786375, -48820.88140498178, -57484.23874190316, 2442940.168731233, -56513.50248020917, -61340.80873022184, -50456.33619503215, -7384.815202333356, 0.06721430459257681, 0.95615912496706, -0.22002220460714306, 192.0, 1.0, 24.0, 14.5, 112.0, 124.5, 24.0, 0.0, 0.0, 0.0, 1.741801810837895E9, 0.0, 2025-03-12 12:50:10.837
122.0, -57127.37078992973, -44544.74682149253, -66668.70464905557, -67590.53529388133, -66414.20768668744, -55980.122802272184, -61557.50889271604, -51746.99297511494, -30500.8999110341, -48797.74734947054, -57464.94918643823, 2443369.8586666416, -56496.47045093423, -61317.56291598832, -50433.73858138783, -7368.721946325535, 0.06721430459257681, 0.95615912496706, -0.22002220460714306, 192.0, 0.0, 0.0, 0.0, 0.0, 0.0, 0.0, 0.0, 0.0, 0.0, 1.741801810838167E9, 0.0, 2025-03-12 12:50:10.838
124.0, -57158.104438555776, -44576.57570559689, -66698.7453936035, -67612.03767204734, -66446.2824399808, -56004.79912815084, -61595.99859666808, -51780.83351622028, -30512.388707684127, -48815.09230316786, -57476.527390066076, 2443314.0687124813, -56504.42767196032, -61327.397683548654, -50445.65206118251, -7375.785097573412, 0.06721430459257681, 0.95615912496706, -0.22002220460714306, 192.0, 0.0, 0.0, 0.0, 0.0, 0.0, 0.0, 0.0, 0.0, 0.0, 1.741801810838427E9, 0.0, 2025-03-12 12:50:10.838
126.0, -57145.47570293852, -44563.34347287935, -66683.97089051854, -67599.56539864128, -66430.56916362872, -55990.49401169944, -61577.71486970364, -51740.24274828944, -30521.23999848843, -48819.160320658724, -57483.00939595811, 2443176.203152681, -56512.16137554186, -61332.717398729015, -50449.6083199511, -7379.026100519432, 0.06721430459257681, 0.95615912496706, -0.22002220460714306, 192.0, 0.0, 0.0, 0.0, 0.0, 0.0, 0.0, 0.0, 0.0, 0.0, 1.74180181083868E9, 0.0, 2025-03-12 12:50:10.838
128.0, -57151.488322197, -44568.43967061516, -66688.8882742987, -67607.58967490074, -66438.01229453234, -56004.39679675065, -61580.79941043847, -51755.084306607765, -30520.36828045467, -48823.09422768286, -57483.21056165821, 2443054.9672907554, -56511.647285419385, -61335.243145852466, -50449.250692039815, -7379.741356342001, 0.06721430459257681, 0.95615912496706, -0.22002220460714306, 192.0, 0.0, 0.0, 0.0, 0.0, 0.0, 0.0, 0.0, 0.0, 0.0, 1.741801810895631E9, 0.0, 2025-03-12 12:50:10.895
130.0, -57153.3882204757, -44565.77981302498, -66686.07195449734, -67606.42738418905, -66434.70423635295, -56001.9157531161, -61586.789677952496, -51754.68197520757, -30525.844457846222, -48825.64232655076, -57488.686739049765, 2442921.929707757, -56521.12442506843, -61344.742637245974, -50455.3080147872, -7393.778251859934, 0.06460715229628841, 0.9560795624835301, -0.21901110230357151, 192.0, 0.5, 120.0, 14.5, 112.0, 124.5, 24.0, 0.0, 0.0, 0.0, 1.741801810895933E9, 0.0, 2025-03-12 12:50:10.895
132.0, -57129.44950216407, -44550.55827505091, -66668.61524207774, -67592.4575439045, -66417.71691056692, -55985.17429651908, -61567.56717772093, -51742.924957624076, -30504.923225036055, -48808.967925187106, -57467.586692283956, 2443237.8939673775, -56500.62787540292, -61320.915677656616, -50437.4042674785, -7370.174809715129, 0.06460715229628841, 0.9560795624835301, -0.21901110230357151, 192.0, 0.0, 0.0, 0.0, 0.0, 0.0, 0.0, 0.0, 0.0, 0.0, 1.74180181089624E9, 0.0, 2025-03-12 12:50:10.896
134.0, -57115.39025490168, -44536.23080685506, -66650.89030872469, -67572.67625006154, -66399.25436964683, -55965.281243953854, -61554.80433163695, -51720.550861424315, -30490.953384751487, -48788.58313424387, -57451.13580836485, 2443420.284202133, -56484.5346193951, -61306.05176759384, -50418.070008524664, -7357.769591542434, 0.06460715229628841, 0.9560795624835301, -0.21901110230357151, 192.0, 0.0, 0.0, 0.0, 0.0, 0.0, 0.0, 0.0, 0.0, 0.0, 1.741801810896488E9, 0.0, 2025-03-12 12:50:10.896
136.0, -57156.69627865509, -44577.022740486, -66691.52578014444, -67607.6567301341, -66439.71102711094, -55990.56106693281, -61609.3425881079, -51747.730582681965, -30513.327480951248, -48814.15352990074, -57475.94624471024, 2443283.4915260663, -56505.075872549525, -61322.70381721304, -50443.48394197034, -7366.844399791289, 0.06460715229628841, 0.9560795624835301, -0.21901110230357151, 192.0, 0.0, 0.0, 0.0, 0.0, 0.0, 0.0, 0.0, 0.0, 0.0, 1.741801810896748E9, 0.0, 2025-03-12 12:50:10.896
138.0, -57168.90033112769, -44589.42795865869, -66702.41107969417, -67620.37487272917, -66448.74113187089, -56012.4210730101, -61598.01025366906, -51766.01430964641, -30528.884295092143, -48826.80461726244, -57491.637169317866, 2443134.3606870607, -56520.69974192378, -61336.18191911959, -50456.89498864353, -7383.183524988119, 0.06460715229628841, 0.9560795624835301, -0.21901110230357151, 192.0, 0.0, 0.0, 0.0, 0.0, 0.0, 0.0, 0.0, 0.0, 0.0, 1.741801810897015E9, 0.0, 2025-03-12 12:50:10.897
140.0, -57181.707880700575, -44605.83413908889, -66719.95719909159, -67640.17851831658, -66463.44857972248, -56036.69506748857, -61613.58941955441, -51802.80528101984, -30553.94060062654, -48850.47511464061, -57517.073454508005, 2442969.673033914, -56542.20212008979, -61365.4850561005, -50479.06791914319, -7414.453615481093, 0.0643035761481442, 0.953039781241765, -0.21750555115178577, 192.0, 1.0, 0.0, 14.5, 88.0, 124.5, 32.0, 0.0, 0.0, 0.0, 1.741801810897282E9, 0.0, 2025-03-12 12:50:10.897
142.0, -57152.76237163095, -44573.69233056216, -66685.42375390814, -67606.29327372233, -66431.48558515139, -55997.22188678049, -61576.03848886949, -51757.63240547567, -30539.970760341974, -48845.51302737153, -57499.81790778851, 2442932.122103229, -56528.72401818324, -61354.66681178413, -50466.50623875931, -7404.171813031651, 0.0643035761481442, 0.953039781241765, -0.21750555115178577, 192.0, 0.0, 0.0, 0.0, 0.0, 0.0, 0.0, 0.0, 0.0, 0.0, 1.741801810932749E9, 0.0, 2025-03-12 12:50:10.932
144.0, -57163.044174080394, -44580.06257773192, -66696.15259124668, -67613.53523892585, -66443.7343411129, -56000.44053798205, -61595.90918969026, -51759.0182136319, -30522.871675833667, -48821.64136429327, -57482.94234072475, 2443372.5408759764, -56512.60841043096, -61329.789320205375, -50449.116581573086, -7377.08149875182, 0.0643035761481442, 0.953039781241765, -0.21750555115178577, 192.0, 0.0, 0.0, 0.0, 0.0, 0.0, 0.0, 0.0, 0.0, 0.0, 1.741801810933061E9, 0.0, 2025-03-12 12:50:10.933
146.0, -57152.47179895303, -44568.03733921496, -66684.66379459665, -67604.81805858828, -66430.81503281773, -55998.719453658996, -61585.67209072973, -51765.54492301285, -30533.80167887231, -48827.65398355174, -57496.19692518675, 2443280.2728748647, -56526.77941641562, -61342.172186633616, -50459.62190146708, -7390.380786702727, 0.0643035761481442, 0.953039781241765, -0.21750555115178577, 192.0, 0.0, 0.0, 0.0, 0.0, 0.0, 0.0, 0.0, 0.0, 0.0, 1.741801810933319E9, 0.0, 2025-03-12 12:50:10.933
148.0, -57163.71472641406, -44578.5203073645, -66697.67250986965, -67617.5585529278, -66447.31062022575, -56018.25487831293, -61594.545733278486, -51773.815068461314, -30523.609283400692, -48819.00385844754, -57488.37381462739, 2443173.5209433464, -56522.08555008001, -61337.94770693156, -50455.73269793185, -7393.331216970828, 0.0643035761481442, 0.953039781241765, -0.21750555115178577, 192.0, 0.0, 0.0, 0.0, 0.0, 0.0, 0.0, 0.0, 0.0, 0.0, 1.741801810933582E9, 0.0, 2025-03-12 12:50:10.933
150.0, -57172.23074105153, -44589.025627258496, -66702.47813492753, -67624.82286987577, -66453.36794297314, -56021.38412253668, -61603.77700373853, -51775.424394062095, -30535.634521917647, -48840.03684997998, -57501.404881644834, 2443036.72826728, -56536.27890780913, -61349.078875670304, -50466.48388701485, -7398.628580406736, 0.0621517880740721, 0.9535198906208826, -0.2177527755758929, 192.0, 0.5, 112.0, 14.5, 104.0, 124.5, 24.0, 0.0, 0.0, 0.0, 1.74180181098559E9, 0.0, 2025-03-12 12:50:10.985
152.0, -57135.12684525572, -44549.731260506065, -66663.3849338752, -67583.22627344445, -66416.46521287742, -55976.79239234834, -61589.09190763139, -51723.88127134815, -30520.100059521206, -48821.50725382653, -57485.31162563701, 2442930.5127776284, -56521.012666346156, -61335.46666329702, -50450.39063100704, -7385.262237222462, 0.0621517880740721, 0.9535198906208826, -0.2177527755758929, 192.0, 0.0, 0.0, 0.0, 0.0, 0.0, 0.0, 0.0, 0.0, 0.0, 1.741801810985912E9, 0.0, 2025-03-12 12:50:10.985
154.0, -57158.015031577954, -44571.837135772366, -66681.19927420608, -67607.18734350054, -66429.29511419477, -55998.27241876989, -61581.69348021669, -51750.591605972244, -30506.577254125747, -48806.24101236356, -57472.95111095323, 2443275.9813399296, -56504.96411382725, -61315.30538979833, -50432.039848809225, -7365.547998612881, 0.0621517880740721, 0.9535198906208826, -0.2177527755758929, 192.0, 0.0, 0.0, 0.0, 0.0, 0.0, 0.0, 0.0, 0.0, 0.0, 1.741801810986169E9, 0.0, 2025-03-12 12:50:10.986
156.0, -57166.352232259786, -44585.53875512347, -66690.83287606631, -67618.3632157282, -66440.26982072233, -56014.3209712888, -61605.028701428026, -51772.38455681617, -30527.833763102743, -48828.90568124124, -57492.75475654063, 2443448.179179213, -56523.13608206941, -61337.970058676015, -50451.910549629996, -7392.906533826177, 0.0621517880740721, 0.9535198906208826, -0.2177527755758929, 192.0, 0.0, 0.0, 0.0, 0.0, 0.0, 0.0, 0.0, 0.0, 0.0, 1.741801810986427E9, 0.0, 2025-03-12 12:50:10.986
158.0, -57165.927549115135, -44584.39881615625, -66691.57048363335, -67622.23006751896, -66439.59926838867, -56019.99831438045, -61600.31248334795, -51780.319426097805, -30538.160269041095, -48846.496504127565, -57504.10944272393, 2443310.8500612797, -56531.22741356223, -61353.88450072819, -50462.32646254617, -7410.877336368244, 0.0621517880740721, 0.9535198906208826, -0.2177527755758929, 192.0, 0.0, 0.0, 0.0, 0.0, 0.0, 0.0, 0.0, 0.0, 0.0, 1.741801810986682E9, 0.0, 2025-03-12 12:50:10.986
160.0, -57151.488322197, -44569.311388648915, -66681.84747479529, -67606.51679116688, -66433.67605610802, -56000.32877925978, -61582.20757033915, -51752.826780417774, -30522.782268855844, -48827.206948662635, -57486.54097158206, 2443212.144757765, -56515.84941337698, -61337.29950634236, -50448.73660191734, -7392.571257659347, 0.061075894037036046, 0.9547599453104414, -0.22187638778794644, 192.0, 0.5, 112.0, 14.5, 112.0, 124.0, 120.0, 0.0, 0.0, 0.0, 1.741801810986951E9, 0.0, 2025-03-12 12:50:10.986
162.0, -57178.153953332185, -44590.65730460374, -66710.48005944253, -67629.06970132228, -66465.97432684593, -56024.580421993785, -61610.616637541854, -51783.69453951056, -30522.826972344756, -48825.08353293938, -57486.5186198376, 2443100.0284075774, -56513.68129416482, -61336.40543656414, -50453.94455837543, -7390.403138447183, 0.061075894037036046, 0.9547599453104414, -0.22187638778794644, 192.0, 0.0, 0.0, 0.0, 0.0, 0.0, 0.0, 0.0, 0.0, 0.0, 1.741801810987231E9, 0.0, 2025-03-12 12:50:10.987
164.0, -57144.78279886041, -44558.94017922165, -66680.17109396114, -67596.72672709546, -66433.40783517454, -55984.50374418542, -61575.18912258019, -51752.491504250946, -30538.51789695238, -48839.90273951325, -57496.57690484249, 2442952.506894172, -56525.77358791514, -61350.17411114861, -50468.71906146039, -7402.048397308397, 0.061075894037036046, 0.9547599453104414, -0.22187638778794644, 192.0, 0.0, 0.0, 0.0, 0.0, 0.0, 0.0, 0.0, 0.0, 0.0, 1.741801811042701E9, 0.0, 2025-03-12 12:50:11.042
166.0, -57122.363999171735, -44535.694364988136, -66659.67454429562, -67575.38081114064, -66413.98416924289, -55971.00329053441, -61557.218320038126, -51736.688820921045, -30505.482018647435, -48800.787186716465, -57465.37386958288, 2442900.47203308, -56488.80380258606, -61313.025511863896, -50437.47132271187, -7367.246731191484, 0.061075894037036046, 0.9547599453104414, -0.22187638778794644, 192.0, 0.0, 0.0, 0.0, 0.0, 0.0, 0.0, 0.0, 0.0, 0.0, 1.741801811043023E9, 0.0, 2025-03-12 12:50:11.043
168.0, -57116.217269446526, -44530.73227771906, -66651.80673024735, -67571.87158726115, -66406.65279706154, -55962.68844159704, -61554.3796484923, -51718.13687302314, -30479.79986426829, -48783.017549874494, -57436.94245063573, 2443449.252062947, -56460.57354933901, -61295.322930255286, -50410.26924970976, -7343.017440201931, 0.061075894037036046, 0.9547599453104414, -0.22187638778794644, 192.0, 0.0, 0.0, 0.0, 0.0, 0.0, 0.0, 0.0, 0.0, 0.0, 1.741801811043272E9, 0.0, 2025-03-12 12:50:11.043
170.0, -57134.41158943315, -44551.832324484865, -66673.21970143553, -67596.34674743972, -66419.61680884562, -55988.571761676285, -61554.89373861477, -51750.122219338686, -30500.743448822912, -48808.051503664436, -57463.67513700428, 2443455.1529234834, -56477.449116402764, -61315.05952060933, -50429.82702610815, -7358.8871787652, 0.06, 0.9500000000000001, -0.22, 192.0, 0.5, 112.0, 14.5, 88.0, 124.5, 16.0, 0.0, 0.0, 0.0, 1.741801811043524E9, 0.0, 2025-03-12 12:50:11.043
172.0, -57138.88193832421, -44555.09567917534, -66683.14387597369, -67601.68881436453, -66428.51280313883, -55991.67865415558, -61571.322270789424, -51741.7626669124, -30498.105942977185, -48803.268230351, -57467.09495390594, 2443326.406875421, -56480.5783606265, -61317.16058458813, -50432.37512497606, -7364.676280579124, 0.06, 0.9500000000000001, -0.22, 192.0, 0.0, 0.0, 0.0, 0.0, 0.0, 0.0, 0.0, 0.0, 0.0, 1.741801811043791E9, 0.0, 2025-03-12 12:50:11.043
174.0, -57128.935412041596, -44544.970338937084, -66677.82416079333, -67591.25054970391, -66418.36511115612, -55982.156811017616, -61564.43793349719, -51739.16986455559, -30507.69484134851, -48820.65788753723, -57484.059927947514, 2443183.176896951, -56491.24014273169, -61330.348113816755, -50448.93776761744, -7370.93476902661, 0.06, 0.9500000000000001, -0.22, 192.0, 0.0, 0.0, 0.0, 0.0, 0.0, 0.0, 0.0, 0.0, 0.0, 1.741801811044058E9, 0.0, 2025-03-12 12:50:11.044
176.0, -57115.05497873485, -44530.4640567856, -66668.39172463318, -67583.13686646664, -66409.84909651865, -55975.02660453637, -61545.14837803226, -51733.04548657483, -30480.35865787967, -48790.907715667214, -57459.31654683549, 2443091.4453377062, -56467.77081105362, -61303.011930347915, -50421.556880659686, -7349.365335627239, 0.06, 0.9500000000000001, -0.22, 192.0, 0.0, 0.0, 0.0, 0.0, 0.0, 0.0, 0.0, 0.0, 0.0, 1.741801811044311E9, 0.0, 2025-03-12 12:50:11.044
178.0, -57117.53602236939, -44528.832379440355, -66675.65604158117, -67591.4070119151, -66417.35928265564, -55988.6164651652, -61561.55455846245, -51745.45070474753, -30480.26925090185, -48790.39362554475, -57466.111477149905, 2442960.553522176, -56470.83300004399, -61308.64456995065, -50432.57629067615, -7359.088344465297, 0.06, 0.9500000000000001, -0.22, 192.0, 0.0, 0.0, 0.0, 0.0, 0.0, 0.0, 0.0, 0.0, 0.0, 1.741801811044571E9, 0.0, 2025-03-12 12:50:11.044
180.0, -57118.78772005889, -44529.122952118276, -66676.39364914819, -67589.5518171253, -66416.93459951099, -55985.68838664155, -61547.58471817789, -51748.579948971266, -30478.682277045522, -48796.13802386976, -57465.686794005254, 2442871.504172266, -56471.41414539983, -61313.20432581953, -50433.67152615447, -7361.256463677462, 0.064, 0.9500000000000001, -0.218, 192.0, 1.0, 0.0, 14.5, 88.0, 124.5, 24.0, 0.0, 0.0, 0.0, 1.741801811096079E9, 0.0, 2025-03-12 12:50:11.096
182.0, -57122.87808929421, -44532.878045186764, -66681.82512305083, -67593.64218636062, -66423.41660540302, -55986.94008433105, -61560.68284042869, -51744.57898671377, -30476.424750855538, -48791.824137189884, -57463.384564326356, 2443389.707015718, -56467.860218031434, -61310.03037810688, -50427.97183131836, -7351.376992628217, 0.064, 0.9500000000000001, -0.218, 192.0, 0.0, 0.0, 0.0, 0.0, 0.0, 0.0, 0.0, 0.0, 0.0, 1.741801811096418E9, 0.0, 2025-03-12 12:50:11.096
184.0, -57112.931563011596, -44523.64677472672, -66670.15751244516, -67583.51684612237, -66412.93363725349, -55973.193761491035, -61551.026886824, -51730.49738770693, -30486.50538760488, -48805.86103270782, -57472.23585513066, 2443373.61375971, -56476.197418713266, -61315.70772119853, -50435.616127922076, -7352.807504273356, 0.064, 0.9500000000000001, -0.218, 192.0, 0.0, 0.0, 0.0, 0.0, 0.0, 0.0, 0.0, 0.0, 0.0, 1.74180181109668E9, 0.0, 2025-03-12 12:50:11.096
186.0, -57120.9334875266, -44531.51458877499, -66679.03115499392, -67585.59555835671, -66415.3252739102, -55986.98478781996, -61537.481729684085, -51748.0658588488, -30482.61618406966, -48790.75125345603, -57469.01720392909, 2443262.0338513893, -56472.24115994468, -61310.74563392945, -50427.07776154015, -7349.365335627239, 0.064, 0.9500000000000001, -0.218, 192.0, 0.0, 0.0, 0.0, 0.0, 0.0, 0.0, 0.0, 0.0, 0.0, 1.741801811096934E9, 0.0, 2025-03-12 12:50:11.096
188.0, -57124.398007917174, -44536.20845511061, -66682.65213759568, -67588.2554159469, -66423.68482633648, -55983.38615696265, -61548.545843189466, -51733.894852864134, -30480.403361368582, -48796.92033492569, -57468.65957601781, 2443149.3810593346, -56471.369441910916, -61311.21502056301, -50426.11663652857, -7344.604414058258, 0.064, 0.9500000000000001, -0.218, 192.0, 0.0, 0.0, 0.0, 0.0, 0.0, 0.0, 0.0, 0.0, 0.0, 1.741801811097197E9, 0.0, 2025-03-12 12:50:11.097
190.0, -57143.66521163764, -44554.849809986335, -66702.88046632773, -67612.462355192, -66444.44959693546, -56011.79522416535, -61565.9802038646, -51776.0725946513, -30500.005841255886, -48815.114654912315, -57489.82667801699, 2442993.8129179254, -56492.38008169891, -61331.532756272885, -50449.451857739914, -7367.693766080591, 0.068, 0.9540000000000001, -0.214, 192.0, 1.0, 16.0, 14.5, 104.0, 124.5, 40.0, 0.0, 0.0, 0.0, 1.741801811147259E9, 0.0, 2025-03-12 12:50:11.147
192.0, -57114.45148163456, -44524.8090654384, -66673.10794271326, -67583.67330833356, -66419.43799488997, -55982.626197651174, -61546.26596525502, -51731.8608441187, -30487.041829471807, -48808.409131575725, -57477.577922055476, 2443017.9528019372, -56481.33831993799, -61323.53083175789, -50440.80173263571, -7360.965890999543, 0.068, 0.9540000000000001, -0.214, 192.0, 0.0, 0.0, 0.0, 0.0, 0.0, 0.0, 0.0, 0.0, 0.0, 1.741801811147589E9, 0.0, 2025-03-12 12:50:11.147
194.0, -57118.72066482552, -44529.48058002956, -66678.3382509158, -67590.04355550332, -66424.22126820342, -55986.73891863095, -61561.80042765146, -51751.57508272828, -30478.212890411964, -48796.249782592036, -57470.42536382978, 2443471.782621358, -56476.35388092446, -61314.85835490923, -50433.582119176644, -7352.181655428608, 0.068, 0.9540000000000001, -0.214, 192.0, 0.0, 0.0, 0.0, 0.0, 0.0, 0.0, 0.0, 0.0, 0.0, 1.74180181114784E9, 0.0, 2025-03-12 12:50:11.147
196.0, -57125.29207769538, -44533.05685914241, -66679.92522477213, -67594.20097997201, -66424.31067518123, -55982.87206684018, -61561.93453811819, -51741.67325993458, -30475.754198521878, -48791.53356451196, -57470.581826040965, 2443375.759527178, -56472.57643611151, -61311.61735196321, -50431.32459298666, -7352.651042062169, 0.068, 0.9540000000000001, -0.214, 192.0, 0.0, 0.0, 0.0, 0.0, 0.0, 0.0, 0.0, 0.0, 0.0, 1.741801811148115E9, 0.0, 2025-03-12 12:50:11.148
198.0, -57142.81584534834, -44556.90617047622, -66700.46647792656, -67612.97644531446, -66439.91219281104, -56008.308352030326, -61579.19008483769, -51773.23392310547, -30492.585062096725, -48806.866861208306, -57488.30675939402, 2443236.2846417767, -56485.71926185123, -61323.30731431334, -50439.594738435124, -7361.547036355381, 0.068, 0.9540000000000001, -0.214, 192.0, 0.0, 0.0, 0.0, 0.0, 0.0, 0.0, 0.0, 0.0, 0.0, 1.741801811148361E9, 0.0, 2025-03-12 12:50:11.148
200.0, -57147.71087738406, -44558.42608909918, -66699.50535291497, -67611.76945111388, -66442.32618121221, -56008.86714564171, -61582.788715694995, -51767.802449202834, -30516.121449008162, -48836.19234993367, -57512.37958817239, 2443087.153802771, -56508.11570979544, -61350.75525650445, -50461.678261956964, -7388.413833190661, 0.066, 0.9580000000000001, -0.22, 192.0, 1.0, 8.0, 14.5, 120.0, 124.5, 16.0, 0.0, 0.0, 0.0, 1.74180181114862E9, 0.0, 2025-03-12 12:50:11.148
202.0, -57135.75269410047, -44550.82649598438, -66687.54716963139, -67599.92302655257, -66431.57499212922, -55998.026549580885, -61577.893683659284, -51756.78303918637, -30494.46260863097, -48809.861994965315, -57490.5195820951, 2442990.057824857, -56489.63081713091, -61328.55997426033, -50442.29929951421, -7369.191332959096, 0.066, 0.9580000000000001, -0.22, 192.0, 0.0, 0.0, 0.0, 0.0, 0.0, 0.0, 0.0, 0.0, 0.0, 1.741801811148895E9, 0.0, 2025-03-12 12:50:11.148
204.0, -57127.460196907545, -44542.66810925819, -66673.37616364672, -67590.49059039242, -66417.67220707801, -55987.63298840916, -61559.453494483656, -51745.96479487, -30492.629765585636, -48805.86103270782, -57488.70909079422, 2442934.8043125635, -56485.071061262024, -61322.882631168686, -50437.09134305613, -7365.033908490409, 0.066, 0.9580000000000001, -0.22, 192.0, 0.0, 0.0, 0.0, 0.0, 0.0, 0.0, 0.0, 0.0, 0.0, 1.741801811149167E9, 0.0, 2025-03-12 12:50:11.149
206.0, -57140.69242962509, -44560.32598737788, -66691.30226269987, -67606.94147431153, -66441.18624224499, -56001.33460776027, -61579.45830577115, -51763.93559741206, -30494.88729177562, -48811.672486266194, -57487.47974484918, 2443418.674876532, -56485.60750312895, -61324.80488119184, -50436.21962502237, -7366.285606179907, 0.066, 0.9580000000000001, -0.22, 192.0, 0.0, 0.0, 0.0, 0.0, 0.0, 0.0, 0.0, 0.0, 0.0, 1.741801811207904E9, 0.0, 2025-03-12 12:50:11.207
208.0, -57138.34549645728, -44555.9673972091, -66687.52481788694, -67605.22038998848, -66437.92288755452, -55999.92644785958, -61563.56621546343, -51764.82966719028, -30505.347908180705, -48819.54030031447, -57498.29798916555, 2443345.71878263, -56498.25859049065, -61335.176090619105, -50447.59666295012, -7377.0367952629085, 0.066, 0.9580000000000001, -0.22, 192.0, 0.0, 0.0, 0.0, 0.0, 0.0, 0.0, 0.0, 0.0, 0.0, 1.741801811208213E9, 0.0, 2025-03-12 12:50:11.208
210.0, -57128.35426668576, -44544.09862090333, -66675.96896600354, -67596.50320965091, -66425.31650368172, -55996.30546525782, -61564.79556140847, -51746.52358848138, -30492.361544652173, -48802.664733250705, -57482.7188232802, 2443251.841455918, -56486.41216592934, -61326.03422713688, -50430.38581971954, -7364.296300923384, 0.06, 0.9540000000000001, -0.222, 192.0, 0.5, 112.0, 14.5, 104.0, 124.5, 8.0, 0.0, 0.0, 0.0, 1.741801811208471E9, 0.0, 2025-03-12 12:50:11.208
212.0, -57151.667136152646, -44567.88087700378, -66694.65502436817, -67614.0046255594, -66447.10945452565, -56014.3209712888, -61592.98111116661, -51767.802449202834, -30503.336251179728, -48814.30999211192, -57495.30285540854, 2443127.3869427904, -56497.34216896799, -61332.292715584364, -50441.24876752481, -7372.857019049767, 0.06, 0.9540000000000001, -0.222, 192.0, 0.0, 0.0, 0.0, 0.0, 0.0, 0.0, 0.0, 0.0, 0.0, 1.741801811208738E9, 0.0, 2025-03-12 12:50:11.208
214.0, -57143.03936279289, -44563.58934206836, -66683.54620737389, -67607.96965455648, -66436.00063753137, -56013.13632883267, -61591.2376750991, -51770.43995504856, -30518.691899620524, -48829.24095740807, -57506.25521019164, 2442983.084080587, -56509.94855284078, -61349.41415183713, -50454.43629675345, -7392.057167536876, 0.06, 0.9540000000000001, -0.222, 192.0, 0.0, 0.0, 0.0, 0.0, 0.0, 0.0, 0.0, 0.0, 0.0, 1.741801811208997E9, 0.0, 2025-03-12 12:50:11.208
216.0, -57126.23085096251, -44551.67586227368, -66668.50348335547, -67595.65384336161, -66419.03566348978, -56002.631008938675, -61580.91116916075, -51759.35348979873, -30496.56367260977, -48808.811462975915, -57483.67994829178, 2442901.0084749474, -56483.0817560055, -61328.78349170488, -50431.12342728656, -7373.371109172239, 0.06, 0.9540000000000001, -0.222, 192.0, 0.0, 0.0, 0.0, 0.0, 0.0, 0.0, 0.0, 0.0, 0.0, 1.74180181120926E9, 0.0, 2025-03-12 12:50:11.209
218.0, -57120.66526659313, -44547.227865127075, -66660.65802105165, -67590.13296248115, -66408.39623312905, -55993.64560766764, -61570.87523590031, -51746.74710592593, -30494.484960375426, -48805.548108285446, -57478.337881366955, 2443332.8441778235, -56479.99721527067, -61324.961343403025, -50427.03305805124, -7371.091231237797, 0.06, 0.9540000000000001, -0.222, 192.0, 0.0, 0.0, 0.0, 0.0, 0.0, 0.0, 0.0, 0.0, 0.0, 1.741801811209509E9, 0.0, 2025-03-12 12:50:11.209
