%OpenBCI Raw EXG Data
%Number of channels = 16
%Sample Rate = 125 Hz
%Board = OpenBCI_GUI$BoardCytonSerialDaisy
Sample Index, EXG Channel 0, EXG Channel 1, EXG Channel 2, EXG Channel 3, EXG Channel 4, EXG Channel 5, EXG Channel 6, EXG Channel 7, EXG Channel 8, EXG Channel 9, EXG Channel 10, EXG Channel 11, EXG Channel 12, EXG Channel 13, EXG Channel 14, EXG Channel 15, Accel Channel 0, Accel Channel 1, Accel Channel 2, Not Used, Digital Channel 0 (D11), Digital Channel 1 (D12), Digital Channel 2 (D13), Digital Channel 3 (D17), Not Used, Digital Channel 4 (D18), Analog Channel 0, Analog Channel 1, Analog Channel 2, Timestamp, Marker Channel, Timestamp (Formatted)
140.0, -6783.799145674604, 1020.6477070626864, -28336.26757100434, -8582.488725482073, -22490.83936105244, -187500.02235174447, -28595.27958575244, -4390.374349400324, -8127.697781049941, -18363.187415979795, -94468.82092581045, 187500.0, -22820.304074323663, -187500.02235174447, -10112.800909614672, -34736.95781671498, 0.0, 0.0, 0.0, 192.0, 0.0, 0.0, 0.0, 0.0, 0.0, 0.0, 0.0, 0.0, 0.0, 1.741982872085764E9, 0.0, 2025-03-14 15:07:52.085
142.0, -6768.555255956085, 1029.0072594889712, -28348.89630662159, -8585.819135405914, -22485.094962727424, -187500.02235174447, -28574.850091320288, -4371.308311379947, -8132.3692956411005, -18371.546968406077, -94385.13599456979, 187500.0, -22828.8871441945, -187500.02235174447, -10141.366439028554, -34742.657511551086, 0.0, 0.0, 0.0, 192.0, 0.0, 0.0, 0.0, 0.0, 0.0, 0.0, 0.0, 0.0, 0.0, 1.741982872085787E9, 0.0, 2025-03-14 15:07:52.085
144.0, -6786.682520709339, 1017.2502419054797, -28328.600922656173, -8583.561609215929, -22483.865616782383, -187500.02235174447, -28574.537166897913, -4371.598884057866, -8125.529661837776, -18368.998869538173, -94495.15128077881, 187500.0, -22817.84538243358, -187500.02235174447, -10120.825185874128, -34732.57687480174, 0.0, 0.0, 0.0, 192.0, 0.0, 0.0, 0.0, 0.0, 0.0, 0.0, 0.0, 0.0, 0.0, 1.741982872085813E9, 0.0, 2025-03-14 15:07:52.085
146.0, -6782.43568926283, 1010.500015079977, -28354.1936700575, -8587.562571473429, -22491.040526752535, -187500.02235174447, -28569.59743137329, -4354.522151294012, -8134.626821831086, -18379.705355132264, -94371.14380254076, 187500.0, -22833.60336227457, -187500.02235174447, -10123.485043464309, -34733.2474271354, 0.0, 0.0, 0.0, 192.0, 0.0, 0.0, 0.0, 0.0, 0.0, 0.0, 0.0, 0.0, 0.0, 1.741982872085824E9, 0.0, 2025-03-14 15:07:52.085
148.0, -6786.0566718645905, 1012.0869889363038, -28336.826364615725, -8587.629626706796, -22490.97347151917, -187500.02235174447, -28568.54689938389, -4356.265587361525, -8124.277964148279, -18371.45756142826, -94477.91808580376, 187500.0, -22826.964894171346, -187500.02235174447, -10127.083674321613, -34734.96851145846, 0.034, 0.968, 0.182, 192.0, 0.5, 8.0, 15.0, 32.0, 2.5, 88.0, 0.0, 0.0, 0.0, 1.741982872085835E9, 0.0, 2025-03-14 15:07:52.085
150.0, -6784.335587541532, 1005.984962700005, -28370.24222257641, -8602.001798391557, -22503.512800158598, -187500.02235174447, -28575.252422720485, -4354.276282105003, -8139.253632933335, -18381.247625499684, -94336.87857829078, 187500.0, -22841.448824578387, -187500.02235174447, -10129.251793533778, -34746.278494152844, 0.034, 0.968, 0.182, 192.0, 0.0, 0.0, 0.0, 0.0, 0.0, 0.0, 0.0, 0.0, 0.0, 1.741982872085848E9, 0.0, 2025-03-14 15:07:52.085
152.0, -6792.561029501085, 1001.7828347424072, -28348.315161265753, -8597.151469844755, -22499.69065185674, -187500.02235174447, -28579.85688207828, -4345.067363389417, -8136.347906154145, -18374.028012040617, -94478.47687941515, 187500.0, -22831.859926207057, -187500.02235174447, -10135.599688959086, -34736.66724403706, 0.034, 0.968, 0.182, 192.0, 0.0, 0.0, 0.0, 0.0, 0.0, 0.0, 0.0, 0.0, 0.0, 1.741982872085858E9, 0.0, 2025-03-14 15:07:52.085
154.0, -6789.252971321699, 1017.6078698167646, -28366.308315552273, -8598.134946600789, -22491.621672108373, -187500.02235174447, -28565.618820860247, -4352.912825693229, -8138.583080599676, -18380.398259210382, -94316.516139092, 187500.0, -22831.010559917755, -187500.02235174447, -10127.441302232899, -34748.379558131644, 0.034, 0.968, 0.182, 192.0, 0.0, 0.0, 0.0, 0.0, 0.0, 0.0, 0.0, 0.0, 0.0, 1.74198287208587E9, 0.0, 2025-03-14 15:07:52.085
156.0, -6795.3326458135425, 1006.789625500396, -28352.98667585691, -8599.967789646123, -22502.015233280094, -187500.02235174447, -28596.240710764017, -4360.110087407838, -8140.192406200458, -18373.06688702904, -94461.33309141792, 187500.0, -22830.004731417266, -187500.02235174447, -10138.10308433808, -34741.56227607278, 0.034, 0.968, 0.182, 192.0, 0.0, 0.0, 0.0, 0.0, 0.0, 0.0, 0.0, 0.0, 0.0, 1.741982872085881E9, 0.0, 2025-03-14 15:07:52.085
0.0, -2334.304432189993, 557.2289892708051, -13496.989130614893, -5081.155011791589, -11376.032099250806, -93750.01117587223, -14001.669168671271, -1876.3171883007515, -4071.191438578539, -9192.736052600867, -47147.629815057495, 93749.98882412778, -11414.96883809195, -93750.01117587223, -5060.591406892706, -17377.833113412038, 0.066, 0.964, 0.124, 192.0, 1.0, 8.0, 15.0, 16.0, 1.5, 112.0, 0.0, 0.0, 0.0, 1.741982872233651E9, 0.0, 2025-03-14 15:07:52.233
2.0, -4670.3299487030445, 1111.5522517624202, -27007.277549180693, -10159.605462504085, -22761.45193117284, -187500.02235174447, -28006.042898421634, -3749.3263184221173, -7818.081416855028, -18076.30277589593, -75896.10825730661, 187500.0, -22554.452425772244, -187500.02235174447, -11235.104350460095, -33962.02283644948, 0.066, 0.964, 0.124, 192.0, 0.0, 0.0, 0.0, 0.0, 0.0, 0.0, 0.0, 0.0, 0.0, 1.741982872233693E9, 0.0, 2025-03-14 15:07:52.233
4.0, -4646.793561791606, 1137.457923586121, -26983.450589591335, -10146.86496816456, -22747.035055999168, -187500.02235174447, -27989.10027612451, -3731.9590129803437, -7819.489576755712, -18067.160912413707, -75960.03424644879, 187500.0, -22562.2755363316, -187500.02235174447, -11238.904147017498, -33958.17833640317, 0.066, 0.964, 0.124, 192.0, 0.0, 0.0, 0.0, 0.0, 0.0, 0.0, 0.0, 0.0, 0.0, 1.741982872233728E9, 0.0, 2025-03-14 15:07:52.233
6.0, -4630.834416250517, 1148.209112669124, -26996.235787419773, -10143.042819862703, -22750.36546592301, -187500.02235174447, -27991.469561036774, -3725.678172788402, -7816.293277298603, -18051.84996746182, -75863.96644877989, 187500.0, -22552.28430656008, -187500.02235174447, -11223.347332876603, -33949.34939734333, 0.066, 0.964, 0.124, 192.0, 0.0, 0.0, 0.0, 0.0, 0.0, 0.0, 0.0, 0.0, 0.0, 1.741982872233739E9, 0.0, 2025-03-14 15:07:52.233
8.0, -4615.299953854079, 1164.168258210213, -26974.442836575847, -10136.873738393038, -22741.15654720742, -187500.02235174447, -27980.427799275854, -3730.237928657285, -7807.5313934721225, -18063.070543178386, -75955.98858070238, 187500.0, -22564.018972399113, -187500.02235174447, -11234.053818470695, -33951.47281306658, 0.088, 0.982, 0.10400000000000001, 192.0, 1.0, 96.0, 15.0, 88.0, 1.5, 32.0, 0.0, 0.0, 0.0, 1.741982872233756E9, 0.0, 2025-03-14 15:07:52.233
10.0, -4611.790729974596, 1172.0584240029364, -26984.322307625094, -10123.417988230944, -22744.39755015344, -187500.02235174447, -27976.136264340435, -3714.9269837054, -7802.278733525126, -18024.111452592784, -75849.57192535067, 187500.0, -22535.274629029587, -187500.02235174447, -11214.78661475022, -33942.889743195745, 0.088, 0.982, 0.10400000000000001, 192.0, 0.0, 0.0, 0.0, 0.0, 0.0, 0.0, 0.0, 0.0, 0.0, 1.741982872233768E9, 0.0, 2025-03-14 15:07:52.233
12.0, -4585.594485472976, 1196.8688603483272, -26953.365141554492, -10111.795081114184, -22730.07008195759, -187500.02235174447, -27961.83114788904, -3703.080559144087, -7794.790899132598, -18017.607094956293, -75923.422089031, 187500.0, -22541.242544799155, -187500.02235174447, -11215.725388017343, -33926.327100554365, 0.088, 0.982, 0.10400000000000001, 192.0, 0.0, 0.0, 0.0, 0.0, 0.0, 0.0, 0.0, 0.0, 0.0, 1.741982872233779E9, 0.0, 2025-03-14 15:07:52.233
14.0, -4586.4438517622775, 1191.5044416790536, -26962.0152666587, -10117.204203272368, -22733.847526770536, -187500.02235174447, -27959.193642043312, -3693.5587160061264, -7779.010567547151, -18028.090063105832, -75833.38926236502, 187500.0, -22532.07832957248, -187500.02235174447, -11194.446527295891, -33928.070536621875, 0.088, 0.982, 0.10400000000000001, 192.0, 0.0, 0.0, 0.0, 0.0, 0.0, 0.0, 0.0, 0.0, 0.0, 1.741982872233791E9, 0.0, 2025-03-14 15:07:52.233
16.0, -4587.226162818213, 1201.1827470282014, -26955.935592166854, -10112.510336936753, -22732.081738958568, -187500.02235174447, -27960.422987988353, -3706.5450795346596, -7785.537276928101, -18018.791737412423, -75889.1121612921, 187500.0, -22524.03170156857, -187500.02235174447, -11201.800251221688, -33917.81108591689, 0.088, 0.982, 0.10400000000000001, 192.0, 0.0, 0.0, 0.0, 0.0, 0.0, 0.0, 0.0, 0.0, 0.0, 1.741982872293822E9, 0.0, 2025-03-14 15:07:52.293
18.0, -4574.262151034135, 1221.6345932048075, -26950.258249075207, -10099.099290263568, -22727.142003433946, -187500.02235174447, -27966.39090375792, -3724.02414369871, -7793.91918109884, -18001.804411626388, -75813.42915456643, 187500.0, -22519.02491081058, -187500.02235174447, -11192.412518550458, -33924.42720227566, 0.096, 0.966, 0.096, 192.0, 1.5, 0.0, 15.0, 24.0, 1.5, 0.0, 0.0, 0.0, 0.0, 1.741982872293843E9, 0.0, 2025-03-14 15:07:52.293
20.0, -4581.392357515378, 1216.4042850022656, -26946.39139728444, -10107.28002873421, -22730.20419242432, -187500.02235174447, -27983.11000861049, -3741.011469484743, -7772.550913399567, -17988.259254486475, -75882.3619344666, 187500.0, -22510.575951406474, -187500.02235174447, -11193.060719139663, -33917.94519638362, 0.096, 0.966, 0.096, 192.0, 0.0, 0.0, 0.0, 0.0, 0.0, 0.0, 0.0, 0.0, 0.0, 1.741982872293855E9, 0.0, 2025-03-14 15:07:52.293
22.0, -4596.591543744987, 1196.4888806925871, -26961.85880444751, -10114.09731079308, -22736.283866916165, -187500.02235174447, -27995.045840149625, -3750.019222500232, -7784.687910638799, -18007.23588552903, -75814.12205864454, 187500.0, -22503.35633794741, -187500.02235174447, -11193.865381940053, -33937.52532452647, 0.096, 0.966, 0.096, 192.0, 0.0, 0.0, 0.0, 0.0, 0.0, 0.0, 0.0, 0.0, 0.0, 1.741982872293866E9, 0.0, 2025-03-14 15:07:52.293
24.0, -4590.154241341858, 1201.8756511063161, -26957.991952656743, -10112.152709025468, -22731.724111047282, -187500.02235174447, -27979.82430217556, -3738.1280944500086, -7790.63347466391, -18017.674150189658, -75834.77507052125, 187500.0, -22515.985073564658, -187500.02235174447, -11219.45812934138, -33932.63029249076, 0.096, 0.966, 0.096, 192.0, 0.0, 0.0, 0.0, 0.0, 0.0, 0.0, 0.0, 0.0, 0.0, 1.741982872293878E9, 0.0, 2025-03-14 15:07:52.293
26.0, -4600.145471113381, 1191.8397178458831, -26958.059007890108, -10117.315961994644, -22741.15654720742, -187500.02235174447, -27981.321869054067, -3732.495454847271, -7789.024149063129, -18014.94723736611, -75818.07831741314, 187500.0, -22499.154209989814, -187500.02235174447, -11201.956713432875, -33927.53409475495, 0.096, 0.966, 0.096, 192.0, 0.0, 0.0, 0.0, 0.0, 0.0, 0.0, 0.0, 0.0, 0.0, 1.741982872293908E9, 0.0, 2025-03-14 15:07:52.293
28.0, -4593.082319865503, 1192.4655666906317, -26960.875327691476, -10118.701770150874, -22738.340227406054, -187500.02235174447, -27973.2528893057, -3729.008582712243, -7792.421614220335, -18029.341760795327, -75825.58850355011, 187500.0, -22511.894704329337, -187500.02235174447, -11220.754530519787, -33938.10646988231, 0.1, 0.962, 0.10200000000000001, 192.0, 1.5, 16.0, 15.0, 8.0, 1.5, 24.0, 0.0, 0.0, 0.0, 1.741982872293919E9, 0.0, 2025-03-14 15:07:52.293
30.0, -4593.819927432529, 1186.9670375546264, -26959.33305732406, -10114.119662537536, -22738.608448339517, -187500.02235174447, -27977.946755641315, -3722.392466353472, -7800.222373035237, -18035.19791784262, -75817.60893077958, 187500.0, -22516.007425309115, -187500.02235174447, -11210.02569318124, -33936.586551259345, 0.1, 0.962, 0.10200000000000001, 192.0, 0.0, 0.0, 0.0, 0.0, 0.0, 0.0, 0.0, 0.0, 0.0, 1.741982872354069E9, 0.0, 2025-03-14 15:07:52.354
32.0, -4594.490479766188, 1187.7269968661067, -26964.742179482244, -10116.600706172074, -22737.87084077249, -187500.02235174447, -27978.3043835526, -3726.8181117556232, -7795.595561932989, -18038.52832776646, -75784.17072107444, 187500.0, -22513.302864230023, -187500.02235174447, -11220.061626441673, -33933.032623890955, 0.1, 0.962, 0.10200000000000001, 192.0, 0.0, 0.0, 0.0, 0.0, 0.0, 0.0, 0.0, 0.0, 0.0, 1.741982872354096E9, 0.0, 2025-03-14 15:07:52.354
34.0, -4578.263113291635, 1201.4509679616651, -26944.871478661476, -10104.508412421754, -22722.984578965257, -187500.02235174447, -27966.52501422465, -3709.719027247313, -7791.013454319651, -18014.41079549918, -75800.48749452681, 187500.0, -22508.564294405496, -187500.02235174447, -11211.567963548656, -33924.56131274239, 0.1, 0.962, 0.10200000000000001, 192.0, 0.0, 0.0, 0.0, 0.0, 0.0, 0.0, 0.0, 0.0, 0.0, 1.741982872354108E9, 0.0, 2025-03-14 15:07:52.354
36.0, -4586.756776184652, 1193.1584707687464, -26954.885060177454, -10114.119662537536, -22725.10799468851, -187500.02235174447, -27957.383150742433, -3705.7404167342684, -7782.028053048618, -18024.51378399298, -75776.54877621518, 187500.0, -22501.88112281336, -187500.02235174447, -11202.671969255445, -33921.074440607365, 0.1, 0.962, 0.10200000000000001, 192.0, 0.0, 0.0, 0.0, 0.0, 0.0, 0.0, 0.0, 0.0, 0.0, 1.741982872354119E9, 0.0, 2025-03-14 15:07:52.354
38.0, -4598.916125168339, 1189.0010463000592, -26948.62657172997, -10110.90101133597, -22728.39370112344, -187500.02235174447, -27972.62704046095, -3722.8618529870337, -7788.420651962835, -18027.464214261083, -75803.28146258372, 187500.0, -22485.810218549996, -187500.02235174447, -11202.157879132972, -33921.700289452114, 0.094, 0.9580000000000001, 0.106, 192.0, 1.0, 120.0, 14.5, 120.0, 1.5, 40.0, 0.0, 0.0, 0.0, 1.74198287235413E9, 0.0, 2025-03-14 15:07:52.354
40.0, -4594.445776277277, 1196.7347498815955, -26962.350542825527, -10104.441357188387, -22722.001102209226, -187500.02235174447, -27962.971086856258, -3722.3254111201063, -7803.396320747891, -18038.23775508854, -75729.58776111457, 187500.0, -22511.55942816251, -187500.02235174447, -11216.820623495654, -33928.24935057752, 0.094, 0.9580000000000001, 0.106, 192.0, 0.0, 0.0, 0.0, 0.0, 0.0, 0.0, 0.0, 0.0, 0.0, 1.741982872354142E9, 0.0, 2025-03-14 15:07:52.354
42.0, -4598.938476912794, 1187.592886399375, -26948.47010951878, -10105.558944411152, -22726.98554122276, -187500.02235174447, -27967.44143574732, -3724.40412335445, -7798.680102667821, -18030.66051371819, -75822.81688723766, 187500.0, -22493.655680853808, -187500.02235174447, -11202.716672744355, -33913.117219581276, 0.094, 0.9580000000000001, 0.106, 192.0, 0.0, 0.0, 0.0, 0.0, 0.0, 0.0, 0.0, 0.0, 0.0, 1.741982872354153E9, 0.0, 2025-03-14 15:07:52.354
44.0, -4595.5410117555875, 1180.1497554957575, -26966.28444984966, -10125.38494174301, -22734.18280293737, -187500.02235174447, -27965.899165379902, -3725.8793384885003, -7795.483803210713, -18033.56624049738, -75739.26606646372, 187500.0, -22499.35537568991, -187500.02235174447, -11205.868268712553, -33929.545751755926, 0.094, 0.9580000000000001, 0.106, 192.0, 0.0, 0.0, 0.0, 0.0, 0.0, 0.0, 0.0, 0.0, 0.0, 1.741982872354164E9, 0.0, 2025-03-14 15:07:52.354
46.0, -4590.400110530867, 1190.3868544562883, -26940.646998959422, -10109.895182835482, -22711.004043937213, -187500.02235174447, -27938.272409233145, -3697.760843963724, -7795.2602857661595, -18030.682865462644, -75804.60021550658, 187500.0, -22502.864599569395, -187500.02235174447, -11203.767204733755, -33933.50201052451, 0.094, 0.9580000000000001, 0.106, 192.0, 0.0, 0.0, 0.0, 0.0, 0.0, 0.0, 0.0, 0.0, 0.0, 1.741982872414873E9, 0.0, 2025-03-14 15:07:52.414
48.0, -4581.682930193297, 1198.7240551381178, -26957.29904857863, -10102.13912750949, -22706.891322957435, -187500.02235174447, -27928.10236550598, -3683.8357071680675, -7787.25836125116, -18010.94627510861, -75719.26125517623, 187500.0, -22489.632366851853, -187500.02235174447, -11182.734213201311, -33906.43404798914, 0.088, 0.966, 0.112, 192.0, 1.0, 96.0, 15.0, 24.0, 1.5, 64.0, 0.0, 0.0, 0.0, 1.741982872414915E9, 0.0, 2025-03-14 15:07:52.414
50.0, -4587.427328518311, 1187.7940520994725, -26950.839394431045, -10109.738720624295, -22719.050671941124, -187500.02235174447, -27946.00611281468, -3701.1359573764753, -7787.9289135848185, -18020.825746157854, -75806.99185216331, 187500.0, -22492.381631419856, -187500.02235174447, -11195.7429284743, -33921.923806896666, 0.088, 0.966, 0.112, 192.0, 0.0, 0.0, 0.0, 0.0, 0.0, 0.0, 0.0, 0.0, 0.0, 1.741982872414927E9, 0.0, 2025-03-14 15:07:52.414
52.0, -4577.5255057246095, 1186.5647061544307, -26962.976391670276, -10108.95640956836, -22717.55310506262, -187500.02235174447, -27945.804947114582, -3694.363378806517, -7788.912390340852, -18036.024932387463, -75683.34200183654, 187500.0, -22493.63332910935, -187500.02235174447, -11204.840088467608, -33928.91990291118, 0.088, 0.966, 0.112, 192.0, 0.0, 0.0, 0.0, 0.0, 0.0, 0.0, 0.0, 0.0, 0.0, 1.741982872414943E9, 0.0, 2025-03-14 15:07:52.414
54.0, -4575.491496979177, 1189.7610056115395, -26946.324342051073, -10103.301418221166, -22719.87768648597, -187500.02235174447, -27955.349141996998, -3698.0290648971877, -7778.854105335964, -18025.363150282283, -75802.32033757215, 187500.0, -22493.49921864262, -187500.02235174447, -11212.797309493699, -33920.783867929444, 0.088, 0.966, 0.112, 192.0, 0.0, 0.0, 0.0, 0.0, 0.0, 0.0, 0.0, 0.0, 0.0, 1.741982872414954E9, 0.0, 2025-03-14 15:07:52.414
56.0, -4569.881209120895, 1192.264400990534, -26964.071627148587, -10107.861174090049, -22720.77175626418, -187500.02235174447, -27955.885583863925, -3700.1524806204416, -7780.463430936746, -18022.166850825175, -75694.5178740642, 187500.0, -22489.632366851853, -187500.02235174447, -11209.399844336493, -33927.5564464994, 0.088, 0.966, 0.112, 192.0, 0.0, 0.0, 0.0, 0.0, 0.0, 0.0, 0.0, 0.0, 0.0, 1.741982872414965E9, 0.0, 2025-03-14 15:07:52.414
58.0, -4559.912331093828, 1201.5403749394864, -26942.122214093473, -10094.316016950133, -22707.91950320238, -187500.02235174447, -27941.356949967976, -3676.571390220093, -7771.567436643534, -18019.104661834797, -75807.79651496369, 187500.0, -22492.20281746421, -187500.02235174447, -11217.714693273867, -33923.443725519624, 0.084, 0.98, 0.124, 192.0, 1.0, 80.0, 15.0, 80.0, 1.5, 112.0, 0.0, 0.0, 0.0, 1.741982872414976E9, 0.0, 2025-03-14 15:07:52.414
60.0, -4568.674214920308, 1197.3829504707994, -26962.372894569984, -10103.413176943443, -22718.715395774296, -187500.02235174447, -27929.599932384484, -3662.15451504642, -7780.172858258827, -18005.112469805776, -75709.87352250499, 187500.0, -22484.960852260694, -187500.02235174447, -11196.860515697064, -33909.8538648908, 0.084, 0.98, 0.124, 192.0, 0.0, 0.0, 0.0, 0.0, 0.0, 0.0, 0.0, 0.0, 0.0, 1.741982872473255E9, 0.0, 2025-03-14 15:07:52.473
62.0, -4571.110555065937, 1202.2109272731457, -26948.47010951878, -10100.507450164254, -22715.49674457273, -187500.02235174447, -27941.558115668075, -3686.473213013794, -7780.329320470014, -18015.595437955315, -75796.79945669169, 187500.0, -22504.18335249226, -187500.02235174447, -11210.763300748265, -33906.5011032225, 0.084, 0.98, 0.124, 192.0, 0.0, 0.0, 0.0, 0.0, 0.0, 0.0, 0.0, 0.0, 0.0, 1.741982872473282E9, 0.0, 2025-03-14 15:07:52.473
64.0, -4587.404976773855, 1187.2799619770005, -26966.865595205498, -10111.303342736166, -22722.761061520705, -187500.02235174447, -27960.78061589964, -3705.338085334073, -7783.659730393855, -18013.8520018878, -75712.04164171715, 187500.0, -22487.576006361964, -187500.02235174447, -11197.776937219733, -33913.385440514736, 0.084, 0.98, 0.124, 192.0, 0.0, 0.0, 0.0, 0.0, 0.0, 0.0, 0.0, 0.0, 0.0, 1.741982872473294E9, 0.0, 2025-03-14 15:07:52.473
66.0, -4589.997779130671, 1186.944685810171, -26957.813138701098, -10111.839784603095, -22722.604599309518, -187500.02235174447, -27966.793235158115, -3712.669457515414, -7787.034843806607, -18030.124071851264, -75772.30194476867, 187500.0, -22502.037585024547, -187500.02235174447, -11217.155899662483, -33918.92867313966, 0.084, 0.98, 0.124, 192.0, 0.0, 0.0, 0.0, 0.0, 0.0, 0.0, 0.0, 0.0, 0.0, 1.741982872473305E9, 0.0, 2025-03-14 15:07:52.473
68.0, -4587.829659918507, 1191.6162004013302, -26961.47882479177, -10111.705674136361, -22725.242105155245, -187500.02235174447, -27973.2528893057, -3715.552832550148, -7782.743308871188, -18032.96274339709, -75692.68503101886, 187500.0, -22482.502160370608, -187500.02235174447, -11198.201620364383, -33912.826646903355, 0.074, 0.97, 0.132, 192.0, 1.0, 40.0, 15.0, 40.0, 2.0, 16.0, 0.0, 0.0, 0.0, 1.741982872473316E9, 0.0, 2025-03-14 15:07:52.473
70.0, -4572.80928764454, 1207.2177180311344, -26944.9608856393, -10100.216877486335, -22709.148849147423, -187500.02235174447, -27961.115892066467, -3712.2894778596733, -7789.1582595298605, -18013.203801298598, -75730.7724035707, 187500.0, -22495.622634365875, -187500.02235174447, -11212.484385071324, -33915.93353938264, 0.074, 0.97, 0.132, 192.0, 0.0, 0.0, 0.0, 0.0, 0.0, 0.0, 0.0, 0.0, 0.0, 1.741982872473345E9, 0.0, 2025-03-14 15:07:52.473
72.0, -4588.164936085336, 1179.166278739724, -26959.33305732406, -10116.578354427618, -22722.291674887143, -187500.02235174447, -27970.593031715518, -3719.1961668963636, -7773.534390155601, -18014.47785073255, -75691.7686094962, 187500.0, -22480.06582022498, -187500.02235174447, -11189.998530149285, -33910.256196291, 0.074, 0.97, 0.132, 192.0, 0.0, 0.0, 0.0, 0.0, 0.0, 0.0, 0.0, 0.0, 0.0, 1.741982872473356E9, 0.0, 2025-03-14 15:07:52.473
74.0, -4582.867572649428, 1178.0933950058693, -26957.65667648991, -10113.76203462625, -22712.523962560175, -187500.02235174447, -27958.76895889866, -3713.4741203158046, -7782.318625726537, -18029.677036962155, -75715.23794117427, 187500.0, -22482.16688420378, -187500.02235174447, -11217.22295489585, -33922.01321387449, 0.074, 0.97, 0.132, 192.0, 0.0, 0.0, 0.0, 0.0, 0.0, 0.0, 0.0, 0.0, 0.0, 1.741982872473371E9, 0.0, 2025-03-14 15:07:52.473
76.0, -4592.791747187584, 1167.0516332449477, -26970.330115596073, -10122.568621941642, -22738.563744850606, -187500.02235174447, -27972.49292999422, -3722.146597164464, -7781.066928037039, -18026.391330527225, -75694.20494964182, 187500.0, -22484.178541204757, -187500.02235174447, -11212.082053671129, -33924.31544355339, 0.074, 0.973, 0.133, 192.0, 1.0, 40.0, 15.0, 64.0, 2.0, 24.0, 0.0, 0.0, 0.0, 1.741982872533555E9, 0.0, 2025-03-14 15:07:52.533
78.0, -4610.561384029554, 1151.204246426135, -26990.290223394662, -10141.187625072913, -22755.618125870005, -187500.02235174447, -27982.081828365546, -3721.8783762310004, -7797.227239278226, -18044.25037434702, -75686.49359780474, 187500.0, -22513.682843885763, -187500.02235174447, -11245.833187798642, -33937.68178673766, 0.074, 0.973, 0.133, 192.0, 0.0, 0.0, 0.0, 0.0, 0.0, 0.0, 0.0, 0.0, 0.0, 1.741982872533574E9, 0.0, 2025-03-14 15:07:52.533
80.0, -4609.354389828967, 1148.8573132583276, -26976.879176721475, -10129.520014467242, -22731.25472441372, -187500.02235174447, -27956.06439781957, -3704.0416841556653, -7814.438082508813, -18046.03851390344, -75668.74631270723, 187500.0, -22513.12405027438, -187500.02235174447, -11242.525129619256, -33943.783812973954, 0.074, 0.973, 0.133, 192.0, 0.0, 0.0, 0.0, 0.0, 0.0, 0.0, 0.0, 0.0, 0.0, 1.741982872533586E9, 0.0, 2025-03-14 15:07:52.533
82.0, -4588.947247141272, 1165.978749511093, -26961.456473047314, -10117.159499783456, -22713.619198038483, -187500.02235174447, -27934.941999309303, -3684.595666479548, -7794.165050287849, -18032.26983931897, -75659.49269050272, 187500.0, -22490.526436630065, -187500.02235174447, -11228.22001316786, -33916.8052574164, 0.074, 0.973, 0.133, 192.0, 0.0, 0.0, 0.0, 0.0, 0.0, 0.0, 0.0, 0.0, 0.0, 1.741982872533597E9, 0.0, 2025-03-14 15:07:52.533
84.0, -4586.801479673562, 1171.4996303915539, -26938.657693702902, -10112.845613103582, -22705.55021829012, -187500.02235174447, -27933.891467319903, -3681.1534978334307, -7779.256436736159, -18031.688693963133, -75692.88619671896, 187500.0, -22481.764552803583, -187500.02235174447, -11204.862440212064, -33913.72071668157, 0.074, 0.973, 0.133, 192.0, 0.0, 0.0, 0.0, 0.0, 0.0, 0.0, 0.0, 0.0, 0.0, 1.741982872533608E9, 0.0, 2025-03-14 15:07:52.533
86.0, -4580.967674370727, 1175.1206129933134, -26950.23589733075, -10110.431624702409, -22704.812610723093, -187500.02235174447, -27924.347272437488, -3675.0067681082214, -7784.889076338897, -18027.464214261083, -75639.62198968197, 187500.0, -22484.58087260495, -187500.02235174447, -11205.689454756912, -33904.46709447707, 0.075, 0.9755, 0.1315, 192.0, 1.0, 48.0, 15.0, 72.0, 2.0, 8.0, 0.0, 0.0, 0.0, 1.741982872533619E9, 0.0, 2025-03-14 15:07:52.533
88.0, -4587.852011662962, 1167.8562960453387, -26940.87051640398, -10110.56573516914, -22711.49578231523, -187500.02235174447, -27935.210220242767, -3684.1933350793524, -7771.790954088087, -18016.75772866699, -75697.98239445477, 187500.0, -22471.88508175434, -187500.02235174447, -11192.054890639174, -33894.721733894556, 0.075, 0.9755, 0.1315, 192.0, 0.0, 0.0, 0.0, 0.0, 0.0, 0.0, 0.0, 0.0, 0.0, 1.741982872533631E9, 0.0, 2025-03-14 15:07:52.533
90.0, -4586.510906995643, 1174.4947641485649, -26963.088150392552, -10120.311095751655, -22717.664863784896, -187500.02235174447, -27940.48523193422, -3692.150556105442, -7784.486744938701, -18027.62067647227, -75626.12153603096, 187500.0, -22480.3563929029, -187500.02235174447, -11210.919762959453, -33907.41752474517, 0.075, 0.9755, 0.1315, 192.0, 0.0, 0.0, 0.0, 0.0, 0.0, 0.0, 0.0, 0.0, 0.0, 1.741982872593841E9, 0.0, 2025-03-14 15:07:52.593
92.0, -4587.2708663071235, 1173.3995286702548, -26959.176595112873, -10125.47434872083, -22728.907791245914, -187500.02235174447, -27956.10910130848, -3701.3147713321177, -7793.025111320629, -18032.627467230257, -75704.64321430246, 187500.0, -22491.77813431956, -187500.02235174447, -11219.860460741576, -33913.54190272593, 0.075, 0.9755, 0.1315, 192.0, 0.0, 0.0, 0.0, 0.0, 0.0, 0.0, 0.0, 0.0, 0.0, 1.741982872593884E9, 0.0, 2025-03-14 15:07:52.593
94.0, -4585.5050784951545, 1174.584171126386, -26975.62747903198, -10121.629848674518, -22734.9651139933, -187500.02235174447, -27965.318020024064, -3709.987248180777, -7789.44883220778, -18013.717891421067, -75631.66476865587, 187500.0, -22496.650814610817, -187500.02235174447, -11234.7020190599, -33914.57008297087, 0.075, 0.9755, 0.1315, 192.0, 0.0, 0.0, 0.0, 0.0, 0.0, 0.0, 0.0, 0.0, 0.0, 1.741982872593896E9, 0.0, 2025-03-14 15:07:52.593
96.0, -4582.95697962725, 1179.5015549065538, -26951.062911875597, -10115.28195324921, -22721.59877080903, -187500.02235174447, -27960.847671133004, -3702.4100068104276, -7781.871590837431, -18011.9521036091, -75708.55476958213, 187500.0, -22479.574081846964, -187500.02235174447, -11234.74672254881, -33917.34169928333, 0.07250000000000001, 0.97075, 0.13275, 192.0, 1.0, 24.0, 15.0, 24.0, 2.0, 24.0, 0.0, 0.0, 0.0, 1.741982872593911E9, 0.0, 2025-03-14 15:07:52.593
98.0, -4581.817040660029, 1183.8601450753386, -26962.529356781168, -10115.438415460398, -22719.564762063597, -187500.02235174447, -27951.97402858425, -3694.2292683397854, -7780.01639604764, -18000.28449300343, -75630.7036436443, 187500.0, -22479.3058609135, -187500.02235174447, -11220.5980683086, -33907.26106253399, 0.07250000000000001, 0.97075, 0.13275, 192.0, 0.0, 0.0, 0.0, 0.0, 0.0, 0.0, 0.0, 0.0, 0.0, 1.741982872593923E9, 0.0, 2025-03-14 15:07:52.593
100.0, -4597.3067995675565, 1171.4772786470985, -26954.348618310527, -10124.200299286878, -22724.459794099308, -187500.02235174447, -27962.904031622893, -3702.2535445992407, -7783.212695504749, -18011.683882675636, -75722.41285114441, 187500.0, -22477.808294034996, -187500.02235174447, -11219.972219463853, -33905.24940553301, 0.07250000000000001, 0.97075, 0.13275, 192.0, 0.0, 0.0, 0.0, 0.0, 0.0, 0.0, 0.0, 0.0, 0.0, 1.741982872593934E9, 0.0, 2025-03-14 15:07:52.593
102.0, -4613.176538130825, 1152.4782958600874, -26981.34952561254, -10139.444189005399, -22729.623047068482, -187500.02235174447, -27964.69217117932, -3714.8375767275784, -7804.737425415209, -18039.33299056685, -75604.06036425357, 187500.0, -22505.904436815315, -187500.02235174447, -11223.928478232441, -33917.296995794415, 0.07250000000000001, 0.97075, 0.13275, 192.0, 0.0, 0.0, 0.0, 0.0, 0.0, 0.0, 0.0, 0.0, 0.0, 1.741982872593946E9, 0.0, 2025-03-14 15:07:52.593
104.0, -4604.213488604247, 1160.8378482863723, -26958.014304401197, -10117.651238161474, -22721.82228825358, -187500.02235174447, -27953.53865069612, -3693.424605539394, -7806.793785905098, -18025.407853771194, -75693.84732173054, 187500.0, -22496.98609077765, -187500.02235174447, -11223.727312532345, -33908.423353245664, 0.07250000000000001, 0.97075, 0.13275, 192.0, 0.0, 0.0, 0.0, 0.0, 0.0, 0.0, 0.0, 0.0, 0.0, 1.741982872593957E9, 0.0, 2025-03-14 15:07:52.593
106.0, -4585.750947684163, 1174.427708915199, -26951.442891531336, -10106.497717678276, -22708.92533170287, -187500.02235174447, -27931.119851007446, -3673.464497740805, -7796.914314855852, -18009.560466952382, -75572.87968073842, 187500.0, -22479.618785335875, -187500.02235174447, -11210.36096934807, -33895.213472272575, 0.07425000000000001, 0.971375, 0.13737500000000002, 192.0, 1.0, 48.0, 15.0, 48.0, 2.0, 56.0, 0.0, 0.0, 0.0, 1.741982872654135E9, 0.0, 2025-03-14 15:07:52.654
108.0, -4595.3845495444, 1162.6259878427968, -26945.743196695235, -10117.248906761279, -22715.049709683622, -187500.02235174447, -27933.153859752878, -3671.0728610840874, -7791.594599675489, -18015.170754810664, -75679.38574306795, 187500.0, -22478.702363813205, -187500.02235174447, -11218.429949096437, -33890.22903325904, 0.07425000000000001, 0.971375, 0.13737500000000002, 192.0, 0.0, 0.0, 0.0, 0.0, 0.0, 0.0, 0.0, 0.0, 0.0, 1.741982872654163E9, 0.0, 2025-03-14 15:07:52.654
110.0, -4598.826718190518, 1154.8028772834393, -26961.56823176959, -10124.692037664896, -22719.40829985241, -187500.02235174447, -27929.91285680686, -3663.2944540136405, -7804.290390526104, -18034.505013764505, -75571.04683769308, 187500.0, -22503.13282050286, -187500.02235174447, -11215.50187057279, -33896.75574263999, 0.07425000000000001, 0.971375, 0.13737500000000002, 192.0, 0.0, 0.0, 0.0, 0.0, 0.0, 0.0, 0.0, 0.0, 0.0, 1.741982872654174E9, 0.0, 2025-03-14 15:07:52.654
112.0, -4597.373854800922, 1158.490915118565, -26947.28546706265, -10120.914592851948, -22713.44038408284, -187500.02235174447, -27930.605760884973, -3671.29637852864, -7808.06783533905, -18019.484641490537, -75644.53937346213, 187500.0, -22501.2105704797, -187500.02235174447, -11225.738969533322, -33893.47003620506, 0.07425000000000001, 0.971375, 0.13737500000000002, 192.0, 0.0, 0.0, 0.0, 0.0, 0.0, 0.0, 0.0, 0.0, 0.0, 1.741982872654186E9, 0.0, 2025-03-14 15:07:52.654
114.0, -4589.371930285923, 1166.2022669556459, -26950.593525242035, -10121.831014374617, -22706.623102023972, -187500.02235174447, -27926.560095138564, -3666.5801604485705, -7802.323437014036, -18021.965685125077, -75555.66883750782, 187500.0, -22493.610977364897, -187500.02235174447, -11211.143280404005, -33895.03465831693, 0.07425000000000001, 0.971375, 0.13737500000000002, 192.0, 0.0, 0.0, 0.0, 0.0, 0.0, 0.0, 0.0, 0.0, 0.0, 1.741982872654215E9, 0.0, 2025-03-14 15:07:52.654
116.0, -4596.569192000531, 1160.524923863998, -26947.129004851464, -10131.15169181248, -22709.573532292074, -187500.02235174447, -27944.463842447265, -3689.7812711931792, -7799.104785812472, -18024.603190970804, -75635.84454486902, 187500.0, -22489.230035451656, -187500.02235174447, -11223.615553810067, -33895.5487484394, 0.076125, 0.9706874999999999, 0.14468750000000002, 192.0, 1.0, 56.0, 15.0, 40.0, 2.0, 96.0, 0.0, 0.0, 0.0, 1.74198287265423E9, 0.0, 2025-03-14 15:07:52.654
118.0, -4600.011360646648, 1158.0438802294589, -26953.163975854397, -10125.921383609937, -22718.424823096375, -187500.02235174447, -27952.063435562068, -3683.7463001902465, -7794.656788665866, -18020.915153135677, -75567.69407602478, 187500.0, -22479.663488824786, -187500.02235174447, -11216.306533373181, -33902.09780956481, 0.076125, 0.9706874999999999, 0.14468750000000002, 192.0, 0.0, 0.0, 0.0, 0.0, 0.0, 0.0, 0.0, 0.0, 0.0, 1.741982872654242E9, 0.0, 2025-03-14 15:07:52.654
120.0, -4599.094939123981, 1163.2294849430903, -26953.208679343308, -10123.976781842326, -22719.11772717449, -187500.02235174447, -27939.01001680017, -3680.594704222048, -7805.855012637975, -18020.8033944134, -75597.57835836153, 187500.0, -22499.668300112284, -187500.02235174447, -11229.494062601812, -33894.81114087238, 0.076125, 0.9706874999999999, 0.14468750000000002, 192.0, 0.0, 0.0, 0.0, 0.0, 0.0, 0.0, 0.0, 0.0, 0.0, 1.741982872714434E9, 0.0, 2025-03-14 15:07:52.714
122.0, -4615.72463699873, 1156.233388928579, -26972.453531319326, -10136.67257269294, -22738.45198612833, -187500.02235174447, -27954.34331349651, -3688.797794437146, -7801.205849791271, -18032.582763741346, -75540.93903791178, 187500.0, -22495.242654710135, -187500.02235174447, -11218.854632241088, -33892.553614682394, 0.076125, 0.9706874999999999, 0.14468750000000002, 192.0, 0.0, 0.0, 0.0, 0.0, 0.0, 0.0, 0.0, 0.0, 0.0, 1.74198287271446E9, 0.0, 2025-03-14 15:07:52.714
124.0, -4605.822814205028, 1173.1983629701572, -26965.166862626895, -10126.882508621515, -22719.20713415231, -187500.02235174447, -27938.115947021957, -3685.981474635777, -7812.2252598077375, -18010.923923364153, -75552.1372618839, 187500.0, -22519.40489046632, -187500.02235174447, -11238.390056895025, -33894.94525133911, 0.076125, 0.9706874999999999, 0.14468750000000002, 192.0, 0.0, 0.0, 0.0, 0.0, 0.0, 0.0, 0.0, 0.0, 0.0, 1.741982872714472E9, 0.0, 2025-03-14 15:07:52.714
126.0, -4612.461282308255, 1168.392737912266, -26957.410807300905, -10138.594822716097, -22713.663901527394, -187500.02235174447, -27938.361816210967, -3689.535402004171, -7796.288466011103, -17998.876333102744, -75551.3325990835, 187500.0, -22500.674128612773, -187500.02235174447, -11211.344446104104, -33885.624573901245, 0.0730625, 0.96634375, 0.15234375, 192.0, 1.0, 24.0, 15.0, 8.0, 2.5, 0.0, 0.0, 0.0, 0.0, 1.741982872714483E9, 0.0, 2025-03-14 15:07:52.714
128.0, -4597.060930378549, 1183.7707380975173, -26950.615876986492, -10132.023409846237, -22710.221732881277, -187500.02235174447, -27931.924513807837, -3688.0378351256654, -7797.204887533771, -18023.61971421477, -75546.19169785878, 187500.0, -22490.459381396697, -187500.02235174447, -11225.023713710752, -33897.22512927355, 0.0730625, 0.96634375, 0.15234375, 192.0, 0.0, 0.0, 0.0, 0.0, 0.0, 0.0, 0.0, 0.0, 0.0, 1.741982872714495E9, 0.0, 2025-03-14 15:07:52.714
130.0, -4606.806290961063, 1175.1429647377688, -26945.85495541751, -10132.313982524156, -22717.463698084797, -187500.02235174447, -27936.35015920999, -3681.712291444813, -7788.6888728962995, -18000.306844747884, -75558.6416195204, 187500.0, -22489.095924984926, -187500.02235174447, -11212.193812393405, -33889.8490536033, 0.0730625, 0.96634375, 0.15234375, 192.0, 0.0, 0.0, 0.0, 0.0, 0.0, 0.0, 0.0, 0.0, 0.0, 1.741982872714507E9, 0.0, 2025-03-14 15:07:52.714
132.0, -4595.630418733409, 1188.1963834996682, -26938.702397191813, -10118.14297653949, -22707.293654357632, -187500.02235174447, -27923.319092192545, -3672.592779707048, -7805.8326608935195, -18016.71302517808, -75535.44050877578, 187500.0, -22505.747974604128, -187500.02235174447, -11227.907088745485, -33897.53805369593, 0.0730625, 0.96634375, 0.15234375, 192.0, 0.0, 0.0, 0.0, 0.0, 0.0, 0.0, 0.0, 0.0, 0.0, 1.741982872714517E9, 0.0, 2025-03-14 15:07:52.714
134.0, -4609.24263110669, 1172.5054588920425, -26931.102804077007, -10123.082712064113, -22714.177991649867, -187500.02235174447, -27929.979912040224, -3676.481983242272, -7787.660692651355, -18019.104661834797, -75584.6366983219, 187500.0, -22489.095924984926, -187500.02235174447, -11205.197716378894, -33882.495329677506, 0.0730625, 0.96634375, 0.15234375, 192.0, 0.0, 0.0, 0.0, 0.0, 0.0, 0.0, 0.0, 0.0, 0.0, 1.741982872714542E9, 0.0, 2025-03-14 15:07:52.714
136.0, -4602.4700525367325, 1181.133232251791, -26945.56438273959, -10118.433549217409, -22723.744538276736, -187500.02235174447, -27934.85259233148, -3684.618018224003, -7809.744216173198, -18023.865583403778, -75531.28308430708, 187500.0, -22506.284416471055, -187500.02235174447, -11216.820623495654, -33894.94525133911, 0.06853125, 0.967171875, 0.15517187500000001, 192.0, 1.0, 0.0, 15.0, 32.0, 2.0, 120.0, 0.0, 0.0, 0.0, 1.741982872773879E9, 0.0, 2025-03-14 15:07:52.773
138.0, -4600.078415880014, 1179.1886304841794, -26925.04548132962, -10114.343179982088, -22722.604599309518, -187500.02235174447, -27932.63976963041, -3679.410061765917, -7788.06302405155, -18010.789812897423, -75576.16538717334, 187500.0, -22487.218378450678, -187500.02235174447, -11208.103443158085, -33886.78686461292, 0.06853125, 0.967171875, 0.15517187500000001, 192.0, 0.0, 0.0, 0.0, 0.0, 0.0, 0.0, 0.0, 0.0, 0.0, 1.741982872773916E9, 0.0, 2025-03-14 15:07:52.773
140.0, -4601.754796714163, 1183.6589793752407, -26943.99976062772, -10113.67262764843, -22719.989445208248, -187500.02235174447, -27925.37545268243, -3672.8386488960564, -7803.105748069972, -18011.259199530985, -75515.569807955, 187500.0, -22506.39617519333, -187500.02235174447, -11211.769129248754, -33884.66344888967, 0.06853125, 0.967171875, 0.15517187500000001, 192.0, 0.0, 0.0, 0.0, 0.0, 0.0, 0.0, 0.0, 0.0, 0.0, 1.741982872773928E9, 0.0, 2025-03-14 15:07:52.773
142.0, -4602.961790914749, 1179.7027206066514, -26938.18830706934, -10117.38301722801, -22731.813518025105, -187500.02235174447, -27942.608647657475, -3691.3011898161403, -7806.614971949455, -18015.595437955315, -75603.45686715328, 187500.0, -22516.186239264756, -187500.02235174447, -11209.332789103126, -33888.95498382509, 0.06853125, 0.967171875, 0.15517187500000001, 192.0, 0.0, 0.0, 0.0, 0.0, 0.0, 0.0, 0.0, 0.0, 0.0, 1.741982872773939E9, 0.0, 2025-03-14 15:07:52.773
144.0, -4588.120232596425, 1190.9903515565816, -26942.993932127232, -10110.185755513401, -22717.575456807073, -187500.02235174447, -27922.425022414332, -3674.0903465855536, -7790.007625819162, -18012.063862331375, -75505.89150260587, 187500.0, -22499.422430923278, -187500.02235174447, -11204.951847189886, -33887.68093439114, 0.06853125, 0.967171875, 0.15517187500000001, 192.0, 0.0, 0.0, 0.0, 0.0, 0.0, 0.0, 0.0, 0.0, 0.0, 1.74198287277395E9, 0.0, 2025-03-14 15:07:52.773
146.0, -4603.431177548311, 1178.6298368727967, -26936.93660937984, -10116.041912560691, -22719.654169041416, -187500.02235174447, -27928.594103883996, -3678.471288498794, -7787.884210095908, -18009.001673340998, -75599.29944268458, 187500.0, -22500.45061116822, -187500.02235174447, -11204.795384978699, -33885.11048377877, 0.065265625, 0.9685859375, 0.1605859375, 192.0, 0.5, 120.0, 15.0, 40.0, 2.5, 24.0, 0.0, 0.0, 0.0, 1.741982872773961E9, 0.0, 2025-03-14 15:07:52.773
148.0, -4611.634267763408, 1168.169220467713, -26963.42342655938, -10139.131264583024, -22730.584172080064, -187500.02235174447, -27940.775804612138, -3694.5868962510704, -7810.370065017947, -18038.595382999825, -75488.54654890855, 187500.0, -22503.49044841414, -187500.02235174447, -11210.517431559258, -33905.15999855519, 0.065265625, 0.9685859375, 0.1605859375, 192.0, 0.0, 0.0, 0.0, 0.0, 0.0, 0.0, 0.0, 0.0, 0.0, 1.741982872773973E9, 0.0, 2025-03-14 15:07:52.773
150.0, -4602.157128114358, 1177.489897905576, -26942.010455371197, -10129.341200511599, -22724.325683632575, -187500.02235174447, -27931.477478918732, -3683.3886722789616, -7803.441024236802, -18025.09492934882, -75575.69600053979, 187500.0, -22506.105602515414, -187500.02235174447, -11216.753568262287, -33909.2056643016, 0.065265625, 0.9685859375, 0.1605859375, 192.0, 0.0, 0.0, 0.0, 0.0, 0.0, 0.0, 0.0, 0.0, 0.0, 1.741982872833665E9, 0.0, 2025-03-14 15:07:52.833
152.0, -4599.027883890615, 1177.8251740724056, -26958.90837417941, -10119.573488184631, -22724.571552821584, -187500.02235174447, -27922.827353814526, -3674.1350500744643, -7811.197079562793, -18020.065786846375, -75476.14133073585, 187500.0, -22522.08709980096, -187500.02235174447, -11209.176326891939, -33894.07353330535, 0.065265625, 0.9685859375, 0.1605859375, 192.0, 0.0, 0.0, 0.0, 0.0, 0.0, 0.0, 0.0, 0.0, 0.0, 1.741982872833692E9, 0.0, 2025-03-14 15:07:52.833
154.0, -4602.067721136537, 1173.6901013481738, -26947.508984507203, -10124.75909289826, -22731.567648836095, -187500.02235174447, -27930.739871351707, -3675.2526372972297, -7804.200983548282, -18016.064824588877, -75583.04972446559, 187500.0, -22520.813050367004, -187500.02235174447, -11218.295838629705, -33895.7499141395, 0.065265625, 0.9685859375, 0.1605859375, 192.0, 0.0, 0.0, 0.0, 0.0, 0.0, 0.0, 0.0, 0.0, 0.0, 1.741982872833704E9, 0.0, 2025-03-14 15:07:52.833
156.0, -4593.127023354415, 1178.0263397725034, -26959.444816046336, -10122.792139386194, -22732.908753503412, -187500.02235174447, -27924.347272437488, -3677.532515231671, -7818.6849139553215, -18030.83932767383, -75467.29003993154, 187500.0, -22529.999617338137, -187500.02235174447, -11223.79436776571, -33908.75862941249, 0.061632812499999995, 0.9722929687499999, 0.16429296875, 192.0, 0.5, 104.0, 15.0, 64.0, 2.5, 32.0, 0.0, 0.0, 0.0, 1.74198287283373E9, 0.0, 2025-03-14 15:07:52.833
158.0, -4581.52646798211, 1189.2245637446122, -26932.153336066407, -10115.10313929357, -22712.72512826027, -187500.02235174447, -27917.32882467852, -3672.3245587735846, -7799.037730579106, -18000.932693592633, -75582.26741340965, 187500.0, -22509.83834383945, -187500.02235174447, -11217.93821071842, -33889.87140534775, 0.061632812499999995, 0.9722929687499999, 0.16429296875, 192.0, 0.0, 0.0, 0.0, 0.0, 0.0, 0.0, 0.0, 0.0, 0.0, 1.741982872833743E9, 0.0, 2025-03-14 15:07:52.833
160.0, -4581.615874959931, 1185.201249742657, -26940.62464721497, -10119.797005629183, -22705.30434910111, -187500.02235174447, -27914.065469988047, -3669.307073272118, -7791.058157808561, -18015.953065866597, -75507.7690491401, 187500.0, -22496.02496576607, -187500.02235174447, -11201.509678543769, -33887.34565822431, 0.061632812499999995, 0.9722929687499999, 0.16429296875, 192.0, 0.0, 0.0, 0.0, 0.0, 0.0, 0.0, 0.0, 0.0, 0.0, 1.741982872833758E9, 0.0, 2025-03-14 15:07:52.833
162.0, -4601.86655543644, 1169.7561943240398, -26939.99879837022, -10113.516165437242, -22721.419956853388, -187500.02235174447, -27925.934246293815, -3682.718119945302, -7803.195155047793, -18011.773289653454, -75592.50451237017, 187500.0, -22504.96566354819, -187500.02235174447, -11209.332789103126, -33888.68676289162, 0.061632812499999995, 0.9722929687499999, 0.16429296875, 192.0, 0.0, 0.0, 0.0, 0.0, 0.0, 0.0, 0.0, 0.0, 0.0, 1.741982872833768E9, 0.0, 2025-03-14 15:07:52.833
164.0, -4613.310648597557, 1148.8126097694171, -26962.372894569984, -10137.164311070957, -22731.992331980746, -187500.02235174447, -27938.0935952775, -3704.2204981113077, -7816.717960443254, -18024.89376364872, -75485.52906340707, 187500.0, -22520.880105600372, -187500.02235174447, -11212.774957749243, -33907.730449167546, 0.061632812499999995, 0.9722929687499999, 0.16429296875, 192.0, 0.0, 0.0, 0.0, 0.0, 0.0, 0.0, 0.0, 0.0, 0.0, 1.74198287283378E9, 0.0, 2025-03-14 15:07:52.833
166.0, -4601.017189147137, 1159.2061709411348, -26947.531336251657, -10123.574450442131, -22723.63277955446, -187500.02235174447, -27923.363795681453, -3671.3857855064616, -7800.669407924343, -18020.646932202213, -75541.52018326762, 187500.0, -22507.580817649465, -187500.02235174447, -11228.018847467763, -33901.60607118679, 0.060816406249999996, 0.968146484375, 0.16714648437500002, 192.0, 0.5, 112.0, 15.0, 16.0, 2.5, 40.0, 0.0, 0.0, 0.0, 1.741982872894588E9, 0.0, 2025-03-14 15:07:52.894
168.0, -4615.121139898436, 1147.784429524473, -26970.91126095191, -10136.873738393038, -22748.286753688666, -187500.02235174447, -27940.887563334414, -3683.4780792567826, -7819.31076280007, -18038.23775508854, -75486.8701680744, 187500.0, -22510.799468851026, -187500.02235174447, -11224.666085799467, -33903.70713516559, 0.060816406249999996, 0.968146484375, 0.16714648437500002, 192.0, 0.0, 0.0, 0.0, 0.0, 0.0, 0.0, 0.0, 0.0, 0.0, 1.741982872894613E9, 0.0, 2025-03-14 15:07:52.894
170.0, -4609.823776462528, 1157.1945139401573, -26955.62266774448, -10135.95731687037, -22737.4685093723, -187500.02235174447, -27934.47261267574, -3679.410061765917, -7814.438082508813, -18015.774251910956, -75526.94684588276, 187500.0, -22525.238695769156, -187500.02235174447, -11246.727257576855, -33899.1026758078, 0.060816406249999996, 0.968146484375, 0.16714648437500002, 192.0, 0.0, 0.0, 0.0, 0.0, 0.0, 0.0, 0.0, 0.0, 0.0, 1.741982872894624E9, 0.0, 2025-03-14 15:07:52.894
172.0, -4600.748968213674, 1157.6415488292635, -26940.356426281505, -10124.692037664896, -22719.028320196667, -187500.02235174447, -27923.96729278175, -3671.7881169066573, -7812.962867374763, -18022.680940947645, -75485.93139480727, 187500.0, -22530.2678382716, -187500.02235174447, -11228.93526899043, -33897.89568160721, 0.060816406249999996, 0.968146484375, 0.16714648437500002, 192.0, 0.0, 0.0, 0.0, 0.0, 0.0, 0.0, 0.0, 0.0, 0.0, 1.741982872894635E9, 0.0, 2025-03-14 15:07:52.894
174.0, -4608.013285161649, 1146.7115457906182, -26954.102749121517, -10135.175005814435, -22727.477279600775, -187500.02235174447, -27920.636882857907, -3673.553904718626, -7814.885117397919, -18025.18433632664, -75517.55911321154, 187500.0, -22513.59343690794, -187500.02235174447, -11230.723408546855, -33891.86071060428, 0.060816406249999996, 0.968146484375, 0.16714648437500002, 192.0, 0.0, 0.0, 0.0, 0.0, 0.0, 0.0, 0.0, 0.0, 0.0, 1.741982872894647E9, 0.0, 2025-03-14 15:07:52.894
176.0, -4611.72367474123, 1143.4258393556881, -26949.073606619073, -10134.795026158694, -22722.895171987435, -187500.02235174447, -27921.15097298038, -3674.53738147466, -7854.537112061634, -18028.872374161765, -75511.34532825295, 187500.0, -22533.195916795245, -187500.02235174447, -11234.232632426338, -33902.29897526491, 0.060408203125, 0.9650732421874999, 0.17057324218750003, 192.0, 0.5, 112.0, 15.0, 8.0, 2.5, 56.0, 0.0, 0.0, 0.0, 1.741982872894662E9, 0.0, 2025-03-14 15:07:52.894
178.0, -4600.950133913771, 1152.0983162043472, -26942.345731538026, -10127.91068886646, -22702.06334615509, -187500.02235174447, -27913.596083354485, -3670.983454106266, -7792.958056087263, -18010.163964052674, -75506.53970319507, 187500.0, -22485.02790749406, -187500.02235174447, -11226.990667222819, -33887.21154775757, 0.060408203125, 0.9650732421874999, 0.17057324218750003, 192.0, 0.0, 0.0, 0.0, 0.0, 0.0, 0.0, 0.0, 0.0, 0.0, 1.741982872894687E9, 0.0, 2025-03-14 15:07:52.894
180.0, -4610.181404373813, 1142.0623829439144, -26941.541068737635, -10145.188587330413, -22707.718337502283, -187500.02235174447, -27908.231664685212, -3663.1603435469087, -7818.461396510768, -18030.392292784727, -75516.26271203312, 187500.0, -22517.12501253188, -187500.02235174447, -11216.820623495654, -33898.633289174235, 0.060408203125, 0.9650732421874999, 0.17057324218750003, 192.0, 0.0, 0.0, 0.0, 0.0, 0.0, 0.0, 0.0, 0.0, 0.0, 1.741982872953939E9, 0.0, 2025-03-14 15:07:52.953
182.0, -4603.207660103758, 1148.9243684916937, -26945.05029261712, -10127.754226655272, -22702.555084533105, -187500.02235174447, -27902.129638448914, -3658.824105122579, -7816.002704620684, -18017.920019378667, -75482.93626105026, 187500.0, -22507.804335094017, -187500.02235174447, -11224.733141032833, -33896.66633566217, 0.060408203125, 0.9650732421874999, 0.17057324218750003, 192.0, 0.0, 0.0, 0.0, 0.0, 0.0, 0.0, 0.0, 0.0, 0.0, 1.741982872953985E9, 0.0, 2025-03-14 15:07:52.953
184.0, -4622.094884168492, 1139.0672491869032, -26948.872440918978, -10132.76101741326, -22722.87282024298, -187500.02235174447, -27922.96146428126, -3664.0320615806654, -7821.657695967877, -18006.498277962004, -75509.37837474089, 187500.0, -22519.3154834885, -187500.02235174447, -11220.151033419495, -33895.39228622822, 0.060408203125, 0.9650732421874999, 0.17057324218750003, 192.0, 0.0, 0.0, 0.0, 0.0, 0.0, 0.0, 0.0, 0.0, 0.0, 1.741982872953997E9, 0.0, 2025-03-14 15:07:52.953
186.0, -4623.324230113534, 1135.4015630962328, -26974.71105750931, -10147.848444920593, -22746.811538554615, -187500.02235174447, -27937.937133066316, -3672.4810209847715, -7848.412734080879, -18044.071560391374, -75442.54665881953, 187500.0, -22533.642951684353, -187500.02235174447, -11251.622289612567, -33908.51276022348, 0.0572041015625, 0.9625366210937499, 0.17428662109375, 192.0, 0.5, 88.0, 15.0, 0.0, 2.5, 72.0, 0.0, 0.0, 0.0, 1.741982872954009E9, 0.0, 2025-03-14 15:07:52.954
188.0, -4621.446683579288, 1134.6192520402972, -26950.72763570877, -10142.662840206962, -22720.615294052994, -187500.02235174447, -27920.011034013158, -3664.5461517031376, -7840.79078922162, -18018.18824031213, -75488.1665692528, 187500.0, -22530.69252141625, -187500.02235174447, -11257.277280959759, -33903.84124563232, 0.0572041015625, 0.9625366210937499, 0.17428662109375, 192.0, 0.0, 0.0, 0.0, 0.0, 0.0, 0.0, 0.0, 0.0, 0.0, 1.74198287295402E9, 0.0, 2025-03-14 15:07:52.954
190.0, -4605.688703738297, 1151.427763870688, -26955.689722977844, -10130.347029012088, -22711.316968359588, -187500.02235174447, -27909.170437952333, -3657.594759177537, -7801.49642246919, -18021.920981636165, -75434.12005115987, 187500.0, -22509.905399072817, -187500.02235174447, -11236.288992916227, -33887.77034136896, 0.0572041015625, 0.9625366210937499, 0.17428662109375, 192.0, 0.0, 0.0, 0.0, 0.0, 0.0, 0.0, 0.0, 0.0, 0.0, 1.741982872954031E9, 0.0, 2025-03-14 15:07:52.954
192.0, -4606.67218049433, 1152.5677028379087, -26934.18734481184, -10127.888337122004, -22710.892285214937, -187500.02235174447, -27910.913874019847, -3656.946558588333, -7827.603259992989, -18001.066804059363, -75531.10427035145, 187500.0, -22518.063785799004, -187500.02235174447, -11236.311344660682, -33886.965678568566, 0.0572041015625, 0.9625366210937499, 0.17428662109375, 192.0, 0.0, 0.0, 0.0, 0.0, 0.0, 0.0, 0.0, 0.0, 0.0, 1.741982872954043E9, 0.0, 2025-03-14 15:07:52.954
194.0, -4606.962753172249, 1145.5045515900317, -26949.878269419467, -10142.081694851124, -22704.834962467547, -187500.02235174447, -27901.99552798218, -3647.0223840501767, -7801.094091068994, -18014.634312943737, -75436.86931572788, 187500.0, -22501.814067579995, -187500.02235174447, -11230.544594591212, -33895.01230657248, 0.0572041015625, 0.9625366210937499, 0.17428662109375, 192.0, 0.0, 0.0, 0.0, 0.0, 0.0, 0.0, 0.0, 0.0, 0.0, 1.741982872954054E9, 0.0, 2025-03-14 15:07:52.954
196.0, -4614.24942186468, 1140.4754090875876, -26947.844260674032, -10150.307136810678, -22711.607541037505, -187500.02235174447, -27915.406574655364, -3662.0427563241433, -7815.265097053659, -18018.456461245594, -75537.56392449903, 187500.0, -22518.421413710286, -187500.02235174447, -11241.765170307777, -33898.789751385426, 0.05460205078125, 0.964268310546875, 0.178143310546875, 192.0, 0.5, 80.0, 15.0, 24.0, 2.5, 88.0, 0.0, 0.0, 0.0, 1.741982873013825E9, 0.0, 2025-03-14 15:07:53.013
198.0, -4618.406846333367, 1142.040031199459, -26968.67608650638, -10152.542311256208, -22714.49091607224, -187500.02235174447, -27916.300644433577, -3675.7220239307912, -7836.8792339419415, -18017.160060067185, -75437.15988840579, 187500.0, -22512.54290491854, -187500.02235174447, -11254.170388480472, -33917.07347834986, 0.05460205078125, 0.964268310546875, 0.178143310546875, 192.0, 0.0, 0.0, 0.0, 0.0, 0.0, 0.0, 0.0, 0.0, 0.0, 1.741982873013844E9, 0.0, 2025-03-14 15:07:53.013
200.0, -4606.873346194428, 1151.8971505042496, -26940.22231581477, -10130.48113947882, -22710.73582300375, -187500.02235174447, -27905.504751861663, -3635.3547734445065, -7822.462358768268, -18002.787888382423, -75534.92641865331, 187500.0, -22517.370881720886, -187500.02235174447, -11247.7554378218, -33893.82766411635, 0.05460205078125, 0.964268310546875, 0.178143310546875, 192.0, 0.0, 0.0, 0.0, 0.0, 0.0, 0.0, 0.0, 0.0, 0.0, 1.741982873013867E9, 0.0, 2025-03-14 15:07:53.013
202.0, -4608.661485750853, 1142.7329352775737, -26963.803406215124, -10141.187625072913, -22721.889343486946, -187500.02235174447, -27907.024670484625, -3645.1001340270204, -7801.027035835628, -18009.8510396303, -75425.87225745586, 187500.0, -22516.70032938723, -187500.02235174447, -11239.328830162149, -33888.910280336175, 0.05460205078125, 0.964268310546875, 0.178143310546875, 192.0, 0.0, 0.0, 0.0, 0.0, 0.0, 0.0, 0.0, 0.0, 0.0, 1.741982873013879E9, 0.0, 2025-03-14 15:07:53.013
204.0, -4626.140549914903, 1132.719353761596, -26962.104673636517, -10152.184683344924, -22720.123555674978, -187500.02235174447, -27909.215141441244, -3658.15355278892, -7824.429312280335, -18013.98611235453, -75527.3268255385, 187500.0, -22540.88491688787, -187500.02235174447, -11254.952699536409, -33896.97926008455, 0.05460205078125, 0.964268310546875, 0.178143310546875, 192.0, 0.0, 0.0, 0.0, 0.0, 0.0, 0.0, 0.0, 0.0, 0.0, 1.741982873013907E9, 0.0, 2025-03-14 15:07:53.013
206.0, -4618.540956800099, 1144.2081504116238, -26963.579888770568, -10147.66963096495, -22714.423860838877, -187500.02235174447, -27907.248187929177, -3657.0583173106097, -7843.36123983398, -18018.836440901334, -75430.99080693613, 187500.0, -22538.02389359759, -187500.02235174447, -11247.867196544075, -33905.696440422114, 0.053301025390625006, 0.9641341552734375, 0.1790716552734375, 192.0, 0.5, 80.0, 15.0, 16.0, 2.5, 80.0, 0.0, 0.0, 0.0, 1.741982873013918E9, 0.0, 2025-03-14 15:07:53.013
208.0, -4618.384494588911, 1152.1430196932579, -26942.8598216605, -10136.896090137494, -22703.829133967058, -187500.02235174447, -27898.53100759161, -3649.6151864069925, -7831.02307689465, -17993.936597578122, -75527.17036332731, 187500.0, -22540.12495757639, -187500.02235174447, -11249.923557033964, -33892.620669915756, 0.053301025390625006, 0.9641341552734375, 0.1790716552734375, 192.0, 0.0, 0.0, 0.0, 0.0, 0.0, 0.0, 0.0, 0.0, 0.0, 1.74198287301393E9, 0.0, 2025-03-14 15:07:53.013
210.0, -4614.718808498241, 1144.6998887896407, -26955.779129955667, -10156.073886880147, -22696.654223996906, -187500.02235174447, -27897.86045525795, -3654.040831809143, -7832.766512962165, -18005.35833899478, -75429.13561214633, 187500.0, -22533.30767551752, -187500.02235174447, -11232.399789381003, -33894.40880947218, 0.053301025390625006, 0.9641341552734375, 0.1790716552734375, 192.0, 0.0, 0.0, 0.0, 0.0, 0.0, 0.0, 0.0, 0.0, 0.0, 1.741982873074057E9, 0.0, 2025-03-14 15:07:53.074
212.0, -4619.502081811676, 1144.5210748339982, -26951.554650253613, -10151.692944966906, -22699.939930431836, -187500.02235174447, -27906.868208273438, -3665.0378900811543, -7829.972544905251, -18015.684844933134, -75508.28313926258, 187500.0, -22520.79069862255, -187500.02235174447, -11243.665068586477, -33898.9015101077, 0.053301025390625006, 0.9641341552734375, 0.1790716552734375, 192.0, 0.0, 0.0, 0.0, 0.0, 0.0, 0.0, 0.0, 0.0, 0.0, 1.741982873074079E9, 0.0, 2025-03-14 15:07:53.074
214.0, -4621.267869623646, 1148.3879266247664, -26959.355409068517, -10142.81930241815, -22705.840790968035, -187500.02235174447, -27904.834199528006, -3658.824105122579, -7839.561443276578, -18005.671263417156, -75416.551580018, 187500.0, -22532.301847017032, -187500.02235174447, -11243.240385441826, -33903.64007993222, 0.053301025390625006, 0.9641341552734375, 0.1790716552734375, 192.0, 0.0, 0.0, 0.0, 0.0, 0.0, 0.0, 0.0, 0.0, 0.0, 1.741982873074091E9, 0.0, 2025-03-14 15:07:53.074
216.0, -4615.612878276454, 1155.3840226392774, -26949.43123453036, -10142.796950673694, -22696.11778212998, -187500.02235174447, -27889.456199342752, -3642.0602967810987, -7846.937518946829, -17998.451649958093, -75501.57761592598, 187500.0, -22534.73818716266, -187500.02235174447, -11250.080019245152, -33889.334963480826, 0.0556505126953125, 0.9660670776367187, 0.17953582763671874, 192.0, 0.5, 104.0, 15.0, 32.0, 2.5, 80.0, 0.0, 0.0, 0.0, 1.741982873074102E9, 0.0, 2025-03-14 15:07:53.074
218.0, -4607.253325850168, 1156.2557406730343, -26956.561441011603, -10148.541348998708, -22712.59101779354, -187500.02235174447, -27907.51640886264, -3650.375145718473, -7843.36123983398, -18004.643083172214, -75457.11999620438, 187500.0, -22536.302809274534, -187500.02235174447, -11233.629135326044, -33888.06091404687, 0.0556505126953125, 0.9660670776367187, 0.17953582763671874, 192.0, 0.0, 0.0, 0.0, 0.0, 0.0, 0.0, 0.0, 0.0, 0.0, 1.741982873074114E9, 0.0, 2025-03-14 15:07:53.074
220.0, -4616.998686432682, 1148.075002202392, -26968.13964463945, -10141.299383795189, -22728.505459845717, -187500.02235174447, -27919.22872295722, -3660.142858045442, -7843.204777622793, -18006.14065005072, -75495.47558968968, 187500.0, -22539.052073842537, -187500.02235174447, -11265.860350830597, -33899.90733860819, 0.0556505126953125, 0.9660670776367187, 0.17953582763671874, 192.0, 0.0, 0.0, 0.0, 0.0, 0.0, 0.0, 0.0, 0.0, 0.0, 1.741982873074125E9, 0.0, 2025-03-14 15:07:53.074
222.0, -4625.268831881146, 1140.2518916430345, -26971.939441196853, -10151.402372288987, -22725.35386387752, -187500.02235174447, -27922.559132881062, -3679.4547652548276, -7858.538074319134, -18011.482716975537, -75436.8022604945, 187500.0, -22561.582632253485, -187500.02235174447, -11269.503685176813, -33907.5516352119, 0.0556505126953125, 0.9660670776367187, 0.17953582763671874, 192.0, 0.0, 0.0, 0.0, 0.0, 0.0, 0.0, 0.0, 0.0, 0.0, 1.741982873074152E9, 0.0, 2025-03-14 15:07:53.074
224.0, -4626.453474337277, 1133.6357752842637, -26968.43021731737, -10148.541348998708, -22710.512305559198, -187500.02235174447, -27899.1345046919, -3652.0962300415317, -7867.098792445517, -18016.377749011248, -75464.78664455256, 187500.0, -22553.111321104923, -187500.02235174447, -11277.460906202901, -33907.730449167546, 0.0556505126953125, 0.9660670776367187, 0.17953582763671874, 192.0, 0.0, 0.0, 0.0, 0.0, 0.0, 0.0, 0.0, 0.0, 0.0, 1.741982873074167E9, 0.0, 2025-03-14 15:07:53.074
226.0, -4626.542881315098, 1125.2091676246127, -26953.834528188054, -10151.2459100778, -22695.603692007506, -187500.02235174447, -27882.46010332824, -3628.179863474353, -7859.946234219818, -18019.551696723902, -75470.24047019964, 187500.0, -22539.834384898473, -187500.02235174447, -11250.482350645347, -33888.82087335836, 0.05782525634765625, 0.9670335388183593, 0.18076791381835938, 192.0, 0.5, 112.0, 15.0, 32.0, 2.5, 88.0, 0.0, 0.0, 0.0, 1.741982873134369E9, 0.0, 2025-03-14 15:07:53.134
228.0, -4629.023924949637, 1130.4394758271546, -26962.641115503448, -10150.262433321766, -22702.53273278865, -187500.02235174447, -27884.382353351397, -3635.1983112333196, -7858.761591763687, -18007.906437862686, -75465.94893526423, 187500.0, -22539.74497792065, -187500.02235174447, -11249.901205289509, -33878.47201567555, 0.05782525634765625, 0.9670335388183593, 0.18076791381835938, 192.0, 0.0, 0.0, 0.0, 0.0, 0.0, 0.0, 0.0, 0.0, 0.0, 1.741982873134389E9, 0.0, 2025-03-14 15:07:53.134
230.0, -4641.5632535890645, 1120.5153012889984, -26965.34567658254, -10166.378041074044, -22713.373328849477, -187500.02235174447, -27900.296795403578, -3654.286700998152, -7879.2581414292035, -18019.976379868553, -75460.74097880613, 187500.0, -22552.150196093346, -187500.02235174447, -11251.152902979005, -33896.64398391771, 0.05782525634765625, 0.9670335388183593, 0.18076791381835938, 192.0, 0.0, 0.0, 0.0, 0.0, 0.0, 0.0, 0.0, 0.0, 0.0, 1.7419828731344E9, 0.0, 2025-03-14 15:07:53.134
232.0, -4625.648811536886, 1130.5735862938866, -26965.70330449382, -10158.264357836766, -22701.30338684361, -187500.02235174447, -27885.90227197436, -3651.313918985596, -7862.203760409804, -18020.266952546473, -75419.54671377501, 187500.0, -22544.014161111612, -187500.02235174447, -11261.70292636191, -33900.22026303056, 0.05782525634765625, 0.9670335388183593, 0.18076791381835938, 192.0, 0.0, 0.0, 0.0, 0.0, 0.0, 0.0, 0.0, 0.0, 0.0, 1.741982873134412E9, 0.0, 2025-03-14 15:07:53.134
234.0, -4633.6954395407965, 1124.8291879688727, -26963.602240515025, -10158.018488647758, -22711.898113715426, -187500.02235174447, -27896.966385479736, -3649.81635210709, -7863.1201819324715, -18015.41662399967, -75477.37067668089, 187500.0, -22534.537021462565, -187500.02235174447, -11251.935214034942, -33891.167806526166, 0.05782525634765625, 0.9670335388183593, 0.18076791381835938, 192.0, 0.0, 0.0, 0.0, 0.0, 0.0, 0.0, 0.0, 0.0, 0.0, 1.741982873134423E9, 0.0, 2025-03-14 15:07:53.134
236.0, -4622.318401613045, 1136.5191503189983, -26974.845167976044, -10158.107895625579, -22724.951532477324, -187500.02235174447, -27903.18017043831, -3650.2186835072857, -7889.1823159673595, -18018.09883333431, -75422.22892310965, 187500.0, -22559.28040257459, -187500.02235174447, -11271.492990433335, -33900.01909733046, 0.056912628173828125, 0.9695167694091796, 0.1783839569091797, 192.0, 0.5, 96.0, 15.0, 48.0, 2.5, 64.0, 0.0, 0.0, 0.0, 1.741982873134434E9, 0.0, 2025-03-14 15:07:53.134
238.0, -4621.357276601467, 1136.1838741521685, -26952.694589220835, -10148.228424576333, -22713.35097710502, -187500.02235174447, -27888.740943520184, -3645.882445082956, -7854.738277761731, -18009.71692916357, -75483.13742675036, 187500.0, -22546.003466368136, -187500.02235174447, -11263.491065918335, -33890.09492279231, 0.056912628173828125, 0.9695167694091796, 0.1783839569091797, 192.0, 0.0, 0.0, 0.0, 0.0, 0.0, 0.0, 0.0, 0.0, 0.0, 1.741982873134446E9, 0.0, 2025-03-14 15:07:53.134
240.0, -4624.978259203227, 1125.4103333247106, -26972.92291795289, -10154.509264768276, -22709.662939269896, -187500.02235174447, -27884.47176032922, -3645.4130584493946, -7860.885007486941, -17997.33406273533, -75421.51366728707, 187500.0, -22555.681771717285, -187500.02235174447, -11256.27145245927, -33888.95498382509, 0.056912628173828125, 0.9695167694091796, 0.1783839569091797, 192.0, 0.0, 0.0, 0.0, 0.0, 0.0, 0.0, 0.0, 0.0, 0.0, 1.74198287319512E9, 0.0, 2025-03-14 15:07:53.195
242.0, -4634.410695363366, 1121.1858536226575, -26961.6129352585, -10158.465523536865, -22711.96516894879, -187500.02235174447, -27896.161722679346, -3654.7784393761685, -7871.546789592122, -18015.081347832842, -75500.19180776976, 187500.0, -22553.737169949673, -187500.02235174447, -11262.194664739927, -33893.38062922724, 0.056912628173828125, 0.9695167694091796, 0.1783839569091797, 192.0, 0.0, 0.0, 0.0, 0.0, 0.0, 0.0, 0.0, 0.0, 0.0, 1.741982873195161E9, 0.0, 2025-03-14 15:07:53.195
244.0, -4631.0579336950705, 1126.8631967143056, -26975.023981931685, -10157.43734329192, -22708.50064855822, -187500.02235174447, -27897.05579245756, -3654.957253331811, -7877.984091995251, -18009.739280908023, -75403.40875427828, 187500.0, -22536.638085441362, -187500.02235174447, -11267.760249109298, -33898.16390254068, 0.056912628173828125, 0.9695167694091796, 0.1783839569091797, 192.0, 0.0, 0.0, 0.0, 0.0, 0.0, 0.0, 0.0, 0.0, 0.0, 1.741982873195173E9, 0.0, 2025-03-14 15:07:53.195
246.0, -4635.103599441481, 1116.2908215869454, -26959.981257913263, -10167.383869574533, -22702.219808366277, -187500.02235174447, -27894.507693589654, -3653.4149829643948, -7875.458344871801, -18020.17754556865, -75497.21902575721, 187500.0, -22548.953896636238, -187500.02235174447, -11271.068307288684, -33902.18721654263, 0.05645631408691407, 0.9707583847045897, 0.17719197845458984, 192.0, 0.5, 96.0, 15.0, 48.0, 2.5, 64.0, 0.0, 0.0, 0.0, 1.741982873195189E9, 0.0, 2025-03-14 15:07:53.195
248.0, -4628.442779593799, 1114.4132750526994, -26972.54293829715, -10171.071907409658, -22699.53759903164, -187500.02235174447, -27891.981946466203, -3650.8445323520345, -7869.311615146592, -18031.129900351752, -75400.16775133226, 187500.0, -22541.823690154994, -187500.02235174447, -11265.23450198585, -33906.322289266864, 0.05645631408691407, 0.9707583847045897, 0.17719197845458984, 192.0, 0.0, 0.0, 0.0, 0.0, 0.0, 0.0, 0.0, 0.0, 0.0, 1.741982873195201E9, 0.0, 2025-03-14 15:07:53.195
250.0, -4625.469997581244, 1120.7611704780068, -26956.315571822593, -10156.833846191626, -22709.50647705871, -187500.02235174447, -27907.04702222908, -3649.414020706895, -7875.726565805265, -18016.355397266794, -75516.1733050553, 187500.0, -22533.687655173264, -187500.02235174447, -11272.387060211548, -33898.789751385426, 0.05645631408691407, 0.9707583847045897, 0.17719197845458984, 192.0, 0.0, 0.0, 0.0, 0.0, 0.0, 0.0, 0.0, 0.0, 0.0, 1.741982873195212E9, 0.0, 2025-03-14 15:07:53.195
252.0, -4617.445721321788, 1133.2781473729788, -26975.493368565247, -10151.58118624463, -22742.251782685733, -187500.02235174447, -27917.01590025615, -3649.7045933848135, -7866.584702323044, -18009.202839041096, -75404.12401010084, 187500.0, -22550.36205653692, -187500.02235174447, -11283.361766739103, -33896.91220485118, 0.05645631408691407, 0.9707583847045897, 0.17719197845458984, 192.0, 0.0, 0.0, 0.0, 0.0, 0.0, 0.0, 0.0, 0.0, 0.0, 1.741982873195223E9, 0.0, 2025-03-14 15:07:53.195
254.0, -4612.058950908059, 1135.8709497297943, -26961.56823176959, -10151.737648455817, -22725.845602255537, -187500.02235174447, -27906.398821639876, -3653.9290730868665, -7879.2581414292035, -17999.41277496967, -75500.43767695877, 187500.0, -22567.66230674533, -187500.02235174447, -11301.354921025626, -33891.81600711537, 0.05645631408691407, 0.9707583847045897, 0.17719197845458984, 192.0, 0.0, 0.0, 0.0, 0.0, 0.0, 0.0, 0.0, 0.0, 0.0, 1.741982873195234E9, 0.0, 2025-03-14 15:07:53.195
0.0, -4606.2251456052245, 1134.9992316960374, -26959.310705579606, -10148.00490713178, -22722.090509187045, -187500.02235174447, -27907.04702222908, -3653.303224242118, -7855.542940562123, -18002.743184893512, -75435.79643199402, 187500.0, -22535.431091240775, -187500.02235174447, -11274.80104861272, -33884.55169016739, 0.05722815704345703, 0.9653791923522949, 0.1735959892272949, 192.0, 0.5, 104.0, 15.0, 0.0, 2.5, 40.0, 0.0, 0.0, 0.0, 1.741982873254946E9, 0.0, 2025-03-14 15:07:53.254
2.0, -4608.661485750853, 1133.4346095841659, -26948.22424032977, -10144.227462318833, -22722.20226790932, -187500.02235174447, -27905.415344883844, -3654.9349015873554, -7860.057992942095, -18004.486620961026, -75513.53579920958, 187500.0, -22532.815937139505, -187500.02235174447, -11283.89820860603, -33888.932632080636, 0.05722815704345703, 0.9653791923522949, 0.1735959892272949, 192.0, 0.0, 0.0, 0.0, 0.0, 0.0, 0.0, 0.0, 0.0, 0.0, 1.741982873254965E9, 0.0, 2025-03-14 15:07:53.254
4.0, -4613.556517786565, 1121.4540745561212, -26954.415673543892, -10148.00490713178, -22711.093450915036, -187500.02235174447, -27898.4863041027, -3643.334346215051, -7866.182370922848, -18011.70623442009, -75424.24058011062, 187500.0, -22527.22800102568, -187500.02235174447, -11264.049859529718, -33882.45062618859, 0.05722815704345703, 0.9653791923522949, 0.1735959892272949, 192.0, 0.0, 0.0, 0.0, 0.0, 0.0, 0.0, 0.0, 0.0, 0.0, 1.741982873254976E9, 0.0, 2025-03-14 15:07:53.254
6.0, -4618.697419011285, 1117.4978157875319, -26948.894792663432, -10153.168160100957, -22706.377232834966, -187500.02235174447, -27894.865321500936, -3642.306165970107, -7865.243597655725, -18003.860772116277, -75501.33174673698, 187500.0, -22529.64198942685, -187500.02235174447, -11274.175199767971, -33884.64109714521, 0.05722815704345703, 0.9653791923522949, 0.1735959892272949, 192.0, 0.0, 0.0, 0.0, 0.0, 0.0, 0.0, 0.0, 0.0, 0.0, 1.741982873254988E9, 0.0, 2025-03-14 15:07:53.254
8.0, -4612.885965452906, 1119.5094727885096, -26962.752874225724, -10151.178854844435, -22709.238256125245, -187500.02235174447, -27897.05579245756, -3646.441238694339, -7880.353376907513, -18026.726606694057, -75430.16379239128, 187500.0, -22550.473815259196, -187500.02235174447, -11274.08579279015, -33895.39228622822, 0.05722815704345703, 0.9653791923522949, 0.1735959892272949, 192.0, 0.0, 0.0, 0.0, 0.0, 0.0, 0.0, 0.0, 0.0, 0.0, 1.741982873255014E9, 0.0, 2025-03-14 15:07:53.255
10.0, -4608.907354939861, 1131.8699874722943, -26965.792711471644, -10144.160407085468, -22744.03992224216, -187500.02235174447, -27915.540685122098, -3649.9504625738223, -7866.361184878491, -18004.732490150036, -75489.48532217566, 187500.0, -22537.04041684156, -187500.02235174447, -11285.820458629187, -33889.89375709221, 0.05661407852172852, 0.9686895961761475, 0.16879799461364747, 192.0, 0.5, 96.0, 15.0, 48.0, 2.5, 16.0, 0.0, 0.0, 0.0, 1.741982873255025E9, 0.0, 2025-03-14 15:07:53.255
12.0, -4603.252363592668, 1135.043935184948, -26972.252365619228, -10140.964107628359, -22771.063181288624, -187500.02235174447, -27926.738909094205, -3647.8717503394787, -7875.2124756827925, -17991.18733301012, -75421.44661205371, 187500.0, -22558.98982989667, -187500.02235174447, -11304.484165249369, -33892.57596642685, 0.05661407852172852, 0.9686895961761475, 0.16879799461364747, 192.0, 0.0, 0.0, 0.0, 0.0, 0.0, 0.0, 0.0, 0.0, 0.0, 1.741982873255053E9, 0.0, 2025-03-14 15:07:53.255
14.0, -4597.798537945573, 1137.8602549863167, -26955.019170644187, -10143.758075685273, -22736.373273893987, -187500.02235174447, -27906.935263506803, -3637.4558374233056, -7868.395193623924, -17995.188295267617, -75460.65157182832, 187500.0, -22560.66621073082, -187500.02235174447, -11308.395720529046, -33888.97733556954, 0.05661407852172852, 0.9686895961761475, 0.16879799461364747, 192.0, 0.0, 0.0, 0.0, 0.0, 0.0, 0.0, 0.0, 0.0, 0.0, 1.741982873314214E9, 0.0, 2025-03-14 15:07:53.314
16.0, -4594.848107677473, 1143.7611155225177, -26959.75774046871, -10150.754171699784, -22739.793090795647, -187500.02235174447, -27913.2384554432, -3656.6783376548697, -7872.932597748351, -18001.6479494152, -75432.84600172592, 187500.0, -22556.46408277322, -187500.02235174447, -11294.76115641131, -33898.365068240775, 0.05661407852172852, 0.9686895961761475, 0.16879799461364747, 192.0, 0.0, 0.0, 0.0, 0.0, 0.0, 0.0, 0.0, 0.0, 0.0, 1.74198287331424E9, 0.0, 2025-03-14 15:07:53.314
18.0, -4584.253380805657, 1157.820362784906, -26946.48080426226, -10139.690058194406, -22727.946666234337, -187500.02235174447, -27909.2374931857, -3650.9339393298555, -7854.335946361536, -17985.375879451738, -75466.44067364224, 187500.0, -22528.502050459632, -187500.02235174447, -11291.207229042915, -33887.36800996876, 0.05661407852172852, 0.9686895961761475, 0.16879799461364747, 192.0, 0.0, 0.0, 0.0, 0.0, 0.0, 0.0, 0.0, 0.0, 0.0, 1.741982873314251E9, 0.0, 2025-03-14 15:07:53.314
20.0, -4604.9957996601825, 1139.8272084983837, -26966.642077760946, -10157.683212480928, -22733.40049188143, -187500.02235174447, -27917.32882467852, -3668.681224427369, -7857.286376629637, -17998.80927786938, -75466.61948759788, 187500.0, -22538.716797675705, -187500.02235174447, -11287.496839463334, -33900.42142873066, 0.05530703926086426, 0.9693447980880737, 0.16639899730682373, 192.0, 0.5, 88.0, 15.0, 40.0, 2.5, 16.0, 0.0, 0.0, 0.0, 1.741982873314262E9, 0.0, 2025-03-14 15:07:53.314
22.0, -4597.709130967753, 1150.1090109478248, -26963.266964348193, -10135.286764536711, -22721.621122553483, -187500.02235174447, -27907.71757456274, -3661.0369278236544, -7857.532245818645, -18012.600304198302, -75446.72643503266, 187500.0, -22536.548678463543, -187500.02235174447, -11293.37534825508, -33891.97246932655, 0.05530703926086426, 0.9693447980880737, 0.16639899730682373, 192.0, 0.0, 0.0, 0.0, 0.0, 0.0, 0.0, 0.0, 0.0, 0.0, 1.741982873314274E9, 0.0, 2025-03-14 15:07:53.314
24.0, -4600.994837402683, 1153.6405865717634, -26953.208679343308, -10128.849462133583, -22733.892230259447, -187500.02235174447, -27915.317167677542, -3661.7745353906794, -7868.641062812932, -17989.13097252023, -75463.26672592958, 187500.0, -22535.699312174238, -187500.02235174447, -11277.32679573617, -33878.27084997545, 0.05530703926086426, 0.9693447980880737, 0.16639899730682373, 192.0, 0.0, 0.0, 0.0, 0.0, 0.0, 0.0, 0.0, 0.0, 0.0, 1.741982873314285E9, 0.0, 2025-03-14 15:07:53.314
26.0, -4589.1484128413695, 1157.6415488292635, -26938.076548347064, -10137.253718048778, -22723.54337257664, -187500.02235174447, -27909.975100752727, -3660.232265023263, -7861.689670287332, -17994.6965568896, -75434.41062383779, 187500.0, -22546.45050125724, -187500.02235174447, -11280.053708559717, -33877.801463341886, 0.05530703926086426, 0.9693447980880737, 0.16639899730682373, 192.0, 0.0, 0.0, 0.0, 0.0, 0.0, 0.0, 0.0, 0.0, 0.0, 1.741982873314297E9, 0.0, 2025-03-14 15:07:53.314
28.0, -4592.367064042934, 1153.618234827308, -26927.750042408712, -10135.353819770076, -22708.791221236137, -187500.02235174447, -27902.889597760393, -3666.8036778931237, -7838.689725242821, -17997.93755983562, -75447.1064146884, 187500.0, -22517.25912299861, -187500.02235174447, -11259.266586216281, -33883.59056515581, 0.05530703926086426, 0.9693447980880737, 0.16639899730682373, 192.0, 0.0, 0.0, 0.0, 0.0, 0.0, 0.0, 0.0, 0.0, 0.0, 1.741982873314308E9, 0.0, 2025-03-14 15:07:53.314
30.0, -4583.135793582892, 1166.0905082333695, -26943.217449571785, -10135.554985470175, -22710.93698870385, -187500.02235174447, -27892.585443566495, -3658.980567333766, -7848.882120714441, -17994.383632467227, -75394.13278032932, 187500.0, -22514.4651549417, -187500.02235174447, -11256.785542581743, -33874.582812140325, 0.053653519630432134, 0.9706723990440369, 0.16219949865341188, 192.0, 0.5, 80.0, 15.0, 48.0, 2.0, 120.0, 0.0, 0.0, 0.0, 1.741982873374046E9, 0.0, 2025-03-14 15:07:53.374
32.0, -4585.52743023961, 1165.1517349662465, -26933.337978522537, -10134.951488369881, -22720.682349286362, -187500.02235174447, -27896.072315701524, -3657.237131266252, -7843.964736934274, -17989.578007409335, -75474.4649499017, 187500.0, -22518.75668987712, -187500.02235174447, -11249.99061226733, -33865.53035563593, 0.053653519630432134, 0.9706723990440369, 0.16219949865341188, 192.0, 0.0, 0.0, 0.0, 0.0, 0.0, 0.0, 0.0, 0.0, 0.0, 1.741982873374066E9, 0.0, 2025-03-14 15:07:53.374
34.0, -4581.325302282012, 1161.8883802757716, -26930.32049302107, -10120.422854473933, -22708.902979958413, -187500.02235174447, -27881.40957133884, -3648.5199509286826, -7855.02885043965, -17998.205780769084, -75384.85680638037, 187500.0, -22534.246448784645, -187500.02235174447, -11248.224824455361, -33860.970599767046, 0.053653519630432134, 0.9706723990440369, 0.16219949865341188, 192.0, 0.0, 0.0, 0.0, 0.0, 0.0, 0.0, 0.0, 0.0, 0.0, 1.741982873374094E9, 0.0, 2025-03-14 15:07:53.374
36.0, -4579.045424347571, 1157.0156999845149, -26915.769507380668, -10127.91068886646, -22708.388889835944, -187500.02235174447, -27873.18412937929, -3634.728924599758, -7835.962812419273, -18004.821897127855, -75467.13357772036, 187500.0, -22528.680864415273, -187500.02235174447, -11233.249155670304, -33848.49832636098, 0.053653519630432134, 0.9706723990440369, 0.16219949865341188, 192.0, 0.0, 0.0, 0.0, 0.0, 0.0, 0.0, 0.0, 0.0, 0.0, 1.741982873374106E9, 0.0, 2025-03-14 15:07:53.374
38.0, -4584.856877905951, 1150.332528392378, -26945.609086228502, -10134.795026158694, -22717.463698084797, -187500.02235174447, -27871.016010167124, -3635.2877182111406, -7846.557539291089, -17994.048356300398, -75381.32523075644, 187500.0, -22531.854812127927, -187500.02235174447, -11230.946925991408, -33850.532335106414, 0.053653519630432134, 0.9706723990440369, 0.16219949865341188, 192.0, 0.0, 0.0, 0.0, 0.0, 0.0, 0.0, 0.0, 0.0, 0.0, 1.741982873374117E9, 0.0, 2025-03-14 15:07:53.374
40.0, -4592.210601831746, 1143.1129149333137, -26924.397280740417, -10142.796950673694, -22710.78052649266, -187500.02235174447, -27874.05584741305, -3637.120561256476, -7872.08323145905, -18012.868525131766, -75461.27742067307, 187500.0, -22544.617658211908, -187500.02235174447, -11239.060609228685, -33857.37196890974, 0.05282675981521607, 0.9733361995220184, 0.16409974932670596, 192.0, 0.5, 80.0, 15.0, 64.0, 2.5, 24.0, 0.0, 0.0, 0.0, 1.741982873374128E9, 0.0, 2025-03-14 15:07:53.374
42.0, -4581.124136581914, 1146.8680080018055, -26937.830679158054, -10145.322697797144, -22703.180933377855, -187500.02235174447, -27855.28038207059, -3629.856244308501, -7866.808219767598, -18019.9540281241, -75359.42052119023, 187500.0, -22525.819841124994, -187500.02235174447, -11234.657315570988, -33856.32143692034, 0.05282675981521607, 0.9733361995220184, 0.16409974932670596, 192.0, 0.0, 0.0, 0.0, 0.0, 0.0, 0.0, 0.0, 0.0, 0.0, 1.741982873374139E9, 0.0, 2025-03-14 15:07:53.374
44.0, -4592.411767531845, 1140.9000922322384, -26928.71116742029, -10143.86983440755, -22720.011796952702, -187500.02235174447, -27870.12194038891, -3630.951479786811, -7850.670260270866, -18005.8500773728, -75483.98679303966, 187500.0, -22538.381521508876, -187500.02235174447, -11228.287068401227, -33849.638265328205, 0.05282675981521607, 0.9733361995220184, 0.16409974932670596, 192.0, 0.0, 0.0, 0.0, 0.0, 0.0, 0.0, 0.0, 0.0, 0.0, 1.741982873434455E9, 0.0, 2025-03-14 15:07:53.434
46.0, -4598.759662957152, 1134.6192520402972, -26973.258194119717, -10157.146770614001, -22733.668712814895, -187500.02235174447, -27875.70987650274, -3636.5170641561826, -7881.672129830376, -18022.747996181013, -75344.64601810528, 187500.0, -22566.522367778107, -187500.02235174447, -11244.089751731128, -33867.720826592544, 0.05282675981521607, 0.9733361995220184, 0.16409974932670596, 192.0, 0.0, 0.0, 0.0, 0.0, 0.0, 0.0, 0.0, 0.0, 0.0, 1.741982873434481E9, 0.0, 2025-03-14 15:07:53.434
48.0, -4606.895697938883, 1128.2266531260793, -26968.7654934842, -10161.505360782787, -22724.795070266136, -187500.02235174447, -27874.83815846898, -3635.801808333613, -7870.9879959807395, -18011.52742046445, -75450.61563856789, 187500.0, -22560.912079919824, -187500.02235174447, -11263.066382773684, -33862.490518390005, 0.05282675981521607, 0.9733361995220184, 0.16409974932670596, 192.0, 0.0, 0.0, 0.0, 0.0, 0.0, 0.0, 0.0, 0.0, 0.0, 1.741982873434493E9, 0.0, 2025-03-14 15:07:53.434
50.0, -4618.384494588911, 1113.9438884191381, -26999.05210722114, -10176.145753401011, -22729.488936601752, -187500.02235174447, -27884.449408584765, -3642.9990700482217, -7881.18039145236, -18026.838365416334, -75361.92391656923, 187500.0, -22551.680809459784, -187500.02235174447, -11267.760249109298, -33874.35929469577, 0.055413379907608036, 0.9676680997610092, 0.16504987466335297, 192.0, 0.5, 104.0, 15.0, 8.0, 2.5, 24.0, 0.0, 0.0, 0.0, 1.741982873434504E9, 0.0, 2025-03-14 15:07:53.434
52.0, -4616.216375376746, 1115.106179130814, -26991.58662457307, -10176.659843523485, -22729.332474390565, -187500.02235174447, -27887.19867315277, -3654.8678463539895, -7883.79554555363, -18028.313580550384, -75456.69531305972, 187500.0, -22569.785722468583, -187500.02235174447, -11296.28107503427, -33883.52350992245, 0.055413379907608036, 0.9676680997610092, 0.16504987466335297, 192.0, 0.0, 0.0, 0.0, 0.0, 0.0, 0.0, 0.0, 0.0, 0.0, 1.74198287343453E9, 0.0, 2025-03-14 15:07:53.434
54.0, -4614.0929596534925, 1120.9846879225597, -26998.515665354214, -10174.223503377856, -22720.749404519727, -187500.02235174447, -27878.57089979302, -3653.0350033086543, -7892.356263680013, -18018.925847879156, -75377.57013768794, 187500.0, -22557.51461476262, -187500.02235174447, -11286.066327818195, -33891.32426873735, 0.055413379907608036, 0.9676680997610092, 0.16504987466335297, 192.0, 0.0, 0.0, 0.0, 0.0, 0.0, 0.0, 0.0, 0.0, 0.0, 1.741982873434541E9, 0.0, 2025-03-14 15:07:53.434
56.0, -4627.906337726872, 1106.590164493342, -26983.115313424507, -10170.177837631445, -22719.385948107953, -187500.02235174447, -27881.454274827753, -3646.1283142719644, -7878.989920495739, -18020.84809790231, -75461.23271718416, 187500.0, -22557.17933859579, -187500.02235174447, -11289.620255186588, -33877.6450011307, 0.055413379907608036, 0.9676680997610092, 0.16504987466335297, 192.0, 0.0, 0.0, 0.0, 0.0, 0.0, 0.0, 0.0, 0.0, 0.0, 1.741982873434556E9, 0.0, 2025-03-14 15:07:53.434
58.0, -4637.092904698004, 1089.2452107960237, -26993.933557740875, -10176.123401656558, -22721.77758476467, -187500.02235174447, -27876.358077091943, -3640.8309508360567, -7902.414548684901, -18043.646877246723, -75369.7917306175, 187500.0, -22552.820748427006, -187500.02235174447, -11280.098412048628, -33886.250422745994, 0.055413379907608036, 0.9676680997610092, 0.16504987466335297, 192.0, 0.0, 0.0, 0.0, 0.0, 0.0, 0.0, 0.0, 0.0, 0.0, 1.741982873434567E9, 0.0, 2025-03-14 15:07:53.434
60.0, -4617.021038177138, 1104.042065625437, -26967.7149614948, -10163.62877650604, -22717.73191901826, -187500.02235174447, -27877.296850359067, -3641.8367793365455, -7888.5117636337, -18031.71104570759, -75436.46698432768, 187500.0, -22559.258050830133, -187500.02235174447, -11283.004138827819, -33872.45939641707, 0.06170668995380402, 0.9658340498805046, 0.1655249373316765, 192.0, 1.0, 16.0, 15.0, 16.0, 2.5, 24.0, 0.0, 0.0, 0.0, 1.741982873494678E9, 0.0, 2025-03-14 15:07:53.494
62.0, -4609.15322412887, 1109.942926161638, -26953.543955510137, -10165.081639895636, -22717.240180640245, -187500.02235174447, -27885.969327207724, -3646.083610783054, -7869.356318635502, -18024.625542715257, -75387.06962908145, 187500.0, -22538.917963375803, -187500.02235174447, -11270.643624144033, -33879.70136162059, 0.06170668995380402, 0.9658340498805046, 0.1655249373316765, 192.0, 0.0, 0.0, 0.0, 0.0, 0.0, 0.0, 0.0, 0.0, 0.0, 1.741982873494701E9, 0.0, 2025-03-14 15:07:53.494
64.0, -4609.466148551243, 1112.6251354962749, -26959.400112557425, -10170.691927753918, -22718.35776786301, -187500.02235174447, -27885.74580976317, -3648.855227095512, -7884.443746142834, -18020.669283946667, -75434.47767907116, 187500.0, -22539.588515709464, -187500.02235174447, -11291.274284276282, -33885.423408201146, 0.06170668995380402, 0.9658340498805046, 0.1655249373316765, 192.0, 0.0, 0.0, 0.0, 0.0, 0.0, 0.0, 0.0, 0.0, 0.0, 1.741982873494712E9, 0.0, 2025-03-14 15:07:53.494
66.0, -4620.351448100978, 1095.7272166880628, -26973.749932497733, -10177.688023768429, -22733.93693374836, -187500.02235174447, -27897.122847690924, -3656.7677446326907, -7875.279530916158, -18026.637199716235, -75399.4971989986, 187500.0, -22536.436919741263, -187500.02235174447, -11287.89917086353, -33899.16973104116, 0.06170668995380402, 0.9658340498805046, 0.1655249373316765, 192.0, 0.0, 0.0, 0.0, 0.0, 0.0, 0.0, 0.0, 0.0, 0.0, 1.741982873494724E9, 0.0, 2025-03-14 15:07:53.494
68.0, -4611.321343341034, 1108.0206761384818, -26969.793673729146, -10166.959186429882, -22741.000084996234, -187500.02235174447, -27904.834199528006, -3653.6161486644924, -7878.878161773463, -18019.216420557073, -75398.64783270929, 187500.0, -22552.12784434889, -187500.02235174447, -11303.970075126896, -33891.90541409319, 0.06170668995380402, 0.9658340498805046, 0.1655249373316765, 192.0, 0.0, 0.0, 0.0, 0.0, 0.0, 0.0, 0.0, 0.0, 0.0, 1.741982873494735E9, 0.0, 2025-03-14 15:07:53.494
70.0, -4603.520584526132, 1114.7261994750738, -26962.43994980335, -10168.63556726403, -22740.35188440703, -187500.02235174447, -27909.773935052628, -3658.7346981447577, -7881.806240297108, -18015.46132748858, -75385.84028313641, 187500.0, -22545.89170764586, -187500.02235174447, -11299.075043091183, -33895.638155417226, 0.06285334497690201, 0.9629170249402523, 0.16576246866583827, 192.0, 1.0, 0.0, 15.0, 0.0, 2.5, 24.0, 0.0, 0.0, 0.0, 1.741982873494746E9, 0.0, 2025-03-14 15:07:53.494
72.0, -4611.72367474123, 1106.07607437087, -26976.096865665542, -10174.737593500327, -22743.704646075326, -187500.02235174447, -27913.372565909933, -3662.1992185353306, -7867.635234312444, -18009.51576346347, -75389.3495070159, 187500.0, -22548.97624838069, -187500.02235174447, -11308.328665295681, -33895.973431584054, 0.06285334497690201, 0.9629170249402523, 0.16576246866583827, 192.0, 0.0, 0.0, 0.0, 0.0, 0.0, 0.0, 0.0, 0.0, 0.0, 1.741982873494757E9, 0.0, 2025-03-14 15:07:53.494
74.0, -4620.887889967906, 1093.1567660757025, -26983.76351401371, -10180.660805780984, -22754.70170434734, -187500.02235174447, -27917.887618289904, -3662.847419124534, -7890.009330512206, -18040.94231616763, -75399.07251585394, 187500.0, -22553.021914127105, -187500.02235174447, -11314.207174087427, -33909.42918174615, 0.06285334497690201, 0.9629170249402523, 0.16576246866583827, 192.0, 0.0, 0.0, 0.0, 0.0, 0.0, 0.0, 0.0, 0.0, 0.0, 1.741982873554868E9, 0.0, 2025-03-14 15:07:53.554
76.0, -4614.584698031509, 1103.237402825046, -26988.412676860415, -10175.430497578442, -22745.090454231555, -187500.02235174447, -27906.689394317797, -3651.448029452328, -7881.247446685726, -18009.985150097033, -75372.56334692995, 187500.0, -22548.640972213863, -187500.02235174447, -11324.399569559047, -33899.9520420971, 0.06285334497690201, 0.9629170249402523, 0.16576246866583827, 192.0, 0.0, 0.0, 0.0, 0.0, 0.0, 0.0, 0.0, 0.0, 0.0, 1.74198287355489E9, 0.0, 2025-03-14 15:07:53.554
78.0, -4617.356314343967, 1102.8797749137611, -26975.694534265345, -10177.531561557242, -22747.1691664659, -187500.02235174447, -27917.418231656342, -3661.662776668403, -7884.399042653924, -18014.47785073255, -75410.53896075953, 187500.0, -22562.74492296516, -187500.02235174447, -11316.19647934395, -33899.63911767473, 0.06285334497690201, 0.9629170249402523, 0.16576246866583827, 192.0, 0.0, 0.0, 0.0, 0.0, 0.0, 0.0, 0.0, 0.0, 0.0, 1.741982873554916E9, 0.0, 2025-03-14 15:07:53.554
80.0, -4604.749930471174, 1111.9769349070712, -26978.6673162779, -10185.868762239072, -22737.960247750314, -187500.02235174447, -27911.025632742123, -3658.6899946558474, -7886.120126976983, -18010.253371030496, -75354.25726822106, 187500.0, -22552.351361793444, -187500.02235174447, -11323.81842420321, -33902.18721654263, 0.06642667248845101, 0.9654585124701262, 0.16588123433291913, 192.0, 1.0, 24.0, 15.0, 32.0, 2.5, 24.0, 0.0, 0.0, 0.0, 1.741982873554927E9, 0.0, 2025-03-14 15:07:53.554
82.0, -4612.5059857971655, 1096.755396933007, -26975.58277554307, -10197.290503655733, -22763.150663751443, -187500.02235174447, -27942.72040637975, -3688.440166525861, -7876.687690816843, -18012.33208326484, -75427.19101037872, 187500.0, -22556.911117662326, -187500.02235174447, -11321.24797359085, -33913.54190272593, 0.06642667248845101, 0.9654585124701262, 0.16588123433291913, 192.0, 0.0, 0.0, 0.0, 0.0, 0.0, 0.0, 0.0, 0.0, 0.0, 1.741982873554938E9, 0.0, 2025-03-14 15:07:53.554
84.0, -4597.284447823101, 1111.2169755955906, -26975.694534265345, -10187.88041924005, -22755.841643314558, -187500.02235174447, -27929.510525406662, -3685.4897362577603, -7890.009330512206, -18020.870449646765, -75325.55762834044, 187500.0, -22546.852832657438, -187500.02235174447, -11334.033171419283, -33930.61863548978, 0.06642667248845101, 0.9654585124701262, 0.16588123433291913, 192.0, 0.0, 0.0, 0.0, 0.0, 0.0, 0.0, 0.0, 0.0, 0.0, 1.74198287355495E9, 0.0, 2025-03-14 15:07:53.554
86.0, -4596.412729789345, 1115.8884901867498, -26947.79955718512, -10166.534503285231, -22742.16237570791, -187500.02235174447, -27917.61939735644, -3660.545189445638, -7852.2572341271925, -18001.200914526096, -75407.02973688004, 187500.0, -22531.430128983277, -187500.02235174447, -11309.781528685276, -33903.37185899876, 0.06642667248845101, 0.9654585124701262, 0.16588123433291913, 192.0, 0.0, 0.0, 0.0, 0.0, 0.0, 0.0, 0.0, 0.0, 0.0, 1.741982873554961E9, 0.0, 2025-03-14 15:07:53.554
88.0, -4596.122157111426, 1111.3734378067777, -26971.53710979666, -10174.514076055775, -22743.682294330873, -187500.02235174447, -27909.52806586362, -3658.7346981447577, -7873.267873915181, -18013.963760610077, -75318.1815526702, 187500.0, -22551.479643759685, -187500.02235174447, -11312.083758364173, -33903.41656248767, 0.06642667248845101, 0.9654585124701262, 0.16588123433291913, 192.0, 0.0, 0.0, 0.0, 0.0, 0.0, 0.0, 0.0, 0.0, 0.0, 1.741982873554972E9, 0.0, 2025-03-14 15:07:53.554
90.0, -4600.972485658227, 1110.881699428761, -26951.77816769817, -10175.00581443379, -22743.436425141863, -187500.02235174447, -27917.2394177007, -3666.5801604485705, -7864.036603455139, -18014.209629799083, -75431.32608310296, 187500.0, -22525.059881813515, -187500.02235174447, -11305.646455961045, -33892.218338515566, 0.06721333624422551, 0.9627292562350631, 0.16694061716645958, 192.0, 1.0, 16.0, 15.0, 0.0, 2.5, 32.0, 0.0, 0.0, 0.0, 1.741982873615763E9, 0.0, 2025-03-14 15:07:53.615
92.0, -4594.021093132626, 1117.0507808984257, -26967.267926605695, -10172.815343477172, -22756.10986424802, -187500.02235174447, -27930.38224344042, -3675.2302855527746, -7876.46417337229, -18017.070653089366, -75322.94247423917, 187500.0, -22543.74594017815, -187500.02235174447, -11314.654208976533, -33907.61869044527, 0.06721333624422551, 0.9627292562350631, 0.16694061716645958, 192.0, 0.0, 0.0, 0.0, 0.0, 0.0, 0.0, 0.0, 0.0, 0.0, 1.741982873615788E9, 0.0, 2025-03-14 15:07:53.615
94.0, -4587.941418640783, 1133.6134235398083, -26953.678065976866, -10166.892131196515, -22750.16430022291, -187500.02235174447, -27935.456089431776, -3678.6501024544364, -7858.493370830223, -17987.588702152814, -75408.549655503, 187500.0, -22531.49718421664, -187500.02235174447, -11329.607526017133, -33907.66339393418, 0.06721333624422551, 0.9627292562350631, 0.16694061716645958, 192.0, 0.0, 0.0, 0.0, 0.0, 0.0, 0.0, 0.0, 0.0, 0.0, 1.7419828736158E9, 0.0, 2025-03-14 15:07:53.615
96.0, -4597.664427478841, 1116.0673041423922, -26972.945269697342, -10182.136020915035, -22747.638553099463, -187500.02235174447, -27941.401653456887, -3687.9931316367547, -7868.663414557388, -17988.728641120033, -75322.20486667215, 187500.0, -22542.069559344003, -187500.02235174447, -11331.485072551379, -33913.09486783682, 0.06721333624422551, 0.9627292562350631, 0.16694061716645958, 192.0, 0.0, 0.0, 0.0, 0.0, 0.0, 0.0, 0.0, 0.0, 0.0, 1.74198287361583E9, 0.0, 2025-03-14 15:07:53.615
98.0, -4584.2757325501125, 1123.4433798126436, -26940.691702448334, -10170.446058564909, -22732.282904658667, -187500.02235174447, -27929.19760098429, -3684.372149034995, -7847.809236980586, -17999.502181947493, -75412.43885903822, 187500.0, -22522.802355623528, -187500.02235174447, -11332.289735351771, -33909.540940468425, 0.06721333624422551, 0.9627292562350631, 0.16694061716645958, 192.0, 0.0, 0.0, 0.0, 0.0, 0.0, 0.0, 0.0, 0.0, 0.0, 1.741982873615846E9, 0.0, 2025-03-14 15:07:53.615
100.0, -4591.227125075713, 1113.139225618747, -26956.650847989426, -10176.570436545664, -22733.467547114797, -187500.02235174447, -27926.828316072028, -3682.1369745894644, -7850.782018993142, -18006.922961106655, -75318.1815526702, 187500.0, -22512.1629252628, -187500.02235174447, -11314.028360131784, -33908.222187545565, 0.06460666812211276, 0.9643646281175315, 0.1684703085832298, 192.0, 0.5, 120.0, 15.0, 24.0, 2.5, 40.0, 0.0, 0.0, 0.0, 1.741982873615857E9, 0.0, 2025-03-14 15:07:53.615
102.0, -4600.1231193689255, 1109.7194087170851, -26946.279638562162, -10171.429535320942, -22730.852393013527, -187500.02235174447, -27916.926493278326, -3669.9105703724113, -7859.096867930516, -17996.03766155692, -75408.37084154735, 187500.0, -22520.83540211146, -187500.02235174447, -11321.449139290946, -33900.82376013086, 0.06460666812211276, 0.9643646281175315, 0.1684703085832298, 192.0, 0.0, 0.0, 0.0, 0.0, 0.0, 0.0, 0.0, 0.0, 0.0, 1.741982873615869E9, 0.0, 2025-03-14 15:07:53.615
104.0, -4602.62651474792, 1103.7067894586075, -26961.948211425333, -10169.015546919769, -22737.60261983903, -187500.02235174447, -27909.505714119165, -3656.700689399325, -7873.536094848645, -18006.81120238438, -75321.71312829413, 187500.0, -22518.846096854937, -187500.02235174447, -11306.071139105696, -33893.82766411635, 0.06460666812211276, 0.9643646281175315, 0.1684703085832298, 192.0, 0.0, 0.0, 0.0, 0.0, 0.0, 0.0, 0.0, 0.0, 0.0, 1.741982873675452E9, 0.0, 2025-03-14 15:07:53.675
106.0, -4590.735386697696, 1118.8165687103951, -26944.692664705835, -10153.749305456795, -22744.375198408987, -187500.02235174447, -27903.962481494247, -3651.448029452328, -7864.282472644148, -17992.953120822087, -75398.46901875366, 187500.0, -22532.346550505943, -187500.02235174447, -11319.951572412441, -33886.33982972382, 0.06460666812211276, 0.9643646281175315, 0.1684703085832298, 192.0, 0.0, 0.0, 0.0, 0.0, 0.0, 0.0, 0.0, 0.0, 0.0, 1.741982873675478E9, 0.0, 2025-03-14 15:07:53.675
108.0, -4600.570154258032, 1107.528937760465, -26963.46813004829, -10168.143828886012, -22746.78918681016, -187500.02235174447, -27905.0353652281, -3647.9835090617553, -7869.5574843356, -17985.934673063122, -75327.74809929707, 187500.0, -22529.910210360315, -187500.02235174447, -11299.790298913753, -33879.053161031385, 0.06460666812211276, 0.9643646281175315, 0.1684703085832298, 192.0, 0.0, 0.0, 0.0, 0.0, 0.0, 0.0, 0.0, 0.0, 0.0, 1.741982873675489E9, 0.0, 2025-03-14 15:07:53.675
110.0, -4583.024034860616, 1115.9331936756605, -26928.264132531185, -10160.991270660314, -22712.076927671067, -187500.02235174447, -27872.62533576791, -3630.0574100085987, -7868.752821535209, -18008.532286707436, -75395.36212627437, 187500.0, -22533.79941389554, -187500.02235174447, -11300.170278569494, -33871.49827140549, 0.06330333406105637, 0.9691823140587658, 0.1702351542916149, 192.0, 0.5, 120.0, 15.0, 56.0, 2.5, 48.0, 0.0, 0.0, 0.0, 1.741982873675501E9, 0.0, 2025-03-14 15:07:53.675
112.0, -4599.944305413283, 1093.0226556089706, -26948.29129556314, -10179.856142980594, -22719.11772717449, -187500.02235174447, -27884.069428929026, -3650.375145718473, -7869.378670379958, -18002.07263255985, -75334.94536101168, 187500.0, -22515.60509390892, -187500.02235174447, -11271.940025322441, -33879.99193429851, 0.06330333406105637, 0.9691823140587658, 0.1702351542916149, 192.0, 0.0, 0.0, 0.0, 0.0, 0.0, 0.0, 0.0, 0.0, 0.0, 1.741982873675513E9, 0.0, 2025-03-14 15:07:53.675
114.0, -4592.836450676496, 1097.3588940333002, -26948.894792663432, -10178.2021138909, -22713.44038408284, -187500.02235174447, -27874.167606135325, -3642.7084973703027, -7861.644966798422, -18004.397213983204, -75358.36998920083, 187500.0, -22518.957855577213, -187500.02235174447, -11285.820458629187, -33884.171710511655, 0.06330333406105637, 0.9691823140587658, 0.1702351542916149, 192.0, 0.0, 0.0, 0.0, 0.0, 0.0, 0.0, 0.0, 0.0, 0.0, 1.741982873675524E9, 0.0, 2025-03-14 15:07:53.675
116.0, -4602.67121823683, 1091.726254430563, -26966.686781249857, -10192.194305919922, -22735.300390160133, -187500.02235174447, -27898.32984189151, -3655.7842678766574, -7876.240655927737, -18011.773289653454, -75331.07850922091, 187500.0, -22533.240620284156, -187500.02235174447, -11280.746612637831, -33895.61580367277, 0.06330333406105637, 0.9691823140587658, 0.1702351542916149, 192.0, 0.0, 0.0, 0.0, 0.0, 0.0, 0.0, 0.0, 0.0, 0.0, 1.741982873675549E9, 0.0, 2025-03-14 15:07:53.675
118.0, -4602.1794798588135, 1088.462899740088, -26966.75383648322, -10191.836678008638, -22727.79020402315, -187500.02235174447, -27896.117019190435, -3658.600587678026, -7865.489466844734, -18013.069690831864, -75334.58773310039, 187500.0, -22532.614771439406, -187500.02235174447, -11298.292732035248, -33897.739219396026, 0.06330333406105637, 0.9691823140587658, 0.1702351542916149, 192.0, 0.0, 0.0, 0.0, 0.0, 0.0, 0.0, 0.0, 0.0, 0.0, 1.74198287367556E9, 0.0, 2025-03-14 15:07:53.675
120.0, -4609.644962506886, 1074.2248385220573, -26965.8150632161, -10191.2555326528, -22738.161413450413, -187500.02235174447, -27903.269577416133, -3660.0758028120763, -7882.2532751862145, -18024.938467137632, -75344.02016926053, 187500.0, -22533.642951684353, -187500.02235174447, -11292.928313365974, -33897.24748101801, 0.05865166703052818, 0.9715911570293829, 0.16911757714580744, 192.0, 0.5, 88.0, 15.0, 56.0, 2.5, 32.0, 0.0, 0.0, 0.0, 1.741982873734902E9, 0.0, 2025-03-14 15:07:53.734
122.0, -4612.2154131192465, 1080.2151060360798, -26969.257231862215, -10188.39450936252, -22730.62887556897, -187500.02235174447, -27885.94697546327, -3641.2332822362523, -7879.638121084943, -18032.38159804125, -75346.76943382854, 187500.0, -22517.68380614326, -187500.02235174447, -11299.544429724745, -33889.4467222031, 0.05865166703052818, 0.9715911570293829, 0.16911757714580744, 192.0, 0.0, 0.0, 0.0, 0.0, 0.0, 0.0, 0.0, 0.0, 0.0, 1.741982873734922E9, 0.0, 2025-03-14 15:07:53.734
124.0, -4621.513738812654, 1075.275370511457, -26971.939441196853, -10183.96886396037, -22733.847526770536, -187500.02235174447, -27885.052905685057, -3639.5792531465595, -7896.1113567485045, -18024.625542715257, -75349.56340188545, 187500.0, -22536.772195908095, -187500.02235174447, -11290.42491798698, -33887.07743729084, 0.05865166703052818, 0.9715911570293829, 0.16911757714580744, 192.0, 0.0, 0.0, 0.0, 0.0, 0.0, 0.0, 0.0, 0.0, 0.0, 1.741982873734934E9, 0.0, 2025-03-14 15:07:53.734
126.0, -4610.4496253072775, 1080.3939199917222, -26976.543900554647, -10185.06409943868, -22726.98554122276, -187500.02235174447, -27870.12194038891, -3624.5365291281378, -7888.265894444692, -18014.768423410467, -75298.8696454608, 187500.0, -22546.361094279422, -187500.02235174447, -11296.750461667832, -33880.55072790989, 0.05865166703052818, 0.9715911570293829, 0.16911757714580744, 192.0, 0.0, 0.0, 0.0, 0.0, 0.0, 0.0, 0.0, 0.0, 0.0, 1.741982873734945E9, 0.0, 2025-03-14 15:07:53.734
128.0, -4612.796558475085, 1083.947847360116, -26973.70522900882, -10182.82892499315, -22726.382044122463, -187500.02235174447, -27876.782760236594, -3633.3878199324395, -7890.702234590321, -18011.28155127544, -75345.49538439458, 187500.0, -22536.101643574435, -187500.02235174447, -11290.08964182015, -33881.645963388204, 0.05865166703052818, 0.9715911570293829, 0.16911757714580744, 192.0, 0.0, 0.0, 0.0, 0.0, 0.0, 0.0, 0.0, 0.0, 0.0, 1.741982873734956E9, 0.0, 2025-03-14 15:07:53.734
130.0, -4597.552668756565, 1100.5775452348644, -26968.81019697311, -10162.600596261096, -22707.561875291096, -187500.02235174447, -27857.336742560477, -3607.459796364283, -7882.677958330865, -17986.538170163414, -75306.37983159779, 187500.0, -22534.022931340092, -187500.02235174447, -11291.922484865485, -33867.78788182591, 0.05532583351526409, 0.9727955785146915, 0.16955878857290374, 192.0, 0.5, 80.0, 15.0, 56.0, 2.5, 40.0, 0.0, 0.0, 0.0, 1.741982873734967E9, 0.0, 2025-03-14 15:07:53.734
132.0, -4608.48267179521, 1093.626152709264, -26956.270868333682, -10169.44023006442, -22713.328625360566, -187500.02235174447, -27863.908155430338, -3613.0924359670207, -7879.347548407024, -17992.17080976615, -75386.28731802551, 187500.0, -22518.399061965833, -187500.02235174447, -11280.903074849019, -33858.82483229933, 0.05532583351526409, 0.9727955785146915, 0.16955878857290374, 192.0, 0.0, 0.0, 0.0, 0.0, 0.0, 0.0, 0.0, 0.0, 0.0, 1.741982873734978E9, 0.0, 2025-03-14 15:07:53.734
134.0, -4601.777148458618, 1088.97698986256, -26970.28541210716, -10175.385794089532, -22711.71929975978, -187500.02235174447, -27862.36588506292, -3607.057464964088, -7876.4418216278345, -18001.08915580382, -75316.46046834714, 187500.0, -22520.276608500077, -187500.02235174447, -11286.42395572948, -33859.2942189329, 0.05532583351526409, 0.9727955785146915, 0.16955878857290374, 192.0, 0.0, 0.0, 0.0, 0.0, 0.0, 0.0, 0.0, 0.0, 0.0, 1.741982873794578E9, 0.0, 2025-03-14 15:07:53.794
136.0, -4601.486575780699, 1091.2792195414568, -26961.18825211385, -10165.662785251474, -22731.187669180355, -187500.02235174447, -27880.739019005185, -3619.9767732592554, -7885.22605719877, -17999.32336799185, -75387.60607094837, 187500.0, -22531.966570850203, -187500.02235174447, -11299.007987857818, -33873.532280150925, 0.05532583351526409, 0.9727955785146915, 0.16955878857290374, 192.0, 0.0, 0.0, 0.0, 0.0, 0.0, 0.0, 0.0, 0.0, 0.0, 1.741982873794605E9, 0.0, 2025-03-14 15:07:53.794
138.0, -4595.3845495444, 1098.3870742782444, -26980.276641878685, -10174.424669077955, -22750.65603860093, -187500.02235174447, -27884.225891140213, -3617.3839709024396, -7882.4320891418565, -17979.631481126726, -75268.5159764905, 187500.0, -22542.896573888847, -187500.02235174447, -11306.786394928266, -33872.012361527966, 0.05532583351526409, 0.9727955785146915, 0.16955878857290374, 192.0, 0.0, 0.0, 0.0, 0.0, 0.0, 0.0, 0.0, 0.0, 0.0, 1.741982873794635E9, 0.0, 2025-03-14 15:07:53.794
140.0, -4609.756721229162, 1081.6009141923087, -26972.52058655269, -10190.339111130132, -22754.433483413875, -187500.02235174447, -27910.645653086383, -3646.016555549688, -7896.156060237416, -17988.32630971984, -75367.19892826068, 187500.0, -22567.37173406741, -187500.02235174447, -11328.981677172385, -33888.86557684727, 0.05766291675763205, 0.9743977892573457, 0.1687793942864519, 192.0, 0.5, 112.0, 15.0, 64.0, 2.5, 32.0, 0.0, 0.0, 0.0, 1.741982873794646E9, 0.0, 2025-03-14 15:07:53.794
142.0, -4596.010398389149, 1088.7311206735517, -26979.96371745631, -10191.389643119532, -22734.60748608202, -187500.02235174447, -27900.587368081495, -3649.570482918082, -7877.5594088505995, -18000.552713936893, -75249.1146623033, 187500.0, -22529.88785861586, -187500.02235174447, -11323.684313736478, -33897.4039432292, 0.05766291675763205, 0.9743977892573457, 0.1687793942864519, 192.0, 0.0, 0.0, 0.0, 0.0, 0.0, 0.0, 0.0, 0.0, 0.0, 1.741982873794663E9, 0.0, 2025-03-14 15:07:53.794
144.0, -4596.323322811523, 1090.9886468635377, -26960.607106758012, -10186.963997717381, -22725.532677833162, -187500.02235174447, -27897.838103513495, -3645.3683549604843, -7870.362147135991, -17988.974510309043, -75381.30287901199, 187500.0, -22531.49718421664, -187500.02235174447, -11327.372351571603, -33899.057972318886, 0.05766291675763205, 0.9743977892573457, 0.1687793942864519, 192.0, 0.0, 0.0, 0.0, 0.0, 0.0, 0.0, 0.0, 0.0, 0.0, 1.741982873794678E9, 0.0, 2025-03-14 15:07:53.794
146.0, -4589.707206452752, 1088.5523067179092, -26968.13964463945, -10181.197247647911, -22725.666788299895, -187500.02235174447, -27897.10049594647, -3643.021421792677, -7868.328138390558, -18002.430260471137, -75269.74532243554, 187500.0, -22523.316445746, -187500.02235174447, -11314.564801998711, -33894.98995482802, 0.05766291675763205, 0.9743977892573457, 0.1687793942864519, 192.0, 0.0, 0.0, 0.0, 0.0, 0.0, 0.0, 0.0, 0.0, 0.0, 1.741982873794693E9, 0.0, 2025-03-14 15:07:53.794
148.0, -4585.683892450797, 1089.759300918496, -26950.370007797483, -10191.277884397256, -22721.97875046477, -187500.02235174447, -27903.04605997158, -3658.578235933571, -7854.000670194706, -17999.390423225217, -75360.35929445736, 187500.0, -22514.487506686153, -187500.02235174447, -11319.146909612049, -33892.620669915756, 0.05766291675763205, 0.9743977892573457, 0.1687793942864519, 192.0, 0.0, 0.0, 0.0, 0.0, 0.0, 0.0, 0.0, 0.0, 0.0, 1.741982873794704E9, 0.0, 2025-03-14 15:07:53.794
150.0, -4597.1279856119145, 1078.717539157574, -26978.555557555625, -10195.547067588219, -22743.726997819784, -187500.02235174447, -27915.294815933088, -3656.4101167214058, -7883.1920484533375, -18005.671263417156, -75255.95429610662, 187500.0, -22529.820803382496, -187500.02235174447, -11319.079854378684, -33908.53511196794, 0.059831458378816024, 0.9761988946286728, 0.16738969714322594, 192.0, 0.5, 120.0, 15.0, 72.0, 2.5, 24.0, 0.0, 0.0, 0.0, 1.741982873854877E9, 0.0, 2025-03-14 15:07:53.854
152.0, -4578.017244102627, 1096.1295480882584, -26949.699455463822, -10184.214733149378, -22727.097299945035, -187500.02235174447, -27898.598062824974, -3642.1050002700094, -7861.667318542876, -17998.161077280176, -75322.96482598362, 187500.0, -22517.057957298515, -187500.02235174447, -11334.524909797301, -33898.2533095185, 0.059831458378816024, 0.9761988946286728, 0.16738969714322594, 192.0, 0.0, 0.0, 0.0, 0.0, 0.0, 0.0, 0.0, 0.0, 0.0, 1.741982873854896E9, 0.0, 2025-03-14 15:07:53.854
154.0, -4590.981255886705, 1082.7185014150741, -26962.886984692454, -10200.576210090663, -22739.144890206444, -187500.02235174447, -27911.874999031428, -3649.570482918082, -7862.762554021187, -17995.121240034252, -75248.9134966032, 187500.0, -22515.89566658684, -187500.02235174447, -11321.516194524313, -33902.053106075895, 0.059831458378816024, 0.9761988946286728, 0.16738969714322594, 192.0, 0.0, 0.0, 0.0, 0.0, 0.0, 0.0, 0.0, 0.0, 0.0, 1.741982873854914E9, 0.0, 2025-03-14 15:07:53.854
156.0, -4600.145471113381, 1072.526105943454, -26964.563365526603, -10207.415843893987, -22739.994256495746, -187500.02235174447, -27912.322033920533, -3659.852285367523, -7882.99088275324, -18010.543943708413, -75309.35261361035, 187500.0, -22524.590495179953, -187500.02235174447, -11339.44229357747, -33906.411696244686, 0.059831458378816024, 0.9761988946286728, 0.16738969714322594, 192.0, 0.0, 0.0, 0.0, 0.0, 0.0, 0.0, 0.0, 0.0, 0.0, 1.741982873854926E9, 0.0, 2025-03-14 15:07:53.854
158.0, -4591.741215198185, 1086.8982776282166, -26953.454548532314, -10184.907637227492, -22732.461718614308, -187500.02235174447, -27907.024670484625, -3647.8717503394787, -7883.259103686703, -18005.201876783594, -75250.88045011526, 187500.0, -22520.678939900274, -187500.02235174447, -11322.56672651371, -33902.209568287086, 0.059831458378816024, 0.9761988946286728, 0.16738969714322594, 192.0, 0.0, 0.0, 0.0, 0.0, 0.0, 0.0, 0.0, 0.0, 0.0, 1.741982873854936E9, 0.0, 2025-03-14 15:07:53.854
160.0, -4583.471069749721, 1092.821489908873, -26946.413749028892, -10188.148640173513, -22736.68619831636, -187500.02235174447, -27907.47170537373, -3645.0554305381097, -7871.725603547765, -17987.186370752617, -75289.88424418977, 187500.0, -22512.140573518347, -187500.02235174447, -11328.646401005555, -33893.69355364962, 0.057915729189408016, 0.9760994473143364, 0.169694848571613, 192.0, 0.5, 96.0, 15.0, 64.0, 2.5, 48.0, 0.0, 0.0, 0.0, 1.74198287385496E9, 0.0, 2025-03-14 15:07:53.854
162.0, -4582.018206360127, 1091.4356817526439, -26948.581868241057, -10200.866782768582, -22735.702721560327, -187500.02235174447, -27911.316205420044, -3657.8182766220903, -7865.444763355824, -17985.957024807576, -75234.89895282972, 187500.0, -22506.39617519333, -187500.02235174447, -11317.582287500178, -33899.90733860819, 0.057915729189408016, 0.9760994473143364, 0.169694848571613, 192.0, 0.0, 0.0, 0.0, 0.0, 0.0, 0.0, 0.0, 0.0, 0.0, 1.741982873854972E9, 0.0, 2025-03-14 15:07:53.854
164.0, -4586.399148273367, 1086.3171322723786, -26957.835490445555, -10211.372102662577, -22746.185689709866, -187500.02235174447, -27926.269522460643, -3676.9066663869226, -7865.087135444539, -17997.401117968693, -75265.83376715587, 187500.0, -22515.180410764267, -187500.02235174447, -11336.67067726501, -33913.63130970375, 0.057915729189408016, 0.9760994473143364, 0.169694848571613, 192.0, 0.0, 0.0, 0.0, 0.0, 0.0, 0.0, 0.0, 0.0, 0.0, 1.741982873915165E9, 0.0, 2025-03-14 15:07:53.915
166.0, -4596.166860600336, 1084.1043095713032, -26949.163013596895, -10210.612143351096, -22739.793090795647, -187500.02235174447, -27926.493039905195, -3675.7220239307912, -7863.254292399203, -17997.065841801865, -75231.41208069469, 187500.0, -22505.859733326404, -187500.02235174447, -11329.361656828125, -33916.62644346076, 0.057915729189408016, 0.9760994473143364, 0.169694848571613, 192.0, 0.0, 0.0, 0.0, 0.0, 0.0, 0.0, 0.0, 0.0, 0.0, 1.741982873915206E9, 0.0, 2025-03-14 15:07:53.915
168.0, -4603.855860692962, 1083.2549432820015, -26956.449682289327, -10216.624762609574, -22735.009817482212, -187500.02235174447, -27926.537743394107, -3676.951369875833, -7869.423373868868, -18005.93948435062, -75240.28572324345, 187500.0, -22507.312596716, -187500.02235174447, -11334.234337119382, -33912.37961201425, 0.057915729189408016, 0.9760994473143364, 0.169694848571613, 192.0, 0.0, 0.0, 0.0, 0.0, 0.0, 0.0, 0.0, 0.0, 0.0, 1.741982873915218E9, 0.0, 2025-03-14 15:07:53.915
170.0, -4599.273753079624, 1087.0323880949484, -26948.514813007692, -10211.796785807228, -22725.30916038861, -187500.02235174447, -27914.57956011052, -3670.7375849172577, -7862.874312743464, -18015.573086210858, -75240.77746162146, 187500.0, -22495.600282621417, -187500.02235174447, -11320.063331134717, -33914.32421378186, 0.05195786459470401, 0.9720497236571681, 0.1678474242858065, 192.0, 0.5, 56.0, 15.0, 32.0, 2.5, 24.0, 0.0, 0.0, 0.0, 1.741982873915229E9, 0.0, 2025-03-14 15:07:53.915
172.0, -4597.57502050102, 1088.9322863736495, -26969.01136267321, -10205.001855492814, -22752.779454324183, -187500.02235174447, -27931.94686555229, -3682.8298786675787, -7870.093926202528, -17994.785963867424, -75217.82222006586, 187500.0, -22516.096832286934, -187500.02235174447, -11329.741636483865, -33917.47580975006, 0.05195786459470401, 0.9720497236571681, 0.1678474242858065, 192.0, 0.0, 0.0, 0.0, 0.0, 0.0, 0.0, 0.0, 0.0, 0.0, 1.741982873915241E9, 0.0, 2025-03-14 15:07:53.915
174.0, -4573.658653933841, 1119.8447489553391, -26946.61491472899, -10176.481029567842, -22762.390704439964, -187500.02235174447, -27921.821525314037, -3659.6734714118807, -7863.611920310488, -17983.23011198403, -75236.59768540833, 187500.0, -22527.920905103794, -187500.02235174447, -11335.486034808879, -33900.08615256383, 0.05195786459470401, 0.9720497236571681, 0.1678474242858065, 192.0, 0.0, 0.0, 0.0, 0.0, 0.0, 0.0, 0.0, 0.0, 0.0, 1.741982873915252E9, 0.0, 2025-03-14 15:07:53.915
176.0, -4567.489572464177, 1127.5337490479649, -26949.72180720828, -10186.941645972925, -22741.15654720742, -187500.02235174447, -27915.58538861101, -3666.5801604485705, -7851.2067021377925, -17973.060068256866, -75201.25957742448, 187500.0, -22512.431146196264, -187500.02235174447, -11329.406360317036, -33889.78199836994, 0.05195786459470401, 0.9720497236571681, 0.1678474242858065, 192.0, 0.0, 0.0, 0.0, 0.0, 0.0, 0.0, 0.0, 0.0, 0.0, 1.741982873915263E9, 0.0, 2025-03-14 15:07:53.915
178.0, -4560.4264212163, 1126.1926443806462, -26931.505135477204, -10190.339111130132, -22730.718282546793, -187500.02235174447, -27916.501810133675, -3672.4810209847715, -7841.5507485331, -17990.717946376557, -75268.58303172387, 187500.0, -22503.1104687584, -187500.02235174447, -11318.610467745122, -33897.91803335166, 0.05195786459470401, 0.9720497236571681, 0.1678474242858065, 192.0, 0.0, 0.0, 0.0, 0.0, 0.0, 0.0, 0.0, 0.0, 0.0, 1.741982873915275E9, 0.0, 2025-03-14 15:07:53.915
180.0, -4543.99788904165, 1143.1799701666798, -26930.722824421267, -10185.153506416502, -22724.750366777225, -187500.02235174447, -27914.736022321707, -3672.4586692403163, -7823.624649479944, -17980.36908869375, -75216.59287412082, 187500.0, -22494.750916332116, -187500.02235174447, -11319.772758456798, -33896.264004261975, 0.052978932297352004, 0.969024861828584, 0.16892371214290325, 192.0, 0.5, 88.0, 15.0, 24.0, 2.5, 40.0, 0.0, 0.0, 0.0, 1.74198287397537E9, 0.0, 2025-03-14 15:07:53.975
182.0, -4556.581921169987, 1133.2781473729788, -26909.42161195536, -10181.376061603554, -22737.043826227648, -187500.02235174447, -27937.51244992166, -3695.4139107959168, -7817.433216265824, -17988.46042018657, -75285.61506099881, 187500.0, -22490.660547096795, -187500.02235174447, -11311.882592664075, -33897.940385096124, 0.052978932297352004, 0.969024861828584, 0.16892371214290325, 192.0, 0.0, 0.0, 0.0, 0.0, 0.0, 0.0, 0.0, 0.0, 0.0, 1.741982873975414E9, 0.0, 2025-03-14 15:07:53.975
184.0, -4558.2135985152245, 1124.2927461019453, -26921.648016172414, -10186.62872155055, -22742.83292804157, -187500.02235174447, -27936.193696998802, -3692.9775706502883, -7823.468187268757, -17987.342832963805, -75197.3480221448, 187500.0, -22488.045392995526, -187500.02235174447, -11314.922429909997, -33900.42142873066, 0.052978932297352004, 0.969024861828584, 0.16892371214290325, 192.0, 0.0, 0.0, 0.0, 0.0, 0.0, 0.0, 0.0, 0.0, 0.0, 1.741982873975428E9, 0.0, 2025-03-14 15:07:53.975
186.0, -4569.501229465154, 1114.882661686261, -26921.536257450138, -10192.373119875565, -22750.767797323206, -187500.02235174447, -27940.284066234122, -3695.7715387072017, -7827.849129181997, -18008.487583218524, -75274.19331958215, 187500.0, -22502.015233280094, -187500.02235174447, -11315.727092710387, -33898.02979207394, 0.052978932297352004, 0.969024861828584, 0.16892371214290325, 192.0, 0.0, 0.0, 0.0, 0.0, 0.0, 0.0, 0.0, 0.0, 0.0, 1.741982873975448E9, 0.0, 2025-03-14 15:07:53.975
188.0, -4558.124191537403, 1123.5998420238307, -26934.8578971455, -10181.286654625734, -22737.0661779721, -187500.02235174447, -27919.653406101872, -3687.0543583696317, -7842.4001148224015, -18005.22422852805, -75182.08178068182, 187500.0, -22514.196934008236, -187500.02235174447, -11316.017665388306, -33892.486559449026, 0.052978932297352004, 0.969024861828584, 0.16892371214290325, 192.0, 0.0, 0.0, 0.0, 0.0, 0.0, 0.0, 0.0, 0.0, 0.0, 1.741982873975461E9, 0.0, 2025-03-14 15:07:53.975
190.0, -4555.799610114052, 1129.880682215772, -26918.116440548474, -10177.017471434769, -22733.31108490361, -187500.02235174447, -27926.023653271637, -3687.8143176811122, -7833.794693207109, -17990.337966720817, -75290.86772094581, 187500.0, -22501.411736179798, -187500.02235174447, -11307.613409473111, -33882.003591299486, 0.056489466148676004, 0.9685124309142921, 0.16946185607145164, 192.0, 0.5, 112.0, 15.0, 32.0, 2.5, 40.0, 0.0, 0.0, 0.0, 1.741982873975475E9, 0.0, 2025-03-14 15:07:53.975
192.0, -4550.971633311705, 1131.110028160814, -26929.694644176325, -10178.179762146445, -22733.13227094797, -187500.02235174447, -27924.52608639313, -3673.6433116964477, -7830.1290071164385, -17981.061992771865, -75189.45785635208, 187500.0, -22504.272759470077, -187500.02235174447, -11306.04878736124, -33885.37870471224, 0.056489466148676004, 0.9685124309142921, 0.16946185607145164, 192.0, 0.0, 0.0, 0.0, 0.0, 0.0, 0.0, 0.0, 0.0, 0.0, 1.74198287397549E9, 0.0, 2025-03-14 15:07:53.975
194.0, -4553.296214735057, 1129.3442403488446, -26919.7034144048, -10174.91640745597, -22732.17114593639, -187500.02235174447, -27924.883714304415, -3677.10783208702, -7836.767475219664, -17982.961891050567, -75278.68602021766, 187500.0, -22502.2611024691, -187500.02235174447, -11313.581325242678, -33884.305820978385, 0.056489466148676004, 0.9685124309142921, 0.16946185607145164, 192.0, 0.0, 0.0, 0.0, 0.0, 0.0, 0.0, 0.0, 0.0, 0.0, 1.741982874036225E9, 0.0, 2025-03-14 15:07:54.036
196.0, -4549.094086777459, 1126.0585339139145, -26932.19803955532, -10172.72593649935, -22744.68812283136, -187500.02235174447, -27926.694205605294, -3677.599570465037, -7836.521606030657, -17988.907455075678, -75170.74944624299, 187500.0, -22520.924809089283, -187500.02235174447, -11312.150813597538, -33882.38357095523, 0.056489466148676004, 0.9685124309142921, 0.16946185607145164, 192.0, 0.0, 0.0, 0.0, 0.0, 0.0, 0.0, 0.0, 0.0, 0.0, 1.741982874036281E9, 0.0, 2025-03-14 15:07:54.036
198.0, -4552.625662401398, 1123.3092693459118, -26924.66550167388, -10172.68123301044, -22755.819291570104, -187500.02235174447, -27933.399728941888, -3678.3595297765173, -7840.969603177262, -17989.17567600914, -75265.25262180003, 187500.0, -22506.03854728205, -187500.02235174447, -11322.09733988015, -33874.56046039587, 0.056489466148676004, 0.9685124309142921, 0.16946185607145164, 192.0, 0.0, 0.0, 0.0, 0.0, 0.0, 0.0, 0.0, 0.0, 0.0, 1.741982874036294E9, 0.0, 2025-03-14 15:07:54.036
200.0, -4554.033822302083, 1118.9059756882164, -26940.825812915067, -10183.208904648889, -22759.484977660773, -187500.02235174447, -27935.23257198722, -3690.9212101604, -7847.7421817472205, -17997.155248779687, -75147.10130060927, 187500.0, -22510.97828280667, -187500.02235174447, -11315.950610154941, -33882.47297793305, 0.057244733074338, 0.970256215457146, 0.17173092803572582, 192.0, 0.5, 104.0, 15.0, 48.0, 2.5, 56.0, 0.0, 0.0, 0.0, 1.741982874036308E9, 0.0, 2025-03-14 15:07:54.036
202.0, -4539.214615728213, 1140.1177811763027, -26919.546952193614, -10164.835770706626, -22739.12253846199, -187500.02235174447, -27921.195676469288, -3679.343006532551, -7835.69459148581, -17970.355507177774, -75249.20406928111, 187500.0, -22508.49723917213, -187500.02235174447, -11324.33251432568, -33877.443835430604, 0.057244733074338, 0.970256215457146, 0.17173092803572582, 192.0, 0.0, 0.0, 0.0, 0.0, 0.0, 0.0, 0.0, 0.0, 0.0, 1.741982874036322E9, 0.0, 2025-03-14 15:07:54.036
204.0, -4552.4021449568445, 1125.946775191638, -26931.32632152156, -10176.883360968037, -22739.07783497308, -187500.02235174447, -27926.80596432757, -3682.1593263339196, -7832.587699006522, -17979.810295082367, -75189.79313251891, 187500.0, -22496.628462866363, -187500.02235174447, -11307.166374584005, -33877.242669730505, 0.057244733074338, 0.970256215457146, 0.17173092803572582, 192.0, 0.0, 0.0, 0.0, 0.0, 0.0, 0.0, 0.0, 0.0, 0.0, 1.741982874036343E9, 0.0, 2025-03-14 15:07:54.036
206.0, -4559.241778760169, 1117.0060774095152, -26939.261190803194, -10186.852238995105, -22746.78918681016, -187500.02235174447, -27937.2442289882, -3693.4469572838498, -7839.449684554302, -17988.7956963534, -75263.03979909894, 187500.0, -22502.64108212484, -187500.02235174447, -11327.10413063814, -33887.01038205747, 0.057244733074338, 0.970256215457146, 0.17173092803572582, 192.0, 0.0, 0.0, 0.0, 0.0, 0.0, 0.0, 0.0, 0.0, 0.0, 1.74198287403636E9, 0.0, 2025-03-14 15:07:54.036
208.0, -4560.404069471845, 1104.3102865589008, -26947.061949618095, -10197.245800166822, -22749.136119977968, -187500.02235174447, -27943.256848246678, -3698.4537480418385, -7841.863672955475, -18009.71692916357, -75193.3470598873, 187500.0, -22511.98411130716, -187500.02235174447, -11326.992371915863, -33903.30480376539, 0.057244733074338, 0.970256215457146, 0.17173092803572582, 192.0, 0.0, 0.0, 0.0, 0.0, 0.0, 0.0, 0.0, 0.0, 0.0, 1.741982874036374E9, 0.0, 2025-03-14 15:07:54.036
210.0, -4557.52069443711, 1113.2956878299342, -26941.988103626743, -10185.891113983525, -22758.07681776009, -187500.02235174447, -27953.181022784833, -3706.9250591903997, -7835.202853107793, -17992.41667895516, -75244.44314771214, 187500.0, -22504.652739125817, -187500.02235174447, -11344.538491313278, -33904.511797965984, 0.057622366537169, 0.970128107728573, 0.1668654640178629, 192.0, 0.5, 104.0, 15.0, 40.0, 2.5, 8.0, 0.0, 0.0, 0.0, 1.741982874095054E9, 0.0, 2025-03-14 15:07:54.095
212.0, -4560.404069471845, 1107.238365082546, -26948.80538568561, -10187.455736095399, -22757.942707293358, -187500.02235174447, -27946.676665148338, -3692.172907849897, -7853.911263216885, -17993.08723128882, -75196.34219364432, 187500.0, -22500.808239079506, -187500.02235174447, -11342.348020356658, -33906.59051020032, 0.057622366537169, 0.970128107728573, 0.1668654640178629, 192.0, 0.0, 0.0, 0.0, 0.0, 0.0, 0.0, 0.0, 0.0, 0.0, 1.741982874095098E9, 0.0, 2025-03-14 15:07:54.095
214.0, -4547.127133265392, 1114.234461097057, -26936.51192623519, -10183.365366860076, -22750.097244989545, -187500.02235174447, -27939.56881041155, -3683.7686519347017, -7840.611975265977, -17992.5954929108, -75225.10888875829, 187500.0, -22510.844172339937, -187500.02235174447, -11348.137122170583, -33896.107542050784, 0.057622366537169, 0.970128107728573, 0.1668654640178629, 192.0, 0.0, 0.0, 0.0, 0.0, 0.0, 0.0, 0.0, 0.0, 0.0, 1.741982874095111E9, 0.0, 2025-03-14 15:07:54.095
216.0, -4540.868644817906, 1119.8000454664286, -26932.28744653314, -10176.033994678735, -22755.439311914364, -187500.02235174447, -27942.787461613116, -3684.953294390833, -7837.706248486787, -17979.184446237618, -75217.1516677322, 187500.0, -22494.840323309938, -187500.02235174447, -11335.642497020066, -33891.07839954834, 0.057622366537169, 0.970128107728573, 0.1668654640178629, 192.0, 0.0, 0.0, 0.0, 0.0, 0.0, 0.0, 0.0, 0.0, 0.0, 1.741982874095124E9, 0.0, 2025-03-14 15:07:54.095
218.0, -4548.512941421622, 1114.6144407527972, -26943.262153060696, -10184.214733149378, -22764.134140507478, -187500.02235174447, -27947.48132794873, -3688.171945592397, -7832.766512962165, -17973.015364767954, -75220.54913288941, 187500.0, -22493.365108175887, -187500.02235174447, -11348.315936126226, -33886.56334716837, 0.057622366537169, 0.970128107728573, 0.1668654640178629, 192.0, 0.0, 0.0, 0.0, 0.0, 0.0, 0.0, 0.0, 0.0, 0.0, 1.741982874095138E9, 0.0, 2025-03-14 15:07:54.095
220.0, -4563.510961951132, 1099.683475456652, -26949.967676397286, -10190.674387296962, -22765.721114363805, -187500.02235174447, -27953.58335418503, -3689.2224775817967, -7852.838379483031, -17984.45945792907, -75210.5579031179, 187500.0, -22517.54969567653, -187500.02235174447, -11353.903872240053, -33899.549710696905, 0.0568111832685845, 0.9720640538642865, 0.16443273200893144, 192.0, 0.5, 96.0, 15.0, 56.0, 2.5, 8.0, 0.0, 0.0, 0.0, 1.741982874095151E9, 0.0, 2025-03-14 15:07:54.095
222.0, -4558.191246770769, 1097.1353765887472, -26950.012379886197, -10193.647169309517, -22751.930088034882, -187500.02235174447, -27945.737891881217, -3689.3789397929836, -7859.946234219818, -17990.38267020973, -75189.65902205218, 187500.0, -22507.82668683847, -187500.02235174447, -11363.872750267119, -33904.69061192162, 0.0568111832685845, 0.9720640538642865, 0.16443273200893144, 192.0, 0.0, 0.0, 0.0, 0.0, 0.0, 0.0, 0.0, 0.0, 0.0, 1.741982874095165E9, 0.0, 2025-03-14 15:07:54.095
224.0, -4563.555665440043, 1092.3521032753115, -26940.736405937245, -10188.282750640245, -22755.327553192088, -187500.02235174447, -27948.353045982487, -3691.480003771783, -7845.618766023966, -17997.959911580077, -75218.09044099932, 187500.0, -22504.943311803738, -187500.02235174447, -11347.86890123712, -33901.87429212026, 0.0568111832685845, 0.9720640538642865, 0.16443273200893144, 192.0, 0.0, 0.0, 0.0, 0.0, 0.0, 0.0, 0.0, 0.0, 0.0, 1.741982874154898E9, 0.0, 2025-03-14 15:07:54.154
