%OpenBCI Raw EXG Data
%Number of channels = 8
%Sample Rate = 250 Hz
%Board = OpenBCI_GUI$BoardCytonSerial
Sample Index, EXG Channel 0, EXG Channel 1, EXG Channel 2, EXG Channel 3, EXG Channel 4, EXG Channel 5, EXG Channel 6, EXG Channel 7, Accel Channel 0, Accel Channel 1, Accel Channel 2, Not Used, Digital Channel 0 (D11), Digital Channel 1 (D12), Digital Channel 2 (D13), Digital Channel 3 (D17), Not Used, Digital Channel 4 (D18), Analog Channel 0, Analog Channel 1, Analog Channel 2, Timestamp, Marker Channel, Timestamp (Formatted)
27.0, 187500.0, 24767.9456791813, 30037.548248475585, -187500.02235174447, -187500.02235174447, 9031.423512866917, -18346.15538670485, 3873.6020175936246, 0.0, 0.0, 0.0, 192.0, 0.0, 0.0, 0.0, 0.0, 0.0, 0.0, 0.0, 0.0, 0.0, 1.741476645614987E9, 0.0, 2025-03-08 17:30:45.614
28.0, 187500.0, 24808.53644711214, 30033.726100173724, -187500.02235174447, -187500.02235174447, 9026.617887809025, -18359.25350895566, 3869.9586832474097, 0.0, 0.0, 0.0, 192.0, 0.0, 0.0, 0.0, 0.0, 0.0, 0.0, 0.0, 0.0, 0.0, 1.741476645615065E9, 0.0, 2025-03-08 17:30:45.615
29.0, 187500.0, 24786.363516612473, 30023.13137330191, -187500.02235174447, -187500.02235174447, 9020.918192972922, -18378.096029531484, 3866.1588866900074, 0.0, 0.0, 0.0, 192.0, 0.0, 0.0, 0.0, 0.0, 0.0, 0.0, 0.0, 0.0, 0.0, 1.741476645615105E9, 0.0, 2025-03-08 17:30:45.615
30.0, 187500.0, 24743.023484113633, 30022.907855857356, -187500.02235174447, -187500.02235174447, 9024.583879063592, -18393.138753549905, 3872.3726716485826, 0.0, 0.0, 0.0, 192.0, 0.0, 0.0, 0.0, 0.0, 0.0, 0.0, 0.0, 0.0, 0.0, 1.741476645615143E9, 0.0, 2025-03-08 17:30:45.615
31.0, 187500.0, 24762.022466900646, 30030.708614672258, -187500.02235174447, -187500.02235174447, 9025.813225008635, -18365.66845961433, 3878.7652705628007, -0.222, 0.9520000000000001, 0.132, 192.0, 249.0, 16.0, 29.0, 192.0, 4.0, 32.0, 0.0, 0.0, 0.0, 1.741476645615181E9, 0.0, 2025-03-08 17:30:45.615
32.0, 187500.0, 24801.070964464066, 30029.456916982763, -187500.02235174447, -187500.02235174447, 9016.40314059295, -18350.469273384726, 3870.0257384807755, -0.222, 0.9520000000000001, 0.132, 192.0, 0.0, 0.0, 0.0, 0.0, 0.0, 0.0, 0.0, 0.0, 0.0, 1.741476645615224E9, 0.0, 2025-03-08 17:30:45.615
33.0, 187500.0, 24793.51607483817, 30024.47247796923, -187500.02235174447, -187500.02235174447, 9017.744245260268, -18364.72968634721, 3865.1754099339737, -0.222, 0.9520000000000001, 0.132, 192.0, 0.0, 0.0, 0.0, 0.0, 0.0, 0.0, 0.0, 0.0, 0.0, 1.741476645615278E9, 0.0, 2025-03-08 17:30:45.615
34.0, 187500.0, 24749.70665570577, 30034.240190296197, -187500.02235174447, -187500.02235174447, 9035.022143724222, -18356.973631021217, 3882.274494442284, -0.222, 0.9520000000000001, 0.132, 192.0, 0.0, 0.0, 0.0, 0.0, 0.0, 0.0, 0.0, 0.0, 0.0, 1.741476645615323E9, 0.0, 2025-03-08 17:30:45.615
35.0, 187500.0, 24759.295554077096, 30034.419004251842, -187500.02235174447, -187500.02235174447, 9035.402123379961, -18346.803587294053, 3879.681692085468, -0.222, 0.9520000000000001, 0.132, 192.0, 0.0, 0.0, 0.0, 0.0, 0.0, 0.0, 0.0, 0.0, 0.0, 1.741476645615361E9, 0.0, 2025-03-08 17:30:45.615
36.0, 187500.0, 24794.119571938467, 30040.073995599032, -187500.02235174447, -187500.02235174447, 9037.570242592126, -18336.611191822434, 3884.6661310990016, -0.222, 0.9520000000000001, 0.132, 192.0, 0.0, 0.0, 0.0, 0.0, 0.0, 0.0, 0.0, 0.0, 0.0, 1.741476645615399E9, 0.0, 2025-03-08 17:30:45.615
37.0, 187500.0, 24802.277958664654, 30032.161478061855, -187500.02235174447, -187500.02235174447, 9035.35741989105, -18356.72776183221, 3882.296846186739, -0.222, 0.9520000000000001, 0.132, 192.0, 0.0, 0.0, 0.0, 0.0, 0.0, 0.0, 0.0, 0.0, 0.0, 1.741476645615444E9, 0.0, 2025-03-08 17:30:45.615
38.0, 187500.0, 24753.28293481862, 30023.287835513096, -187500.02235174447, -187500.02235174447, 9035.335068146594, -18357.130093232405, 3879.704043829923, -0.222, 0.9520000000000001, 0.132, 192.0, 0.0, 0.0, 0.0, 0.0, 0.0, 0.0, 0.0, 0.0, 0.0, 1.741476645615493E9, 0.0, 2025-03-08 17:30:45.615
39.0, 187500.0, 24760.502548277684, 30029.881600127414, -187500.02235174447, -187500.02235174447, 9033.077541956609, -18346.91534601633, 3878.7652705628007, -0.222, 0.9520000000000001, 0.132, 192.0, 0.0, 0.0, 0.0, 0.0, 0.0, 0.0, 0.0, 0.0, 0.0, 1.741476645615532E9, 0.0, 2025-03-08 17:30:45.615
40.0, 187500.0, 24786.832903246035, 30033.03319609561, -187500.02235174447, -187500.02235174447, 9034.530405346204, -18358.71706708873, 3870.942160003443, -0.222, 0.9520000000000001, 0.132, 192.0, 0.0, 0.0, 0.0, 0.0, 0.0, 0.0, 0.0, 0.0, 0.0, 1.741476645615571E9, 0.0, 2025-03-08 17:30:45.615
41.0, 187500.0, 24807.351804656006, 30037.57060022004, -187500.02235174447, -187500.02235174447, 9035.446826868872, -18355.319601931526, 3877.8264972956777, -0.216, 0.9480000000000001, 0.134, 192.0, 249.0, 64.0, 29.0, 160.0, 4.0, 48.0, 0.0, 0.0, 0.0, 1.741476645615621E9, 0.0, 2025-03-08 17:30:45.615
42.0, 187500.0, 24752.94765865179, 30026.305321014563, -187500.02235174447, -187500.02235174447, 9033.815149523634, -18349.955183262253, 3883.7944130652445, -0.216, 0.9480000000000001, 0.134, 192.0, 0.0, 0.0, 0.0, 0.0, 0.0, 0.0, 0.0, 0.0, 0.0, 1.741476645615663E9, 0.0, 2025-03-08 17:30:45.615
43.0, 187500.0, 24747.9408678938, 30025.858286125458, -187500.02235174447, -187500.02235174447, 9031.9823064783, -18358.91823278883, 3882.8109363092112, -0.216, 0.9480000000000001, 0.134, 192.0, 0.0, 0.0, 0.0, 0.0, 0.0, 0.0, 0.0, 0.0, 0.0, 1.741476645615716E9, 0.0, 2025-03-08 17:30:45.615
44.0, 187500.0, 24777.311060108073, 30031.535629217105, -187500.02235174447, -187500.02235174447, 9029.389504121484, -18364.573224136024, 3878.429994395971, -0.216, 0.9480000000000001, 0.134, 192.0, 0.0, 0.0, 0.0, 0.0, 0.0, 0.0, 0.0, 0.0, 0.0, 1.741476645615755E9, 0.0, 2025-03-08 17:30:45.615
0.0, 0.0, 0.0, 0.0, 0.0, 0.0, 0.0, 0.0, 0.0, -0.23, 0.9460000000000001, 0.14400000000000002, 192.0, 248.0, 208.0, 29.0, 144.0, 4.0, 128.0, 0.0, 0.0, 0.0, 1.741476645724907E9, 0.0, 2025-03-08 17:30:45.724
1.0, 187500.0, 23739.765434237175, 29981.177148959297, -187500.02235174447, -187500.02235174447, 9052.255338699262, -18219.823327043454, 3843.136589901041, -0.23, 0.9460000000000001, 0.14400000000000002, 192.0, 0.0, 0.0, 0.0, 0.0, 0.0, 0.0, 0.0, 0.0, 0.0, 1.741476645782532E9, 0.0, 2025-03-08 17:30:45.782
2.0, 187500.0, 23684.668384154844, 29974.091645966968, -187500.02235174447, -187500.02235174447, 9052.814132310645, -18236.967115040676, 3844.6118050350915, -0.23, 0.9460000000000001, 0.14400000000000002, 192.0, 0.0, 0.0, 0.0, 0.0, 0.0, 0.0, 0.0, 0.0, 0.0, 1.741476645782591E9, 0.0, 2025-03-08 17:30:45.782
3.0, 187500.0, 23687.30589000057, 29973.756369800136, -187500.02235174447, -187500.02235174447, 9049.528425875715, -18253.37329547087, 3836.14049388653, -0.23, 0.9460000000000001, 0.14400000000000002, 192.0, 0.0, 0.0, 0.0, 0.0, 0.0, 0.0, 0.0, 0.0, 0.0, 1.74147664578266E9, 0.0, 2025-03-08 17:30:45.782
4.0, 187500.0, 23714.016224624662, 29972.50467211064, -187500.02235174447, -187500.02235174447, 9043.26993742823, -18259.00593507361, 3828.496197282815, -0.23, 0.9460000000000001, 0.14400000000000002, 192.0, 0.0, 0.0, 0.0, 0.0, 0.0, 0.0, 0.0, 0.0, 0.0, 1.741476645782714E9, 0.0, 2025-03-08 17:30:45.782
5.0, 187500.0, 23734.244553356715, 29968.704875553238, -187500.02235174447, -187500.02235174447, 9038.55371934816, -18244.723170366666, 3824.2270140918513, -0.23, 0.9460000000000001, 0.14400000000000002, 192.0, 0.0, 0.0, 0.0, 0.0, 0.0, 0.0, 0.0, 0.0, 0.0, 1.741476645782752E9, 0.0, 2025-03-08 17:30:45.782
6.0, 187500.0, 23688.803456879075, 29971.901175010345, -187500.02235174447, -187500.02235174447, 9049.908405531456, -18238.71055110819, 3837.325136342661, -0.23, 0.9460000000000001, 0.14400000000000002, 192.0, 0.0, 0.0, 0.0, 0.0, 0.0, 0.0, 0.0, 0.0, 0.0, 1.741476645782789E9, 0.0, 2025-03-08 17:30:45.782
7.0, 187500.0, 23678.521654429635, 29970.068331965012, -187500.02235174447, -187500.02235174447, 9043.024068239221, -18239.112882508383, 3842.3766305895606, -0.23, 0.9460000000000001, 0.14400000000000002, 192.0, 0.0, 0.0, 0.0, 0.0, 0.0, 0.0, 0.0, 0.0, 0.0, 1.741476645782834E9, 0.0, 2025-03-08 17:30:45.782
8.0, 187500.0, 23706.55074197659, 29974.426922133796, -187500.02235174447, -187500.02235174447, 9040.095989715575, -18231.46858590467, 3838.9344619434432, -0.23, 0.9480000000000001, 0.152, 192.0, 248.0, 208.0, 29.0, 160.0, 4.0, 192.0, 0.0, 0.0, 0.0, 1.74147664578288E9, 0.0, 2025-03-08 17:30:45.782
9.0, 187500.0, 23737.329094091547, 29973.26463142212, -187500.02235174447, -187500.02235174447, 9039.581899593104, -18231.021551015565, 3829.747894972312, -0.23, 0.9480000000000001, 0.152, 192.0, 0.0, 0.0, 0.0, 0.0, 0.0, 0.0, 0.0, 0.0, 0.0, 1.741476645782928E9, 0.0, 2025-03-08 17:30:45.782
10.0, 187500.0, 23689.40695397937, 29957.39489285885, -187500.02235174447, -187500.02235174447, 9036.519710602726, -18241.79509184302, 3828.3173833271726, -0.23, 0.9480000000000001, 0.152, 192.0, 0.0, 0.0, 0.0, 0.0, 0.0, 0.0, 0.0, 0.0, 0.0, 1.741476645782966E9, 0.0, 2025-03-08 17:30:45.782
11.0, 187500.0, 23668.418665935835, 29952.991599201156, -187500.02235174447, -187500.02235174447, 9040.766542049234, -18236.98946678513, 3844.90237771301, -0.23, 0.9480000000000001, 0.152, 192.0, 0.0, 0.0, 0.0, 0.0, 0.0, 0.0, 0.0, 0.0, 0.0, 1.741476645783004E9, 0.0, 2025-03-08 17:30:45.783
12.0, 187500.0, 23690.099858057485, 29963.40751211733, -187500.02235174447, -187500.02235174447, 9046.60034735207, -18233.457891161193, 3854.1336481730523, -0.23, 0.9480000000000001, 0.152, 192.0, 0.0, 0.0, 0.0, 0.0, 0.0, 0.0, 0.0, 0.0, 0.0, 1.741476645783048E9, 0.0, 2025-03-08 17:30:45.783
13.0, 187500.0, 23723.26984682916, 29967.676695308295, -187500.02235174447, -187500.02235174447, 9048.679059586413, -18247.785359357043, 3846.198778891418, -0.23, 0.9480000000000001, 0.152, 192.0, 0.0, 0.0, 0.0, 0.0, 0.0, 0.0, 0.0, 0.0, 0.0, 1.741476645783099E9, 0.0, 2025-03-08 17:30:45.783
14.0, 187500.0, 23682.522616687136, 29955.852622491435, -187500.02235174447, -187500.02235174447, 9041.481797871804, -18250.445216947224, 3847.741049258834, -0.23, 0.9480000000000001, 0.152, 192.0, 0.0, 0.0, 0.0, 0.0, 0.0, 0.0, 0.0, 0.0, 0.0, 1.741476645783143E9, 0.0, 2025-03-08 17:30:45.783
15.0, 187500.0, 23658.29332569758, 29957.01491320311, -187500.02235174447, -187500.02235174447, 9041.191225193885, -18242.890327321333, 3845.751744002312, -0.23, 0.9480000000000001, 0.152, 192.0, 0.0, 0.0, 0.0, 0.0, 0.0, 0.0, 0.0, 0.0, 0.0, 1.741476645783182E9, 0.0, 2025-03-08 17:30:45.783
16.0, 187500.0, 23677.851102095974, 29962.491090594664, -187500.02235174447, -187500.02235174447, 9041.392390893983, -18243.024437788063, 3843.0918864121304, -0.23, 0.9480000000000001, 0.152, 192.0, 0.0, 0.0, 0.0, 0.0, 0.0, 0.0, 0.0, 0.0, 0.0, 1.741476645842395E9, 0.0, 2025-03-08 17:30:45.842
17.0, 187500.0, 23716.251399070192, 29968.570765086504, -187500.02235174447, -187500.02235174447, 9041.079466471609, -18246.80188260101, 3840.5437875442253, -0.23, 0.9480000000000001, 0.152, 192.0, 0.0, 0.0, 0.0, 0.0, 0.0, 0.0, 0.0, 0.0, 0.0, 1.741476645842454E9, 0.0, 2025-03-08 17:30:45.842
18.0, 187500.0, 23695.754849404675, 29958.244259148152, -187500.02235174447, -187500.02235174447, 9038.620774581525, -18258.894176351332, 3840.320270099672, -0.228, 0.9480000000000001, 0.15, 192.0, 248.0, 224.0, 29.0, 160.0, 4.0, 176.0, 0.0, 0.0, 0.0, 1.741476645842494E9, 0.0, 2025-03-08 17:30:45.842
19.0, 187500.0, 23659.58972687599, 29960.54648882705, -187500.02235174447, -187500.02235174447, 9038.732533303802, -18253.75327512661, 3845.7293922578565, -0.228, 0.9480000000000001, 0.15, 192.0, 0.0, 0.0, 0.0, 0.0, 0.0, 0.0, 0.0, 0.0, 0.0, 1.741476645842564E9, 0.0, 2025-03-08 17:30:45.842
20.0, 187500.0, 23680.086276541508, 29963.698084795247, -187500.02235174447, -187500.02235174447, 9038.844292026079, -18242.80092034351, 3843.1589416454963, -0.228, 0.9480000000000001, 0.15, 192.0, 0.0, 0.0, 0.0, 0.0, 0.0, 0.0, 0.0, 0.0, 0.0, 1.741476645842615E9, 0.0, 2025-03-08 17:30:45.842
21.0, 187500.0, 23710.68581470082, 29970.448311620752, -187500.02235174447, -187500.02235174447, 9037.100855958564, -18242.577402898958, 3841.95194744491, -0.228, 0.9480000000000001, 0.15, 192.0, 0.0, 0.0, 0.0, 0.0, 0.0, 0.0, 0.0, 0.0, 0.0, 1.741476645842654E9, 0.0, 2025-03-08 17:30:45.842
22.0, 187500.0, 23702.415669252357, 29968.816634275514, -187500.02235174447, -187500.02235174447, 9040.587728093593, -18253.48505419315, 3848.0316219367533, -0.228, 0.9480000000000001, 0.15, 192.0, 0.0, 0.0, 0.0, 0.0, 0.0, 0.0, 0.0, 0.0, 0.0, 1.741476645842693E9, 0.0, 2025-03-08 17:30:45.842
23.0, 187500.0, 23654.314715184537, 29957.350189369943, -187500.02235174447, -187500.02235174447, 9039.000754237266, -18269.220682289684, 3849.5515405597143, -0.228, 0.9480000000000001, 0.15, 192.0, 0.0, 0.0, 0.0, 0.0, 0.0, 0.0, 0.0, 0.0, 0.0, 1.741476645842737E9, 0.0, 2025-03-08 17:30:45.842
24.0, 187500.0, 23659.09798849797, 29965.21800341821, -187500.02235174447, -187500.02235174447, 9042.353515905561, -18242.577402898958, 3854.580683062158, -0.228, 0.9480000000000001, 0.15, 192.0, 0.0, 0.0, 0.0, 0.0, 0.0, 0.0, 0.0, 0.0, 0.0, 1.741476645842787E9, 0.0, 2025-03-08 17:30:45.842
25.0, 187500.0, 23695.397221493393, 29979.254898936142, -187500.02235174447, -187500.02235174447, 9045.393353151483, -18216.828193286445, 3859.43101160896, -0.228, 0.9480000000000001, 0.15, 192.0, 0.0, 0.0, 0.0, 0.0, 0.0, 0.0, 0.0, 0.0, 0.0, 1.741476645842826E9, 0.0, 2025-03-08 17:30:45.842
26.0, 187500.0, 23705.008471609173, 29981.22185244821, -187500.02235174447, -187500.02235174447, 9042.509978116748, -18213.877763018343, 3862.9178837439877, -0.228, 0.9480000000000001, 0.15, 192.0, 0.0, 0.0, 0.0, 0.0, 0.0, 0.0, 0.0, 0.0, 0.0, 1.741476645842864E9, 0.0, 2025-03-08 17:30:45.842
27.0, 187500.0, 23650.783139560597, 29972.370561643907, -187500.02235174447, -187500.02235174447, 9046.935623518899, -18223.533716623035, 3864.1472296890297, -0.228, 0.9480000000000001, 0.15, 192.0, 0.0, 0.0, 0.0, 0.0, 0.0, 0.0, 0.0, 0.0, 0.0, 1.741476645842908E9, 0.0, 2025-03-08 17:30:45.842
28.0, 187500.0, 23654.493529140178, 29971.320029654507, -187500.02235174447, -187500.02235174447, 9048.12026597503, -18234.37431268386, 3864.5942645781356, -0.232, 0.9480000000000001, 0.152, 192.0, 248.0, 192.0, 29.0, 160.0, 4.0, 192.0, 0.0, 0.0, 0.0, 1.741476645842947E9, 0.0, 2025-03-08 17:30:45.842
29.0, 187500.0, 23679.281613741114, 29975.969192501212, -187500.02235174447, -187500.02235174447, 9044.8345595401, -18231.759158582587, 3863.141401188541, -0.232, 0.9480000000000001, 0.152, 192.0, 0.0, 0.0, 0.0, 0.0, 0.0, 0.0, 0.0, 0.0, 0.0, 1.741476645842999E9, 0.0, 2025-03-08 17:30:45.842
30.0, 187500.0, 23696.268939527148, 29976.662096579326, -187500.02235174447, -187500.02235174447, 9044.387524650994, -18225.12069047936, 3864.013119222298, -0.232, 0.9480000000000001, 0.152, 192.0, 0.0, 0.0, 0.0, 0.0, 0.0, 0.0, 0.0, 0.0, 0.0, 1.741476645843037E9, 0.0, 2025-03-08 17:30:45.843
31.0, 187500.0, 23648.838537792988, 29965.08389295148, -187500.02235174447, -187500.02235174447, 9046.734457818802, -18227.579382369448, 3867.030604723764, -0.232, 0.9480000000000001, 0.152, 192.0, 0.0, 0.0, 0.0, 0.0, 0.0, 0.0, 0.0, 0.0, 0.0, 1.741476645902816E9, 0.0, 2025-03-08 17:30:45.902
32.0, 187500.0, 23642.02125573412, 29967.564936586015, -187500.02235174447, -187500.02235174447, 9047.673231085924, -18228.764024825578, 3876.418337394993, -0.232, 0.9480000000000001, 0.152, 192.0, 0.0, 0.0, 0.0, 0.0, 0.0, 0.0, 0.0, 0.0, 0.0, 1.741476645902874E9, 0.0, 2025-03-08 17:30:45.902
33.0, 187500.0, 23673.403104949368, 29974.27045992261, -187500.02235174447, -187500.02235174447, 9047.7849898082, -18231.021551015565, 3879.167601962996, -0.232, 0.9480000000000001, 0.152, 192.0, 0.0, 0.0, 0.0, 0.0, 0.0, 0.0, 0.0, 0.0, 0.0, 1.741476645902914E9, 0.0, 2025-03-08 17:30:45.902
34.0, 187500.0, 23699.085259328516, 29969.97892498719, -187500.02235174447, -187500.02235174447, 9038.509015859248, -18237.481205163145, 3873.467907126893, -0.232, 0.9480000000000001, 0.152, 192.0, 0.0, 0.0, 0.0, 0.0, 0.0, 0.0, 0.0, 0.0, 0.0, 1.741476645902987E9, 0.0, 2025-03-08 17:30:45.902
35.0, 187500.0, 23655.8346338075, 29961.93229698328, -187500.02235174447, -187500.02235174447, 9042.55468160566, -18242.04096103203, 3880.106375230119, -0.232, 0.9480000000000001, 0.152, 192.0, 0.0, 0.0, 0.0, 0.0, 0.0, 0.0, 0.0, 0.0, 0.0, 1.741476645903032E9, 0.0, 2025-03-08 17:30:45.903
36.0, 187500.0, 23635.04751146406, 29964.65920980683, -187500.02235174447, -187500.02235174447, 9046.577995607615, -18252.47922569266, 3878.6311600960685, -0.232, 0.9480000000000001, 0.152, 192.0, 0.0, 0.0, 0.0, 0.0, 0.0, 0.0, 0.0, 0.0, 0.0, 1.741476645903071E9, 0.0, 2025-03-08 17:30:45.903
37.0, 187500.0, 23658.67330535332, 29968.011971475124, -187500.02235174447, -187500.02235174447, 9042.21940543883, -18259.944708340732, 3875.166639705496, -0.232, 0.9480000000000001, 0.152, 192.0, 0.0, 0.0, 0.0, 0.0, 0.0, 0.0, 0.0, 0.0, 0.0, 1.74147664590311E9, 0.0, 2025-03-08 17:30:45.903
38.0, 187500.0, 23701.566302963056, 29973.152872699844, -187500.02235174447, -187500.02235174447, 9037.167911191931, -18249.908775080297, 3868.662282069002, -0.23600000000000002, 0.9440000000000001, 0.152, 192.0, 248.0, 160.0, 29.0, 128.0, 4.0, 192.0, 0.0, 0.0, 0.0, 1.741476645903155E9, 0.0, 2025-03-08 17:30:45.903
39.0, 187500.0, 23667.658706624356, 29963.318105139508, -187500.02235174447, -187500.02235174447, 9039.380733893006, -18262.13517929735, 3861.688537798946, -0.23600000000000002, 0.9440000000000001, 0.152, 192.0, 0.0, 0.0, 0.0, 0.0, 0.0, 0.0, 0.0, 0.0, 0.0, 1.741476645903203E9, 0.0, 2025-03-08 17:30:45.903
40.0, 187500.0, 23630.063072450528, 29956.9702097142, -187500.02235174447, -187500.02235174447, 9037.704353058858, -18274.987432359154, 3857.4417063524374, -0.23600000000000002, 0.9440000000000001, 0.152, 192.0, 0.0, 0.0, 0.0, 0.0, 0.0, 0.0, 0.0, 0.0, 0.0, 1.741476645903247E9, 0.0, 2025-03-08 17:30:45.903
41.0, 187500.0, 23651.58780236099, 29965.486224351673, -187500.02235174447, -187500.02235174447, 9042.88995777249, -18243.538527910536, 3872.752651304323, -0.23600000000000002, 0.9440000000000001, 0.152, 192.0, 0.0, 0.0, 0.0, 0.0, 0.0, 0.0, 0.0, 0.0, 0.0, 1.741476645903286E9, 0.0, 2025-03-08 17:30:45.903
42.0, 187500.0, 23701.856875640977, 29975.54450935656, -187500.02235174447, -187500.02235174447, 9040.02893448221, -18215.5988473414, 3872.6632443265016, -0.23600000000000002, 0.9440000000000001, 0.152, 192.0, 0.0, 0.0, 0.0, 0.0, 0.0, 0.0, 0.0, 0.0, 0.0, 1.74147664590333E9, 0.0, 2025-03-08 17:30:45.903
43.0, 187500.0, 23683.751962632177, 29971.565898843517, -187500.02235174447, -187500.02235174447, 9044.767504306736, -18212.670768817756, 3879.972264763387, -0.23600000000000002, 0.9440000000000001, 0.152, 192.0, 0.0, 0.0, 0.0, 0.0, 0.0, 0.0, 0.0, 0.0, 0.0, 1.741476645903368E9, 0.0, 2025-03-08 17:30:45.903
44.0, 187500.0, 23643.943505757274, 29968.034323219577, -187500.02235174447, -187500.02235174447, 9047.494417130281, -18211.530829850537, 3883.459136898415, -0.23600000000000002, 0.9440000000000001, 0.152, 192.0, 0.0, 0.0, 0.0, 0.0, 0.0, 0.0, 0.0, 0.0, 0.0, 1.741476645903417E9, 0.0, 2025-03-08 17:30:45.903
45.0, 187500.0, 23652.325409928013, 29968.30254415304, -187500.02235174447, -187500.02235174447, 9041.437094382894, -18222.058501488984, 3876.5971513506356, -0.23600000000000002, 0.9440000000000001, 0.152, 192.0, 0.0, 0.0, 0.0, 0.0, 0.0, 0.0, 0.0, 0.0, 0.0, 1.741476645903456E9, 0.0, 2025-03-08 17:30:45.903
46.0, 187500.0, 23681.606195164466, 29973.488148866672, -187500.02235174447, -187500.02235174447, 9044.40987639545, -18222.505536378092, 3881.2463141973394, -0.23600000000000002, 0.9440000000000001, 0.152, 192.0, 0.0, 0.0, 0.0, 0.0, 0.0, 0.0, 0.0, 0.0, 0.0, 1.741476645963058E9, 0.0, 2025-03-08 17:30:45.963
47.0, 187500.0, 23686.233006266717, 29966.64851506335, -187500.02235174447, -187500.02235174447, 9043.962841506343, -18229.345170181416, 3883.839116554155, -0.23600000000000002, 0.9440000000000001, 0.152, 192.0, 0.0, 0.0, 0.0, 0.0, 0.0, 0.0, 0.0, 0.0, 0.0, 1.741476645963116E9, 0.0, 2025-03-08 17:30:45.963
48.0, 187500.0, 23642.69180806778, 29961.55231732754, -187500.02235174447, -187500.02235174447, 9043.225233939318, -18231.89326904932, 3886.946009033443, -0.23600000000000002, 0.9400000000000001, 0.152, 192.0, 248.0, 160.0, 29.0, 96.0, 4.0, 192.0, 0.0, 0.0, 0.0, 1.741476645963156E9, 0.0, 2025-03-08 17:30:45.963
49.0, 187500.0, 23649.553793615556, 29963.385160372876, -187500.02235174447, -187500.02235174447, 9040.118341460031, -18228.451100403203, 3891.7963375802447, -0.23600000000000002, 0.9400000000000001, 0.152, 192.0, 0.0, 0.0, 0.0, 0.0, 0.0, 0.0, 0.0, 0.0, 0.0, 1.741476645963199E9, 0.0, 2025-03-08 17:30:45.963
50.0, 187500.0, 23683.39433472089, 29966.246183663156, -187500.02235174447, -187500.02235174447, 9042.26410892774, -18231.89326904932, 3889.739977090356, -0.23600000000000002, 0.9400000000000001, 0.152, 192.0, 0.0, 0.0, 0.0, 0.0, 0.0, 0.0, 0.0, 0.0, 0.0, 1.741476645963265E9, 0.0, 2025-03-08 17:30:45.963
51.0, 187500.0, 23692.938529603307, 29960.188860915765, -187500.02235174447, -187500.02235174447, 9036.899690258466, -18246.958344812196, 3876.9994827508312, -0.23600000000000002, 0.9400000000000001, 0.152, 192.0, 0.0, 0.0, 0.0, 0.0, 0.0, 0.0, 0.0, 0.0, 0.0, 1.74147664596331E9, 0.0, 2025-03-08 17:30:45.963
52.0, 187500.0, 23637.77442428761, 29956.053788191533, -187500.02235174447, -187500.02235174447, 9044.879263029012, -18239.04582727502, 3891.2822474577724, -0.23600000000000002, 0.9400000000000001, 0.152, 192.0, 0.0, 0.0, 0.0, 0.0, 0.0, 0.0, 0.0, 0.0, 0.0, 1.74147664596335E9, 0.0, 2025-03-08 17:30:45.963
53.0, 187500.0, 23638.087348709985, 29962.53579408357, -187500.02235174447, -187500.02235174447, 9049.818998553634, -18240.386931942336, 3898.881840572577, -0.23600000000000002, 0.9400000000000001, 0.152, 192.0, 0.0, 0.0, 0.0, 0.0, 0.0, 0.0, 0.0, 0.0, 0.0, 1.741476645963394E9, 0.0, 2025-03-08 17:30:45.963
54.0, 187500.0, 23671.50320667067, 29968.906041253336, -187500.02235174447, -187500.02235174447, 9045.438056640394, -18247.986525057142, 3899.462985928415, -0.23600000000000002, 0.9400000000000001, 0.152, 192.0, 0.0, 0.0, 0.0, 0.0, 0.0, 0.0, 0.0, 0.0, 0.0, 1.741476645963433E9, 0.0, 2025-03-08 17:30:45.963
55.0, 187500.0, 23697.341823261002, 29964.65920980683, -187500.02235174447, -187500.02235174447, 9034.709219301847, -18256.100208294418, 3895.2832097152723, -0.23600000000000002, 0.9400000000000001, 0.152, 192.0, 0.0, 0.0, 0.0, 0.0, 0.0, 0.0, 0.0, 0.0, 0.0, 1.741476645963483E9, 0.0, 2025-03-08 17:30:45.963
56.0, 187500.0, 23643.407063890347, 29955.98673295817, -187500.02235174447, -187500.02235174447, 9043.001716494766, -18228.27228644756, 3899.1277097615853, -0.23600000000000002, 0.9400000000000001, 0.152, 192.0, 0.0, 0.0, 0.0, 0.0, 0.0, 0.0, 0.0, 0.0, 0.0, 1.741476645963522E9, 0.0, 2025-03-08 17:30:45.963
57.0, 187500.0, 23630.73362478419, 29962.759311528127, -187500.02235174447, -187500.02235174447, 9048.924928775421, -18214.972998496654, 3904.849756342144, -0.23600000000000002, 0.936, 0.152, 192.0, 248.0, 160.0, 29.0, 64.0, 4.0, 192.0, 0.0, 0.0, 0.0, 1.741476645963561E9, 0.0, 2025-03-08 17:30:45.963
58.0, 187500.0, 23658.136863486394, 29964.39098887336, -187500.02235174447, -187500.02235174447, 9041.12416996052, -18237.056522018494, 3904.5815354086803, -0.23600000000000002, 0.936, 0.152, 192.0, 0.0, 0.0, 0.0, 0.0, 0.0, 0.0, 0.0, 0.0, 0.0, 1.741476645963613E9, 0.0, 2025-03-08 17:30:45.963
59.0, 187500.0, 23688.199959778784, 29964.525099340095, -187500.02235174447, -187500.02235174447, 9034.64216406848, -18237.145928996317, 3902.882802830077, -0.23600000000000002, 0.936, 0.152, 192.0, 0.0, 0.0, 0.0, 0.0, 0.0, 0.0, 0.0, 0.0, 0.0, 1.741476645963653E9, 0.0, 2025-03-08 17:30:45.963
60.0, 187500.0, 23644.52465111311, 29961.395855116352, -187500.02235174447, -187500.02235174447, 9040.878300771512, -18216.291751419514, 3906.3473232206493, -0.23600000000000002, 0.936, 0.152, 192.0, 0.0, 0.0, 0.0, 0.0, 0.0, 0.0, 0.0, 0.0, 0.0, 1.741476645963703E9, 0.0, 2025-03-08 17:30:45.963
61.0, 187500.0, 23628.00671196064, 29962.73695978367, -187500.02235174447, -187500.02235174447, 9039.35838214855, -18219.08571947643, 3906.5484889207473, -0.23600000000000002, 0.936, 0.152, 192.0, 0.0, 0.0, 0.0, 0.0, 0.0, 0.0, 0.0, 0.0, 0.0, 1.741476646022679E9, 0.0, 2025-03-08 17:30:46.022
62.0, 187500.0, 23654.76175007364, 29970.694180809758, -187500.02235174447, -187500.02235174447, 9038.285498414696, -18219.73392006563, 3906.2132127539176, -0.23600000000000002, 0.936, 0.152, 192.0, 0.0, 0.0, 0.0, 0.0, 0.0, 0.0, 0.0, 0.0, 0.0, 1.741476646022734E9, 0.0, 2025-03-08 17:30:46.022
63.0, 187500.0, 23691.418610980345, 29969.30837265353, -187500.02235174447, -187500.02235174447, 9031.937602989388, -18227.6017341139, 3894.2550294703283, -0.23600000000000002, 0.936, 0.152, 192.0, 0.0, 0.0, 0.0, 0.0, 0.0, 0.0, 0.0, 0.0, 0.0, 1.741476646022774E9, 0.0, 2025-03-08 17:30:46.022
64.0, 187500.0, 23654.314715184537, 29958.758349270625, -187500.02235174447, -187500.02235174447, 9031.535271589193, -18245.974868056164, 3889.739977090356, -0.23600000000000002, 0.936, 0.152, 192.0, 0.0, 0.0, 0.0, 0.0, 0.0, 0.0, 0.0, 0.0, 0.0, 1.741476646022812E9, 0.0, 2025-03-08 17:30:46.022
65.0, 187500.0, 23622.73170026919, 29959.808881260025, -187500.02235174447, -187500.02235174447, 9034.284536157196, -18245.393722700326, 3901.6087533961245, -0.23600000000000002, 0.936, 0.152, 192.0, 0.0, 0.0, 0.0, 0.0, 0.0, 0.0, 0.0, 0.0, 0.0, 1.741476646022886E9, 0.0, 2025-03-08 17:30:46.022
66.0, 187500.0, 23644.032912735096, 29965.08389295148, -187500.02235174447, -187500.02235174447, 9037.994925736777, -18235.76012084009, 3914.550413435747, -0.23600000000000002, 0.936, 0.152, 192.0, 0.0, 0.0, 0.0, 0.0, 0.0, 0.0, 0.0, 0.0, 0.0, 1.741476646022932E9, 0.0, 2025-03-08 17:30:46.022
67.0, 187500.0, 23687.954090589774, 29975.902137267847, -187500.02235174447, -187500.02235174447, 9040.07363797112, -18224.31602767897, 3914.3715994801046, -0.24, 0.936, 0.152, 192.0, 248.0, 128.0, 29.0, 64.0, 4.0, 192.0, 0.0, 0.0, 0.0, 1.74147664602297E9, 0.0, 2025-03-08 17:30:46.022
68.0, 187500.0, 23671.07852352602, 29973.912832011323, -187500.02235174447, -187500.02235174447, 9039.447789126372, -18220.918562521765, 3914.192785524462, -0.24, 0.936, 0.152, 192.0, 0.0, 0.0, 0.0, 0.0, 0.0, 0.0, 0.0, 0.0, 0.0, 1.741476646023013E9, 0.0, 2025-03-08 17:30:46.023
69.0, 187500.0, 23630.174831172804, 29968.74957904215, -187500.02235174447, -187500.02235174447, 9041.660611827447, -18233.904926050298, 3916.5397186922696, -0.24, 0.936, 0.152, 192.0, 0.0, 0.0, 0.0, 0.0, 0.0, 0.0, 0.0, 0.0, 0.0, 1.741476646023057E9, 0.0, 2025-03-08 17:30:46.023
70.0, 187500.0, 23637.34974114296, 29968.74957904215, -187500.02235174447, -187500.02235174447, 9042.912309516943, -18247.003048301107, 3916.517366947814, -0.24, 0.936, 0.152, 192.0, 0.0, 0.0, 0.0, 0.0, 0.0, 0.0, 0.0, 0.0, 0.0, 1.741476646023106E9, 0.0, 2025-03-08 17:30:46.023
71.0, 187500.0, 23667.25637522416, 29976.952669257247, -187500.02235174447, -187500.02235174447, 9042.532329861204, -18236.922411551765, 3910.951782578443, -0.24, 0.936, 0.152, 192.0, 0.0, 0.0, 0.0, 0.0, 0.0, 0.0, 0.0, 0.0, 0.0, 1.741476646023145E9, 0.0, 2025-03-08 17:30:46.023
72.0, 187500.0, 23670.810302592552, 29979.746637314158, -187500.02235174447, -187500.02235174447, 9045.080428729108, -18222.46083288918, 3920.8983088610544, -0.24, 0.936, 0.152, 192.0, 0.0, 0.0, 0.0, 0.0, 0.0, 0.0, 0.0, 0.0, 0.0, 1.741476646023183E9, 0.0, 2025-03-08 17:30:46.023
73.0, 187500.0, 23622.552886313544, 29965.799148774047, -187500.02235174447, -187500.02235174447, 9044.946318262377, -18214.302446162994, 3927.4026664975486, -0.24, 0.936, 0.152, 192.0, 0.0, 0.0, 0.0, 0.0, 0.0, 0.0, 0.0, 0.0, 0.0, 1.741476646023226E9, 0.0, 2025-03-08 17:30:46.023
74.0, 187500.0, 23628.85607824994, 29971.431788376784, -187500.02235174447, -187500.02235174447, 9049.662536342446, -18205.294693147505, 3929.526082220803, -0.24, 0.936, 0.152, 192.0, 0.0, 0.0, 0.0, 0.0, 0.0, 0.0, 0.0, 0.0, 0.0, 1.741476646023265E9, 0.0, 2025-03-08 17:30:46.023
75.0, 187500.0, 23661.623735621422, 29979.63487859188, -187500.02235174447, -187500.02235174447, 9048.388486908494, -18213.140155451318, 3928.609660698135, -0.24, 0.936, 0.152, 192.0, 0.0, 0.0, 0.0, 0.0, 0.0, 0.0, 0.0, 0.0, 0.0, 1.741476646023313E9, 0.0, 2025-03-08 17:30:46.023
76.0, 187500.0, 23675.325354972527, 29977.153834957342, -187500.02235174447, -187500.02235174447, 9040.632431582502, -18221.18678345523, 3926.1286170635963, -0.24, 0.936, 0.152, 192.0, 0.0, 0.0, 0.0, 0.0, 0.0, 0.0, 0.0, 0.0, 0.0, 1.741476646082904E9, 0.0, 2025-03-08 17:30:46.082
77.0, 187500.0, 23617.81431648902, 29958.847756248448, -187500.02235174447, -187500.02235174447, 9044.164007206442, -18228.339341680927, 3924.4969397183586, -0.23600000000000002, 0.9460000000000001, 0.154, 192.0, 248.0, 160.0, 29.0, 144.0, 4.0, 208.0, 0.0, 0.0, 0.0, 1.741476646082964E9, 0.0, 2025-03-08 17:30:46.082
78.0, 187500.0, 23614.752127498643, 29959.987695215666, -187500.02235174447, -187500.02235174447, 9048.522597375226, -18235.044865017517, 3926.6650589305236, -0.23600000000000002, 0.9460000000000001, 0.154, 192.0, 0.0, 0.0, 0.0, 0.0, 0.0, 0.0, 0.0, 0.0, 0.0, 1.741476646083008E9, 0.0, 2025-03-08 17:30:46.083
79.0, 187500.0, 23652.05718899455, 29973.08581746648, -187500.02235174447, -187500.02235174447, 9052.367097421538, -18240.90102206481, 3922.619393184113, -0.23600000000000002, 0.9460000000000001, 0.154, 192.0, 0.0, 0.0, 0.0, 0.0, 0.0, 0.0, 0.0, 0.0, 0.0, 1.741476646083047E9, 0.0, 2025-03-08 17:30:46.083
80.0, 187500.0, 23679.81805560804, 29979.299602425053, -187500.02235174447, -187500.02235174447, 9052.858835799556, -18243.404417443802, 3925.525119963303, -0.23600000000000002, 0.9460000000000001, 0.154, 192.0, 0.0, 0.0, 0.0, 0.0, 0.0, 0.0, 0.0, 0.0, 0.0, 1.741476646083108E9, 0.0, 2025-03-08 17:30:46.083
81.0, 187500.0, 23624.788060759078, 29968.414302875317, -187500.02235174447, -187500.02235174447, 9052.143579976986, -18241.57157439847, 3926.4638932304256, -0.23600000000000002, 0.9460000000000001, 0.154, 192.0, 0.0, 0.0, 0.0, 0.0, 0.0, 0.0, 0.0, 0.0, 0.0, 1.741476646083155E9, 0.0, 2025-03-08 17:30:46.083
82.0, 187500.0, 23612.516953053113, 29969.420131375806, -187500.02235174447, -187500.02235174447, 9048.857873542056, -18213.542486851515, 3927.357963008638, -0.23600000000000002, 0.9460000000000001, 0.154, 192.0, 0.0, 0.0, 0.0, 0.0, 0.0, 0.0, 0.0, 0.0, 0.0, 1.7414766460832E9, 0.0, 2025-03-08 17:30:46.083
83.0, 187500.0, 23643.518822612623, 29978.003201246644, -187500.02235174447, -187500.02235174447, 9054.781085822713, -18209.787393783023, 3932.0518293442524, -0.23600000000000002, 0.9460000000000001, 0.154, 192.0, 0.0, 0.0, 0.0, 0.0, 0.0, 0.0, 0.0, 0.0, 0.0, 1.741476646083239E9, 0.0, 2025-03-08 17:30:46.083
84.0, 187500.0, 23679.4380759523, 29981.154797214844, -187500.02235174447, -187500.02235174447, 9050.131922976008, -18218.92925726524, 3927.357963008638, -0.23600000000000002, 0.9460000000000001, 0.154, 192.0, 0.0, 0.0, 0.0, 0.0, 0.0, 0.0, 0.0, 0.0, 0.0, 1.741476646083284E9, 0.0, 2025-03-08 17:30:46.083
85.0, 187500.0, 23638.981418488198, 29970.850643020945, -187500.02235174447, -187500.02235174447, 9044.387524650994, -18227.98171376964, 3922.5746896952023, -0.23600000000000002, 0.9460000000000001, 0.154, 192.0, 0.0, 0.0, 0.0, 0.0, 0.0, 0.0, 0.0, 0.0, 0.0, 1.74147664608333E9, 0.0, 2025-03-08 17:30:46.083
86.0, 187500.0, 23617.14376415536, 29972.147044199355, -187500.02235174447, -187500.02235174447, 9047.494417130281, -18224.56189686798, 3927.9614601089315, -0.23600000000000002, 0.9460000000000001, 0.154, 192.0, 0.0, 0.0, 0.0, 0.0, 0.0, 0.0, 0.0, 0.0, 0.0, 1.741476646083375E9, 0.0, 2025-03-08 17:30:46.083
87.0, 187500.0, 23643.943505757274, 29981.51242512613, -187500.02235174447, -187500.02235174447, 9052.300042188173, -18214.257742674083, 3940.97017538192, -0.23800000000000002, 0.9420000000000001, 0.156, 192.0, 248.0, 144.0, 29.0, 112.0, 4.0, 224.0, 0.0, 0.0, 0.0, 1.741476646083415E9, 0.0, 2025-03-08 17:30:46.083
88.0, 187500.0, 23680.555663175066, 29984.775779816602, -187500.02235174447, -187500.02235174447, 9046.26507118524, -18231.334475437936, 3932.6106229556353, -0.23800000000000002, 0.9420000000000001, 0.156, 192.0, 0.0, 0.0, 0.0, 0.0, 0.0, 0.0, 0.0, 0.0, 0.0, 1.741476646083457E9, 0.0, 2025-03-08 17:30:46.083
89.0, 187500.0, 23643.697636568268, 29973.44344537776, -187500.02235174447, -187500.02235174447, 9041.302983916163, -18233.212021972184, 3926.8215211417105, -0.23800000000000002, 0.9420000000000001, 0.156, 192.0, 0.0, 0.0, 0.0, 0.0, 0.0, 0.0, 0.0, 0.0, 0.0, 1.741476646083502E9, 0.0, 2025-03-08 17:30:46.083
90.0, 187500.0, 23606.10200239444, 29972.683486066282, -187500.02235174447, -187500.02235174447, 9040.677135071413, -18219.912734021276, 3934.8681491456214, -0.23800000000000002, 0.9420000000000001, 0.156, 192.0, 0.0, 0.0, 0.0, 0.0, 0.0, 0.0, 0.0, 0.0, 0.0, 1.741476646083541E9, 0.0, 2025-03-08 17:30:46.083
91.0, 187500.0, 23630.33129338399, 29981.959460015234, -187500.02235174447, -187500.02235174447, 9039.872472271023, -18218.03518748703, 3936.455123001948, -0.23800000000000002, 0.9420000000000001, 0.156, 192.0, 0.0, 0.0, 0.0, 0.0, 0.0, 0.0, 0.0, 0.0, 0.0, 1.741476646143211E9, 0.0, 2025-03-08 17:30:46.143
92.0, 187500.0, 23668.441017680292, 29990.341364185973, -187500.02235174447, -187500.02235174447, 9035.491530357782, -18225.590077112924, 3932.230643299895, -0.23800000000000002, 0.9420000000000001, 0.156, 192.0, 0.0, 0.0, 0.0, 0.0, 0.0, 0.0, 0.0, 0.0, 0.0, 1.74147664614327E9, 0.0, 2025-03-08 17:30:46.143
93.0, 187500.0, 23649.352627915458, 29982.65236409335, -187500.02235174447, -187500.02235174447, 9032.652858811958, -18242.666809876777, 3928.609660698135, -0.23800000000000002, 0.9420000000000001, 0.156, 192.0, 0.0, 0.0, 0.0, 0.0, 0.0, 0.0, 0.0, 0.0, 0.0, 1.741476646143311E9, 0.0, 2025-03-08 17:30:46.143
94.0, 187500.0, 23606.86196170592, 29971.945878499257, -187500.02235174447, -187500.02235174447, 9043.247585683774, -18251.920432081275, 3933.415285756026, -0.23800000000000002, 0.9420000000000001, 0.156, 192.0, 0.0, 0.0, 0.0, 0.0, 0.0, 0.0, 0.0, 0.0, 0.0, 1.741476646143349E9, 0.0, 2025-03-08 17:30:46.143
95.0, 187500.0, 23627.939656727274, 29983.524082127107, -187500.02235174447, -187500.02235174447, 9040.677135071413, -18222.729053822644, 3935.046963101264, -0.23800000000000002, 0.9420000000000001, 0.156, 192.0, 0.0, 0.0, 0.0, 0.0, 0.0, 0.0, 0.0, 0.0, 0.0, 1.741476646143388E9, 0.0, 2025-03-08 17:30:46.143
96.0, 187500.0, 23657.376904174915, 29981.534776870583, -187500.02235174447, -187500.02235174447, 9028.115454687531, -18212.51430660657, 3925.7933408967665, -0.23800000000000002, 0.9420000000000001, 0.156, 192.0, 0.0, 0.0, 0.0, 0.0, 0.0, 0.0, 0.0, 0.0, 0.0, 1.741476646143461E9, 0.0, 2025-03-08 17:30:46.143
97.0, 187500.0, 23653.800625062064, 29976.282116923587, -187500.02235174447, -187500.02235174447, 9040.297155415674, -18220.404472399292, 3935.8516259016546, -0.23800000000000002, 0.9420000000000001, 0.158, 192.0, 248.0, 144.0, 29.0, 112.0, 4.0, 240.0, 0.0, 0.0, 0.0, 1.741476646143507E9, 0.0, 2025-03-08 17:30:46.143
98.0, 187500.0, 23613.634540275878, 29970.291849409565, -187500.02235174447, -187500.02235174447, 9044.521635117726, -18215.062405474473, 3941.573672482213, -0.23800000000000002, 0.9420000000000001, 0.158, 192.0, 0.0, 0.0, 0.0, 0.0, 0.0, 0.0, 0.0, 0.0, 0.0, 1.741476646143549E9, 0.0, 2025-03-08 17:30:46.143
99.0, 187500.0, 23623.737528769678, 29971.990581988168, -187500.02235174447, -187500.02235174447, 9047.002678752266, -18215.08475721893, 3937.5056549913475, -0.23800000000000002, 0.9420000000000001, 0.158, 192.0, 0.0, 0.0, 0.0, 0.0, 0.0, 0.0, 0.0, 0.0, 0.0, 1.741476646143593E9, 0.0, 2025-03-08 17:30:46.143
100.0, 187500.0, 23656.706351841254, 29980.193672203266, -187500.02235174447, -187500.02235174447, 9054.468161400338, -18206.99342572611, 3940.3666782816267, -0.23800000000000002, 0.9420000000000001, 0.158, 192.0, 0.0, 0.0, 0.0, 0.0, 0.0, 0.0, 0.0, 0.0, 0.0, 1.741476646143638E9, 0.0, 2025-03-08 17:30:46.143
101.0, 187500.0, 23675.235947994704, 29984.88753853888, -187500.02235174447, -187500.02235174447, 9051.473027643327, -18212.000216484095, 3940.7243061929116, -0.23800000000000002, 0.9420000000000001, 0.158, 192.0, 0.0, 0.0, 0.0, 0.0, 0.0, 0.0, 0.0, 0.0, 0.0, 1.741476646143688E9, 0.0, 2025-03-08 17:30:46.143
102.0, 187500.0, 23620.652988034846, 29970.805939532038, -187500.02235174447, -187500.02235174447, 9044.02989673971, -18228.8534318034, 3939.517311992325, -0.23800000000000002, 0.9420000000000001, 0.158, 192.0, 0.0, 0.0, 0.0, 0.0, 0.0, 0.0, 0.0, 0.0, 0.0, 1.741476646143727E9, 0.0, 2025-03-08 17:30:46.143
103.0, 187500.0, 23615.869714721408, 29969.420131375806, -187500.02235174447, -187500.02235174447, 9028.249565154263, -18235.648362117812, 3934.5999282121575, -0.23800000000000002, 0.9420000000000001, 0.158, 192.0, 0.0, 0.0, 0.0, 0.0, 0.0, 0.0, 0.0, 0.0, 0.0, 1.741476646143766E9, 0.0, 2025-03-08 17:30:46.143
104.0, 187500.0, 23646.670418580823, 29972.21409943272, -187500.02235174447, -187500.02235174447, 9025.656762797447, -18246.198385500717, 3921.747675150356, -0.23800000000000002, 0.9420000000000001, 0.158, 192.0, 0.0, 0.0, 0.0, 0.0, 0.0, 0.0, 0.0, 0.0, 0.0, 1.74147664614381E9, 0.0, 2025-03-08 17:30:46.143
105.0, 187500.0, 23664.529462400613, 29964.480395851184, -187500.02235174447, -187500.02235174447, 9021.476986584305, -18254.356772226904, 3909.7894918667666, -0.23800000000000002, 0.9420000000000001, 0.158, 192.0, 0.0, 0.0, 0.0, 0.0, 0.0, 0.0, 0.0, 0.0, 0.0, 1.741476646143849E9, 0.0, 2025-03-08 17:30:46.143
106.0, 187500.0, 23608.895970451355, 29961.284096394076, -187500.02235174447, -187500.02235174447, 9021.186413906385, -18247.360676212393, 3922.977021095398, -0.23800000000000002, 0.9420000000000001, 0.158, 192.0, 0.0, 0.0, 0.0, 0.0, 0.0, 0.0, 0.0, 0.0, 0.0, 1.74147664620349E9, 0.0, 2025-03-08 17:30:46.203
107.0, 187500.0, 23599.932920924773, 29971.632954076882, -187500.02235174447, -187500.02235174447, 9036.340896647083, -18229.568687625968, 3932.767085166822, -0.242, 0.9440000000000001, 0.154, 192.0, 248.0, 112.0, 29.0, 128.0, 4.0, 208.0, 0.0, 0.0, 0.0, 1.741476646203545E9, 0.0, 2025-03-08 17:30:46.203
108.0, 187500.0, 23631.046549206563, 29974.426922133796, -187500.02235174447, -187500.02235174447, 9045.21453919584, -18233.592001627923, 3932.6553264445456, -0.242, 0.9440000000000001, 0.154, 192.0, 0.0, 0.0, 0.0, 0.0, 0.0, 0.0, 0.0, 0.0, 0.0, 1.741476646203593E9, 0.0, 2025-03-08 17:30:46.203
109.0, 187500.0, 23668.95510780276, 29981.51242512613, -187500.02235174447, -187500.02235174447, 9045.147483962475, -18234.70958885069, 3938.2209108139173, -0.242, 0.9440000000000001, 0.154, 192.0, 0.0, 0.0, 0.0, 0.0, 0.0, 0.0, 0.0, 0.0, 0.0, 1.741476646203633E9, 0.0, 2025-03-08 17:30:46.203
110.0, 187500.0, 23631.20301141775, 29975.835082034482, -187500.02235174447, -187500.02235174447, 9046.89092002999, -18236.94476329622, 3940.4784370039033, -0.242, 0.9440000000000001, 0.154, 192.0, 0.0, 0.0, 0.0, 0.0, 0.0, 0.0, 0.0, 0.0, 0.0, 1.741476646203672E9, 0.0, 2025-03-08 17:30:46.203
111.0, 187500.0, 23602.838647703964, 29970.493015109663, -187500.02235174447, -187500.02235174447, 9041.906481016455, -18234.262553961584, 3935.7622189238336, -0.242, 0.9440000000000001, 0.154, 192.0, 0.0, 0.0, 0.0, 0.0, 0.0, 0.0, 0.0, 0.0, 0.0, 1.741476646203744E9, 0.0, 2025-03-08 17:30:46.203
112.0, 187500.0, 23627.358511371436, 29979.970154758714, -187500.02235174447, -187500.02235174447, 9044.968670006832, -18226.595905613412, 3940.031402114797, -0.242, 0.9440000000000001, 0.154, 192.0, 0.0, 0.0, 0.0, 0.0, 0.0, 0.0, 0.0, 0.0, 0.0, 1.741476646203793E9, 0.0, 2025-03-08 17:30:46.203
113.0, 187500.0, 23661.82490132152, 29979.83604429198, -187500.02235174447, -187500.02235174447, 9035.536233846693, -18227.55703062499, 3938.7797044252998, -0.242, 0.9440000000000001, 0.154, 192.0, 0.0, 0.0, 0.0, 0.0, 0.0, 0.0, 0.0, 0.0, 0.0, 1.741476646203832E9, 0.0, 2025-03-08 17:30:46.203
114.0, 187500.0, 23631.694749795766, 29972.348209899454, -187500.02235174447, -187500.02235174447, 9039.872472271023, -18218.661036331778, 3948.078030118708, -0.242, 0.9440000000000001, 0.154, 192.0, 0.0, 0.0, 0.0, 0.0, 0.0, 0.0, 0.0, 0.0, 0.0, 1.741476646203871E9, 0.0, 2025-03-08 17:30:46.203
115.0, 187500.0, 23599.463534291215, 29962.759311528127, -187500.02235174447, -187500.02235174447, 9039.894824015479, -18227.22175445816, 3947.228663829406, -0.242, 0.9440000000000001, 0.154, 192.0, 0.0, 0.0, 0.0, 0.0, 0.0, 0.0, 0.0, 0.0, 0.0, 1.741476646203915E9, 0.0, 2025-03-08 17:30:46.203
116.0, 187500.0, 23615.735604254678, 29964.16747142881, -187500.02235174447, -187500.02235174447, 9042.420571138928, -18239.783434842044, 3945.194655083973, -0.242, 0.9440000000000001, 0.154, 192.0, 0.0, 0.0, 0.0, 0.0, 0.0, 0.0, 0.0, 0.0, 0.0, 1.74147664620396E9, 0.0, 2025-03-08 17:30:46.203
117.0, 187500.0, 23661.82490132152, 29974.27045992261, -187500.02235174447, -187500.02235174447, 9041.168873449431, -18250.914603580786, 3944.3676405391266, -0.24, 0.932, 0.16, 192.0, 248.0, 128.0, 29.0, 32.0, 5.0, 0.0, 0.0, 0.0, 0.0, 1.741476646204004E9, 0.0, 2025-03-08 17:30:46.204
118.0, 187500.0, 23649.218517448728, 29964.860375506923, -187500.02235174447, -187500.02235174447, 9032.69756230087, -18265.97967934366, 3935.7622189238336, -0.24, 0.932, 0.16, 192.0, 0.0, 0.0, 0.0, 0.0, 0.0, 0.0, 0.0, 0.0, 0.0, 1.741476646204046E9, 0.0, 2025-03-08 17:30:46.204
119.0, 187500.0, 23609.43241231828, 29970.135387198377, -187500.02235174447, -187500.02235174447, 9042.532329861204, -18229.926315537254, 3952.2131028429394, -0.24, 0.932, 0.16, 192.0, 0.0, 0.0, 0.0, 0.0, 0.0, 0.0, 0.0, 0.0, 0.0, 1.741476646204089E9, 0.0, 2025-03-08 17:30:46.204
120.0, 187500.0, 23624.184563658782, 29975.142177956364, -187500.02235174447, -187500.02235174447, 9045.16983570693, -18206.948722237197, 3955.4094023000484, -0.24, 0.932, 0.16, 192.0, 0.0, 0.0, 0.0, 0.0, 0.0, 0.0, 0.0, 0.0, 0.0, 1.741476646204128E9, 0.0, 2025-03-08 17:30:46.204
121.0, 187500.0, 23660.372037931924, 29977.712628568726, -187500.02235174447, -187500.02235174447, 9042.398219394472, -18217.6999113202, 3949.039155130286, -0.24, 0.932, 0.16, 192.0, 0.0, 0.0, 0.0, 0.0, 0.0, 0.0, 0.0, 0.0, 0.0, 1.741476646263774E9, 0.0, 2025-03-08 17:30:46.263
122.0, 187500.0, 23665.49058741219, 29976.21506169022, -187500.02235174447, -187500.02235174447, 9039.961879248844, -18233.5025946501, 3947.6086434851463, -0.24, 0.932, 0.16, 192.0, 0.0, 0.0, 0.0, 0.0, 0.0, 0.0, 0.0, 0.0, 0.0, 1.741476646263833E9, 0.0, 2025-03-08 17:30:46.263
123.0, 187500.0, 23613.187505386773, 29967.140253441365, -187500.02235174447, -187500.02235174447, 9039.961879248844, -18229.345170181416, 3959.0080331573527, -0.24, 0.932, 0.16, 192.0, 0.0, 0.0, 0.0, 0.0, 0.0, 0.0, 0.0, 0.0, 0.0, 1.741476646263873E9, 0.0, 2025-03-08 17:30:46.263
124.0, 187500.0, 23616.71908101071, 29962.826366761492, -187500.02235174447, -187500.02235174447, 9041.12416996052, -18234.106091750396, 3960.3491378246713, -0.24, 0.932, 0.16, 192.0, 0.0, 0.0, 0.0, 0.0, 0.0, 0.0, 0.0, 0.0, 0.0, 1.741476646263911E9, 0.0, 2025-03-08 17:30:46.263
125.0, 187500.0, 23652.258354694648, 29970.60477383194, -187500.02235174447, -187500.02235174447, 9037.50318735876, -18224.919524779263, 3957.0410796452857, -0.24, 0.932, 0.16, 192.0, 0.0, 0.0, 0.0, 0.0, 0.0, 0.0, 0.0, 0.0, 0.0, 1.741476646263949E9, 0.0, 2025-03-08 17:30:46.263
126.0, 187500.0, 23664.529462400613, 29971.252974421142, -187500.02235174447, -187500.02235174447, 9038.374905392517, -18229.18870797023, 3948.97209989692, -0.24, 0.932, 0.16, 192.0, 0.0, 0.0, 0.0, 0.0, 0.0, 0.0, 0.0, 0.0, 0.0, 1.741476646263988E9, 0.0, 2025-03-08 17:30:46.263
127.0, 187500.0, 23609.790040229564, 29968.280192408587, -187500.02235174447, -187500.02235174447, 9049.64018459799, -18219.264533432073, 3962.941940181487, -0.23800000000000002, 0.9380000000000001, 0.16, 192.0, 248.0, 144.0, 29.0, 80.0, 5.0, 0.0, 0.0, 0.0, 0.0, 1.74147664626405E9, 0.0, 2025-03-08 17:30:46.264
128.0, 187500.0, 23613.366319342414, 29970.716532554216, -187500.02235174447, -187500.02235174447, 9052.188283465897, -18229.121652736863, 3964.484210548903, -0.23800000000000002, 0.9380000000000001, 0.16, 192.0, 0.0, 0.0, 0.0, 0.0, 0.0, 0.0, 0.0, 0.0, 0.0, 1.741476646264099E9, 0.0, 2025-03-08 17:30:46.264
129.0, 187500.0, 23646.290438925083, 29975.812730290025, -187500.02235174447, -187500.02235174447, 9045.281594429207, -18225.299504435006, 3959.3433093241824, -0.23800000000000002, 0.9380000000000001, 0.16, 192.0, 0.0, 0.0, 0.0, 0.0, 0.0, 0.0, 0.0, 0.0, 0.0, 1.741476646264138E9, 0.0, 2025-03-08 17:30:46.264
130.0, 187500.0, 23673.9395468163, 29977.757332057638, -187500.02235174447, -187500.02235174447, 9032.809321023145, -18221.075024732952, 3951.1402191090847, -0.23800000000000002, 0.9380000000000001, 0.16, 192.0, 0.0, 0.0, 0.0, 0.0, 0.0, 0.0, 0.0, 0.0, 0.0, 1.741476646264182E9, 0.0, 2025-03-08 17:30:46.264
131.0, 187500.0, 23621.122374668405, 29964.100416195444, -187500.02235174447, -187500.02235174447, 9036.78793153619, -18227.534678880536, 3953.487152276892, -0.23800000000000002, 0.9380000000000001, 0.16, 192.0, 0.0, 0.0, 0.0, 0.0, 0.0, 0.0, 0.0, 0.0, 0.0, 1.741476646264229E9, 0.0, 2025-03-08 17:30:46.264
132.0, 187500.0, 23618.06018567803, 29973.532852355584, -187500.02235174447, -187500.02235174447, 9038.55371934816, -18225.187745712727, 3959.0527366462634, -0.23800000000000002, 0.9380000000000001, 0.16, 192.0, 0.0, 0.0, 0.0, 0.0, 0.0, 0.0, 0.0, 0.0, 0.0, 1.741476646264274E9, 0.0, 2025-03-08 17:30:46.264
133.0, 187500.0, 23638.646142321366, 29976.483282623685, -187500.02235174447, -187500.02235174447, 9029.948297732866, -18228.31698993647, 3957.7339837234003, -0.23800000000000002, 0.9380000000000001, 0.16, 192.0, 0.0, 0.0, 0.0, 0.0, 0.0, 0.0, 0.0, 0.0, 0.0, 1.741476646264312E9, 0.0, 2025-03-08 17:30:46.264
134.0, 187500.0, 23671.145578759384, 29985.60279436145, -187500.02235174447, -187500.02235174447, 9028.003695965255, -18228.495803892114, 3955.2752918333167, -0.23800000000000002, 0.9380000000000001, 0.16, 192.0, 0.0, 0.0, 0.0, 0.0, 0.0, 0.0, 0.0, 0.0, 0.0, 1.741476646264351E9, 0.0, 2025-03-08 17:30:46.264
135.0, 187500.0, 23625.43626134828, 29971.700009310247, -187500.02235174447, -187500.02235174447, 9025.16502441943, -18240.453987175704, 3953.4200970435263, -0.23800000000000002, 0.9380000000000001, 0.16, 192.0, 0.0, 0.0, 0.0, 0.0, 0.0, 0.0, 0.0, 0.0, 0.0, 1.741476646264394E9, 0.0, 2025-03-08 17:30:46.264
136.0, 187500.0, 23609.320653596005, 29975.768026801114, -187500.02235174447, -187500.02235174447, 9041.191225193885, -18238.934068552742, 3960.5279517803137, -0.23800000000000002, 0.9380000000000001, 0.16, 192.0, 0.0, 0.0, 0.0, 0.0, 0.0, 0.0, 0.0, 0.0, 0.0, 1.741476646323779E9, 0.0, 2025-03-08 17:30:46.323
137.0, 187500.0, 23634.376959130404, 29979.925451269803, -187500.02235174447, -187500.02235174447, 9038.821940281623, -18243.873804077364, 3951.1625708535403, -0.23800000000000002, 0.9460000000000001, 0.156, 192.0, 248.0, 144.0, 29.0, 144.0, 4.0, 224.0, 0.0, 0.0, 0.0, 1.74147664632387E9, 0.0, 2025-03-08 17:30:46.323
138.0, 187500.0, 23665.222366478727, 29985.893367039367, -187500.02235174447, -187500.02235174447, 9041.325335660618, -18241.236298231637, 3946.5804632402023, -0.23800000000000002, 0.9460000000000001, 0.156, 192.0, 0.0, 0.0, 0.0, 0.0, 0.0, 0.0, 0.0, 0.0, 0.0, 1.741476646323914E9, 0.0, 2025-03-08 17:30:46.323
139.0, 187500.0, 23636.50037485366, 29973.26463142212, -187500.02235174447, -187500.02235174447, 9031.9823064783, -18252.568632670478, 3938.1538555805514, -0.23800000000000002, 0.9460000000000001, 0.156, 192.0, 0.0, 0.0, 0.0, 0.0, 0.0, 0.0, 0.0, 0.0, 0.0, 1.741476646323952E9, 0.0, 2025-03-08 17:30:46.323
140.0, 187500.0, 23597.25071159014, 29957.50665158113, -187500.02235174447, -187500.02235174447, 9029.724780288314, -18248.545318668523, 3928.900233376054, -0.23800000000000002, 0.9460000000000001, 0.156, 192.0, 0.0, 0.0, 0.0, 0.0, 0.0, 0.0, 0.0, 0.0, 0.0, 1.741476646323991E9, 0.0, 2025-03-08 17:30:46.323
141.0, 187500.0, 23619.714214767722, 29963.474567350695, -187500.02235174447, -187500.02235174447, 9035.670344313425, -18235.38014118435, 3920.4736257164036, -0.23800000000000002, 0.9460000000000001, 0.156, 192.0, 0.0, 0.0, 0.0, 0.0, 0.0, 0.0, 0.0, 0.0, 0.0, 1.74147664632403E9, 0.0, 2025-03-08 17:30:46.324
142.0, 187500.0, 23662.7860263331, 29970.425959876295, -187500.02235174447, -187500.02235174447, 9033.479873356804, -18253.105074537405, 3902.0110847963197, -0.23800000000000002, 0.9460000000000001, 0.156, 192.0, 0.0, 0.0, 0.0, 0.0, 0.0, 0.0, 0.0, 0.0, 0.0, 1.741476646324081E9, 0.0, 2025-03-08 17:30:46.324
143.0, 187500.0, 23643.518822612623, 29963.02753246159, -187500.02235174447, -187500.02235174447, 9028.964820976833, -18260.95053684122, 3882.4086049090156, -0.23800000000000002, 0.9460000000000001, 0.156, 192.0, 0.0, 0.0, 0.0, 0.0, 0.0, 0.0, 0.0, 0.0, 0.0, 1.741476646324125E9, 0.0, 2025-03-08 17:30:46.324
144.0, 187500.0, 23595.976662156187, 29956.54552656955, -187500.02235174447, -187500.02235174447, 9031.848196011568, -18241.19159474273, 3885.3590351771163, -0.23800000000000002, 0.9460000000000001, 0.156, 192.0, 0.0, 0.0, 0.0, 0.0, 0.0, 0.0, 0.0, 0.0, 0.0, 1.741476646324164E9, 0.0, 2025-03-08 17:30:46.324
145.0, 187500.0, 23606.14670588335, 29957.908982981324, -187500.02235174447, -187500.02235174447, 9034.038666968187, -18246.22073724517, 3877.334758917661, -0.23800000000000002, 0.9460000000000001, 0.156, 192.0, 0.0, 0.0, 0.0, 0.0, 0.0, 0.0, 0.0, 0.0, 0.0, 1.741476646324203E9, 0.0, 2025-03-08 17:30:46.324
146.0, 187500.0, 23641.48481386719, 29970.247145920654, -187500.02235174447, -187500.02235174447, 9037.45848386985, -18252.076894292462, 3874.071404227186, -0.23800000000000002, 0.9460000000000001, 0.156, 192.0, 0.0, 0.0, 0.0, 0.0, 0.0, 0.0, 0.0, 0.0, 0.0, 1.741476646324247E9, 0.0, 2025-03-08 17:30:46.324
147.0, 187500.0, 23643.71998831272, 29977.578518101993, -187500.02235174447, -187500.02235174447, 9035.625640824514, -18249.57349891347, 3862.806125021711, -0.23, 0.9480000000000001, 0.16, 192.0, 248.0, 208.0, 29.0, 160.0, 5.0, 0.0, 0.0, 0.0, 0.0, 1.741476646324296E9, 0.0, 2025-03-08 17:30:46.324
148.0, 187500.0, 23593.830894688475, 29974.94101225627, -187500.02235174447, -187500.02235174447, 9041.593556594082, -18242.17507149876, 3857.888741241544, -0.23, 0.9480000000000001, 0.16, 192.0, 0.0, 0.0, 0.0, 0.0, 0.0, 0.0, 0.0, 0.0, 0.0, 1.741476646324338E9, 0.0, 2025-03-08 17:30:46.324
149.0, 187500.0, 23596.82602844549, 29971.58825058797, -187500.02235174447, -187500.02235174447, 9036.631469325002, -18251.18282451425, 3843.8294939791554, -0.23, 0.9480000000000001, 0.16, 192.0, 0.0, 0.0, 0.0, 0.0, 0.0, 0.0, 0.0, 0.0, 0.0, 1.741476646324376E9, 0.0, 2025-03-08 17:30:46.324
150.0, 187500.0, 23626.10681368194, 29977.35500065744, -187500.02235174447, -187500.02235174447, 9036.229137924807, -18254.602641415913, 3851.4067353495047, -0.23, 0.9480000000000001, 0.16, 192.0, 0.0, 0.0, 0.0, 0.0, 0.0, 0.0, 0.0, 0.0, 0.0, 1.741476646324419E9, 0.0, 2025-03-08 17:30:46.324
151.0, 187500.0, 23636.366264386925, 29977.444407635263, -187500.02235174447, -187500.02235174447, 9033.077541956609, -18255.51906293858, 3843.225996878862, -0.23, 0.9480000000000001, 0.16, 192.0, 0.0, 0.0, 0.0, 0.0, 0.0, 0.0, 0.0, 0.0, 0.0, 1.741476646382978E9, 0.0, 2025-03-08 17:30:46.382
152.0, 187500.0, 23586.790095185053, 29968.615468575415, -187500.02235174447, -187500.02235174447, 9037.50318735876, -18248.455911690704, 3836.4981217978147, -0.23, 0.9480000000000001, 0.16, 192.0, 0.0, 0.0, 0.0, 0.0, 0.0, 0.0, 0.0, 0.0, 0.0, 1.741476646383067E9, 0.0, 2025-03-08 17:30:46.383
153.0, 187500.0, 23585.739563195653, 29973.488148866672, -187500.02235174447, -187500.02235174447, 9042.532329861204, -18254.580289671456, 3829.211453105385, -0.23, 0.9480000000000001, 0.16, 192.0, 0.0, 0.0, 0.0, 0.0, 0.0, 0.0, 0.0, 0.0, 0.0, 1.741476646383107E9, 0.0, 2025-03-08 17:30:46.383
154.0, 187500.0, 23613.81335423152, 29977.422055890805, -187500.02235174447, -187500.02235174447, 9034.999791979766, -18268.393667744836, 3825.0540286366977, -0.23, 0.9480000000000001, 0.16, 192.0, 0.0, 0.0, 0.0, 0.0, 0.0, 0.0, 0.0, 0.0, 0.0, 1.741476646383146E9, 0.0, 2025-03-08 17:30:46.383
155.0, 187500.0, 23638.601438832455, 29980.148968714355, -187500.02235174447, -187500.02235174447, 9038.21844318133, -18273.62397594738, 3826.752761215301, -0.23, 0.9480000000000001, 0.16, 192.0, 0.0, 0.0, 0.0, 0.0, 0.0, 0.0, 0.0, 0.0, 0.0, 1.741476646383185E9, 0.0, 2025-03-08 17:30:46.383
156.0, 187500.0, 23590.768705698098, 29970.872994765403, -187500.02235174447, -187500.02235174447, 9039.000754237266, -18256.70370539471, 3822.7965024467117, -0.23, 0.9480000000000001, 0.16, 192.0, 0.0, 0.0, 0.0, 0.0, 0.0, 0.0, 0.0, 0.0, 0.0, 1.741476646383223E9, 0.0, 2025-03-08 17:30:46.383
157.0, 187500.0, 23578.9669846257, 29973.26463142212, -187500.02235174447, -187500.02235174447, 9039.224271681818, -18234.08374000594, 3822.7965024467117, -0.228, 0.9460000000000001, 0.16, 192.0, 248.0, 224.0, 29.0, 144.0, 5.0, 0.0, 0.0, 0.0, 0.0, 1.741476646383268E9, 0.0, 2025-03-08 17:30:46.383
158.0, 187500.0, 23601.542246525558, 29976.55033785705, -187500.02235174447, -187500.02235174447, 9037.570242592126, -18241.459815676193, 3821.0307146347423, -0.228, 0.9460000000000001, 0.16, 192.0, 0.0, 0.0, 0.0, 0.0, 0.0, 0.0, 0.0, 0.0, 0.0, 1.741476646383321E9, 0.0, 2025-03-08 17:30:46.383
159.0, 187500.0, 23633.795813774566, 29979.50076812515, -187500.02235174447, -187500.02235174447, 9034.105722201553, -18251.89808033682, 3813.297011053206, -0.228, 0.9460000000000001, 0.16, 192.0, 0.0, 0.0, 0.0, 0.0, 0.0, 0.0, 0.0, 0.0, 0.0, 1.74147664638336E9, 0.0, 2025-03-08 17:30:46.383
160.0, 187500.0, 23591.215740587206, 29968.235488919676, -187500.02235174447, -187500.02235174447, 9034.97744023531, -18254.826158860466, 3812.9617348863767, -0.228, 0.9460000000000001, 0.16, 192.0, 0.0, 0.0, 0.0, 0.0, 0.0, 0.0, 0.0, 0.0, 0.0, 1.741476646383399E9, 0.0, 2025-03-08 17:30:46.383
161.0, 187500.0, 23567.142911808838, 29968.74957904215, -187500.02235174447, -187500.02235174447, 9039.179568192909, -18248.031228546053, 3820.784845445734, -0.228, 0.9460000000000001, 0.16, 192.0, 0.0, 0.0, 0.0, 0.0, 0.0, 0.0, 0.0, 0.0, 0.0, 1.741476646383443E9, 0.0, 2025-03-08 17:30:46.383
162.0, 187500.0, 23597.071897634494, 29983.837006549482, -187500.02235174447, -187500.02235174447, 9047.06973398563, -18247.47243493467, 3827.7138862268794, -0.228, 0.9460000000000001, 0.16, 192.0, 0.0, 0.0, 0.0, 0.0, 0.0, 0.0, 0.0, 0.0, 0.0, 1.74147664638349E9, 0.0, 2025-03-08 17:30:46.383
163.0, 187500.0, 23639.115528954928, 29991.078971753, -187500.02235174447, -187500.02235174447, 9046.17566420742, -18252.99331581513, 3820.8519006791, -0.228, 0.9460000000000001, 0.16, 192.0, 0.0, 0.0, 0.0, 0.0, 0.0, 0.0, 0.0, 0.0, 0.0, 1.741476646383534E9, 0.0, 2025-03-08 17:30:46.383
164.0, 187500.0, 23612.651063519847, 29981.825349548504, -187500.02235174447, -187500.02235174447, 9041.682963571902, -18243.091493021428, 3818.0355808777313, -0.228, 0.9460000000000001, 0.16, 192.0, 0.0, 0.0, 0.0, 0.0, 0.0, 0.0, 0.0, 0.0, 0.0, 1.741476646383573E9, 0.0, 2025-03-08 17:30:46.383
165.0, 187500.0, 23574.04960084553, 29970.0236284761, -187500.02235174447, -187500.02235174447, 9035.26801291323, -18257.17309202827, 3810.3465807851057, -0.228, 0.9460000000000001, 0.16, 192.0, 0.0, 0.0, 0.0, 0.0, 0.0, 0.0, 0.0, 0.0, 0.0, 1.741476646383617E9, 0.0, 2025-03-08 17:30:46.383
166.0, 187500.0, 23592.400383043336, 29978.070256480012, -187500.02235174447, -187500.02235174447, 9048.388486908494, -18249.282926235548, 3820.8966041680105, -0.228, 0.9460000000000001, 0.16, 192.0, 0.0, 0.0, 0.0, 0.0, 0.0, 0.0, 0.0, 0.0, 0.0, 1.741476646443196E9, 0.0, 2025-03-08 17:30:46.443
167.0, 187500.0, 23635.092214952972, 29989.290832196577, -187500.02235174447, -187500.02235174447, 9049.863702042545, -18243.963211055187, 3826.9986304043096, -0.232, 0.9400000000000001, 0.16, 192.0, 248.0, 192.0, 29.0, 96.0, 5.0, 0.0, 0.0, 0.0, 0.0, 1.741476646443288E9, 0.0, 2025-03-08 17:30:46.443
168.0, 187500.0, 23618.931903711786, 29980.46189313673, -187500.02235174447, -187500.02235174447, 9044.767504306736, -18261.062295563497, 3821.433046034938, -0.232, 0.9400000000000001, 0.16, 192.0, 0.0, 0.0, 0.0, 0.0, 0.0, 0.0, 0.0, 0.0, 0.0, 1.741476646443331E9, 0.0, 2025-03-08 17:30:46.443
169.0, 187500.0, 23573.311993278505, 29976.684448323784, -187500.02235174447, -187500.02235174447, 9044.543986862182, -18258.737714140145, 3825.031676892242, -0.232, 0.9400000000000001, 0.16, 192.0, 0.0, 0.0, 0.0, 0.0, 0.0, 0.0, 0.0, 0.0, 0.0, 1.74147664644337E9, 0.0, 2025-03-08 17:30:46.443
170.0, 187500.0, 23583.347926538936, 29982.004163504145, -187500.02235174447, -187500.02235174447, 9047.136789218997, -18252.009839059097, 3822.9306129134434, -0.232, 0.9400000000000001, 0.16, 192.0, 0.0, 0.0, 0.0, 0.0, 0.0, 0.0, 0.0, 0.0, 0.0, 1.741476646443408E9, 0.0, 2025-03-08 17:30:46.443
171.0, 187500.0, 23612.561656542024, 29981.579480359494, -187500.02235174447, -187500.02235174447, 9040.811245538145, -18257.32955423946, 3815.5992407321028, -0.232, 0.9400000000000001, 0.16, 192.0, 0.0, 0.0, 0.0, 0.0, 0.0, 0.0, 0.0, 0.0, 0.0, 1.741476646443447E9, 0.0, 2025-03-08 17:30:46.443
172.0, 187500.0, 23608.78421172908, 29979.858396036434, -187500.02235174447, -187500.02235174447, 9037.369076892028, -18262.13517929735, 3813.0958453531084, -0.232, 0.9400000000000001, 0.16, 192.0, 0.0, 0.0, 0.0, 0.0, 0.0, 0.0, 0.0, 0.0, 0.0, 1.741476646443485E9, 0.0, 2025-03-08 17:30:46.443
173.0, 187500.0, 23560.772664639077, 29975.097474467457, -187500.02235174447, -187500.02235174447, 9041.370039149528, -18275.747391670633, 3810.2571738072843, -0.232, 0.9400000000000001, 0.16, 192.0, 0.0, 0.0, 0.0, 0.0, 0.0, 0.0, 0.0, 0.0, 0.0, 1.741476646443536E9, 0.0, 2025-03-08 17:30:46.443
174.0, 187500.0, 23564.103074562918, 29978.0255529911, -187500.02235174447, -187500.02235174447, 9036.340896647083, -18277.781400416065, 3813.855804664589, -0.232, 0.9400000000000001, 0.16, 192.0, 0.0, 0.0, 0.0, 0.0, 0.0, 0.0, 0.0, 0.0, 0.0, 1.741476646443584E9, 0.0, 2025-03-08 17:30:46.443
175.0, 187500.0, 23591.05927837602, 29982.473550137707, -187500.02235174447, -187500.02235174447, 9037.905518758955, -18261.978717086164, 3819.466092522871, -0.232, 0.9400000000000001, 0.16, 192.0, 0.0, 0.0, 0.0, 0.0, 0.0, 0.0, 0.0, 0.0, 0.0, 1.741476646443623E9, 0.0, 2025-03-08 17:30:46.443
176.0, 187500.0, 23613.90276120934, 29988.285003696088, -187500.02235174447, -187500.02235174447, 9040.699486815869, -18241.75038835411, 3827.4009618045047, -0.232, 0.9400000000000001, 0.16, 192.0, 0.0, 0.0, 0.0, 0.0, 0.0, 0.0, 0.0, 0.0, 0.0, 1.741476646443667E9, 0.0, 2025-03-08 17:30:46.443
177.0, 187500.0, 23563.745446651632, 29981.959460015234, -187500.02235174447, -187500.02235174447, 9045.818036296134, -18231.759158582587, 3832.1842351179407, -0.242, 0.9400000000000001, 0.16, 192.0, 248.0, 112.0, 29.0, 96.0, 5.0, 0.0, 0.0, 0.0, 0.0, 1.741476646443706E9, 0.0, 2025-03-08 17:30:46.443
178.0, 187500.0, 23560.95147859472, 29981.490073381672, -187500.02235174447, -187500.02235174447, 9047.203844452362, -18240.208117986695, 3831.200758361907, -0.242, 0.9400000000000001, 0.16, 192.0, 0.0, 0.0, 0.0, 0.0, 0.0, 0.0, 0.0, 0.0, 0.0, 1.741476646443757E9, 0.0, 2025-03-08 17:30:46.443
179.0, 187500.0, 23589.360545797415, 29980.238375692177, -187500.02235174447, -187500.02235174447, 9038.196091436874, -18255.653173405313, 3825.5010635258036, -0.242, 0.9400000000000001, 0.16, 192.0, 0.0, 0.0, 0.0, 0.0, 0.0, 0.0, 0.0, 0.0, 0.0, 1.741476646443796E9, 0.0, 2025-03-08 17:30:46.443
180.0, 187500.0, 23612.06991816401, 29975.36569540092, -187500.02235174447, -187500.02235174447, 9032.183472178396, -18265.19736828773, 3818.728484955846, -0.242, 0.9400000000000001, 0.16, 192.0, 0.0, 0.0, 0.0, 0.0, 0.0, 0.0, 0.0, 0.0, 0.0, 1.741476646443834E9, 0.0, 2025-03-08 17:30:46.443
181.0, 187500.0, 23567.746408909134, 29969.576593586993, -187500.02235174447, -187500.02235174447, 9041.325335660618, -18262.358696741903, 3828.1609211159853, -0.242, 0.9400000000000001, 0.16, 192.0, 0.0, 0.0, 0.0, 0.0, 0.0, 0.0, 0.0, 0.0, 0.0, 1.741476646503537E9, 0.0, 2025-03-08 17:30:46.503
182.0, 187500.0, 23558.00104832662, 29967.78845403057, -187500.02235174447, -187500.02235174447, 9042.26410892774, -18270.94176661274, 3830.4184473059713, -0.242, 0.9400000000000001, 0.16, 192.0, 0.0, 0.0, 0.0, 0.0, 0.0, 0.0, 0.0, 0.0, 0.0, 1.741476646503597E9, 0.0, 2025-03-08 17:30:46.503
183.0, 187500.0, 23581.291566049047, 29975.611564589926, -187500.02235174447, -187500.02235174447, 9038.106684459053, -18269.935938112252, 3829.3232118276615, -0.242, 0.9400000000000001, 0.16, 192.0, 0.0, 0.0, 0.0, 0.0, 0.0, 0.0, 0.0, 0.0, 0.0, 1.741476646503663E9, 0.0, 2025-03-08 17:30:46.503
184.0, 187500.0, 23602.52572328159, 29982.69706758226, -187500.02235174447, -187500.02235174447, 9037.011448980744, -18249.037057046542, 3828.585604260636, -0.242, 0.9400000000000001, 0.16, 192.0, 0.0, 0.0, 0.0, 0.0, 0.0, 0.0, 0.0, 0.0, 0.0, 1.741476646503702E9, 0.0, 2025-03-08 17:30:46.503
185.0, 187500.0, 23566.09237981944, 29980.193672203266, -187500.02235174447, -187500.02235174447, 9039.31367865964, -18231.781510327044, 3836.0287351642532, -0.242, 0.9400000000000001, 0.16, 192.0, 0.0, 0.0, 0.0, 0.0, 0.0, 0.0, 0.0, 0.0, 0.0, 1.741476646503741E9, 0.0, 2025-03-08 17:30:46.503
186.0, 187500.0, 23539.71732136218, 29979.63487859188, -187500.02235174447, -187500.02235174447, 9042.532329861204, -18244.343190710926, 3836.431066564449, -0.242, 0.9400000000000001, 0.16, 192.0, 0.0, 0.0, 0.0, 0.0, 0.0, 0.0, 0.0, 0.0, 0.0, 1.741476646503779E9, 0.0, 2025-03-08 17:30:46.503
187.0, 187500.0, 23558.246917515626, 29984.55226237205, -187500.02235174447, -187500.02235174447, 9042.867606028034, -18237.883536563342, 3838.1968543764183, -0.24, 0.9420000000000001, 0.16, 192.0, 248.0, 128.0, 29.0, 112.0, 5.0, 0.0, 0.0, 0.0, 0.0, 1.741476646503817E9, 0.0, 2025-03-08 17:30:46.503
188.0, 187500.0, 23596.75897321212, 29991.54835838656, -187500.02235174447, -187500.02235174447, 9037.391428636483, -18246.399551200815, 3833.458284551893, -0.24, 0.9420000000000001, 0.16, 192.0, 0.0, 0.0, 0.0, 0.0, 0.0, 0.0, 0.0, 0.0, 0.0, 1.741476646503874E9, 0.0, 2025-03-08 17:30:46.503
189.0, 187500.0, 23568.394609498337, 29983.56878561602, -187500.02235174447, -187500.02235174447, 9042.934661261399, -18252.90390883731, 3834.8664444525775, -0.24, 0.9420000000000001, 0.16, 192.0, 0.0, 0.0, 0.0, 0.0, 0.0, 0.0, 0.0, 0.0, 0.0, 1.741476646503918E9, 0.0, 2025-03-08 17:30:46.503
190.0, 187500.0, 23541.885440574344, 29985.692201339272, -187500.02235174447, -187500.02235174447, 9049.46137064235, -18249.32762972446, 3846.8693312250775, -0.24, 0.9420000000000001, 0.16, 192.0, 0.0, 0.0, 0.0, 0.0, 0.0, 0.0, 0.0, 0.0, 0.0, 1.741476646503956E9, 0.0, 2025-03-08 17:30:46.503
191.0, 187500.0, 23566.98644959765, 29989.179073474297, -187500.02235174447, -187500.02235174447, 9045.728629318313, -18253.9097373378, 3845.192950390929, -0.24, 0.9420000000000001, 0.16, 192.0, 0.0, 0.0, 0.0, 0.0, 0.0, 0.0, 0.0, 0.0, 0.0, 1.741476646503995E9, 0.0, 2025-03-08 17:30:46.503
192.0, 187500.0, 23595.596682500447, 29983.345268171463, -187500.02235174447, -187500.02235174447, 9036.139730946987, -18263.208063031205, 3832.5642147736808, -0.24, 0.9420000000000001, 0.16, 192.0, 0.0, 0.0, 0.0, 0.0, 0.0, 0.0, 0.0, 0.0, 0.0, 1.74147664650404E9, 0.0, 2025-03-08 17:30:46.504
193.0, 187500.0, 23577.67058344729, 29978.003201246644, -187500.02235174447, -187500.02235174447, 9031.714085544836, -18257.463664706193, 3834.0617816521863, -0.24, 0.9420000000000001, 0.16, 192.0, 0.0, 0.0, 0.0, 0.0, 0.0, 0.0, 0.0, 0.0, 0.0, 1.741476646504089E9, 0.0, 2025-03-08 17:30:46.504
194.0, 187500.0, 23536.43161492725, 29975.566861101015, -187500.02235174447, -187500.02235174447, 9036.430303624906, -18252.03219080355, 3840.007345677298, -0.24, 0.9420000000000001, 0.16, 192.0, 0.0, 0.0, 0.0, 0.0, 0.0, 0.0, 0.0, 0.0, 0.0, 1.741476646504128E9, 0.0, 2025-03-08 17:30:46.504
195.0, 187500.0, 23551.56374592349, 29980.551300114552, -187500.02235174447, -187500.02235174447, 9038.665478070436, -18251.47339719217, 3841.549616044714, -0.24, 0.9420000000000001, 0.16, 192.0, 0.0, 0.0, 0.0, 0.0, 0.0, 0.0, 0.0, 0.0, 0.0, 1.741476646504167E9, 0.0, 2025-03-08 17:30:46.504
196.0, 187500.0, 23588.28766206356, 29992.487131653685, -187500.02235174447, -187500.02235174447, 9038.21844318133, -18252.948612326218, 3842.4436858229265, -0.24, 0.9420000000000001, 0.16, 192.0, 0.0, 0.0, 0.0, 0.0, 0.0, 0.0, 0.0, 0.0, 0.0, 1.741476646563769E9, 0.0, 2025-03-08 17:30:46.563
197.0, 187500.0, 23587.75122019663, 29993.381201431897, -187500.02235174447, -187500.02235174447, 9042.532329861204, -18247.003048301107, 3846.109371913597, -0.24, 0.9440000000000001, 0.158, 192.0, 248.0, 128.0, 29.0, 128.0, 4.0, 240.0, 0.0, 0.0, 0.0, 1.741476646563826E9, 0.0, 2025-03-08 17:30:46.563
198.0, 187500.0, 23536.029283527052, 29988.50852114064, -187500.02235174447, -187500.02235174447, 9045.952146762866, -18239.55991739749, 3852.747840016823, -0.24, 0.9440000000000001, 0.158, 192.0, 0.0, 0.0, 0.0, 0.0, 0.0, 0.0, 0.0, 0.0, 0.0, 1.741476646563902E9, 0.0, 2025-03-08 17:30:46.563
199.0, 187500.0, 23545.349960964915, 29992.889463053878, -187500.02235174447, -187500.02235174447, 9045.84038804059, -18238.88936506383, 3853.7983720062225, -0.24, 0.9440000000000001, 0.158, 192.0, 0.0, 0.0, 0.0, 0.0, 0.0, 0.0, 0.0, 0.0, 0.0, 1.741476646563942E9, 0.0, 2025-03-08 17:30:46.563
200.0, 187500.0, 23578.251728803127, 29993.492960154173, -187500.02235174447, -187500.02235174447, 9039.35838214855, -18240.52104240907, 3851.4514388384155, -0.24, 0.9440000000000001, 0.158, 192.0, 0.0, 0.0, 0.0, 0.0, 0.0, 0.0, 0.0, 0.0, 0.0, 1.741476646563981E9, 0.0, 2025-03-08 17:30:46.563
201.0, 187500.0, 23593.00388014363, 29993.336497942986, -187500.02235174447, -187500.02235174447, 9039.626603082013, -18242.37623719886, 3859.363956375594, -0.24, 0.9440000000000001, 0.158, 192.0, 0.0, 0.0, 0.0, 0.0, 0.0, 0.0, 0.0, 0.0, 0.0, 1.741476646564019E9, 0.0, 2025-03-08 17:30:46.564
202.0, 187500.0, 23546.89223133233, 29992.755352587148, -187500.02235174447, -187500.02235174447, 9047.762638063747, -18243.18089999925, 3865.018947722787, -0.24, 0.9440000000000001, 0.158, 192.0, 0.0, 0.0, 0.0, 0.0, 0.0, 0.0, 0.0, 0.0, 0.0, 1.741476646564058E9, 0.0, 2025-03-08 17:30:46.564
203.0, 187500.0, 23547.249859243617, 29991.36954443092, -187500.02235174447, -187500.02235174447, 9048.567300864137, -18246.08662677844, 3860.6156540650913, -0.24, 0.9440000000000001, 0.158, 192.0, 0.0, 0.0, 0.0, 0.0, 0.0, 0.0, 0.0, 0.0, 0.0, 1.741476646564104E9, 0.0, 2025-03-08 17:30:46.564
204.0, 187500.0, 23574.563690968, 29996.17516948881, -187500.02235174447, -187500.02235174447, 9044.767504306736, -18234.039036517028, 3862.068517454686, -0.24, 0.9440000000000001, 0.158, 192.0, 0.0, 0.0, 0.0, 0.0, 0.0, 0.0, 0.0, 0.0, 0.0, 1.741476646564153E9, 0.0, 2025-03-08 17:30:46.564
205.0, 187500.0, 23591.886292920863, 29991.682468853294, -187500.02235174447, -187500.02235174447, 9033.859853012545, -18241.683333120745, 3863.2084564219067, -0.24, 0.9440000000000001, 0.158, 192.0, 0.0, 0.0, 0.0, 0.0, 0.0, 0.0, 0.0, 0.0, 0.0, 1.741476646564192E9, 0.0, 2025-03-08 17:30:46.564
206.0, 187500.0, 23540.94666730722, 29982.540605371072, -187500.02235174447, -187500.02235174447, 9041.638260082991, -18252.70274313721, 3861.710889543401, -0.24, 0.9440000000000001, 0.158, 192.0, 0.0, 0.0, 0.0, 0.0, 0.0, 0.0, 0.0, 0.0, 0.0, 1.74147664656423E9, 0.0, 2025-03-08 17:30:46.564
207.0, 187500.0, 23536.36455969388, 29979.36665765842, -187500.02235174447, -187500.02235174447, 9040.654783326958, -18267.320784010983, 3856.6593952965018, -0.246, 0.9500000000000001, 0.16, 192.0, 248.0, 80.0, 29.0, 176.0, 5.0, 0.0, 0.0, 0.0, 0.0, 1.741476646564275E9, 0.0, 2025-03-08 17:30:46.564
208.0, 187500.0, 23562.873728617877, 29983.032343749088, -187500.02235174447, -187500.02235174447, 9034.440998368384, -18245.930164567253, 3855.5418080737363, -0.246, 0.9500000000000001, 0.16, 192.0, 0.0, 0.0, 0.0, 0.0, 0.0, 0.0, 0.0, 0.0, 0.0, 1.741476646564322E9, 0.0, 2025-03-08 17:30:46.564
209.0, 187500.0, 23585.270176562095, 29987.748561829158, -187500.02235174447, -187500.02235174447, 9032.429341367406, -18219.443347387714, 3862.2249796658734, -0.246, 0.9500000000000001, 0.16, 192.0, 0.0, 0.0, 0.0, 0.0, 0.0, 0.0, 0.0, 0.0, 0.0, 1.741476646564365E9, 0.0, 2025-03-08 17:30:46.564
210.0, 187500.0, 23544.36648420888, 29976.773855301602, -187500.02235174447, -187500.02235174447, 9034.329239646106, -18233.74846383911, 3869.176372191474, -0.246, 0.9500000000000001, 0.16, 192.0, 0.0, 0.0, 0.0, 0.0, 0.0, 0.0, 0.0, 0.0, 0.0, 1.741476646564404E9, 0.0, 2025-03-08 17:30:46.564
211.0, 187500.0, 23527.155640978293, 29976.21506169022, -187500.02235174447, -187500.02235174447, 9044.02989673971, -18236.095397006917, 3872.104450715119, -0.246, 0.9500000000000001, 0.16, 192.0, 0.0, 0.0, 0.0, 0.0, 0.0, 0.0, 0.0, 0.0, 0.0, 1.741476646624139E9, 0.0, 2025-03-08 17:30:46.624
212.0, 187500.0, 23553.061312801998, 29984.060523994034, -187500.02235174447, -187500.02235174447, 9049.349611920074, -18227.020588758063, 3870.919808258988, -0.246, 0.9500000000000001, 0.16, 192.0, 0.0, 0.0, 0.0, 0.0, 0.0, 0.0, 0.0, 0.0, 0.0, 1.741476646624216E9, 0.0, 2025-03-08 17:30:46.624
213.0, 187500.0, 23592.646252232345, 29988.352058929453, -187500.02235174447, -187500.02235174447, 9041.884129272, -18229.769853326066, 3864.8624855115995, -0.246, 0.9500000000000001, 0.16, 192.0, 0.0, 0.0, 0.0, 0.0, 0.0, 0.0, 0.0, 0.0, 0.0, 1.741476646624264E9, 0.0, 2025-03-08 17:30:46.624
214.0, 187500.0, 23562.158472795305, 29973.59990758895, -187500.02235174447, -187500.02235174447, 9038.106684459053, -18244.745522111123, 3857.754630774812, -0.246, 0.9500000000000001, 0.16, 192.0, 0.0, 0.0, 0.0, 0.0, 0.0, 0.0, 0.0, 0.0, 0.0, 1.741476646624309E9, 0.0, 2025-03-08 17:30:46.624
215.0, 187500.0, 23531.67069335827, 29975.857433778936, -187500.02235174447, -187500.02235174447, 9040.721838560325, -18232.407359171793, 3869.198723935929, -0.246, 0.9500000000000001, 0.16, 192.0, 0.0, 0.0, 0.0, 0.0, 0.0, 0.0, 0.0, 0.0, 0.0, 1.741476646624348E9, 0.0, 2025-03-08 17:30:46.624
216.0, 187500.0, 23547.33926622144, 29977.891442524367, -187500.02235174447, -187500.02235174447, 9041.593556594082, -18242.97973429915, 3868.952854746921, -0.246, 0.9500000000000001, 0.16, 192.0, 0.0, 0.0, 0.0, 0.0, 0.0, 0.0, 0.0, 0.0, 0.0, 1.741476646624386E9, 0.0, 2025-03-08 17:30:46.624
217.0, 187500.0, 23585.918377151298, 29978.58434660248, -187500.02235174447, -187500.02235174447, 9036.944393747377, -18255.94374608323, 3861.0626889541973, -0.242, 0.9420000000000001, 0.154, 192.0, 248.0, 112.0, 29.0, 112.0, 4.0, 208.0, 0.0, 0.0, 0.0, 1.741476646624425E9, 0.0, 2025-03-08 17:30:46.624
218.0, 187500.0, 23576.016554357597, 29973.421093633307, -187500.02235174447, -187500.02235174447, 9045.147483962475, -18249.528795424558, 3872.4397268819484, -0.242, 0.9420000000000001, 0.154, 192.0, 0.0, 0.0, 0.0, 0.0, 0.0, 0.0, 0.0, 0.0, 0.0, 1.741476646624467E9, 0.0, 2025-03-08 17:30:46.624
219.0, 187500.0, 23535.17991723775, 29966.69321855226, -187500.02235174447, -187500.02235174447, 9052.322393932629, -18245.393722700326, 3876.2842269282614, -0.242, 0.9420000000000001, 0.154, 192.0, 0.0, 0.0, 0.0, 0.0, 0.0, 0.0, 0.0, 0.0, 0.0, 1.741476646624518E9, 0.0, 2025-03-08 17:30:46.624
220.0, 187500.0, 23545.9087545763, 29969.464834864717, -187500.02235174447, -187500.02235174447, 9051.249510198773, -18223.354902667394, 3874.5631426052028, -0.242, 0.9420000000000001, 0.154, 192.0, 0.0, 0.0, 0.0, 0.0, 0.0, 0.0, 0.0, 0.0, 0.0, 1.741476646624562E9, 0.0, 2025-03-08 17:30:46.624
221.0, 187500.0, 23577.022382858086, 29977.39970414635, -187500.02235174447, -187500.02235174447, 9047.941452019388, -18229.814556814978, 3863.0296424662642, -0.242, 0.9420000000000001, 0.154, 192.0, 0.0, 0.0, 0.0, 0.0, 0.0, 0.0, 0.0, 0.0, 0.0, 1.741476646624656E9, 0.0, 2025-03-08 17:30:46.624
222.0, 187500.0, 23581.693897449244, 29980.1266169699, -187500.02235174447, -187500.02235174447, 9048.701411330869, -18224.584248612435, 3866.985901234854, -0.242, 0.9420000000000001, 0.154, 192.0, 0.0, 0.0, 0.0, 0.0, 0.0, 0.0, 0.0, 0.0, 0.0, 1.741476646624706E9, 0.0, 2025-03-08 17:30:46.624
223.0, 187500.0, 23537.41509168328, 29971.58825058797, -187500.02235174447, -187500.02235174447, 9047.60617585256, -18229.568687625968, 3874.429032138471, -0.242, 0.9420000000000001, 0.154, 192.0, 0.0, 0.0, 0.0, 0.0, 0.0, 0.0, 0.0, 0.0, 0.0, 1.741476646624738E9, 0.0, 2025-03-08 17:30:46.624
224.0, 187500.0, 23538.376216694858, 29975.432750634285, -187500.02235174447, -187500.02235174447, 9051.428324154416, -18223.958399767685, 3884.330854932172, -0.242, 0.9420000000000001, 0.154, 192.0, 0.0, 0.0, 0.0, 0.0, 0.0, 0.0, 0.0, 0.0, 0.0, 1.741476646624773E9, 0.0, 2025-03-08 17:30:46.624
225.0, 187500.0, 23577.67058344729, 29988.396762418364, -187500.02235174447, -187500.02235174447, 9051.60713811006, -18234.08374000594, 3879.8828577855656, -0.242, 0.9420000000000001, 0.154, 192.0, 0.0, 0.0, 0.0, 0.0, 0.0, 0.0, 0.0, 0.0, 0.0, 1.741476646624799E9, 0.0, 2025-03-08 17:30:46.624
226.0, 187500.0, 23596.490752278656, 29988.441465907275, -187500.02235174447, -187500.02235174447, 9047.092085730086, -18228.719321336666, 3875.8595437836107, -0.242, 0.9420000000000001, 0.154, 192.0, 0.0, 0.0, 0.0, 0.0, 0.0, 0.0, 0.0, 0.0, 0.0, 1.741476646683236E9, 0.0, 2025-03-08 17:30:46.683
227.0, 187500.0, 23543.271248730573, 29982.160625715333, -187500.02235174447, -187500.02235174447, 9042.711143816847, -18226.08181549094, 3878.094718229141, -0.242, 0.9380000000000001, 0.16, 192.0, 248.0, 112.0, 29.0, 80.0, 5.0, 0.0, 0.0, 0.0, 0.0, 1.741476646683279E9, 0.0, 2025-03-08 17:30:46.683
228.0, 187500.0, 23538.577382394957, 29978.897271024856, -187500.02235174447, -187500.02235174447, 9046.577995607615, -18228.40639691429, 3872.0820989706635, -0.242, 0.9380000000000001, 0.16, 192.0, 0.0, 0.0, 0.0, 0.0, 0.0, 0.0, 0.0, 0.0, 0.0, 1.741476646683311E9, 0.0, 2025-03-08 17:30:46.683
229.0, 187500.0, 23567.388780997848, 29986.2286432062, -187500.02235174447, -187500.02235174447, 9048.8355217976, -18223.28784743403, 3868.1481919465296, -0.242, 0.9380000000000001, 0.16, 192.0, 0.0, 0.0, 0.0, 0.0, 0.0, 0.0, 0.0, 0.0, 0.0, 1.741476646683343E9, 0.0, 2025-03-08 17:30:46.683
230.0, 187500.0, 23588.600586485933, 29984.284041438586, -187500.02235174447, -187500.02235174447, 9040.475969371315, -18233.010856272085, 3864.080174455664, -0.242, 0.9380000000000001, 0.16, 192.0, 0.0, 0.0, 0.0, 0.0, 0.0, 0.0, 0.0, 0.0, 0.0, 1.74147664668337E9, 0.0, 2025-03-08 17:30:46.683
231.0, 187500.0, 23537.504498661103, 29977.55616635754, -187500.02235174447, -187500.02235174447, 9049.751943320269, -18230.015722515076, 3877.491221128848, -0.242, 0.9380000000000001, 0.16, 192.0, 0.0, 0.0, 0.0, 0.0, 0.0, 0.0, 0.0, 0.0, 0.0, 1.741476646683394E9, 0.0, 2025-03-08 17:30:46.683
232.0, 187500.0, 23528.6532078568, 29981.713590826228, -187500.02235174447, -187500.02235174447, 9052.255338699262, -18235.491899906625, 3876.4406891394488, -0.242, 0.9380000000000001, 0.16, 192.0, 0.0, 0.0, 0.0, 0.0, 0.0, 0.0, 0.0, 0.0, 0.0, 1.741476646683421E9, 0.0, 2025-03-08 17:30:46.683
233.0, 187500.0, 23552.48016744616, 29985.245166450164, -187500.02235174447, -187500.02235174447, 9048.299079930674, -18240.90102206481, 3871.523305359281, -0.242, 0.9380000000000001, 0.16, 192.0, 0.0, 0.0, 0.0, 0.0, 0.0, 0.0, 0.0, 0.0, 0.0, 1.741476646683447E9, 0.0, 2025-03-08 17:30:46.683
234.0, 187500.0, 23580.37514452638, 29985.625146105904, -187500.02235174447, -187500.02235174447, 9042.55468160566, -18253.7085716377, 3863.655491311013, -0.242, 0.9380000000000001, 0.16, 192.0, 0.0, 0.0, 0.0, 0.0, 0.0, 0.0, 0.0, 0.0, 0.0, 1.74147664668348E9, 0.0, 2025-03-08 17:30:46.683
235.0, 187500.0, 23538.08564401694, 29972.45996862173, -187500.02235174447, -187500.02235174447, 9034.798626279668, -18271.969946857687, 3858.6039970641136, -0.242, 0.9380000000000001, 0.16, 192.0, 0.0, 0.0, 0.0, 0.0, 0.0, 0.0, 0.0, 0.0, 0.0, 1.741476646683509E9, 0.0, 2025-03-08 17:30:46.683
236.0, 187500.0, 23514.705719316687, 29976.148006456853, -187500.02235174447, -187500.02235174447, 9040.990059493788, -18252.501577437113, 3870.495125114337, -0.242, 0.9380000000000001, 0.16, 192.0, 0.0, 0.0, 0.0, 0.0, 0.0, 0.0, 0.0, 0.0, 0.0, 1.741476646683535E9, 0.0, 2025-03-08 17:30:46.683
237.0, 187500.0, 23539.94083880673, 29978.249070435653, -187500.02235174447, -187500.02235174447, 9035.916213502433, -18231.84856556041, 3874.0267007382754, -0.24, 0.936, 0.158, 192.0, 248.0, 128.0, 29.0, 64.0, 4.0, 240.0, 0.0, 0.0, 0.0, 1.741476646683561E9, 0.0, 2025-03-08 17:30:46.683
238.0, 187500.0, 23575.636574701857, 29983.278212938098, -187500.02235174447, -187500.02235174447, 9041.0347629827, -18238.688199363733, 3872.4173751374933, -0.24, 0.936, 0.158, 192.0, 0.0, 0.0, 0.0, 0.0, 0.0, 0.0, 0.0, 0.0, 0.0, 1.741476646683595E9, 0.0, 2025-03-08 17:30:46.683
239.0, 187500.0, 23553.79892036902, 29980.394837903365, -187500.02235174447, -187500.02235174447, 9046.466236885339, -18234.195498728215, 3878.3182356736943, -0.24, 0.936, 0.158, 192.0, 0.0, 0.0, 0.0, 0.0, 0.0, 0.0, 0.0, 0.0, 0.0, 1.741476646683627E9, 0.0, 2025-03-08 17:30:46.683
240.0, 187500.0, 23519.600751352402, 29976.237413434676, -187500.02235174447, -187500.02235174447, 9042.532329861204, -18233.234373716637, 3872.886761771055, -0.24, 0.936, 0.158, 192.0, 0.0, 0.0, 0.0, 0.0, 0.0, 0.0, 0.0, 0.0, 0.0, 1.741476646683653E9, 0.0, 2025-03-08 17:30:46.683
241.0, 187500.0, 23537.03511202754, 29973.175224444298, -187500.02235174447, -187500.02235174447, 9037.994925736777, -18236.162452240285, 3865.398927378527, -0.24, 0.936, 0.158, 192.0, 0.0, 0.0, 0.0, 0.0, 0.0, 0.0, 0.0, 0.0, 0.0, 1.741476646743097E9, 0.0, 2025-03-08 17:30:46.743
242.0, 187500.0, 23569.33338276546, 29979.187843702777, -187500.02235174447, -187500.02235174447, 9037.12320770302, -18240.56574589798, 3864.9071890005102, -0.24, 0.936, 0.158, 192.0, 0.0, 0.0, 0.0, 0.0, 0.0, 0.0, 0.0, 0.0, 0.0, 1.741476646743137E9, 0.0, 2025-03-08 17:30:46.743
243.0, 187500.0, 23555.050618058518, 29980.439541392272, -187500.02235174447, -187500.02235174447, 9043.113475217042, -18235.98363828464, 3870.942160003443, -0.24, 0.936, 0.158, 192.0, 0.0, 0.0, 0.0, 0.0, 0.0, 0.0, 0.0, 0.0, 0.0, 1.741476646743163E9, 0.0, 2025-03-08 17:30:46.743
244.0, 187500.0, 23510.07890821444, 29974.94101225627, -187500.02235174447, -187500.02235174447, 9041.325335660618, -18241.772740098564, 3871.1880291924513, -0.24, 0.936, 0.158, 192.0, 0.0, 0.0, 0.0, 0.0, 0.0, 0.0, 0.0, 0.0, 0.0, 1.741476646743197E9, 0.0, 2025-03-08 17:30:46.743
245.0, 187500.0, 23521.634760097833, 29982.607660604437, -187500.02235174447, -187500.02235174447, 9044.32046941763, -18229.769853326066, 3876.8653722840995, -0.24, 0.936, 0.158, 192.0, 0.0, 0.0, 0.0, 0.0, 0.0, 0.0, 0.0, 0.0, 0.0, 1.741476646743223E9, 0.0, 2025-03-08 17:30:46.743
246.0, 187500.0, 23557.822234370975, 29986.40745716184, -187500.02235174447, -187500.02235174447, 9041.235928682796, -18233.904926050298, 3875.770136805789, -0.24, 0.936, 0.158, 192.0, 0.0, 0.0, 0.0, 0.0, 0.0, 0.0, 0.0, 0.0, 0.0, 1.741476646743249E9, 0.0, 2025-03-08 17:30:46.743
247.0, 187500.0, 23559.543318694035, 29984.485207138685, -187500.02235174447, -187500.02235174447, 9046.734457818802, -18239.671676119768, 3876.708910072912, -0.24, 0.936, 0.16, 192.0, 248.0, 128.0, 29.0, 64.0, 5.0, 0.0, 0.0, 0.0, 0.0, 1.741476646743275E9, 0.0, 2025-03-08 17:30:46.743
248.0, 187500.0, 23507.933140746733, 29976.058599479034, -187500.02235174447, -187500.02235174447, 9043.806379295156, -18249.99818205812, 3876.5300961172697, -0.24, 0.936, 0.16, 192.0, 0.0, 0.0, 0.0, 0.0, 0.0, 0.0, 0.0, 0.0, 0.0, 1.741476646743302E9, 0.0, 2025-03-08 17:30:46.743
249.0, 187500.0, 23508.782507036034, 29972.92935525529, -187500.02235174447, -187500.02235174447, 9034.9327367464, -18247.673600634767, 3874.7643083053003, -0.24, 0.936, 0.16, 192.0, 0.0, 0.0, 0.0, 0.0, 0.0, 0.0, 0.0, 0.0, 0.0, 1.741476646743332E9, 0.0, 2025-03-08 17:30:46.743
250.0, 187500.0, 23540.812556840487, 29979.567823358517, -187500.02235174447, -187500.02235174447, 9036.49735885827, -18239.962248797685, 3877.1559449620186, -0.24, 0.936, 0.16, 192.0, 0.0, 0.0, 0.0, 0.0, 0.0, 0.0, 0.0, 0.0, 0.0, 1.741476646743364E9, 0.0, 2025-03-08 17:30:46.743
251.0, 187500.0, 23552.502519190613, 29982.205329204244, -187500.02235174447, -187500.02235174447, 9039.671306570925, -18240.051655775507, 3880.1287269745744, -0.24, 0.936, 0.16, 192.0, 0.0, 0.0, 0.0, 0.0, 0.0, 0.0, 0.0, 0.0, 0.0, 1.741476646743389E9, 0.0, 2025-03-08 17:30:46.743
252.0, 187500.0, 23503.149867433294, 29975.209233189733, -187500.02235174447, -187500.02235174447, 9040.8335972826, -18232.385007427336, 3884.241447954351, -0.24, 0.936, 0.16, 192.0, 0.0, 0.0, 0.0, 0.0, 0.0, 0.0, 0.0, 0.0, 0.0, 1.741476646743416E9, 0.0, 2025-03-08 17:30:46.743
253.0, 187500.0, 23504.781544778532, 29977.1761867018, -187500.02235174447, -187500.02235174447, 9041.794722294178, -18228.875783547854, 3882.0286252532755, -0.24, 0.936, 0.16, 192.0, 0.0, 0.0, 0.0, 0.0, 0.0, 0.0, 0.0, 0.0, 0.0, 1.741476646743446E9, 0.0, 2025-03-08 17:30:46.743
254.0, 187500.0, 23534.732882348646, 29985.826311806002, -187500.02235174447, -187500.02235174447, 9042.64408858348, -18226.12651897985, 3887.9294857894765, -0.24, 0.936, 0.16, 192.0, 0.0, 0.0, 0.0, 0.0, 0.0, 0.0, 0.0, 0.0, 0.0, 1.741476646743476E9, 0.0, 2025-03-08 17:30:46.743
255.0, 187500.0, 23563.90190886282, 29990.184901974786, -187500.02235174447, -187500.02235174447, 9037.279669914207, -18230.529812637546, 3885.0684624991973, -0.24, 0.936, 0.16, 192.0, 0.0, 0.0, 0.0, 0.0, 0.0, 0.0, 0.0, 0.0, 0.0, 1.741476646743505E9, 0.0, 2025-03-08 17:30:46.743
0.0, 187500.0, 23521.098318230906, 29982.048866993056, -187500.02235174447, -187500.02235174447, 9035.64799256897, -18238.66584761928, 3883.8614682986104, -0.24, 0.936, 0.16, 192.0, 0.0, 0.0, 0.0, 0.0, 0.0, 0.0, 0.0, 0.0, 0.0, 1.741476646803604E9, 0.0, 2025-03-08 17:30:46.803
1.0, 187500.0, 23512.001158237596, 29981.199500703755, -187500.02235174447, -187500.02235174447, 9040.923004260421, -18247.383027956846, 3884.1520409765294, -0.244, 0.9380000000000001, 0.154, 192.0, 248.0, 96.0, 29.0, 80.0, 4.0, 208.0, 0.0, 0.0, 0.0, 1.741476646803643E9, 0.0, 2025-03-08 17:30:46.803
2.0, 187500.0, 23533.436481170236, 29983.814654805024, -187500.02235174447, -187500.02235174447, 9043.828731039612, -18244.43259768875, 3889.784680579267, -0.244, 0.9380000000000001, 0.154, 192.0, 0.0, 0.0, 0.0, 0.0, 0.0, 0.0, 0.0, 0.0, 0.0, 1.741476646803692E9, 0.0, 2025-03-08 17:30:46.803
3.0, 187500.0, 23565.064199574495, 29990.430771163796, -187500.02235174447, -187500.02235174447, 9038.039629225686, -18239.157585997295, 3886.878953800077, -0.244, 0.9380000000000001, 0.154, 192.0, 0.0, 0.0, 0.0, 0.0, 0.0, 0.0, 0.0, 0.0, 0.0, 1.741476646803721E9, 0.0, 2025-03-08 17:30:46.803
4.0, 187500.0, 23520.718338575167, 29979.0760849805, -187500.02235174447, -187500.02235174447, 9036.564414091637, -18241.437463931736, 3885.135517732563, -0.244, 0.9380000000000001, 0.154, 192.0, 0.0, 0.0, 0.0, 0.0, 0.0, 0.0, 0.0, 0.0, 0.0, 1.741476646803749E9, 0.0, 2025-03-08 17:30:46.803
5.0, 187500.0, 23502.054631954987, 29978.718457069215, -187500.02235174447, -187500.02235174447, 9039.134864703998, -18231.915620793774, 3887.2142299669067, -0.244, 0.9380000000000001, 0.154, 192.0, 0.0, 0.0, 0.0, 0.0, 0.0, 0.0, 0.0, 0.0, 0.0, 1.741476646803775E9, 0.0, 2025-03-08 17:30:46.803
6.0, 187500.0, 23521.344187419916, 29975.678619823295, -187500.02235174447, -187500.02235174447, 9033.189300678885, -18238.554088897003, 3876.2842269282614, -0.244, 0.9380000000000001, 0.154, 192.0, 0.0, 0.0, 0.0, 0.0, 0.0, 0.0, 0.0, 0.0, 0.0, 1.741476646803801E9, 0.0, 2025-03-08 17:30:46.803
7.0, 187500.0, 23555.117673291883, 29985.78160831709, -187500.02235174447, -187500.02235174447, 9035.804454780156, -18238.151757496806, 3885.6049043661246, -0.244, 0.9380000000000001, 0.154, 192.0, 0.0, 0.0, 0.0, 0.0, 0.0, 0.0, 0.0, 0.0, 0.0, 1.741476646803831E9, 0.0, 2025-03-08 17:30:46.803
8.0, 187500.0, 23530.150774735306, 29973.30933491103, -187500.02235174447, -187500.02235174447, 9036.74322804728, -18256.100208294418, 3889.9411427904543, -0.244, 0.9380000000000001, 0.154, 192.0, 0.0, 0.0, 0.0, 0.0, 0.0, 0.0, 0.0, 0.0, 0.0, 1.741476646803856E9, 0.0, 2025-03-08 17:30:46.803
9.0, 187500.0, 23493.583320806425, 29966.782625530082, -187500.02235174447, -187500.02235174447, 9036.877338514012, -18274.60745270341, 3884.1520409765294, -0.244, 0.9380000000000001, 0.154, 192.0, 0.0, 0.0, 0.0, 0.0, 0.0, 0.0, 0.0, 0.0, 0.0, 1.741476646803889E9, 0.0, 2025-03-08 17:30:46.803
10.0, 187500.0, 23510.213018681174, 29970.35890464293, -187500.02235174447, -187500.02235174447, 9036.69852455837, -18258.156568784307, 3891.170488735496, -0.244, 0.9380000000000001, 0.154, 192.0, 0.0, 0.0, 0.0, 0.0, 0.0, 0.0, 0.0, 0.0, 0.0, 1.741476646803918E9, 0.0, 2025-03-08 17:30:46.803
11.0, 187500.0, 23554.156548280305, 29980.819521048015, -187500.02235174447, -187500.02235174447, 9038.017277481233, -18231.89326904932, 3889.5611631347138, -0.246, 0.9480000000000001, 0.154, 192.0, 248.0, 80.0, 29.0, 160.0, 4.0, 208.0, 0.0, 0.0, 0.0, 1.741476646803943E9, 0.0, 2025-03-08 17:30:46.803
12.0, 187500.0, 23542.623048141366, 29967.073198208, -187500.02235174447, -187500.02235174447, 9030.954126233355, -18247.22656574566, 3881.358072919616, -0.246, 0.9480000000000001, 0.154, 192.0, 0.0, 0.0, 0.0, 0.0, 0.0, 0.0, 0.0, 0.0, 0.0, 1.741476646803973E9, 0.0, 2025-03-08 17:30:46.803
13.0, 187500.0, 23496.22082665215, 29959.74182602666, -187500.02235174447, -187500.02235174447, 9035.64799256897, -18245.147853511316, 3894.00916028132, -0.246, 0.9480000000000001, 0.154, 192.0, 0.0, 0.0, 0.0, 0.0, 0.0, 0.0, 0.0, 0.0, 0.0, 1.741476646804002E9, 0.0, 2025-03-08 17:30:46.804
14.0, 187500.0, 23510.302425658992, 29970.64947732085, -187500.02235174447, -187500.02235174447, 9032.831672767601, -18224.338379423425, 3899.10535801713, -0.246, 0.9480000000000001, 0.154, 192.0, 0.0, 0.0, 0.0, 0.0, 0.0, 0.0, 0.0, 0.0, 0.0, 1.741476646804035E9, 0.0, 2025-03-08 17:30:46.804
15.0, 187500.0, 23543.94180106423, 29981.08774198148, -187500.02235174447, -187500.02235174447, 9034.619812324025, -18218.37046365386, 3899.887669073066, -0.246, 0.9480000000000001, 0.154, 192.0, 0.0, 0.0, 0.0, 0.0, 0.0, 0.0, 0.0, 0.0, 0.0, 1.741476646863837E9, 0.0, 2025-03-08 17:30:46.863
16.0, 187500.0, 23553.46364420219, 29989.469646152218, -187500.02235174447, -187500.02235174447, 9041.481797871804, -18223.64547534531, 3901.8993260740435, -0.246, 0.9480000000000001, 0.154, 192.0, 0.0, 0.0, 0.0, 0.0, 0.0, 0.0, 0.0, 0.0, 0.0, 1.741476646863874E9, 0.0, 2025-03-08 17:30:46.863
17.0, 187500.0, 23502.479315099637, 29981.355962914942, -187500.02235174447, -187500.02235174447, 9045.259242684751, -18224.51719337907, 3906.034398798275, -0.246, 0.9480000000000001, 0.154, 192.0, 0.0, 0.0, 0.0, 0.0, 0.0, 0.0, 0.0, 0.0, 0.0, 1.741476646863923E9, 0.0, 2025-03-08 17:30:46.863
18.0, 187500.0, 23509.251893669596, 29981.624183848406, -187500.02235174447, -187500.02235174447, 9042.308812416652, -18230.060426003984, 3903.329837719183, -0.246, 0.9480000000000001, 0.154, 192.0, 0.0, 0.0, 0.0, 0.0, 0.0, 0.0, 0.0, 0.0, 0.0, 1.741476646863949E9, 0.0, 2025-03-08 17:30:46.863
19.0, 187500.0, 23536.699835860712, 29979.23254719169, -187500.02235174447, -187500.02235174447, 9032.988134978788, -18233.74846383911, 3901.228773740384, -0.246, 0.9480000000000001, 0.154, 192.0, 0.0, 0.0, 0.0, 0.0, 0.0, 0.0, 0.0, 0.0, 0.0, 1.741476646863982E9, 0.0, 2025-03-08 17:30:46.863
20.0, 187500.0, 23550.289696489537, 29980.17132045881, -187500.02235174447, -187500.02235174447, 9033.703390801358, -18231.93797253823, 3903.687465630468, -0.246, 0.9480000000000001, 0.154, 192.0, 0.0, 0.0, 0.0, 0.0, 0.0, 0.0, 0.0, 0.0, 0.0, 1.741476646864008E9, 0.0, 2025-03-08 17:30:46.864
21.0, 187500.0, 23502.345204632904, 29980.484244881183, -187500.02235174447, -187500.02235174447, 9049.617832853537, -18226.774719569054, 3912.069369801208, -0.244, 0.9420000000000001, 0.16, 192.0, 248.0, 96.0, 29.0, 112.0, 5.0, 0.0, 0.0, 0.0, 0.0, 1.741476646864035E9, 0.0, 2025-03-08 17:30:46.864
22.0, 187500.0, 23503.999233722596, 29983.032343749088, -187500.02235174447, -187500.02235174447, 9050.578957865115, -18249.75231286911, 3905.6097156536243, -0.244, 0.9420000000000001, 0.16, 192.0, 0.0, 0.0, 0.0, 0.0, 0.0, 0.0, 0.0, 0.0, 0.0, 1.741476646864063E9, 0.0, 2025-03-08 17:30:46.864
23.0, 187500.0, 23528.161469478782, 29985.826311806002, -187500.02235174447, -187500.02235174447, 9044.700449073369, -18260.503501952113, 3907.017875554309, -0.244, 0.9420000000000001, 0.16, 192.0, 0.0, 0.0, 0.0, 0.0, 0.0, 0.0, 0.0, 0.0, 0.0, 1.741476646864089E9, 0.0, 2025-03-08 17:30:46.864
24.0, 187500.0, 23549.820309855975, 29988.55322462955, -187500.02235174447, -187500.02235174447, 9032.764617534234, -18242.264478476583, 3910.616506411613, -0.244, 0.9420000000000001, 0.16, 192.0, 0.0, 0.0, 0.0, 0.0, 0.0, 0.0, 0.0, 0.0, 0.0, 1.741476646864119E9, 0.0, 2025-03-08 17:30:46.864
25.0, 187500.0, 23498.03131795303, 29979.70193382525, -187500.02235174447, -187500.02235174447, 9033.21165242334, -18223.533716623035, 3913.231660512884, -0.244, 0.9420000000000001, 0.16, 192.0, 0.0, 0.0, 0.0, 0.0, 0.0, 0.0, 0.0, 0.0, 0.0, 1.741476646864151E9, 0.0, 2025-03-08 17:30:46.864
26.0, 187500.0, 23493.02452719504, 29988.240300207177, -187500.02235174447, -187500.02235174447, 9042.26410892774, -18211.731995550632, 3920.8536053721436, -0.244, 0.9420000000000001, 0.16, 192.0, 0.0, 0.0, 0.0, 0.0, 0.0, 0.0, 0.0, 0.0, 0.0, 1.741476646864178E9, 0.0, 2025-03-08 17:30:46.864
27.0, 187500.0, 23520.047786241506, 29990.967213030723, -187500.02235174447, -187500.02235174447, 9043.336992661594, -18224.360731167882, 3915.7574076363335, -0.244, 0.9420000000000001, 0.16, 192.0, 0.0, 0.0, 0.0, 0.0, 0.0, 0.0, 0.0, 0.0, 0.0, 1.741476646864204E9, 0.0, 2025-03-08 17:30:46.864
28.0, 187500.0, 23554.447120958226, 29995.63872762188, -187500.02235174447, -187500.02235174447, 9036.095027458075, -18222.729053822644, 3914.0586750577304, -0.244, 0.9420000000000001, 0.16, 192.0, 0.0, 0.0, 0.0, 0.0, 0.0, 0.0, 0.0, 0.0, 0.0, 1.741476646864233E9, 0.0, 2025-03-08 17:30:46.864
29.0, 187500.0, 23517.03030074004, 29986.250994950653, -187500.02235174447, -187500.02235174447, 9034.26218441274, -18224.874821290352, 3915.556241936236, -0.244, 0.9420000000000001, 0.16, 192.0, 0.0, 0.0, 0.0, 0.0, 0.0, 0.0, 0.0, 0.0, 0.0, 1.741476646864262E9, 0.0, 2025-03-08 17:30:46.864
30.0, 187500.0, 23488.867102726355, 29978.293773924564, -187500.02235174447, -187500.02235174447, 9041.906481016455, -18230.08277774844, 3915.220965769406, -0.244, 0.9420000000000001, 0.16, 192.0, 0.0, 0.0, 0.0, 0.0, 0.0, 0.0, 0.0, 0.0, 0.0, 1.741476646864292E9, 0.0, 2025-03-08 17:30:46.864
31.0, 187500.0, 23511.285902415028, 29981.60183210395, -187500.02235174447, -187500.02235174447, 9042.778199050212, -18229.32281843696, 3917.7020094039453, -0.24, 0.9380000000000001, 0.16, 192.0, 248.0, 128.0, 29.0, 80.0, 5.0, 0.0, 0.0, 0.0, 0.0, 1.741476646925089E9, 0.0, 2025-03-08 17:30:46.925
32.0, 187500.0, 23555.14002503634, 29991.79422757557, -187500.02235174447, -187500.02235174447, 9042.442922883383, -18227.55703062499, 3915.8915181030657, -0.24, 0.9380000000000001, 0.16, 192.0, 0.0, 0.0, 0.0, 0.0, 0.0, 0.0, 0.0, 0.0, 0.0, 1.741476646925126E9, 0.0, 2025-03-08 17:30:46.925
33.0, 187500.0, 23525.970998522163, 29977.958497757736, -187500.02235174447, -187500.02235174447, 9035.916213502433, -18236.60948712939, 3909.8565471001325, -0.24, 0.9380000000000001, 0.16, 192.0, 0.0, 0.0, 0.0, 0.0, 0.0, 0.0, 0.0, 0.0, 0.0, 1.741476646925173E9, 0.0, 2025-03-08 17:30:46.925
34.0, 187500.0, 23488.75534400408, 29974.829253533993, -187500.02235174447, -187500.02235174447, 9040.74419030478, -18236.475376662656, 3920.518329205314, -0.24, 0.9380000000000001, 0.16, 192.0, 0.0, 0.0, 0.0, 0.0, 0.0, 0.0, 0.0, 0.0, 0.0, 1.741476646925206E9, 0.0, 2025-03-08 17:30:46.925
35.0, 187500.0, 23509.47541111415, 29982.540605371072, -187500.02235174447, -187500.02235174447, 9049.707239831358, -18232.452062660705, 3925.6592304300348, -0.24, 0.9380000000000001, 0.16, 192.0, 0.0, 0.0, 0.0, 0.0, 0.0, 0.0, 0.0, 0.0, 0.0, 1.741476646925233E9, 0.0, 2025-03-08 17:30:46.925
36.0, 187500.0, 23542.198364996715, 29981.288907681574, -187500.02235174447, -187500.02235174447, 9042.621736839024, -18248.94765006872, 3917.791416381767, -0.24, 0.9380000000000001, 0.16, 192.0, 0.0, 0.0, 0.0, 0.0, 0.0, 0.0, 0.0, 0.0, 0.0, 1.741476646925258E9, 0.0, 2025-03-08 17:30:46.925
37.0, 187500.0, 23532.341245691925, 29976.237413434676, -187500.02235174447, -187500.02235174447, 9045.862739785045, -18257.843644361932, 3919.2442797713616, -0.24, 0.9380000000000001, 0.16, 192.0, 0.0, 0.0, 0.0, 0.0, 0.0, 0.0, 0.0, 0.0, 0.0, 1.741476646925284E9, 0.0, 2025-03-08 17:30:46.925
38.0, 187500.0, 23490.297614371495, 29973.68931456677, -187500.02235174447, -187500.02235174447, 9046.734457818802, -18236.676542362755, 3924.742808907367, -0.24, 0.9380000000000001, 0.16, 192.0, 0.0, 0.0, 0.0, 0.0, 0.0, 0.0, 0.0, 0.0, 0.0, 1.741476646925315E9, 0.0, 2025-03-08 17:30:46.925
39.0, 187500.0, 23494.611501051368, 29976.952669257247, -187500.02235174447, -187500.02235174447, 9045.058076984653, -18224.69600733471, 3932.744733422367, -0.24, 0.9380000000000001, 0.16, 192.0, 0.0, 0.0, 0.0, 0.0, 0.0, 0.0, 0.0, 0.0, 0.0, 1.741476646925342E9, 0.0, 2025-03-08 17:30:46.925
40.0, 187500.0, 23527.781489823043, 29980.28307918109, -187500.02235174447, -187500.02235174447, 9041.92883276091, -18222.08085323344, 3927.916756620021, -0.24, 0.9380000000000001, 0.16, 192.0, 0.0, 0.0, 0.0, 0.0, 0.0, 0.0, 0.0, 0.0, 0.0, 1.741476646925375E9, 0.0, 2025-03-08 17:30:46.925
41.0, 187500.0, 23529.480222401646, 29969.1742621868, -187500.02235174447, -187500.02235174447, 9037.570242592126, -18225.88064979084, 3926.173320552507, -0.248, 0.9380000000000001, 0.154, 192.0, 248.0, 64.0, 29.0, 80.0, 4.0, 208.0, 0.0, 0.0, 0.0, 1.741476646925405E9, 0.0, 2025-03-08 17:30:46.925
42.0, 187500.0, 23479.41231482176, 29959.94299172676, -187500.02235174447, -187500.02235174447, 9040.49832111577, -18221.83498404443, 3929.5037304763478, -0.248, 0.9380000000000001, 0.154, 192.0, 0.0, 0.0, 0.0, 0.0, 0.0, 0.0, 0.0, 0.0, 0.0, 1.741476646925434E9, 0.0, 2025-03-08 17:30:46.925
43.0, 187500.0, 23486.967204447654, 29967.296715652552, -187500.02235174447, -187500.02235174447, 9046.89092002999, -18217.789318298022, 3935.717515434923, -0.248, 0.9380000000000001, 0.154, 192.0, 0.0, 0.0, 0.0, 0.0, 0.0, 0.0, 0.0, 0.0, 0.0, 1.741476646925464E9, 0.0, 2025-03-08 17:30:46.925
44.0, 187500.0, 23515.532733861535, 29976.84091053497, -187500.02235174447, -187500.02235174447, 9042.688792072391, -18226.439443402225, 3931.0460008437635, -0.248, 0.9380000000000001, 0.154, 192.0, 0.0, 0.0, 0.0, 0.0, 0.0, 0.0, 0.0, 0.0, 0.0, 1.741476646925489E9, 0.0, 2025-03-08 17:30:46.925
45.0, 187500.0, 23529.74844333511, 29970.64947732085, -187500.02235174447, -187500.02235174447, 9034.820978024123, -18237.637667374333, 3926.3074310192387, -0.248, 0.9380000000000001, 0.154, 192.0, 0.0, 0.0, 0.0, 0.0, 0.0, 0.0, 0.0, 0.0, 0.0, 1.741476646925522E9, 0.0, 2025-03-08 17:30:46.925
46.0, 187500.0, 23481.379268333825, 29956.16554691381, -187500.02235174447, -187500.02235174447, 9037.391428636483, -18253.127426281862, 3924.1840152959844, -0.248, 0.9380000000000001, 0.154, 192.0, 0.0, 0.0, 0.0, 0.0, 0.0, 0.0, 0.0, 0.0, 0.0, 1.741476646985204E9, 0.0, 2025-03-08 17:30:46.985
47.0, 187500.0, 23473.51145428556, 29958.557183570527, -187500.02235174447, -187500.02235174447, 9037.614946081036, -18238.732902852644, 3927.782646153289, -0.248, 0.9380000000000001, 0.154, 192.0, 0.0, 0.0, 0.0, 0.0, 0.0, 0.0, 0.0, 0.0, 0.0, 1.741476646985241E9, 0.0, 2025-03-08 17:30:46.985
48.0, 187500.0, 23501.339376132415, 29965.709741796225, -187500.02235174447, -187500.02235174447, 9030.082408199598, -18227.646437602813, 3929.3472682651604, -0.248, 0.9380000000000001, 0.154, 192.0, 0.0, 0.0, 0.0, 0.0, 0.0, 0.0, 0.0, 0.0, 0.0, 1.741476646985286E9, 0.0, 2025-03-08 17:30:46.985
49.0, 187500.0, 23534.46466141518, 29971.990581988168, -187500.02235174447, -187500.02235174447, 9030.529443088704, -18243.337362210437, 3920.361866994127, -0.248, 0.9380000000000001, 0.154, 192.0, 0.0, 0.0, 0.0, 0.0, 0.0, 0.0, 0.0, 0.0, 0.0, 1.741476646985313E9, 0.0, 2025-03-08 17:30:46.985
50.0, 187500.0, 23487.056611425473, 29962.871070250403, -187500.02235174447, -187500.02235174447, 9033.41281812344, -18246.779530856555, 3926.6650589305236, -0.248, 0.9380000000000001, 0.154, 192.0, 0.0, 0.0, 0.0, 0.0, 0.0, 0.0, 0.0, 0.0, 0.0, 1.741476646985346E9, 0.0, 2025-03-08 17:30:46.985
51.0, 187500.0, 23466.44830303768, 29961.97700047219, -187500.02235174447, -187500.02235174447, 9037.905518758955, -18235.693065606723, 3939.897291648065, -0.25, 0.9400000000000001, 0.158, 192.0, 248.0, 48.0, 29.0, 96.0, 4.0, 240.0, 0.0, 0.0, 0.0, 1.741476646985373E9, 0.0, 2025-03-08 17:30:46.985
52.0, 187500.0, 23490.297614371495, 29967.386122630374, -187500.02235174447, -187500.02235174447, 9035.156254190953, -18227.869955047365, 3934.8681491456214, -0.25, 0.9400000000000001, 0.158, 192.0, 0.0, 0.0, 0.0, 0.0, 0.0, 0.0, 0.0, 0.0, 0.0, 1.741476646985402E9, 0.0, 2025-03-08 17:30:46.985
53.0, 187500.0, 23529.480222401646, 29977.422055890805, -187500.02235174447, -187500.02235174447, 9027.958992476344, -18218.214001442673, 3932.364753766627, -0.25, 0.9400000000000001, 0.158, 192.0, 0.0, 0.0, 0.0, 0.0, 0.0, 0.0, 0.0, 0.0, 0.0, 1.741476646985429E9, 0.0, 2025-03-08 17:30:46.985
54.0, 187500.0, 23495.997309207596, 29974.046942478057, -187500.02235174447, -187500.02235174447, 9031.423512866917, -18216.917600264263, 3938.198559069462, -0.25, 0.9400000000000001, 0.158, 192.0, 0.0, 0.0, 0.0, 0.0, 0.0, 0.0, 0.0, 0.0, 0.0, 1.741476646985455E9, 0.0, 2025-03-08 17:30:46.985
55.0, 187500.0, 23473.6902682412, 29975.432750634285, -187500.02235174447, -187500.02235174447, 9052.702373588369, -18210.88262926133, 3949.9332249084982, -0.25, 0.9400000000000001, 0.158, 192.0, 0.0, 0.0, 0.0, 0.0, 0.0, 0.0, 0.0, 0.0, 0.0, 1.741476646985488E9, 0.0, 2025-03-08 17:30:46.985
56.0, 187500.0, 23502.434611610726, 29981.802997804047, -187500.02235174447, -187500.02235174447, 9054.043478255688, -18213.18485894023, 3946.513408006836, -0.25, 0.9400000000000001, 0.158, 192.0, 0.0, 0.0, 0.0, 0.0, 0.0, 0.0, 0.0, 0.0, 0.0, 1.741476646985518E9, 0.0, 2025-03-08 17:30:46.985
57.0, 187500.0, 23536.901001560807, 29982.36179141543, -187500.02235174447, -187500.02235174447, 9048.03085899721, -18217.588152597924, 3943.0935911051743, -0.25, 0.9400000000000001, 0.158, 192.0, 0.0, 0.0, 0.0, 0.0, 0.0, 0.0, 0.0, 0.0, 0.0, 1.741476646985544E9, 0.0, 2025-03-08 17:30:46.985
58.0, 187500.0, 23517.477335629148, 29973.08581746648, -187500.02235174447, -187500.02235174447, 9040.274803671218, -18234.463719661682, 3930.911890377032, -0.25, 0.9400000000000001, 0.158, 192.0, 0.0, 0.0, 0.0, 0.0, 0.0, 0.0, 0.0, 0.0, 0.0, 1.74147664698557E9, 0.0, 2025-03-08 17:30:46.985
59.0, 187500.0, 23481.669841011746, 29957.21607890321, -187500.02235174447, -187500.02235174447, 9034.530405346204, -18259.721190896176, 3920.8983088610544, -0.25, 0.9400000000000001, 0.158, 192.0, 0.0, 0.0, 0.0, 0.0, 0.0, 0.0, 0.0, 0.0, 0.0, 1.741476646985602E9, 0.0, 2025-03-08 17:30:46.985
60.0, 187500.0, 23496.377288863336, 29964.055712706533, -187500.02235174447, -187500.02235174447, 9042.442922883383, -18269.131275311862, 3925.9945065968645, -0.25, 0.9400000000000001, 0.158, 192.0, 0.0, 0.0, 0.0, 0.0, 0.0, 0.0, 0.0, 0.0, 0.0, 1.741476646985631E9, 0.0, 2025-03-08 17:30:46.985
61.0, 187500.0, 23526.440385155725, 29966.49205285216, -187500.02235174447, -187500.02235174447, 9028.674248298914, -18264.12448455387, 3921.1441780500627, -0.25, 0.9420000000000001, 0.16, 192.0, 248.0, 48.0, 29.0, 112.0, 5.0, 0.0, 0.0, 0.0, 0.0, 1.74147664704408E9, 0.0, 2025-03-08 17:30:47.044
62.0, 187500.0, 23513.31991116046, 29962.11111093892, -187500.02235174447, -187500.02235174447, 9025.388541863984, -18247.22656574566, 3929.7943031542663, -0.25, 0.9420000000000001, 0.16, 192.0, 0.0, 0.0, 0.0, 0.0, 0.0, 0.0, 0.0, 0.0, 0.0, 1.741476647044114E9, 0.0, 2025-03-08 17:30:47.044
63.0, 187500.0, 23471.611556006857, 29958.847756248448, -187500.02235174447, -187500.02235174447, 9030.350629133061, -18237.21298422968, 3936.9021578910542, -0.25, 0.9420000000000001, 0.16, 192.0, 0.0, 0.0, 0.0, 0.0, 0.0, 0.0, 0.0, 0.0, 0.0, 1.741476647044146E9, 0.0, 2025-03-08 17:30:47.044
64.0, 187500.0, 23487.570701547946, 29968.235488919676, -187500.02235174447, -187500.02235174447, 9033.12224544552, -18229.255763203593, 3944.233530072395, -0.25, 0.9420000000000001, 0.16, 192.0, 0.0, 0.0, 0.0, 0.0, 0.0, 0.0, 0.0, 0.0, 0.0, 1.741476647044174E9, 0.0, 2025-03-08 17:30:47.044
65.0, 187500.0, 23526.842716555922, 29980.663058836828, -187500.02235174447, -187500.02235174447, 9043.69462057288, -18233.726112094657, 3951.6319574871013, -0.25, 0.9420000000000001, 0.16, 192.0, 0.0, 0.0, 0.0, 0.0, 0.0, 0.0, 0.0, 0.0, 0.0, 1.741476647044208E9, 0.0, 2025-03-08 17:30:47.044
66.0, 187500.0, 23530.553106135503, 29972.03528547708, -187500.02235174447, -187500.02235174447, 9038.285498414696, -18247.584193656945, 3945.7310969509003, -0.25, 0.9420000000000001, 0.16, 192.0, 0.0, 0.0, 0.0, 0.0, 0.0, 0.0, 0.0, 0.0, 0.0, 1.741476647044234E9, 0.0, 2025-03-08 17:30:47.044
67.0, 187500.0, 23475.187835119705, 29967.564936586015, -187500.02235174447, -187500.02235174447, 9048.679059586413, -18235.42484467326, 3951.2743295758164, -0.25, 0.9420000000000001, 0.16, 192.0, 0.0, 0.0, 0.0, 0.0, 0.0, 0.0, 0.0, 0.0, 0.0, 1.74147664704426E9, 0.0, 2025-03-08 17:30:47.044
68.0, 187500.0, 23483.92736720173, 29979.813692547526, -187500.02235174447, -187500.02235174447, 9048.723763075324, -18214.972998496654, 3953.5095040213473, -0.25, 0.9420000000000001, 0.16, 192.0, 0.0, 0.0, 0.0, 0.0, 0.0, 0.0, 0.0, 0.0, 0.0, 1.741476647044287E9, 0.0, 2025-03-08 17:30:47.044
69.0, 187500.0, 23509.117783202862, 29981.490073381672, -187500.02235174447, -187500.02235174447, 9045.728629318313, -18226.014760257574, 3947.9662713964312, -0.25, 0.9420000000000001, 0.16, 192.0, 0.0, 0.0, 0.0, 0.0, 0.0, 0.0, 0.0, 0.0, 0.0, 1.741476647044314E9, 0.0, 2025-03-08 17:30:47.044
70.0, 187500.0, 23534.218792226173, 29980.975983259203, -187500.02235174447, -187500.02235174447, 9050.489550887294, -18227.869955047365, 3948.726230707912, -0.25, 0.9420000000000001, 0.16, 192.0, 0.0, 0.0, 0.0, 0.0, 0.0, 0.0, 0.0, 0.0, 0.0, 1.741476647044341E9, 0.0, 2025-03-08 17:30:47.044
71.0, 187500.0, 23478.004154921076, 29969.666000564815, -187500.02235174447, -187500.02235174447, 9047.717934574835, -18222.326722422447, 3949.5308935083026, -0.244, 0.9420000000000001, 0.162, 192.0, 248.0, 96.0, 29.0, 112.0, 5.0, 16.0, 0.0, 0.0, 0.0, 1.741476647044373E9, 0.0, 2025-03-08 17:30:47.044
72.0, 187500.0, 23465.50952977056, 29966.93908774127, -187500.02235174447, -187500.02235174447, 9045.639222340491, -18221.79028055552, 3947.4074777850483, -0.244, 0.9420000000000001, 0.162, 192.0, 0.0, 0.0, 0.0, 0.0, 0.0, 0.0, 0.0, 0.0, 0.0, 1.741476647044404E9, 0.0, 2025-03-08 17:30:47.044
73.0, 187500.0, 23488.196550392695, 29967.02849471909, -187500.02235174447, -187500.02235174447, 9039.626603082013, -18232.295600449517, 3942.423038771515, -0.244, 0.9420000000000001, 0.162, 192.0, 0.0, 0.0, 0.0, 0.0, 0.0, 0.0, 0.0, 0.0, 0.0, 1.741476647044431E9, 0.0, 2025-03-08 17:30:47.044
74.0, 187500.0, 23514.79512629451, 29963.809843517527, -187500.02235174447, -187500.02235174447, 9040.07363797112, -18245.304315722504, 3940.321974792716, -0.244, 0.9420000000000001, 0.162, 192.0, 0.0, 0.0, 0.0, 0.0, 0.0, 0.0, 0.0, 0.0, 0.0, 1.741476647044459E9, 0.0, 2025-03-08 17:30:47.044
75.0, 187500.0, 23471.745666473587, 29958.557183570527, -187500.02235174447, -187500.02235174447, 9046.041553740688, -18248.388856457335, 3946.3792975401043, -0.244, 0.9420000000000001, 0.162, 192.0, 0.0, 0.0, 0.0, 0.0, 0.0, 0.0, 0.0, 0.0, 0.0, 1.741476647044489E9, 0.0, 2025-03-08 17:30:47.044
76.0, 187500.0, 23456.546480243982, 29956.1208434249, -187500.02235174447, -187500.02235174447, 9036.385600135995, -18250.735789625145, 3940.1878643259843, -0.244, 0.9420000000000001, 0.162, 192.0, 0.0, 0.0, 0.0, 0.0, 0.0, 0.0, 0.0, 0.0, 0.0, 1.741476647104396E9, 0.0, 2025-03-08 17:30:47.104
77.0, 187500.0, 23476.193663620194, 29956.746692269648, -187500.02235174447, -187500.02235174447, 9030.462387855338, -18254.915565838288, 3934.644631701068, -0.244, 0.9420000000000001, 0.162, 192.0, 0.0, 0.0, 0.0, 0.0, 0.0, 0.0, 0.0, 0.0, 0.0, 1.741476647104459E9, 0.0, 2025-03-08 17:30:47.104
78.0, 187500.0, 23515.935065261732, 29961.440558605264, -187500.02235174447, -187500.02235174447, 9035.245661168774, -18255.09437979393, 3940.25491955935, -0.244, 0.9420000000000001, 0.162, 192.0, 0.0, 0.0, 0.0, 0.0, 0.0, 0.0, 0.0, 0.0, 0.0, 1.741476647104485E9, 0.0, 2025-03-08 17:30:47.104
79.0, 187500.0, 23487.45894282567, 29955.517346324606, -187500.02235174447, -187500.02235174447, 9036.296193158174, -18242.957382554698, 3947.5862917406907, -0.244, 0.9420000000000001, 0.162, 192.0, 0.0, 0.0, 0.0, 0.0, 0.0, 0.0, 0.0, 0.0, 0.0, 1.741476647104521E9, 0.0, 2025-03-08 17:30:47.104
80.0, 187500.0, 23466.224785593127, 29962.669904550305, -187500.02235174447, -187500.02235174447, 9042.398219394472, -18220.471527632657, 3953.844780188177, -0.244, 0.9420000000000001, 0.162, 192.0, 0.0, 0.0, 0.0, 0.0, 0.0, 0.0, 0.0, 0.0, 0.0, 1.741476647104547E9, 0.0, 2025-03-08 17:30:47.104
81.0, 187500.0, 23489.023564937543, 29969.26366916462, -187500.02235174447, -187500.02235174447, 9044.052248484166, -18231.066254504472, 3954.0906493771854, -0.246, 0.9420000000000001, 0.158, 192.0, 248.0, 80.0, 29.0, 112.0, 4.0, 240.0, 0.0, 0.0, 0.0, 1.741476647104581E9, 0.0, 2025-03-08 17:30:47.104
82.0, 187500.0, 23520.18189670824, 29979.523119869606, -187500.02235174447, -187500.02235174447, 9049.193149708886, -18224.114861978873, 3962.427850059015, -0.246, 0.9420000000000001, 0.158, 192.0, 0.0, 0.0, 0.0, 0.0, 0.0, 0.0, 0.0, 0.0, 0.0, 1.741476647104614E9, 0.0, 2025-03-08 17:30:47.104
83.0, 187500.0, 23496.08671618542, 29974.73984655617, -187500.02235174447, -187500.02235174447, 9042.800550794667, -18220.8515072884, 3957.219893600928, -0.246, 0.9420000000000001, 0.158, 192.0, 0.0, 0.0, 0.0, 0.0, 0.0, 0.0, 0.0, 0.0, 0.0, 1.741476647104641E9, 0.0, 2025-03-08 17:30:47.104
84.0, 187500.0, 23448.38809351779, 29965.30741039603, -187500.02235174447, -187500.02235174447, 9040.453617626861, -18228.0040655141, 3951.2519778313613, -0.246, 0.9420000000000001, 0.158, 192.0, 0.0, 0.0, 0.0, 0.0, 0.0, 0.0, 0.0, 0.0, 0.0, 1.741476647104666E9, 0.0, 2025-03-08 17:30:47.104
85.0, 187500.0, 23469.64460249479, 29965.665038307317, -187500.02235174447, -187500.02235174447, 9043.426399639417, -18226.46179514668, 3956.7281552229115, -0.246, 0.9420000000000001, 0.158, 192.0, 0.0, 0.0, 0.0, 0.0, 0.0, 0.0, 0.0, 0.0, 0.0, 1.741476647104692E9, 0.0, 2025-03-08 17:30:47.104
86.0, 187500.0, 23514.79512629451, 29976.1256547124, -187500.02235174447, -187500.02235174447, 9049.394315408983, -18232.921449294263, 3957.845742445677, -0.246, 0.9420000000000001, 0.158, 192.0, 0.0, 0.0, 0.0, 0.0, 0.0, 0.0, 0.0, 0.0, 0.0, 1.741476647104728E9, 0.0, 2025-03-08 17:30:47.104
87.0, 187500.0, 23507.530809346536, 29969.196613931254, -187500.02235174447, -187500.02235174447, 9042.487626372293, -18233.27907720555, 3955.0294226443084, -0.246, 0.9420000000000001, 0.158, 192.0, 0.0, 0.0, 0.0, 0.0, 0.0, 0.0, 0.0, 0.0, 0.0, 1.741476647104757E9, 0.0, 2025-03-08 17:30:47.104
88.0, 187500.0, 23448.745721429077, 29958.51248008162, -187500.02235174447, -187500.02235174447, 9040.364210649039, -18236.520080151568, 3961.042041902786, -0.246, 0.9420000000000001, 0.158, 192.0, 0.0, 0.0, 0.0, 0.0, 0.0, 0.0, 0.0, 0.0, 0.0, 1.741476647104784E9, 0.0, 2025-03-08 17:30:47.104
89.0, 187500.0, 23454.065436609442, 29958.73599752617, -187500.02235174447, -187500.02235174447, 9032.183472178396, -18242.957382554698, 3953.7553732103556, -0.246, 0.9420000000000001, 0.158, 192.0, 0.0, 0.0, 0.0, 0.0, 0.0, 0.0, 0.0, 0.0, 0.0, 1.74147664710481E9, 0.0, 2025-03-08 17:30:47.104
90.0, 187500.0, 23487.12366665884, 29969.509538353628, -187500.02235174447, -187500.02235174447, 9040.677135071413, -18226.46179514668, 3956.9963761563754, -0.246, 0.9420000000000001, 0.158, 192.0, 0.0, 0.0, 0.0, 0.0, 0.0, 0.0, 0.0, 0.0, 0.0, 1.741476647104839E9, 0.0, 2025-03-08 17:30:47.104
91.0, 187500.0, 23492.063402183463, 29970.98475348768, -187500.02235174447, -187500.02235174447, 9036.050323969164, -18227.31116143598, 3953.263634832339, -0.248, 0.9400000000000001, 0.158, 192.0, 248.0, 64.0, 29.0, 96.0, 4.0, 240.0, 0.0, 0.0, 0.0, 1.741476647164683E9, 0.0, 2025-03-08 17:30:47.164
92.0, 187500.0, 23439.11211956884, 29958.0207417036, -187500.02235174447, -187500.02235174447, 9032.988134978788, -18228.40639691429, 3955.0517743887635, -0.248, 0.9400000000000001, 0.158, 192.0, 0.0, 0.0, 0.0, 0.0, 0.0, 0.0, 0.0, 0.0, 0.0, 1.741476647164717E9, 0.0, 2025-03-08 17:30:47.164
93.0, 187500.0, 23446.532898728, 29962.424035361295, -187500.02235174447, -187500.02235174447, 9036.765579791734, -18225.36655966837, 3969.580408284713, -0.248, 0.9400000000000001, 0.158, 192.0, 0.0, 0.0, 0.0, 0.0, 0.0, 0.0, 0.0, 0.0, 0.0, 1.741476647164744E9, 0.0, 2025-03-08 17:30:47.164
94.0, 187500.0, 23479.144093888295, 29969.017799975612, -187500.02235174447, -187500.02235174447, 9041.012411238244, -18241.102187764907, 3962.941940181487, -0.248, 0.9400000000000001, 0.158, 192.0, 0.0, 0.0, 0.0, 0.0, 0.0, 0.0, 0.0, 0.0, 0.0, 1.741476647164777E9, 0.0, 2025-03-08 17:30:47.164
95.0, 187500.0, 23497.94191097521, 29967.274363908098, -187500.02235174447, -187500.02235174447, 9031.065884955631, -18257.977754828662, 3948.3462510521713, -0.248, 0.9400000000000001, 0.158, 192.0, 0.0, 0.0, 0.0, 0.0, 0.0, 0.0, 0.0, 0.0, 0.0, 1.741476647164804E9, 0.0, 2025-03-08 17:30:47.164
96.0, 187500.0, 23436.87694512331, 29949.504727066127, -187500.02235174447, -187500.02235174447, 9029.098931443565, -18271.500560224125, 3939.1373323365847, -0.248, 0.9400000000000001, 0.158, 192.0, 0.0, 0.0, 0.0, 0.0, 0.0, 0.0, 0.0, 0.0, 0.0, 1.741476647164837E9, 0.0, 2025-03-08 17:30:47.164
97.0, 187500.0, 23435.87111662282, 29957.21607890321, -187500.02235174447, -187500.02235174447, 9034.172777434918, -18245.930164567253, 3938.1315038360963, -0.248, 0.9400000000000001, 0.158, 192.0, 0.0, 0.0, 0.0, 0.0, 0.0, 0.0, 0.0, 0.0, 0.0, 1.741476647164863E9, 0.0, 2025-03-08 17:30:47.164
98.0, 187500.0, 23463.252003580572, 29962.915773739314, -187500.02235174447, -187500.02235174447, 9031.132940188998, -18226.57355386896, 3932.2529950443504, -0.248, 0.9400000000000001, 0.158, 192.0, 0.0, 0.0, 0.0, 0.0, 0.0, 0.0, 0.0, 0.0, 0.0, 1.741476647164889E9, 0.0, 2025-03-08 17:30:47.164
99.0, 187500.0, 23488.017736437054, 29962.98282897268, -187500.02235174447, -187500.02235174447, 9029.680076799403, -18224.07015848996, 3918.909003604532, -0.248, 0.9400000000000001, 0.158, 192.0, 0.0, 0.0, 0.0, 0.0, 0.0, 0.0, 0.0, 0.0, 0.0, 1.741476647164915E9, 0.0, 2025-03-08 17:30:47.164
100.0, 187500.0, 23442.710750426144, 29956.79139575856, -187500.02235174447, -187500.02235174447, 9033.41281812344, -18229.32281843696, 3912.20348026794, -0.248, 0.9400000000000001, 0.158, 192.0, 0.0, 0.0, 0.0, 0.0, 0.0, 0.0, 0.0, 0.0, 0.0, 1.741476647164941E9, 0.0, 2025-03-08 17:30:47.164
101.0, 187500.0, 23429.54557294197, 29960.479433593686, -187500.02235174447, -187500.02235174447, 9034.485701857293, -18237.7047226077, 3904.3133144752164, -0.244, 0.9460000000000001, 0.156, 192.0, 248.0, 96.0, 29.0, 144.0, 4.0, 224.0, 0.0, 0.0, 0.0, 1.74147664716497E9, 0.0, 2025-03-08 17:30:47.164
102.0, 187500.0, 23456.8370529219, 29967.69904705275, -187500.02235174447, -187500.02235174447, 9036.78793153619, -18247.204214001205, 3887.2142299669067, -0.244, 0.9460000000000001, 0.156, 192.0, 0.0, 0.0, 0.0, 0.0, 0.0, 0.0, 0.0, 0.0, 0.0, 1.741476647165005E9, 0.0, 2025-03-08 17:30:47.165
103.0, 187500.0, 23490.5434835605, 29973.778721544593, -187500.02235174447, -187500.02235174447, 9033.055190212153, -18247.27126923457, 3872.864410026599, -0.244, 0.9460000000000001, 0.156, 192.0, 0.0, 0.0, 0.0, 0.0, 0.0, 0.0, 0.0, 0.0, 0.0, 1.741476647165032E9, 0.0, 2025-03-08 17:30:47.165
104.0, 187500.0, 23462.15676810226, 29975.008067489634, -187500.02235174447, -187500.02235174447, 9041.12416996052, -18230.03807425953, 3876.9324275174654, -0.244, 0.9460000000000001, 0.156, 192.0, 0.0, 0.0, 0.0, 0.0, 0.0, 0.0, 0.0, 0.0, 0.0, 1.741476647165059E9, 0.0, 2025-03-08 17:30:47.165
105.0, 187500.0, 23435.11115731134, 29966.715570296714, -187500.02235174447, -187500.02235174447, 9034.686867557391, -18240.94572555372, 3862.0908691991413, -0.244, 0.9460000000000001, 0.156, 192.0, 0.0, 0.0, 0.0, 0.0, 0.0, 0.0, 0.0, 0.0, 0.0, 1.741476647165087E9, 0.0, 2025-03-08 17:30:47.165
106.0, 187500.0, 23450.578564474414, 29965.955610985235, -187500.02235174447, -187500.02235174447, 9031.959954733844, -18251.22752800316, 3848.2551393813064, -0.244, 0.9460000000000001, 0.156, 192.0, 0.0, 0.0, 0.0, 0.0, 0.0, 0.0, 0.0, 0.0, 0.0, 1.741476647224962E9, 0.0, 2025-03-08 17:30:47.224
107.0, 187500.0, 23487.50364631458, 29971.297677910054, -187500.02235174447, -187500.02235174447, 9032.250527411763, -18257.32955423946, 3837.973336931865, -0.244, 0.9460000000000001, 0.156, 192.0, 0.0, 0.0, 0.0, 0.0, 0.0, 0.0, 0.0, 0.0, 0.0, 1.741476647225048E9, 0.0, 2025-03-08 17:30:47.225
108.0, 187500.0, 23458.44637852268, 29967.386122630374, -187500.02235174447, -187500.02235174447, 9036.653821069458, -18270.33826951245, 3836.587528775636, -0.244, 0.9460000000000001, 0.156, 192.0, 0.0, 0.0, 0.0, 0.0, 0.0, 0.0, 0.0, 0.0, 0.0, 1.741476647225074E9, 0.0, 2025-03-08 17:30:47.225
109.0, 187500.0, 23421.454241449148, 29968.056674964035, -187500.02235174447, -187500.02235174447, 9041.347687405072, -18265.42088573228, 3851.2055696494067, -0.244, 0.9460000000000001, 0.156, 192.0, 0.0, 0.0, 0.0, 0.0, 0.0, 0.0, 0.0, 0.0, 0.0, 1.7414766472251E9, 0.0, 2025-03-08 17:30:47.225
110.0, 187500.0, 23436.429910234205, 29968.637820319873, -187500.02235174447, -187500.02235174447, 9031.579975078104, -18250.892251836332, 3841.3931538335273, -0.244, 0.9460000000000001, 0.156, 192.0, 0.0, 0.0, 0.0, 0.0, 0.0, 0.0, 0.0, 0.0, 0.0, 1.74147664722513E9, 0.0, 2025-03-08 17:30:47.225
111.0, 187500.0, 23467.945869916188, 29972.974058744203, -187500.02235174447, -187500.02235174447, 9030.238870410785, -18245.773702356066, 3833.8606159520887, -0.242, 0.9440000000000001, 0.152, 192.0, 248.0, 112.0, 29.0, 128.0, 4.0, 192.0, 0.0, 0.0, 0.0, 1.741476647225158E9, 0.0, 2025-03-08 17:30:47.225
112.0, 187500.0, 23468.281146083016, 29974.762198300625, -187500.02235174447, -187500.02235174447, 9035.603289080058, -18253.820330359977, 3833.882967696544, -0.242, 0.9440000000000001, 0.152, 192.0, 0.0, 0.0, 0.0, 0.0, 0.0, 0.0, 0.0, 0.0, 0.0, 1.741476647225191E9, 0.0, 2025-03-08 17:30:47.225
113.0, 187500.0, 23429.523221197513, 29972.392913388365, -187500.02235174447, -187500.02235174447, 9039.291326915185, -18249.014705302085, 3832.7653804737784, -0.242, 0.9440000000000001, 0.152, 192.0, 0.0, 0.0, 0.0, 0.0, 0.0, 0.0, 0.0, 0.0, 0.0, 1.741476647225216E9, 0.0, 2025-03-08 17:30:47.225
114.0, 187500.0, 23442.86721263733, 29973.242279677666, -187500.02235174447, -187500.02235174447, 9039.134864703998, -18251.316934980983, 3833.011249662787, -0.242, 0.9440000000000001, 0.152, 192.0, 0.0, 0.0, 0.0, 0.0, 0.0, 0.0, 0.0, 0.0, 0.0, 1.741476647225242E9, 0.0, 2025-03-08 17:30:47.225
115.0, 187500.0, 23473.600861263378, 29982.339439670974, -187500.02235174447, -187500.02235174447, 9041.21357693834, -18242.465644176682, 3834.844092708122, -0.242, 0.9440000000000001, 0.152, 192.0, 0.0, 0.0, 0.0, 0.0, 0.0, 0.0, 0.0, 0.0, 0.0, 1.741476647225269E9, 0.0, 2025-03-08 17:30:47.225
116.0, 187500.0, 23475.098428141886, 29979.36665765842, -187500.02235174447, -187500.02235174447, 9033.21165242334, -18249.662905891288, 3831.6254415065578, -0.242, 0.9440000000000001, 0.152, 192.0, 0.0, 0.0, 0.0, 0.0, 0.0, 0.0, 0.0, 0.0, 0.0, 1.741476647225295E9, 0.0, 2025-03-08 17:30:47.225
117.0, 187500.0, 23419.844915848367, 29969.64364882036, -187500.02235174447, -187500.02235174447, 9039.492492615282, -18251.249879747615, 3838.1968543764183, -0.242, 0.9440000000000001, 0.152, 192.0, 0.0, 0.0, 0.0, 0.0, 0.0, 0.0, 0.0, 0.0, 0.0, 1.741476647225329E9, 0.0, 2025-03-08 17:30:47.225
118.0, 187500.0, 23427.39980547426, 29978.15966345783, -187500.02235174447, -187500.02235174447, 9043.31464091714, -18233.36848418337, 3839.202682876907, -0.242, 0.9440000000000001, 0.152, 192.0, 0.0, 0.0, 0.0, 0.0, 0.0, 0.0, 0.0, 0.0, 0.0, 1.74147664722536E9, 0.0, 2025-03-08 17:30:47.225
119.0, 187500.0, 23451.91966914173, 29984.9769455167, -187500.02235174447, -187500.02235174447, 9040.118341460031, -18228.339341680927, 3836.699287497913, -0.242, 0.9440000000000001, 0.152, 192.0, 0.0, 0.0, 0.0, 0.0, 0.0, 0.0, 0.0, 0.0, 0.0, 1.741476647225386E9, 0.0, 2025-03-08 17:30:47.225
120.0, 187500.0, 23470.181044361718, 29982.428846648796, -187500.02235174447, -187500.02235174447, 9038.17373969242, -18237.436501674238, 3830.9548891728987, -0.242, 0.9440000000000001, 0.152, 192.0, 0.0, 0.0, 0.0, 0.0, 0.0, 0.0, 0.0, 0.0, 0.0, 1.741476647225416E9, 0.0, 2025-03-08 17:30:47.225
121.0, 187500.0, 23424.672892650713, 29970.582422087482, -187500.02235174447, -187500.02235174447, 9036.653821069458, -18247.025400045564, 3834.1958921189184, -0.23800000000000002, 0.9440000000000001, 0.156, 192.0, 248.0, 144.0, 29.0, 128.0, 4.0, 224.0, 0.0, 0.0, 0.0, 1.741476647285258E9, 0.0, 2025-03-08 17:30:47.285
122.0, 187500.0, 23421.275427493507, 29974.8739570229, -187500.02235174447, -187500.02235174447, 9046.734457818802, -18240.99042904263, 3844.3212323571724, -0.23800000000000002, 0.9440000000000001, 0.156, 192.0, 0.0, 0.0, 0.0, 0.0, 0.0, 0.0, 0.0, 0.0, 0.0, 1.741476647285306E9, 0.0, 2025-03-08 17:30:47.285
123.0, 187500.0, 23455.294782554483, 29982.473550137707, -187500.02235174447, -187500.02235174447, 9054.289347444696, -18240.833966831444, 3844.52239805727, -0.23800000000000002, 0.9440000000000001, 0.156, 192.0, 0.0, 0.0, 0.0, 0.0, 0.0, 0.0, 0.0, 0.0, 0.0, 1.741476647285332E9, 0.0, 2025-03-08 17:30:47.285
124.0, 187500.0, 23487.570701547946, 29986.519215884116, -187500.02235174447, -187500.02235174447, 9045.50511187376, -18245.103150022405, 3838.4874270543373, -0.23800000000000002, 0.9440000000000001, 0.156, 192.0, 0.0, 0.0, 0.0, 0.0, 0.0, 0.0, 0.0, 0.0, 0.0, 1.741476647285359E9, 0.0, 2025-03-08 17:30:47.285
125.0, 187500.0, 23445.236497549595, 29978.60669834694, -187500.02235174447, -187500.02235174447, 9045.50511187376, -18248.724132624167, 3842.555444545203, -0.23800000000000002, 0.9440000000000001, 0.156, 192.0, 0.0, 0.0, 0.0, 0.0, 0.0, 0.0, 0.0, 0.0, 0.0, 1.741476647285388E9, 0.0, 2025-03-08 17:30:47.285
126.0, 187500.0, 23430.05966306444, 29980.372486158907, -187500.02235174447, -187500.02235174447, 9047.293251430185, -18243.18089999925, 3847.204607391907, -0.23800000000000002, 0.9440000000000001, 0.156, 192.0, 0.0, 0.0, 0.0, 0.0, 0.0, 0.0, 0.0, 0.0, 0.0, 1.741476647285414E9, 0.0, 2025-03-08 17:30:47.285
127.0, 187500.0, 23449.528032485014, 29982.764122815624, -187500.02235174447, -187500.02235174447, 9042.465274627839, -18245.28196397805, 3841.0578776666976, -0.23800000000000002, 0.9440000000000001, 0.156, 192.0, 0.0, 0.0, 0.0, 0.0, 0.0, 0.0, 0.0, 0.0, 0.0, 1.741476647285445E9, 0.0, 2025-03-08 17:30:47.285
128.0, 187500.0, 23486.184893391717, 29982.853529793447, -187500.02235174447, -187500.02235174447, 9036.40795188045, -18252.166301270285, 3832.452456051404, -0.23800000000000002, 0.9440000000000001, 0.156, 192.0, 0.0, 0.0, 0.0, 0.0, 0.0, 0.0, 0.0, 0.0, 0.0, 1.741476647285477E9, 0.0, 2025-03-08 17:30:47.285
129.0, 187500.0, 23458.64754422278, 29975.94684075676, -187500.02235174447, -187500.02235174447, 9035.111550702042, -18238.28586796354, 3837.302784598206, -0.23800000000000002, 0.9440000000000001, 0.156, 192.0, 0.0, 0.0, 0.0, 0.0, 0.0, 0.0, 0.0, 0.0, 0.0, 1.741476647285503E9, 0.0, 2025-03-08 17:30:47.285
130.0, 187500.0, 23431.646636920766, 29981.98181175969, -187500.02235174447, -187500.02235174447, 9039.291326915185, -18231.066254504472, 3835.76051423079, -0.23800000000000002, 0.9440000000000001, 0.156, 192.0, 0.0, 0.0, 0.0, 0.0, 0.0, 0.0, 0.0, 0.0, 0.0, 1.74147664728553E9, 0.0, 2025-03-08 17:30:47.285
