%OpenBCI Raw EXG Data
%Number of channels = 16
%Sample Rate = 125 Hz
%Board = OpenBCI_GUI$BoardCytonSerialDaisy
Sample Index, EXG Channel 0, EXG Channel 1, EXG Channel 2, EXG Channel 3, EXG Channel 4, EXG Channel 5, EXG Channel 6, EXG Channel 7, EXG Channel 8, EXG Channel 9, EXG Channel 10, EXG Channel 11, EXG Channel 12, EXG Channel 13, EXG Channel 14, EXG Channel 15, Accel Channel 0, Accel Channel 1, Accel Channel 2, Not Used, Digital Channel 0 (D11), Digital Channel 1 (D12), Digital Channel 2 (D13), Digital Channel 3 (D17), Not Used, Digital Channel 4 (D18), Analog Channel 0, Analog Channel 1, Analog Channel 2, Timestamp, Marker Channel, Timestamp (Formatted)
34.0, -2025.3809720731942, -4374.43755560369, 21194.43818264463, 7391.498373925492, -7777.982387302207, -6087.184677980505, -32794.23359563752, 22692.742668717226, 3134.8992150901813, 26579.97925042859, -15375.742659061272, -6763.10143030899, -9659.127552405305, 7887.684749088854, -42226.49094182145, -187500.02235174447, 0.0, 0.0, 0.0, 192.0, 0.0, 0.0, 0.0, 0.0, 0.0, 0.0, 0.0, 0.0, 0.0, 1.744824323514829E9, 0.0, 2025-04-16 12:25:23.514
36.0, -2066.485830126504, -4408.278096709025, 21177.495560347506, 7359.26715842094, -7814.549841231089, -6099.656951386565, -32817.63587208222, 22666.00998234868, 3110.871089800726, 26580.605099273336, -15395.792173837683, -6795.556163258096, -9676.33839563589, 7860.79560050912, -42244.30528215233, -187500.02235174447, -0.058, 0.47000000000000003, 0.126, 192.0, 126.0, 48.0, 14.5, 48.0, 3.5, 112.0, 0.0, 0.0, 0.0, 1.74482432351496E9, 0.0, 2025-04-16 12:25:23.514
38.0, -2039.775495502412, -4389.68144532221, 21171.52764457794, 7371.202989960074, -7797.383701489413, -6102.987361310406, -32812.00323247948, 22675.129494086446, 3117.308392203855, 26556.82284317289, -15392.729984847307, -6784.022663119157, -9677.165410180738, 7872.709080303798, -42242.807715273826, -187500.02235174447, -0.058, 0.47000000000000003, 0.126, 192.0, 0.0, 0.0, 0.0, 0.0, 0.0, 0.0, 0.0, 0.0, 0.0, 1.744824323515075E9, 0.0, 2025-04-16 12:25:23.515
40.0, -2059.713251556546, -4399.292695437992, 21171.304127133386, 7360.652966577169, -7816.874422654441, -6099.075806030728, -32803.66603179766, 22663.19366254731, 3109.9993717669695, 26586.617718531816, -15400.508391917754, -6793.946837657313, -9674.885532246297, 7862.539036576633, -42250.31790141081, -187500.02235174447, -0.058, 0.47000000000000003, 0.126, 192.0, 0.0, 0.0, 0.0, 0.0, 0.0, 0.0, 0.0, 0.0, 0.0, 1.74482432351516E9, 0.0, 2025-04-16 12:25:23.515
42.0, -2015.0544661348424, -4365.608616543844, 21188.358508152785, 7390.246676235995, -7793.785070632109, -6081.82025931123, -32790.29968861338, 22688.49583727072, 3124.4162469406424, 26553.53713673796, -15381.911740530937, -6770.321043768054, -9666.347165864368, 7879.593417596033, -42239.07497394979, -187500.02235174447, -0.058, 0.47000000000000003, 0.126, 192.0, 0.0, 0.0, 0.0, 0.0, 0.0, 0.0, 0.0, 0.0, 0.0, 1.744824323515235E9, 0.0, 2025-04-16 12:25:23.515
44.0, -2049.1408764291855, -4392.810689545952, 21178.702554548094, 7368.945463770087, -7811.957038874274, -6085.44124191299, -32797.58635730581, 22676.135322586935, 3122.8069213398603, 26605.88492225229, -15383.923397531915, -6773.472639736252, -9661.630947784299, 7878.811106540097, -42238.94086348306, -187500.02235174447, -0.058, 0.47000000000000003, 0.126, 192.0, 0.0, 0.0, 0.0, 0.0, 0.0, 0.0, 0.0, 0.0, 0.0, 1.744824323515322E9, 0.0, 2025-04-16 12:25:23.515
46.0, -2027.0350011628868, -4370.861276490841, 21181.273005160452, 7387.787984345911, -7805.855012637975, -6086.089442502194, -32799.732124773516, 22684.316061057576, 3120.1470637496786, 26548.753863424525, -15381.040022497182, -6773.0256048471465, -9668.96231996564, 7883.259103686703, -42235.319880881296, -187500.02235174447, -0.058, 0.47000000000000003, 0.126, 192.0, 0.0, 0.0, 0.0, 0.0, 0.0, 0.0, 0.0, 0.0, 0.0, 1.744824323515412E9, 0.0, 2025-04-16 12:25:23.515
48.0, -2050.7054985410573, -4393.436538390701, 21185.229263929043, 7373.035833005409, -7813.521660986145, -6088.749300092376, -32796.647584038685, 22677.38702027643, 3117.107226503757, 26612.83631477789, -15383.275196942712, -6777.1383258269225, -9663.843770485375, 7877.738222806242, -42239.097325694245, -187500.02235174447, -0.126, 0.9400000000000001, 0.25, 192.0, 126.0, 8.0, 14.5, 48.0, 3.5, 104.0, 0.0, 0.0, 0.0, 1.744824323515489E9, 0.0, 2025-04-16 12:25:23.515
50.0, -2028.5325680413926, -4371.665939291232, 21186.36920289626, 7386.424527934138, -7807.553745216578, -6090.11275650415, -32806.929386488126, 22685.366593046976, 3111.6086973677516, 26544.05999708891, -15385.867999299528, -6781.474564251253, -9673.186799667692, 7873.826667526564, -42244.774668785896, -187500.02235174447, -0.126, 0.9400000000000001, 0.25, 192.0, 0.0, 0.0, 0.0, 0.0, 0.0, 0.0, 0.0, 0.0, 0.0, 1.744824323515579E9, 0.0, 2025-04-16 12:25:23.515
0.0, -1010.4329598466111, -2176.7693372689887, 10597.073804983354, 3687.30022755864, -3866.2482936678284, -3011.9646205859926, -16373.636290268458, 11401.11075652966, 1559.2576932022207, 13318.73396858382, -7693.537496750057, -3381.5283634100397, -4833.408276248965, 3940.9925271263755, -21124.343112032784, -93750.01117587223, -0.125, 0.9410000000000001, 0.254, 192.0, 126.0, 16.0, 14.5, 56.0, 4.0, 8.0, 0.0, 0.0, 0.0, 1.74482432360151E9, 0.0, 2025-04-16 12:25:23.601
2.0, -1989.6181809447028, -4332.7515521945425, 21197.43331640164, 7392.727719870534, -7715.866889460909, -6024.376276061092, -32750.871211394217, 22810.42460327442, 2940.9978319403926, 26638.630227879315, -15354.84377799556, -6726.779845569115, -9621.755435676032, 7869.959815735796, -42188.694141947526, -187500.02235174447, -0.125, 0.9410000000000001, 0.254, 192.0, 0.0, 0.0, 0.0, 0.0, 0.0, 0.0, 0.0, 0.0, 0.0, 1.744824323601628E9, 0.0, 2025-04-16 12:25:23.601
4.0, -2035.1486844001633, -4381.925389996218, 21159.48005431653, 7345.386725114194, -7747.740477054176, -6057.345099132669, -32783.77297923243, 22773.20894875633, 2926.759770722362, 26698.1529233638, -15379.564807363131, -6748.975127813235, -9634.250060826547, 7844.389420078925, -42215.00214517143, -187500.02235174447, -0.125, 0.9410000000000001, 0.254, 192.0, 0.0, 0.0, 0.0, 0.0, 0.0, 0.0, 0.0, 0.0, 0.0, 1.744824323601722E9, 0.0, 2025-04-16 12:25:23.601
6.0, -2013.2439748339625, -4358.880741462796, 21171.281775388932, 7369.8395335483, -7736.966936226719, -6045.856302482642, -32774.5864122613, 22789.905701864445, 2919.5848607522084, 26614.44564037867, -15383.163438220436, -6763.012023331168, -9647.750514477553, 7836.923937430852, -42219.69601150704, -187500.02235174447, -0.125, 0.9410000000000001, 0.254, 192.0, 0.0, 0.0, 0.0, 0.0, 0.0, 0.0, 0.0, 0.0, 0.0, 1.744824323601819E9, 0.0, 2025-04-16 12:25:23.601
8.0, -2034.7910564888784, -4378.4832213501, 21167.213757898066, 7353.723925796024, -7747.204035187249, -6051.4442385964685, -32784.59999377728, 22779.758009881738, 2907.2243460684235, 26692.14030410532, -15393.355833692056, -6758.698136651295, -9648.219901111115, 7836.946289175307, -42225.37335459868, -187500.02235174447, -0.122, 0.9460000000000001, 0.254, 192.0, 126.0, 24.0, 14.5, 72.0, 3.5, 120.0, 0.0, 0.0, 0.0, 1.744824323601913E9, 0.0, 2025-04-16 12:25:23.601
10.0, -2023.0563906498423, -4362.837000231386, 21170.231243399532, 7370.197161459585, -7746.399372386858, -6046.124523416105, -32778.31915358533, 22791.917358865423, 2909.794796680784, 26615.22795143461, -15384.370432421021, -6757.155866283878, -9654.746610492064, 7845.395248579413, -42215.3150695938, -187500.02235174447, -0.122, 0.9460000000000001, 0.254, 192.0, 0.0, 0.0, 0.0, 0.0, 0.0, 0.0, 0.0, 0.0, 0.0, 1.744824323602E9, 0.0, 2025-04-16 12:25:23.602
12.0, -2028.1078848967416, -4372.068270691428, 21168.28664163192, 7362.195236944585, -7743.292479907571, -6046.2809856272925, -32779.25792685246, 22790.598605942563, 2904.8103576672506, 26701.61744375437, -15391.120659246524, -6752.394944714898, -9647.415238310723, 7849.977356192751, -42219.33838359575, -187500.02235174447, -0.122, 0.9460000000000001, 0.254, 192.0, 0.0, 0.0, 0.0, 0.0, 0.0, 0.0, 0.0, 0.0, 0.0, 1.744824323602084E9, 0.0, 2025-04-16 12:25:23.602
14.0, -2034.4781320665043, -4376.024529460016, 21163.9951066965, 7362.441106133593, -7756.837637047486, -6051.690107785476, -32785.538767044396, 22788.162265796935, 2892.2710290278233, 26617.641939835783, -15396.976816293814, -6778.099450838501, -9661.183912895192, 7833.481768784734, -42222.9146627086, -187500.02235174447, -0.122, 0.9460000000000001, 0.254, 192.0, 0.0, 0.0, 0.0, 0.0, 0.0, 0.0, 0.0, 0.0, 0.0, 1.744824323602168E9, 0.0, 2025-04-16 12:25:23.602
16.0, -2031.8853297096884, -4380.494878351078, 21168.08547593182, 7362.351699155772, -7738.419799616314, -6049.231415895393, -32766.83035693531, 22786.664698918426, 2901.6587616990523, 26699.292862331018, -15392.66292961394, -6760.709793652272, -9648.041087155472, 7846.065800913072, -42221.14887489664, -187500.02235174447, -0.122, 0.9460000000000001, 0.254, 192.0, 0.0, 0.0, 0.0, 0.0, 0.0, 0.0, 0.0, 0.0, 0.0, 1.744824323661817E9, 0.0, 2025-04-16 12:25:23.661
18.0, -2036.6462512786688, -4378.8855527502965, 21169.404228854684, 7365.816219546345, -7749.662727077333, -6046.593910049666, -32762.315304555337, 22787.514065207728, 2890.035854582293, 26624.07924223891, -15398.943769805881, -6778.322968283054, -9661.094505917372, 7834.800521707598, -42219.673659762586, -187500.02235174447, -0.122, 0.9500000000000001, 0.25, 192.0, 126.0, 24.0, 14.5, 88.0, 3.5, 104.0, 0.0, 0.0, 0.0, 1.744824323661909E9, 0.0, 2025-04-16 12:25:23.661
20.0, -2026.0068209179428, -4374.81753525943, 21174.746295779503, 7372.186466716107, -7722.617116286411, -6041.900043714052, -32760.415406276636, 22799.405193257953, 2903.178680322013, 26700.56691176497, -15387.700842344862, -6749.9586045692695, -9643.86131094233, 7854.0230219391615, -42212.99048817045, -187500.02235174447, -0.122, 0.9500000000000001, 0.25, 192.0, 0.0, 0.0, 0.0, 0.0, 0.0, 0.0, 0.0, 0.0, 0.0, 1.744824323662021E9, 0.0, 2025-04-16 12:25:23.662
22.0, -2041.3401176142834, -4375.644549804277, 21171.7958655114, 7366.285606179907, -7745.393543886369, -6042.8164652367195, -32769.02082789193, 22789.860998375538, 2895.5567354627533, 26633.154050487763, -15386.538551633186, -6765.850694876993, -9653.561968035934, 7844.255309612193, -42207.78253171236, -187500.02235174447, -0.122, 0.9500000000000001, 0.25, 192.0, 0.0, 0.0, 0.0, 0.0, 0.0, 0.0, 0.0, 0.0, 0.0, 1.744824323662117E9, 0.0, 2025-04-16 12:25:23.662
24.0, -2025.7609517289343, -4374.392852114779, 21170.030077699434, 7362.619920089236, -7737.302212393548, -6047.2197588944155, -32777.82741520732, 22784.787152384182, 2895.534383718298, 26688.116990103365, -15393.62405462552, -6758.5863779290175, -9651.639718012777, 7847.719830002765, -42225.954499954525, -187500.02235174447, -0.122, 0.9500000000000001, 0.25, 192.0, 0.0, 0.0, 0.0, 0.0, 0.0, 0.0, 0.0, 0.0, 0.0, 1.744824323662198E9, 0.0, 2025-04-16 12:25:23.662
26.0, -2032.5782337878031, -4371.308311379947, 21167.929013720634, 7359.825952032323, -7747.025221231606, -6040.9389187024735, -32768.707903469556, 22787.469361718817, 2902.061093099248, 26640.37366394683, -15380.2800631857, -6765.873046621447, -9645.805912709942, 7853.575987050055, -42209.235395101954, -187500.02235174447, -0.122, 0.9500000000000001, 0.25, 192.0, 0.0, 0.0, 0.0, 0.0, 0.0, 0.0, 0.0, 0.0, 0.0, 1.744824323662286E9, 0.0, 2025-04-16 12:25:23.662
28.0, -2006.5384514973703, -4356.310290850436, 21173.18167366763, 7371.404155660171, -7724.561718054023, -6036.28975585577, -32769.333752314305, 22793.973719355312, 2905.3020960452673, 26687.289975558517, -15382.403478908955, -6749.176293513334, -9643.548386519955, 7860.706193531299, -42216.94674693904, -187500.02235174447, -0.122, 0.9440000000000001, 0.25, 192.0, 126.0, 24.0, 14.5, 64.0, 3.5, 104.0, 0.0, 0.0, 0.0, 1.744824323662376E9, 0.0, 2025-04-16 12:25:23.662
30.0, -2024.1739778726076, -4364.222808387614, 21173.114618434265, 7364.385707901205, -7742.621927573911, -6037.317936100714, -32771.81479594884, 22785.211835528833, 2909.0795408582144, 26657.249231010584, -15372.971042748815, -6757.3570319839755, -9643.593090008866, 7858.627481296955, -42208.609546257205, -187500.02235174447, -0.122, 0.9440000000000001, 0.25, 192.0, 0.0, 0.0, 0.0, 0.0, 0.0, 0.0, 0.0, 0.0, 0.0, 1.744824323721332E9, 0.0, 2025-04-16 12:25:23.721
32.0, -2009.0865503652753, -4358.9925001850725, 21166.789074753415, 7366.59853060228, -7729.903784978841, -6049.4549333399455, -32788.17627289012, 22785.435352973385, 2910.3312385477116, 26682.66316445627, -15374.46860962732, -6744.661241133362, -9637.021677139006, 7867.881103501452, -42214.68922074905, -187500.02235174447, -0.122, 0.9440000000000001, 0.25, 192.0, 0.0, 0.0, 0.0, 0.0, 0.0, 0.0, 0.0, 0.0, 0.0, 1.744824323721441E9, 0.0, 2025-04-16 12:25:23.721
34.0, -2039.127294913208, -4373.901113736762, 21160.46353107256, 7348.337155382294, -7754.222482946216, -6051.690107785476, -32790.47850256902, 22772.85132084505, 2893.969761606427, 26666.011114837067, -15385.756240577251, -6771.595093202007, -9650.566834278921, 7848.0327544251395, -42225.37335459868, -187500.02235174447, -0.122, 0.9440000000000001, 0.25, 192.0, 0.0, 0.0, 0.0, 0.0, 0.0, 0.0, 0.0, 0.0, 0.0, 1.744824323721519E9, 0.0, 2025-04-16 12:25:23.721
36.0, -2018.16135861413, -4363.999290943061, 21164.03981018541, 7360.228283432518, -7731.982497213185, -6053.634709553088, -32765.310438312346, 22786.687050662884, 2892.539249961287, 26669.967373605654, -15387.365566178032, -6762.900264608892, -9652.936119191185, 7855.609995795488, -42225.93214821007, -187500.02235174447, -0.122, 0.9440000000000001, 0.25, 192.0, 0.0, 0.0, 0.0, 0.0, 0.0, 0.0, 0.0, 0.0, 0.0, 1.744824323721602E9, 0.0, 2025-04-16 12:25:23.721
38.0, -2050.3702223742275, -4390.530811611511, 21158.787150238415, 7345.163207669641, -7745.684116564288, -6053.590006064178, -32760.460109765547, 22777.344021480563, 2886.7501481473623, 26673.454245740682, -15393.601702881064, -6779.641721205917, -9655.081886658894, 7845.395248579413, -42217.86316846171, -187500.02235174447, -0.12, 0.9440000000000001, 0.25, 192.0, 126.0, 32.0, 14.5, 64.0, 3.5, 104.0, 0.0, 0.0, 0.0, 1.744824323721684E9, 0.0, 2025-04-16 12:25:23.721
40.0, -2017.6696202361131, -4367.597921800366, 21163.413961340662, 7363.044603233887, -7727.400389599847, -6044.939880959974, -32768.126758113714, 22790.71036466484, 2880.4246044665106, 26646.341579716394, -15398.653197127964, -6772.489162980219, -9661.273319873015, 7849.105638158994, -42226.42388658808, -187500.02235174447, -0.12, 0.9440000000000001, 0.25, 192.0, 0.0, 0.0, 0.0, 0.0, 0.0, 0.0, 0.0, 0.0, 0.0, 1.744824323721783E9, 0.0, 2025-04-16 12:25:23.721
42.0, -2048.9844142179986, -4391.514288367544, 21155.61320252576, 7344.090323935786, -7742.979555485196, -6046.549206560756, -32771.61363024874, 22778.953347081348, 2885.789023135784, 26677.924594631746, -15389.243112712278, -6768.421145489353, -9649.583357522888, 7854.380649850446, -42211.22470035848, -187500.02235174447, -0.12, 0.9440000000000001, 0.25, 192.0, 0.0, 0.0, 0.0, 0.0, 0.0, 0.0, 0.0, 0.0, 0.0, 1.744824323721867E9, 0.0, 2025-04-16 12:25:23.721
44.0, -2001.2634398059179, -4347.347241323858, 21180.334231893332, 7380.680129609124, -7710.927153936286, -6024.666848739011, -32752.01115036144, 22807.116545095032, 2886.437223724988, 26642.877059325823, -15385.197446965867, -6761.760325641671, -9653.606671524843, 7858.046335941117, -42213.929261437566, -187500.02235174447, -0.12, 0.9440000000000001, 0.25, 192.0, 0.0, 0.0, 0.0, 0.0, 0.0, 0.0, 0.0, 0.0, 0.0, 1.744824323721952E9, 0.0, 2025-04-16 12:25:23.721
46.0, -2024.5763092728032, -4364.938064210184, 21182.010612727478, 7369.280739936918, -7717.878546461886, -6024.845662694653, -32748.077243337306, 22803.1826380709, 2910.219479825435, 26705.819571711967, -15360.31995538711, -6738.648621874884, -9624.281182799481, 7875.346586149524, -42189.27528730337, -187500.02235174447, -0.12, 0.9440000000000001, 0.25, 192.0, 0.0, 0.0, 0.0, 0.0, 0.0, 0.0, 0.0, 0.0, 0.0, 1.744824323782395E9, 0.0, 2025-04-16 12:25:23.782
48.0, -2019.3683528147167, -4365.362747354835, 21172.019382955958, 7368.498428880982, -7719.197299384749, -6036.557976789234, -32761.778862688407, 22800.880408392004, 2893.7462441618736, 26648.97908556212, -15376.346156161566, -6750.539749925108, -9637.312249816925, 7862.583740065545, -42205.39089505564, -187500.02235174447, -0.11699999999999999, 0.9440000000000001, 0.251, 192.0, 126.0, 56.0, 14.5, 64.0, 3.5, 112.0, 0.0, 0.0, 0.0, 1.744824323782498E9, 0.0, 2025-04-16 12:25:23.782
50.0, -2054.997033476476, -4393.078910479416, 21164.397438096697, 7346.124332681219, -7735.782293770587, -6045.543378060267, -32771.01013314845, 22782.820198872116, 2883.3526829901557, 26709.351147335907, -15387.320862689123, -6759.1451715404, -9642.05081964145, 7853.3748213499575, -42216.03032541637, -187500.02235174447, -0.11699999999999999, 0.9440000000000001, 0.251, 192.0, 0.0, 0.0, 0.0, 0.0, 0.0, 0.0, 0.0, 0.0, 0.0, 1.744824323782595E9, 0.0, 2025-04-16 12:25:23.782
52.0, -2039.2390536354847, -4380.070195206427, 21154.85324321428, 7352.6733938066245, -7750.109761966439, -6055.691070042976, -32804.85067425379, 22774.41594295692, 2865.761860103829, 26634.293989454985, -15399.279045972711, -6776.333663026531, -9664.24610188557, 7838.309745587081, -42235.45399134803, -187500.02235174447, -0.11699999999999999, 0.9440000000000001, 0.251, 192.0, 0.0, 0.0, 0.0, 0.0, 0.0, 0.0, 0.0, 0.0, 0.0, 1.744824323782685E9, 0.0, 2025-04-16 12:25:23.782
54.0, -2053.7006322980683, -4392.609523845855, 21157.960135693567, 7342.033963445898, -7748.6568985768445, -6052.539474074778, -32770.853670937264, 22771.51021617773, 2868.3993659495554, 26707.250083357107, -15402.43064194091, -6769.784601901127, -9662.860293729342, 7841.059010155083, -42237.73386928247, -187500.02235174447, -0.11699999999999999, 0.9440000000000001, 0.251, 192.0, 0.0, 0.0, 0.0, 0.0, 0.0, 0.0, 0.0, 0.0, 0.0, 1.744824323782772E9, 0.0, 2025-04-16 12:25:23.782
56.0, -2026.8338354627892, -4362.792296742475, 21177.473208603053, 7370.890065537699, -7725.455787832236, -6039.441351823968, -32735.76143214243, 22805.484867749798, 2876.5577526757424, 26633.712844099147, -15384.504542887753, -6762.430877975331, -9653.070229657917, 7851.005536437695, -42211.93995618105, -187500.02235174447, -0.11699999999999999, 0.9440000000000001, 0.251, 192.0, 0.0, 0.0, 0.0, 0.0, 0.0, 0.0, 0.0, 0.0, 0.0, 1.744824323782849E9, 0.0, 2025-04-16 12:25:23.782
58.0, -2036.6238995342137, -4374.795183514975, 21173.0475632009, 7358.998937487476, -7724.0029244426405, -6041.967098947418, -32755.654484707655, 22792.56555945463, 2877.5859329206864, 26714.246179371617, -15387.365566178032, -6759.458095962775, -9646.610575510333, 7855.118257417472, -42215.98562192746, -187500.02235174447, -0.11649999999999999, 0.9440000000000001, 0.2515, 192.0, 126.0, 48.0, 14.5, 64.0, 3.5, 112.0, 0.0, 0.0, 0.0, 1.744824323782926E9, 0.0, 2025-04-16 12:25:23.782
60.0, -2020.1953673595629, -4350.655299503243, 21178.76960978146, 7375.561580128859, -7720.33723835197, -6038.524930301301, -32758.42610102011, 22798.824047902115, 2883.9785318349045, 26637.959675545655, -15374.066278227125, -6754.719526138249, -9646.14118887677, 7863.477809843756, -42206.75435146742, -187500.02235174447, -0.11649999999999999, 0.9440000000000001, 0.2515, 192.0, 0.0, 0.0, 0.0, 0.0, 0.0, 0.0, 0.0, 0.0, 0.0, 1.744824323841581E9, 0.0, 2025-04-16 12:25:23.841
62.0, -2036.8921204676774, -4375.376328870813, 21169.203063154586, 7357.50137060897, -7721.231308130183, -6051.712459529932, -32766.226859835013, 22787.335251252087, 2878.3011887432563, 26720.549371308014, -15384.325728932112, -6747.030526045624, -9648.868101700318, 7861.801429009609, -42222.19940688603, -187500.02235174447, -0.11649999999999999, 0.9440000000000001, 0.2515, 192.0, 0.0, 0.0, 0.0, 0.0, 0.0, 0.0, 0.0, 0.0, 0.0, 1.744824323841695E9, 0.0, 2025-04-16 12:25:23.841
64.0, -2045.6093008052471, -4374.258741648047, 21158.965964194056, 7351.6228618172245, -7744.655936319344, -6055.758125276342, -32783.370647832235, 22778.774533125703, 2862.766726346818, 26638.607876134858, -15397.401499438465, -6773.33852926952, -9665.430744341702, 7842.824797967053, -42229.4190203451, -187500.02235174447, -0.11649999999999999, 0.9440000000000001, 0.2515, 192.0, 0.0, 0.0, 0.0, 0.0, 0.0, 0.0, 0.0, 0.0, 0.0, 1.744824323841786E9, 0.0, 2025-04-16 12:25:23.841
66.0, -2030.097190153264, -4358.903093207252, 21173.271080645452, 7360.965890999543, -7726.238098888171, -6045.364564104625, -32775.30166808387, 22789.21279778633, 2870.6568921395415, 26726.85256324441, -15392.461763913843, -6749.265700491154, -9656.311232603935, 7858.850998741508, -42227.58617729976, -187500.02235174447, -0.11649999999999999, 0.9440000000000001, 0.2515, 192.0, 0.0, 0.0, 0.0, 0.0, 0.0, 0.0, 0.0, 0.0, 0.0, 1.744824323841873E9, 0.0, 2025-04-16 12:25:23.841
68.0, -2026.2750418514065, -4350.05180240295, 21173.271080645452, 7363.98337650101, -7751.294404422571, -6047.465628083423, -32788.24332812349, 22781.65790816044, 2880.7598806333403, 26664.13356830282, -15378.022536995715, -6751.344412725498, -9653.405505824747, 7859.275681886159, -42217.438485317056, -187500.02235174447, -0.11725, 0.9430000000000001, 0.25375000000000003, 192.0, 126.0, 40.0, 14.5, 56.0, 4.0, 0.0, 0.0, 0.0, 0.0, 1.744824323841962E9, 0.0, 2025-04-16 12:25:23.841
70.0, -2010.002971887943, -4341.647546487755, 21180.267176659963, 7374.868676050744, -7736.00581121514, -6040.581290791189, -32784.39882807718, 22782.03788781618, 2872.9144183295275, 26737.29082790504, -15378.782496307194, -6734.692363106295, -9654.85836921434, 7868.2834349016475, -42226.31212786581, -187500.02235174447, -0.11725, 0.9430000000000001, 0.25375000000000003, 192.0, 0.0, 0.0, 0.0, 0.0, 0.0, 0.0, 0.0, 0.0, 0.0, 1.744824323842061E9, 0.0, 2025-04-16 12:25:23.842
72.0, -2017.5355097693814, -4336.0372586294725, 21187.7997145414, 7376.254484206973, -7744.320660152514, -6030.567709275211, -32785.337601344305, 22787.044678574166, 2873.3167497297227, 26677.209338809174, -15368.992432235771, -6741.956680054269, -9652.332622090891, 7868.618711068477, -42214.2645376044, -187500.02235174447, -0.11725, 0.9430000000000001, 0.25375000000000003, 192.0, 0.0, 0.0, 0.0, 0.0, 0.0, 0.0, 0.0, 0.0, 0.0, 1.744824323842149E9, 0.0, 2025-04-16 12:25:23.842
74.0, -2008.9971433874541, -4344.754438967042, 21186.749182552005, 7371.113582982252, -7713.743473737654, -6035.5745000332, -32760.750682443464, 22800.545132225172, 2887.532459203298, 26728.48424058965, -15361.795170521162, -6721.661296088851, -9633.020714881506, 7883.281455431159, -42208.07310439028, -187500.02235174447, -0.11725, 0.9430000000000001, 0.25375000000000003, 192.0, 0.0, 0.0, 0.0, 0.0, 0.0, 0.0, 0.0, 0.0, 0.0, 1.744824323842234E9, 0.0, 2025-04-16 12:25:23.842
76.0, -2030.2089488755405, -4352.62225301531, 21183.08349646133, 7362.17288520013, -7730.127302423394, -6034.523968043801, -32759.05194986486, 22793.057297832645, 2873.9425985744715, 26677.70107718719, -15371.160551447934, -6749.131590024423, -9644.129531875793, 7859.588606308533, -42202.64163048764, -187500.02235174447, -0.11725, 0.9430000000000001, 0.25375000000000003, 192.0, 0.0, 0.0, 0.0, 0.0, 0.0, 0.0, 0.0, 0.0, 0.0, 1.744824323901678E9, 0.0, 2025-04-16 12:25:23.901
78.0, -2024.35279182825, -4359.975976941107, 21167.28081313143, 7360.0718212213305, -7729.032066945085, -6048.538511817278, -32775.882813439704, 22788.27402451921, 2870.5227816728097, 26719.09650791842, -15379.743621318774, -6732.256022960666, -9646.007078410039, 7872.552618092611, -42214.2645376044, -187500.02235174447, -0.11762500000000001, 0.9425000000000001, 0.253875, 192.0, 126.0, 40.0, 14.5, 56.0, 3.5, 120.0, 0.0, 0.0, 0.0, 1.744824323901767E9, 0.0, 2025-04-16 12:25:23.901
80.0, -2067.9833970050095, -4391.558991856456, 21154.965001936558, 7333.45089357506, -7760.302157438059, -6062.195427679471, -32790.5902612913, 22766.279907975186, 2836.1681504450025, 26675.13062657483, -15409.76201412225, -6777.384195015931, -9671.44336360018, 7829.614916993966, -42236.862151248715, -187500.02235174447, -0.11762500000000001, 0.9425000000000001, 0.253875, 192.0, 0.0, 0.0, 0.0, 0.0, 0.0, 0.0, 0.0, 0.0, 0.0, 1.744824323901853E9, 0.0, 2025-04-16 12:25:23.901
82.0, -2022.9446319275658, -4360.870046719318, 21178.300223147897, 7365.346832912784, -7719.040837173562, -6044.202273392949, -32753.642827706677, 22793.683146677395, 2860.084517012181, 26696.118914618364, -15388.013766767237, -6743.968337055247, -9650.902110445752, 7854.894739972919, -42217.572595783786, -187500.02235174447, -0.11762500000000001, 0.9425000000000001, 0.253875, 192.0, 0.0, 0.0, 0.0, 0.0, 0.0, 0.0, 0.0, 0.0, 0.0, 1.744824323901954E9, 0.0, 2025-04-16 12:25:23.901
84.0, -2047.3750886172163, -4374.281093392503, 21181.29535690491, 7359.624786332225, -7731.803683257543, -6037.586157034178, -32750.40182476066, 22791.157399553944, 2864.3313484586893, 26691.112123860377, -15378.156647462447, -6748.326927224032, -9641.849653941352, 7856.41465859588, -42203.04396188784, -187500.02235174447, -0.11762500000000001, 0.9425000000000001, 0.253875, 192.0, 0.0, 0.0, 0.0, 0.0, 0.0, 0.0, 0.0, 0.0, 0.0, 1.744824323902047E9, 0.0, 2025-04-16 12:25:23.902
86.0, -2052.2701206529287, -4380.226657417615, 21156.350810092787, 7357.166094442141, -7736.944584482263, -6059.177942178005, -32775.50283378397, 22784.31776575062, 2851.903778541539, 26686.9994028806, -15391.545342391175, -6745.443552189297, -9649.806874967442, 7858.202798152304, -42216.87969170567, -187500.02235174447, -0.11762500000000001, 0.9425000000000001, 0.253875, 192.0, 0.0, 0.0, 0.0, 0.0, 0.0, 0.0, 0.0, 0.0, 0.0, 1.744824323902134E9, 0.0, 2025-04-16 12:25:23.902
88.0, -2082.087347756308, -4404.098320495882, 21163.481016574027, 7346.124332681219, -7748.880416021397, -6049.946671717963, -32770.3842843037, 22776.964041824824, 2829.6637928085083, 26700.52220827606, -15405.559886164652, -6766.610654188473, -9665.207226897148, 7842.958908433785, -42230.44720059004, -187500.02235174447, -0.11581250000000001, 0.9412500000000001, 0.25293750000000004, 192.0, 126.0, 56.0, 14.5, 48.0, 3.5, 112.0, 0.0, 0.0, 0.0, 1.74482432390222E9, 0.0, 2025-04-16 12:25:23.902
90.0, -2075.940618031099, -4417.487015424611, 21159.390647338707, 7351.309937394851, -7730.86490999042, -6054.193503164471, -32785.538767044396, 22786.910568107436, 2837.285737667768, 26664.62530668084, -15402.385938451998, -6765.761287899171, -9654.299575602958, 7850.782018993142, -42225.93214821007, -187500.02235174447, -0.11581250000000001, 0.9412500000000001, 0.25293750000000004, 192.0, 0.0, 0.0, 0.0, 0.0, 0.0, 0.0, 0.0, 0.0, 0.0, 1.744824323961906E9, 0.0, 2025-04-16 12:25:23.961
92.0, -2135.597423982313, -4459.664757211775, 21152.841586213304, 7339.239995388984, -7751.160293955839, -6054.640538053577, -32784.77880773292, 22771.107884777535, 2812.765874000296, 26687.066458113964, -15421.742549150295, -6789.834116677537, -9666.39186935328, 7830.911318172374, -42237.30918613782, -187500.02235174447, -0.11581250000000001, 0.9412500000000001, 0.25293750000000004, 192.0, 0.0, 0.0, 0.0, 0.0, 0.0, 0.0, 0.0, 0.0, 0.0, 1.744824323962051E9, 0.0, 2025-04-16 12:25:23.962
94.0, -2113.2233277825508, -4437.871806367852, 21161.491711317507, 7364.117486967742, -7734.664706547822, -6043.15174140355, -32762.33765629979, 22794.085478077588, 2804.8757082075726, 26644.933419815712, -15422.278991017223, -6777.540657227119, -9672.605654311856, 7847.205739880293, -42231.65419479063, -187500.02235174447, -0.11581250000000001, 0.9412500000000001, 0.25293750000000004, 192.0, 0.0, 0.0, 0.0, 0.0, 0.0, 0.0, 0.0, 0.0, 0.0, 1.744824323962138E9, 0.0, 2025-04-16 12:25:23.962
96.0, -2156.7868777259446, -4480.228362110658, 21157.066065915355, 7350.706440294557, -7743.3148316520255, -6043.107037914639, -32749.217182304525, 22787.514065207728, 2801.79116747274, 26701.975071665656, -15414.411176968953, -6769.471677478752, -9654.903072703251, 7858.046335941117, -42218.64547951764, -187500.02235174447, -0.11581250000000001, 0.9412500000000001, 0.25293750000000004, 192.0, 0.0, 0.0, 0.0, 0.0, 0.0, 0.0, 0.0, 0.0, 0.0, 1.744824323962227E9, 0.0, 2025-04-16 12:25:23.962
98.0, -2153.3894125687375, -4483.737585990141, 21162.654002029183, 7363.089306722797, -7736.609308315434, -6043.330555359192, -32770.76426395944, 22790.71036466484, 2789.810632444696, 26634.22693422162, -15424.357703251566, -6773.360881013976, -9666.168351908726, 7852.41369633838, -42224.99337494295, -187500.02235174447, -0.11290625000000001, 0.9416250000000002, 0.25246875, 192.0, 126.0, 72.0, 14.5, 56.0, 3.5, 112.0, 0.0, 0.0, 0.0, 1.744824323962319E9, 0.0, 2025-04-16 12:25:23.962
100.0, -2198.1599567127178, -4529.223385956691, 21147.968905922047, 7331.618050529725, -7755.317718424526, -6058.216817166426, -32775.72635122852, 22768.2245097428, 2783.865068419584, 26691.670917471758, -15439.378075525532, -6781.631026462439, -9664.916654219229, 7841.50604504419, -42235.36458437021, -187500.02235174447, -0.11290625000000001, 0.9416250000000002, 0.25246875, 192.0, 0.0, 0.0, 0.0, 0.0, 0.0, 0.0, 0.0, 0.0, 0.0, 1.744824323962402E9, 0.0, 2025-04-16 12:25:23.962
102.0, -2187.7887472854554, -4509.3750368803785, 21154.048580413888, 7349.678260049613, -7748.165160198827, -6049.924319973507, -32770.518394770435, 22787.670527418915, 2767.5259432227544, 26613.328053155907, -15448.162311096468, -6790.43761377783, -9676.67367180272, 7836.812178708575, -42233.46468609151, -187500.02235174447, -0.11290625000000001, 0.9416250000000002, 0.25246875, 192.0, 0.0, 0.0, 0.0, 0.0, 0.0, 0.0, 0.0, 0.0, 0.0, 1.744824323962482E9, 0.0, 2025-04-16 12:25:23.962
104.0, -2210.743988841056, -4527.614060355909, 21152.10397864628, 7336.69189652108, -7749.707430566244, -6050.170189162515, -32773.55823201635, 22781.590852927075, 2781.004045129305, 26695.917748918266, -15448.765808196762, -6780.4240322618525, -9664.670785030221, 7849.530321303645, -42234.202293658534, -187500.02235174447, -0.11290625000000001, 0.9416250000000002, 0.25246875, 192.0, 0.0, 0.0, 0.0, 0.0, 0.0, 0.0, 0.0, 0.0, 0.0, 1.744824323962566E9, 0.0, 2025-04-16 12:25:23.962
106.0, -2189.7780525419776, -4502.848327499429, 21164.106865418777, 7356.897873508678, -7736.385790870881, -6042.794113492265, -32769.13258661421, 22789.03398383069, 2776.131364838048, 26618.848934036367, -15447.58116574063, -6790.683482966839, -9674.594959568378, 7841.841321211019, -42236.28100589287, -187500.02235174447, -0.11290625000000001, 0.9416250000000002, 0.25246875, 192.0, 0.0, 0.0, 0.0, 0.0, 0.0, 0.0, 0.0, 0.0, 0.0, 1.744824324022205E9, 0.0, 2025-04-16 12:25:24.022
108.0, -2206.8771370502877, -4528.910461534317, 21142.13510061921, 7328.779378983901, -7748.098104965461, -6068.342157404681, -32788.824473479326, 22763.530643407186, 2775.9525508824054, 26699.181103608742, -15453.146750110001, -6788.984750388236, -9671.845695000375, 7838.488559542723, -42245.75814554193, -187500.02235174447, -0.116453125, 0.9468125000000001, 0.253234375, 192.0, 126.0, 32.0, 14.5, 96.0, 3.5, 120.0, 0.0, 0.0, 0.0, 1.744824324022324E9, 0.0, 2025-04-16 12:25:24.022
110.0, -2179.831526259366, -4496.746301263131, 21158.00483918248, 7351.064068205842, -7737.011639715629, -6044.8728257266075, -32772.44064479359, 22786.75410589625, 2786.7260917098633, 26612.679852566704, -15447.558813996175, -6795.8020324471045, -9679.19941892617, 7842.2213008667595, -42236.61628205971, -187500.02235174447, -0.116453125, 0.9468125000000001, 0.253234375, 192.0, 0.0, 0.0, 0.0, 0.0, 0.0, 0.0, 0.0, 0.0, 0.0, 1.744824324022421E9, 0.0, 2025-04-16 12:25:24.022
112.0, -2160.2290463720615, -4481.815335966985, 21167.191406153608, 7355.892045008189, -7723.8911657203635, -6035.865072711119, -32766.76330170194, 22795.136010066988, 2799.2654203492907, 26695.67187972926, -15437.992267369304, -6773.29382578061, -9659.932215205696, 7856.481713829246, -42225.44040983205, -187500.02235174447, -0.116453125, 0.9468125000000001, 0.253234375, 192.0, 0.0, 0.0, 0.0, 0.0, 0.0, 0.0, 0.0, 0.0, 0.0, 1.744824324022508E9, 0.0, 2025-04-16 12:25:24.022
114.0, -2144.09108687533, -4462.615187479876, 21169.47128408805, 7365.011556745953, -7732.831863502487, -6031.260613353326, -32761.354179543756, 22808.27883580671, 2810.50834781031, 26619.206561947653, -15425.162366051956, -6774.813744403571, -9661.362726850835, 7859.499199330712, -42210.017706157894, -187500.02235174447, -0.116453125, 0.9468125000000001, 0.253234375, 192.0, 0.0, 0.0, 0.0, 0.0, 0.0, 0.0, 0.0, 0.0, 0.0, 1.744824324022599E9, 0.0, 2025-04-16 12:25:24.022
116.0, -2143.1299618637518, -4478.9096091877955, 21149.55587977837, 7344.157379169153, -7738.464503105224, -6053.76882001982, -32783.48240655451, 22787.42465822991, 2825.662830551008, 26686.9994028806, -15433.454863244877, -6770.164581556867, -9657.67468901571, 7854.738277761731, -42224.63574703166, -187500.02235174447, -0.116453125, 0.9468125000000001, 0.253234375, 192.0, 0.0, 0.0, 0.0, 0.0, 0.0, 0.0, 0.0, 0.0, 0.0, 1.744824324022679E9, 0.0, 2025-04-16 12:25:24.022
118.0, -2118.900670874199, -4452.422792008257, 21160.016496183456, 7355.065030463342, -7750.623852088911, -6042.168264647516, -32773.5358802719, 22787.737582652284, 2838.4480283794437, 26613.39510838927, -15430.90676437697, -6790.147041099911, -9667.397697853768, 7837.281565342137, -42229.799000000836, -187500.02235174447, -0.116453125, 0.9468125000000001, 0.253234375, 192.0, 0.0, 0.0, 0.0, 0.0, 0.0, 0.0, 0.0, 0.0, 0.0, 1.744824324022767E9, 0.0, 2025-04-16 12:25:24.022
120.0, -2093.4420339396042, -4436.731867400631, 21165.71619101956, 7357.07668746432, -7724.427607587291, -6042.436485580979, -32737.124888554205, 22802.84736190407, 2857.5811216331867, 26701.505685032094, -15405.805755353662, -6748.393982457398, -9641.469674285612, 7866.338833134036, -42205.07797063327, -187500.02235174447, -0.12, 0.9460000000000001, 0.254, 192.0, 126.0, 32.0, 14.5, 72.0, 3.5, 120.0, 0.0, 0.0, 0.0, 1.744824324081123E9, 0.0, 2025-04-16 12:25:24.081
122.0, -2099.0076183089755, -4432.1274080428375, 21159.10007466079, 7346.034925703398, -7755.049497491062, -6048.963194961929, -32766.606839490756, 22786.910568107436, 2851.6802610969858, 26644.776957604525, -15412.511278690254, -6770.879837379437, -9654.746610492064, 7841.908376444385, -42216.27619460538, -187500.02235174447, -0.12, 0.9460000000000001, 0.254, 192.0, 0.0, 0.0, 0.0, 0.0, 0.0, 0.0, 0.0, 0.0, 0.0, 1.744824324081234E9, 0.0, 2025-04-16 12:25:24.081
124.0, -2076.7676325759453, -4419.5657276589545, 21157.42369382664, 7352.807504273356, -7741.86196826243, -6051.645404296566, -32777.96152567405, 22786.35177449605, 2863.705499613941, 26696.27537682955, -15414.254714757768, -6755.367726727453, -9654.947776192163, 7852.011364938184, -42229.75429651193, -187500.02235174447, -0.12, 0.9460000000000001, 0.254, 192.0, 0.0, 0.0, 0.0, 0.0, 0.0, 0.0, 0.0, 0.0, 0.0, 1.744824324081314E9, 0.0, 2025-04-16 12:25:24.081
126.0, -2085.2389437245065, -4412.1673002442485, 21157.736618249015, 7348.940652482588, -7754.066020735028, -6048.024421694806, -32777.26862159593, 22781.680259904893, 2877.608284665142, 26657.830376366423, -15405.246961742278, -6755.658299405372, -9652.667898257721, 7852.480751571746, -42217.48318880596, -187500.02235174447, -0.12, 0.9460000000000001, 0.254, 192.0, 0.0, 0.0, 0.0, 0.0, 0.0, 0.0, 0.0, 0.0, 0.0, 1.744824324081414E9, 0.0, 2025-04-16 12:25:24.081
128.0, -2051.9795479750096, -4393.078910479416, 21162.922222962647, 7355.445010119082, -7729.926136723297, -6050.728982773899, -32777.76035997395, 22791.157399553944, 2876.736566631385, 26681.56792897796, -15410.276104244722, -6745.398848700386, -9651.505607546045, 7852.771324249665, -42222.69114526405, -187500.02235174447, -0.12, 0.9460000000000001, 0.254, 192.0, 0.0, 0.0, 0.0, 0.0, 0.0, 0.0, 0.0, 0.0, 0.0, 1.744824324081502E9, 0.0, 2025-04-16 12:25:24.081
130.0, -2070.397385406183, -4399.337398926902, 21162.85516772928, 7346.347850125772, -7750.53444511109, -6048.3373461171805, -32776.97804891802, 22781.83672211608, 2882.5256684453093, 26662.1442630463, -15403.749394863773, -6751.210302258766, -9647.39288656627, 7849.999707937206, -42212.521101536884, -187500.02235174447, -0.11800000000000001, 0.936, 0.26, 192.0, 126.0, 40.0, 14.5, 32.0, 4.0, 16.0, 0.0, 0.0, 0.0, 1.744824324081584E9, 0.0, 2025-04-16 12:25:24.081
132.0, -2038.5685013018253, -4385.971055742629, 21159.882385716723, 7354.819161274334, -7733.703581536243, -6055.266386898325, -32778.967354174536, 22784.407172728443, 2883.8444213681723, 26675.152978319285, -15401.558923907152, -6737.173406740833, -9647.90697668874, 7855.095905673016, -42217.46083706151, -187500.02235174447, -0.11800000000000001, 0.936, 0.26, 192.0, 0.0, 0.0, 0.0, 0.0, 0.0, 0.0, 0.0, 0.0, 0.0, 1.744824324081681E9, 0.0, 2025-04-16 12:25:24.081
134.0, -2055.6005305767694, -4390.731977311609, 21165.827949741837, 7353.388649629194, -7752.188474200782, -6041.140084402572, -32775.21226110605, 22778.1263325365, 2877.1612497760357, 26672.98485910712, -15405.537534420197, -6754.764229627161, -9659.82045648342, 7840.947251432807, -42218.041982417344, -187500.02235174447, -0.11800000000000001, 0.936, 0.26, 192.0, 0.0, 0.0, 0.0, 0.0, 0.0, 0.0, 0.0, 0.0, 0.0, 1.744824324081766E9, 0.0, 2025-04-16 12:25:24.081
136.0, -2020.6647539931244, -4367.977901456106, 21167.549034064894, 7373.639330105702, -7730.14965416785, -6036.066238411217, -32778.274450096425, 22793.772553655213, 2897.1660610635354, 26679.220995810152, -15384.973929521315, -6728.702095592273, -9639.90505217374, 7866.160019178394, -42208.92247067958, -187500.02235174447, -0.11800000000000001, 0.936, 0.26, 192.0, 0.0, 0.0, 0.0, 0.0, 0.0, 0.0, 0.0, 0.0, 0.0, 1.744824324142019E9, 0.0, 2025-04-16 12:25:24.142
138.0, -2061.1214114572304, -4397.72807332612, 21154.652077514183, 7345.78905651439, -7755.921215524819, -6047.622090294611, -32782.96831643204, 22772.18076851139, 2878.859982354639, 26697.28120533004, -15399.994301795281, -6750.04801154709, -9647.079962143895, 7848.993879436717, -42217.438485317056, -187500.02235174447, -0.11800000000000001, 0.936, 0.26, 192.0, 0.0, 0.0, 0.0, 0.0, 0.0, 0.0, 0.0, 0.0, 0.0, 1.744824324142139E9, 0.0, 2025-04-16 12:25:24.142
140.0, -2030.097190153264, -4377.835020760896, 21159.94944095009, 7360.7200218105345, -7733.681229791789, -6046.7503722608535, -32764.684589467597, 22788.542245452674, 2876.960084075938, 26665.80994913697, -15399.90489481746, -6746.181159756322, -9650.946813934663, 7851.161998648882, -42215.22566261598, -187500.02235174447, -0.11800000000000001, 0.9400000000000001, 0.262, 192.0, 126.0, 40.0, 14.5, 48.0, 4.0, 24.0, 0.0, 0.0, 0.0, 1.744824324142227E9, 0.0, 2025-04-16 12:25:24.142
142.0, -2055.9805102325095, -4392.475413379123, 21162.966926451558, 7350.952309483566, -7750.400334644358, -6042.034154180784, -32766.785653446397, 22783.46839946132, 2873.2943979852676, 26695.895397173812, -15405.783403609206, -6755.501837194185, -9652.91376744673, 7840.299050843603, -42215.963270183005, -187500.02235174447, -0.11800000000000001, 0.9400000000000001, 0.262, 192.0, 0.0, 0.0, 0.0, 0.0, 0.0, 0.0, 0.0, 0.0, 0.0, 1.744824324142327E9, 0.0, 2025-04-16 12:25:24.142
144.0, -2018.4295795475937, -4360.355956596846, 21177.272042902954, 7377.595588874292, -7726.1710436548055, -6033.473436054402, -32748.658388693144, 22802.668547948426, 2885.85607836915, 26657.584507177417, -15390.315996446134, -6735.631136373418, -9644.040124897972, 7854.470056828268, -42205.0109153999, -187500.02235174447, -0.11800000000000001, 0.9400000000000001, 0.262, 192.0, 0.0, 0.0, 0.0, 0.0, 0.0, 0.0, 0.0, 0.0, 0.0, 1.744824324142405E9, 0.0, 2025-04-16 12:25:24.142
146.0, -2038.3449838572724, -4376.67273004922, 21179.037830714922, 7365.995033501988, -7734.9776309701965, -6035.708610499932, -32751.564115472334, 22789.03398383069, 2891.1310900606027, 26718.783583496046, -15384.057507998647, -6731.339601437999, -9634.09359861536, 7855.095905673016, -42197.12074960718, -187500.02235174447, -0.11800000000000001, 0.9400000000000001, 0.262, 192.0, 0.0, 0.0, 0.0, 0.0, 0.0, 0.0, 0.0, 0.0, 0.0, 1.744824324142484E9, 0.0, 2025-04-16 12:25:24.142
148.0, -2017.0437713913645, -4362.009985686539, 21170.499464332996, 7372.208818460563, -7731.088427434973, -6046.124523416105, -32769.71373197004, 22786.821161129614, 2882.57037193422, 26656.489271699105, -15387.298510944667, -6736.368743940443, -9650.38802032328, 7854.201835894804, -42206.39672355613, -187500.02235174447, -0.11800000000000001, 0.9400000000000001, 0.262, 192.0, 0.0, 0.0, 0.0, 0.0, 0.0, 0.0, 0.0, 0.0, 0.0, 1.744824324142569E9, 0.0, 2025-04-16 12:25:24.142
150.0, -2045.542245571881, -4390.2178871891365, 21159.61416478326, 7348.292451893384, -7740.677325806299, -6060.697860800965, -32781.627211764724, 22764.35765795203, 2884.6937876574743, 26722.851600986913, -15388.349042934065, -6739.408581186364, -9642.073171385906, 7846.244614868715, -42215.27036610489, -187500.02235174447, -0.116, 0.9420000000000001, 0.252, 192.0, 126.0, 48.0, 14.5, 56.0, 3.5, 112.0, 0.0, 0.0, 0.0, 1.744824324201777E9, 0.0, 2025-04-16 12:25:24.201
152.0, -2020.1730156151077, -4361.808819986441, 21168.443103843107, 7364.586873601303, -7734.620003058912, -6052.941805474974, -32776.463958795546, 22775.824102857605, 2878.345892232167, 26648.867326839845, -15391.455935413354, -6748.684555135317, -9655.439514570178, 7838.846187454008, -42221.39474408564, -187500.02235174447, -0.116, 0.9420000000000001, 0.252, 192.0, 0.0, 0.0, 0.0, 0.0, 0.0, 0.0, 0.0, 0.0, 0.0, 1.744824324201899E9, 0.0, 2025-04-16 12:25:24.201
154.0, -2021.9611551715323, -4365.541561310478, 21180.960080738078, 7362.843437533789, -7724.785235498576, -6041.564767547223, -32759.230763820502, 22781.121466293513, 2894.372093006622, 26736.419109871284, -15381.799981808661, -6733.1724444833335, -9643.727200475598, 7848.055106169594, -42218.80194172882, -187500.02235174447, -0.116, 0.9420000000000001, 0.252, 192.0, 0.0, 0.0, 0.0, 0.0, 0.0, 0.0, 0.0, 0.0, 0.0, 1.744824324201993E9, 0.0, 2025-04-16 12:25:24.201
156.0, -2016.35086731325, -4357.8749129623075, 21172.37701086724, 7364.385707901205, -7736.028162959596, -6050.572520562711, -32773.446473294076, 22787.84934137456, 2888.739453403885, 26661.361951990362, -15374.870941027517, -6735.9887642847025, -9643.883662686785, 7855.118257417472, -42207.715476478996, -187500.02235174447, -0.116, 0.9420000000000001, 0.252, 192.0, 0.0, 0.0, 0.0, 0.0, 0.0, 0.0, 0.0, 0.0, 0.0, 1.744824324202082E9, 0.0, 2025-04-16 12:25:24.202
158.0, -2022.1399691271747, -4369.676634034709, 21170.700630033094, 7356.070858963831, -7738.039819960573, -6051.600700807656, -32779.324982085825, 22777.94751858086, 2881.7880608782843, 26736.664979060293, -15391.813563324638, -6739.47563641973, -9653.807837224942, 7845.8646352129745, -42229.82135174529, -187500.02235174447, -0.116, 0.9420000000000001, 0.252, 192.0, 0.0, 0.0, 0.0, 0.0, 0.0, 0.0, 0.0, 0.0, 0.0, 1.744824324202164E9, 0.0, 2025-04-16 12:25:24.202
160.0, -2003.0739311067978, -4349.5377122804775, 21180.580101082338, 7380.009577275465, -7730.999020457151, -6036.647383767055, -32764.72929295651, 22799.159324068944, 2895.7802529073065, 26664.290030514007, -15368.14306594647, -6730.087903748501, -9645.470636543112, 7855.051202184106, -42203.580403754764, -187500.02235174447, -0.11800000000000001, 0.9460000000000001, 0.248, 192.0, 126.0, 40.0, 14.5, 72.0, 3.5, 96.0, 0.0, 0.0, 0.0, 1.744824324202253E9, 0.0, 2025-04-16 12:25:24.202
162.0, -2018.451931292049, -4370.078965434905, 21170.477112588538, 7361.032946232909, -7731.267241390615, -6051.354831618647, -32775.10050238377, 22778.349849981052, 2886.6383894250857, 26736.799089527023, -15382.045850997669, -6730.512586893152, -9654.38898258078, 7851.765495749176, -42217.66200276161, -187500.02235174447, -0.11800000000000001, 0.9460000000000001, 0.248, 192.0, 0.0, 0.0, 0.0, 0.0, 0.0, 0.0, 0.0, 0.0, 0.0, 1.744824324202343E9, 0.0, 2025-04-16 12:25:24.202
164.0, -2020.3294778262948, -4356.042069916973, 21178.970775481557, 7370.867713793245, -7736.139921681872, -6045.096343171161, -32765.221031334524, 22783.736620394782, 2885.7219679024183, 26659.75262638958, -15375.116810216525, -6734.558252639563, -9649.181026122693, 7848.770361992164, -42208.743656723935, -187500.02235174447, -0.11800000000000001, 0.9460000000000001, 0.248, 192.0, 0.0, 0.0, 0.0, 0.0, 0.0, 0.0, 0.0, 0.0, 0.0, 1.744824324202441E9, 0.0, 2025-04-16 12:25:24.202
166.0, -2018.7648557144232, -4363.619311287322, 21180.736563293525, 7363.938673012099, -7721.566584297012, -6049.72315427341, -32763.656409222654, 22781.121466293513, 2886.5489824472647, 26731.747595280125, -15378.402516651455, -6728.1209502364345, -9643.660145242233, 7852.659565527388, -42211.06823814729, -187500.02235174447, -0.11800000000000001, 0.9460000000000001, 0.248, 192.0, 0.0, 0.0, 0.0, 0.0, 0.0, 0.0, 0.0, 0.0, 0.0, 1.744824324262008E9, 0.0, 2025-04-16 12:25:24.262
168.0, -2026.4091523181382, -4357.383174584291, 21181.988260983024, 7364.6539288346685, -7731.267241390615, -6048.3373461171805, -32760.39305453218, 22780.674431404404, 2885.0961190576695, 26667.08399857092, -15374.826237538606, -6741.844921331993, -9648.152845877748, 7845.2164346237705, -42207.40255205662, -187500.02235174447, -0.11800000000000001, 0.9460000000000001, 0.248, 192.0, 0.0, 0.0, 0.0, 0.0, 0.0, 0.0, 0.0, 0.0, 0.0, 1.744824324262106E9, 0.0, 2025-04-16 12:25:24.262
170.0, -2031.1253703982081, -4375.108107937349, 21169.672449788148, 7356.920225253132, -7723.198261642249, -6063.670642813521, -32776.75453147347, 22776.159379024433, 2883.4644417124323, 26724.729147521157, -15384.549246376664, -6733.038334016602, -9649.918633689718, 7845.439952068324, -42219.07016266229, -187500.02235174447, -0.12, 0.9480000000000001, 0.248, 192.0, 126.0, 32.0, 14.5, 80.0, 3.5, 96.0, 0.0, 0.0, 0.0, 1.744824324262202E9, 0.0, 2025-04-16 12:25:24.262
172.0, -2041.4295245921046, -4374.996349215073, 21177.0485254584, 7361.323518910828, -7733.010677458129, -6053.880578742097, -32767.25504007996, 22779.35567848154, 2874.9037235860496, 26660.75845489007, -15387.94671153387, -6755.05480230508, -9659.5298838055, 7834.845225196508, -42217.79611322834, -187500.02235174447, -0.12, 0.9480000000000001, 0.248, 192.0, 0.0, 0.0, 0.0, 0.0, 0.0, 0.0, 0.0, 0.0, 0.0, 1.744824324262295E9, 0.0, 2025-04-16 12:25:24.262
174.0, -2017.0437713913645, -4360.95945369714, 21182.792923783414, 7371.158286471163, -7714.838709215965, -6051.511293829834, -32766.137452857194, 22790.28568152019, 2888.5159359593317, 26709.395850824818, -15377.597853851064, -6725.505796135163, -9650.85740695684, 7855.051202184106, -42210.68825849155, -187500.02235174447, -0.12, 0.9480000000000001, 0.248, 192.0, 0.0, 0.0, 0.0, 0.0, 0.0, 0.0, 0.0, 0.0, 0.0, 1.744824324262377E9, 0.0, 2025-04-16 12:25:24.262
176.0, -2038.4120390906382, -4375.555142826455, 21179.395458626208, 7355.757934541457, -7739.157407183338, -6050.304299629248, -32766.852708679762, 22778.55101568115, 2880.5140114443316, 26667.28516427102, -15382.448182397866, -6747.075229534535, -9655.126590147805, 7836.007515908184, -42211.44821780303, -187500.02235174447, -0.12, 0.9480000000000001, 0.248, 192.0, 0.0, 0.0, 0.0, 0.0, 0.0, 0.0, 0.0, 0.0, 0.0, 1.744824324262467E9, 0.0, 2025-04-16 12:25:24.262
178.0, -2018.9436696700657, -4371.308311379947, 21177.294394647408, 7364.9445015125875, -7720.7172180077105, -6054.238206653382, -32776.12868262872, 22784.0271930727, 2891.1757935495134, 26689.9498331487, -15379.497752129764, -6729.484406648208, -9645.202415609649, 7855.408830095391, -42210.35298232472, -187500.02235174447, -0.12, 0.9480000000000001, 0.248, 192.0, 0.0, 0.0, 0.0, 0.0, 0.0, 0.0, 0.0, 0.0, 0.0, 1.744824324262557E9, 0.0, 2025-04-16 12:25:24.262
180.0, -2032.3994198321607, -4365.586264799388, 21195.511066378484, 7371.65002484918, -7724.896994220852, -6037.38499133408, -32758.493156253477, 22785.03302157319, 2881.9445230894717, 26672.247251540095, -15383.923397531915, -6746.874063834437, -9648.890453444774, 7841.237824110726, -42207.961345668, -187500.02235174447, -0.121, 0.9490000000000001, 0.249, 192.0, 126.0, 24.0, 14.5, 88.0, 3.5, 104.0, 0.0, 0.0, 0.0, 1.744824324322313E9, 0.0, 2025-04-16 12:25:24.322
182.0, -2005.934954397077, -4348.1295523797935, 21197.701537335102, 7387.899743068188, -7706.546212023046, -6041.296546613758, -32756.794423674874, 22796.499466478763, 2896.76372966334, 26698.57760650845, -15364.365621133522, -6713.704075062761, -9635.814682938419, 7864.505990088701, -42194.6620577171, -187500.02235174447, -0.121, 0.9490000000000001, 0.249, 192.0, 0.0, 0.0, 0.0, 0.0, 0.0, 0.0, 0.0, 0.0, 0.0, 1.744824324322446E9, 0.0, 2025-04-16 12:25:24.322
184.0, -2043.6870507820906, -4371.86710499133, 21177.070877202856, 7361.122353210731, -7735.8046455150425, -6053.6794130419985, -32775.10050238377, 22770.258518488234, 2891.153441805058, 26708.14415313532, -15371.94286250387, -6733.887700305903, -9642.162578363726, 7848.748010247709, -42203.06631363229, -187500.02235174447, -0.121, 0.9490000000000001, 0.249, 192.0, 0.0, 0.0, 0.0, 0.0, 0.0, 0.0, 0.0, 0.0, 0.0, 1.744824324322537E9, 0.0, 2025-04-16 12:25:24.322
186.0, -2016.6414399911691, -4353.2928053489695, 21178.724906292548, 7374.734565584013, -7723.488834320168, -6052.248901396859, -32778.25209835197, 22778.59571917006, 2881.5868951781863, 26690.016888382066, -15383.722231831818, -6731.496063649186, -9652.667898257721, 7848.636251525432, -42216.387953327656, -187500.02235174447, -0.121, 0.9490000000000001, 0.249, 192.0, 0.0, 0.0, 0.0, 0.0, 0.0, 0.0, 0.0, 0.0, 0.0, 1.744824324322629E9, 0.0, 2025-04-16 12:25:24.322
188.0, -2047.486847339493, -4376.62802656031, 21178.300223147897, 7361.055297977365, -7740.72202929521, -6053.657061297544, -32760.61657197673, 22771.577271411094, 2878.055319554248, 26710.267568858573, -15384.90687428795, -6738.670973619339, -9657.115895404328, 7838.443856053813, -42216.231491116465, -187500.02235174447, -0.121, 0.9490000000000001, 0.249, 192.0, 0.0, 0.0, 0.0, 0.0, 0.0, 0.0, 0.0, 0.0, 0.0, 1.74482432432271E9, 0.0, 2025-04-16 12:25:24.322
190.0, -2003.9009456516442, -4339.099447619849, 21192.940615766125, 7390.000807046987, -7714.682247004777, -6042.458837325435, -32763.455243522556, 22789.65983267544, 2897.1437093190802, 26676.248213797597, -15363.069219955114, -6715.179290196811, -9637.401656794746, 7859.923882475363, -42200.20529034201, -187500.02235174447, -0.1225, 0.9485000000000001, 0.2505, 192.0, 126.0, 16.0, 14.5, 80.0, 3.5, 112.0, 0.0, 0.0, 0.0, 1.744824324322789E9, 0.0, 2025-04-16 12:25:24.322
192.0, -2044.2681961379287, -4375.465735848634, 21171.66175504467, 7354.506236851959, -7738.5762618275, -6060.7202125454205, -32760.10248185426, 22764.491768418764, 2881.028101566804, 26713.91090320479, -15380.682394585896, -6732.479540405219, -9645.805912709942, 7837.192158364315, -42215.1139038937, -187500.02235174447, -0.1225, 0.9485000000000001, 0.2505, 192.0, 0.0, 0.0, 0.0, 0.0, 0.0, 0.0, 0.0, 0.0, 0.0, 1.744824324322878E9, 0.0, 2025-04-16 12:25:24.322
194.0, -2004.4597392630267, -4347.0119651570285, 21183.463476117075, 7381.305978453873, -7722.483005819679, -6048.113828672627, -32760.460109765547, 22778.662774403427, 2891.5557732052534, 26663.93240260272, -15369.215949680323, -6725.036409501602, -9645.135360376282, 7848.055106169594, -42204.273307832875, -187500.02235174447, -0.1225, 0.9485000000000001, 0.2505, 192.0, 0.0, 0.0, 0.0, 0.0, 0.0, 0.0, 0.0, 0.0, 0.0, 1.744824324322964E9, 0.0, 2025-04-16 12:25:24.322
196.0, -2041.7648007589341, -4376.896247493773, 21175.52860683544, 7361.6587950776575, -7736.944584482263, -6054.10409618665, -32764.59518248978, 22770.191463254865, 2889.767633648829, 26722.806897498, -15376.077935228102, -6731.741932838194, -9638.094560872862, 7845.797579979609, -42209.8612439467, -187500.02235174447, -0.1225, 0.9485000000000001, 0.2505, 192.0, 0.0, 0.0, 0.0, 0.0, 0.0, 0.0, 0.0, 0.0, 0.0, 1.744824324381601E9, 0.0, 2025-04-16 12:25:24.381
198.0, -2022.4081900606384, -4364.468677576623, 21173.315784134364, 7372.521742882936, -7731.513110579624, -6050.907796729541, -32775.480482039515, 22777.679297647395, 2883.218572523424, 26654.634076909315, -15379.408345151944, -6734.692363106295, -9644.934194676185, 7848.859768969985, -42209.70478173552, -187500.02235174447, -0.1225, 0.9485000000000001, 0.2505, 192.0, 0.0, 0.0, 0.0, 0.0, 0.0, 0.0, 0.0, 0.0, 0.0, 1.744824324381714E9, 0.0, 2025-04-16 12:25:24.381
200.0, -2054.3264811428166, -4400.589096616399, 21156.149644392688, 7345.520835580926, -7750.936776511286, -6070.040889983284, -32787.19279613409, 22755.215794469812, 2868.7346421163847, 26717.86716197338, -15400.486040173299, -6750.495046436196, -9656.490046559578, 7830.553690261089, -42233.26352039141, -187500.02235174447, -0.12125, 0.9492500000000001, 0.25125, 192.0, 126.0, 32.0, 14.5, 88.0, 3.5, 112.0, 0.0, 0.0, 0.0, 1.744824324381809E9, 0.0, 2025-04-16 12:25:24.381
202.0, -2034.8134082333338, -4379.556105083955, 21165.0456386859, 7362.8881410226995, -7742.823093274009, -6061.457820112446, -32780.219051864035, 22767.621012642507, 2866.5888746486753, 26637.356178445363, -15398.921418061427, -6755.434781960819, -9664.715488519132, 7827.357390803981, -42230.69306977905, -187500.02235174447, -0.12125, 0.9492500000000001, 0.25125, 192.0, 0.0, 0.0, 0.0, 0.0, 0.0, 0.0, 0.0, 0.0, 0.0, 1.7448243243819E9, 0.0, 2025-04-16 12:25:24.381
204.0, -2054.259425909451, -4398.577439615422, 21155.344981592298, 7342.436294846094, -7746.511131109135, -6066.598721337166, -32782.610688520756, 22761.49663466175, 2864.8007350922508, 26718.67182477377, -15405.515182675743, -6750.8973778363925, -9661.921520462218, 7830.710152472277, -42234.269348891896, -187500.02235174447, -0.12125, 0.9492500000000001, 0.25125, 192.0, 0.0, 0.0, 0.0, 0.0, 0.0, 0.0, 0.0, 0.0, 0.0, 1.744824324381987E9, 0.0, 2025-04-16 12:25:24.381
206.0, -2033.8969867106662, -4375.331625381902, 21170.253595143986, 7362.262292177951, -7736.452846104246, -6049.76785776232, -32780.77784547542, 22774.862977846024, 2868.5558281607423, 26638.920800557233, -15394.875752315016, -6753.020793559646, -9661.67565127321, 7837.192158364315, -42222.244110374944, -187500.02235174447, -0.12125, 0.9492500000000001, 0.25125, 192.0, 0.0, 0.0, 0.0, 0.0, 0.0, 0.0, 0.0, 0.0, 0.0, 1.744824324382079E9, 0.0, 2025-04-16 12:25:24.382
208.0, -2037.4062105901494, -4386.418090631734, 21170.164188166167, 7356.74141129749, -7721.164252896817, -6048.359697861636, -32761.04125512138, 22773.097190034056, 2868.891104327572, 26715.743746250126, -15399.65902562845, -6748.841017346504, -9655.439514570178, 7838.063876398072, -42224.009898186916, -187500.02235174447, -0.12125, 0.9492500000000001, 0.25125, 192.0, 0.0, 0.0, 0.0, 0.0, 0.0, 0.0, 0.0, 0.0, 0.0, 1.744824324382168E9, 0.0, 2025-04-16 12:25:24.382
210.0, -2024.1739778726076, -4362.43466883119, 21180.893025504713, 7379.271969708439, -7715.308095849526, -6037.228529122893, -32757.75554868645, 22783.580158183595, 2887.375996992111, 26644.28521922651, -15374.133333460491, -6740.593223642496, -9644.62127025381, 7854.894739972919, -42196.807825184806, -187500.02235174447, -0.122625, 0.948625, 0.251625, 192.0, 126.0, 16.0, 14.5, 80.0, 3.5, 112.0, 0.0, 0.0, 0.0, 1.744824324441404E9, 0.0, 2025-04-16 12:25:24.441
212.0, -2037.7638385014343, -4385.389910386791, 21168.621917798748, 7361.4799811220155, -7717.76678773961, -6054.86405549813, -32767.187984846594, 22772.471341189306, 2881.609246922642, 26719.34237710743, -15390.785383079694, -6741.710810865261, -9643.369572564314, 7848.770361992164, -42217.773761483884, -187500.02235174447, -0.122625, 0.948625, 0.251625, 192.0, 0.0, 0.0, 0.0, 0.0, 0.0, 0.0, 0.0, 0.0, 0.0, 1.744824324441516E9, 0.0, 2025-04-16 12:25:24.441
214.0, -2044.514065326937, -4382.662997563243, 21169.56069106587, 7364.02807998992, -7723.175909897794, -6049.8572647401415, -32758.15788008665, 22778.08162904759, 2875.2613514973345, 26646.207469249664, -15390.85243831306, -6767.080040822035, -9648.823398211409, 7836.700419986299, -42208.743656723935, -187500.02235174447, -0.122625, 0.948625, 0.251625, 192.0, 0.0, 0.0, 0.0, 0.0, 0.0, 0.0, 0.0, 0.0, 0.0, 1.744824324441622E9, 0.0, 2025-04-16 12:25:24.441
216.0, -2041.6306902922024, -4393.39183490179, 21161.245842128497, 7355.400306630172, -7721.298363363549, -6054.86405549813, -32771.68068548211, 22772.40428595594, 2867.66175838253, 26714.71556600518, -15401.916551818438, -6763.995500087202, -9651.371497079313, 7834.956983918784, -42223.62991853117, -187500.02235174447, -0.122625, 0.948625, 0.251625, 192.0, 0.0, 0.0, 0.0, 0.0, 0.0, 0.0, 0.0, 0.0, 0.0, 1.744824324441711E9, 0.0, 2025-04-16 12:25:24.441
218.0, -2038.993184446476, -4381.187782429192, 21176.310917891376, 7366.6432340911915, -7725.187566898771, -6038.301412856747, -32762.985856888994, 22780.98735582678, 2877.0718427982147, 26647.235649494607, -15383.029327753704, -6764.8672181209595, -9646.498816788057, 7842.087190400028, -42205.681467733564, -187500.02235174447, -0.122625, 0.948625, 0.251625, 192.0, 0.0, 0.0, 0.0, 0.0, 0.0, 0.0, 0.0, 0.0, 0.0, 1.74482432444179E9, 0.0, 2025-04-16 12:25:24.441
220.0, -2048.73854502899, -4400.276172194025, 21150.695818745593, 7348.31480363784, -7733.368305369414, -6068.4092126380465, -32777.223918107025, 22758.501500904742, 2867.929979315994, 26690.799199438003, -15397.535609905197, -6758.966357584758, -9654.81366572543, 7835.605184507988, -42224.43458133157, -187500.02235174447, -0.1273125, 0.9443125000000001, 0.2488125, 192.0, 125.5, 112.0, 14.5, 48.0, 3.5, 88.0, 0.0, 0.0, 0.0, 1.744824324441876E9, 0.0, 2025-04-16 12:25:24.441
222.0, -2049.610263062747, -4384.384081886302, 21161.692877017605, 7358.574254342825, -7739.24681416116, -6047.91266297253, -32762.449415022067, 22769.69972487685, 2854.988319276371, 26640.261905224554, -15401.983607051803, -6776.937160126825, -9661.787409995486, 7824.742236702709, -42220.8135987298, -187500.02235174447, -0.1273125, 0.9443125000000001, 0.2488125, 192.0, 0.0, 0.0, 0.0, 0.0, 0.0, 0.0, 0.0, 0.0, 0.0, 1.744824324441979E9, 0.0, 2025-04-16 12:25:24.441
224.0, -2014.093341123264, -4363.48520082059, 21158.00483918248, 7363.737507312001, -7729.881433234386, -6051.19836940746, -32776.10633088426, 22768.716248120814, 2872.176810762502, 26700.253987342596, -15394.920455803927, -6751.053840047579, -9651.080924401394, 7848.613899780978, -42222.7134970085, -187500.02235174447, -0.1273125, 0.9443125000000001, 0.2488125, 192.0, 0.0, 0.0, 0.0, 0.0, 0.0, 0.0, 0.0, 0.0, 0.0, 1.744824324442066E9, 0.0, 2025-04-16 12:25:24.442
226.0, -2050.5937398187807, -4393.01185524605, 21168.57721430984, 7366.196199202085, -7737.77159902711, -6033.4287325654905, -32753.48636549549, 22777.902815091948, 2869.539304916776, 26668.067475326956, -15390.718327846329, -6769.583436201029, -9655.81949422592, 7843.36123983398, -42216.05267716082, -187500.02235174447, -0.1273125, 0.9443125000000001, 0.2488125, 192.0, 0.0, 0.0, 0.0, 0.0, 0.0, 0.0, 0.0, 0.0, 0.0, 1.744824324501732E9, 0.0, 2025-04-16 12:25:24.501
228.0, -2020.1953673595629, -4374.906942237251, 21167.750199764992, 7371.761783571456, -7727.154520410839, -6045.00693619334, -32769.333752314305, 22777.813408114125, 2872.735604373885, 26679.98095512163, -15385.733888832796, -6751.344412725498, -9647.057610399439, 7851.653737026899, -42209.70478173552, -187500.02235174447, -0.1273125, 0.9443125000000001, 0.2488125, 192.0, 0.0, 0.0, 0.0, 0.0, 0.0, 0.0, 0.0, 0.0, 0.0, 1.744824324501851E9, 0.0, 2025-04-16 12:25:24.501
230.0, -2043.1506089151633, -4382.327721396413, 21167.32551662034, 7366.3526614132725, -7751.987308500685, -6039.396648335058, -32786.20931937806, 22770.035001043678, 2870.165153761525, 26672.828396895933, -15385.935054532893, -6764.978976843236, -9652.489084302078, 7837.795655464609, -42216.43265681656, -187500.02235174447, -0.12665625, 0.94415625, 0.24640625, 192.0, 126.0, 8.0, 14.5, 64.0, 3.5, 80.0, 0.0, 0.0, 0.0, 1.744824324501948E9, 0.0, 2025-04-16 12:25:24.501
232.0, -2021.1788441155963, -4378.751442283564, 21166.14087416421, 7372.208818460563, -7741.481988606691, -6053.657061297544, -32763.656409222654, 22769.207986498834, 2872.3779764626, 26677.052876597987, -15388.125525489513, -6756.105334294479, -9655.260700614537, 7840.187292121326, -42224.07695342028, -187500.02235174447, -0.12665625, 0.94415625, 0.24640625, 192.0, 0.0, 0.0, 0.0, 0.0, 0.0, 0.0, 0.0, 0.0, 0.0, 1.744824324502035E9, 0.0, 2025-04-16 12:25:24.502
234.0, -2036.9815274454986, -4387.133346454304, 21172.04173470041, 7362.575216600325, -7758.312852181537, -6053.992337464373, -32766.00334239046, 22761.340172450564, 2871.9979968068596, 26685.9488708912, -15385.823295810616, -6771.773907157649, -9656.065363414928, 7825.770416947654, -42218.198444628535, -187500.02235174447, -0.12665625, 0.94415625, 0.24640625, 192.0, 0.0, 0.0, 0.0, 0.0, 0.0, 0.0, 0.0, 0.0, 0.0, 1.744824324502118E9, 0.0, 2025-04-16 12:25:24.502
236.0, -2005.5773264857921, -4366.86031423334, 21175.796827768903, 7378.288492952406, -7738.106875193939, -6055.109924687139, -32763.254077822457, 22772.761913867227, 2878.971741076916, 26670.414408494762, -15376.94965326186, -6752.3055377370765, -9649.33748833388, 7838.2873938426255, -42213.97396492648, -187500.02235174447, -0.12665625, 0.94415625, 0.24640625, 192.0, 0.0, 0.0, 0.0, 0.0, 0.0, 0.0, 0.0, 0.0, 0.0, 1.7448243245022E9, 0.0, 2025-04-16 12:25:24.502
238.0, -2049.520856084926, -4399.046826248983, 21156.41786532615, 7350.125294938719, -7767.745288341676, -6069.280930671804, -32786.365781589244, 22745.045750742647, 2862.677319368997, 26692.252062827596, -15392.953502291859, -6772.712680424772, -9658.658165771743, 7819.199004077793, -42225.99920344343, -187500.02235174447, -0.12665625, 0.94415625, 0.24640625, 192.0, 0.0, 0.0, 0.0, 0.0, 0.0, 0.0, 0.0, 0.0, 0.0, 1.744824324502289E9, 0.0, 2025-04-16 12:25:24.502
240.0, -2008.3042393093397, -4365.362747354835, 21173.315784134364, 7380.814240075856, -7737.995116471662, -6052.025383952307, -32770.42898779261, 22769.006820798735, 2865.4712874259103, 26651.169556518744, -15389.556037134653, -6764.084907065023, -9663.374383851813, 7829.458454782779, -42226.580348799274, -187500.02235174447, -0.12665625, 0.94415625, 0.24640625, 192.0, 0.0, 0.0, 0.0, 0.0, 0.0, 0.0, 0.0, 0.0, 0.0, 1.744824324562088E9, 0.0, 2025-04-16 12:25:24.562
242.0, -2039.0378879353868, -4391.670750578732, 21168.443103843107, 7358.440143876093, -7748.031049732095, -6054.6181863091215, -32771.278354081915, 22758.479149160285, 2869.919284572516, 26699.784600709034, -15386.538551633186, -6768.063517578068, -9648.5775290224, 7824.898698913897, -42222.02059293039, -187500.02235174447, -0.124, 0.9460000000000001, 0.248, 192.0, 126.0, 16.0, 14.5, 72.0, 3.5, 96.0, 0.0, 0.0, 0.0, 1.744824324562216E9, 0.0, 2025-04-16 12:25:24.562
244.0, -2009.8241579323005, -4364.714546765631, 21173.785170767926, 7375.941559784599, -7737.525729838101, -6049.2761193843035, -32774.02761864992, 22772.426637700395, 2873.9649503189266, 26647.481518683617, -15378.00018525126, -6762.632043675429, -9648.19754936666, 7839.583795021033, -42215.02449691588, -187500.02235174447, -0.124, 0.9460000000000001, 0.248, 192.0, 0.0, 0.0, 0.0, 0.0, 0.0, 0.0, 0.0, 0.0, 0.0, 1.744824324562315E9, 0.0, 2025-04-16 12:25:24.562
246.0, -2032.511178554437, -4386.731015054109, 21176.33326963583, 7360.69767006608, -7747.740477054176, -6050.103133929149, -32770.67485698162, 22762.70362886234, 2871.796831106762, 26712.65920551529, -15380.928263774904, -6764.24136927621, -9642.922537675207, 7836.968640919762, -42217.55024403933, -187500.02235174447, -0.124, 0.9460000000000001, 0.248, 192.0, 0.0, 0.0, 0.0, 0.0, 0.0, 0.0, 0.0, 0.0, 0.0, 1.7448243245624E9, 0.0, 2025-04-16 12:25:24.562
248.0, -2014.227451589996, -4369.3190061234245, 21176.802656269392, 7377.863809807755, -7738.218633916215, -6050.5054653293455, -32767.836185435797, 22774.751219123747, 2863.1914094914687, 26645.760434360556, -15382.202313208856, -6768.510552467174, -9653.159636635737, 7832.45358853979, -42217.34907833923, -187500.02235174447, -0.124, 0.9460000000000001, 0.248, 192.0, 0.0, 0.0, 0.0, 0.0, 0.0, 0.0, 0.0, 0.0, 0.0, 1.744824324562487E9, 0.0, 2025-04-16 12:25:24.562
250.0, -2026.096227895764, -4382.148907440771, 21180.758915037983, 7364.318652667839, -7734.262375147627, -6050.6842792849875, -32767.836185435797, 22765.65405913044, 2864.3313484586893, 26720.72818526366, -15385.845647555072, -6767.012985588669, -9651.10327614585, 7830.26311758317, -42223.40640108662, -187500.02235174447, -0.124, 0.9460000000000001, 0.248, 192.0, 0.0, 0.0, 0.0, 0.0, 0.0, 0.0, 0.0, 0.0, 0.0, 1.744824324562576E9, 0.0, 2025-04-16 12:25:24.562
252.0, -2009.2653643209178, -4364.2675118765255, 21182.85997901678, 7376.03096676242, -7735.894052492864, -6051.958328718941, -32770.83131919281, 22772.85132084505, 2876.982435820393, 26642.31826571444, -15367.60662407954, -6757.267625006155, -9642.117874874815, 7840.388457821425, -42206.7096479785, -187500.02235174447, -0.12, 0.9460000000000001, 0.254, 192.0, 126.0, 32.0, 14.5, 72.0, 3.5, 120.0, 0.0, 0.0, 0.0, 1.74482432456266E9, 0.0, 2025-04-16 12:25:24.562
254.0, -2022.8105214608338, -4375.5998463153655, 21182.3011854054, 7366.285606179907, -7731.669572790811, -6049.700802528954, -32761.264772565937, 22767.59866089805, 2872.2885694847787, 26723.05276668701, -15374.3792026495, -6750.942081325303, -9640.28503182948, 7835.02403915215, -42213.61633701519, -187500.02235174447, -0.12, 0.9460000000000001, 0.254, 192.0, 0.0, 0.0, 0.0, 0.0, 0.0, 0.0, 0.0, 0.0, 0.0, 1.744824324562755E9, 0.0, 2025-04-16 12:25:24.562
0.0, -1990.7581199119236, -4338.183026097182, 21206.463421161585, 7400.327312985339, -7716.246869116649, -6022.319915571203, -32747.51844972592, 22791.336213509585, 2882.0339300672927, 26655.08111179842, -15354.910833228927, -6740.526168409129, -9631.791368936465, 7855.498237073212, -42192.98567688295, -187500.02235174447, -0.12, 0.9460000000000001, 0.254, 192.0, 0.0, 0.0, 0.0, 0.0, 0.0, 0.0, 0.0, 0.0, 0.0, 1.744824324621717E9, 0.0, 2025-04-16 12:25:24.621
2.0, -2017.9601929140322, -4375.286921892992, 21180.021307470957, 7371.918245782644, -7725.276973876593, -6044.045811181762, -32770.31722907034, 22779.065105803624, 2883.732662645896, 26737.38023488286, -15357.816560008117, -6729.193833970289, -9626.628115967289, 7861.60026330951, -42195.55612749531, -187500.02235174447, -0.12, 0.9460000000000001, 0.254, 192.0, 0.0, 0.0, 0.0, 0.0, 0.0, 0.0, 0.0, 0.0, 0.0, 1.744824324621842E9, 0.0, 2025-04-16 12:25:24.621
4.0, -2012.640477733669, -4360.132439152293, 21186.168037196167, 7383.451745921582, -7724.047627931551, -6033.00404942084, -32741.416423489623, 22781.926129093903, 2863.034947280282, 26651.303666985474, -15369.730039802795, -6755.904168594381, -9640.128569618293, 7841.88602469993, -42201.345229309234, -187500.02235174447, -0.12, 0.9460000000000001, 0.254, 192.0, 0.0, 0.0, 0.0, 0.0, 0.0, 0.0, 0.0, 0.0, 0.0, 1.74482432462192E9, 0.0, 2025-04-16 12:25:24.621
6.0, -2025.8503587067555, -4381.925389996218, 21170.208891655075, 7364.586873601303, -7721.320715108003, -6048.091476928173, -32751.228839305502, 22775.198254012856, 2866.633578137586, 26724.14800216532, -15374.334499160588, -6744.124799266434, -9634.42887478219, 7848.993879436717, -42208.900118935126, -187500.02235174447, -0.12, 0.9440000000000001, 0.258, 192.0, 126.0, 32.0, 14.5, 64.0, 4.0, 8.0, 0.0, 0.0, 0.0, 1.744824324622011E9, 0.0, 2025-04-16 12:25:24.622
8.0, -2010.0700271213088, -4355.840904216874, 21188.738487808525, 7390.17962100263, -7725.8804709768865, -6025.203290605938, -32738.10836531024, 22794.644271688972, 2862.1408775020695, 26648.017960550544, -15369.03713572468, -6760.57568318554, -9641.201453352149, 7843.964736934274, -42198.50655776341, -187500.02235174447, -0.12, 0.9440000000000001, 0.258, 192.0, 0.0, 0.0, 0.0, 0.0, 0.0, 0.0, 0.0, 0.0, 0.0, 1.744824324622104E9, 0.0, 2025-04-16 12:25:24.622
10.0, -1993.6638466911133, -4350.454133803146, 21189.65490933119, 7396.885144339221, -7710.636581258367, -6021.783473704276, -32753.48636549549, 22794.688975177884, 2881.0057498223487, 26729.020682456576, -15356.363696618522, -6728.858557803459, -9621.71073218712, 7868.886932001941, -42194.6620577171, -187500.02235174447, -0.12, 0.9440000000000001, 0.258, 192.0, 0.0, 0.0, 0.0, 0.0, 0.0, 0.0, 0.0, 0.0, 0.0, 1.74482432462219E9, 0.0, 2025-04-16 12:25:24.622
12.0, -2012.3052015668395, -4357.785505984486, 21182.792923783414, 7387.475059923538, -7732.384828613381, -6029.38306681908, -32768.79731044737, 22779.489788948275, 2871.416851451022, 26672.291955029006, -15358.330650130589, -6745.532959167119, -9625.018790366506, 7863.097830188016, -42194.2597263169, -187500.02235174447, -0.12, 0.9440000000000001, 0.258, 192.0, 0.0, 0.0, 0.0, 0.0, 0.0, 0.0, 0.0, 0.0, 0.0, 1.744824324622278E9, 0.0, 2025-04-16 12:25:24.622
14.0, -1995.9884281144655, -4357.383174584291, 21182.05531621639, 7385.239885478007, -7723.019447686607, -6035.663907011021, -32769.82549069232, 22781.568501182617, 2866.18654324848, 26724.43857484324, -15365.729077545295, -6734.804121828571, -9626.784578178474, 7863.835437755041, -42210.88942419165, -187500.02235174447, -0.12, 0.9440000000000001, 0.258, 192.0, 0.0, 0.0, 0.0, 0.0, 0.0, 0.0, 0.0, 0.0, 0.0, 1.744824324681903E9, 0.0, 2025-04-16 12:25:24.681
16.0, -2016.0155911464205, -4364.736898510087, 21189.185522697633, 7383.585856388314, -7728.8756047338975, -6030.411247064024, -32748.34546427077, 22784.384820983985, 2874.769613119318, 26679.42216151025, -15349.926394215394, -6744.080095777524, -9620.704903686632, 7861.846132498519, -42190.41522627058, -187500.02235174447, -0.12, 0.9400000000000001, 0.26, 192.0, 126.0, 32.0, 14.5, 48.0, 4.0, 16.0, 0.0, 0.0, 0.0, 1.74482432468203E9, 0.0, 2025-04-16 12:25:24.682
18.0, -2003.0962828512531, -4366.279168877503, 21182.412944127675, 7382.22239997654, -7715.643372016356, -6039.463703568424, -32755.229801563004, 22787.201140785353, 2864.7560316033405, 26708.94881593571, -15361.996336221258, -6741.755514354171, -9629.913822402219, 7855.520588817667, -42203.46864503249, -187500.02235174447, -0.12, 0.9400000000000001, 0.26, 192.0, 0.0, 0.0, 0.0, 0.0, 0.0, 0.0, 0.0, 0.0, 0.0, 1.744824324682126E9, 0.0, 2025-04-16 12:25:24.682
20.0, -2020.0389051483758, -4367.48616307809, 21186.458609874084, 7383.250580221485, -7731.401351857347, -6029.986563919373, -32759.275467309413, 22786.865864618525, 2866.1194880151143, 26685.14420809081, -15354.75437101774, -6748.908072579869, -9626.42695026719, 7854.291242872625, -42193.34330479423, -187500.02235174447, -0.12, 0.9400000000000001, 0.26, 192.0, 0.0, 0.0, 0.0, 0.0, 0.0, 0.0, 0.0, 0.0, 0.0, 1.744824324682221E9, 0.0, 2025-04-16 12:25:24.682
22.0, -2011.8805184221887, -4372.045918946972, 21172.309955633875, 7375.203952217574, -7725.746360510155, -6053.031212452795, -32766.04804587937, 22777.50048369175, 2861.2915112127675, 26701.639795498824, -15360.454065853843, -6733.239499716699, -9627.700999701143, 7858.538074319134, -42205.4132468001, -187500.02235174447, -0.12, 0.9400000000000001, 0.26, 192.0, 0.0, 0.0, 0.0, 0.0, 0.0, 0.0, 0.0, 0.0, 0.0, 1.744824324682298E9, 0.0, 2025-04-16 12:25:24.682
24.0, -2042.0553734368532, -4389.301465666469, 21169.38187711023, 7362.93284451161, -7750.735610811188, -6049.611395551133, -32770.67485698162, 22762.74833235125, 2840.213816191413, 26686.530016247038, -15375.317975916621, -6760.642738418906, -9642.587261508377, 7830.888966427919, -42218.93605219556, -187500.02235174447, -0.12, 0.9400000000000001, 0.26, 192.0, 0.0, 0.0, 0.0, 0.0, 0.0, 0.0, 0.0, 0.0, 0.0, 1.744824324682376E9, 0.0, 2025-04-16 12:25:24.682
26.0, -1995.4296345030828, -4355.684442005688, 21189.23022618654, 7396.616923405758, -7717.9008982063415, -6034.300450599248, -32753.352255028756, 22786.195312284864, 2856.6870518549745, 26689.61455698187, -15355.46962684031, -6728.52328163663, -9625.264659555514, 7859.342737119525, -42204.74269446644, -187500.02235174447, -0.11800000000000001, 0.9380000000000001, 0.258, 192.0, 126.0, 40.0, 14.5, 40.0, 4.0, 8.0, 0.0, 0.0, 0.0, 1.744824324682458E9, 0.0, 2025-04-16 12:25:24.682
28.0, -2025.649193006658, -4376.315102137935, 21187.37503139675, 7377.6849958521125, -7735.536424581579, -6037.161473889527, -32757.95671438655, 22776.159379024433, 2862.967892046916, 26709.261740358084, -15351.312202371622, -6734.178272983822, -9617.910935629718, 7854.3135946170805, -42197.97011589648, -187500.02235174447, -0.11800000000000001, 0.9380000000000001, 0.258, 192.0, 0.0, 0.0, 0.0, 0.0, 0.0, 0.0, 0.0, 0.0, 0.0, 1.744824324682548E9, 0.0, 2025-04-16 12:25:24.682
30.0, -2000.615239216714, -4362.0993926643605, 21191.219531443065, 7392.437147192615, -7720.158424396328, -6043.665831526021, -32757.86730740873, 22786.55294019615, 2854.6753948539967, 26681.120894088854, -15358.777685019695, -6735.653488117873, -9624.370589777302, 7853.911263216885, -42204.31801132179, -187500.02235174447, -0.11800000000000001, 0.9380000000000001, 0.258, 192.0, 0.0, 0.0, 0.0, 0.0, 0.0, 0.0, 0.0, 0.0, 0.0, 1.744824324742187E9, 0.0, 2025-04-16 12:25:24.742
32.0, -2032.287661109884, -4385.836945275896, 21185.117505206767, 7373.8404958058, -7734.597651314456, -6047.376221105603, -32746.892600881172, 22769.722076621303, 2846.0476214942482, 26718.090679417932, -15362.912757743927, -6748.0810580350235, -9630.249098569047, 7845.372896834958, -42207.40255205662, -187500.02235174447, -0.11800000000000001, 0.9380000000000001, 0.258, 192.0, 0.0, 0.0, 0.0, 0.0, 0.0, 0.0, 0.0, 0.0, 0.0, 1.744824324742304E9, 0.0, 2025-04-16 12:25:24.742
34.0, -2002.3810270286833, -4363.5299043095, 21190.168999453665, 7397.801565861889, -7720.493700563157, -6038.48022681239, -32750.066548593826, 22792.833780388093, 2849.5568453737314, 26677.656373698283, -15357.458932096832, -6740.14618875339, -9632.48427301458, 7858.113391174483, -42200.74173220894, -187500.02235174447, -0.11800000000000001, 0.9380000000000001, 0.258, 192.0, 0.0, 0.0, 0.0, 0.0, 0.0, 0.0, 0.0, 0.0, 0.0, 1.744824324742401E9, 0.0, 2025-04-16 12:25:24.742
36.0, -2030.030134919898, -4381.746576040576, 21186.77153429646, 7381.931827298621, -7731.96014546873, -6039.709572757432, -32743.539839212877, 22783.401344227954, 2847.746354072852, 26733.49103134764, -15359.381182119989, -6742.493121921197, -9628.729179946087, 7859.856827241997, -42200.40645604211, -187500.02235174447, -0.116, 0.9440000000000001, 0.256, 192.0, 126.0, 48.0, 14.5, 64.0, 4.0, 0.0, 0.0, 0.0, 0.0, 1.744824324742486E9, 0.0, 2025-04-16 12:25:24.742
38.0, -1998.2683060489067, -4356.377346083802, 21190.213702942576, 7398.181545517629, -7726.685133777277, -6038.189654134471, -32753.776938173407, 22790.598605942563, 2841.7560865588293, 26671.263774784064, -15360.096437942559, -6741.889624820903, -9634.987668393573, 7859.946234219818, -42204.31801132179, -187500.02235174447, -0.116, 0.9440000000000001, 0.256, 192.0, 0.0, 0.0, 0.0, 0.0, 0.0, 0.0, 0.0, 0.0, 0.0, 1.744824324742573E9, 0.0, 2025-04-16 12:25:24.742
40.0, -2027.6384982631803, -4384.451137119668, 21176.221510913554, 7373.236998705506, -7739.693849050266, -6048.940843217474, -32769.892545925686, 22774.84062610157, 2845.1088482271252, 26737.804918027512, -15359.247071653257, -6737.28516546311, -9630.04793286895, 7857.196969651815, -42210.084761391256, -187500.02235174447, -0.116, 0.9440000000000001, 0.256, 192.0, 0.0, 0.0, 0.0, 0.0, 0.0, 0.0, 0.0, 0.0, 0.0, 1.74482432474266E9, 0.0, 2025-04-16 12:25:24.742
42.0, -2007.9466113980548, -4365.67567177721, 21178.00965046998, 7383.965836044054, -7734.642354803366, -6050.326651373703, -32761.756510943953, 22777.79105636967, 2833.1953684324467, 26659.171481033743, -15365.483208356287, -6748.103409779479, -9645.604747009844, 7845.8646352129745, -42215.44918006053, -187500.02235174447, -0.116, 0.9440000000000001, 0.256, 192.0, 0.0, 0.0, 0.0, 0.0, 0.0, 0.0, 0.0, 0.0, 0.0, 1.744824324742751E9, 0.0, 2025-04-16 12:25:24.742
44.0, -2026.0738761513087, -4382.931218496707, 21180.825970271348, 7372.141763227197, -7729.859081489931, -6047.733849016888, -32747.943132870572, 22776.49465519126, 2840.929072013983, 26732.686368547245, -15363.985641477782, -6745.600014400485, -9636.596993994355, 7847.809236980586, -42210.37533406918, -187500.02235174447, -0.116, 0.9440000000000001, 0.256, 192.0, 0.0, 0.0, 0.0, 0.0, 0.0, 0.0, 0.0, 0.0, 0.0, 1.744824324802546E9, 0.0, 2025-04-16 12:25:24.802
46.0, -2016.3061638243396, -4370.391889857279, 21182.72586855005, 7382.356510443272, -7731.0437239460625, -6052.807695008242, -32759.76720568743, 22781.65790816044, 2839.5209121132984, 26647.347408216883, -15366.354926390044, -6760.776848885638, -9642.564909763922, 7840.634327010433, -42213.4151713151, -187500.02235174447, -0.116, 0.9460000000000001, 0.262, 192.0, 126.0, 48.0, 14.5, 72.0, 4.0, 24.0, 0.0, 0.0, 0.0, 1.74482432480265E9, 0.0, 2025-04-16 12:25:24.802
48.0, -2025.9844691734875, -4380.62898881781, 21177.495560347506, 7374.064013250353, -7724.785235498576, -6053.277081641803, -32758.604914975753, 22779.31097499263, 2846.405249405533, 26733.356920880906, -15361.66106005443, -6749.131590024423, -9630.606726480333, 7849.127989903449, -42213.52693003738, -187500.02235174447, -0.116, 0.9460000000000001, 0.262, 192.0, 0.0, 0.0, 0.0, 0.0, 0.0, 0.0, 0.0, 0.0, 0.0, 1.744824324802752E9, 0.0, 2025-04-16 12:25:24.802
50.0, -2012.0816841222866, -4363.775773498509, 21182.70351680559, 7390.023158791442, -7721.164252896817, -6043.487017570379, -32753.48636549549, 22793.16905655492, 2847.3663744171113, 26660.33377174542, -15361.884577498982, -6755.9488720832915, -9646.364706321325, 7844.970565434763, -42212.744618981436, -187500.02235174447, -0.116, 0.9460000000000001, 0.262, 192.0, 0.0, 0.0, 0.0, 0.0, 0.0, 0.0, 0.0, 0.0, 0.0, 1.744824324802845E9, 0.0, 2025-04-16 12:25:24.802
52.0, -2029.8289692198002, -4391.827212789919, 21167.750199764992, 7367.067917235842, -7729.38969485637, -6057.881540999597, -32759.163708587137, 22775.71234413533, 2854.273063453801, 26733.580438325458, -15369.75239154725, -6744.482427177719, -9636.90991841673, 7850.178521892849, -42216.90204345012, -187500.02235174447, -0.116, 0.9460000000000001, 0.262, 192.0, 0.0, 0.0, 0.0, 0.0, 0.0, 0.0, 0.0, 0.0, 0.0, 1.744824324802932E9, 0.0, 2025-04-16 12:25:24.802
54.0, -2024.5763092728032, -4379.757270784053, 21166.967888709056, 7372.655853349669, -7742.309003151537, -6053.075915941706, -32758.716673698033, 22775.868806346512, 2842.51604587031, 26643.681722126214, -15385.756240577251, -6771.997424602202, -9660.133380905794, 7826.5974314925, -42220.50067430743, -187500.02235174447, -0.116, 0.9460000000000001, 0.262, 192.0, 0.0, 0.0, 0.0, 0.0, 0.0, 0.0, 0.0, 0.0, 0.0, 1.744824324803019E9, 0.0, 2025-04-16 12:25:24.803
56.0, -2003.7668351849122, -4371.420070102224, 21183.508179605982, 7384.614036633258, -7714.995171427152, -6038.390819834569, -32746.222048547515, 22792.61026294354, 2875.2613514973345, 26721.7563655086, -15370.579406092098, -6740.459113175763, -9635.5241102605, 7849.865597470474, -42205.033267144354, -187500.02235174447, -0.117, 0.9470000000000001, 0.261, 192.0, 126.0, 40.0, 14.5, 80.0, 4.0, 16.0, 0.0, 0.0, 0.0, 1.744824324803113E9, 0.0, 2025-04-16 12:25:24.803
58.0, -2009.0418468763646, -4369.631930545799, 21178.054353958887, 7386.513934911959, -7735.648183303855, -6036.267404111315, -32745.596199702766, 22789.391611741976, 2878.323540487712, 26651.61659140785, -15365.080876956092, -6751.456171447775, -9636.552290505444, 7848.658603269888, -42196.85252867371, -187500.02235174447, -0.117, 0.9470000000000001, 0.261, 192.0, 0.0, 0.0, 0.0, 0.0, 0.0, 0.0, 0.0, 0.0, 0.0, 1.744824324803205E9, 0.0, 2025-04-16 12:25:24.803
60.0, -1991.7639484124124, -4361.540599052978, 21183.32936565034, 7390.581952402825, -7710.457767302724, -6032.892290698564, -32727.96067332753, 22804.0320043602, 2902.6422384550856, 26724.080946931954, -15355.670792540408, -6727.897432791881, -9621.084883342372, 7868.328138390558, -42188.02358961387, -187500.02235174447, -0.117, 0.9470000000000001, 0.261, 192.0, 0.0, 0.0, 0.0, 0.0, 0.0, 0.0, 0.0, 0.0, 0.0, 1.744824324861879E9, 0.0, 2025-04-16 12:25:24.861
62.0, -1995.6084484587252, -4356.5785117839, 21173.695763790103, 7375.181600473118, -7740.789084528576, -6042.280023369793, -32752.502888739455, 22787.335251252087, 2905.033875111804, 26669.18506254972, -15364.030344966692, -6755.278319749632, -9631.545499747455, 7847.071629413561, -42195.84670017323, -187500.02235174447, -0.117, 0.9470000000000001, 0.261, 192.0, 0.0, 0.0, 0.0, 0.0, 0.0, 0.0, 0.0, 0.0, 0.0, 1.744824324861993E9, 0.0, 2025-04-16 12:25:24.861
64.0, -1995.1390618251637, -4362.747593253564, 21170.14183642171, 7385.150478500185, -7728.741494267166, -6044.381087348591, -32757.3308655418, 22789.190446041877, 2919.182529352013, 26725.24323764363, -15365.147932189457, -6733.820645072537, -9633.020714881506, 7859.923882475363, -42205.39089505564, -187500.02235174447, -0.117, 0.9470000000000001, 0.261, 192.0, 0.0, 0.0, 0.0, 0.0, 0.0, 0.0, 0.0, 0.0, 0.0, 1.744824324862093E9, 0.0, 2025-04-16 12:25:24.862
66.0, -2025.0456959063645, -4376.113936437838, 21174.23220565703, 7379.629597619724, -7746.622889831411, -6040.7601047468315, -32755.09569109627, 22781.41203897143, 2898.842441897684, 26684.71952494616, -15369.931205502893, -6749.735087124716, -9632.707790459132, 7850.737315504231, -42195.66788621758, -187500.02235174447, -0.1185, 0.9485000000000001, 0.2605, 192.0, 126.0, 32.0, 14.5, 88.0, 4.0, 16.0, 0.0, 0.0, 0.0, 1.744824324862172E9, 0.0, 2025-04-16 12:25:24.862
68.0, -1992.1215763236974, -4348.286014590981, 21191.063069231877, 7407.412815977671, -7712.067092903507, -6021.1576248595275, -32733.77212688591, 22809.686995707394, 2918.444921784988, 26723.902132976313, -15358.598871064052, -6718.688514076294, -9619.5202612305, 7873.0443564706275, -42187.554202980304, -187500.02235174447, -0.1185, 0.9485000000000001, 0.2605, 192.0, 0.0, 0.0, 0.0, 0.0, 0.0, 0.0, 0.0, 0.0, 0.0, 1.744824324862258E9, 0.0, 2025-04-16 12:25:24.862
70.0, -2033.807579732845, -4372.537657324989, 21175.23803415752, 7391.520725669948, -7740.990250228674, -6029.3160115857145, -32750.357121271747, 22791.403268742954, 2902.8434041551836, 26711.340452592427, -15363.672717055408, -6724.254098445666, -9624.415293266213, 7872.776135537164, -42182.79328141133, -187500.02235174447, -0.1185, 0.9485000000000001, 0.2605, 192.0, 0.0, 0.0, 0.0, 0.0, 0.0, 0.0, 0.0, 0.0, 0.0, 1.744824324862342E9, 0.0, 2025-04-16 12:25:24.862
72.0, -2011.7464079554568, -4364.468677576623, 21178.18846442562, 7407.122243299752, -7722.7735784975985, -6027.326706329192, -32757.710845197544, 22803.27204504872, 2895.7802529073065, 26716.101374161408, -15376.904949772948, -6719.649639087873, -9639.301555073447, 7872.105583203505, -42195.39966528412, -187500.02235174447, -0.1185, 0.9485000000000001, 0.2605, 192.0, 0.0, 0.0, 0.0, 0.0, 0.0, 0.0, 0.0, 0.0, 0.0, 1.744824324862428E9, 0.0, 2025-04-16 12:25:24.862
74.0, -2044.73758277149, -4382.841811518885, 21175.1486271797, 7392.101871025786, -7736.318735637515, -6026.365581317614, -32735.314397253325, 22797.147667067966, 2891.064034827237, 26716.727223006157, -15373.574539849109, -6729.216185714744, -9635.255889327036, 7867.009385467695, -42186.01193261289, -187500.02235174447, -0.1185, 0.9485000000000001, 0.2605, 192.0, 0.0, 0.0, 0.0, 0.0, 0.0, 0.0, 0.0, 0.0, 0.0, 1.744824324921603E9, 0.0, 2025-04-16 12:25:24.921
76.0, -2027.2138151185293, -4372.828230002908, 21171.773513766948, 7399.902629840688, -7727.758017511132, -6032.28879359827, -32744.23274329099, 22804.009652615747, 2886.6160376806306, 26703.22676935515, -15377.821371295617, -6726.601031613473, -9638.116912617315, 7875.123068704971, -42192.27042106038, -187500.02235174447, -0.11825, 0.94825, 0.25925, 192.0, 126.0, 40.0, 14.5, 80.0, 4.0, 8.0, 0.0, 0.0, 0.0, 1.744824324921729E9, 0.0, 2025-04-16 12:25:24.921
78.0, -2059.7579550454566, -4394.420015146735, 21164.062161929865, 7377.9755685300315, -7744.566529341523, -6035.753313988843, -32737.393109487668, 22789.056335575144, 2876.5577526757424, 26722.873952731366, -15386.560903377642, -6744.3259649665315, -9647.303479588447, 7856.816989996075, -42192.11395884919, -187500.02235174447, -0.11825, 0.94825, 0.25925, 192.0, 0.0, 0.0, 0.0, 0.0, 0.0, 0.0, 0.0, 0.0, 0.0, 1.744824324921828E9, 0.0, 2025-04-16 12:25:24.921
80.0, -2014.2050998455406, -4358.43370657369, 21176.75795278048, 7404.6859031541235, -7712.782348726077, -6020.084741125673, -32739.382414744192, 22810.357548041055, 2880.826935866706, 26690.419219782263, -15382.626996353507, -6735.47467416223, -9647.839921455374, 7863.544865077122, -42193.857394916704, -187500.02235174447, -0.11825, 0.94825, 0.25925, 192.0, 0.0, 0.0, 0.0, 0.0, 0.0, 0.0, 0.0, 0.0, 0.0, 1.744824324921913E9, 0.0, 2025-04-16 12:25:24.921
82.0, -2052.9183212421326, -4393.525945368522, 21162.788112495913, 7379.093155752797, -7733.658878047333, -6038.681392512488, -32751.832336405798, 22791.26915827622, 2890.125261560114, 26735.703854048712, -15373.529836360198, -6728.858557803459, -9631.500796258546, 7869.982167480251, -42183.15090932261, -187500.02235174447, -0.11825, 0.94825, 0.25925, 192.0, 0.0, 0.0, 0.0, 0.0, 0.0, 0.0, 0.0, 0.0, 0.0, 1.744824324922002E9, 0.0, 2025-04-16 12:25:24.922
84.0, -2041.2730623809175, -4391.4472331341785, 21146.784263465914, 7375.338062684305, -7743.940680496774, -6062.82127652422, -32779.99553441948, 22775.734695879783, 2861.5820838906866, 26666.815777637457, -15403.414118696943, -6757.8264186175375, -9660.714526261632, 7841.662507255377, -42215.49388354944, -187500.02235174447, -0.11825, 0.94825, 0.25925, 192.0, 0.0, 0.0, 0.0, 0.0, 0.0, 0.0, 0.0, 0.0, 0.0, 1.744824324922094E9, 0.0, 2025-04-16 12:25:24.922
86.0, -2044.379954860205, -4385.568724342433, 21166.699667775592, 7381.261274964962, -7738.53155833859, -6038.323764601203, -32748.77014741542, 22784.630690172995, 2874.702557885952, 26721.555199808503, -15392.90879880295, -6751.947909825792, -9650.298613345458, 7848.300975358603, -42208.29662183483, -187500.02235174447, -0.119125, 0.947125, 0.255625, 192.0, 126.0, 32.0, 14.5, 72.0, 3.5, 112.0, 0.0, 0.0, 0.0, 1.744824324922189E9, 0.0, 2025-04-16 12:25:24.922
88.0, -2014.9650591570212, -4363.14992465376, 21170.678278288637, 7396.773385616945, -7726.10398842144, -6039.709572757432, -32748.56898171532, 22797.527646723705, 2885.900781858061, 26661.876042112835, -15378.536627118187, -6737.262813718655, -9641.514377774523, 7858.672184785865, -42196.29373506233, -187500.02235174447, -0.119125, 0.947125, 0.255625, 192.0, 0.0, 0.0, 0.0, 0.0, 0.0, 0.0, 0.0, 0.0, 0.0, 1.744824324922273E9, 0.0, 2025-04-16 12:25:24.922
90.0, -2038.613204790736, -4389.05559647746, 21165.783246252926, 7372.722908583035, -7736.832825759987, -6052.070087441217, -32756.01211261894, 22777.008745313735, 2884.3361597461894, 26729.400662112315, -15380.145952718969, -6738.939194552803, -9641.044991140961, 7851.474923071257, -42204.139197366145, -187500.02235174447, -0.119125, 0.947125, 0.255625, 192.0, 0.0, 0.0, 0.0, 0.0, 0.0, 0.0, 0.0, 0.0, 0.0, 1.744824324982923E9, 0.0, 2025-04-16 12:25:24.982
92.0, -2001.3304950392837, -4345.246177345059, 21186.61507208527, 7401.333141485828, -7720.426645329791, -6032.936994187474, -32746.691435181077, 22798.868751391026, 2898.9765523644155, 26664.401789236283, -15360.52112108721, -6725.438740901797, -9631.925479403197, 7867.545827334622, -42185.67665644606, -187500.02235174447, -0.119125, 0.947125, 0.255625, 192.0, 0.0, 0.0, 0.0, 0.0, 0.0, 0.0, 0.0, 0.0, 0.0, 1.744824324983053E9, 0.0, 2025-04-16 12:25:24.983
94.0, -2029.2478238639624, -4376.292750393481, 21177.51791209196, 7377.12620224073, -7725.098159920951, -6045.968061204918, -32755.185098074093, 22784.004841328246, 2896.987247107893, 26743.415205885794, -15369.193597935868, -6727.316287436043, -9631.903127658741, 7862.851960999008, -42196.3607902957, -187500.02235174447, -0.119125, 0.947125, 0.255625, 192.0, 0.0, 0.0, 0.0, 0.0, 0.0, 0.0, 0.0, 0.0, 0.0, 1.74482432498314E9, 0.0, 2025-04-16 12:25:24.983
96.0, -2023.190501116574, -4368.715509023132, 21169.71715327706, 7380.635426120213, -7731.8707384909085, -6054.551131075756, -32760.415406276636, 22781.344983738065, 2889.633523182097, 26661.160786290264, -15372.479304370798, -6738.536863152607, -9644.509511531534, 7855.609995795488, -42197.277211818364, -187500.02235174447, -0.12156249999999999, 0.9465625, 0.2518125, 192.0, 126.0, 16.0, 14.5, 72.0, 3.5, 96.0, 0.0, 0.0, 0.0, 1.744824324983228E9, 0.0, 2025-04-16 12:25:24.983
98.0, -2025.0233441619093, -4367.821439244919, 21178.054353958887, 7379.339024941805, -7726.14869191035, -6045.073991426706, -32749.686568938087, 22782.954309338846, 2893.567430206231, 26750.47835713367, -15371.60758633704, -6723.80706355656, -9636.038200382973, 7861.2426353982255, -42198.752426952415, -187500.02235174447, -0.12156249999999999, 0.9465625, 0.2518125, 192.0, 0.0, 0.0, 0.0, 0.0, 0.0, 0.0, 0.0, 0.0, 0.0, 1.744824324983324E9, 0.0, 2025-04-16 12:25:24.983
100.0, -2027.25851860744, -4360.624177530311, 21169.76185676597, 7378.780231330423, -7743.985383985685, -6050.192540906971, -32763.52229875592, 22783.960137839334, 2883.6209039236196, 26668.738027660613, -15376.837894539583, -6738.3356974525095, -9646.923499932707, 7852.838379483031, -42201.2111188425, -187500.02235174447, -0.12156249999999999, 0.9465625, 0.2518125, 192.0, 0.0, 0.0, 0.0, 0.0, 0.0, 0.0, 0.0, 0.0, 0.0, 1.744824324983409E9, 0.0, 2025-04-16 12:25:24.983
102.0, -2031.348887842761, -4369.34135786788, 21171.61705155576, 7371.784135315912, -7732.094255935462, -6049.164360662027, -32760.23659232099, 22784.764800639725, 2880.4693079554213, 26744.48808961965, -15386.270330699723, -6732.9936305276915, -9649.203377867148, 7854.380649850446, -42213.77279922638, -187500.02235174447, -0.12156249999999999, 0.9465625, 0.2518125, 192.0, 0.0, 0.0, 0.0, 0.0, 0.0, 0.0, 0.0, 0.0, 0.0, 1.744824324983491E9, 0.0, 2025-04-16 12:25:24.983
104.0, -2019.2342423479847, -4349.33654658038, 21185.20691218459, 7393.979417560032, -7728.987363456174, -6033.764008732321, -32750.133603827195, 22798.55582696865, 2899.445938997977, 26673.99068760761, -15361.884577498982, -6726.533976380108, -9635.05472362694, 7866.27177790067, -42190.795205926326, -187500.02235174447, -0.12156249999999999, 0.9465625, 0.2518125, 192.0, 0.0, 0.0, 0.0, 0.0, 0.0, 0.0, 0.0, 0.0, 0.0, 1.744824324983581E9, 0.0, 2025-04-16 12:25:24.983
106.0, -2021.4023615601495, -4360.9818054415955, 21176.57913882484, 7389.732586113523, -7722.974744197696, -6040.603642535644, -32760.929496399105, 22791.738544909782, 2888.672398170519, 26747.61733384339, -15378.536627118187, -6720.700171077272, -9641.514377774523, 7864.483638344245, -42206.95551716752, -187500.02235174447, -0.12278125, 0.94628125, 0.25090625, 192.0, 126.0, 16.0, 14.5, 72.0, 3.5, 104.0, 0.0, 0.0, 0.0, 1.744824325043166E9, 0.0, 2025-04-16 12:25:25.043
108.0, -2027.482036051993, -4360.0430321744725, 21175.796827768903, 7391.163097758663, -7728.00388670014, -6038.10024715665, -32767.523261013423, 22792.07382107661, 2882.3245027452117, 26685.412429024273, -15370.08766771408, -6729.99849677068, -9638.362781806325, 7865.578873822556, -42193.388008283146, -187500.02235174447, -0.12278125, 0.94628125, 0.25090625, 192.0, 0.0, 0.0, 0.0, 0.0, 0.0, 0.0, 0.0, 0.0, 0.0, 1.744824325043319E9, 0.0, 2025-04-16 12:25:25.043
110.0, -2017.5355097693814, -4362.680538020199, 21180.28952840442, 7387.430356434626, -7703.95340966623, -6045.163398404527, -32735.18028678659, 22800.61218745854, 2882.279799256301, 26739.68246456176, -15378.246054440267, -6726.444569402286, -9643.436627797679, 7863.433106354846, -42200.94289790904, -187500.02235174447, -0.12278125, 0.94628125, 0.25090625, 192.0, 0.0, 0.0, 0.0, 0.0, 0.0, 0.0, 0.0, 0.0, 0.0, 1.744824325043398E9, 0.0, 2025-04-16 12:25:25.043
112.0, -2036.7803617454008, -4375.041052703983, 21171.348830622297, 7374.421641161638, -7737.8610060049305, -6051.064258940728, -32741.796403145363, 22786.150608795957, 2871.6627206400303, 26680.360934777374, -15382.738755075785, -6749.355107468976, -9651.237386612582, 7845.082324157039, -42199.44533103053, -187500.02235174447, -0.12278125, 0.94628125, 0.25090625, 192.0, 0.0, 0.0, 0.0, 0.0, 0.0, 0.0, 0.0, 0.0, 0.0, 1.744824325043477E9, 0.0, 2025-04-16 12:25:25.043
114.0, -2017.1555301136411, -4366.659148533243, 21176.04269695791, 7380.881295309222, -7720.359590096426, -6048.203235650449, -32741.48347872299, 22794.577216455607, 2875.8424968531726, 26724.662092287792, -15383.342252176077, -6733.1724444833335, -9643.19075860867, 7856.5040655737, -42202.529871765364, -187500.02235174447, -0.12278125, 0.94628125, 0.25090625, 192.0, 0.0, 0.0, 0.0, 0.0, 0.0, 0.0, 0.0, 0.0, 0.0, 1.744824325043568E9, 0.0, 2025-04-16 12:25:25.043
116.0, -2032.35471634325, -4371.285959635492, 21181.630633071738, 7379.3837284307165, -7734.620003058912, -6035.999183177851, -32745.350330513756, 22794.018422844223, 2866.94650255996, 26683.244309812108, -15386.985586522293, -6751.478523192231, -9650.209206367637, 7844.478827056745, -42198.618316485685, -187500.02235174447, -0.12278125, 0.94628125, 0.25090625, 192.0, 0.0, 0.0, 0.0, 0.0, 0.0, 0.0, 0.0, 0.0, 0.0, 1.744824325043656E9, 0.0, 2025-04-16 12:25:25.043
118.0, -2020.0612568928311, -4374.1916864146815, 21167.213757898066, 7378.288492952406, -7727.24392738866, -6058.86501775563, -32753.396958517667, 22786.195312284864, 2878.010616065337, 26705.886626945336, -15382.247016697767, -6731.361953182453, -9643.011944653028, 7858.001632452207, -42199.26651707489, -187500.02235174447, -0.122, 0.9460000000000001, 0.252, 192.0, 126.0, 24.0, 14.5, 72.0, 3.5, 112.0, 0.0, 0.0, 0.0, 1.744824325043734E9, 0.0, 2025-04-16 12:25:25.043
120.0, -2041.1389519141856, -4380.047843461972, 21172.28760388942, 7371.493562637993, -7746.287613664582, -6047.823255994708, -32751.966446872528, 22780.093286048566, 2861.760897846329, 26676.51643473106, -15397.3344442051, -6758.787543629115, -9660.826284983908, 7829.212585593771, -42213.14695038163, -187500.02235174447, -0.122, 0.9460000000000001, 0.252, 192.0, 0.0, 0.0, 0.0, 0.0, 0.0, 0.0, 0.0, 0.0, 0.0, 1.744824325104081E9, 0.0, 2025-04-16 12:25:25.104
122.0, -2013.9592306565323, -4365.452154332656, 21178.926071992646, 7388.190315746107, -7719.107892406928, -6043.218796636916, -32752.882868395194, 22799.33813802459, 2894.796776151273, 26690.933309904733, -15365.617318823019, -6718.017961742636, -9631.746665447554, 7871.144458191927, -42187.1071680912, -187500.02235174447, -0.122, 0.9460000000000001, 0.252, 192.0, 0.0, 0.0, 0.0, 0.0, 0.0, 0.0, 0.0, 0.0, 0.0, 1.744824325104207E9, 0.0, 2025-04-16 12:25:25.104
124.0, -2053.8794462537107, -4390.955494756162, 21167.370220109253, 7364.07278347883, -7751.540273611578, -6050.326651373703, -32771.09954012627, 22774.03596330118, 2857.6928803554633, 26683.065495856466, -15400.351929706567, -6759.212226773767, -9657.227654126604, 7838.197986864804, -42213.0128399149, -187500.02235174447, -0.122, 0.9460000000000001, 0.252, 192.0, 0.0, 0.0, 0.0, 0.0, 0.0, 0.0, 0.0, 0.0, 0.0, 1.74482432510429E9, 0.0, 2025-04-16 12:25:25.104
126.0, -2025.6268412622026, -4374.839887003885, 21166.766723008957, 7378.310844696862, -7732.72010478021, -6053.634709553088, -32764.930458656607, 22781.568501182617, 2870.0086915503375, 26675.51060623057, -15390.695976101873, -6742.291956221099, -9655.931252948196, 7851.3184608600695, -42208.98952591295, -187500.02235174447, -0.122, 0.9460000000000001, 0.252, 192.0, 0.0, 0.0, 0.0, 0.0, 0.0, 0.0, 0.0, 0.0, 0.0, 1.744824325104385E9, 0.0, 2025-04-16 12:25:25.104
128.0, -2059.6908998120907, -4401.952553028173, 21163.011629940465, 7362.93284451161, -7746.578186342501, -6055.5569595762445, -32753.888696895683, 22767.956288809335, 2862.5432089022647, 26696.543597763015, -15397.759127349751, -6758.832247118026, -9653.874892458307, 7834.465245540768, -42209.48126429096, -187500.02235174447, -0.124, 0.9460000000000001, 0.252, 192.0, 126.0, 16.0, 14.5, 72.0, 3.5, 112.0, 0.0, 0.0, 0.0, 1.744824325104473E9, 0.0, 2025-04-16 12:25:25.104
130.0, -2018.3401725697724, -4363.462849076134, 21177.96494698107, 7394.024121048942, -7719.599630784945, -6041.140084402572, -32735.850839120252, 22791.738544909782, 2870.992168306371, 26662.65835316877, -15391.411231924443, -6747.030526045624, -9653.159636635737, 7848.79271373662, -42204.67563923307, -187500.02235174447, -0.124, 0.9460000000000001, 0.252, 192.0, 0.0, 0.0, 0.0, 0.0, 0.0, 0.0, 0.0, 0.0, 0.0, 1.744824325104573E9, 0.0, 2025-04-16 12:25:25.104
132.0, -2029.3148790973282, -4365.742727010575, 21185.13985695122, 7381.685958109612, -7729.322639623004, -6038.547282045756, -32741.237609533982, 22780.83089361559, 2892.248677283368, 26719.409432340795, -15375.697955572363, -6735.273508462133, -9634.71944746011, 7858.940405719329, -42190.661095459596, -187500.02235174447, -0.124, 0.9460000000000001, 0.252, 192.0, 0.0, 0.0, 0.0, 0.0, 0.0, 0.0, 0.0, 0.0, 0.0, 1.744824325104656E9, 0.0, 2025-04-16 12:25:25.104
134.0, -2028.867844208222, -4379.5337533394995, 21188.42556338615, 7394.180583260129, -7715.509261549624, -6039.106075657139, -32735.895542609163, 22794.577216455607, 2884.7384911463846, 26663.306553757975, -15379.833028296594, -6738.469807919241, -9641.00028765205, 7857.040507440628, -42191.488110004444, -187500.02235174447, -0.124, 0.9460000000000001, 0.252, 192.0, 0.0, 0.0, 0.0, 0.0, 0.0, 0.0, 0.0, 0.0, 0.0, 1.744824325104735E9, 0.0, 2025-04-16 12:25:25.104
136.0, -2050.772553774423, -4397.39279715929, 21183.642290072716, 7374.443992906094, -7726.506319821635, -6042.414133836524, -32747.451394492557, 22781.23322501579, 2877.8094503652396, 26723.835077742944, -15378.246054440267, -6741.196720742789, -9636.306421316436, 7853.665394027877, -42192.44923501602, -187500.02235174447, -0.124, 0.9460000000000001, 0.252, 192.0, 0.0, 0.0, 0.0, 0.0, 0.0, 0.0, 0.0, 0.0, 0.0, 1.744824325162365E9, 0.0, 2025-04-16 12:25:25.162
138.0, -2038.5685013018253, -4388.228581932614, 21175.997993469, 7380.836591820311, -7729.233232645182, -6054.886407242586, -32754.24632480697, 22779.51214069273, 2873.786136363284, 26650.83428035191, -15382.917569031426, -6755.412430216365, -9644.688325487175, 7843.517702045167, -42202.97690665447, -187500.02235174447, -0.116, 0.9480000000000001, 0.258, 192.0, 126.0, 48.0, 14.5, 80.0, 4.0, 8.0, 0.0, 0.0, 0.0, 1.744824325162484E9, 0.0, 2025-04-16 12:25:25.162
140.0, -2057.2322079220066, -4408.009875775561, 21169.493635832507, 7362.642271833691, -7736.34108738197, -6061.636634068088, -32757.844955664274, 22766.45872193083, 2876.5354009312873, 26717.598941039916, -15386.605606866553, -6755.367726727453, -9639.972107407106, 7840.679030499343, -42205.323839822275, -187500.02235174447, -0.116, 0.9480000000000001, 0.258, 192.0, 0.0, 0.0, 0.0, 0.0, 0.0, 0.0, 0.0, 0.0, 0.0, 1.744824325162569E9, 0.0, 2025-04-16 12:25:25.162
142.0, -2031.9523849430545, -4381.277189407014, 21179.01547897047, 7379.69665285309, -7732.764808269121, -6052.226549652404, -32751.76528117243, 22776.74052438027, 2870.0533950392482, 26643.480556426115, -15384.079859743102, -6755.703002894284, -9646.364706321325, 7842.243652611215, -42204.34036306624, -187500.02235174447, -0.116, 0.9480000000000001, 0.258, 192.0, 0.0, 0.0, 0.0, 0.0, 0.0, 0.0, 0.0, 0.0, 0.0, 1.744824325162666E9, 0.0, 2025-04-16 12:25:25.162
144.0, -2052.2701206529287, -4403.450119906678, 21168.688973032116, 7363.156361956163, -7742.979555485196, -6059.982604978395, -32760.52716499891, 22769.2750417322, 2865.605397892642, 26720.974054452665, -15391.031252268704, -6752.9537383262805, -9649.00221216705, 7838.019172909162, -42213.19165387054, -187500.02235174447, -0.116, 0.9480000000000001, 0.258, 192.0, 0.0, 0.0, 0.0, 0.0, 0.0, 0.0, 0.0, 0.0, 0.0, 1.744824325162757E9, 0.0, 2025-04-16 12:25:25.162
146.0, -2031.9747366875097, -4376.426860860212, 21175.930938235633, 7383.921132555143, -7739.157407183338, -6047.845607739164, -32755.14039458518, 22785.658870417938, 2870.925113073005, 26645.60397214937, -15378.80484805165, -6751.299709236588, -9647.012906910528, 7845.663469512877, -42200.294697319834, -187500.02235174447, -0.116, 0.9480000000000001, 0.258, 192.0, 0.0, 0.0, 0.0, 0.0, 0.0, 0.0, 0.0, 0.0, 0.0, 1.744824325162846E9, 0.0, 2025-04-16 12:25:25.162
148.0, -2045.899873483166, -4398.309218681958, 21168.57721430984, 7365.927978268622, -7733.725933280699, -6063.7153463024315, -32760.080130109804, 22774.70651563484, 2879.374072477111, 26729.62417955687, -15379.676566085407, -6739.587395142007, -9637.28989807247, 7852.5031033162, -42209.28009859087, -187500.02235174447, -0.116, 0.9480000000000001, 0.256, 192.0, 126.0, 48.0, 14.5, 80.0, 4.0, 0.0, 0.0, 0.0, 0.0, 1.744824325162932E9, 0.0, 2025-04-16 12:25:25.162
150.0, -2040.7142687695348, -4385.456965620157, 21171.304127133386, 7372.834667305311, -7737.749247282654, -6056.853360754652, -32761.48829001049, 22776.628765657995, 2863.705499613941, 26636.104480755865, -15388.326691189612, -6768.443497233809, -9656.579453537399, 7828.2514605821925, -42212.49874979243, -187500.02235174447, -0.116, 0.9480000000000001, 0.256, 192.0, 0.0, 0.0, 0.0, 0.0, 0.0, 0.0, 0.0, 0.0, 0.0, 1.744824325222572E9, 0.0, 2025-04-16 12:25:25.222
152.0, -2040.6025100472582, -4394.4423668911895, 21165.537377063916, 7366.263254435451, -7730.954316968241, -6060.988433478884, -32776.39690356218, 22773.36541096752, 2868.511124671832, 26722.29280737553, -15387.298510944667, -6748.662203390862, -9648.130494133293, 7844.054143912094, -42218.39961032863, -187500.02235174447, -0.116, 0.9480000000000001, 0.256, 192.0, 0.0, 0.0, 0.0, 0.0, 0.0, 0.0, 0.0, 0.0, 0.0, 1.7448243252227E9, 0.0, 2025-04-16 12:25:25.222
154.0, -2042.1224286702193, -4388.809727288452, 21175.014516712967, 7374.533399883914, -7727.914479722319, -6051.153665918549, -32736.76726064292, 22781.635556415982, 2855.927092543494, 26652.22008850814, -15393.534647647697, -6764.062555320568, -9653.450209313656, 7839.4049810653905, -42208.8107119573, -187500.02235174447, -0.116, 0.9480000000000001, 0.256, 192.0, 0.0, 0.0, 0.0, 0.0, 0.0, 0.0, 0.0, 0.0, 0.0, 1.744824325222786E9, 0.0, 2025-04-16 12:25:25.222
156.0, -2044.581120560303, -4403.807747817963, 21167.213757898066, 7364.922149768133, -7722.572412797501, -6059.736735789387, -32753.016978861928, 22772.896024333957, 2861.179752490491, 26719.8564672299, -15392.104136002557, -6749.444514446797, -9645.33652607638, 7847.518664302667, -42206.88846193415, -187500.02235174447, -0.116, 0.9480000000000001, 0.256, 192.0, 0.0, 0.0, 0.0, 0.0, 0.0, 0.0, 0.0, 0.0, 0.0, 1.744824325222865E9, 0.0, 2025-04-16 12:25:25.222
158.0, -2048.6267863067137, -4392.207192445659, 21176.13210393573, 7368.766649814445, -7733.636526302877, -6050.773686262809, -32744.56801945782, 22778.84158835907, 2863.28081646929, 26652.689475141702, -15386.583255122097, -6764.24136927621, -9654.076058158405, 7839.762608976675, -42204.072142132776, -187500.02235174447, -0.122, 0.9480000000000001, 0.248, 192.0, 126.0, 24.0, 14.5, 80.0, 3.5, 96.0, 0.0, 0.0, 0.0, 1.744824325222948E9, 0.0, 2025-04-16 12:25:25.222
160.0, -2046.190446161085, -4398.175108215226, 21164.86682473026, 7359.937710754599, -7724.0029244426405, -6070.733794061398, -32754.87217365172, 22771.443160944364, 2864.8007350922508, 26709.82053396947, -15386.583255122097, -6749.1986452577885, -9647.012906910528, 7847.36220209148, -42207.38020031217, -187500.02235174447, -0.122, 0.9480000000000001, 0.248, 192.0, 0.0, 0.0, 0.0, 0.0, 0.0, 0.0, 0.0, 0.0, 0.0, 1.744824325223037E9, 0.0, 2025-04-16 12:25:25.223
162.0, -2059.0426992228868, -4397.9068872817625, 21172.71228703407, 7363.5363416119035, -7734.48589259218, -6059.200293922459, -32753.24049630648, 22771.376105711, 2852.4625721529214, 26654.544669931493, -15392.484115658299, -6771.43863099082, -9654.500741303056, 7832.45358853979, -42208.72130497948, -187500.02235174447, -0.122, 0.9480000000000001, 0.248, 192.0, 0.0, 0.0, 0.0, 0.0, 0.0, 0.0, 0.0, 0.0, 0.0, 1.744824325223122E9, 0.0, 2025-04-16 12:25:25.223
164.0, -2055.354661387761, -4407.92046879774, 21158.65303977168, 7363.290472422895, -7725.276973876593, -6068.230398682404, -32765.131624356705, 22772.516044678217, 2860.732717601385, 26697.080039629942, -15390.226589468311, -6749.869197591448, -9645.492988287568, 7848.055106169594, -42202.70868572101, -187500.02235174447, -0.122, 0.9480000000000001, 0.248, 192.0, 0.0, 0.0, 0.0, 0.0, 0.0, 0.0, 0.0, 0.0, 0.0, 1.744824325223206E9, 0.0, 2025-04-16 12:25:25.223
166.0, -2068.4974871274817, -4408.568669386944, 21170.834740499824, 7367.090268980297, -7742.91250025183, -6051.421886852013, -32756.079167852306, 22773.387762711976, 2834.089438210659, 26656.869251354845, -15408.979703066314, -6786.280189309143, -9665.251930386059, 7817.008533121173, -42217.08085740577, -187500.02235174447, -0.122, 0.9480000000000001, 0.248, 192.0, 0.0, 0.0, 0.0, 0.0, 0.0, 0.0, 0.0, 0.0, 0.0, 1.744824325282941E9, 0.0, 2025-04-16 12:25:25.282
168.0, -2045.2963763828727, -4395.001160502572, 21166.006763697478, 7377.237960963007, -7723.95822095373, -6055.266386898325, -32769.22199359202, 22780.85324536005, 2860.665662368019, 26689.323984303952, -15382.80581030915, -6746.851712089981, -9637.28989807247, 7854.358298105991, -42197.34426705173, -187500.02235174447, -0.12, 0.9460000000000001, 0.248, 192.0, 126.0, 32.0, 14.5, 72.0, 3.5, 96.0, 0.0, 0.0, 0.0, 1.74482432528306E9, 0.0, 2025-04-16 12:25:25.283
170.0, -2068.74335631649, -4408.322800197935, 21167.884310231722, 7367.514952124948, -7744.745343297165, -6049.72315427341, -32757.01794111943, 22770.392628954964, 2845.175903460491, 26673.364838762864, -15393.3334819476, -6773.047956591601, -9653.539616291479, 7835.672239741354, -42207.581366012266, -187500.02235174447, -0.12, 0.9460000000000001, 0.248, 192.0, 0.0, 0.0, 0.0, 0.0, 0.0, 0.0, 0.0, 0.0, 0.0, 1.744824325283155E9, 0.0, 2025-04-16 12:25:25.283
172.0, -2044.2681961379287, -4395.761119814053, 21172.935804478624, 7381.395385431694, -7721.43247383028, -6050.706631029443, -32748.97131311552, 22776.539358680173, 2849.959176773927, 26675.33179227493, -15391.612397624542, -6758.876950606937, -9652.489084302078, 7846.199911379804, -42202.663982232094, -187500.02235174447, -0.12, 0.9460000000000001, 0.248, 192.0, 0.0, 0.0, 0.0, 0.0, 0.0, 0.0, 0.0, 0.0, 0.0, 1.744824325283246E9, 0.0, 2025-04-16 12:25:25.283
174.0, -2069.257446438962, -4413.597811889388, 21174.589833568316, 7367.380841658216, -7739.224462416704, -6047.19740714996, -32754.380435273702, 22772.15841676693, 2846.2711389388014, 26685.546539491006, -15389.667795856929, -6768.689366422816, -9649.873930200807, 7841.394286321913, -42197.09839786273, -187500.02235174447, -0.12, 0.9460000000000001, 0.248, 192.0, 0.0, 0.0, 0.0, 0.0, 0.0, 0.0, 0.0, 0.0, 0.0, 1.744824325283336E9, 0.0, 2025-04-16 12:25:25.283
176.0, -2038.032059434898, -4393.5035936240665, 21172.1981969116, 7381.931827298621, -7729.702619278743, -6048.180883905993, -32771.077188381816, 22779.534492437186, 2844.6394615935637, 26663.686533413715, -15390.360699935043, -6759.86042736297, -9656.065363414928, 7840.880196199441, -42207.53666252335, -187500.02235174447, -0.12, 0.9460000000000001, 0.248, 192.0, 0.0, 0.0, 0.0, 0.0, 0.0, 0.0, 0.0, 0.0, 0.0, 1.744824325283422E9, 0.0, 2025-04-16 12:25:25.283
178.0, -2052.3595276307497, -4396.67754133672, 21186.212740685074, 7382.468269165549, -7737.481026349191, -6033.5404912877675, -32735.4261559756, 22780.540320937675, 2847.5675401172093, 26704.880798444847, -15381.218836452823, -6755.725354638738, -9651.125627890306, 7851.810199238086, -42196.53960425134, -187500.02235174447, -0.11800000000000001, 0.9460000000000001, 0.25, 192.0, 126.0, 40.0, 14.5, 72.0, 3.5, 104.0, 0.0, 0.0, 0.0, 1.744824325283498E9, 0.0, 2025-04-16 12:25:25.283
180.0, -2028.1749401301076, -4380.047843461972, 21183.351717394795, 7393.5323826709255, -7724.494662820657, -6041.564767547223, -32748.39016775968, 22789.570425697617, 2861.962063546427, 26671.956678862178, -15366.42198162341, -6738.3356974525095, -9637.6251742393, 7866.65175755641, -42185.92252563507, -187500.02235174447, -0.11800000000000001, 0.9460000000000001, 0.25, 192.0, 0.0, 0.0, 0.0, 0.0, 0.0, 0.0, 0.0, 0.0, 0.0, 1.744824325343195E9, 0.0, 2025-04-16 12:25:25.343
182.0, -2075.247713952984, -4417.084684024416, 21166.945536964602, 7354.640347318691, -7746.53348285359, -6059.3120526447365, -32761.376531288213, 22766.07874227509, 2837.3304411566787, 26711.183990381243, -15384.549246376664, -6762.944968097802, -9652.489084302078, 7844.054143912094, -42204.45212178852, -187500.02235174447, -0.11800000000000001, 0.9460000000000001, 0.25, 192.0, 0.0, 0.0, 0.0, 0.0, 0.0, 0.0, 0.0, 0.0, 0.0, 1.744824325343312E9, 0.0, 2025-04-16 12:25:25.343
184.0, -2039.9096059691437, -4386.976884243118, 21177.473208603053, 7374.466344650548, -7734.0388577030735, -6051.19836940746, -32760.01307487644, 22781.255576760243, 2830.759028286818, 26650.767225118547, -15385.80094406616, -6766.141267554912, -9659.90986346124, 7842.936556689329, -42209.12363637968, -187500.02235174447, -0.11800000000000001, 0.9460000000000001, 0.25, 192.0, 0.0, 0.0, 0.0, 0.0, 0.0, 0.0, 0.0, 0.0, 0.0, 1.744824325343394E9, 0.0, 2025-04-16 12:25:25.343
186.0, -2059.1768096896185, -4398.689198337698, 21185.162208695678, 7368.766649814445, -7735.536424581579, -6046.012764693829, -32747.76431891493, 22776.427599957897, 2840.549092358243, 26717.9565689512, -15379.989490507782, -6758.944005840302, -9647.526997033001, 7850.044411426117, -42207.20138635652, -187500.02235174447, -0.11800000000000001, 0.9460000000000001, 0.25, 192.0, 0.0, 0.0, 0.0, 0.0, 0.0, 0.0, 0.0, 0.0, 0.0, 1.744824325343484E9, 0.0, 2025-04-16 12:25:25.343
188.0, -2047.3974403616717, -4392.028378490017, 21180.267176659963, 7377.819106318844, -7725.1205116654055, -6051.779514763298, -32752.592295717277, 22787.312899507633, 2847.031098250282, 26652.26479199705, -15365.103228700547, -6750.405639458375, -9642.408447552734, 7859.141571419427, -42190.95166813752, -187500.02235174447, -0.11800000000000001, 0.9470000000000001, 0.249, 192.0, 126.0, 40.0, 14.5, 80.0, 3.5, 96.0, 0.0, 0.0, 0.0, 1.744824325343577E9, 0.0, 2025-04-16 12:25:25.343
190.0, -2073.973664519032, -4421.77855036003, 21168.688973032116, 7353.299242651373, -7738.889186249875, -6060.831971267698, -32769.110234869746, 22768.716248120814, 2823.4500078499327, 26711.921597948265, -15396.395670937976, -6776.3113112820765, -9656.132418648294, 7831.02307689465, -42219.651308018125, -187500.02235174447, -0.11800000000000001, 0.9470000000000001, 0.249, 192.0, 0.0, 0.0, 0.0, 0.0, 0.0, 0.0, 0.0, 0.0, 0.0, 1.744824325343669E9, 0.0, 2025-04-16 12:25:25.343
192.0, -2053.9912049759873, -4403.092491995393, 21174.72394403505, 7371.538266126903, -7731.379000112892, -6058.038003210784, -32762.360008044245, 22780.31680349312, 2825.0369817062597, 26631.991759776087, -15389.466630156832, -6777.29478803811, -9654.612500025332, 7837.438027553324, -42210.37533406918, -187500.02235174447, -0.11800000000000001, 0.9470000000000001, 0.249, 192.0, 0.0, 0.0, 0.0, 0.0, 0.0, 0.0, 0.0, 0.0, 0.0, 1.744824325343756E9, 0.0, 2025-04-16 12:25:25.343
194.0, -2062.484867869004, -4413.642515378298, 21177.786133025424, 7363.31282416735, -7732.876566991397, -6058.641500311077, -32756.213278319035, 22776.405248213443, 2827.6968392964413, 26713.888551460335, -15391.612397624542, -6767.907055366881, -9651.349145334858, 7839.986126421229, -42208.14015962365, -187500.02235174447, -0.11800000000000001, 0.9470000000000001, 0.249, 192.0, 0.0, 0.0, 0.0, 0.0, 0.0, 0.0, 0.0, 0.0, 0.0, 1.744824325343845E9, 0.0, 2025-04-16 12:25:25.343
196.0, -2066.776402804423, -4406.422901919234, 21170.365353866262, 7362.686975322602, -7746.064096220029, -6066.241093425881, -32756.928534141607, 22775.734695879783, 2826.6910107959525, 26634.85278306637, -15388.438449911888, -6775.81957290406, -9654.232520369593, 7834.822873452053, -42207.3131450788, -187500.02235174447, -0.11800000000000001, 0.9470000000000001, 0.249, 192.0, 0.0, 0.0, 0.0, 0.0, 0.0, 0.0, 0.0, 0.0, 0.0, 1.744824325403425E9, 0.0, 2025-04-16 12:25:25.403
198.0, -2058.126277700219, -4407.115805997349, 21185.475133118052, 7364.229245690018, -7732.295421635559, -6056.24986365436, -32742.28814152338, 22778.394553469963, 2824.478188094877, 26714.223827627164, -15392.774688336218, -6764.57664544304, -9650.276261601002, 7837.281565342137, -42211.98465966996, -187500.02235174447, -0.119, 0.9465000000000001, 0.2465, 192.0, 126.0, 32.0, 14.5, 72.0, 3.5, 80.0, 0.0, 0.0, 0.0, 1.744824325435167E9, 0.0, 2025-04-16 12:25:25.435
200.0, -2062.3060539133617, -4406.311143196957, 21182.457647616586, 7369.168981214641, -7739.8503112614535, -6058.395631122069, -32753.888696895683, 22777.54518718066, 2829.5520340862317, 26638.205544734665, -15380.391821907977, -6769.605787945484, -9644.19658710916, 7844.232957867737, -42196.673714718076, -187500.02235174447, -0.119, 0.9465000000000001, 0.2465, 192.0, 0.0, 0.0, 0.0, 0.0, 0.0, 0.0, 0.0, 0.0, 0.0, 1.744824325435254E9, 0.0, 2025-04-16 12:25:25.435
202.0, -2063.7142138140457, -4415.073027023438, 21177.56261558087, 7360.451800877071, -7736.00581121514, -6064.341195147181, -32761.44358652158, 22768.604489398538, 2820.4995775818325, 26710.982824681145, -15393.512295903241, -6767.795296644605, -9647.281127843991, 7842.556577033589, -42216.94674693904, -187500.02235174447, -0.119, 0.9465000000000001, 0.2465, 192.0, 0.0, 0.0, 0.0, 0.0, 0.0, 0.0, 0.0, 0.0, 0.0, 1.74482432543534E9, 0.0, 2025-04-16 12:25:25.435
204.0, -2058.9085887561546, -4398.577439615422, 21185.58689184033, 7374.198123717085, -7741.213767673227, -6050.661927540533, -32760.504813254454, 22777.0758005471, 2822.019496204793, 26646.9897803056, -15381.934092275393, -6773.2044188027885, -9649.851578456351, 7845.305841601592, -42205.815578200294, -187500.02235174447, -0.119, 0.9465000000000001, 0.2465, 192.0, 0.0, 0.0, 0.0, 0.0, 0.0, 0.0, 0.0, 0.0, 0.0, 1.744824325435423E9, 0.0, 2025-04-16 12:25:25.435
206.0, -2043.2623676374399, -4395.3811401583125, 21189.274929675452, 7378.154382485674, -7718.951430195741, -6053.5005990863565, -32749.932438127096, 22779.109809292535, 2834.447066121944, 26716.548409050516, -15376.882598028495, -6745.600014400485, -9642.251985341547, 7860.437972597835, -42202.529871765364, -187500.02235174447, -0.119, 0.9465000000000001, 0.2465, 192.0, 0.0, 0.0, 0.0, 0.0, 0.0, 0.0, 0.0, 0.0, 0.0, 1.744824325435511E9, 0.0, 2025-04-16 12:25:25.435
208.0, -2060.02617597892, -4398.890364037796, 21183.776400539446, 7369.995995759487, -7744.924157252808, -6059.826142767209, -32766.472729024023, 22766.704591119837, 2830.9601939869162, 26655.975181576632, -15372.635766581985, -6760.24040701871, -9642.05081964145, 7846.289318357625, -42200.80878744231, -187500.02235174447, -0.1225, 0.94425, 0.24825, 192.0, 126.0, 8.0, 14.5, 56.0, 3.5, 104.0, 0.0, 0.0, 0.0, 1.744824325435598E9, 0.0, 2025-04-16 12:25:25.435
210.0, -2042.6812222816018, -4395.336436669402, 21186.19038894062, 7373.326405683328, -7722.259488375126, -6063.156552691049, -32759.990723131985, 22770.660849888427, 2833.217720176902, 26710.04405141402, -15374.602720094052, -6745.2647382336545, -9640.732066718587, 7849.977356192751, -42209.12363637968, -187500.02235174447, -0.1225, 0.94425, 0.24825, 192.0, 0.0, 0.0, 0.0, 0.0, 0.0, 0.0, 0.0, 0.0, 0.0, 1.744824325462364E9, 0.0, 2025-04-16 12:25:25.462
212.0, -2065.480001626015, -4406.288791452503, 21184.223435428554, 7365.927978268622, -7740.1408839393725, -6056.361622376636, -32761.06360686584, 22769.78913185467, 2824.634650306064, 26663.37360899134, -15378.89425502947, -6764.844866376504, -9646.834092954885, 7838.354449075991, -42204.273307832875, -187500.02235174447, -0.1225, 0.94425, 0.24825, 192.0, 0.0, 0.0, 0.0, 0.0, 0.0, 0.0, 0.0, 0.0, 0.0, 1.744824325462488E9, 0.0, 2025-04-16 12:25:25.462
214.0, -2045.3410798717834, -4397.549259370478, 21180.513045848973, 7376.723870840535, -7717.2526976171375, -6055.154628176049, -32755.788595174385, 22783.021364572214, 2830.535510842265, 26699.650490242304, -15376.301452672657, -6745.152979511378, -9646.118837132315, 7851.921957960362, -42203.40158979912, -187500.02235174447, -0.1225, 0.94425, 0.24825, 192.0, 0.0, 0.0, 0.0, 0.0, 0.0, 0.0, 0.0, 0.0, 0.0, 1.744824325462574E9, 0.0, 2025-04-16 12:25:25.462
216.0, -2076.275894197928, -4418.090512524905, 21172.108789933776, 7360.049469476876, -7742.264299662626, -6062.798924779764, -32760.10248185426, 22766.369314953008, 2811.916507710994, 26665.161748547765, -15390.33834819059, -6772.310349024577, -9656.355936092847, 7833.593527507011, -42210.62120325818, -187500.02235174447, -0.1225, 0.94425, 0.24825, 192.0, 0.0, 0.0, 0.0, 0.0, 0.0, 0.0, 0.0, 0.0, 0.0, 1.74482432546266E9, 0.0, 2025-04-16 12:25:25.462
218.0, -2046.6374810501911, -4402.533698384011, 21172.488769589516, 7375.6286353622245, -7722.415950586314, -6061.994261979373, -32755.118042840728, 22773.41011445643, 2812.475301322377, 26673.744818418603, -15390.114830746035, -6758.362860484464, -9654.411334325236, 7847.384553835936, -42209.63772650215, -187500.02235174447, -0.12125, 0.9461250000000001, 0.251125, 192.0, 126.0, 32.0, 14.5, 80.0, 3.5, 120.0, 0.0, 0.0, 0.0, 1.744824325462752E9, 0.0, 2025-04-16 12:25:25.462
220.0, -2072.900780785177, -4413.530756656022, 21171.460589344573, 7363.022251489431, -7748.075753221006, -6060.586102078689, -32771.32305757082, 22758.322686949097, 2807.647324520031, 26672.113141073365, -15389.399574923465, -6765.604825687984, -9661.563892550934, 7840.924899688352, -42207.916642179094, -187500.02235174447, -0.12125, 0.9461250000000001, 0.251125, 192.0, 0.0, 0.0, 0.0, 0.0, 0.0, 0.0, 0.0, 0.0, 0.0, 1.744824325462851E9, 0.0, 2025-04-16 12:25:25.462
222.0, -2034.4781320665043, -4383.825288274919, 21182.211778427576, 7381.8424203208, -7728.741494267166, -6053.76882001982, -32764.19285108958, 22769.900890576948, 2814.1069786676144, 26675.33179227493, -15383.4316591539, -6744.705944622272, -9654.76896223652, 7860.817952253575, -42208.58719451275, -187500.02235174447, -0.12125, 0.9461250000000001, 0.251125, 192.0, 0.0, 0.0, 0.0, 0.0, 0.0, 0.0, 0.0, 0.0, 0.0, 1.744824325462927E9, 0.0, 2025-04-16 12:25:25.462
224.0, -2069.257446438962, -4404.098320495882, 21179.1495894372, 7368.207856203063, -7745.728820053198, -6051.332479874191, -32761.71180745504, 22757.60743112653, 2817.3032781247234, 26702.980900166145, -15379.52010387422, -6751.3667644699535, -9648.354011577847, 7859.320385375069, -42200.27234557538, -187500.02235174447, -0.12125, 0.9461250000000001, 0.251125, 192.0, 0.0, 0.0, 0.0, 0.0, 0.0, 0.0, 0.0, 0.0, 0.0, 1.74482432546301E9, 0.0, 2025-04-16 12:25:25.463
226.0, -2049.0067659624538, -4400.879669294318, 21172.75699052298, 7374.60045511728, -7733.301250136048, -6064.318843402725, -32768.37262730272, 22764.871748074504, 2805.5909640301425, 26672.582527706927, -15385.867999299528, -6753.870159848948, -9652.891415702274, 7860.1250481754605, -42207.134331123154, -187500.02235174447, -0.12125, 0.9461250000000001, 0.251125, 192.0, 0.0, 0.0, 0.0, 0.0, 0.0, 0.0, 0.0, 0.0, 0.0, 1.744824325522666E9, 0.0, 2025-04-16 12:25:25.522
228.0, -2079.31573144385, -4424.237242250114, 21172.57817656734, 7360.854132277266, -7743.113665951928, -6060.921378245518, -32759.47663300951, 22758.143872993456, 2800.226545360869, 26698.823475697456, -15392.99820578077, -6766.141267554912, -9652.332622090891, 7841.640155510921, -42211.98465966996, -187500.02235174447, -0.11862500000000001, 0.9470625000000001, 0.2515625, 192.0, 126.0, 48.0, 14.5, 80.0, 3.5, 112.0, 0.0, 0.0, 0.0, 1.744824325522779E9, 0.0, 2025-04-16 12:25:25.522
230.0, -2049.7667252739343, -4401.058483249961, 21180.24482491551, 7381.574199387336, -7729.948488467752, -6053.567654319722, -32765.86923192373, 22777.724001136306, 2802.148795384025, 26649.716693129147, -15387.834952811594, -6757.491142450708, -9655.372459336813, 7847.496312558212, -42206.32966832277, -187500.02235174447, -0.11862500000000001, 0.9470625000000001, 0.2515625, 192.0, 0.0, 0.0, 0.0, 0.0, 0.0, 0.0, 0.0, 0.0, 0.0, 1.744824325522873E9, 0.0, 2025-04-16 12:25:25.522
232.0, -2076.2088389645623, -4420.3256869704355, 21181.362412138275, 7367.291434680395, -7743.225424674204, -6053.746468275365, -32755.162746329635, 22766.302259719643, 2803.22167911788, 26702.66797574377, -15384.504542887753, -6757.245273261699, -9643.794255708965, 7851.094943415516, -42202.73103746546, -187500.02235174447, -0.11862500000000001, 0.9470625000000001, 0.2515625, 192.0, 0.0, 0.0, 0.0, 0.0, 0.0, 0.0, 0.0, 0.0, 0.0, 1.744824325522964E9, 0.0, 2025-04-16 12:25:25.522
234.0, -2057.12044919973, -4405.752349585575, 21178.18846442562, 7372.789963816401, -7740.453808361746, -6062.620110824122, -32752.078205594804, 22771.42080919991, 2804.741597740841, 26644.933419815712, -15380.145952718969, -6753.490180193207, -9649.71746798962, 7855.498237073212, -42198.35009555222, -187500.02235174447, -0.11862500000000001, 0.9470625000000001, 0.2515625, 192.0, 0.0, 0.0, 0.0, 0.0, 0.0, 0.0, 0.0, 0.0, 0.0, 1.744824325523059E9, 0.0, 2025-04-16 12:25:25.523
