%OpenBCI Raw EXG Data
%Number of channels = 8
%Sample Rate = 250 Hz
%Board = OpenBCI_GUI$BoardCytonSerial
Sample Index, EXG Channel 0, EXG Channel 1, EXG Channel 2, EXG Channel 3, EXG Channel 4, EXG Channel 5, EXG Channel 6, EXG Channel 7, Accel Channel 0, Accel Channel 1, Accel Channel 2, Not Used, Digital Channel 0 (D11), Digital Channel 1 (D12), Digital Channel 2 (D13), Digital Channel 3 (D17), Not Used, Digital Channel 4 (D18), Analog Channel 0, Analog Channel 1, Analog Channel 2, Timestamp, Marker Channel, Timestamp (Formatted)
57.0, -28878.185615323262, 7186.175249359042, -46427.925995341066, -28520.848276716268, -187500.02235174447, -31174.581488917054, -35138.66336806576, -61355.13619841769, 0.0, 0.0, 0.0, 192.0, 0.0, 0.0, 0.0, 0.0, 0.0, 0.0, 0.0, 0.0, 0.0, 1.741024371059234E9, 0.0, 2025-03-03 11:52:51.059
58.0, -28855.90092610132, 7268.630834654669, -46414.44789343452, -28531.264189632442, -187500.02235174447, -31180.83997736454, -35103.92875718221, -61359.628899053205, 0.0, 0.0, 0.0, 192.0, 0.0, 0.0, 0.0, 0.0, 0.0, 0.0, 0.0, 0.0, 0.0, 1.741024371059271E9, 0.0, 2025-03-03 11:52:51.059
59.0, -28921.793868755565, 7163.152952570075, -46430.27292850887, -28573.8442628198, -187500.02235174447, -31198.475503739777, -35127.37573711583, -61376.079782972316, 0.0, 0.0, 0.0, 192.0, 0.0, 0.0, 0.0, 0.0, 0.0, 0.0, 0.0, 0.0, 0.0, 1.741024371059296E9, 0.0, 2025-03-03 11:52:51.059
60.0, -28929.616979314924, 7091.694425546459, -46423.47799819446, -28553.906506765667, -187500.02235174447, -31191.88173912546, -35153.169650217256, -61368.457838113056, 0.0, 0.0, 0.0, 192.0, 0.0, 0.0, 0.0, 0.0, 0.0, 0.0, 0.0, 0.0, 0.0, 1.741024371059324E9, 0.0, 2025-03-03 11:52:51.059
61.0, -28875.592812966446, 7184.521220269349, -46403.36142818468, -28517.674329003614, -187500.02235174447, -31184.460959966298, -35128.135696427315, -61362.489922343484, 0.034, 0.912, -0.392, 192.0, 1.0, 16.0, 28.0, 128.0, 243.0, 192.0, 0.0, 0.0, 0.0, 1.741024371059347E9, 0.0, 2025-03-03 11:52:51.059
62.0, -28869.7143041747, 7289.663826187114, -46390.84445128971, -28500.619947984214, -187500.02235174447, -31177.35310522951, -35110.3884113298, -61348.40832333665, 0.034, 0.912, -0.392, 192.0, 0.0, 0.0, 0.0, 0.0, 0.0, 0.0, 0.0, 0.0, 0.0, 1.741024371059374E9, 0.0, 2025-03-03 11:52:51.059
63.0, -28976.421532204335, 7178.553304499782, -46410.40222768811, -28538.72967228051, -187500.02235174447, -31192.328774014568, -35147.849935036895, -61357.34902111877, 0.034, 0.912, -0.392, 192.0, 0.0, 0.0, 0.0, 0.0, 0.0, 0.0, 0.0, 0.0, 0.0, 1.741024371059397E9, 0.0, 2025-03-03 11:52:51.059
64.0, -28928.72290953671, 7115.700199091459, -46385.837660531724, -28519.238951115483, -187500.02235174447, -31183.92451809937, -35151.18034496073, -61354.733867017494, 0.034, 0.912, -0.392, 192.0, 0.0, 0.0, 0.0, 0.0, 0.0, 0.0, 0.0, 0.0, 0.0, 1.741024371059421E9, 0.0, 2025-03-03 11:52:51.059
65.0, -28832.90098105681, 7164.203484559475, -46392.09614897921, -28507.437230043084, -187500.02235174447, -31194.251024037723, -35141.904371011784, -61367.541416590386, 0.034, 0.912, -0.392, 192.0, 0.0, 0.0, 0.0, 0.0, 0.0, 0.0, 0.0, 0.0, 0.0, 1.741024371059444E9, 0.0, 2025-03-03 11:52:51.059
66.0, -28899.263310344617, 7280.67842491608, -46420.08053303725, -28516.713203992036, -187500.02235174447, -31191.658221680907, -35118.345632355886, -61366.80380902336, 0.034, 0.912, -0.392, 192.0, 0.0, 0.0, 0.0, 0.0, 0.0, 0.0, 0.0, 0.0, 0.0, 1.741024371059467E9, 0.0, 2025-03-03 11:52:51.059
67.0, -28967.458482677757, 7211.075092682254, -46415.6548876351, -28541.255419403962, -187500.02235174447, -31169.97702955926, -35127.75571677157, -61352.56574780533, 0.034, 0.912, -0.392, 192.0, 0.0, 0.0, 0.0, 0.0, 0.0, 0.0, 0.0, 0.0, 0.0, 1.74102437105949E9, 0.0, 2025-03-03 11:52:51.059
68.0, -28875.90573738882, 7132.419303944029, -46400.23218396094, -28525.385680840696, -187500.02235174447, -31176.74960812922, -35131.71197554016, -61358.35484961925, 0.034, 0.912, -0.392, 192.0, 0.0, 0.0, 0.0, 0.0, 0.0, 0.0, 0.0, 0.0, 0.0, 1.741024371059513E9, 0.0, 2025-03-03 11:52:51.059
69.0, -28911.333252350483, 7141.963498826444, -46426.67429765157, -28542.663579304648, -187500.02235174447, -31196.977936861273, -35142.91019951227, -61373.50933235995, 0.034, 0.912, -0.392, 192.0, 0.0, 0.0, 0.0, 0.0, 0.0, 0.0, 0.0, 0.0, 0.0, 1.741024371059561E9, 0.0, 2025-03-03 11:52:51.059
70.0, -28865.825100639475, 7292.34603552175, -46399.91925953857, -28516.042651658376, -187500.02235174447, -31186.98670708975, -35096.66444023424, -61358.39955310817, 0.034, 0.912, -0.392, 192.0, 0.0, 0.0, 0.0, 0.0, 0.0, 0.0, 0.0, 0.0, 0.0, 1.741024371059592E9, 0.0, 2025-03-03 11:52:51.059
71.0, -28841.75227186111, 7261.701793873524, -46397.70643683749, -28530.72774776551, -187500.02235174447, -31178.873023852473, -35094.51867276653, -61357.72900077451, 0.038, 0.912, -0.384, 192.0, 1.0, 48.0, 28.0, 128.0, 244.0, 0.0, 0.0, 0.0, 0.0, 1.741024371059622E9, 0.0, 2025-03-03 11:52:51.059
72.0, -28903.24192085766, 7168.293853794797, -46419.47703593696, -28541.545992081883, -187500.02235174447, -31209.383155033967, -35105.068696149436, -61365.2838904004, 0.038, 0.912, -0.384, 192.0, 0.0, 0.0, 0.0, 0.0, 0.0, 0.0, 0.0, 0.0, 0.0, 1.741024371059648E9, 0.0, 2025-03-03 11:52:51.059
73.0, -28935.942522995774, 7182.8001359462905, -46417.308916724796, -28530.057195431855, -187500.02235174447, -31195.010983349202, -35090.27184132002, -61363.49575084398, 0.038, 0.912, -0.384, 192.0, 0.0, 0.0, 0.0, 0.0, 0.0, 0.0, 0.0, 0.0, 0.0, 1.741024371059679E9, 0.0, 2025-03-03 11:52:51.059
74.0, -28871.614202453402, 7298.5598204803255, -46422.89685283862, -28536.002759456966, -187500.02235174447, -31196.866178138996, -35069.73058816559, -61362.42286711012, 0.038, 0.912, -0.384, 192.0, 0.0, 0.0, 0.0, 0.0, 0.0, 0.0, 0.0, 0.0, 0.0, 1.741024371059703E9, 0.0, 2025-03-03 11:52:51.059
0.0, 0.0, 0.0, 0.0, 0.0, 0.0, 0.0, 0.0, 0.0, 0.04, 0.866, -0.444, 192.0, 1.0, 64.0, 27.0, 16.0, 242.0, 32.0, 0.0, 0.0, 0.0, 1.741024371149034E9, 0.0, 2025-03-03 11:52:51.149
1.0, -28927.04652870256, 3337.204854155166, -47309.79172108075, -30704.904282677686, -187500.02235174447, -30995.65577455232, -70026.3837011318, -60377.202675009095, 0.04, 0.866, -0.444, 192.0, 0.0, 0.0, 0.0, 0.0, 0.0, 0.0, 0.0, 0.0, 0.0, 1.741024371212121E9, 0.0, 2025-03-03 11:52:51.212
2.0, -28905.991185425664, 3327.5265488060177, -47305.09785474514, -30704.524303021946, -187500.02235174447, -30990.17959716077, -70022.67331155221, -60371.681794128635, 0.04, 0.866, -0.444, 192.0, 0.0, 0.0, 0.0, 0.0, 0.0, 0.0, 0.0, 0.0, 0.0, 1.741024371212159E9, 0.0, 2025-03-03 11:52:51.212
3.0, -28851.341170232437, 3433.317355312986, -47313.59151763815, -30700.679802975632, -187500.02235174447, -30999.097943198438, -70006.31183461093, -60386.16572453568, 0.04, 0.866, -0.444, 192.0, 0.0, 0.0, 0.0, 0.0, 0.0, 0.0, 0.0, 0.0, 0.0, 1.741024371212183E9, 0.0, 2025-03-03 11:52:51.212
4.0, -28903.644252257855, 3414.67600043726, -47322.062828786715, -30723.478582320047, -187500.02235174447, -31001.713097299707, -70021.51102084054, -60391.753660649505, 0.04, 0.866, -0.444, 192.0, 0.0, 0.0, 0.0, 0.0, 0.0, 0.0, 0.0, 0.0, 0.0, 1.741024371212206E9, 0.0, 2025-03-03 11:52:51.212
5.0, -28934.266142161625, 3339.3282698784196, -47317.77129385129, -30725.870218976765, -187500.02235174447, -30995.588719318956, -70012.23504689158, -60376.12979127524, 0.04, 0.866, -0.444, 192.0, 0.0, 0.0, 0.0, 0.0, 0.0, 0.0, 0.0, 0.0, 0.0, 1.74102437121223E9, 0.0, 2025-03-03 11:52:51.212
6.0, -28911.847342472953, 3346.927862993224, -47319.73824736336, -30731.905189979698, -187500.02235174447, -30999.94730948774, -70004.99308168807, -60369.24545398301, 0.04, 0.866, -0.444, 192.0, 0.0, 0.0, 0.0, 0.0, 0.0, 0.0, 0.0, 0.0, 0.0, 1.741024371212252E9, 0.0, 2025-03-03 11:52:51.212
7.0, -28862.71820816019, 3439.8887681828464, -47315.98315429487, -30729.737070767533, -187500.02235174447, -30990.201948905225, -69991.8726076928, -60348.57009036185, 0.04, 0.866, -0.444, 192.0, 0.0, 0.0, 0.0, 0.0, 0.0, 0.0, 0.0, 0.0, 0.0, 1.741024371212275E9, 0.0, 2025-03-03 11:52:51.212
8.0, -28893.496560275147, 3466.1073644289213, -47322.57691890919, -30737.94016098263, -187500.02235174447, -30996.6168995639, -69991.6267385038, -60343.20567169257, 0.03, 0.866, -0.47600000000000003, 192.0, 0.0, 240.0, 27.0, 16.0, 241.0, 32.0, 0.0, 0.0, 0.0, 1.741024371212298E9, 0.0, 2025-03-03 11:52:51.212
9.0, -28952.080482492507, 3386.4010437012967, -47322.688677631464, -30755.240411191036, -187500.02235174447, -31000.55080658803, -70008.54700905645, -60351.52052062995, 0.03, 0.866, -0.47600000000000003, 192.0, 0.0, 0.0, 0.0, 0.0, 0.0, 0.0, 0.0, 0.0, 0.0, 1.741024371212358E9, 0.0, 2025-03-03 11:52:51.212
10.0, -28943.363302154936, 3347.5313600935174, -47309.679962358474, -30747.618466331776, -187500.02235174447, -30988.03382969306, -70004.34488109886, -60337.12599720073, 0.03, 0.866, -0.47600000000000003, 192.0, 0.0, 0.0, 0.0, 0.0, 0.0, 0.0, 0.0, 0.0, 0.0, 1.741024371212396E9, 0.0, 2025-03-03 11:52:51.212
11.0, -28873.17882456527, 3440.358154816408, -47309.054113513725, -30730.27351263446, -187500.02235174447, -30980.881271467362, -69977.50043600803, -60335.65078206668, 0.03, 0.866, -0.47600000000000003, 192.0, 0.0, 0.0, 0.0, 0.0, 0.0, 0.0, 0.0, 0.0, 0.0, 1.741024371212426E9, 0.0, 2025-03-03 11:52:51.212
12.0, -28890.210853840217, 3477.8196785235023, -47310.4175699255, -30738.476602849558, -187500.02235174447, -30975.762721987096, -69972.53834873895, -60346.62548859424, 0.03, 0.866, -0.47600000000000003, 192.0, 0.0, 0.0, 0.0, 0.0, 0.0, 0.0, 0.0, 0.0, 0.0, 1.741024371212449E9, 0.0, 2025-03-03 11:52:51.212
13.0, -28954.62858136041, 3386.8927820793133, -47303.22030821089, -30748.98192274355, -187500.02235174447, -30969.772454473074, -69971.264299305, -60357.197863721594, 0.03, 0.866, -0.47600000000000003, 192.0, 0.0, 0.0, 0.0, 0.0, 0.0, 0.0, 0.0, 0.0, 0.0, 1.74102437121248E9, 0.0, 2025-03-03 11:52:51.212
14.0, -28943.229191688206, 3355.1980084416878, -47297.654723841515, -30737.44842260461, -187500.02235174447, -30967.69374223873, -69958.03206658746, -60365.95974754808, 0.03, 0.866, -0.47600000000000003, 192.0, 0.0, 0.0, 0.0, 0.0, 0.0, 0.0, 0.0, 0.0, 0.0, 1.741024371212503E9, 0.0, 2025-03-03 11:52:51.212
15.0, -28884.511159004112, 3436.223082092176, -47297.20768895241, -30729.290035878425, -187500.02235174447, -30966.151471871315, -69949.91838335019, -60384.08701230133, 0.03, 0.866, -0.47600000000000003, 192.0, 0.0, 0.0, 0.0, 0.0, 0.0, 0.0, 0.0, 0.0, 0.0, 1.741024371212526E9, 0.0, 2025-03-03 11:52:51.212
16.0, -28872.485920487157, 3502.4289491687955, -47294.860755784604, -30722.740974753022, -187500.02235174447, -30950.348788541414, -69939.70363613412, -60381.248340755505, 0.03, 0.866, -0.47600000000000003, 192.0, 0.0, 0.0, 0.0, 0.0, 0.0, 0.0, 0.0, 0.0, 0.0, 1.741024371271951E9, 0.0, 2025-03-03 11:52:51.271
17.0, -28933.707348550244, 3422.253241807609, -47297.63237209706, -30737.761347026986, -187500.02235174447, -30947.711282695687, -69943.32461873587, -60374.94514881911, 0.03, 0.866, -0.47600000000000003, 192.0, 0.0, 0.0, 0.0, 0.0, 0.0, 0.0, 0.0, 0.0, 0.0, 1.741024371271989E9, 0.0, 2025-03-03 11:52:51.271
18.0, -28935.607246828946, 3369.391366170808, -47299.37580816458, -30742.745786040523, -187500.02235174447, -30949.946457141217, -69935.79208085443, -60367.278500470944, 0.026000000000000002, 0.868, -0.494, 192.0, 0.0, 208.0, 27.0, 32.0, 240.0, 144.0, 0.0, 0.0, 0.0, 1.741024371272014E9, 0.0, 2025-03-03 11:52:51.272
19.0, -28876.8668624004, 3446.929567686268, -47305.32137218969, -30734.81091675889, -187500.02235174447, -30959.22243109017, -69918.17890622365, -60358.33780268882, 0.026000000000000002, 0.868, -0.494, 192.0, 0.0, 0.0, 0.0, 0.0, 0.0, 0.0, 0.0, 0.0, 0.0, 1.74102437127204E9, 0.0, 2025-03-03 11:52:51.272
20.0, -28861.980600593164, 3538.0129263416443, -47317.25720372882, -30747.7078733096, -187500.02235174447, -30957.344884555925, -69925.62203712726, -60352.43694215261, 0.026000000000000002, 0.868, -0.494, 192.0, 0.0, 0.0, 0.0, 0.0, 0.0, 0.0, 0.0, 0.0, 0.0, 1.741024371272063E9, 0.0, 2025-03-03 11:52:51.272
21.0, -28920.743336766165, 3488.190887950765, -47326.44377069995, -30762.840004305843, -187500.02235174447, -30952.829832175954, -69929.15361275121, -60341.88691876971, 0.026000000000000002, 0.868, -0.494, 192.0, 0.0, 0.0, 0.0, 0.0, 0.0, 0.0, 0.0, 0.0, 0.0, 1.741024371272086E9, 0.0, 2025-03-03 11:52:51.272
22.0, -28943.54211611058, 3430.970422145179, -47334.62450917059, -30772.13832999925, -187500.02235174447, -30961.50230902461, -69932.48402267504, -60345.23968043801, 0.026000000000000002, 0.868, -0.494, 192.0, 0.0, 0.0, 0.0, 0.0, 0.0, 0.0, 0.0, 0.0, 0.0, 1.741024371272109E9, 0.0, 2025-03-03 11:52:51.272
23.0, -28901.923167934798, 3480.390129135863, -47342.89465461906, -30773.770007344487, -187500.02235174447, -30966.486748038144, -69926.69492086112, -60359.90242480069, 0.026000000000000002, 0.868, -0.494, 192.0, 0.0, 0.0, 0.0, 0.0, 0.0, 0.0, 0.0, 0.0, 0.0, 1.741024371272133E9, 0.0, 2025-03-03 11:52:51.272
24.0, -28878.163263578805, 3571.629950002426, -47348.840218644174, -30778.37446670228, -187500.02235174447, -30972.588774274445, -69938.09431053333, -60364.50688415848, 0.026000000000000002, 0.868, -0.494, 192.0, 0.0, 0.0, 0.0, 0.0, 0.0, 0.0, 0.0, 0.0, 0.0, 1.741024371272156E9, 0.0, 2025-03-03 11:52:51.272
25.0, -28939.16117419734, 3503.0324462690887, -47345.822733142704, -30789.215062763105, -187500.02235174447, -30972.342905085436, -69954.67930491916, -60362.718744602054, 0.026000000000000002, 0.868, -0.494, 192.0, 0.0, 0.0, 0.0, 0.0, 0.0, 0.0, 0.0, 0.0, 0.0, 1.741024371272216E9, 0.0, 2025-03-03 11:52:51.272
26.0, -28944.4808893777, 3447.6224717643827, -47354.159933824536, -30791.740809886553, -187500.02235174447, -30979.093131910937, -69943.5034326915, -60379.929587832645, 0.026000000000000002, 0.868, -0.494, 192.0, 0.0, 0.0, 0.0, 0.0, 0.0, 0.0, 0.0, 0.0, 0.0, 1.741024371272246E9, 0.0, 2025-03-03 11:52:51.272
27.0, -28905.588854025467, 3484.994588493656, -47350.96363436743, -30786.152873772728, -187500.02235174447, -30983.719943013188, -69946.8114908709, -60379.61666341027, 0.026000000000000002, 0.868, -0.494, 192.0, 0.0, 0.0, 0.0, 0.0, 0.0, 0.0, 0.0, 0.0, 0.0, 1.74102437127227E9, 0.0, 2025-03-03 11:52:51.272
28.0, -28869.96017336371, 3575.7426709822025, -47343.83342788618, -30783.537719671458, -187500.02235174447, -30967.22435560517, -69975.64524121824, -60353.97921252003, 0.022, 0.878, -0.498, 192.0, 0.0, 176.0, 27.0, 112.0, 240.0, 112.0, 0.0, 0.0, 0.0, 1.741024371272299E9, 0.0, 2025-03-03 11:52:51.272
29.0, -28921.078612932997, 3543.623214199926, -47347.722631421406, -30804.70482167063, -187500.02235174447, -30971.493538796134, -70034.31857041342, -60359.14246548921, 0.022, 0.878, -0.498, 192.0, 0.0, 0.0, 0.0, 0.0, 0.0, 0.0, 0.0, 0.0, 0.0, 1.741024371272329E9, 0.0, 2025-03-03 11:52:51.272
30.0, -28947.833651046, 3477.529105845583, -47352.818829157215, -30816.104211342838, -187500.02235174447, -30988.32440237098, -70053.1387392448, -60361.08706725682, 0.022, 0.878, -0.498, 192.0, 0.0, 0.0, 0.0, 0.0, 0.0, 0.0, 0.0, 0.0, 0.0, 1.741024371272353E9, 0.0, 2025-03-03 11:52:51.272
31.0, -28925.414851357324, 3481.8876960143684, -47356.05983210324, -30825.156667847237, -187500.02235174447, -31000.215530421203, -70034.02799773551, -60361.37763993474, 0.022, 0.878, -0.498, 192.0, 0.0, 0.0, 0.0, 0.0, 0.0, 0.0, 0.0, 0.0, 0.0, 1.741024371332976E9, 0.0, 2025-03-03 11:52:51.332
32.0, -28872.172996064783, 3572.345205824996, -47352.77412566831, -30827.10126961485, -187500.02235174447, -30992.168902417292, -70008.16702940072, -60352.81692180836, 0.022, 0.878, -0.498, 192.0, 0.0, 0.0, 0.0, 0.0, 0.0, 0.0, 0.0, 0.0, 0.0, 1.741024371333015E9, 0.0, 2025-03-03 11:52:51.333
33.0, -28883.974717137186, 3610.052598721099, -47357.55739898174, -30838.455955798145, -187500.02235174447, -31005.199969434736, -69995.33712808337, -60359.38833467822, 0.022, 0.878, -0.498, 192.0, 0.0, 0.0, 0.0, 0.0, 0.0, 0.0, 0.0, 0.0, 0.0, 1.74102437133304E9, 0.0, 2025-03-03 11:52:51.333
34.0, -28950.471156891723, 3502.8536323134463, -47345.50980872033, -30853.87865947231, -187500.02235174447, -31001.13195194387, -70016.16895391571, -60345.66436358266, 0.022, 0.878, -0.498, 192.0, 0.0, 0.0, 0.0, 0.0, 0.0, 0.0, 0.0, 0.0, 0.0, 1.741024371333063E9, 0.0, 2025-03-03 11:52:51.333
35.0, -28922.73264202269, 3485.799251294047, -47343.29698601925, -30833.87384818481, -187500.02235174447, -31007.770420047098, -70008.7258230121, -60332.745055287494, 0.022, 0.878, -0.498, 192.0, 0.0, 0.0, 0.0, 0.0, 0.0, 0.0, 0.0, 0.0, 0.0, 1.741024371333086E9, 0.0, 2025-03-03 11:52:51.333
36.0, -28858.247859269126, 3578.1343076389203, -47335.049192315244, -30831.124583616805, -187500.02235174447, -31006.3175566575, -69996.41001181722, -60335.65078206668, 0.022, 0.878, -0.498, 192.0, 0.0, 0.0, 0.0, 0.0, 0.0, 0.0, 0.0, 0.0, 0.0, 1.741024371333109E9, 0.0, 2025-03-03 11:52:51.333
37.0, -28855.09626330093, 3626.436427406839, -47325.169721266, -30837.092499386374, -187500.02235174447, -30998.09211469795, -69997.75111648453, -60338.958840246065, 0.022, 0.878, -0.498, 192.0, 0.0, 0.0, 0.0, 0.0, 0.0, 0.0, 0.0, 0.0, 0.0, 1.741024371333132E9, 0.0, 2025-03-03 11:52:51.333
38.0, -28915.378918096892, 3531.575623938516, -47316.40783743952, -30848.335426847392, -187500.02235174447, -30995.02992570757, -70019.83464000639, -60353.1969014641, 0.02, 0.876, -0.492, 192.0, 0.0, 160.0, 27.0, 96.0, 240.0, 160.0, 0.0, 0.0, 0.0, 1.741024371333155E9, 0.0, 2025-03-03 11:52:51.333
39.0, -28900.559711523023, 3507.6369056268823, -47318.68771537396, -30845.876734957306, -187500.02235174447, -31001.6683938108, -70021.39926211826, -60376.55447441989, 0.02, 0.876, -0.492, 192.0, 0.0, 0.0, 0.0, 0.0, 0.0, 0.0, 0.0, 0.0, 0.0, 1.74102437133318E9, 0.0, 2025-03-03 11:52:51.333
40.0, -28848.52485043107, 3578.6483977613925, -47312.5186339043, -30842.121641888818, -187500.02235174447, -30997.689783297752, -70022.20392491865, -60397.60981769679, 0.02, 0.876, -0.492, 192.0, 0.0, 0.0, 0.0, 0.0, 0.0, 0.0, 0.0, 0.0, 0.0, 1.741024371333239E9, 0.0, 2025-03-03 11:52:51.333
41.0, -28834.33149270195, 3652.2079887638083, -47317.45836942892, -30843.753319234052, -187500.02235174447, -31001.713097299707, -70021.48866909608, -60418.598105740326, 0.02, 0.876, -0.492, 192.0, 0.0, 0.0, 0.0, 0.0, 0.0, 0.0, 0.0, 0.0, 0.0, 1.741024371333269E9, 0.0, 2025-03-03 11:52:51.333
42.0, -28888.981507895176, 3591.0312641896326, -47320.54291016375, -30855.219764139627, -187500.02235174447, -31002.89773975584, -70027.54599184346, -60436.59126002685, 0.02, 0.876, -0.492, 192.0, 0.0, 0.0, 0.0, 0.0, 0.0, 0.0, 0.0, 0.0, 0.0, 1.7410243713333E9, 0.0, 2025-03-03 11:52:51.333
43.0, -28899.263310344617, 3545.120781078432, -47318.55360490723, -30856.62792404031, -187500.02235174447, -30989.33023087147, -70019.81228826194, -60444.794350241944, 0.02, 0.876, -0.492, 192.0, 0.0, 0.0, 0.0, 0.0, 0.0, 0.0, 0.0, 0.0, 0.0, 1.741024371333327E9, 0.0, 2025-03-03 11:52:51.333
44.0, -28856.258554012606, 3597.9379532263224, -47319.38061945208, -30848.5812960364, -187500.02235174447, -30988.525568071076, -70005.41776483272, -60444.61553628631, 0.02, 0.876, -0.492, 192.0, 0.0, 0.0, 0.0, 0.0, 0.0, 0.0, 0.0, 0.0, 0.0, 1.741024371333357E9, 0.0, 2025-03-03 11:52:51.333
45.0, -28840.254704982606, 3678.985378621266, -47313.949145549435, -30849.6318280258, -187500.02235174447, -30980.143663900337, -70002.17676188669, -60448.05770493242, 0.02, 0.876, -0.492, 192.0, 0.0, 0.0, 0.0, 0.0, 0.0, 0.0, 0.0, 0.0, 0.0, 1.741024371333381E9, 0.0, 2025-03-03 11:52:51.333
46.0, -28888.15449335033, 3616.1099214684873, -47302.88503204406, -30847.463708813633, -187500.02235174447, -30962.038750891537, -69990.5762065144, -60448.19181539915, 0.02, 0.876, -0.492, 192.0, 0.0, 0.0, 0.0, 0.0, 0.0, 0.0, 0.0, 0.0, 0.0, 1.741024371392418E9, 0.0, 2025-03-03 11:52:51.392
47.0, -28891.23903408516, 3575.18387737082, -47313.524462404785, -30845.16147913474, -187500.02235174447, -30971.024152162572, -69978.97565114209, -60443.94498395264, 0.02, 0.876, -0.492, 192.0, 0.0, 0.0, 0.0, 0.0, 0.0, 0.0, 0.0, 0.0, 0.0, 1.741024371392456E9, 0.0, 2025-03-03 11:52:51.392
48.0, -28862.85231862692, 3610.3208196545625, -47314.53029090528, -30843.216877367126, -187500.02235174447, -30965.927954426763, -69963.77646491247, -60426.220050599586, 0.024, 0.87, -0.486, 192.0, 0.0, 192.0, 27.0, 48.0, 240.0, 208.0, 0.0, 0.0, 0.0, 1.741024371392481E9, 0.0, 2025-03-03 11:52:51.392
49.0, -28834.33149270195, 3687.7472624477464, -47303.667343099994, -30836.377243563802, -187500.02235174447, -30967.380817816356, -69966.86100564731, -60407.22106781258, 0.024, 0.87, -0.486, 192.0, 0.0, 0.0, 0.0, 0.0, 0.0, 0.0, 0.0, 0.0, 0.0, 1.741024371392507E9, 0.0, 2025-03-03 11:52:51.392
50.0, -28882.90183340333, 3645.6812793828585, -47312.58568913766, -30847.933095447195, -187500.02235174447, -30981.440065078747, -69980.09323836485, -60410.73029169206, 0.024, 0.87, -0.486, 192.0, 0.0, 0.0, 0.0, 0.0, 0.0, 0.0, 0.0, 0.0, 0.0, 1.74102437139253E9, 0.0, 2025-03-03 11:52:51.392
51.0, -28913.836647729477, 3561.3257958085296, -47312.36217169311, -30856.940848462684, -187500.02235174447, -30986.916242470295, -70005.39541308826, -60405.81290791189, 0.024, 0.87, -0.486, 192.0, 0.0, 0.0, 0.0, 0.0, 0.0, 0.0, 0.0, 0.0, 0.0, 1.741024371392553E9, 0.0, 2025-03-03 11:52:51.392
52.0, -28870.250746041627, 3575.407394815373, -47301.298058187735, -30842.278104100005, -187500.02235174447, -30990.738390772152, -70010.04457593497, -60399.26384678648, 0.024, 0.87, -0.486, 192.0, 0.0, 0.0, 0.0, 0.0, 0.0, 0.0, 0.0, 0.0, 0.0, 1.741024371392576E9, 0.0, 2025-03-03 11:52:51.392
53.0, -28807.397640633302, 3685.959122891322, -47298.772311064284, -30834.43264179619, -187500.02235174447, -30994.761704774108, -69992.4761047931, -60401.96840786558, 0.024, 0.87, -0.486, 192.0, 0.0, 0.0, 0.0, 0.0, 0.0, 0.0, 0.0, 0.0, 0.0, 1.741024371392599E9, 0.0, 2025-03-03 11:52:51.392
54.0, -28865.892155872843, 3651.1351050299536, -47295.39719765153, -30851.308208859948, -187500.02235174447, -30986.491559325645, -70001.12622989729, -60404.71767243358, 0.024, 0.87, -0.486, 192.0, 0.0, 0.0, 0.0, 0.0, 0.0, 0.0, 0.0, 0.0, 0.0, 1.741024371392623E9, 0.0, 2025-03-03 11:52:51.392
55.0, -28908.33811859347, 3552.8991881488787, -47287.43997662544, -30851.889354215786, -187500.02235174447, -30975.06981790898, -69995.80651471693, -60405.27646604496, 0.024, 0.87, -0.486, 192.0, 0.0, 0.0, 0.0, 0.0, 0.0, 0.0, 0.0, 0.0, 0.0, 1.741024371392674E9, 0.0, 2025-03-03 11:52:51.392
56.0, -28877.582118222967, 3555.1120108499545, -47287.28351441426, -30837.33836857538, -187500.02235174447, -30977.41675107679, -69981.769619199, -60410.976160881066, 0.024, 0.87, -0.486, 192.0, 0.0, 0.0, 0.0, 0.0, 0.0, 0.0, 0.0, 0.0, 0.0, 1.741024371392704E9, 0.0, 2025-03-03 11:52:51.392
57.0, -28819.13230647234, 3657.1030207995204, -47289.205764437414, -30833.404461551247, -187500.02235174447, -30986.46920758119, -69972.35953478332, -60423.001399398025, 0.024, 0.87, -0.486, 192.0, 0.0, 0.0, 0.0, 0.0, 0.0, 0.0, 0.0, 0.0, 0.0, 1.741024371392734E9, 0.0, 2025-03-03 11:52:51.392
58.0, -28850.111824287396, 3662.0204045796877, -47289.965723748894, -30847.39665358027, -187500.02235174447, -30992.772399517587, -69987.08933437936, -60424.43191104316, 0.018000000000000002, 0.862, -0.486, 192.0, 0.0, 144.0, 26.0, 240.0, 240.0, 208.0, 0.0, 0.0, 0.0, 1.741024371392757E9, 0.0, 2025-03-03 11:52:51.392
59.0, -28894.077705630985, 3574.558028526071, -47295.441901140446, -30846.144955890773, -187500.02235174447, -30983.965812202194, -69997.95228218463, -60441.665106018205, 0.018000000000000002, 0.862, -0.486, 192.0, 0.0, 0.0, 0.0, 0.0, 0.0, 0.0, 0.0, 0.0, 0.0, 1.741024371392788E9, 0.0, 2025-03-03 11:52:51.392
60.0, -28879.57142347949, 3565.6396824884037, -47302.08036924367, -30844.736795990088, -187500.02235174447, -30988.23499539316, -69992.83373270437, -60458.11598993731, 0.018000000000000002, 0.862, -0.486, 192.0, 0.0, 0.0, 0.0, 0.0, 0.0, 0.0, 0.0, 0.0, 0.0, 1.741024371392812E9, 0.0, 2025-03-03 11:52:51.392
61.0, -28836.410204936292, 3644.854264838012, -47296.98417150786, -30841.652255255256, -187500.02235174447, -30991.94538497274, -69983.6695174777, -60457.62425155929, 0.018000000000000002, 0.862, -0.486, 192.0, 0.0, 0.0, 0.0, 0.0, 0.0, 0.0, 0.0, 0.0, 0.0, 1.74102437145214E9, 0.0, 2025-03-03 11:52:51.452
62.0, -28856.57147843498, 3672.9951111072437, -47301.87920354357, -30854.213935639138, -187500.02235174447, -30992.437123350755, -69987.33520356836, -60445.75547525352, 0.018000000000000002, 0.862, -0.486, 192.0, 0.0, 0.0, 0.0, 0.0, 0.0, 0.0, 0.0, 0.0, 0.0, 1.741024371452178E9, 0.0, 2025-03-03 11:52:51.452
63.0, -28917.39057509787, 3573.1275168809316, -47302.192127965944, -30865.16629042224, -187500.02235174447, -30994.247614651635, -69984.0718488779, -60435.093693148345, 0.018000000000000002, 0.862, -0.486, 192.0, 0.0, 0.0, 0.0, 0.0, 0.0, 0.0, 0.0, 0.0, 0.0, 1.741024371452203E9, 0.0, 2025-03-03 11:52:51.452
64.0, -28904.068935402505, 3536.9176908633344, -47302.46034889941, -30862.372322365325, -187500.02235174447, -31001.109600199416, -69982.68604072166, -60439.005248428024, 0.018000000000000002, 0.862, -0.486, 192.0, 0.0, 0.0, 0.0, 0.0, 0.0, 0.0, 0.0, 0.0, 0.0, 1.741024371452227E9, 0.0, 2025-03-03 11:52:51.452
65.0, -28845.46266144069, 3603.280020151141, -47306.2154419679, -30856.851441484865, -187500.02235174447, -31006.13874270186, -69986.70935472361, -60453.332716623874, 0.018000000000000002, 0.862, -0.486, 192.0, 0.0, 0.0, 0.0, 0.0, 0.0, 0.0, 0.0, 0.0, 0.0, 1.74102437145225E9, 0.0, 2025-03-03 11:52:51.452
66.0, -28829.79408857752, 3681.466422255805, -47310.19405248095, -30853.230458883103, -187500.02235174447, -31009.446800881244, -69981.18847384315, -60429.841033201345, 0.018000000000000002, 0.862, -0.486, 192.0, 0.0, 0.0, 0.0, 0.0, 0.0, 0.0, 0.0, 0.0, 0.0, 1.741024371452274E9, 0.0, 2025-03-03 11:52:51.452
67.0, -28896.983432410176, 3610.767854543669, -47311.62456412608, -30872.16238643675, -187500.02235174447, -31011.45845788222, -69982.12724711029, -60412.227858570564, 0.018000000000000002, 0.862, -0.486, 192.0, 0.0, 0.0, 0.0, 0.0, 0.0, 0.0, 0.0, 0.0, 0.0, 1.741024371452297E9, 0.0, 2025-03-03 11:52:51.452
68.0, -28910.01449942762, 3541.1645223098426, -47301.74509307684, -30876.49862486108, -187500.02235174447, -31003.076553711482, -69991.44792454815, -60416.47469001707, 0.022, 0.862, -0.47800000000000004, 192.0, 0.0, 176.0, 26.0, 240.0, 241.0, 16.0, 0.0, 0.0, 0.0, 1.741024371452324E9, 0.0, 2025-03-03 11:52:51.452
69.0, -28852.391702221837, 3591.120671167454, -47296.7159505744, -30863.579316565912, -187500.02235174447, -31018.990995763663, -69984.74240121155, -60425.77301571048, 0.022, 0.862, -0.47800000000000004, 192.0, 0.0, 0.0, 0.0, 0.0, 0.0, 0.0, 0.0, 0.0, 0.0, 1.74102437145235E9, 0.0, 2025-03-03 11:52:51.452
70.0, -28827.76007983209, 3678.404233265428, -47303.13090123307, -30876.67743881672, -187500.02235174447, -31034.883086071386, -69981.09906686534, -60433.4620158031, 0.022, 0.862, -0.47800000000000004, 192.0, 0.0, 0.0, 0.0, 0.0, 0.0, 0.0, 0.0, 0.0, 0.0, 1.741024371452402E9, 0.0, 2025-03-03 11:52:51.452
71.0, -28887.57334799449, 3611.1031307104986, -47293.09496797263, -30874.509319604556, -187500.02235174447, -31023.28253069908, -69974.75117144003, -60417.2122975841, 0.022, 0.862, -0.47800000000000004, 192.0, 0.0, 0.0, 0.0, 0.0, 0.0, 0.0, 0.0, 0.0, 0.0, 1.741024371452442E9, 0.0, 2025-03-03 11:52:51.452
72.0, -28896.491694032156, 3550.060516603055, -47291.35153190512, -30866.17211892273, -187500.02235174447, -31015.101792228437, -69964.58112771287, -60421.54853600843, 0.022, 0.862, -0.47800000000000004, 192.0, 0.0, 0.0, 0.0, 0.0, 0.0, 0.0, 0.0, 0.0, 0.0, 1.741024371452471E9, 0.0, 2025-03-03 11:52:51.452
73.0, -28853.017551066587, 3572.0099296581666, -47284.48954635734, -30859.176022908217, -187500.02235174447, -31022.097888242948, -69950.09719730583, -60417.547573750926, 0.022, 0.862, -0.47800000000000004, 192.0, 0.0, 0.0, 0.0, 0.0, 0.0, 0.0, 0.0, 0.0, 0.0, 1.741024371452495E9, 0.0, 2025-03-03 11:52:51.452
74.0, -28798.859274251376, 3674.112698330009, -47284.82482252417, -30845.787327979488, -187500.02235174447, -31028.021100523605, -69935.32269422087, -60408.24924805752, 0.022, 0.862, -0.47800000000000004, 192.0, 0.0, 0.0, 0.0, 0.0, 0.0, 0.0, 0.0, 0.0, 0.0, 1.741024371452524E9, 0.0, 2025-03-03 11:52:51.452
75.0, -28848.636609153345, 3638.4840176682496, -47290.16688944899, -30853.453976327655, -187500.02235174447, -31032.133821503383, -69943.32461873587, -60408.62922771326, 0.022, 0.862, -0.47800000000000004, 192.0, 0.0, 0.0, 0.0, 0.0, 0.0, 0.0, 0.0, 0.0, 0.0, 1.741024371452547E9, 0.0, 2025-03-03 11:52:51.452
76.0, -28871.32362977548, 3584.8845344644233, -47298.638200597554, -30853.722197261122, -187500.02235174447, -31030.5244959026, -69940.57535416787, -60404.98589336704, 0.022, 0.862, -0.47800000000000004, 192.0, 0.0, 0.0, 0.0, 0.0, 0.0, 0.0, 0.0, 0.0, 0.0, 1.741024371512405E9, 0.0, 2025-03-03 11:52:51.512
77.0, -28847.921353330774, 3586.627970531937, -47290.63627608255, -30850.6823600152, -187500.02235174447, -31027.99874877915, -69945.8056623704, -60386.791573380426, 0.026000000000000002, 0.87, -0.486, 192.0, 0.0, 208.0, 27.0, 48.0, 240.0, 208.0, 0.0, 0.0, 0.0, 1.741024371512447E9, 0.0, 2025-03-03 11:52:51.512
78.0, -28786.387000845316, 3686.7861374361682, -47287.77525279227, -30835.7290429746, -187500.02235174447, -31030.166867991316, -69942.98934256904, -60379.68371864364, 0.026000000000000002, 0.87, -0.486, 192.0, 0.0, 0.0, 0.0, 0.0, 0.0, 0.0, 0.0, 0.0, 0.0, 1.741024371512475E9, 0.0, 2025-03-03 11:52:51.512
79.0, -28823.781469319045, 3672.9951111072437, -47288.289342914744, -30843.373339578313, -187500.02235174447, -31031.552676147545, -69952.39942698472, -60365.445657425604, 0.026000000000000002, 0.87, -0.486, 192.0, 0.0, 0.0, 0.0, 0.0, 0.0, 0.0, 0.0, 0.0, 0.0, 1.741024371512498E9, 0.0, 2025-03-03 11:52:51.512
80.0, -28865.400417494824, 3576.9049616938787, -47282.299075400726, -30845.00501692355, -187500.02235174447, -31023.349585932447, -69944.9115925922, -60350.73820957401, 0.026000000000000002, 0.87, -0.486, 192.0, 0.0, 0.0, 0.0, 0.0, 0.0, 0.0, 0.0, 0.0, 0.0, 1.741024371512521E9, 0.0, 2025-03-03 11:52:51.512
81.0, -28840.791146849533, 3568.9030371788785, -47281.3603021336, -30836.220781352615, -187500.02235174447, -31029.965702291218, -69937.3567029663, -60346.4913781275, 0.026000000000000002, 0.87, -0.486, 192.0, 0.0, 0.0, 0.0, 0.0, 0.0, 0.0, 0.0, 0.0, 0.0, 1.741024371512545E9, 0.0, 2025-03-03 11:52:51.512
82.0, -28781.55902404297, 3672.7492419182354, -47285.920058002484, -30830.856362683342, -187500.02235174447, -31041.253333241148, -69935.4568046876, -60339.60704083527, 0.026000000000000002, 0.87, -0.486, 192.0, 0.0, 0.0, 0.0, 0.0, 0.0, 0.0, 0.0, 0.0, 0.0, 1.741024371512568E9, 0.0, 2025-03-03 11:52:51.512
83.0, -28808.314062155972, 3690.8988584159447, -47288.781081292764, -30847.66487451373, -187500.02235174447, -31048.070615300017, -69947.59380192684, -60325.816014506345, 0.026000000000000002, 0.87, -0.486, 192.0, 0.0, 0.0, 0.0, 0.0, 0.0, 0.0, 0.0, 0.0, 0.0, 1.741024371512591E9, 0.0, 2025-03-03 11:52:51.512
84.0, -28866.00391459512, 3588.9972554441997, -47291.03860748275, -30862.975819465617, -187500.02235174447, -31048.182374022294, -69942.16232802419, -60341.64104958071, 0.026000000000000002, 0.87, -0.486, 192.0, 0.0, 0.0, 0.0, 0.0, 0.0, 0.0, 0.0, 0.0, 0.0, 1.741024371512615E9, 0.0, 2025-03-03 11:52:51.512
85.0, -28847.29550448603, 3556.4978190061834, -47282.25437191181, -30855.152708906262, -187500.02235174447, -31046.461289699233, -69941.40236871272, -60341.194014691595, 0.026000000000000002, 0.87, -0.486, 192.0, 0.0, 0.0, 0.0, 0.0, 0.0, 0.0, 0.0, 0.0, 0.0, 1.741024371512638E9, 0.0, 2025-03-03 11:52:51.512
86.0, -28780.910823453763, 3638.3275554570623, -47269.02213919427, -30834.54440051847, -187500.02235174447, -31033.2737604706, -69933.48985117553, -60317.36705510224, 0.026000000000000002, 0.87, -0.486, 192.0, 0.0, 0.0, 0.0, 0.0, 0.0, 0.0, 0.0, 0.0, 0.0, 1.741024371512696E9, 0.0, 2025-03-03 11:52:51.512
87.0, -28785.381172344827, 3686.7414339472575, -47280.62269456658, -30844.33446458989, -187500.02235174447, -31043.354397219944, -69950.56658393939, -60338.02006697894, 0.024, 0.864, -0.48, 192.0, 0.0, 192.0, 27.0, 0.0, 241.0, 0.0, 0.0, 0.0, 0.0, 1.741024371512726E9, 0.0, 2025-03-03 11:52:51.512
88.0, -28846.334379474447, 3589.9360287113227, -47284.19897367942, -30856.940848462684, -187500.02235174447, -31037.162964005827, -69958.14382530974, -60353.912157286664, 0.024, 0.864, -0.48, 192.0, 0.0, 0.0, 0.0, 0.0, 0.0, 0.0, 0.0, 0.0, 0.0, 1.741024371512751E9, 0.0, 2025-03-03 11:52:51.512
89.0, -28843.629818395355, 3533.6543361728595, -47274.16304041899, -30845.876734957306, -187500.02235174447, -31030.502144158145, -69947.48204320455, -60354.068619497855, 0.024, 0.864, -0.48, 192.0, 0.0, 0.0, 0.0, 0.0, 0.0, 0.0, 0.0, 0.0, 0.0, 1.74102437151278E9, 0.0, 2025-03-03 11:52:51.512
90.0, -28770.22668960413, 3602.2965433951076, -47264.3059211142, -30818.49584799956, -187500.02235174447, -31025.80827782253, -69917.59776086781, -60352.41459040816, 0.024, 0.864, -0.48, 192.0, 0.0, 0.0, 0.0, 0.0, 0.0, 0.0, 0.0, 0.0, 0.0, 1.741024371512805E9, 0.0, 2025-03-03 11:52:51.512
91.0, -28741.124718323317, 3707.9755911797993, -47278.49927884332, -30822.116830601317, -187500.02235174447, -31039.62165589591, -69917.24013295653, -60379.303738987895, 0.024, 0.864, -0.48, 192.0, 0.0, 0.0, 0.0, 0.0, 0.0, 0.0, 0.0, 0.0, 0.0, 1.741024371572616E9, 0.0, 2025-03-03 11:52:51.572
92.0, -28814.61725409237, 3624.983564017244, -47276.86760149808, -30840.62407501031, -187500.02235174447, -31031.306806958535, -69941.82705185737, -60383.93055009015, 0.024, 0.864, -0.48, 192.0, 0.0, 0.0, 0.0, 0.0, 0.0, 0.0, 0.0, 0.0, 0.0, 1.741024371572654E9, 0.0, 2025-03-03 11:52:51.572
93.0, -28812.091506968918, 3574.7144907372585, -47271.0561479397, -30831.14693536126, -187500.02235174447, -31026.545885389554, -69933.75807210899, -60390.837239126835, 0.024, 0.864, -0.48, 192.0, 0.0, 0.0, 0.0, 0.0, 0.0, 0.0, 0.0, 0.0, 0.0, 1.741024371572679E9, 0.0, 2025-03-03 11:52:51.572
94.0, -28751.093596350387, 3629.05158150811, -47262.51778155778, -30817.221798565603, -187500.02235174447, -31023.99778652165, -69911.98747300953, -60390.65842517119, 0.024, 0.864, -0.48, 192.0, 0.0, 0.0, 0.0, 0.0, 0.0, 0.0, 0.0, 0.0, 0.0, 1.741024371572703E9, 0.0, 2025-03-03 11:52:51.572
95.0, -28705.719555106112, 3744.297175919673, -47266.45168858191, -30812.997318863552, -187500.02235174447, -31028.356376690434, -69899.53755134792, -60395.9557886071, 0.024, 0.864, -0.48, 192.0, 0.0, 0.0, 0.0, 0.0, 0.0, 0.0, 0.0, 0.0, 0.0, 1.741024371572726E9, 0.0, 2025-03-03 11:52:51.572
96.0, -28779.927346697732, 3682.7851751786684, -47263.52361005826, -30829.33644406038, -187500.02235174447, -31017.336966673967, -69905.32665316184, -60386.23277976904, 0.024, 0.864, -0.48, 192.0, 0.0, 0.0, 0.0, 0.0, 0.0, 0.0, 0.0, 0.0, 0.0, 1.741024371572749E9, 0.0, 2025-03-03 11:52:51.572
97.0, -28797.406410861782, 3608.823252776057, -47261.69076701293, -30827.749470204053, -187500.02235174447, -31018.543960874555, -69898.73288854753, -60381.673023900155, 0.026000000000000002, 0.866, -0.47800000000000004, 192.0, 0.0, 208.0, 27.0, 16.0, 241.0, 16.0, 0.0, 0.0, 0.0, 1.741024371572772E9, 0.0, 2025-03-03 11:52:51.572
98.0, -28753.97697138512, 3632.7843228321462, -47260.84140072363, -30824.82139168041, -187500.02235174447, -31027.32819644549, -69899.53755134792, -60382.47768670055, 0.026000000000000002, 0.866, -0.47800000000000004, 192.0, 0.0, 0.0, 0.0, 0.0, 0.0, 0.0, 0.0, 0.0, 0.0, 1.741024371572797E9, 0.0, 2025-03-03 11:52:51.572
99.0, -28707.172418495706, 3731.5790333246036, -47268.709214771894, -30823.524990502, -187500.02235174447, -31037.81116459503, -69896.87769375773, -60386.03161406895, 0.026000000000000002, 0.866, -0.47800000000000004, 192.0, 0.0, 0.0, 0.0, 0.0, 0.0, 0.0, 0.0, 0.0, 0.0, 1.74102437157282E9, 0.0, 2025-03-03 11:52:51.572
100.0, -28755.765110941546, 3707.1262248904977, -47278.32046488768, -30835.438470296678, -187500.02235174447, -31040.113394273925, -69889.7027837876, -60375.168666263664, 0.026000000000000002, 0.866, -0.47800000000000004, 192.0, 0.0, 0.0, 0.0, 0.0, 0.0, 0.0, 0.0, 0.0, 0.0, 1.741024371572843E9, 0.0, 2025-03-03 11:52:51.572
101.0, -28799.149846929296, 3612.5559941000934, -47285.78594753575, -30846.122604146316, -187500.02235174447, -31035.263065727126, -69896.47536235755, -60356.05792475438, 0.026000000000000002, 0.866, -0.47800000000000004, 192.0, 0.0, 0.0, 0.0, 0.0, 0.0, 0.0, 0.0, 0.0, 0.0, 1.741024371572903E9, 0.0, 2025-03-03 11:52:51.572
102.0, -28757.910878409253, 3619.820311048068, -47282.410834123, -30828.95646440464, -187500.02235174447, -31023.148420232348, -69875.6882400141, -60348.48068338403, 0.026000000000000002, 0.866, -0.47800000000000004, 192.0, 0.0, 0.0, 0.0, 0.0, 0.0, 0.0, 0.0, 0.0, 0.0, 1.741024371572939E9, 0.0, 2025-03-03 11:52:51.572
103.0, -28688.21813919761, 3737.055210716154, -47295.441901140446, -30829.247037082558, -187500.02235174447, -31038.481716928687, -69864.22179510853, -60374.14048601872, 0.026000000000000002, 0.866, -0.47800000000000004, 192.0, 0.0, 0.0, 0.0, 0.0, 0.0, 0.0, 0.0, 0.0, 0.0, 1.741024371572963E9, 0.0, 2025-03-03 11:52:51.572
104.0, -28734.732119409102, 3718.0338761846874, -47294.592534851145, -30854.839784483887, -187500.02235174447, -31036.827687838995, -69880.11388541626, -60378.65553839869, 0.026000000000000002, 0.866, -0.47800000000000004, 192.0, 0.0, 0.0, 0.0, 0.0, 0.0, 0.0, 0.0, 0.0, 0.0, 1.741024371572987E9, 0.0, 2025-03-03 11:52:51.572
105.0, -28767.07509363593, 3639.2216252352746, -47292.69263657244, -30856.24794438457, -187500.02235174447, -31040.359263462935, -69880.18094064963, -60381.538913433425, 0.026000000000000002, 0.866, -0.47800000000000004, 192.0, 0.0, 0.0, 0.0, 0.0, 0.0, 0.0, 0.0, 0.0, 0.0, 1.741024371573015E9, 0.0, 2025-03-03 11:52:51.573
106.0, -28740.02948284501, 3639.020459535177, -47293.7655203063, -30855.331522861903, -187500.02235174447, -31049.72464438971, -69871.95549869008, -60386.67981465815, 0.026000000000000002, 0.866, -0.47800000000000004, 192.0, 0.0, 0.0, 0.0, 0.0, 0.0, 0.0, 0.0, 0.0, 0.0, 1.741024371632986E9, 0.0, 2025-03-03 11:52:51.632
107.0, -28694.253110200538, 3725.722876277313, -47289.138709204046, -30856.53851706249, -187500.02235174447, -31051.490432201677, -69870.1897108781, -60386.59040768033, 0.03, 0.872, -0.47800000000000004, 192.0, 0.0, 240.0, 27.0, 64.0, 241.0, 16.0, 0.0, 0.0, 0.0, 1.741024371633027E9, 0.0, 2025-03-03 11:52:51.633
108.0, -28720.471706446613, 3733.0542484586535, -47284.087214957144, -30863.556964821455, -187500.02235174447, -31044.896667587363, -69872.80486497938, -60378.92375933215, 0.03, 0.872, -0.47800000000000004, 192.0, 0.0, 0.0, 0.0, 0.0, 0.0, 0.0, 0.0, 0.0, 0.0, 1.741024371633054E9, 0.0, 2025-03-03 11:52:51.633
109.0, -28758.44732027618, 3644.541340415638, -47284.377787635065, -30862.081749687404, -187500.02235174447, -31035.866562827418, -69870.97202193404, -60372.21823599556, 0.03, 0.872, -0.47800000000000004, 192.0, 0.0, 0.0, 0.0, 0.0, 0.0, 0.0, 0.0, 0.0, 0.0, 1.741024371633078E9, 0.0, 2025-03-03 11:52:51.633
110.0, -28748.321980037927, 3619.0379999921324, -47295.441901140446, -30861.701770031665, -187500.02235174447, -31043.53321117559, -69888.92047273165, -60364.64099462522, 0.03, 0.872, -0.47800000000000004, 192.0, 0.0, 0.0, 0.0, 0.0, 0.0, 0.0, 0.0, 0.0, 0.0, 1.741024371633101E9, 0.0, 2025-03-03 11:52:51.633
111.0, -28703.104401004843, 3690.20595433783, -47304.650819856026, -30859.041912441484, -187500.02235174447, -31061.63812418439, -69896.98945248002, -60357.89076779971, 0.03, 0.872, -0.47800000000000004, 192.0, 0.0, 0.0, 0.0, 0.0, 0.0, 0.0, 0.0, 0.0, 0.0, 1.741024371633124E9, 0.0, 2025-03-03 11:52:51.633
112.0, -28706.792438839966, 3743.336050908095, -47296.3136191742, -30858.17019440773, -187500.02235174447, -31059.358246249947, -69871.66492601215, -60333.594421576796, 0.03, 0.872, -0.47800000000000004, 192.0, 0.0, 0.0, 0.0, 0.0, 0.0, 0.0, 0.0, 0.0, 0.0, 1.741024371633148E9, 0.0, 2025-03-03 11:52:51.633
113.0, -28742.64463694628, 3667.1836575488637, -47276.04058695323, -30849.408310581246, -187500.02235174447, -31046.215420510223, -69839.92544888562, -60310.97445618802, 0.03, 0.872, -0.47800000000000004, 192.0, 0.0, 0.0, 0.0, 0.0, 0.0, 0.0, 0.0, 0.0, 0.0, 1.741024371633171E9, 0.0, 2025-03-03 11:52:51.633
114.0, -28738.464860733136, 3624.983564017244, -47272.01727295128, -30840.95935117714, -187500.02235174447, -31042.259161741636, -69848.91085015665, -60304.20187761806, 0.03, 0.872, -0.47800000000000004, 192.0, 0.0, 0.0, 0.0, 0.0, 0.0, 0.0, 0.0, 0.0, 0.0, 1.741024371633194E9, 0.0, 2025-03-03 11:52:51.633
115.0, -28683.09958971734, 3689.11071885952, -47271.03379619525, -30828.48707777108, -187500.02235174447, -31036.671225627808, -69847.56974548934, -60304.60420901826, 0.03, 0.872, -0.47800000000000004, 192.0, 0.0, 0.0, 0.0, 0.0, 0.0, 0.0, 0.0, 0.0, 0.0, 1.741024371633217E9, 0.0, 2025-03-03 11:52:51.633
116.0, -28674.360057635316, 3779.791746114701, -47295.75482556282, -30840.020577910018, -187500.02235174447, -31056.631333426398, -69872.31312660135, -60331.962744231554, 0.03, 0.872, -0.47800000000000004, 192.0, 0.0, 0.0, 0.0, 0.0, 0.0, 0.0, 0.0, 0.0, 0.0, 1.741024371633274E9, 0.0, 2025-03-03 11:52:51.633
117.0, -28757.329733053415, 3702.20884111033, -47286.30003765822, -30860.919458975728, -187500.02235174447, -31057.10072005996, -69896.56476933537, -60305.87825845221, 0.026000000000000002, 0.876, -0.47800000000000004, 192.0, 0.0, 208.0, 27.0, 96.0, 241.0, 16.0, 0.0, 0.0, 0.0, 1.741024371633307E9, 0.0, 2025-03-03 11:52:51.633
118.0, -28732.87692461931, 3642.9096630704003, -47267.79279324923, -30846.524935546513, -187500.02235174447, -31044.650798398354, -69876.44819932559, -60261.77826664189, 0.026000000000000002, 0.876, -0.47800000000000004, 192.0, 0.0, 0.0, 0.0, 0.0, 0.0, 0.0, 0.0, 0.0, 0.0, 1.74102437163334E9, 0.0, 2025-03-03 11:52:51.633
119.0, -28651.270705612984, 3709.8307859695897, -47274.72183403037, -30839.730005232097, -187500.02235174447, -31060.744054406176, -69854.69995197057, -60256.7714758839, 0.026000000000000002, 0.876, -0.47800000000000004, 192.0, 0.0, 0.0, 0.0, 0.0, 0.0, 0.0, 0.0, 0.0, 0.0, 1.741024371633363E9, 0.0, 2025-03-03 11:52:51.633
120.0, -28645.973342177076, 3796.264981778262, -47289.11635745959, -30852.090519915884, -187500.02235174447, -31074.445673757276, -69864.64647825318, -60258.76078114042, 0.026000000000000002, 0.876, -0.47800000000000004, 192.0, 0.0, 0.0, 0.0, 0.0, 0.0, 0.0, 0.0, 0.0, 0.0, 1.741024371633392E9, 0.0, 2025-03-03 11:52:51.633
121.0, -28707.597101640356, 3742.1514084519636, -47267.815144993685, -30854.169232150227, -187500.02235174447, -31060.699350917264, -69861.04784739588, -60253.798693871344, 0.026000000000000002, 0.876, -0.47800000000000004, 192.0, 0.0, 0.0, 0.0, 0.0, 0.0, 0.0, 0.0, 0.0, 0.0, 1.741024371693218E9, 0.0, 2025-03-03 11:52:51.693
122.0, -28710.860456330833, 3652.498561441727, -47253.71119424239, -30851.5317263045, -187500.02235174447, -31039.152269262348, -69845.35692278825, -60264.59458644326, 0.026000000000000002, 0.876, -0.47800000000000004, 192.0, 0.0, 0.0, 0.0, 0.0, 0.0, 0.0, 0.0, 0.0, 0.0, 1.741024371693257E9, 0.0, 2025-03-03 11:52:51.693
123.0, -28669.509729088513, 3665.9766633482773, -47264.14945890301, -30845.67556925721, -187500.02235174447, -31035.71010061623, -69835.72332092802, -60298.770403715425, 0.026000000000000002, 0.876, -0.47800000000000004, 192.0, 0.0, 0.0, 0.0, 0.0, 0.0, 0.0, 0.0, 0.0, 0.0, 1.741024371693282E9, 0.0, 2025-03-03 11:52:51.693
124.0, -28626.303807056407, 3775.9695978128434, -47281.00267422231, -30849.92240070372, -187500.02235174447, -31051.19985952376, -69831.27532378142, -60325.43603485061, 0.026000000000000002, 0.876, -0.47800000000000004, 192.0, 0.0, 0.0, 0.0, 0.0, 0.0, 0.0, 0.0, 0.0, 0.0, 1.741024371693309E9, 0.0, 2025-03-03 11:52:51.693
125.0, -28687.52523511949, 3742.9337195078997, -47286.68001731396, -30876.319810905436, -187500.02235174447, -31060.67699917281, -69858.52210027243, -60337.349514645284, 0.026000000000000002, 0.876, -0.47800000000000004, 192.0, 0.0, 0.0, 0.0, 0.0, 0.0, 0.0, 0.0, 0.0, 0.0, 1.741024371693334E9, 0.0, 2025-03-03 11:52:51.693
126.0, -28729.010072828543, 3646.8435700945342, -47285.584781835656, -30871.82711026992, -187500.02235174447, -31050.32814149, -69869.29564109989, -60340.25524142447, 0.026000000000000002, 0.876, -0.47800000000000004, 192.0, 0.0, 0.0, 0.0, 0.0, 0.0, 0.0, 0.0, 0.0, 0.0, 1.741024371693358E9, 0.0, 2025-03-03 11:52:51.693
127.0, -28692.643784599757, 3650.017517807188, -47277.247581153824, -30855.152708906262, -187500.02235174447, -31049.29996124506, -69868.22275736603, -60340.568165846846, 0.022, 0.874, -0.47400000000000003, 192.0, 0.0, 176.0, 27.0, 80.0, 241.0, 48.0, 0.0, 0.0, 0.0, 1.741024371693381E9, 0.0, 2025-03-03 11:52:51.693
128.0, -28639.89366768523, 3749.8627602890447, -47277.78402302075, -30849.698883259167, -187500.02235174447, -31055.33493224799, -69863.59594626378, -60340.72462805804, 0.022, 0.874, -0.47400000000000003, 192.0, 0.0, 0.0, 0.0, 0.0, 0.0, 0.0, 0.0, 0.0, 0.0, 1.741024371693407E9, 0.0, 2025-03-03 11:52:51.693
129.0, -28681.467912372103, 3750.2650916892403, -47280.44388061093, -30852.805775738452, -187500.02235174447, -31052.13863279088, -69859.61733575075, -60331.38159887572, 0.022, 0.874, -0.47400000000000003, 192.0, 0.0, 0.0, 0.0, 0.0, 0.0, 0.0, 0.0, 0.0, 0.0, 1.741024371693431E9, 0.0, 2025-03-03 11:52:51.693
130.0, -28726.149049538264, 3669.642349438948, -47276.15234567551, -30855.286819372992, -187500.02235174447, -31045.231943754192, -69853.56001300336, -60324.60902030576, 0.022, 0.874, -0.47400000000000003, 192.0, 0.0, 0.0, 0.0, 0.0, 0.0, 0.0, 0.0, 0.0, 0.0, 1.741024371693454E9, 0.0, 2025-03-03 11:52:51.693
131.0, -28721.05285180245, 3640.8756543249674, -47276.621732309075, -30855.48798507309, -187500.02235174447, -31043.823783853506, -69848.39676003419, -60327.58180231832, 0.022, 0.874, -0.47400000000000003, 192.0, 0.0, 0.0, 0.0, 0.0, 0.0, 0.0, 0.0, 0.0, 0.0, 1.741024371693497E9, 0.0, 2025-03-03 11:52:51.693
132.0, -28662.11130167381, 3742.7549055522572, -47288.445805125935, -30851.48702281559, -187500.02235174447, -31056.117243303925, -69827.67669292411, -60340.61286933576, 0.022, 0.874, -0.47400000000000003, 192.0, 0.0, 0.0, 0.0, 0.0, 0.0, 0.0, 0.0, 0.0, 0.0, 1.741024371693533E9, 0.0, 2025-03-03 11:52:51.693
133.0, -28678.53983384846, 3778.5176966807485, -47286.50120335832, -30862.975819465617, -187500.02235174447, -31055.178470036804, -69843.21115532055, -60327.850023251776, 0.022, 0.874, -0.47400000000000003, 192.0, 0.0, 0.0, 0.0, 0.0, 0.0, 0.0, 0.0, 0.0, 0.0, 1.741024371693563E9, 0.0, 2025-03-03 11:52:51.693
134.0, -28748.79136667149, 3668.949445360833, -47292.02208423878, -30884.277031931524, -187500.02235174447, -31058.464176471734, -69856.0410566379, -60315.757729501456, 0.022, 0.874, -0.47400000000000003, 192.0, 0.0, 0.0, 0.0, 0.0, 0.0, 0.0, 0.0, 0.0, 0.0, 1.741024371693587E9, 0.0, 2025-03-03 11:52:51.693
135.0, -28727.914837350232, 3647.603529406015, -47293.65376158402, -30873.92817424872, -187500.02235174447, -31067.740150420686, -69861.33842007381, -60319.535174314406, 0.022, 0.874, -0.47400000000000003, 192.0, 0.0, 0.0, 0.0, 0.0, 0.0, 0.0, 0.0, 0.0, 0.0, 1.741024371693616E9, 0.0, 2025-03-03 11:52:51.693
136.0, -28677.10932220332, 3740.363268895539, -47309.43409316947, -30883.49472087559, -187500.02235174447, -31087.92377566383, -69886.57353956385, -60326.575973817824, 0.022, 0.874, -0.47400000000000003, 192.0, 0.0, 0.0, 0.0, 0.0, 0.0, 0.0, 0.0, 0.0, 0.0, 1.741024371752574E9, 0.0, 2025-03-03 11:52:51.752
137.0, -28681.266746672005, 3797.5390312122145, -47299.129938975566, -30887.36157266636, -187500.02235174447, -31067.449577742766, -69886.28296688592, -60309.78981373189, 0.016, 0.874, -0.47400000000000003, 192.0, 0.0, 128.0, 27.0, 80.0, 241.0, 48.0, 0.0, 0.0, 0.0, 1.741024371752611E9, 0.0, 2025-03-03 11:52:51.752
138.0, -28722.7292326366, 3708.623791769003, -47275.079461941656, -30869.927211991217, -187500.02235174447, -31043.689673386776, -69868.91566144415, -60294.143592613174, 0.016, 0.874, -0.47400000000000003, 192.0, 0.0, 0.0, 0.0, 0.0, 0.0, 0.0, 0.0, 0.0, 0.0, 1.741024371752638E9, 0.0, 2025-03-03 11:52:51.752
139.0, -28725.16557278223, 3659.6511196674255, -47280.44388061093, -30875.850424271874, -187500.02235174447, -31057.391292737877, -69866.52402478743, -60311.30973235485, 0.016, 0.874, -0.47400000000000003, 192.0, 0.0, 0.0, 0.0, 0.0, 0.0, 0.0, 0.0, 0.0, 0.0, 1.741024371752662E9, 0.0, 2025-03-03 11:52:51.752
140.0, -28671.05199945593, 3719.6432017854695, -47283.193145178935, -30872.028275970017, -187500.02235174447, -31063.806243396553, -69852.71064671405, -60322.59736330478, 0.016, 0.874, -0.47400000000000003, 192.0, 0.0, 0.0, 0.0, 0.0, 0.0, 0.0, 0.0, 0.0, 0.0, 1.741024371752685E9, 0.0, 2025-03-03 11:52:51.752
141.0, -28661.306638873415, 3810.592449974114, -47288.73637780385, -30877.92913650622, -187500.02235174447, -31065.795548653074, -69851.30248681337, -60334.0414564659, 0.016, 0.874, -0.47400000000000003, 192.0, 0.0, 0.0, 0.0, 0.0, 0.0, 0.0, 0.0, 0.0, 0.0, 1.741024371752709E9, 0.0, 2025-03-03 11:52:51.752
142.0, -28744.030445102508, 3737.301079905162, -47295.352494162624, -30894.73764833661, -187500.02235174447, -31062.174566051315, -69866.30050734288, -60345.99963974949, 0.016, 0.874, -0.47400000000000003, 192.0, 0.0, 0.0, 0.0, 0.0, 0.0, 0.0, 0.0, 0.0, 0.0, 1.741024371752732E9, 0.0, 2025-03-03 11:52:51.752
143.0, -28762.492986022593, 3670.1340878169644, -47282.008502722805, -30889.105008733874, -187500.02235174447, -31050.819879868017, -69872.44723706809, -60342.6915815701, 0.016, 0.874, -0.47400000000000003, 192.0, 0.0, 0.0, 0.0, 0.0, 0.0, 0.0, 0.0, 0.0, 0.0, 1.741024371752756E9, 0.0, 2025-03-03 11:52:51.752
144.0, -28723.802116370454, 3707.30503884614, -47288.82578478167, -30887.71920057764, -187500.02235174447, -31060.699350917264, -69868.73684748852, -60357.01904976596, 0.016, 0.874, -0.47400000000000003, 192.0, 0.0, 0.0, 0.0, 0.0, 0.0, 0.0, 0.0, 0.0, 0.0, 1.741024371752779E9, 0.0, 2025-03-03 11:52:51.752
145.0, -28702.679717860192, 3804.8927551380107, -47294.50312787332, -30898.58214838292, -187500.02235174447, -31077.507862747654, -69869.67562075563, -60360.81884632336, 0.016, 0.874, -0.47400000000000003, 192.0, 0.0, 0.0, 0.0, 0.0, 0.0, 0.0, 0.0, 0.0, 0.0, 1.741024371752802E9, 0.0, 2025-03-03 11:52:51.752
146.0, -28769.42202680374, 3740.2515101732624, -47280.86856375558, -30903.432476929724, -187500.02235174447, -31063.828595141007, -69872.42488532363, -60340.81403503586, 0.016, 0.874, -0.47400000000000003, 192.0, 0.0, 0.0, 0.0, 0.0, 0.0, 0.0, 0.0, 0.0, 0.0, 1.741024371752855E9, 0.0, 2025-03-03 11:52:51.752
147.0, -28789.76211425807, 3653.05735505311, -47272.17373516247, -30887.450979644178, -187500.02235174447, -31045.678978643296, -69859.237356095, -60320.161023159155, 0.012, 0.868, -0.466, 192.0, 0.0, 96.0, 27.0, 32.0, 241.0, 112.0, 0.0, 0.0, 0.0, 1.741024371752892E9, 0.0, 2025-03-03 11:52:51.752
148.0, -28753.77580568502, 3656.1865992768526, -47276.912304986996, -30879.96314525165, -187500.02235174447, -31052.540964191077, -69849.87197516824, -60321.74799701548, 0.012, 0.868, -0.466, 192.0, 0.0, 0.0, 0.0, 0.0, 0.0, 0.0, 0.0, 0.0, 0.0, 1.741024371752924E9, 0.0, 2025-03-03 11:52:51.752
149.0, -28704.311395205426, 3762.6479581174804, -47291.239773182846, -30888.523863378035, -187500.02235174447, -31071.62935395591, -69851.86128042475, -60338.13182570122, 0.012, 0.868, -0.466, 192.0, 0.0, 0.0, 0.0, 0.0, 0.0, 0.0, 0.0, 0.0, 0.0, 1.741024371752948E9, 0.0, 2025-03-03 11:52:51.752
150.0, -28769.578489014923, 3729.589728068081, -47304.56141287821, -30913.088430534415, -187500.02235174447, -31081.82174942753, -69859.70674272857, -60339.91996525764, 0.012, 0.868, -0.466, 192.0, 0.0, 0.0, 0.0, 0.0, 0.0, 0.0, 0.0, 0.0, 0.0, 1.741024371752977E9, 0.0, 2025-03-03 11:52:51.752
151.0, -28819.042899494518, 3641.5238549141714, -47314.150311249534, -30923.437288217225, -187500.02235174447, -31079.92185114883, -69861.91956542963, -60340.81403503586, 0.012, 0.868, -0.466, 192.0, 0.0, 0.0, 0.0, 0.0, 0.0, 0.0, 0.0, 0.0, 0.0, 1.741024371812857E9, 0.0, 2025-03-03 11:52:51.812
152.0, -28789.225672391138, 3626.056447751099, -47302.63916285505, -30911.724974122644, -187500.02235174447, -31071.025856855616, -69860.35494331777, -60338.10947395676, 0.012, 0.868, -0.466, 192.0, 0.0, 0.0, 0.0, 0.0, 0.0, 0.0, 0.0, 0.0, 0.0, 1.741024371812895E9, 0.0, 2025-03-03 11:52:51.812
153.0, -28752.635866717803, 3695.078634629087, -47307.84711931314, -30907.522846165044, -187500.02235174447, -31074.78094992411, -69856.17516710462, -60342.80334029238, 0.012, 0.868, -0.466, 192.0, 0.0, 0.0, 0.0, 0.0, 0.0, 0.0, 0.0, 0.0, 0.0, 1.74102437181292E9, 0.0, 2025-03-03 11:52:51.812
154.0, -28772.6406780053, 3700.688922487369, -47299.17464246448, -30898.4927414051, -187500.02235174447, -31064.633257941397, -69849.82727167931, -60333.32620064333, 0.012, 0.868, -0.466, 192.0, 0.0, 0.0, 0.0, 0.0, 0.0, 0.0, 0.0, 0.0, 0.0, 1.741024371812944E9, 0.0, 2025-03-03 11:52:51.812
155.0, -28803.26256790907, 3608.6220870759594, -47293.72081681738, -30903.611290885365, -187500.02235174447, -31067.516632976134, -69850.52017575744, -60329.34759013028, 0.012, 0.868, -0.466, 192.0, 0.0, 0.0, 0.0, 0.0, 0.0, 0.0, 0.0, 0.0, 0.0, 1.741024371812967E9, 0.0, 2025-03-03 11:52:51.812
156.0, -28786.968146201154, 3571.473487791239, -47299.822843053684, -30906.315851964457, -187500.02235174447, -31070.42235975532, -69844.97694313251, -60332.9909244765, 0.012, 0.868, -0.466, 192.0, 0.0, 0.0, 0.0, 0.0, 0.0, 0.0, 0.0, 0.0, 0.0, 1.741024371812991E9, 0.0, 2025-03-03 11:52:51.812
157.0, -28733.41336648624, 3657.080669055065, -47311.4681019149, -30902.06902051795, -187500.02235174447, -31076.4349790138, -69834.24810579397, -60340.12113095774, 0.01, 0.87, -0.47400000000000003, 192.0, 0.0, 80.0, 27.0, 48.0, 241.0, 48.0, 0.0, 0.0, 0.0, 1.741024371813014E9, 0.0, 2025-03-03 11:52:51.813
158.0, -28751.74179693959, 3686.3838060359726, -47303.533232633265, -30911.993195056108, -187500.02235174447, -31072.85869990095, -69843.4346727651, -60334.66730531065, 0.01, 0.87, -0.47400000000000003, 192.0, 0.0, 0.0, 0.0, 0.0, 0.0, 0.0, 0.0, 0.0, 0.0, 1.74102437181304E9, 0.0, 2025-03-03 11:52:51.813
159.0, -28844.903867829307, 3555.648452716882, -47307.48949140185, -30924.532523695532, -187500.02235174447, -31059.984095094693, -69849.3355333013, -60332.3427238873, 0.01, 0.87, -0.47400000000000003, 192.0, 0.0, 0.0, 0.0, 0.0, 0.0, 0.0, 0.0, 0.0, 0.0, 1.741024371813063E9, 0.0, 2025-03-03 11:52:51.813
160.0, -28809.878684267842, 3527.4629029587395, -47288.848136526125, -30905.69000311971, -187500.02235174447, -31058.173603793814, -69823.6310271777, -60323.60319180527, 0.01, 0.87, -0.47400000000000003, 192.0, 0.0, 0.0, 0.0, 0.0, 0.0, 0.0, 0.0, 0.0, 0.0, 1.741024371813086E9, 0.0, 2025-03-03 11:52:51.813
161.0, -28743.82927940241, 3605.179918429842, -47301.83450005466, -30913.758982868076, -187500.02235174447, -31078.06665635904, -69827.8331551353, -60339.60704083527, 0.01, 0.87, -0.47400000000000003, 192.0, 0.0, 0.0, 0.0, 0.0, 0.0, 0.0, 0.0, 0.0, 0.0, 1.74102437181311E9, 0.0, 2025-03-03 11:52:51.813
162.0, -28744.92451488072, 3670.178791305875, -47303.2650116998, -30913.669575890253, -187500.02235174447, -31072.54577547858, -69830.22479179202, -60340.34464840229, 0.01, 0.87, -0.47400000000000003, 192.0, 0.0, 0.0, 0.0, 0.0, 0.0, 0.0, 0.0, 0.0, 0.0, 1.741024371813169E9, 0.0, 2025-03-03 11:52:51.813
163.0, -28787.83986423491, 3577.6872727498144, -47284.82482252417, -30916.530599180533, -187500.02235174447, -31058.933563105296, -69844.37344603223, -60327.55945057386, 0.01, 0.87, -0.47400000000000003, 192.0, 0.0, 0.0, 0.0, 0.0, 0.0, 0.0, 0.0, 0.0, 0.0, 1.741024371813199E9, 0.0, 2025-03-03 11:52:51.813
164.0, -28790.007983447074, 3504.1723852363093, -47277.09111894263, -30912.440229945212, -187500.02235174447, -31052.80918512454, -69839.8807453967, -60315.10952891225, 0.01, 0.87, -0.47400000000000003, 192.0, 0.0, 0.0, 0.0, 0.0, 0.0, 0.0, 0.0, 0.0, 0.0, 1.741024371813223E9, 0.0, 2025-03-03 11:52:51.813
165.0, -28748.947828882676, 3553.5920922269934, -47284.534249846256, -30907.29932872049, -187500.02235174447, -31063.985057352194, -69825.64268417867, -60317.36705510224, 0.01, 0.87, -0.47400000000000003, 192.0, 0.0, 0.0, 0.0, 0.0, 0.0, 0.0, 0.0, 0.0, 0.0, 1.741024371813251E9, 0.0, 2025-03-03 11:52:51.813
166.0, -28716.20252325565, 3646.86592183899, -47299.956953520414, -30917.625834658844, -187500.02235174447, -31076.211461569248, -69832.59407670428, -60337.68479081211, 0.01, 0.87, -0.47400000000000003, 192.0, 0.0, 0.0, 0.0, 0.0, 0.0, 0.0, 0.0, 0.0, 0.0, 1.741024371872714E9, 0.0, 2025-03-03 11:52:51.872
167.0, -28780.106160653373, 3580.8388687180127, -47295.88893602955, -30941.16222157028, -187500.02235174447, -31068.67892368781, -69849.17907109011, -60340.74697980249, 0.012, 0.878, -0.47200000000000003, 192.0, 0.0, 96.0, 27.0, 112.0, 241.0, 64.0, 0.0, 0.0, 0.0, 1.741024371872755E9, 0.0, 2025-03-03 11:52:51.872
168.0, -28776.887509451808, 3517.7845976095914, -47275.012406708294, -30937.340073268424, -187500.02235174447, -31057.52540320461, -69842.85352740926, -60316.31652311284, 0.012, 0.878, -0.47200000000000003, 192.0, 0.0, 0.0, 0.0, 0.0, 0.0, 0.0, 0.0, 0.0, 0.0, 1.741024371872783E9, 0.0, 2025-03-03 11:52:51.872
169.0, -28709.809924341433, 3548.160618324354, -47266.04935718171, -30918.251683503593, -187500.02235174447, -31049.65758915634, -69827.11789931273, -60302.056110150355, 0.012, 0.878, -0.47200000000000003, 192.0, 0.0, 0.0, 0.0, 0.0, 0.0, 0.0, 0.0, 0.0, 0.0, 1.741024371872807E9, 0.0, 2025-03-03 11:52:51.872
170.0, -28678.517482104002, 3635.7794565891572, -47274.99005496384, -30912.17200901175, -187500.02235174447, -31054.977304336706, -69824.32393125581, -60305.49827879647, 0.012, 0.878, -0.47200000000000003, 192.0, 0.0, 0.0, 0.0, 0.0, 0.0, 0.0, 0.0, 0.0, 0.0, 1.74102437187283E9, 0.0, 2025-03-03 11:52:51.872
171.0, -28737.391976999283, 3601.558935828082, -47291.239773182846, -30940.446965747713, -187500.02235174447, -31067.15900506485, -69842.09356809779, -60312.71789225554, 0.012, 0.878, -0.47200000000000003, 192.0, 0.0, 0.0, 0.0, 0.0, 0.0, 0.0, 0.0, 0.0, 0.0, 1.741024371872854E9, 0.0, 2025-03-03 11:52:51.872
172.0, -28788.30925086847, 3520.3103447330413, -47289.11635745959, -30950.147622841316, -187500.02235174447, -31057.659513671344, -69862.56776601884, -60307.33112184181, 0.012, 0.878, -0.47200000000000003, 192.0, 0.0, 0.0, 0.0, 0.0, 0.0, 0.0, 0.0, 0.0, 0.0, 1.741024371872877E9, 0.0, 2025-03-03 11:52:51.872
173.0, -28752.07707310642, 3531.0838855604993, -47290.6139243381, -30936.4013000013, -187500.02235174447, -31049.76934787862, -69855.48226302651, -60307.778156730914, 0.012, 0.878, -0.47200000000000003, 192.0, 0.0, 0.0, 0.0, 0.0, 0.0, 0.0, 0.0, 0.0, 0.0, 1.7410243718729E9, 0.0, 2025-03-03 11:52:51.872
174.0, -28689.91687177621, 3649.212855006797, -47289.38457839305, -30931.103936565392, -187500.02235174447, -31051.75865313514, -69850.81074843535, -60296.71404322553, 0.012, 0.878, -0.47200000000000003, 192.0, 0.0, 0.0, 0.0, 0.0, 0.0, 0.0, 0.0, 0.0, 0.0, 1.741024371872924E9, 0.0, 2025-03-03 11:52:51.872
175.0, -28778.20626237467, 3611.997200488711, -47308.5176716468, -30954.707378710198, -187500.02235174447, -31052.228039768703, -69873.09543765729, -60296.60228450326, 0.012, 0.878, -0.47200000000000003, 192.0, 0.0, 0.0, 0.0, 0.0, 0.0, 0.0, 0.0, 0.0, 0.0, 1.741024371872947E9, 0.0, 2025-03-03 11:52:51.872
176.0, -28800.8485795079, 3536.180083296309, -47290.0104272378, -30959.490652023633, -187500.02235174447, -31048.070615300017, -69852.21890833604, -60266.606243444236, 0.012, 0.878, -0.47200000000000003, 192.0, 0.0, 0.0, 0.0, 0.0, 0.0, 0.0, 0.0, 0.0, 0.0, 1.74102437187297E9, 0.0, 2025-03-03 11:52:51.872
177.0, -28747.718482937635, 3540.091638575988, -47274.028929952256, -30942.615084959878, -187500.02235174447, -31038.749937862154, -69839.07608259632, -60248.54603392435, 0.012, 0.878, -0.47000000000000003, 192.0, 0.0, 96.0, 27.0, 112.0, 241.0, 80.0, 0.0, 0.0, 0.0, 1.741024371873034E9, 0.0, 2025-03-03 11:52:51.873
178.0, -28678.942165248653, 3646.575349161071, -47269.11154617209, -30923.951378339694, -187500.02235174447, -31034.212533737726, -69831.63295169269, -60248.16605426861, 0.012, 0.878, -0.47000000000000003, 192.0, 0.0, 0.0, 0.0, 0.0, 0.0, 0.0, 0.0, 0.0, 0.0, 1.741024371873067E9, 0.0, 2025-03-03 11:52:51.873
179.0, -28714.63790114378, 3670.558770961615, -47276.84524975363, -30941.721015181665, -187500.02235174447, -31030.099812757948, -69827.76609990193, -60250.55769092533, 0.012, 0.878, -0.47000000000000003, 192.0, 0.0, 0.0, 0.0, 0.0, 0.0, 0.0, 0.0, 0.0, 0.0, 1.741024371873091E9, 0.0, 2025-03-03 11:52:51.873
180.0, -28799.440419607214, 3556.0060806281667, -47277.515802087284, -30960.74234971313, -187500.02235174447, -31035.777155849595, -69842.94293438709, -60249.84243510276, 0.012, 0.878, -0.47000000000000003, 192.0, 0.0, 0.0, 0.0, 0.0, 0.0, 0.0, 0.0, 0.0, 0.0, 1.741024371873114E9, 0.0, 2025-03-03 11:52:51.873
181.0, -28778.183910630218, 3541.678612432315, -47281.11443294459, -30952.06987286447, -187500.02235174447, -31041.186278007783, -69827.49787896847, -60255.54212993886, 0.012, 0.878, -0.47000000000000003, 192.0, 0.0, 0.0, 0.0, 0.0, 0.0, 0.0, 0.0, 0.0, 0.0, 1.741024371932972E9, 0.0, 2025-03-03 11:52:51.932
182.0, -28697.114133490817, 3645.2565962382077, -47266.38463334854, -30943.64326520482, -187500.02235174447, -31044.986074565182, -69808.00715780344, -60252.45758920403, 0.012, 0.878, -0.47000000000000003, 192.0, 0.0, 0.0, 0.0, 0.0, 0.0, 0.0, 0.0, 0.0, 0.0, 1.741024371933011E9, 0.0, 2025-03-03 11:52:51.933
183.0, -28700.466895159116, 3707.2379836127743, -47277.91813348748, -30966.17382361577, -187500.02235174447, -31054.41851072532, -69811.56108517184, -60267.0756300778, 0.012, 0.878, -0.47000000000000003, 192.0, 0.0, 0.0, 0.0, 0.0, 0.0, 0.0, 0.0, 0.0, 0.0, 1.741024371933036E9, 0.0, 2025-03-03 11:52:51.933
184.0, -28777.043971662995, 3623.7765698166577, -47280.600342822116, -30959.356541556903, -187500.02235174447, -31045.500164687655, -69818.24425676397, -60267.50031322245, 0.012, 0.878, -0.47000000000000003, 192.0, 0.0, 0.0, 0.0, 0.0, 0.0, 0.0, 0.0, 0.0, 0.0, 1.74102437193306E9, 0.0, 2025-03-03 11:52:51.933
185.0, -28769.60084075938, 3582.604656529982, -47275.72766253086, -30952.22633507566, -187500.02235174447, -31044.986074565182, -69806.12961126919, -60268.75201091195, 0.012, 0.878, -0.47000000000000003, 192.0, 0.0, 0.0, 0.0, 0.0, 0.0, 0.0, 0.0, 0.0, 0.0, 1.741024371933084E9, 0.0, 2025-03-03 11:52:51.933
186.0, -28714.079107532398, 3651.023346307677, -47266.630502537555, -30946.191364072725, -187500.02235174447, -31035.978321549694, -69798.61942513222, -60269.71313592353, 0.012, 0.878, -0.47000000000000003, 192.0, 0.0, 0.0, 0.0, 0.0, 0.0, 0.0, 0.0, 0.0, 0.0, 1.741024371933107E9, 0.0, 2025-03-03 11:52:51.933
187.0, -28686.34059266336, 3730.439094357383, -47270.8549822396, -30943.866782649373, -187500.02235174447, -31031.530324403087, -69794.55140764134, -60271.12129582421, 0.012, 0.872, -0.47000000000000003, 192.0, 0.0, 96.0, 27.0, 64.0, 241.0, 80.0, 0.0, 0.0, 0.0, 1.741024371933131E9, 0.0, 2025-03-03 11:52:51.933
188.0, -28755.988628386098, 3667.4518784823276, -47292.24560168333, -30975.539204542543, -187500.02235174447, -31052.317446746525, -69816.232599763, -60286.56635124283, 0.012, 0.872, -0.47000000000000003, 192.0, 0.0, 0.0, 0.0, 0.0, 0.0, 0.0, 0.0, 0.0, 0.0, 1.741024371933156E9, 0.0, 2025-03-03 11:52:51.933
189.0, -28771.746608227088, 3609.1585289428867, -47283.64018006804, -30975.31568709799, -187500.02235174447, -31050.730472890198, -69812.90218983915, -60280.01729011742, 0.012, 0.872, -0.47000000000000003, 192.0, 0.0, 0.0, 0.0, 0.0, 0.0, 0.0, 0.0, 0.0, 0.0, 1.74102437193318E9, 0.0, 2025-03-03 11:52:51.933
190.0, -28714.12381102131, 3671.8104686511124, -47272.26314214029, -30950.84052691943, -187500.02235174447, -31034.5254581601, -69791.13159073968, -60267.94734811156, 0.012, 0.872, -0.47000000000000003, 192.0, 0.0, 0.0, 0.0, 0.0, 0.0, 0.0, 0.0, 0.0, 0.0, 1.741024371933203E9, 0.0, 2025-03-03 11:52:51.933
191.0, -28682.116112961306, 3774.2485134897847, -47275.12416543057, -30948.35948328489, -187500.02235174447, -31044.56139142053, -69792.78561982937, -60276.08338309329, 0.012, 0.872, -0.47000000000000003, 192.0, 0.0, 0.0, 0.0, 0.0, 0.0, 0.0, 0.0, 0.0, 0.0, 1.741024371933227E9, 0.0, 2025-03-03 11:52:51.933
192.0, -28761.844785433386, 3700.621867254003, -47283.97545623487, -30975.06981790898, -187500.02235174447, -31056.877202615407, -69813.37157647271, -60283.817086674826, 0.012, 0.872, -0.47000000000000003, 192.0, 0.0, 0.0, 0.0, 0.0, 0.0, 0.0, 0.0, 0.0, 0.0, 1.741024371933279E9, 0.0, 2025-03-03 11:52:51.933
193.0, -28785.045896177995, 3624.737694828236, -47278.18635442095, -30972.633477763353, -187500.02235174447, -31045.790737365573, -69804.4755821795, -60271.65773769114, 0.012, 0.872, -0.47000000000000003, 192.0, 0.0, 0.0, 0.0, 0.0, 0.0, 0.0, 0.0, 0.0, 0.0, 1.741024371933313E9, 0.0, 2025-03-03 11:52:51.933
194.0, -28745.617418958835, 3650.7774771186687, -47261.802525735206, -30955.31087581049, -187500.02235174447, -31040.403966951846, -69787.73412558247, -60256.7714758839, 0.012, 0.872, -0.47000000000000003, 192.0, 0.0, 0.0, 0.0, 0.0, 0.0, 0.0, 0.0, 0.0, 0.0, 1.741024371933343E9, 0.0, 2025-03-03 11:52:51.933
195.0, -28697.29294744646, 3750.8685887895335, -47259.902627456504, -30950.706416452696, -187500.02235174447, -31047.310655988535, -69772.55729109733, -60249.8200833583, 0.012, 0.872, -0.47000000000000003, 192.0, 0.0, 0.0, 0.0, 0.0, 0.0, 0.0, 0.0, 0.0, 0.0, 1.741024371933367E9, 0.0, 2025-03-03 11:52:51.933
196.0, -28747.36085502635, 3723.68886753188, -47270.89968572852, -30968.386646316845, -187500.02235174447, -31050.216382767725, -69782.07913423529, -60257.106752050735, 0.012, 0.872, -0.47000000000000003, 192.0, 0.0, 0.0, 0.0, 0.0, 0.0, 0.0, 0.0, 0.0, 0.0, 1.741024371993272E9, 0.0, 2025-03-03 11:52:51.993
197.0, -28776.015791418053, 3651.045698052132, -47269.37976710556, -30961.4576055357, -187500.02235174447, -31030.792716836062, -69784.0237360029, -60248.83660660227, 0.006, 0.87, -0.464, 192.0, 0.0, 48.0, 27.0, 48.0, 241.0, 128.0, 0.0, 0.0, 0.0, 1.74102437199341E9, 0.0, 2025-03-03 11:52:51.993
198.0, -28750.534802739003, 3667.4965819712384, -47269.625636294564, -30958.931858412252, -187500.02235174447, -31042.348568719455, -69781.38623015716, -60275.412830759626, 0.006, 0.87, -0.464, 192.0, 0.0, 0.0, 0.0, 0.0, 0.0, 0.0, 0.0, 0.0, 0.0, 1.741024371993437E9, 0.0, 2025-03-03 11:52:51.993
199.0, -28676.036438469466, 3767.9676732978432, -47250.179618618444, -30953.858012420897, -187500.02235174447, -31040.6274843964, -69774.92657600959, -60284.04060411938, 0.006, 0.87, -0.464, 192.0, 0.0, 0.0, 0.0, 0.0, 0.0, 0.0, 0.0, 0.0, 0.0, 1.741024371993454E9, 0.0, 2025-03-03 11:52:51.993
200.0, -28724.8302966154, 3744.4536381308603, -47265.91524671498, -30965.749140471118, -187500.02235174447, -31029.697481357754, -69781.63209934617, -60278.83264766129, 0.006, 0.87, -0.464, 192.0, 0.0, 0.0, 0.0, 0.0, 0.0, 0.0, 0.0, 0.0, 0.0, 1.74102437199347E9, 0.0, 2025-03-03 11:52:51.993
201.0, -28755.094558607885, 3666.960140104311, -47269.24565663882, -30966.374989315867, -187500.02235174447, -31029.38455693538, -69778.14522721115, -60275.21166505953, 0.006, 0.87, -0.464, 192.0, 0.0, 0.0, 0.0, 0.0, 0.0, 0.0, 0.0, 0.0, 0.0, 1.741024371993486E9, 0.0, 2025-03-03 11:52:51.993
202.0, -28748.903125393765, 3668.1224308159867, -47270.09502292812, -30956.920201411274, -187500.02235174447, -31030.658606369332, -69775.75359055444, -60282.207761074045, 0.006, 0.87, -0.464, 192.0, 0.0, 0.0, 0.0, 0.0, 0.0, 0.0, 0.0, 0.0, 0.0, 1.741024371993503E9, 0.0, 2025-03-03 11:52:51.993
203.0, -28679.9703454936, 3794.074510821642, -47266.78696474874, -30941.296332037015, -187500.02235174447, -31034.368995948913, -69762.72252353698, -60302.36903457273, 0.006, 0.87, -0.464, 192.0, 0.0, 0.0, 0.0, 0.0, 0.0, 0.0, 0.0, 0.0, 0.0, 1.741024371993518E9, 0.0, 2025-03-03 11:52:51.993
204.0, -28708.468819674115, 3827.3115548266837, -47275.705310786405, -30961.54701251352, -187500.02235174447, -31043.66732164232, -69779.73220106748, -60317.568220802335, 0.006, 0.87, -0.464, 192.0, 0.0, 0.0, 0.0, 0.0, 0.0, 0.0, 0.0, 0.0, 0.0, 1.741024371993534E9, 0.0, 2025-03-03 11:52:51.993
205.0, -28760.257811577063, 3733.0095449697433, -47267.36811010458, -30974.868652208886, -187500.02235174447, -31039.66635938482, -69790.88572155067, -60316.47298532403, 0.006, 0.87, -0.464, 192.0, 0.0, 0.0, 0.0, 0.0, 0.0, 0.0, 0.0, 0.0, 0.0, 1.74102437199355E9, 0.0, 2025-03-03 11:52:51.993
206.0, -28729.837087373387, 3712.8482714710563, -47260.41671757898, -30964.36333231489, -187500.02235174447, -31036.023025038605, -69776.53590161036, -60309.521592798425, 0.006, 0.87, -0.464, 192.0, 0.0, 0.0, 0.0, 0.0, 0.0, 0.0, 0.0, 0.0, 0.0, 1.741024371993566E9, 0.0, 2025-03-03 11:52:51.993
207.0, -28667.47572034308, 3808.5807929731363, -47249.59847326261, -30947.59952397341, -187500.02235174447, -31025.070670255504, -69753.11127342121, -60284.420583775114, 0.008, 0.864, -0.464, 192.0, 0.0, 64.0, 27.0, 0.0, 241.0, 128.0, 0.0, 0.0, 0.0, 1.741024371993614E9, 0.0, 2025-03-03 11:52:51.993
208.0, -28683.278403672983, 3849.9315202154544, -47241.21656909187, -30947.97950362915, -187500.02235174447, -31018.007519007628, -69741.28720060435, -60262.627632931195, 0.008, 0.864, -0.464, 192.0, 0.0, 0.0, 0.0, 0.0, 0.0, 0.0, 0.0, 0.0, 0.0, 1.741024371993636E9, 0.0, 2025-03-03 11:52:51.993
209.0, -28739.001302600063, 3758.3117196931507, -47236.88033066754, -30956.78609094454, -187500.02235174447, -31017.068745740504, -69749.02090418589, -60265.86863587721, 0.008, 0.864, -0.464, 192.0, 0.0, 0.0, 0.0, 0.0, 0.0, 0.0, 0.0, 0.0, 0.0, 1.741024371993655E9, 0.0, 2025-03-03 11:52:51.993
210.0, -28734.21802928663, 3711.7977394816567, -47237.752048701295, -30960.340018312934, -187500.02235174447, -31037.94527506176, -69768.53397709537, -60279.79377267287, 0.008, 0.864, -0.464, 192.0, 0.0, 0.0, 0.0, 0.0, 0.0, 0.0, 0.0, 0.0, 0.0, 1.741024371993671E9, 0.0, 2025-03-03 11:52:51.993
211.0, -28686.117075218808, 3773.7791268562232, -47241.30597606969, -30954.863840921385, -187500.02235174447, -31044.71785363172, -69765.69530554954, -60287.32631055431, 0.008, 0.864, -0.464, 192.0, 0.0, 0.0, 0.0, 0.0, 0.0, 0.0, 0.0, 0.0, 0.0, 1.741024372053407E9, 0.0, 2025-03-03 11:52:52.053
212.0, -28678.852758270834, 3843.293052112228, -47247.944444172914, -30957.188422344738, -187500.02235174447, -31048.830574611497, -69761.31436363631, -60292.84719143477, 0.008, 0.864, -0.464, 192.0, 0.0, 0.0, 0.0, 0.0, 0.0, 0.0, 0.0, 0.0, 0.0, 1.741024372053432E9, 0.0, 2025-03-03 11:52:52.053
213.0, -28743.091671835384, 3757.954091781866, -47244.792848204714, -30969.99597191763, -187500.02235174447, -31043.53321117559, -69769.00336372893, -60292.64602573467, 0.008, 0.864, -0.464, 192.0, 0.0, 0.0, 0.0, 0.0, 0.0, 0.0, 0.0, 0.0, 0.0, 1.74102437205345E9, 0.0, 2025-03-03 11:52:52.053
214.0, -28728.272465261518, 3732.763675780735, -47247.40800230599, -30960.65294273531, -187500.02235174447, -31047.690635644274, -69764.73418053797, -60303.307807839854, 0.008, 0.864, -0.464, 192.0, 0.0, 0.0, 0.0, 0.0, 0.0, 0.0, 0.0, 0.0, 0.0, 1.741024372053466E9, 0.0, 2025-03-03 11:52:52.053
215.0, -28682.9207757617, 3801.7635109142675, -47251.99010991932, -30959.960038657195, -187500.02235174447, -31052.853888613452, -69770.3668201407, -60319.870450481234, 0.008, 0.864, -0.464, 192.0, 0.0, 0.0, 0.0, 0.0, 0.0, 0.0, 0.0, 0.0, 0.0, 1.741024372053482E9, 0.0, 2025-03-03 11:52:52.053
216.0, -28676.215252425107, 3889.2929422012503, -47264.55179030321, -30972.521719041077, -187500.02235174447, -31061.01227533964, -69783.75551506944, -60337.05894196736, 0.008, 0.864, -0.464, 192.0, 0.0, 0.0, 0.0, 0.0, 0.0, 0.0, 0.0, 0.0, 0.0, 1.741024372053499E9, 0.0, 2025-03-03 11:52:52.053
217.0, -28735.603837442857, 3846.8693312250775, -47255.87931345455, -30975.13687314235, -187500.02235174447, -31056.273705515112, -69786.43772440407, -60334.33202914382, 0.006, 0.87, -0.466, 192.0, 0.0, 48.0, 27.0, 48.0, 241.0, 112.0, 0.0, 0.0, 0.0, 1.741024372053515E9, 0.0, 2025-03-03 11:52:52.053
218.0, -28778.630945519322, 3771.633359388514, -47253.51002854229, -30974.958059186705, -187500.02235174447, -31043.846135597963, -69791.80214307334, -60331.11337794225, 0.006, 0.87, -0.466, 192.0, 0.0, 0.0, 0.0, 0.0, 0.0, 0.0, 0.0, 0.0, 0.0, 1.741024372053533E9, 0.0, 2025-03-03 11:52:52.053
219.0, -28714.883770332788, 3783.7703566277455, -47235.69568821141, -30960.116500868382, -187500.02235174447, -31034.48075467119, -69772.44553237504, -60323.022046449434, 0.006, 0.87, -0.466, 192.0, 0.0, 0.0, 0.0, 0.0, 0.0, 0.0, 0.0, 0.0, 0.0, 1.741024372053549E9, 0.0, 2025-03-03 11:52:52.053
220.0, -28657.730359760568, 3888.0188927672975, -47250.470191296365, -30960.764701457585, -187500.02235174447, -31050.641065912376, -69770.85855851872, -60337.148348945186, 0.006, 0.87, -0.466, 192.0, 0.0, 0.0, 0.0, 0.0, 0.0, 0.0, 0.0, 0.0, 0.0, 1.741024372053564E9, 0.0, 2025-03-03 11:52:52.053
221.0, -28720.06937504642, 3868.595226835636, -47269.84915373912, -30983.876405224375, -187500.02235174447, -31063.96270560774, -69779.30751792283, -60346.42432289414, 0.006, 0.87, -0.466, 192.0, 0.0, 0.0, 0.0, 0.0, 0.0, 0.0, 0.0, 0.0, 0.0, 1.74102437205358E9, 0.0, 2025-03-03 11:52:52.053
222.0, -28751.69709345068, 3791.727577653835, -47268.03866243824, -30994.42642860728, -187500.02235174447, -31060.20761253925, -69783.8225703028, -60343.0939129703, 0.006, 0.87, -0.466, 192.0, 0.0, 0.0, 0.0, 0.0, 0.0, 0.0, 0.0, 0.0, 0.0, 1.741024372053612E9, 0.0, 2025-03-03 11:52:52.053
223.0, -28723.198619270162, 3800.4224062469493, -47266.65285428201, -30986.446855836733, -187500.02235174447, -31055.91607760383, -69780.40275340114, -60342.736285059014, 0.006, 0.87, -0.466, 192.0, 0.0, 0.0, 0.0, 0.0, 0.0, 0.0, 0.0, 0.0, 0.0, 1.741024372053636E9, 0.0, 2025-03-03 11:52:52.053
224.0, -28673.57774657938, 3896.4455004269485, -47261.9589879464, -30971.158262629306, -187500.02235174447, -31042.5273826751, -69769.56215734032, -60332.47683435403, 0.006, 0.87, -0.466, 192.0, 0.0, 0.0, 0.0, 0.0, 0.0, 0.0, 0.0, 0.0, 0.0, 1.741024372053655E9, 0.0, 2025-03-03 11:52:52.053
225.0, -28706.390107439773, 3896.981942293876, -47266.74226125983, -30972.946402185727, -187500.02235174447, -31039.42049019581, -69764.35420088223, -60325.8383662508, 0.006, 0.87, -0.466, 192.0, 0.0, 0.0, 0.0, 0.0, 0.0, 0.0, 0.0, 0.0, 0.0, 1.741024372053671E9, 0.0, 2025-03-03 11:52:52.053
226.0, -28752.16648008424, 3817.141511099519, -47273.470136340875, -30982.870576723886, -187500.02235174447, -31053.63619966939, -69771.19383468555, -60334.8908227552, 0.006, 0.87, -0.466, 192.0, 0.0, 0.0, 0.0, 0.0, 0.0, 0.0, 0.0, 0.0, 0.0, 1.741024372112829E9, 0.0, 2025-03-03 11:52:52.112
227.0, -28726.59608442737, 3827.3562583155945, -47278.991017221335, -30979.42840807777, -187500.02235174447, -31064.09681607447, -69765.91882299409, -60340.009372235465, 0.01, 0.88, -0.468, 192.0, 0.0, 80.0, 27.0, 128.0, 241.0, 96.0, 0.0, 0.0, 0.0, 1.74102437211285E9, 0.0, 2025-03-03 11:52:52.112
228.0, -28679.992697238053, 3920.58538443868, -47268.440993838434, -30973.684009752753, -187500.02235174447, -31057.90538286035, -69762.72252353698, -60339.62939257973, 0.01, 0.88, -0.468, 192.0, 0.0, 0.0, 0.0, 0.0, 0.0, 0.0, 0.0, 0.0, 0.0, 1.741024372112868E9, 0.0, 2025-03-03 11:52:52.112
229.0, -28705.093706261363, 3938.6008904696573, -47267.61397929359, -30980.23307087816, -187500.02235174447, -31058.933563105296, -69766.49996834993, -60336.097816955786, 0.01, 0.88, -0.468, 192.0, 0.0, 0.0, 0.0, 0.0, 0.0, 0.0, 0.0, 0.0, 0.0, 1.741024372112884E9, 0.0, 2025-03-03 11:52:52.112
230.0, -28758.089692364898, 3841.907243955999, -47266.25052288181, -30992.75004777313, -187500.02235174447, -31060.67699917281, -69781.90032027964, -60335.539023344405, 0.01, 0.88, -0.468, 192.0, 0.0, 0.0, 0.0, 0.0, 0.0, 0.0, 0.0, 0.0, 0.0, 1.741024372112901E9, 0.0, 2025-03-03 11:52:52.112
231.0, -28727.423098972216, 3817.7673599442674, -47256.840438466126, -30984.591661046943, -187500.02235174447, -31062.375731751414, -69758.25217464592, -60333.303848898875, 0.01, 0.88, -0.468, 192.0, 0.0, 0.0, 0.0, 0.0, 0.0, 0.0, 0.0, 0.0, 0.0, 1.741024372112917E9, 0.0, 2025-03-03 11:52:52.112
232.0, -28662.223060396085, 3918.685486159979, -47254.940540187425, -30976.880309209864, -187500.02235174447, -31056.497222959668, -69744.61761052819, -60322.105624926764, 0.01, 0.88, -0.468, 192.0, 0.0, 0.0, 0.0, 0.0, 0.0, 0.0, 0.0, 0.0, 0.0, 1.741024372112933E9, 0.0, 2025-03-03 11:52:52.112
233.0, -28682.272575172494, 3958.6951087349785, -47260.39436583452, -30986.98329770366, -187500.02235174447, -31056.34076074848, -69763.81775901529, -60332.119206442745, 0.01, 0.88, -0.468, 192.0, 0.0, 0.0, 0.0, 0.0, 0.0, 0.0, 0.0, 0.0, 0.0, 1.74102437211295E9, 0.0, 2025-03-03 11:52:52.112
234.0, -28736.54261070998, 3873.713776315901, -47261.869580968574, -30992.906509984317, -187500.02235174447, -31057.90538286035, -69765.717657294, -60333.97440123253, 0.01, 0.88, -0.468, 192.0, 0.0, 0.0, 0.0, 0.0, 0.0, 0.0, 0.0, 0.0, 0.0, 1.741024372112966E9, 0.0, 2025-03-03 11:52:52.112
235.0, -28735.156802553753, 3824.2493658363064, -47257.93567394444, -30989.50904482711, -187500.02235174447, -31054.507917703144, -69759.28035489087, -60331.38159887572, 0.01, 0.88, -0.468, 192.0, 0.0, 0.0, 0.0, 0.0, 0.0, 0.0, 0.0, 0.0, 0.0, 1.741024372112983E9, 0.0, 2025-03-03 11:52:52.112
236.0, -28689.179264209186, 3867.9246745019764, -47252.97358667536, -30983.585832546454, -187500.02235174447, -31053.01035082464, -69747.29981986282, -60331.5380610869, 0.01, 0.88, -0.468, 192.0, 0.0, 0.0, 0.0, 0.0, 0.0, 0.0, 0.0, 0.0, 0.0, 1.741024372112998E9, 0.0, 2025-03-03 11:52:52.112
237.0, -28660.09964467283, 3964.9312454380092, -47269.46917408337, -30986.089227925448, -187500.02235174447, -31061.258144528645, -69738.3591220807, -60336.880128011726, 0.014, 0.886, -0.468, 192.0, 0.0, 112.0, 27.0, 176.0, 241.0, 96.0, 0.0, 0.0, 0.0, 1.741024372113015E9, 0.0, 2025-03-03 11:52:52.113
238.0, -28739.40363400026, 3888.3541689341273, -47273.179563662954, -31009.290338670056, -187500.02235174447, -31057.435996226788, -69758.65450604612, -60330.912212242154, 0.014, 0.886, -0.468, 192.0, 0.0, 0.0, 0.0, 0.0, 0.0, 0.0, 0.0, 0.0, 0.0, 1.741024372113053E9, 0.0, 2025-03-03 11:52:52.113
239.0, -28750.177174827717, 3837.526302042759, -47271.994921206824, -31006.026983979584, -187500.02235174447, -31064.38738875239, -69756.59814555623, -60334.15321518818, 0.014, 0.886, -0.468, 192.0, 0.0, 0.0, 0.0, 0.0, 0.0, 0.0, 0.0, 0.0, 0.0, 1.741024372113072E9, 0.0, 2025-03-03 11:52:52.113
240.0, -28713.989700554575, 3869.891628014044, -47269.893857228024, -31004.372954889892, -187500.02235174447, -31064.566202708033, -69758.81096825731, -60337.39421813419, 0.014, 0.886, -0.468, 192.0, 0.0, 0.0, 0.0, 0.0, 0.0, 0.0, 0.0, 0.0, 0.0, 1.741024372113089E9, 0.0, 2025-03-03 11:52:52.113
241.0, -28671.834310511866, 3968.351062339671, -47269.82680199466, -31001.4672281107, -187500.02235174447, -31060.252316028156, -69760.30853513582, -60341.30577341387, 0.014, 0.886, -0.468, 192.0, 0.0, 0.0, 0.0, 0.0, 0.0, 0.0, 0.0, 0.0, 0.0, 1.741024372172734E9, 0.0, 2025-03-03 11:52:52.172
242.0, -28724.003282070553, 3912.1587767790293, -47260.08144141215, -31001.444876366244, -187500.02235174447, -31040.918057074316, -69755.34644786673, -60331.068674453345, 0.014, 0.886, -0.468, 192.0, 0.0, 0.0, 0.0, 0.0, 0.0, 0.0, 0.0, 0.0, 0.0, 1.741024372172761E9, 0.0, 2025-03-03 11:52:52.172
243.0, -28746.265619548038, 3840.923767199966, -47257.71215649988, -30992.75004777313, -187500.02235174447, -31042.035644297084, -69734.20169761202, -60325.190165661596, 0.014, 0.886, -0.468, 192.0, 0.0, 0.0, 0.0, 0.0, 0.0, 0.0, 0.0, 0.0, 0.0, 1.741024372172777E9, 0.0, 2025-03-03 11:52:52.172
244.0, -28706.948901051153, 3864.1919331779404, -47255.32051984317, -30982.915280212794, -187500.02235174447, -31051.691597901776, -69731.87711618867, -60333.34855238778, 0.014, 0.886, -0.468, 192.0, 0.0, 0.0, 0.0, 0.0, 0.0, 0.0, 0.0, 0.0, 0.0, 1.741024372172793E9, 0.0, 2025-03-03 11:52:52.172
245.0, -28655.04815042593, 3973.0896321641962, -47262.62954028005, -30981.954155201216, -187500.02235174447, -31069.796510910575, -69741.37660758218, -60351.4981688855, 0.014, 0.886, -0.468, 192.0, 0.0, 0.0, 0.0, 0.0, 0.0, 0.0, 0.0, 0.0, 0.0, 1.741024372172809E9, 0.0, 2025-03-03 11:52:52.172
246.0, -28708.021784785007, 3945.1499515950627, -47275.54884857522, -30999.723792043187, -187500.02235174447, -31072.97045862323, -69766.27645090538, -60362.20465447959, 0.014, 0.886, -0.468, 192.0, 0.0, 0.0, 0.0, 0.0, 0.0, 0.0, 0.0, 0.0, 0.0, 1.741024372172826E9, 0.0, 2025-03-03 11:52:52.172
247.0, -28747.494965493082, 3861.397965121027, -47280.801508522214, -31008.463324125212, -187500.02235174447, -31068.38835100989, -69792.89737855166, -60380.71189888858, 0.014, 0.88, -0.47000000000000003, 192.0, 0.0, 112.0, 27.0, 128.0, 241.0, 80.0, 0.0, 0.0, 0.0, 1.741024372172842E9, 0.0, 2025-03-03 11:52:52.172
248.0, -28715.889598833277, 3864.9295407449654, -47268.932732216446, -30994.940518729753, -187500.02235174447, -31061.81693814003, -69788.33762268277, -60364.37277369175, 0.014, 0.88, -0.47000000000000003, 192.0, 0.0, 0.0, 0.0, 0.0, 0.0, 0.0, 0.0, 0.0, 0.0, 1.74102437217286E9, 0.0, 2025-03-03 11:52:52.172
249.0, -28668.928583732675, 3943.4735707609143, -47254.06882215367, -30980.166015644794, -187500.02235174447, -31046.774214121608, -69759.05683744632, -60340.143482702195, 0.014, 0.88, -0.47000000000000003, 192.0, 0.0, 0.0, 0.0, 0.0, 0.0, 0.0, 0.0, 0.0, 0.0, 1.741024372172881E9, 0.0, 2025-03-03 11:52:52.172
250.0, -28685.71474381861, 3956.0128994003417, -47261.936636201935, -30983.630536035365, -187500.02235174447, -31063.62742944091, -69714.42040376907, -60351.38641016322, 0.014, 0.88, -0.47000000000000003, 192.0, 0.0, 0.0, 0.0, 0.0, 0.0, 0.0, 0.0, 0.0, 0.0, 1.741024372172897E9, 0.0, 2025-03-03 11:52:52.172
251.0, -28745.12568058082, 3867.0529564682197, -47271.01144445079, -31010.296167170545, -187500.02235174447, -31070.645877199877, -69719.58365673825, -60339.62939257973, 0.014, 0.88, -0.47000000000000003, 192.0, 0.0, 0.0, 0.0, 0.0, 0.0, 0.0, 0.0, 0.0, 0.0, 1.741024372172913E9, 0.0, 2025-03-03 11:52:52.172
252.0, -28721.276369247007, 3852.233749894351, -47258.2038948779, -31000.79667577704, -187500.02235174447, -31073.126920834417, -69691.35340349119, -60341.194014691595, 0.014, 0.88, -0.47000000000000003, 192.0, 0.0, 0.0, 0.0, 0.0, 0.0, 0.0, 0.0, 0.0, 0.0, 1.74102437217293E9, 0.0, 2025-03-03 11:52:52.172
253.0, -28662.96066796311, 3942.1548178380513, -47250.06785989617, -30986.04452443654, -187500.02235174447, -31078.29017380359, -69672.443827682, -60346.62548859424, 0.014, 0.88, -0.47000000000000003, 192.0, 0.0, 0.0, 0.0, 0.0, 0.0, 0.0, 0.0, 0.0, 0.0, 1.741024372172973E9, 0.0, 2025-03-03 11:52:52.172
254.0, -28693.023764255497, 3952.950710409965, -47256.773383232765, -30998.159169931314, -187500.02235174447, -31076.032647613603, -69692.42628722504, -60343.7421135595, 0.014, 0.88, -0.47000000000000003, 192.0, 0.0, 0.0, 0.0, 0.0, 0.0, 0.0, 0.0, 0.0, 0.0, 1.741024372172998E9, 0.0, 2025-03-03 11:52:52.172
255.0, -28739.96242761164, 3862.2473314103286, -47266.406985092995, -31007.412792135812, -187500.02235174447, -31079.631278470908, -69728.68081673156, -60352.81692180836, 0.014, 0.88, -0.47000000000000003, 192.0, 0.0, 0.0, 0.0, 0.0, 0.0, 0.0, 0.0, 0.0, 0.0, 1.741024372173013E9, 0.0, 2025-03-03 11:52:52.173
0.0, -28724.249151259562, 3832.720676984868, -47266.898723471015, -30998.18152167577, -187500.02235174447, -31074.222156312724, -69752.93245946556, -60359.14246548921, 0.014, 0.88, -0.47000000000000003, 192.0, 0.0, 0.0, 0.0, 0.0, 0.0, 0.0, 0.0, 0.0, 0.0, 1.74102437223288E9, 0.0, 2025-03-03 11:52:52.232
1.0, -28647.04622591093, 3917.9255268484985, -47251.319557585666, -30973.125216141372, -187500.02235174447, -31060.028798583604, -69744.08116866126, -60342.91509901466, 0.012, 0.878, -0.468, 192.0, 0.0, 96.0, 27.0, 112.0, 241.0, 96.0, 0.0, 0.0, 0.0, 1.741024372232903E9, 0.0, 2025-03-03 11:52:52.232
2.0, -28648.90142070072, 3972.173210641529, -47260.72964200135, -30978.60139353292, -187500.02235174447, -31061.280496273102, -69751.2113751425, -60347.98894500601, 0.012, 0.878, -0.468, 192.0, 0.0, 0.0, 0.0, 0.0, 0.0, 0.0, 0.0, 0.0, 0.0, 1.741024372232923E9, 0.0, 2025-03-03 11:52:52.232
3.0, -28707.261825473528, 3888.6447416120463, -47259.79086873423, -30986.871538981384, -187500.02235174447, -31063.158042807347, -69751.65841003161, -60348.056000239376, 0.012, 0.878, -0.468, 192.0, 0.0, 0.0, 0.0, 0.0, 0.0, 0.0, 0.0, 0.0, 0.0, 1.741024372232939E9, 0.0, 2025-03-03 11:52:52.232
4.0, -28705.652499872747, 3859.453363353415, -47260.1037931566, -30987.139759914848, -187500.02235174447, -31069.170662065826, -69743.23180237196, -60348.056000239376, 0.012, 0.878, -0.468, 192.0, 0.0, 0.0, 0.0, 0.0, 0.0, 0.0, 0.0, 0.0, 0.0, 1.741024372232955E9, 0.0, 2025-03-03 11:52:52.232
5.0, -28659.00440919452, 3933.9964311118642, -47259.32148210067, -30979.5625185445, -187500.02235174447, -31069.170662065826, -69722.28821781733, -60349.08418048432, 0.012, 0.878, -0.468, 192.0, 0.0, 0.0, 0.0, 0.0, 0.0, 0.0, 0.0, 0.0, 0.0, 1.741024372232971E9, 0.0, 2025-03-03 11:52:52.232
6.0, -28648.879068956267, 4012.4287024055366, -47255.20876112089, -30985.32926861397, -187500.02235174447, -31075.20563306876, -69721.32709280576, -60350.31352642936, 0.012, 0.878, -0.468, 192.0, 0.0, 0.0, 0.0, 0.0, 0.0, 0.0, 0.0, 0.0, 0.0, 1.741024372232986E9, 0.0, 2025-03-03 11:52:52.232
7.0, -28713.07327903191, 3945.0605446172412, -47257.10865939959, -30997.600376319933, -187500.02235174447, -31074.333915035, -69730.84893594372, -60361.80232307939, 0.012, 0.878, -0.468, 192.0, 0.0, 0.0, 0.0, 0.0, 0.0, 0.0, 0.0, 0.0, 0.0, 1.741024372233002E9, 0.0, 2025-03-03 11:52:52.233
8.0, -28728.384223983794, 3878.3182356736943, -47251.096040141114, -30992.839454750952, -187500.02235174447, -31070.91409813334, -69740.4601860595, -60354.85093055379, 0.012, 0.878, -0.468, 192.0, 0.0, 0.0, 0.0, 0.0, 0.0, 0.0, 0.0, 0.0, 0.0, 1.741024372233018E9, 0.0, 2025-03-03 11:52:52.233
9.0, -28677.310487903418, 3920.9653640944202, -47255.96872043237, -30989.017306449095, -187500.02235174447, -31086.58267099651, -69733.06175864479, -60367.61377663777, 0.012, 0.878, -0.468, 192.0, 0.0, 0.0, 0.0, 0.0, 0.0, 0.0, 0.0, 0.0, 0.0, 1.741024372233033E9, 0.0, 2025-03-03 11:52:52.233
10.0, -28639.938371174143, 4016.3402576852154, -47261.22138037937, -31002.00366997763, -187500.02235174447, -31092.550586766076, -69720.03069162735, -60372.173532506655, 0.012, 0.878, -0.468, 192.0, 0.0, 0.0, 0.0, 0.0, 0.0, 0.0, 0.0, 0.0, 0.0, 1.741024372233049E9, 0.0, 2025-03-03 11:52:52.233
11.0, -28697.337650935373, 3962.7631262258446, -47265.11058391459, -31011.23494043767, -187500.02235174447, -31086.15798785186, -69733.68760748954, -60379.437849454625, 0.008, 0.874, -0.468, 192.0, 0.0, 64.0, 27.0, 80.0, 241.0, 96.0, 0.0, 0.0, 0.0, 1.741024372233065E9, 0.0, 2025-03-03 11:52:52.233
12.0, -28732.809869385943, 3873.9596455049095, -47264.97647344786, -31021.18146672028, -187500.02235174447, -31091.72357222123, -69740.43783431505, -60400.984931109546, 0.008, 0.874, -0.468, 192.0, 0.0, 0.0, 0.0, 0.0, 0.0, 0.0, 0.0, 0.0, 0.0, 1.741024372233095E9, 0.0, 2025-03-03 11:52:52.233
13.0, -28694.14135147826, 3892.623352125091, -47259.74616524532, -31006.630481079876, -187500.02235174447, -31085.845063429486, -69729.30666557631, -60373.0005470515, 0.008, 0.874, -0.468, 192.0, 0.0, 0.0, 0.0, 0.0, 0.0, 0.0, 0.0, 0.0, 0.0, 1.741024372233114E9, 0.0, 2025-03-03 11:52:52.233
14.0, -28638.261990339994, 4009.545327370802, -47257.5556942887, -30993.532358829067, -187500.02235174447, -31075.943240635785, -69722.44468002852, -60369.26780572746, 0.008, 0.874, -0.468, 192.0, 0.0, 0.0, 0.0, 0.0, 0.0, 0.0, 0.0, 0.0, 0.0, 1.741024372233133E9, 0.0, 2025-03-03 11:52:52.233
15.0, -28701.673889359703, 3965.870018705132, -47249.59847326261, -31007.725716558187, -187500.02235174447, -31063.09098757398, -69734.5593255233, -60374.967500563565, 0.008, 0.874, -0.468, 192.0, 0.0, 0.0, 0.0, 0.0, 0.0, 0.0, 0.0, 0.0, 0.0, 1.741024372293697E9, 0.0, 2025-03-03 11:52:52.293
16.0, -28741.83997414589, 3857.888741241544, -47241.037755136225, -31006.69753631324, -187500.02235174447, -31057.994789838172, -69734.51462203439, -60382.36592797827, 0.008, 0.874, -0.468, 192.0, 0.0, 0.0, 0.0, 0.0, 0.0, 0.0, 0.0, 0.0, 0.0, 1.741024372293777E9, 0.0, 2025-03-03 11:52:52.293
17.0, -28701.76329633752, 3865.711851800901, -47245.82102844966, -30999.053239709527, -187500.02235174447, -31064.96853410823, -69724.83631668524, -60380.778954121946, 0.008, 0.874, -0.468, 192.0, 0.0, 0.0, 0.0, 0.0, 0.0, 0.0, 0.0, 0.0, 0.0, 1.741024372293796E9, 0.0, 2025-03-03 11:52:52.293
18.0, -28644.47577529857, 3980.26454213435, -47252.504200041796, -30994.582890818467, -187500.02235174447, -31072.05403710056, -69722.51173526188, -60386.97038733606, 0.008, 0.874, -0.468, 192.0, 0.0, 0.0, 0.0, 0.0, 0.0, 0.0, 0.0, 0.0, 0.0, 1.741024372293816E9, 0.0, 2025-03-03 11:52:52.293
19.0, -28678.003391981532, 3995.2178591749503, -47255.097002398616, -31009.37974564788, -187500.02235174447, -31076.569089480534, -69726.93738066404, -60378.52142793196, 0.008, 0.874, -0.468, 192.0, 0.0, 0.0, 0.0, 0.0, 0.0, 0.0, 0.0, 0.0, 0.0, 1.741024372293835E9, 0.0, 2025-03-03 11:52:52.293
20.0, -28734.039215330988, 3892.4668899139037, -47247.765630217276, -31025.629463866888, -187500.02235174447, -31072.54577547858, -69737.82268021378, -60359.63420386722, 0.008, 0.874, -0.468, 192.0, 0.0, 0.0, 0.0, 0.0, 0.0, 0.0, 0.0, 0.0, 0.0, 1.741024372293855E9, 0.0, 2025-03-03 11:52:52.293
21.0, -28711.463953431125, 3870.2492559253287, -47243.02706039275, -31013.268949183104, -187500.02235174447, -31067.449577742766, -69716.78968868133, -60346.4913781275, 0.004, 0.874, -0.47200000000000003, 192.0, 0.0, 32.0, 27.0, 80.0, 241.0, 64.0, 0.0, 0.0, 0.0, 1.741024372293875E9, 0.0, 2025-03-03 11:52:52.293
22.0, -28656.992752193542, 3955.4317540445036, -47242.378859803546, -31000.148475187838, -187500.02235174447, -31064.812071897042, -69714.08512760224, -60342.93745075911, 0.004, 0.874, -0.47200000000000003, 192.0, 0.0, 0.0, 0.0, 0.0, 0.0, 0.0, 0.0, 0.0, 0.0, 1.741024372293896E9, 0.0, 2025-03-03 11:52:52.293
23.0, -28677.57870883688, 3985.6289608036236, -47254.35939483159, -31013.179542205282, -187500.02235174447, -31080.994734882683, -69722.42232828407, -60353.55452937538, 0.004, 0.874, -0.47200000000000003, 192.0, 0.0, 0.0, 0.0, 0.0, 0.0, 0.0, 0.0, 0.0, 0.0, 1.741024372293916E9, 0.0, 2025-03-03 11:52:52.293
24.0, -28735.335616509394, 3896.490203915859, -47262.003691435304, -31029.071632513005, -187500.02235174447, -31091.1871303543, -69744.57290703928, -60363.165779491166, 0.004, 0.874, -0.47200000000000003, 192.0, 0.0, 0.0, 0.0, 0.0, 0.0, 0.0, 0.0, 0.0, 0.0, 1.741024372293936E9, 0.0, 2025-03-03 11:52:52.293
25.0, -28720.49405819107, 3860.839171509644, -47257.08630765514, -31020.265045197615, -187500.02235174447, -31088.52727276412, -69759.07918919077, -60369.42426793865, 0.004, 0.874, -0.47200000000000003, 192.0, 0.0, 0.0, 0.0, 0.0, 0.0, 0.0, 0.0, 0.0, 0.0, 1.741024372293956E9, 0.0, 2025-03-03 11:52:52.293
26.0, -28657.797414993933, 3935.4045910125487, -47251.945406430415, -31001.04254496605, -187500.02235174447, -31083.945165150784, -69745.7575494954, -60366.6973551151, 0.004, 0.874, -0.47200000000000003, 192.0, 0.0, 0.0, 0.0, 0.0, 0.0, 0.0, 0.0, 0.0, 0.0, 1.741024372293975E9, 0.0, 2025-03-03 11:52:52.293
27.0, -28661.574859806882, 3991.708635295467, -47256.706327999396, -31004.574120589987, -187500.02235174447, -31084.10162736197, -69737.86738370269, -60361.80232307939, 0.004, 0.874, -0.47200000000000003, 192.0, 0.0, 0.0, 0.0, 0.0, 0.0, 0.0, 0.0, 0.0, 0.0, 1.741024372293998E9, 0.0, 2025-03-03 11:52:52.293
28.0, -28726.953712338654, 3899.4182824395043, -47257.533342544244, -31017.493428885155, -187500.02235174447, -31084.05692387306, -69739.4096540701, -60356.77318057694, 0.004, 0.874, -0.47200000000000003, 192.0, 0.0, 0.0, 0.0, 0.0, 0.0, 0.0, 0.0, 0.0, 0.0, 1.741024372294021E9, 0.0, 2025-03-03 11:52:52.294
29.0, -28721.186962269185, 3849.015098692787, -47257.26512161078, -31015.14649571735, -187500.02235174447, -31091.43299954331, -69733.88877318964, -60352.57105261935, 0.004, 0.874, -0.47200000000000003, 192.0, 0.0, 0.0, 0.0, 0.0, 0.0, 0.0, 0.0, 0.0, 0.0, 1.74102437229404E9, 0.0, 2025-03-03 11:52:52.294
30.0, -28663.58651680786, 3909.5659744222135, -47260.21555187888, -31004.998803734637, -187500.02235174447, -31100.463104303257, -69727.71969171998, -60355.18620672062, 0.004, 0.874, -0.47200000000000003, 192.0, 0.0, 0.0, 0.0, 0.0, 0.0, 0.0, 0.0, 0.0, 0.0, 1.741024372353368E9, 0.0, 2025-03-03 11:52:52.353
31.0, -28636.250333339016, 4006.349027913693, -47268.55275256071, -31009.893835770352, -187500.02235174447, -31109.381450340923, -69731.09480513273, -60359.455389911585, 0.01, 0.876, -0.47200000000000003, 192.0, 0.0, 80.0, 27.0, 96.0, 241.0, 64.0, 0.0, 0.0, 0.0, 1.741024372353405E9, 0.0, 2025-03-03 11:52:52.353
32.0, -28689.82746479839, 3950.1120388641407, -47266.474040326364, -31015.973510262196, -187500.02235174447, -31099.099647891482, -69733.73231097845, -60346.60313684978, 0.01, 0.876, -0.47200000000000003, 192.0, 0.0, 0.0, 0.0, 0.0, 0.0, 0.0, 0.0, 0.0, 0.0, 1.741024372353427E9, 0.0, 2025-03-03 11:52:52.353
33.0, -28700.28808120347, 3895.752596348834, -47269.84915373912, -31021.51674288711, -187500.02235174447, -31105.224025872234, -69728.27848533136, -60344.770293804446, 0.01, 0.876, -0.47200000000000003, 192.0, 0.0, 0.0, 0.0, 0.0, 0.0, 0.0, 0.0, 0.0, 0.0, 1.741024372353447E9, 0.0, 2025-03-03 11:52:52.353
34.0, -28671.253165156028, 3910.3706372226047, -47265.647025781516, -31019.639196352866, -187500.02235174447, -31102.564168282053, -69732.10063363322, -60333.23679366551, 0.01, 0.876, -0.47200000000000003, 192.0, 0.0, 0.0, 0.0, 0.0, 0.0, 0.0, 0.0, 0.0, 0.0, 1.741024372353466E9, 0.0, 2025-03-03 11:52:52.353
35.0, -28622.0569756099, 4000.7610917998663, -47267.681034526955, -31006.921053757796, -187500.02235174447, -31101.334822337012, -69722.86936317317, -60336.41074137816, 0.01, 0.876, -0.47200000000000003, 192.0, 0.0, 0.0, 0.0, 0.0, 0.0, 0.0, 0.0, 0.0, 0.0, 1.741024372353485E9, 0.0, 2025-03-03 11:52:52.353
36.0, -28677.601060581335, 3974.095460664685, -47279.661569555, -31023.461344654723, -187500.02235174447, -31113.717688765253, -69735.4086918126, -60346.06669498285, 0.01, 0.876, -0.47200000000000003, 192.0, 0.0, 0.0, 0.0, 0.0, 0.0, 0.0, 0.0, 0.0, 0.0, 1.741024372353501E9, 0.0, 2025-03-03 11:52:52.353
37.0, -28723.444488459172, 3882.363901420105, -47268.75391826081, -31028.244617968157, -187500.02235174447, -31096.260976345657, -69739.05202615882, -60301.765537472435, 0.01, 0.876, -0.47200000000000003, 192.0, 0.0, 0.0, 0.0, 0.0, 0.0, 0.0, 0.0, 0.0, 0.0, 1.741024372353517E9, 0.0, 2025-03-03 11:52:52.353
38.0, -28677.779874536976, 3910.840023856166, -47271.74905201782, -31009.782077048076, -187500.02235174447, -31087.29792681908, -69724.03165388486, -60291.573142000816, 0.01, 0.876, -0.47200000000000003, 192.0, 0.0, 0.0, 0.0, 0.0, 0.0, 0.0, 0.0, 0.0, 0.0, 1.741024372353533E9, 0.0, 2025-03-03 11:52:52.353
39.0, -28631.444708281128, 4015.826167562743, -47274.29715088572, -31006.80929503552, -187500.02235174447, -31084.034572128603, -69730.29014233233, -60292.02017688992, 0.01, 0.876, -0.47200000000000003, 192.0, 0.0, 0.0, 0.0, 0.0, 0.0, 0.0, 0.0, 0.0, 0.0, 1.741024372353549E9, 0.0, 2025-03-03 11:52:52.353
40.0, -28676.371714636294, 3983.0808619357185, -47268.15042116051, -31014.364184661412, -187500.02235174447, -31080.748865693673, -69741.48836630445, -60281.559560484835, 0.01, 0.876, -0.47200000000000003, 192.0, 0.0, 0.0, 0.0, 0.0, 0.0, 0.0, 0.0, 0.0, 0.0, 1.741024372353565E9, 0.0, 2025-03-03 11:52:52.353
41.0, -28711.598063897858, 3904.760349364323, -47277.00171196481, -31027.127030745392, -187500.02235174447, -31095.255147845168, -69749.35618035271, -60287.28160706539, 0.01, 0.882, -0.468, 192.0, 0.0, 80.0, 27.0, 144.0, 241.0, 96.0, 0.0, 0.0, 0.0, 1.741024372353581E9, 0.0, 2025-03-03 11:52:52.353
42.0, -28676.706990803123, 3898.5689161502028, -47268.01631069378, -31023.975434777196, -187500.02235174447, -31091.701220476774, -69737.9120871916, -60274.47405749251, 0.01, 0.882, -0.468, 192.0, 0.0, 0.0, 0.0, 0.0, 0.0, 0.0, 0.0, 0.0, 0.0, 1.741024372353599E9, 0.0, 2025-03-03 11:52:52.353
43.0, -28614.56914121737, 3995.3072661527717, -47264.14945890301, -31013.067783483006, -187500.02235174447, -31092.30471757707, -69726.57975275276, -60272.46240049153, 0.01, 0.882, -0.468, 192.0, 0.0, 0.0, 0.0, 0.0, 0.0, 0.0, 0.0, 0.0, 0.0, 1.741024372353626E9, 0.0, 2025-03-03 11:52:52.353
44.0, -28636.295036827927, 4006.1925657025063, -47270.51970607277, -31022.43316440978, -187500.02235174447, -31096.126865878927, -69733.3076278338, -60262.56057769783, 0.01, 0.882, -0.468, 192.0, 0.0, 0.0, 0.0, 0.0, 0.0, 0.0, 0.0, 0.0, 0.0, 1.741024372353647E9, 0.0, 2025-03-03 11:52:52.353
45.0, -28677.824578025888, 3924.2063670404395, -47273.93952297444, -31026.255312711637, -187500.02235174447, -31097.065639146047, -69738.4038255696, -60272.10477258024, 0.01, 0.882, -0.468, 192.0, 0.0, 0.0, 0.0, 0.0, 0.0, 0.0, 0.0, 0.0, 0.0, 1.741024372413624E9, 0.0, 2025-03-03 11:52:52.413
46.0, -28656.858641726812, 3919.5572041937357, -47277.22522940937, -31027.261141212126, -187500.02235174447, -31108.91206370736, -69741.84599421574, -60288.51095301044, 0.01, 0.882, -0.468, 192.0, 0.0, 0.0, 0.0, 0.0, 0.0, 0.0, 0.0, 0.0, 0.0, 1.741024372413655E9, 0.0, 2025-03-03 11:52:52.413
47.0, -28601.783943388935, 4011.93696402752, -47274.2077439079, -31019.23686495267, -187500.02235174447, -31102.228892115225, -69733.57584876727, -60287.88510416569, 0.01, 0.882, -0.468, 192.0, 0.0, 0.0, 0.0, 0.0, 0.0, 0.0, 0.0, 0.0, 0.0, 1.741024372413674E9, 0.0, 2025-03-03 11:52:52.413
48.0, -28621.408775020693, 4055.23229303745, -47278.90161024351, -31032.08911801447, -187500.02235174447, -31109.828485230028, -69732.83824120024, -60289.13680185519, 0.01, 0.882, -0.468, 192.0, 0.0, 0.0, 0.0, 0.0, 0.0, 0.0, 0.0, 0.0, 0.0, 1.741024372413694E9, 0.0, 2025-03-03 11:52:52.413
49.0, -28685.625336840792, 3961.8914081920875, -47272.62077005157, -31044.851964098452, -187500.02235174447, -31103.279424104625, -69733.39703481163, -60276.329252282296, 0.01, 0.882, -0.468, 192.0, 0.0, 0.0, 0.0, 0.0, 0.0, 0.0, 0.0, 0.0, 0.0, 1.741024372413714E9, 0.0, 2025-03-03 11:52:52.413
50.0, -28670.001467466533, 3937.0809718466967, -47269.82680199466, -31023.126068487894, -187500.02235174447, -31085.845063429486, -69718.22020032647, -60273.512932480924, 0.01, 0.882, -0.468, 192.0, 0.0, 0.0, 0.0, 0.0, 0.0, 0.0, 0.0, 0.0, 0.0, 1.741024372413731E9, 0.0, 2025-03-03 11:52:52.413
51.0, -28616.133763329242, 4001.2751819223386, -47268.55275256071, -31016.465248640212, -187500.02235174447, -31094.67400248933, -69710.5535519783, -60280.39726977316, 0.01, 0.874, -0.464, 192.0, 0.0, 80.0, 27.0, 80.0, 241.0, 128.0, 0.0, 0.0, 0.0, 1.741024372413747E9, 0.0, 2025-03-03 11:52:52.413
52.0, -28612.95981561659, 4058.830923894754, -47275.63825555304, -31029.652777868843, -187500.02235174447, -31109.24733987419, -69717.75081369291, -60287.66158672114, 0.01, 0.874, -0.464, 192.0, 0.0, 0.0, 0.0, 0.0, 0.0, 0.0, 0.0, 0.0, 0.0, 1.741024372413765E9, 0.0, 2025-03-03 11:52:52.413
53.0, -28668.72741803258, 3975.6600827765565, -47271.88316248455, -31040.202801251748, -187500.02235174447, -31104.933453194317, -69721.95294165051, -60290.299092566864, 0.01, 0.874, -0.464, 192.0, 0.0, 0.0, 0.0, 0.0, 0.0, 0.0, 0.0, 0.0, 0.0, 1.74102437241378E9, 0.0, 2025-03-03 11:52:52.413
54.0, -28667.900403487733, 3922.9323176064872, -47267.07753742666, -31039.107565773436, -187500.02235174447, -31102.564168282053, -69724.79161319633, -60289.15915359964, 0.01, 0.874, -0.464, 192.0, 0.0, 0.0, 0.0, 0.0, 0.0, 0.0, 0.0, 0.0, 0.0, 1.741024372413796E9, 0.0, 2025-03-03 11:52:52.413
55.0, -28609.450591737106, 3979.7504520118778, -47265.89289497053, -31025.830629566986, -187500.02235174447, -31103.234720615714, -69717.460241015, -60288.26508382143, 0.01, 0.874, -0.464, 192.0, 0.0, 0.0, 0.0, 0.0, 0.0, 0.0, 0.0, 0.0, 0.0, 1.741024372413812E9, 0.0, 2025-03-03 11:52:52.413
56.0, -28584.886024580723, 4067.5257524878684, -47262.987168191336, -31020.913245786818, -187500.02235174447, -31084.6380692289, -69713.81690666877, -60298.07749963731, 0.01, 0.874, -0.464, 192.0, 0.0, 0.0, 0.0, 0.0, 0.0, 0.0, 0.0, 0.0, 0.0, 1.741024372413828E9, 0.0, 2025-03-03 11:52:52.413
57.0, -28653.729397503066, 3987.5735625712355, -47256.86279021058, -31035.017196538116, -187500.02235174447, -31079.005429626162, -69715.7615084364, -60304.783022973905, 0.01, 0.874, -0.464, 192.0, 0.0, 0.0, 0.0, 0.0, 0.0, 0.0, 0.0, 0.0, 0.0, 1.741024372413844E9, 0.0, 2025-03-03 11:52:52.413
58.0, -28671.38727562276, 3910.4376924559706, -47256.52751404375, -31032.893780814862, -187500.02235174447, -31079.92185114883, -69712.16287757909, -60298.770403715425, 0.01, 0.874, -0.464, 192.0, 0.0, 0.0, 0.0, 0.0, 0.0, 0.0, 0.0, 0.0, 0.0, 1.741024372413869E9, 0.0, 2025-03-03 11:52:52.413
59.0, -28611.395193504715, 3960.192675613484, -47259.79086873423, -31019.438030652767, -187500.02235174447, -31086.269746574137, -69697.90246461659, -60295.59645600277, 0.01, 0.874, -0.464, 192.0, 0.0, 0.0, 0.0, 0.0, 0.0, 0.0, 0.0, 0.0, 0.0, 1.741024372413888E9, 0.0, 2025-03-03 11:52:52.413
60.0, -28572.50315815248, 4068.777450177366, -47264.820011236676, -31023.729565588186, -187500.02235174447, -31099.792551969596, -69692.98508083643, -60291.46138327854, 0.01, 0.874, -0.464, 192.0, 0.0, 0.0, 0.0, 0.0, 0.0, 0.0, 0.0, 0.0, 0.0, 1.741024372472982E9, 0.0, 2025-03-03 11:52:52.472
61.0, -28641.838269452845, 4026.0632665232743, -47266.71990951537, -31035.821859338506, -187500.02235174447, -31096.19392111229, -69699.48943847293, -60277.67035694962, 0.01, 0.872, -0.468, 192.0, 0.0, 80.0, 27.0, 64.0, 241.0, 96.0, 0.0, 0.0, 0.0, 1.741024372473012E9, 0.0, 2025-03-03 11:52:52.473
62.0, -28668.593307565847, 3951.7660679538335, -47267.12224091557, -31028.93752204627, -187500.02235174447, -31089.130769864416, -69695.89080761562, -60270.40604000164, 0.01, 0.872, -0.468, 192.0, 0.0, 0.0, 0.0, 0.0, 0.0, 0.0, 0.0, 0.0, 0.0, 1.741024372473035E9, 0.0, 2025-03-03 11:52:52.473
63.0, -28637.412624050692, 3981.35977761266, -47272.73252877385, -31032.513801159123, -187500.02235174447, -31106.788647984107, -69683.48558944292, -60278.922054639115, 0.01, 0.872, -0.468, 192.0, 0.0, 0.0, 0.0, 0.0, 0.0, 0.0, 0.0, 0.0, 0.0, 1.741024372473054E9, 0.0, 2025-03-03 11:52:52.473
64.0, -28599.61582417677, 4072.443136268036, -47267.43516533794, -31030.502144158145, -187500.02235174447, -31105.4922468057, -69680.02106905235, -60283.75003144146, 0.01, 0.872, -0.468, 192.0, 0.0, 0.0, 0.0, 0.0, 0.0, 0.0, 0.0, 0.0, 0.0, 1.741024372473073E9, 0.0, 2025-03-03 11:52:52.473
65.0, -28634.685711227146, 4058.0486128388184, -47269.64798803902, -31027.819934823507, -187500.02235174447, -31097.95970892426, -69686.5477784333, -60274.31759528132, 0.01, 0.872, -0.468, 192.0, 0.0, 0.0, 0.0, 0.0, 0.0, 0.0, 0.0, 0.0, 0.0, 1.741024372473093E9, 0.0, 2025-03-03 11:52:52.473
66.0, -28675.87997625828, 3968.7086902509564, -47269.3574153611, -31042.70619663074, -187500.02235174447, -31093.377601310924, -69681.11630453066, -60277.93857788308, 0.01, 0.872, -0.468, 192.0, 0.0, 0.0, 0.0, 0.0, 0.0, 0.0, 0.0, 0.0, 0.0, 1.741024372473113E9, 0.0, 2025-03-03 11:52:52.473
67.0, -28656.97040044909, 3952.928358665509, -47271.234961895345, -31046.99773156616, -187500.02235174447, -31103.435886315812, -69668.80049333579, -60281.783077929394, 0.01, 0.872, -0.468, 192.0, 0.0, 0.0, 0.0, 0.0, 0.0, 0.0, 0.0, 0.0, 0.0, 1.741024372473133E9, 0.0, 2025-03-03 11:52:52.473
68.0, -28591.32332698385, 4053.645319181123, -47272.576066562666, -31038.504068673145, -187500.02235174447, -31102.318299093047, -69658.47398739743, -60289.8297059333, 0.01, 0.872, -0.468, 192.0, 0.0, 0.0, 0.0, 0.0, 0.0, 0.0, 0.0, 0.0, 0.0, 1.741024372473153E9, 0.0, 2025-03-03 11:52:52.473
69.0, -28623.643949466223, 4066.966958876486, -47278.65574105451, -31044.919019331817, -187500.02235174447, -31094.3387263225, -69686.7489441334, -60298.010444403946, 0.01, 0.872, -0.468, 192.0, 0.0, 0.0, 0.0, 0.0, 0.0, 0.0, 0.0, 0.0, 0.0, 1.741024372473173E9, 0.0, 2025-03-03 11:52:52.473
70.0, -28682.80901703942, 3963.16545762604, -47273.40308110751, -31039.778118107097, -187500.02235174447, -31087.454389030267, -69683.08325804272, -60292.623673990216, 0.01, 0.872, -0.468, 192.0, 0.0, 0.0, 0.0, 0.0, 0.0, 0.0, 0.0, 0.0, 0.0, 1.741024372473193E9, 0.0, 2025-03-03 11:52:52.473
71.0, -28658.311505116406, 3946.044021373275, -47276.64408405353, -31036.201838994246, -187500.02235174447, -31093.86933968894, -69666.72178110144, -60306.034720663396, 0.01, 0.87, -0.468, 192.0, 0.0, 80.0, 27.0, 48.0, 241.0, 96.0, 0.0, 0.0, 0.0, 1.741024372473213E9, 0.0, 2025-03-03 11:52:52.473
72.0, -28608.131838814243, 4025.6609351230786, -47277.58285732065, -31038.660530884332, -187500.02235174447, -31104.39701132739, -69651.20967044946, -60308.40400557566, 0.01, 0.87, -0.468, 192.0, 0.0, 0.0, 0.0, 0.0, 0.0, 0.0, 0.0, 0.0, 0.0, 1.741024372473235E9, 0.0, 2025-03-03 11:52:52.473
73.0, -28617.988958119033, 4072.0855083567512, -47279.37099687708, -31037.60999889493, -187500.02235174447, -31101.804208970574, -69622.39827184657, -60293.02600539041, 0.01, 0.87, -0.468, 192.0, 0.0, 0.0, 0.0, 0.0, 0.0, 0.0, 0.0, 0.0, 0.0, 1.741024372473258E9, 0.0, 2025-03-03 11:52:52.473
74.0, -28678.11515070381, 3978.364643855649, -47274.408909608, -31044.00259780915, -187500.02235174447, -31098.80907521356, -69625.50516432586, -60281.93954014058, 0.01, 0.87, -0.468, 192.0, 0.0, 0.0, 0.0, 0.0, 0.0, 0.0, 0.0, 0.0, 0.0, 1.741024372473277E9, 0.0, 2025-03-03 11:52:52.473
75.0, -28671.431979111672, 3931.224814799406, -47267.50222057131, -31038.682882628786, -187500.02235174447, -31093.62347049993, -69612.69761475296, -60274.585816214785, 0.01, 0.87, -0.468, 192.0, 0.0, 0.0, 0.0, 0.0, 0.0, 0.0, 0.0, 0.0, 0.0, 1.741024372532781E9, 0.0, 2025-03-03 11:52:52.532
76.0, -28613.94329237262, 3993.4297196185257, -47265.24469438133, -31029.161039490828, -187500.02235174447, -31094.04815364458, -69603.28753033729, -60272.64121444717, 0.01, 0.87, -0.468, 192.0, 0.0, 0.0, 0.0, 0.0, 0.0, 0.0, 0.0, 0.0, 0.0, 1.741024372532805E9, 0.0, 2025-03-03 11:52:52.532
77.0, -28594.407867718684, 4073.001929879419, -47267.92690371596, -31024.131896988383, -187500.02235174447, -31092.48353153271, -69593.69863196596, -60268.34967951175, 0.01, 0.87, -0.468, 192.0, 0.0, 0.0, 0.0, 0.0, 0.0, 0.0, 0.0, 0.0, 0.0, 1.741024372532833E9, 0.0, 2025-03-03 11:52:52.532
78.0, -28655.428130081673, 3998.9506004989867, -47268.440993838434, -31036.403004694344, -187500.02235174447, -31089.644859986885, -69612.87642870861, -60261.46534221952, 0.01, 0.87, -0.468, 192.0, 0.0, 0.0, 0.0, 0.0, 0.0, 0.0, 0.0, 0.0, 0.0, 1.741024372532853E9, 0.0, 2025-03-03 11:52:52.532
79.0, -28669.73324653307, 3937.34919278016, -47264.99882519231, -31035.66539712732, -187500.02235174447, -31088.706086719765, -69625.05812943676, -60263.186426542576, 0.01, 0.87, -0.468, 192.0, 0.0, 0.0, 0.0, 0.0, 0.0, 0.0, 0.0, 0.0, 0.0, 1.741024372532869E9, 0.0, 2025-03-03 11:52:52.532
80.0, -28623.599245977315, 3979.303417122772, -47262.271912368764, -31031.530324403087, -187500.02235174447, -31091.410647798857, -69615.26806536532, -60270.093115579264, 0.01, 0.87, -0.468, 192.0, 0.0, 0.0, 0.0, 0.0, 0.0, 0.0, 0.0, 0.0, 0.0, 1.741024372532885E9, 0.0, 2025-03-03 11:52:52.532
81.0, -28597.89473985371, 4075.5053252584134, -47278.2087061654, -31034.61486513792, -187500.02235174447, -31102.072429904038, -69607.28849259479, -60285.1805430866, 0.01, 0.88, -0.47000000000000003, 192.0, 0.0, 80.0, 27.0, 128.0, 241.0, 80.0, 0.0, 0.0, 0.0, 1.741024372532901E9, 0.0, 2025-03-03 11:52:52.532
82.0, -28658.66913302769, 4017.9942867749082, -47280.5109358443, -31054.172641536315, -187500.02235174447, -31098.25028160218, -69633.95412372997, -60288.130973354695, 0.01, 0.88, -0.47000000000000003, 192.0, 0.0, 0.0, 0.0, 0.0, 0.0, 0.0, 0.0, 0.0, 0.0, 1.741024372532919E9, 0.0, 2025-03-03 11:52:52.532
83.0, -28665.978153464577, 3945.9322626509984, -47274.252447396815, -31057.14542354887, -187500.02235174447, -31098.183226368816, -69647.1416529586, -60290.27674082241, 0.01, 0.88, -0.47000000000000003, 192.0, 0.0, 0.0, 0.0, 0.0, 0.0, 0.0, 0.0, 0.0, 0.0, 1.741024372532935E9, 0.0, 2025-03-03 11:52:52.532
84.0, -28619.106545341798, 3987.0818241932184, -47278.231057909856, -31048.629408911398, -187500.02235174447, -31100.999546170184, -69636.16694643104, -60301.1843921166, 0.01, 0.88, -0.47000000000000003, 192.0, 0.0, 0.0, 0.0, 0.0, 0.0, 0.0, 0.0, 0.0, 0.0, 1.741024372532951E9, 0.0, 2025-03-03 11:52:52.532
85.0, -28582.427332690637, 4083.3284358177707, -47273.64895029652, -31046.61775191042, -187500.02235174447, -31107.05686891757, -69637.12807144261, -60304.358339829254, 0.01, 0.88, -0.47000000000000003, 192.0, 0.0, 0.0, 0.0, 0.0, 0.0, 0.0, 0.0, 0.0, 0.0, 1.741024372532972E9, 0.0, 2025-03-03 11:52:52.532
86.0, -28632.85286818181, 4048.8620458676874, -47279.23688641035, -31054.977304336706, -187500.02235174447, -31102.318299093047, -69638.22330692093, -60308.627523020215, 0.01, 0.88, -0.47000000000000003, 192.0, 0.0, 0.0, 0.0, 0.0, 0.0, 0.0, 0.0, 0.0, 0.0, 1.741024372532988E9, 0.0, 2025-03-03 11:52:52.532
87.0, -28676.259955914018, 3957.778687212311, -47272.35254911811, -31053.658551413842, -187500.02235174447, -31091.1871303543, -69640.70435055546, -60298.54688627087, 0.01, 0.88, -0.47000000000000003, 192.0, 0.0, 0.0, 0.0, 0.0, 0.0, 0.0, 0.0, 0.0, 0.0, 1.741024372533004E9, 0.0, 2025-03-03 11:52:52.533
88.0, -28642.665283997692, 3963.701899492967, -47268.105717671606, -31040.80629835204, -187500.02235174447, -31095.76923796764, -69638.2903621543, -60306.36999683023, 0.01, 0.88, -0.47000000000000003, 192.0, 0.0, 0.0, 0.0, 0.0, 0.0, 0.0, 0.0, 0.0, 0.0, 1.741024372533023E9, 0.0, 2025-03-03 11:52:52.533
89.0, -28590.473960694548, 4080.7803369498656, -47269.916208972485, -31031.79854533655, -187500.02235174447, -31089.57780475352, -69625.99690270388, -60318.39523534718, 0.01, 0.88, -0.47000000000000003, 192.0, 0.0, 0.0, 0.0, 0.0, 0.0, 0.0, 0.0, 0.0, 0.0, 1.741024372533045E9, 0.0, 2025-03-03 11:52:52.533
90.0, -28639.871315940778, 4063.7930111638325, -47268.17277290497, -31044.986074565182, -187500.02235174447, -31078.357229036956, -69637.30688539825, -60293.29422632387, 0.01, 0.88, -0.47000000000000003, 192.0, 0.0, 0.0, 0.0, 0.0, 0.0, 0.0, 0.0, 0.0, 0.0, 1.741024372593295E9, 0.0, 2025-03-03 11:52:52.593
91.0, -28680.43973212716, 3972.0391001747967, -47265.93759845944, -31050.35049323446, -187500.02235174447, -31069.349476021467, -69629.2826091388, -60276.10573483774, 0.01, 0.878, -0.464, 192.0, 0.0, 80.0, 27.0, 112.0, 241.0, 128.0, 0.0, 0.0, 0.0, 1.741024372593354E9, 0.0, 2025-03-03 11:52:52.593
92.0, -28652.321237602384, 3963.679547748512, -47263.94829320291, -31034.368995948913, -187500.02235174447, -31070.310601033045, -69619.91722821203, -60282.78890642988, 0.01, 0.878, -0.464, 192.0, 0.0, 0.0, 0.0, 0.0, 0.0, 0.0, 0.0, 0.0, 0.0, 1.741024372593384E9, 0.0, 2025-03-03 11:52:52.593
93.0, -28588.797579860402, 4073.6054269797123, -47268.53040081626, -31018.05222249654, -187500.02235174447, -31083.364019794946, -69628.50029808287, -60289.09209836628, 0.01, 0.878, -0.464, 192.0, 0.0, 0.0, 0.0, 0.0, 0.0, 0.0, 0.0, 0.0, 0.0, 1.741024372593403E9, 0.0, 2025-03-03 11:52:52.593
94.0, -28619.66533895318, 4086.9270666750754, -47273.894819485526, -31034.994844793662, -187500.02235174447, -31089.33193556451, -69658.65280135308, -60292.28839782339, 0.01, 0.878, -0.464, 192.0, 0.0, 0.0, 0.0, 0.0, 0.0, 0.0, 0.0, 0.0, 0.0, 1.741024372593423E9, 0.0, 2025-03-03 11:52:52.593
95.0, -28671.52138608949, 3991.127489939629, -47270.0056159503, -31044.00259780915, -187500.02235174447, -31089.980136153717, -69677.67413588455, -60288.22038033252, 0.01, 0.878, -0.464, 192.0, 0.0, 0.0, 0.0, 0.0, 0.0, 0.0, 0.0, 0.0, 0.0, 1.741024372593443E9, 0.0, 2025-03-03 11:52:52.593
96.0, -28659.607906294812, 3980.97979795692, -47271.92786597346, -31037.073557028005, -187500.02235174447, -31091.991793154695, -69666.05122876778, -60271.38951675767, 0.01, 0.878, -0.464, 192.0, 0.0, 0.0, 0.0, 0.0, 0.0, 0.0, 0.0, 0.0, 0.0, 1.741024372593463E9, 0.0, 2025-03-03 11:52:52.593
97.0, -28620.693519198125, 4073.136040346151, -47273.045453196224, -31032.446745925758, -187500.02235174447, -31095.09868563398, -69646.51580411385, -60264.34871725425, 0.01, 0.878, -0.464, 192.0, 0.0, 0.0, 0.0, 0.0, 0.0, 0.0, 0.0, 0.0, 0.0, 1.741024372593483E9, 0.0, 2025-03-03 11:52:52.593
98.0, -28629.701272213613, 4120.633497313678, -47272.218438651376, -31039.912228573827, -187500.02235174447, -31096.01510715665, -69639.45265286596, -60260.07953406329, 0.01, 0.878, -0.464, 192.0, 0.0, 0.0, 0.0, 0.0, 0.0, 0.0, 0.0, 0.0, 0.0, 1.741024372593502E9, 0.0, 2025-03-03 11:52:52.593
99.0, -28695.05777300093, 4001.141071455607, -47274.05128169672, -31050.66341765683, -187500.02235174447, -31096.73036297922, -69663.83840606672, -60271.45657199104, 0.01, 0.878, -0.464, 192.0, 0.0, 0.0, 0.0, 0.0, 0.0, 0.0, 0.0, 0.0, 0.0, 1.741024372593522E9, 0.0, 2025-03-03 11:52:52.593
100.0, -28687.14525546375, 3945.485227761892, -47274.453613096906, -31044.829612353995, -187500.02235174447, -31094.852816444974, -69660.79856882078, -60279.83847616178, 0.01, 0.878, -0.464, 192.0, 0.0, 0.0, 0.0, 0.0, 0.0, 0.0, 0.0, 0.0, 0.0, 1.741024372593541E9, 0.0, 2025-03-03 11:52:52.593
101.0, -28626.214400078585, 4015.133263484629, -47276.197049164424, -31041.923885574804, -187500.02235174447, -31094.11520887795, -69640.70435055546, -60291.17081060062, 0.01, 0.874, -0.466, 192.0, 0.0, 80.0, 27.0, 80.0, 241.0, 112.0, 0.0, 0.0, 0.0, 1.741024372593557E9, 0.0, 2025-03-03 11:52:52.593
102.0, -28588.730524627033, 4124.098017704251, -47279.10277594361, -31031.79854533655, -187500.02235174447, -31079.005429626162, -69627.53917307129, -60291.95312165656, 0.01, 0.874, -0.466, 192.0, 0.0, 0.0, 0.0, 0.0, 0.0, 0.0, 0.0, 0.0, 0.0, 1.741024372593575E9, 0.0, 2025-03-03 11:52:52.593
103.0, -28668.705066288123, 4035.0486677943077, -47273.73835727434, -31052.451557213255, -187500.02235174447, -31079.631278470908, -69636.0328359643, -60287.32631055431, 0.01, 0.874, -0.466, 192.0, 0.0, 0.0, 0.0, 0.0, 0.0, 0.0, 0.0, 0.0, 0.0, 1.74102437259359E9, 0.0, 2025-03-03 11:52:52.593
104.0, -28678.15985419272, 3961.802001214266, -47260.21555187888, -31040.89570532986, -187500.02235174447, -31076.300868547067, -69618.59847528917, -60281.73837444048, 0.01, 0.874, -0.466, 192.0, 0.0, 0.0, 0.0, 0.0, 0.0, 0.0, 0.0, 0.0, 0.0, 1.741024372593615E9, 0.0, 2025-03-03 11:52:52.593
105.0, -28622.213437821083, 4010.4393971490144, -47268.12806941606, -31034.257237226637, -187500.02235174447, -31084.4369035288, -69595.9785099004, -60287.66158672114, 0.01, 0.874, -0.466, 192.0, 0.0, 0.0, 0.0, 0.0, 0.0, 0.0, 0.0, 0.0, 0.0, 1.741024372653399E9, 0.0, 2025-03-03 11:52:52.653
106.0, -28593.714963640567, 4123.472168859502, -47286.50120335832, -31047.66828389982, -187500.02235174447, -31098.67496474683, -69598.03487039029, -60301.72083398353, 0.01, 0.874, -0.466, 192.0, 0.0, 0.0, 0.0, 0.0, 0.0, 0.0, 0.0, 0.0, 0.0, 1.741024372653418E9, 0.0, 2025-03-03 11:52:52.653
107.0, -28664.59234530835, 4052.4606767249916, -47277.82872650966, -31060.498185217166, -187500.02235174447, -31089.91308092035, -69594.927977911, -60286.54399949837, 0.01, 0.874, -0.466, 192.0, 0.0, 0.0, 0.0, 0.0, 0.0, 0.0, 0.0, 0.0, 0.0, 1.741024372653441E9, 0.0, 2025-03-03 11:52:52.653
108.0, -28664.704104030625, 3993.966161485453, -47272.86663924058, -31053.63619966939, -187500.02235174447, -31087.141464607892, -69581.85220740465, -60283.50416225245, 0.01, 0.874, -0.466, 192.0, 0.0, 0.0, 0.0, 0.0, 0.0, 0.0, 0.0, 0.0, 0.0, 1.741024372653458E9, 0.0, 2025-03-03 11:52:52.653
109.0, -28633.456365282105, 4009.4782721374363, -47271.726700273364, -31050.015217067627, -187500.02235174447, -31089.62250824243, -69588.06599236322, -60278.631481961194, 0.01, 0.874, -0.466, 192.0, 0.0, 0.0, 0.0, 0.0, 0.0, 0.0, 0.0, 0.0, 0.0, 1.741024372653474E9, 0.0, 2025-03-03 11:52:52.653
110.0, -28592.17269327315, 4101.232183126472, -47272.97839796286, -31044.494336187166, -187500.02235174447, -31084.705124462263, -69576.0184021018, -60271.61303420223, 0.01, 0.874, -0.466, 192.0, 0.0, 0.0, 0.0, 0.0, 0.0, 0.0, 0.0, 0.0, 0.0, 1.74102437265349E9, 0.0, 2025-03-03 11:52:52.653
111.0, -28642.95585667561, 4069.604464722212, -47275.12416543057, -31053.4797374582, -187500.02235174447, -31075.00446736866, -69614.46340256494, -60265.53335971038, 0.008, 0.876, -0.462, 192.0, 0.0, 64.0, 27.0, 96.0, 241.0, 144.0, 0.0, 0.0, 0.0, 1.741024372653505E9, 0.0, 2025-03-03 11:52:52.653
112.0, -28679.031572226475, 3983.3714346136376, -47276.062938697694, -31066.57785970901, -187500.02235174447, -31087.92377566383, -69648.28159192581, -60281.33604304028, 0.008, 0.876, -0.462, 192.0, 0.0, 0.0, 0.0, 0.0, 0.0, 0.0, 0.0, 0.0, 0.0, 1.741024372653523E9, 0.0, 2025-03-03 11:52:52.653
113.0, -28646.822708466378, 3996.5366120978133, -47283.37195913458, -31064.946182363772, -187500.02235174447, -31097.758543224165, -69671.7956270928, -60294.143592613174, 0.008, 0.876, -0.462, 192.0, 0.0, 0.0, 0.0, 0.0, 0.0, 0.0, 0.0, 0.0, 0.0, 1.741024372653539E9, 0.0, 2025-03-03 11:52:52.653
114.0, -28601.04633582191, 4092.291485344349, -47279.0580724547, -31053.747958391665, -187500.02235174447, -31085.465083773743, -69684.51376968787, -60274.69757493706, 0.008, 0.876, -0.462, 192.0, 0.0, 0.0, 0.0, 0.0, 0.0, 0.0, 0.0, 0.0, 0.0, 1.741024372653557E9, 0.0, 2025-03-03 11:52:52.653
115.0, -28631.578818747857, 4102.57328779379, -47277.13582243155, -31054.99965608116, -187500.02235174447, -31085.263918073648, -69684.78199062133, -60268.72965916749, 0.008, 0.876, -0.462, 192.0, 0.0, 0.0, 0.0, 0.0, 0.0, 0.0, 0.0, 0.0, 0.0, 1.741024372653573E9, 0.0, 2025-03-03 11:52:52.653
116.0, -28675.209423924618, 4018.798949575299, -47270.340892117136, -31058.19595553827, -187500.02235174447, -31072.746941178673, -69683.82086560976, -60259.967775341014, 0.008, 0.876, -0.462, 192.0, 0.0, 0.0, 0.0, 0.0, 0.0, 0.0, 0.0, 0.0, 0.0, 1.741024372653589E9, 0.0, 2025-03-03 11:52:52.653
117.0, -28642.508821786505, 4007.3995599030927, -47265.31174961469, -31049.85875485644, -187500.02235174447, -31074.870356901927, -69668.77814159133, -60247.2719844904, 0.008, 0.876, -0.462, 192.0, 0.0, 0.0, 0.0, 0.0, 0.0, 0.0, 0.0, 0.0, 0.0, 1.741024372653605E9, 0.0, 2025-03-03 11:52:52.653
118.0, -28583.65667863568, 4104.808462239321, -47270.51970607277, -31046.103661787947, -187500.02235174447, -31084.72747620672, -69650.36030416016, -60255.18450202757, 0.008, 0.876, -0.462, 192.0, 0.0, 0.0, 0.0, 0.0, 0.0, 0.0, 0.0, 0.0, 0.0, 1.741024372653621E9, 0.0, 2025-03-03 11:52:52.653
119.0, -28619.53122848645, 4108.0494651853405, -47266.697557770916, -31052.6303711689, -187500.02235174447, -31069.885917888394, -69656.12705422963, -60245.50619667843, 0.008, 0.876, -0.462, 192.0, 0.0, 0.0, 0.0, 0.0, 0.0, 0.0, 0.0, 0.0, 0.0, 1.741024372653646E9, 0.0, 2025-03-03 11:52:52.653
120.0, -28669.28621164396, 4006.0808069802297, -47267.27870312676, -31053.63619966939, -187500.02235174447, -31067.80720565405, -69652.48371988341, -60245.01445830041, 0.008, 0.876, -0.462, 192.0, 0.0, 0.0, 0.0, 0.0, 0.0, 0.0, 0.0, 0.0, 0.0, 1.741024372713609E9, 0.0, 2025-03-03 11:52:52.713
121.0, -28656.657476026714, 3973.8272397312217, -47271.83845899564, -31052.362150235436, -187500.02235174447, -31071.383484766902, -69651.7908158053, -60255.45272296104, 0.002, 0.874, -0.46, 192.0, 0.0, 16.0, 27.0, 80.0, 241.0, 160.0, 0.0, 0.0, 0.0, 1.741024372713629E9, 0.0, 2025-03-03 11:52:52.713
122.0, -28604.175580045652, 4049.979633090453, -47268.75391826081, -31046.304827488046, -187500.02235174447, -31072.97045862323, -69650.3379524157, -60258.82783637379, 0.002, 0.874, -0.46, 192.0, 0.0, 0.0, 0.0, 0.0, 0.0, 0.0, 0.0, 0.0, 0.0, 1.741024372713654E9, 0.0, 2025-03-03 11:52:52.713
123.0, -28590.049277549897, 4116.029037955885, -47277.64991255402, -31043.466155942224, -187500.02235174447, -31077.172586580826, -69647.3428186587, -60261.442990475065, 0.002, 0.874, -0.46, 192.0, 0.0, 0.0, 0.0, 0.0, 0.0, 0.0, 0.0, 0.0, 0.0, 1.74102437271367E9, 0.0, 2025-03-03 11:52:52.713
