%OpenBCI Raw EXG Data
%Number of channels = 8
%Sample Rate = 250 Hz
%Board = OpenBCI_GUI$BoardCytonSerial
Sample Index, EXG Channel 0, EXG Channel 1, EXG Channel 2, EXG Channel 3, EXG Channel 4, EXG Channel 5, EXG Channel 6, EXG Channel 7, Accel Channel 0, Accel Channel 1, Accel Channel 2, Not Used, Digital Channel 0 (D11), Digital Channel 1 (D12), Digital Channel 2 (D13), Digital Channel 3 (D17), Not Used, Digital Channel 4 (D18), Analog Channel 0, Analog Channel 1, Analog Channel 2, Timestamp, Marker Channel, Timestamp (Formatted)
253.0, -31807.404077935706, -29157.850641948062, -35329.48021048072, -33708.822275259765, -5752.869636162476, -8837.052743083566, -41148.175734064076, -28817.590036104924, 0.0, 0.0, 0.0, 192.0, 0.0, 0.0, 0.0, 0.0, 0.0, 0.0, 0.0, 0.0, 0.0, 1.741281156916497E9, 0.0, 2025-03-06 11:12:36.916
254.0, -31809.0581070254, -29156.286019836192, -35323.869922622434, -33708.79992351531, -5787.425433090381, -8837.835054139501, -41147.751050919425, -28812.73970755812, 0.0, 0.0, 0.0, 192.0, 0.0, 0.0, 0.0, 0.0, 0.0, 0.0, 0.0, 0.0, 0.0, 1.741281156916542E9, 0.0, 2025-03-06 11:12:36.916
255.0, -31808.275795969465, -29156.5318890252, -35320.49480920968, -33712.264443905886, -5791.381691858971, -8840.137283818398, -41149.89681838713, -28820.249893695105, 0.0, 0.0, 0.0, 192.0, 0.0, 0.0, 0.0, 0.0, 0.0, 0.0, 0.0, 0.0, 0.0, 1.741281156916595E9, 0.0, 2025-03-06 11:12:36.916
0.0, -31806.688822113138, -29158.230621603805, -35326.90975986836, -33716.98066198595, -5756.736487953244, -8837.253908783665, -41152.89195214414, -28823.46854489667, 0.0, 0.0, 0.0, 192.0, 0.0, 0.0, 0.0, 0.0, 0.0, 0.0, 0.0, 0.0, 0.0, 1.741281156916625E9, 0.0, 2025-03-06 11:12:36.916
1.0, -31809.102810514312, -29161.5833832721, -35331.0895360815, -33719.729926553955, -5730.227319029251, -8832.113007558943, -41147.70634743051, -28805.408335376782, 0.042, 0.93, -0.34, 192.0, 1.0, 80.0, 29.0, 16.0, 245.0, 96.0, 0.0, 0.0, 0.0, 1.741281156916655E9, 0.0, 2025-03-06 11:12:36.916
2.0, -31819.87635134177, -29168.557127542157, -35333.99526286069, -33721.987452743946, -5766.392441557938, -8840.539615218595, -41158.368129535695, -28836.14198400283, 0.042, 0.93, -0.34, 192.0, 0.0, 0.0, 0.0, 0.0, 0.0, 0.0, 0.0, 0.0, 0.0, 1.741281156916689E9, 0.0, 2025-03-06 11:12:36.916
3.0, -31815.026022794966, -29160.82342396062, -35329.547265714085, -33709.045792704324, -5787.581895301569, -8827.016809823133, -41159.128088847174, -28853.442234211238, 0.042, 0.93, -0.34, 192.0, 0.0, 0.0, 0.0, 0.0, 0.0, 0.0, 0.0, 0.0, 0.0, 1.741281156916719E9, 0.0, 2025-03-06 11:12:36.916
4.0, -31802.889025555734, -29149.558144755145, -35319.91366385385, -33696.14883615361, -5772.270950349683, -8819.21605100823, -41148.10867883071, -28838.42186193727, 0.042, 0.93, -0.34, 192.0, 0.0, 0.0, 0.0, 0.0, 0.0, 0.0, 0.0, 0.0, 0.0, 1.741281156916758E9, 0.0, 2025-03-06 11:12:36.916
5.0, -31812.790848349436, -29161.29281059418, -35334.46464949425, -33709.738696782435, -5738.810388900089, -8834.571699449027, -41155.641216712145, -28829.32470194396, 0.042, 0.93, -0.34, 192.0, 0.0, 0.0, 0.0, 0.0, 0.0, 0.0, 0.0, 0.0, 0.0, 1.741281156916796E9, 0.0, 2025-03-06 11:12:36.916
6.0, -31813.68491812765, -29161.650438505465, -35324.920454611834, -33708.822275259765, -5777.52361029668, -8833.208243037254, -41156.44587951254, -28835.627893880355, 0.042, 0.93, -0.34, 192.0, 0.0, 0.0, 0.0, 0.0, 0.0, 0.0, 0.0, 0.0, 0.0, 1.741281156916833E9, 0.0, 2025-03-06 11:12:36.916
7.0, -31808.409906436194, -29162.477453050313, -35323.55699820006, -33710.43160086055, -5787.134860412462, -8835.331658760508, -41161.452670270526, -28821.903922784797, 0.042, 0.93, -0.34, 192.0, 0.0, 0.0, 0.0, 0.0, 0.0, 0.0, 0.0, 0.0, 0.0, 1.74128115691687E9, 0.0, 2025-03-06 11:12:36.916
8.0, -31809.415734936683, -29168.7359414978, -35331.022480848136, -33720.378127143165, -5777.277741107672, -8845.389943765396, -41160.75976619241, -28817.813553549477, 0.042, 0.93, -0.34, 192.0, 0.0, 0.0, 0.0, 0.0, 0.0, 0.0, 0.0, 0.0, 0.0, 1.741281156916901E9, 0.0, 2025-03-06 11:12:36.916
9.0, -31811.159171004198, -29161.96336292784, -35331.76008841516, -33712.15268518361, -5751.640290217435, -8833.096484314978, -41151.99788236593, -28846.84846959692, 0.042, 0.93, -0.34, 192.0, 0.0, 0.0, 0.0, 0.0, 0.0, 0.0, 0.0, 0.0, 0.0, 1.741281156916939E9, 0.0, 2025-03-06 11:12:36.916
10.0, -31826.000729322524, -29175.799092745674, -35342.44422226479, -33721.1604381991, -5767.979415414264, -8839.422027995828, -41162.59260923775, -28871.39068500885, 0.042, 0.93, -0.34, 192.0, 0.0, 0.0, 0.0, 0.0, 0.0, 0.0, 0.0, 0.0, 0.0, 1.741281156916969E9, 0.0, 2025-03-06 11:12:36.916
11.0, -31809.929825059156, -29168.82534847562, -35323.869922622434, -33706.028307202854, -5797.371959372993, -8828.134397045898, -41151.304978287815, -28838.734786359644, 0.042, 0.926, -0.34400000000000003, 192.0, 1.0, 80.0, 28.0, 240.0, 245.0, 64.0, 0.0, 0.0, 0.0, 1.741281156917E9, 0.0, 2025-03-06 11:12:36.917
12.0, -31801.078534254855, -29163.550336784167, -35318.0361173196, -33703.12258042367, -5778.417680074893, -8825.60864992245, -41149.695652687034, -28829.32470194396, 0.042, 0.926, -0.34400000000000003, 192.0, 0.0, 0.0, 0.0, 0.0, 0.0, 0.0, 0.0, 0.0, 0.0, 1.741281156917034E9, 0.0, 2025-03-06 11:12:36.917
13.0, -31800.81031332139, -29159.504671037757, -35321.61239643245, -33704.03900194633, -5740.620880200968, -8834.549347704571, -41151.52849573237, -28829.99525427762, 0.042, 0.926, -0.34400000000000003, 192.0, 0.0, 0.0, 0.0, 0.0, 0.0, 0.0, 0.0, 0.0, 0.0, 1.741281156917073E9, 0.0, 2025-03-06 11:12:36.917
14.0, -31808.96870004758, -29170.76995024323, -35330.19546630329, -33707.59292931473, -5745.85118840351, -8834.661106426849, -41156.825859168275, -28831.29165545603, 0.042, 0.926, -0.34400000000000003, 192.0, 0.0, 0.0, 0.0, 0.0, 0.0, 0.0, 0.0, 0.0, 0.0, 1.741281156917104E9, 0.0, 2025-03-06 11:12:36.917
0.0, 0.0, 0.0, 0.0, 0.0, 0.0, 0.0, 0.0, 0.0, 0.042, 0.926, -0.34400000000000003, 192.0, 0.0, 0.0, 0.0, 0.0, 0.0, 0.0, 0.0, 0.0, 0.0, 1.741281157029954E9, 0.0, 2025-03-06 11:12:37.029
1.0, -31509.388269113097, -28519.9318551936, -34876.320943393825, -33257.74172040722, -5773.030909661164, -8338.854710919228, -40886.45915823688, -28410.05067945131, 0.076, 0.91, -0.368, 192.0, 2.0, 96.0, 28.0, 112.0, 244.0, 128.0, 0.0, 0.0, 0.0, 1.741281157087638E9, 0.0, 2025-03-06 11:12:37.087
2.0, -31509.90235923557, -28526.860895974743, -34884.68049582011, -33265.83305190004, -5748.04165936013, -8347.728353467985, -40892.024742606256, -28416.353871387706, 0.076, 0.91, -0.368, 192.0, 0.0, 0.0, 0.0, 0.0, 0.0, 0.0, 0.0, 0.0, 0.0, 1.74128115708769E9, 0.0, 2025-03-06 11:12:37.087
3.0, -31511.42227785853, -28530.59363729878, -34892.07892323481, -33273.32088629257, -5731.255499274194, -8351.79637095885, -40903.17826308945, -28421.315958656785, 0.076, 0.91, -0.368, 192.0, 0.0, 0.0, 0.0, 0.0, 0.0, 0.0, 0.0, 0.0, 0.0, 1.741281157087722E9, 0.0, 2025-03-06 11:12:37.087
4.0, -31504.359126610652, -28521.563532538836, -34878.08673120579, -33260.848612886504, -5774.0367381616525, -8339.435856275066, -40887.86731813757, -28410.09538294022, 0.076, 0.91, -0.368, 192.0, 0.0, 0.0, 0.0, 0.0, 0.0, 0.0, 0.0, 0.0, 0.0, 1.741281157087777E9, 0.0, 2025-03-06 11:12:37.087
5.0, -31509.790600513294, -28523.329320350807, -34879.94192599558, -33263.5531739656, -5777.121278896485, -8340.93342315357, -40890.37071351656, -28414.163400431087, 0.076, 0.91, -0.368, 192.0, 0.0, 0.0, 0.0, 0.0, 0.0, 0.0, 0.0, 0.0, 0.0, 1.741281157087815E9, 0.0, 2025-03-06 11:12:37.087
6.0, -31513.635100559608, -28521.295311605372, -34879.69605680658, -33264.15667106589, -5771.175714871373, -8340.866367920205, -40889.65545769399, -28408.798981761815, 0.076, 0.91, -0.368, 192.0, 0.0, 0.0, 0.0, 0.0, 0.0, 0.0, 0.0, 0.0, 0.0, 1.741281157087846E9, 0.0, 2025-03-06 11:12:37.087
7.0, -31522.754612297373, -28532.918218722134, -34892.90593777966, -33277.54536599462, -5754.23309257425, -8357.406658817132, -40903.133559600545, -28407.793153261326, 0.076, 0.91, -0.368, 192.0, 0.0, 0.0, 0.0, 0.0, 0.0, 0.0, 0.0, 0.0, 0.0, 1.741281157087887E9, 0.0, 2025-03-06 11:12:37.087
8.0, -31542.2453334624, -28560.768492313447, -34909.75915309896, -33295.516168536684, -5786.509011567714, -8381.099507939758, -40924.97121393338, -28439.66674085459, 0.098, 0.908, -0.378, 192.0, 3.0, 16.0, 28.0, 96.0, 244.0, 48.0, 0.0, 0.0, 0.0, 1.741281157087918E9, 0.0, 2025-03-06 11:12:37.087
9.0, -31549.643760877105, -28564.344771426295, -34911.21201648856, -33293.48215979125, -5814.62750609249, -8379.333720127788, -40939.58925480715, -28471.58503193677, 0.098, 0.908, -0.378, 192.0, 0.0, 0.0, 0.0, 0.0, 0.0, 0.0, 0.0, 0.0, 0.0, 1.741281157087958E9, 0.0, 2025-03-06 11:12:37.087
10.0, -31558.562106914775, -28572.100826752285, -34920.26447299295, -33300.67942150586, -5821.042456751163, -8394.018816234924, -40955.704862559425, -28481.531558219383, 0.098, 0.908, -0.378, 192.0, 0.0, 0.0, 0.0, 0.0, 0.0, 0.0, 0.0, 0.0, 0.0, 1.741281157087989E9, 0.0, 2025-03-06 11:12:37.087
11.0, -31547.229772475934, -28562.8919080367, -34912.68723162261, -33289.7047149783, -5789.52649706918, -8385.502801597453, -40948.351138633625, -28467.785235379368, 0.098, 0.908, -0.378, 192.0, 0.0, 0.0, 0.0, 0.0, 0.0, 0.0, 0.0, 0.0, 0.0, 1.74128115708802E9, 0.0, 2025-03-06 11:12:37.088
12.0, -31534.846906047693, -28551.425463131127, -34899.186777971605, -33276.517185749675, -5771.779211971666, -8369.744821756462, -40924.34536508863, -28422.746470301925, 0.098, 0.908, -0.378, 192.0, 0.0, 0.0, 0.0, 0.0, 0.0, 0.0, 0.0, 0.0, 0.0, 1.741281157088051E9, 0.0, 2025-03-06 11:12:37.088
13.0, -31522.91107450856, -28536.405090857163, -34884.836958031294, -33264.64840944391, -5778.328273097071, -8354.098600637746, -40899.17730083195, -28379.495844780904, 0.098, 0.908, -0.378, 192.0, 0.0, 0.0, 0.0, 0.0, 0.0, 0.0, 0.0, 0.0, 0.0, 1.74128115708809E9, 0.0, 2025-03-06 11:12:37.088
14.0, -31508.963585968446, -28523.955169195557, -34869.10132993476, -33249.76214763667, -5768.359395070004, -8331.433931760064, -40900.607812477094, -28458.06222654131, 0.098, 0.908, -0.378, 192.0, 0.0, 0.0, 0.0, 0.0, 0.0, 0.0, 0.0, 0.0, 0.0, 1.741281157088121E9, 0.0, 2025-03-06 11:12:37.088
15.0, -31505.00732719986, -28520.110669149242, -34864.005132198945, -33236.70872887477, -5733.714191164278, -8307.159937281602, -40905.54754800171, -28469.48396795797, 0.098, 0.908, -0.378, 192.0, 0.0, 0.0, 0.0, 0.0, 0.0, 0.0, 0.0, 0.0, 0.0, 1.74128115708816E9, 0.0, 2025-03-06 11:12:37.088
16.0, -31518.060745961757, -28534.527544322915, -34872.69996079206, -33247.504621446686, -5746.5664442260795, -8326.36008576871, -40914.242376594826, -28464.141901033152, 0.098, 0.908, -0.378, 192.0, 0.0, 0.0, 0.0, 0.0, 0.0, 0.0, 0.0, 0.0, 0.0, 1.7412811571479E9, 0.0, 2025-03-06 11:12:37.147
17.0, -31528.23078968892, -28547.871535762733, -34877.84086201678, -33257.13822330692, -5790.085290680563, -8336.999516129437, -40913.23654809434, -28443.600647878728, 0.098, 0.908, -0.378, 192.0, 0.0, 0.0, 0.0, 0.0, 0.0, 0.0, 0.0, 0.0, 0.0, 1.741281157147946E9, 0.0, 2025-03-06 11:12:37.147
18.0, -31540.859525306172, -28565.305896437872, -34889.32965866681, -33272.35976128099, -5796.500241339236, -8340.151112097636, -40919.271519097274, -28453.323656716784, 0.1, 0.912, -0.39, 192.0, 3.0, 32.0, 28.0, 128.0, 243.0, 208.0, 0.0, 0.0, 0.0, 1.741281157147978E9, 0.0, 2025-03-06 11:12:37.147
19.0, -31539.71958633895, -28564.83650980431, -34888.94967901107, -33271.06336010258, -5783.223305132783, -8337.98299288547, -40932.90608321501, -28479.564604707317, 0.1, 0.912, -0.39, 192.0, 0.0, 0.0, 0.0, 0.0, 0.0, 0.0, 0.0, 0.0, 0.0, 1.741281157148012E9, 0.0, 2025-03-06 11:12:37.148
20.0, -31544.18993523001, -28566.17761447163, -34891.47542613452, -33273.41029327039, -5777.5012585522245, -8335.3678387842, -40926.73700174534, -28459.269220741895, 0.1, 0.912, -0.39, 192.0, 0.0, 0.0, 0.0, 0.0, 0.0, 0.0, 0.0, 0.0, 0.0, 1.741281157148071E9, 0.0, 2025-03-06 11:12:37.148
21.0, -31556.19282200251, -28576.682934365625, -34900.75140008347, -33283.24506083072, -5810.380674645981, -8346.208434845023, -40930.045059924734, -28459.604496908727, 0.1, 0.912, -0.39, 192.0, 0.0, 0.0, 0.0, 0.0, 0.0, 0.0, 0.0, 0.0, 0.0, 1.741281157148102E9, 0.0, 2025-03-06 11:12:37.148
22.0, -31547.14036549811, -28570.446797662593, -34895.85636804776, -33278.886470661935, -5821.645953851456, -8349.002402901937, -40934.89538847153, -28467.315848745806, 0.1, 0.912, -0.39, 192.0, 0.0, 0.0, 0.0, 0.0, 0.0, 0.0, 0.0, 0.0, 0.0, 1.74128115714814E9, 0.0, 2025-03-06 11:12:37.148
23.0, -31537.015025259858, -28566.8928702942, -34892.19068195709, -33279.13233985095, -5799.651837307434, -8346.387248800665, -40930.26857736929, -28460.00682830892, 0.1, 0.912, -0.39, 192.0, 0.0, 0.0, 0.0, 0.0, 0.0, 0.0, 0.0, 0.0, 0.0, 1.741281157148178E9, 0.0, 2025-03-06 11:12:37.148
24.0, -31543.38527242962, -28575.386533187215, -34898.38211517121, -33290.06234288959, -5785.167906900395, -8355.730277982984, -40928.12280990158, -28453.189546250054, 0.1, 0.912, -0.39, 192.0, 0.0, 0.0, 0.0, 0.0, 0.0, 0.0, 0.0, 0.0, 0.0, 1.741281157148209E9, 0.0, 2025-03-06 11:12:37.148
25.0, -31550.96251379997, -28583.32140246885, -34902.450132662074, -33293.236290602246, -5824.350514930548, -8362.994594930959, -40930.67090876948, -28457.883412585667, 0.1, 0.912, -0.39, 192.0, 0.0, 0.0, 0.0, 0.0, 0.0, 0.0, 0.0, 0.0, 0.0, 1.741281157148246E9, 0.0, 2025-03-06 11:12:37.148
26.0, -31555.05288303529, -28588.28348973793, -34909.15565599867, -33295.471465047776, -5839.3708872045145, -8370.3259671123, -40933.755449504315, -28461.973781820987, 0.1, 0.912, -0.39, 192.0, 0.0, 0.0, 0.0, 0.0, 0.0, 0.0, 0.0, 0.0, 0.0, 1.741281157148278E9, 0.0, 2025-03-06 11:12:37.148
27.0, -31564.798243617803, -28596.88891135322, -34922.11966778275, -33305.373287841474, -5823.501148641247, -8382.284150395888, -40943.47845834237, -28475.54129070536, 0.1, 0.912, -0.39, 192.0, 0.0, 0.0, 0.0, 0.0, 0.0, 0.0, 0.0, 0.0, 0.0, 1.741281157148309E9, 0.0, 2025-03-06 11:12:37.148
28.0, -31564.328856984244, -28600.778114888446, -34925.53948468441, -33310.08950592155, -5804.546869343147, -8388.721452799016, -40945.065432198695, -28485.91250013262, 0.096, 0.92, -0.392, 192.0, 3.0, 0.0, 28.0, 192.0, 243.0, 192.0, 0.0, 0.0, 0.0, 1.741281157148339E9, 0.0, 2025-03-06 11:12:37.148
29.0, -31559.769101115362, -28608.333004514338, -34925.65124340668, -33314.53750306815, -5829.089084755074, -8387.1791824316, -40942.45027809743, -28478.603479695736, 0.096, 0.92, -0.392, 192.0, 0.0, 0.0, 0.0, 0.0, 0.0, 0.0, 0.0, 0.0, 0.0, 1.741281157148379E9, 0.0, 2025-03-06 11:12:37.148
30.0, -31563.278324994844, -28605.80725739089, -34926.76883062945, -33319.90192173742, -5844.467084940325, -8391.42601387811, -40943.456106597914, -28476.770636650403, 0.096, 0.92, -0.392, 192.0, 0.0, 0.0, 0.0, 0.0, 0.0, 0.0, 0.0, 0.0, 0.0, 1.741281157148417E9, 0.0, 2025-03-06 11:12:37.148
31.0, -31566.80990061878, -28603.66148992318, -34928.10993529677, -33313.86695073449, -5840.48847442728, -8391.046034222369, -40944.35017637613, -28507.839561443277, 0.096, 0.92, -0.392, 192.0, 0.0, 0.0, 0.0, 0.0, 0.0, 0.0, 0.0, 0.0, 0.0, 1.741281157208262E9, 0.0, 2025-03-06 11:12:37.208
32.0, -31567.34634248571, -28607.41658299167, -34931.77562138744, -33312.615253045, -5810.648895579445, -8391.783641789394, -40942.7632025198, -28500.50818926194, 0.096, 0.92, -0.392, 192.0, 0.0, 0.0, 0.0, 0.0, 0.0, 0.0, 0.0, 0.0, 0.0, 1.741281157208308E9, 0.0, 2025-03-06 11:12:37.208
33.0, -31563.032455805835, -28612.311615027385, -34927.1935137741, -33309.55306405462, -5832.643012123467, -8391.023682477913, -40942.04794669723, -28490.8745874017, 0.096, 0.92, -0.392, 192.0, 0.0, 0.0, 0.0, 0.0, 0.0, 0.0, 0.0, 0.0, 0.0, 1.74128115720834E9, 0.0, 2025-03-06 11:12:37.208
34.0, -31557.24335399191, -28611.015213848976, -34919.70567938157, -33304.0098314297, -5861.879093871009, -8383.1782201741, -40930.71561225839, -28482.895014631154, 0.096, 0.92, -0.392, 192.0, 0.0, 0.0, 0.0, 0.0, 0.0, 0.0, 0.0, 0.0, 0.0, 1.741281157208371E9, 0.0, 2025-03-06 11:12:37.208
35.0, -31552.66124637857, -28603.23680677853, -34913.46954267854, -33294.53269178065, -5844.0647535401295, -8377.299711382355, -40930.67090876948, -28493.892072903167, 0.096, 0.92, -0.392, 192.0, 0.0, 0.0, 0.0, 0.0, 0.0, 0.0, 0.0, 0.0, 0.0, 1.741281157208428E9, 0.0, 2025-03-06 11:12:37.208
36.0, -31551.521307411353, -28598.43118172064, -34910.60851938826, -33287.02250564367, -5818.650820094445, -8376.293882881866, -40923.04896391022, -28495.434343270583, 0.096, 0.92, -0.392, 192.0, 0.0, 0.0, 0.0, 0.0, 0.0, 0.0, 0.0, 0.0, 0.0, 1.741281157208466E9, 0.0, 2025-03-06 11:12:37.208
37.0, -31552.996522545403, -28604.354394001293, -34906.36168794175, -33281.23340382974, -5828.932622543886, -8370.41537409012, -40916.119923129074, -28495.054363614843, 0.096, 0.92, -0.392, 192.0, 0.0, 0.0, 0.0, 0.0, 0.0, 0.0, 0.0, 0.0, 0.0, 1.741281157208509E9, 0.0, 2025-03-06 11:12:37.208
38.0, -31552.996522545403, -28612.244559794017, -34908.48510366501, -33289.43649404484, -5866.081221828606, -8373.365804358222, -40909.88378642604, -28459.00099980843, 0.076, 0.92, -0.39, 192.0, 2.0, 96.0, 28.0, 192.0, 243.0, 208.0, 0.0, 0.0, 0.0, 1.741281157208547E9, 0.0, 2025-03-06 11:12:37.208
39.0, -31560.774929615847, -28624.24744656652, -34920.39858345969, -33304.2109971298, -5858.660442669445, -8386.508630097942, -40909.682620725944, -28461.68320914307, 0.076, 0.92, -0.39, 192.0, 0.0, 0.0, 0.0, 0.0, 0.0, 0.0, 0.0, 0.0, 0.0, 1.741281157208582E9, 0.0, 2025-03-06 11:12:37.208
40.0, -31564.507670939885, -28627.13082160125, -34921.31500498235, -33297.86310170449, -5828.284421954682, -8384.787545774883, -40929.553321546715, -28514.8803609467, 0.076, 0.92, -0.39, 192.0, 0.0, 0.0, 0.0, 0.0, 0.0, 0.0, 0.0, 0.0, 0.0, 1.741281157208619E9, 0.0, 2025-03-06 11:12:37.208
41.0, -31568.016894819368, -28632.159964103696, -34918.49868518099, -33296.54434878163, -5836.82278833661, -8385.592208575274, -40922.847798210125, -28504.30798581934, 0.076, 0.92, -0.39, 192.0, 0.0, 0.0, 0.0, 0.0, 0.0, 0.0, 0.0, 0.0, 0.0, 1.741281157208651E9, 0.0, 2025-03-06 11:12:37.208
42.0, -31564.19474651751, -28628.315464057385, -34907.7921995869, -33285.793159698624, -5864.628358439012, -8361.474676307998, -40904.49701601232, -28519.775392982414, 0.076, 0.92, -0.39, 192.0, 0.0, 0.0, 0.0, 0.0, 0.0, 0.0, 0.0, 0.0, 0.0, 1.741281157208682E9, 0.0, 2025-03-06 11:12:37.208
43.0, -31566.38521747413, -28632.405833292705, -34911.01085078846, -33290.06234288959, -5850.546759432168, -8355.46205704952, -40903.04415262272, -28523.37402383972, 0.076, 0.92, -0.39, 192.0, 0.0, 0.0, 0.0, 0.0, 0.0, 0.0, 0.0, 0.0, 0.0, 1.741281157208713E9, 0.0, 2025-03-06 11:12:37.208
44.0, -31567.189880274524, -28638.597266506826, -34920.845618348794, -33301.52878779516, -5814.62750609249, -8362.256987363933, -40910.37552480406, -28524.64807327367, 0.076, 0.92, -0.39, 192.0, 0.0, 0.0, 0.0, 0.0, 0.0, 0.0, 0.0, 0.0, 0.0, 1.74128115720875E9, 0.0, 2025-03-06 11:12:37.208
45.0, -31562.563069172273, -28640.13953687424, -34921.136191026715, -33307.25083437572, -5807.34083740006, -8372.315272368822, -40913.16949286097, -28529.677215776115, 0.076, 0.92, -0.39, 192.0, 0.0, 0.0, 0.0, 0.0, 0.0, 0.0, 0.0, 0.0, 0.0, 1.741281157208781E9, 0.0, 2025-03-06 11:12:37.208
46.0, -31559.322066226254, -28642.39706306423, -34918.252815991975, -33309.6648227769, -5834.6770208689, -8372.56114155783, -40909.03442013674, -28517.8307912148, 0.076, 0.92, -0.39, 192.0, 0.0, 0.0, 0.0, 0.0, 0.0, 0.0, 0.0, 0.0, 0.0, 1.741281157268594E9, 0.0, 2025-03-06 11:12:37.268
47.0, -31542.647664862594, -28628.33781580184, -34904.841769318795, -33304.68038376336, -5817.466177638314, -8364.849789720749, -40890.92950712794, -28490.807532168335, 0.076, 0.92, -0.39, 192.0, 0.0, 0.0, 0.0, 0.0, 0.0, 0.0, 0.0, 0.0, 0.0, 1.74128115726864E9, 0.0, 2025-03-06 11:12:37.268
48.0, -31530.443612389998, -28614.502085984004, -34893.4870831355, -33299.60653777201, -5792.7004447818335, -8358.971280929003, -40875.88678310952, -28478.11174131772, 0.054, 0.914, -0.382, 192.0, 1.0, 176.0, 28.0, 144.0, 244.0, 16.0, 0.0, 0.0, 0.0, 1.741281157268672E9, 0.0, 2025-03-06 11:12:37.268
49.0, -31537.126783982134, -28616.75961217399, -34900.72904833902, -33310.760058255204, -5756.71413620879, -8363.620443775708, -40876.26676276526, -28476.524767461393, 0.054, 0.914, -0.382, 192.0, 0.0, 0.0, 0.0, 0.0, 0.0, 0.0, 0.0, 0.0, 0.0, 1.741281157268705E9, 0.0, 2025-03-06 11:12:37.268
50.0, -31536.523286881842, -28619.397118019715, -34899.49970239397, -33309.75422975472, -5760.916264166387, -8370.3259671123, -40870.76823362926, -28458.621020152692, 0.054, 0.914, -0.382, 192.0, 0.0, 0.0, 0.0, 0.0, 0.0, 0.0, 0.0, 0.0, 0.0, 1.741281157268764E9, 0.0, 2025-03-06 11:12:37.268
51.0, -31494.52435905032, -28581.980297801532, -34860.317094363825, -33270.236345557736, -5729.46735971777, -8346.454304034032, -40833.10554422207, -28445.277028712873, 0.054, 0.914, -0.382, 192.0, 0.0, 0.0, 0.0, 0.0, 0.0, 0.0, 0.0, 0.0, 0.0, 1.741281157268802E9, 0.0, 2025-03-06 11:12:37.268
52.0, -31454.738253919873, -28541.03190195941, -34825.58248348028, -33229.15383924888, -5670.458754355759, -8314.491309462943, -40801.52252930672, -28416.398574876617, 0.054, 0.914, -0.382, 192.0, 0.0, 0.0, 0.0, 0.0, 0.0, 0.0, 0.0, 0.0, 0.0, 1.741281157268833E9, 0.0, 2025-03-06 11:12:37.268
53.0, -31433.772317620795, -28519.417765071128, -34807.85755012721, -33208.92551051683, -5616.166367073818, -8296.699320876518, -40782.23297384178, -28388.615356518672, 0.054, 0.914, -0.382, 192.0, 0.0, 0.0, 0.0, 0.0, 0.0, 0.0, 0.0, 0.0, 0.0, 1.741281157268877E9, 0.0, 2025-03-06 11:12:37.268
54.0, -31417.63435812406, -28504.7773724529, -34787.85273883972, -33191.04411495258, -5631.790236448078, -8283.020053269871, -40766.027959111685, -28367.850585919692, 0.054, 0.914, -0.382, 192.0, 0.0, 0.0, 0.0, 0.0, 0.0, 0.0, 0.0, 0.0, 0.0, 1.741281157268908E9, 0.0, 2025-03-06 11:12:37.268
55.0, -31414.862741811605, -28500.642299728668, -34788.07625628427, -33187.378428861906, -5646.430629066304, -8285.031710270847, -40766.54204923416, -28371.22569933244, 0.054, 0.914, -0.382, 192.0, 0.0, 0.0, 0.0, 0.0, 0.0, 0.0, 0.0, 0.0, 0.0, 1.741281157268946E9, 0.0, 2025-03-06 11:12:37.268
56.0, -31412.001718521326, -28499.30119506135, -34789.909099329605, -33187.870167239926, -5656.198341393273, -8281.96952128047, -40769.4254242689, -28378.646478491602, 0.054, 0.914, -0.382, 192.0, 0.0, 0.0, 0.0, 0.0, 0.0, 0.0, 0.0, 0.0, 0.0, 1.741281157268977E9, 0.0, 2025-03-06 11:12:37.268
57.0, -31409.431267908963, -28495.099067103754, -34785.706971372005, -33182.43869333729, -5653.1138006584415, -8280.024919512858, -40764.910371888924, -28373.617335989158, 0.054, 0.914, -0.382, 192.0, 0.0, 0.0, 0.0, 0.0, 0.0, 0.0, 0.0, 0.0, 0.0, 1.741281157269008E9, 0.0, 2025-03-06 11:12:37.269
58.0, -31422.998776793338, -28511.527599278405, -34787.89744232863, -33179.22004213572, -5666.390736864893, -8277.029785755847, -40762.00464510973, -28378.04298139131, 0.038, 0.914, -0.374, 192.0, 1.0, 48.0, 28.0, 144.0, 244.0, 80.0, 0.0, 0.0, 0.0, 1.741281157269039E9, 0.0, 2025-03-06 11:12:37.269
59.0, -31427.13384951757, -28522.524657550417, -34788.567994662284, -33176.694295012276, -5698.733711091722, -8273.475858387454, -40758.49542123025, -28369.392856287108, 0.038, 0.914, -0.374, 192.0, 0.0, 0.0, 0.0, 0.0, 0.0, 0.0, 0.0, 0.0, 0.0, 1.741281157269078E9, 0.0, 2025-03-06 11:12:37.269
60.0, -31430.196038507944, -28527.240875630487, -34792.59130866424, -33177.40955083484, -5676.784298036611, -8266.569169350763, -40758.02603459669, -28375.450179034495, 0.038, 0.914, -0.374, 192.0, 0.0, 0.0, 0.0, 0.0, 0.0, 0.0, 0.0, 0.0, 0.0, 1.74128115726911E9, 0.0, 2025-03-06 11:12:37.269
61.0, -31428.27378848479, -28529.006663442455, -34795.20646276551, -33176.828405479006, -5659.305233872561, -8257.270843657356, -40757.55664796313, -28368.029399875333, 0.038, 0.914, -0.374, 192.0, 0.0, 0.0, 0.0, 0.0, 0.0, 0.0, 0.0, 0.0, 0.0, 1.741281157328779E9, 0.0, 2025-03-06 11:12:37.328
62.0, -31446.289294515766, -28554.8899835217, -34810.76327690641, -33191.3346876305, -5673.610350323957, -8270.570131608263, -40771.68295045888, -28363.112016095165, 0.038, 0.914, -0.374, 192.0, 0.0, 0.0, 0.0, 0.0, 0.0, 0.0, 0.0, 0.0, 0.0, 1.741281157328829E9, 0.0, 2025-03-06 11:12:37.328
63.0, -31443.450622969944, -28560.209698702063, -34805.287099514855, -33189.14421667388, -5705.439234428315, -8261.562378592775, -40760.77529916469, -28362.888498650613, 0.038, 0.914, -0.374, 192.0, 0.0, 0.0, 0.0, 0.0, 0.0, 0.0, 0.0, 0.0, 0.0, 1.741281157328861E9, 0.0, 2025-03-06 11:12:37.328
64.0, -31438.399128723042, -28561.93078302512, -34799.3638872342, -33183.93626021579, -5697.772586080145, -8252.398163366099, -40757.48959272976, -28383.18388261603, 0.038, 0.914, -0.374, 192.0, 0.0, 0.0, 0.0, 0.0, 0.0, 0.0, 0.0, 0.0, 0.0, 1.741281157328892E9, 0.0, 2025-03-06 11:12:37.328
65.0, -31438.80146012324, -28561.79667255839, -34798.67098315609, -33178.41537933533, -5665.273149642128, -8245.513826073864, -40756.953150862835, -28374.176129600542, 0.038, 0.914, -0.374, 192.0, 0.0, 0.0, 0.0, 0.0, 0.0, 0.0, 0.0, 0.0, 0.0, 1.741281157328923E9, 0.0, 2025-03-06 11:12:37.328
66.0, -31444.143527048058, -28568.41278891716, -34806.27057627089, -33183.44452183777, -5652.711469258245, -8250.900596487594, -40760.529429975686, -28383.899138438603, 0.038, 0.914, -0.374, 192.0, 0.0, 0.0, 0.0, 0.0, 0.0, 0.0, 0.0, 0.0, 0.0, 1.741281157328986E9, 0.0, 2025-03-06 11:12:37.328
67.0, -31443.36121599212, -28576.504120409983, -34806.09176231525, -33190.597080063475, -5686.708472574767, -8261.785896037329, -40766.20677306733, -28382.222757604453, 0.038, 0.914, -0.374, 192.0, 0.0, 0.0, 0.0, 0.0, 0.0, 0.0, 0.0, 0.0, 0.0, 1.741281157329016E9, 0.0, 2025-03-06 11:12:37.329
68.0, -31432.45356469793, -28580.393323945205, -34796.86049185521, -33193.882786498405, -5689.234219698217, -8272.537085120332, -40760.864706142514, -28376.098379623698, 0.032, 0.916, -0.364, 192.0, 1.0, 0.0, 28.0, 160.0, 244.0, 160.0, 0.0, 0.0, 0.0, 1.74128115732906E9, 0.0, 2025-03-06 11:12:37.329
69.0, -31414.862741811605, -28572.436102919117, -34788.992677806935, -33194.575690576516, -5663.529713574614, -8271.710070575486, -40753.84625838354, -28372.52210051085, 0.032, 0.916, -0.364, 192.0, 0.0, 0.0, 0.0, 0.0, 0.0, 0.0, 0.0, 0.0, 0.0, 1.741281157329094E9, 0.0, 2025-03-06 11:12:37.329
70.0, -31418.93075930247, -28571.743198841003, -34792.300735986326, -33198.24137666719, -5646.3635738329385, -8272.022994997858, -40765.37975852248, -28398.830103734745, 0.032, 0.916, -0.364, 192.0, 0.0, 0.0, 0.0, 0.0, 0.0, 0.0, 0.0, 0.0, 0.0, 1.741281157329125E9, 0.0, 2025-03-06 11:12:37.329
71.0, -31440.3213787462, -28587.724696126545, -34805.95765184851, -33215.74279257569, -5683.60158009548, -8281.276617202357, -40772.755834192736, -28384.770856472358, 0.032, 0.916, -0.364, 192.0, 0.0, 0.0, 0.0, 0.0, 0.0, 0.0, 0.0, 0.0, 0.0, 1.741281157329162E9, 0.0, 2025-03-06 11:12:37.329
72.0, -31438.108556045125, -28583.388457702218, -34802.02374482438, -33214.87107454194, -5710.960115308776, -8283.288274203334, -40773.29227605966, -28414.789249275836, 0.032, 0.916, -0.364, 192.0, 0.0, 0.0, 0.0, 0.0, 0.0, 0.0, 0.0, 0.0, 0.0, 1.741281157329193E9, 0.0, 2025-03-06 11:12:37.329
73.0, -31444.456451470433, -28584.97543155854, -34816.77589616489, -33225.10817350247, -5674.772641035634, -8296.676969132062, -40796.02400017071, -28444.517069401394, 0.032, 0.916, -0.364, 192.0, 0.0, 0.0, 0.0, 0.0, 0.0, 0.0, 0.0, 0.0, 0.0, 1.741281157329224E9, 0.0, 2025-03-06 11:12:37.329
74.0, -31448.926800361492, -28591.636251406224, -34825.94011139156, -33233.95946430677, -5667.865951998943, -8308.12106229318, -40802.7295235073, -28447.0651682693, 0.032, 0.916, -0.364, 192.0, 0.0, 0.0, 0.0, 0.0, 0.0, 0.0, 0.0, 0.0, 0.0, 1.741281157329261E9, 0.0, 2025-03-06 11:12:37.329
75.0, -31443.405919481032, -28588.75287637149, -34818.69814618804, -33226.04694676959, -5701.862955315466, -8304.88005934716, -40790.83839545708, -28432.961217518, 0.032, 0.916, -0.364, 192.0, 0.0, 0.0, 0.0, 0.0, 0.0, 0.0, 0.0, 0.0, 0.0, 1.741281157329292E9, 0.0, 2025-03-06 11:12:37.329
76.0, -31434.26405599881, -28585.914204825665, -34813.44548624104, -33226.06929851405, -5714.983429310731, -8310.803271627818, -40789.36318032303, -28418.90197025561, 0.032, 0.916, -0.364, 192.0, 0.0, 0.0, 0.0, 0.0, 0.0, 0.0, 0.0, 0.0, 0.0, 1.741281157389027E9, 0.0, 2025-03-06 11:12:37.389
77.0, -31434.64403565455, -28589.825760105345, -34822.766163678905, -33236.90989457487, -5687.267266186151, -8324.013152600903, -40794.50408154775, -28415.14687718712, 0.032, 0.916, -0.364, 192.0, 0.0, 0.0, 0.0, 0.0, 0.0, 0.0, 0.0, 0.0, 0.0, 1.741281157389073E9, 0.0, 2025-03-06 11:12:37.389
78.0, -31446.579867193686, -28600.733411399535, -34841.13929762117, -33247.75049063569, -5662.657995540857, -8340.754609197927, -40814.64300330198, -28444.24884846793, 0.032, 0.914, -0.36, 192.0, 1.0, 0.0, 28.0, 144.0, 244.0, 192.0, 0.0, 0.0, 0.0, 1.741281157389105E9, 0.0, 2025-03-06 11:12:37.389
79.0, -31454.291219030765, -28608.08713532533, -34847.95657968004, -33250.16447903687, -5707.428539684837, -8340.575795242286, -40818.956889981855, -28445.25467696842, 0.032, 0.914, -0.36, 192.0, 0.0, 0.0, 0.0, 0.0, 0.0, 0.0, 0.0, 0.0, 0.0, 1.741281157389139E9, 0.0, 2025-03-06 11:12:37.389
80.0, -31466.115291847622, -28613.339795272328, -34850.92936169259, -33251.19265928181, -5718.202080512296, -8335.1666730841, -40821.46028536085, -28470.176872036085, 0.032, 0.914, -0.36, 192.0, 0.0, 0.0, 0.0, 0.0, 0.0, 0.0, 0.0, 0.0, 0.0, 1.741281157389169E9, 0.0, 2025-03-06 11:12:37.389
81.0, -31467.94813489296, -28613.898588883712, -34851.152879137146, -33244.26361850066, -5711.250687986695, -8329.399923014633, -40824.38836388449, -28457.503432929927, 0.032, 0.914, -0.36, 192.0, 0.0, 0.0, 0.0, 0.0, 0.0, 0.0, 0.0, 0.0, 0.0, 1.741281157389226E9, 0.0, 2025-03-06 11:12:37.389
82.0, -31465.422387769508, -28615.686728440134, -34855.26560011692, -33244.44243245631, -5679.555914349069, -8336.284260306868, -40819.67214580443, -28446.23815372445, 0.032, 0.914, -0.36, 192.0, 0.0, 0.0, 0.0, 0.0, 0.0, 0.0, 0.0, 0.0, 0.0, 1.741281157389267E9, 0.0, 2025-03-06 11:12:37.389
83.0, -31478.989896653882, -28629.76832744698, -34862.66402753163, -33244.10715628948, -5681.07583297203, -8337.178330085078, -40827.919939508436, -28481.64331694166, 0.032, 0.914, -0.36, 192.0, 0.0, 0.0, 0.0, 0.0, 0.0, 0.0, 0.0, 0.0, 0.0, 1.741281157389305E9, 0.0, 2025-03-06 11:12:37.389
84.0, -31475.771245452317, -28628.315464057385, -34854.170364638616, -33235.63584514092, -5717.5091764341805, -8331.858614904717, -40822.51081735025, -28481.308040774828, 0.032, 0.914, -0.36, 192.0, 0.0, 0.0, 0.0, 0.0, 0.0, 0.0, 0.0, 0.0, 0.0, 1.741281157389342E9, 0.0, 2025-03-06 11:12:37.389
85.0, -31465.400036025054, -28623.688652955134, -34846.90604769064, -33232.126621261436, -5724.907603848887, -8325.890699135149, -40823.784866784204, -28480.59278495226, 0.032, 0.914, -0.36, 192.0, 0.0, 0.0, 0.0, 0.0, 0.0, 0.0, 0.0, 0.0, 0.0, 1.741281157389373E9, 0.0, 2025-03-06 11:12:37.389
86.0, -31459.767396422318, -28618.056013352398, -34841.720442977006, -33222.44831591229, -5680.271170171639, -8313.396073984632, -40818.956889981855, -28467.44995921254, 0.032, 0.914, -0.36, 192.0, 0.0, 0.0, 0.0, 0.0, 0.0, 0.0, 0.0, 0.0, 0.0, 1.74128115738941E9, 0.0, 2025-03-06 11:12:37.389
87.0, -31464.03657961328, -28622.548713987915, -34838.926474920096, -33215.407516408864, -5682.998082995186, -8309.350408238222, -40815.7829422692, -28466.19826152304, 0.032, 0.914, -0.36, 192.0, 0.0, 0.0, 0.0, 0.0, 0.0, 0.0, 0.0, 0.0, 0.0, 1.741281157389441E9, 0.0, 2025-03-06 11:12:37.389
88.0, -31471.055027372247, -28628.538981501937, -34840.40169005415, -33218.51440888815, -5715.6316298999345, -8311.674989661573, -40813.927747479414, -28461.01265680941, 0.034, 0.912, -0.354, 192.0, 1.0, 16.0, 28.0, 128.0, 244.0, 240.0, 0.0, 0.0, 0.0, 1.741281157389472E9, 0.0, 2025-03-06 11:12:37.389
89.0, -31467.970486637416, -28627.667263468178, -34837.60772199723, -33216.748621076185, -5731.031981829641, -8309.88685010515, -40808.00453519876, -28448.54038340335, 0.034, 0.912, -0.354, 192.0, 0.0, 0.0, 0.0, 0.0, 0.0, 0.0, 0.0, 0.0, 0.0, 1.741281157389511E9, 0.0, 2025-03-06 11:12:37.389
90.0, -31466.115291847622, -28631.400004792216, -34842.16747786611, -33223.40944092387, -5687.2225626972395, -8320.570983954785, -40819.56038708215, -28467.87464235719, 0.034, 0.912, -0.354, 192.0, 0.0, 0.0, 0.0, 0.0, 0.0, 0.0, 0.0, 0.0, 0.0, 1.741281157389549E9, 0.0, 2025-03-06 11:12:37.389
91.0, -31470.071550616212, -28641.212420608095, -34843.21800985551, -33228.706804359776, -5683.2886556731055, -8327.835300902761, -40826.06474471864, -28464.365418477708, 0.034, 0.912, -0.354, 192.0, 0.0, 0.0, 0.0, 0.0, 0.0, 0.0, 0.0, 0.0, 0.0, 1.741281157447859E9, 0.0, 2025-03-06 11:12:37.447
92.0, -31475.301858818755, -28652.25418236902, -34847.84482095776, -33243.235438255724, -5718.93968807932, -8337.401847529633, -40826.17650344092, -28467.651124912638, 0.034, 0.912, -0.354, 192.0, 0.0, 0.0, 0.0, 0.0, 0.0, 0.0, 0.0, 0.0, 0.0, 1.741281157447906E9, 0.0, 2025-03-06 11:12:37.447
93.0, -31483.43789380049, -28656.009275437507, -34858.774823996406, -33253.00315058269, -5724.304106748594, -8337.22303357399, -40830.915073265445, -28460.63267715367, 0.034, 0.912, -0.354, 192.0, 0.0, 0.0, 0.0, 0.0, 0.0, 0.0, 0.0, 0.0, 0.0, 1.741281157447938E9, 0.0, 2025-03-06 11:12:37.447
94.0, -31480.50981527684, -28657.39508359374, -34866.3297136223, -33259.84278438601, -5704.411054183371, -8343.459170277021, -40840.12399198103, -28464.432473711073, 0.034, 0.912, -0.354, 192.0, 0.0, 0.0, 0.0, 0.0, 0.0, 0.0, 0.0, 0.0, 0.0, 1.741281157447969E9, 0.0, 2025-03-06 11:12:37.447
95.0, -31469.266887815822, -28652.276534113473, -34855.556172794844, -33255.752415150695, -5700.5442023926025, -8340.262870819912, -40843.25323620477, -28495.613157226224, 0.034, 0.912, -0.354, 192.0, 0.0, 0.0, 0.0, 0.0, 0.0, 0.0, 0.0, 0.0, 0.0, 1.741281157448E9, 0.0, 2025-03-06 11:12:37.448
96.0, -31481.31447807723, -28666.492243587047, -34862.529917064894, -33265.38601701093, -5723.767664881667, -8347.84011219026, -40847.902399051476, -28501.69283171807, 0.034, 0.912, -0.354, 192.0, 0.0, 0.0, 0.0, 0.0, 0.0, 0.0, 0.0, 0.0, 0.0, 1.741281157448059E9, 0.0, 2025-03-06 11:12:37.448
97.0, -31484.980164167904, -28669.822653510888, -34868.0284462009, -33271.5998019695, -5739.547996467113, -8352.578682014786, -40853.87031482105, -28499.30119506135, 0.036000000000000004, 0.91, -0.352, 192.0, 1.0, 32.0, 28.0, 112.0, 245.0, 0.0, 0.0, 0.0, 0.0, 1.741281157448098E9, 0.0, 2025-03-06 11:12:37.448
98.0, -31486.924765935513, -28671.119054689298, -34873.459920103545, -33280.27227881816, -5721.554842180592, -8360.602958274241, -40861.671073635946, -28497.378945038196, 0.036000000000000004, 0.91, -0.352, 192.0, 0.0, 0.0, 0.0, 0.0, 0.0, 0.0, 0.0, 0.0, 0.0, 1.741281157448132E9, 0.0, 2025-03-06 11:12:37.448
99.0, -31488.154111880558, -28672.795435523443, -34874.7339695375, -33281.68043871885, -5709.574307152547, -8361.474676307998, -40855.524343910736, -28483.900843131643, 0.036000000000000004, 0.91, -0.352, 192.0, 0.0, 0.0, 0.0, 0.0, 0.0, 0.0, 0.0, 0.0, 0.0, 1.741281157448176E9, 0.0, 2025-03-06 11:12:37.448
100.0, -31499.553501552764, -28686.854682785834, -34885.395751642674, -33295.046781903126, -5742.364316268482, -8366.615577532719, -40856.73133811133, -28482.64914544215, 0.036000000000000004, 0.91, -0.352, 192.0, 0.0, 0.0, 0.0, 0.0, 0.0, 0.0, 0.0, 0.0, 0.0, 1.741281157448207E9, 0.0, 2025-03-06 11:12:37.448
101.0, -31496.647774773573, -28676.72934254758, -34880.724237051516, -33284.65322073141, -5764.894874679431, -8355.305594838333, -40855.12201251054, -28512.64518650117, 0.036000000000000004, 0.91, -0.352, 192.0, 0.0, 0.0, 0.0, 0.0, 0.0, 0.0, 0.0, 0.0, 0.0, 1.741281157448246E9, 0.0, 2025-03-06 11:12:37.448
102.0, -31507.108391178655, -28680.99852573854, -34890.9836877565, -33292.945717924325, -5732.350734752505, -8358.568949528808, -40865.53792542672, -28520.557704038347, 0.036000000000000004, 0.91, -0.352, 192.0, 0.0, 0.0, 0.0, 0.0, 0.0, 0.0, 0.0, 0.0, 0.0, 1.741281157448278E9, 0.0, 2025-03-06 11:12:37.448
103.0, -31513.65745230406, -28689.44748514265, -34901.77958032842, -33302.512264551195, -5720.191385768818, -8375.84684799276, -40876.222059276355, -28521.161201138642, 0.036000000000000004, 0.91, -0.352, 192.0, 0.0, 0.0, 0.0, 0.0, 0.0, 0.0, 0.0, 0.0, 0.0, 1.741281157448309E9, 0.0, 2025-03-06 11:12:37.448
104.0, -31507.04133594529, -28687.279365930484, -34895.23051920301, -33296.38788657044, -5753.093153607029, -8373.835190991782, -40864.397986459495, -28487.499473988948, 0.036000000000000004, 0.91, -0.352, 192.0, 0.0, 0.0, 0.0, 0.0, 0.0, 0.0, 0.0, 0.0, 0.0, 1.74128115744834E9, 0.0, 2025-03-06 11:12:37.448
105.0, -31507.86835049014, -28687.94991826414, -34900.68434485011, -33301.28291860616, -5769.007595659208, -8379.199609661056, -40870.36590222906, -28504.375041052706, 0.036000000000000004, 0.91, -0.352, 192.0, 0.0, 0.0, 0.0, 0.0, 0.0, 0.0, 0.0, 0.0, 0.0, 1.741281157448378E9, 0.0, 2025-03-06 11:12:37.448
106.0, -31499.218225385932, -28677.601060581335, -34890.089617978294, -33291.403447556906, -5755.775362941667, -8367.956682200036, -40862.34162596961, -28526.860895974743, 0.036000000000000004, 0.91, -0.352, 192.0, 0.0, 0.0, 0.0, 0.0, 0.0, 0.0, 0.0, 0.0, 0.0, 1.741281157508094E9, 0.0, 2025-03-06 11:12:37.508
107.0, -31488.489388047386, -28668.772121521488, -34881.12656845171, -33277.411255527884, -5725.51110094918, -8357.026679161392, -40860.17350675744, -28519.64128251568, 0.036000000000000004, 0.91, -0.354, 192.0, 1.0, 32.0, 28.0, 112.0, 244.0, 240.0, 0.0, 0.0, 0.0, 1.741281157508166E9, 0.0, 2025-03-06 11:12:37.508
108.0, -31488.623498514116, -28668.19097616565, -34878.198489928065, -33274.81845317107, -5739.011554600186, -8363.732202497984, -40858.96651255686, -28497.87068341621, 0.036000000000000004, 0.91, -0.354, 192.0, 0.0, 0.0, 0.0, 0.0, 0.0, 0.0, 0.0, 0.0, 0.0, 1.741281157508202E9, 0.0, 2025-03-06 11:12:37.508
109.0, -31487.66237350254, -28670.11322618881, -34871.984704969494, -33267.710598434285, -5762.033851389152, -8359.46301930702, -40853.66914912095, -28510.0300323999, 0.036000000000000004, 0.91, -0.354, 192.0, 0.0, 0.0, 0.0, 0.0, 0.0, 0.0, 0.0, 0.0, 0.0, 1.741281157508234E9, 0.0, 2025-03-06 11:12:37.508
110.0, -31484.533129278796, -28669.017990710498, -34866.1285479222, -33259.86513613047, -5746.879368648454, -8347.393077301154, -40852.640968876, -28518.65780575965, 0.036000000000000004, 0.91, -0.354, 192.0, 0.0, 0.0, 0.0, 0.0, 0.0, 0.0, 0.0, 0.0, 0.0, 1.741281157508265E9, 0.0, 2025-03-06 11:12:37.508
111.0, -31487.170635124523, -28672.303697145428, -34869.43660610159, -33260.49098497522, -5703.137004749418, -8344.375591799688, -40855.25612297728, -28511.304081833852, 0.036000000000000004, 0.91, -0.354, 192.0, 0.0, 0.0, 0.0, 0.0, 0.0, 0.0, 0.0, 0.0, 0.0, 1.741281157508304E9, 0.0, 2025-03-06 11:12:37.508
112.0, -31500.022888186326, -28687.994621753052, -34878.198489928065, -33268.470557745764, -5705.908621061876, -8351.50579828093, -40859.19003000141, -28510.298253333363, 0.036000000000000004, 0.91, -0.354, 192.0, 0.0, 0.0, 0.0, 0.0, 0.0, 0.0, 0.0, 0.0, 0.0, 1.741281157508342E9, 0.0, 2025-03-06 11:12:37.508
113.0, -31509.05299294627, -28699.773991081, -34885.32869640931, -33276.025447371656, -5741.291432534627, -8359.574778029297, -40858.00538754528, -28496.39546828216, 0.036000000000000004, 0.91, -0.354, 192.0, 0.0, 0.0, 0.0, 0.0, 0.0, 0.0, 0.0, 0.0, 0.0, 1.741281157508373E9, 0.0, 2025-03-06 11:12:37.508
114.0, -31509.27651039082, -28692.196749710653, -34885.395751642674, -33270.39280776892, -5753.719002451779, -8357.674879750595, -40853.80325958768, -28497.669517716113, 0.036000000000000004, 0.91, -0.354, 192.0, 0.0, 0.0, 0.0, 0.0, 0.0, 0.0, 0.0, 0.0, 0.0, 1.741281157508419E9, 0.0, 2025-03-06 11:12:37.508
115.0, -31513.81391451525, -28689.738057820567, -34889.55317611137, -33266.794176911615, -5720.70547589129, -8352.712792481518, -40862.05105329169, -28533.387605355696, 0.036000000000000004, 0.91, -0.354, 192.0, 0.0, 0.0, 0.0, 0.0, 0.0, 0.0, 0.0, 0.0, 0.0, 1.74128115750845E9, 0.0, 2025-03-06 11:12:37.508
116.0, -31522.978129741925, -28708.692337118668, -34902.80776057336, -33277.03127587215, -5705.4168826838595, -8357.674879750595, -40869.51653593976, -28539.020244958432, 0.036000000000000004, 0.91, -0.354, 192.0, 0.0, 0.0, 0.0, 0.0, 0.0, 0.0, 0.0, 0.0, 0.0, 1.741281157508488E9, 0.0, 2025-03-06 11:12:37.508
117.0, -31522.888722764103, -28715.084936032887, -34901.80193207287, -33279.53467125114, -5754.2554443187055, -8357.317251839311, -40870.209440017876, -28533.07468093332, 0.04, 0.912, -0.354, 192.0, 1.0, 64.0, 28.0, 128.0, 244.0, 240.0, 0.0, 0.0, 0.0, 1.741281157508524E9, 0.0, 2025-03-06 11:12:37.508
118.0, -31522.46403961945, -28713.274444732007, -34899.20912971606, -33281.99336314123, -5767.957063669809, -8355.573815771797, -40868.77892837273, -28535.332207123305, 0.04, 0.912, -0.354, 192.0, 0.0, 0.0, 0.0, 0.0, 0.0, 0.0, 0.0, 0.0, 0.0, 1.741281157508559E9, 0.0, 2025-03-06 11:12:37.508
119.0, -31520.966472740947, -28713.49796217656, -34898.113894237744, -33288.63183124445, -5731.9484033523095, -8356.020850660903, -40867.95191382789, -28525.698605263067, 0.04, 0.912, -0.354, 192.0, 0.0, 0.0, 0.0, 0.0, 0.0, 0.0, 0.0, 0.0, 0.0, 1.74128115750859E9, 0.0, 2025-03-06 11:12:37.508
120.0, -31526.95674025497, -28715.48726743308, -34899.81262681635, -33291.02346790117, -5719.900813090899, -8359.574778029297, -40870.0976812956, -28532.73940476649, 0.04, 0.912, -0.354, 192.0, 0.0, 0.0, 0.0, 0.0, 0.0, 0.0, 0.0, 0.0, 0.0, 1.741281157508628E9, 0.0, 2025-03-06 11:12:37.508
121.0, -31536.344472926197, -28724.02563381501, -34905.86994956374, -33296.723162737275, -5759.798676943622, -8360.89353095216, -40873.94218134191, -28535.354558867763, 0.04, 0.912, -0.354, 192.0, 0.0, 0.0, 0.0, 0.0, 0.0, 0.0, 0.0, 0.0, 0.0, 1.741281157568499E9, 0.0, 2025-03-06 11:12:37.568
122.0, -31529.57189435624, -28718.102421534353, -34902.85246406227, -33293.97389816927, -5774.707290495311, -8357.920748939605, -40868.26483825026, -28529.45369833156, 0.04, 0.912, -0.354, 192.0, 0.0, 0.0, 0.0, 0.0, 0.0, 0.0, 0.0, 0.0, 0.0, 1.741281157568568E9, 0.0, 2025-03-06 11:12:37.568
123.0, -31532.187048457512, -28719.801154112956, -34910.80968508836, -33303.89807270742, -5742.207854057295, -8364.46981006501, -40870.5000126958, -28518.16606738163, 0.04, 0.912, -0.354, 192.0, 0.0, 0.0, 0.0, 0.0, 0.0, 0.0, 0.0, 0.0, 0.0, 1.7412811575686E9, 0.0, 2025-03-06 11:12:37.568
124.0, -31542.938237540515, -28726.39491872727, -34919.21394100356, -33312.391735600446, -5727.433350972337, -8379.758403272439, -40878.14430929951, -28530.526582065417, 0.04, 0.912, -0.354, 192.0, 0.0, 0.0, 0.0, 0.0, 0.0, 0.0, 0.0, 0.0, 0.0, 1.741281157568632E9, 0.0, 2025-03-06 11:12:37.568
125.0, -31542.401795673588, -28724.807944870943, -34914.11774326774, -33304.97095644128, -5765.319557824083, -8371.75647875744, -40874.34451274211, -28549.8384892748, 0.04, 0.912, -0.354, 192.0, 0.0, 0.0, 0.0, 0.0, 0.0, 0.0, 0.0, 0.0, 0.0, 1.741281157568663E9, 0.0, 2025-03-06 11:12:37.568
126.0, -31528.38725190011, -28710.01109004153, -34901.0866762503, -33290.7552469677, -5782.798621988132, -8359.865350707216, -40875.998541831796, -28569.50802439547, 0.04, 0.912, -0.354, 192.0, 0.0, 0.0, 0.0, 0.0, 0.0, 0.0, 0.0, 0.0, 0.0, 1.741281157568693E9, 0.0, 2025-03-06 11:12:37.568
127.0, -31512.56221682575, -28695.7730288235, -34891.74364706798, -33280.428741029355, -5769.231113103761, -8361.072344907803, -40891.68946643943, -28570.491501151504, 0.042, 0.922, -0.36, 192.0, 1.0, 80.0, 28.0, 208.0, 244.0, 192.0, 0.0, 0.0, 0.0, 1.74128115756874E9, 0.0, 2025-03-06 11:12:37.568
128.0, -31510.975242969424, -28697.6729271022, -34894.738780825, -33284.139130608935, -5740.732638923245, -8364.000423431447, -40895.153986829995, -28569.97741102903, 0.042, 0.922, -0.36, 192.0, 0.0, 0.0, 0.0, 0.0, 0.0, 0.0, 0.0, 0.0, 0.0, 1.741281157568774E9, 0.0, 2025-03-06 11:12:37.568
129.0, -31522.128763452623, -28710.614587141823, -34903.54536814039, -33289.727066722764, -5765.721889224278, -8370.102449667746, -40906.3075073132, -28578.47107392205, 0.042, 0.922, -0.36, 192.0, 0.0, 0.0, 0.0, 0.0, 0.0, 0.0, 0.0, 0.0, 0.0, 1.741281157568812E9, 0.0, 2025-03-06 11:12:37.568
130.0, -31517.010213972357, -28704.19963648315, -34901.04197276139, -33290.151749867415, -5804.680979809878, -8374.192818903068, -40910.15200735951, -28571.18440522962, 0.042, 0.922, -0.36, 192.0, 0.0, 0.0, 0.0, 0.0, 0.0, 0.0, 0.0, 0.0, 0.0, 1.741281157568848E9, 0.0, 2025-03-06 11:12:37.568
131.0, -31518.552484339772, -28694.253110200538, -34901.95839428406, -33289.9058806784, -5795.159136671918, -8375.690385781572, -40910.86726318208, -28567.853995305777, 0.042, 0.922, -0.36, 192.0, 0.0, 0.0, 0.0, 0.0, 0.0, 0.0, 0.0, 0.0, 0.0, 1.741281157568879E9, 0.0, 2025-03-06 11:12:37.568
132.0, -31526.2414844324, -28697.29294744646, -34908.261586220455, -33291.895185934925, -5767.085345636052, -8396.18693544709, -40914.868225439575, -28582.717905368558, 0.042, 0.922, -0.36, 192.0, 0.0, 0.0, 0.0, 0.0, 0.0, 0.0, 0.0, 0.0, 0.0, 1.741281157568917E9, 0.0, 2025-03-06 11:12:37.568
133.0, -31531.449440890487, -28708.53587490748, -34911.94962405558, -33291.67166849037, -5793.840383749054, -8400.32200817132, -40912.09660912712, -28584.014306546964, 0.042, 0.922, -0.36, 192.0, 0.0, 0.0, 0.0, 0.0, 0.0, 0.0, 0.0, 0.0, 0.0, 1.741281157568947E9, 0.0, 2025-03-06 11:12:37.568
134.0, -31545.307522452775, -28723.600950670356, -34925.91946434015, -33306.7590959977, -5819.187261961372, -8408.435691408598, -40915.851702195614, -28571.139701740707, 0.042, 0.922, -0.36, 192.0, 0.0, 0.0, 0.0, 0.0, 0.0, 0.0, 0.0, 0.0, 0.0, 1.741281157568978E9, 0.0, 2025-03-06 11:12:37.568
135.0, -31556.796319102803, -28738.30839852195, -34934.122554555244, -33320.32660488207, -5806.893802510954, -8416.728188601517, -40916.4551992959, -28579.767475100456, 0.042, 0.922, -0.36, 192.0, 0.0, 0.0, 0.0, 0.0, 0.0, 0.0, 0.0, 0.0, 0.0, 1.741281157569009E9, 0.0, 2025-03-06 11:12:37.569
136.0, -31548.3473596987, -28734.150974053264, -34924.53365618392, -33306.155598897414, -5783.37976734397, -8400.56787736033, -40906.1063416131, -28590.429257205637, 0.042, 0.922, -0.36, 192.0, 0.0, 0.0, 0.0, 0.0, 0.0, 0.0, 0.0, 0.0, 0.0, 1.741281157628675E9, 0.0, 2025-03-06 11:12:37.628
137.0, -31545.352225941686, -28732.20637228565, -34914.02833628993, -33292.386924312945, -5788.9453517133425, -8382.909999240637, -40892.918812384465, -28569.75389358448, 0.036000000000000004, 0.924, -0.358, 192.0, 1.0, 32.0, 28.0, 224.0, 244.0, 208.0, 0.0, 0.0, 0.0, 1.741281157628749E9, 0.0, 2025-03-06 11:12:37.628
138.0, -31548.794394587803, -28740.677683434213, -34913.53659791191, -33291.962241168294, -5812.7723113027, -8380.09367943927, -40886.16858555896, -28556.387550400206, 0.036000000000000004, 0.924, -0.358, 192.0, 0.0, 0.0, 0.0, 0.0, 0.0, 0.0, 0.0, 0.0, 0.0, 1.741281157628784E9, 0.0, 2025-03-06 11:12:37.628
139.0, -31549.91198181057, -28742.421119501727, -34913.514246167455, -33289.48119753375, -5810.894764768454, -8377.590284060274, -40883.218155290866, -28571.094998251796, 0.036000000000000004, 0.924, -0.358, 192.0, 0.0, 0.0, 0.0, 0.0, 0.0, 0.0, 0.0, 0.0, 0.0, 1.741281157628815E9, 0.0, 2025-03-06 11:12:37.628
140.0, -31560.707874382482, -28749.528974238514, -34923.505475938975, -33297.773694726675, -5771.309825338105, -8380.09367943927, -40887.263821037275, -28566.55759412737, 0.036000000000000004, 0.924, -0.358, 192.0, 0.0, 0.0, 0.0, 0.0, 0.0, 0.0, 0.0, 0.0, 0.0, 1.741281157628846E9, 0.0, 2025-03-06 11:12:37.628
141.0, -31572.330781499244, -28758.536727254002, -34930.836848120314, -33304.546273296626, -5761.117429866485, -8385.569856830818, -40894.34932402961, -28574.917146553656, 0.036000000000000004, 0.924, -0.358, 192.0, 0.0, 0.0, 0.0, 0.0, 0.0, 0.0, 0.0, 0.0, 0.0, 1.741281157628876E9, 0.0, 2025-03-06 11:12:37.628
142.0, -31567.167528530066, -28754.78163418551, -34922.76786837195, -33296.074962148065, -5812.213517691317, -8377.143249171168, -40884.35809425808, -28558.08628297881, 0.036000000000000004, 0.924, -0.358, 192.0, 0.0, 0.0, 0.0, 0.0, 0.0, 0.0, 0.0, 0.0, 0.0, 1.741281157628915E9, 0.0, 2025-03-06 11:12:37.628
143.0, -31557.511574925375, -28750.9371341392, -34917.89518808069, -33296.81256971509, -5812.861718280521, -8373.186990402579, -40875.81972787616, -28549.860841019257, 0.036000000000000004, 0.924, -0.358, 192.0, 0.0, 0.0, 0.0, 0.0, 0.0, 0.0, 0.0, 0.0, 0.0, 1.741281157628952E9, 0.0, 2025-03-06 11:12:37.628
144.0, -31550.4484236775, -28747.271448048527, -34916.06234503536, -33299.89711044993, -5791.895781981442, -8369.655414778641, -40871.885820852025, -28554.755873054968, 0.036000000000000004, 0.924, -0.358, 192.0, 0.0, 0.0, 0.0, 0.0, 0.0, 0.0, 0.0, 0.0, 0.0, 1.741281157628989E9, 0.0, 2025-03-06 11:12:37.628
145.0, -31564.217098261965, -28761.487157522104, -34929.83101961983, -33316.95149146933, -5764.984281657253, -8380.51836258392, -40884.738073913824, -28558.823890545835, 0.036000000000000004, 0.924, -0.358, 192.0, 0.0, 0.0, 0.0, 0.0, 0.0, 0.0, 0.0, 0.0, 0.0, 1.741281157629029E9, 0.0, 2025-03-06 11:12:37.629
146.0, -31565.714665140473, -28761.688323222203, -34929.13811554171, -33317.756154269715, -5806.536174599669, -8381.993577717969, -40877.58551568812, -28559.98618125751, 0.036000000000000004, 0.924, -0.358, 192.0, 0.0, 0.0, 0.0, 0.0, 0.0, 0.0, 0.0, 0.0, 0.0, 1.74128115762906E9, 0.0, 2025-03-06 11:12:37.629
147.0, -31566.318162240765, -28758.26850632054, -34926.85823760727, -33314.761020512706, -5818.784930561177, -8383.155868429645, -40878.50193721079, -28566.22231796054, 0.026000000000000002, 0.922, -0.362, 192.0, 0.0, 208.0, 28.0, 208.0, 244.0, 176.0, 0.0, 0.0, 0.0, 1.741281157629099E9, 0.0, 2025-03-06 11:12:37.629
148.0, -31561.691351138517, -28754.7369306966, -34924.31013873937, -33318.27024439219, -5791.33698837006, -8395.51638311343, -40885.453329736396, -28570.200928473587, 0.026000000000000002, 0.922, -0.362, 192.0, 0.0, 0.0, 0.0, 0.0, 0.0, 0.0, 0.0, 0.0, 0.0, 1.741281157629133E9, 0.0, 2025-03-06 11:12:37.629
149.0, -31561.445481949508, -28758.626134231825, -34932.22265627654, -33324.34991888403, -5757.943482153832, -8408.14511873068, -40891.57770771715, -28577.107617510275, 0.026000000000000002, 0.922, -0.362, 192.0, 0.0, 0.0, 0.0, 0.0, 0.0, 0.0, 0.0, 0.0, 0.0, 1.741281157629163E9, 0.0, 2025-03-06 11:12:37.629
150.0, -31564.77589187335, -28759.16257609875, -34931.95443534308, -33320.72893628227, -5791.851078492532, -8403.942990773081, -40884.93923961392, -28553.861803276755, 0.026000000000000002, 0.922, -0.362, 192.0, 0.0, 0.0, 0.0, 0.0, 0.0, 0.0, 0.0, 0.0, 0.0, 1.741281157629194E9, 0.0, 2025-03-06 11:12:37.629
151.0, -31564.261801750876, -28753.395826029282, -34931.35093824279, -33320.2148461598, -5811.587668846568, -8397.03630173639, -40886.16858555896, -28573.50898665297, 0.026000000000000002, 0.922, -0.362, 192.0, 0.0, 0.0, 0.0, 0.0, 0.0, 0.0, 0.0, 0.0, 0.0, 1.741281157689096E9, 0.0, 2025-03-06 11:12:37.689
152.0, -31558.226830747943, -28745.058625347454, -34926.43355446262, -33313.911654223404, -5793.281590137672, -8398.80208954836, -40888.515518726774, -28586.696515881602, 0.026000000000000002, 0.922, -0.362, 192.0, 0.0, 0.0, 0.0, 0.0, 0.0, 0.0, 0.0, 0.0, 0.0, 1.741281157689164E9, 0.0, 2025-03-06 11:12:37.689
153.0, -31548.3473596987, -28738.129584566308, -34920.17506601514, -33308.34606985403, -5763.33025256756, -8399.785566304394, -40889.61075420508, -28592.37385897325, 0.026000000000000002, 0.922, -0.362, 192.0, 0.0, 0.0, 0.0, 0.0, 0.0, 0.0, 0.0, 0.0, 0.0, 1.741281157689197E9, 0.0, 2025-03-06 11:12:37.689
154.0, -31553.935295812524, -28744.723349180622, -34921.85144684928, -33312.2129216448, -5783.983264444264, -8396.790432547383, -40884.38044600254, -28592.396210717707, 0.026000000000000002, 0.922, -0.362, 192.0, 0.0, 0.0, 0.0, 0.0, 0.0, 0.0, 0.0, 0.0, 0.0, 1.741281157689228E9, 0.0, 2025-03-06 11:12:37.689
155.0, -31563.59124941722, -28751.853555661866, -34927.37232772975, -33319.70075603733, -5810.067750223608, -8399.830269793305, -40880.334780256126, -28578.739294855513, 0.026000000000000002, 0.922, -0.362, 192.0, 0.0, 0.0, 0.0, 0.0, 0.0, 0.0, 0.0, 0.0, 0.0, 1.741281157689258E9, 0.0, 2025-03-06 11:12:37.689
156.0, -31560.797281360305, -28749.752491683066, -34923.661938150166, -33316.52680832468, -5804.05513096513, -8400.076138982313, -40881.47471922335, -28586.8976815817, 0.026000000000000002, 0.922, -0.362, 192.0, 0.0, 0.0, 0.0, 0.0, 0.0, 0.0, 0.0, 0.0, 0.0, 1.741281157689288E9, 0.0, 2025-03-06 11:12:37.689
157.0, -31554.0470545348, -28739.783613656, -34919.3927549592, -33304.188645385344, -5769.789906715144, -8392.767118545427, -40883.24050703532, -28578.18050124413, 0.03, 0.916, -0.356, 192.0, 0.0, 240.0, 28.0, 160.0, 244.0, 224.0, 0.0, 0.0, 0.0, 1.741281157689327E9, 0.0, 2025-03-06 11:12:37.689
158.0, -31561.758406371882, -28747.807889915453, -34924.37719397273, -33302.512264551195, -5785.167906900395, -8393.370615645721, -40883.10639656859, -28581.8461873348, 0.03, 0.916, -0.356, 192.0, 0.0, 0.0, 0.0, 0.0, 0.0, 0.0, 0.0, 0.0, 0.0, 1.741281157689367E9, 0.0, 2025-03-06 11:12:37.689
159.0, -31566.38521747413, -28755.854517919364, -34926.81353411836, -33298.44424706033, -5813.554622358635, -8381.814763762328, -40880.535945956224, -28600.66635616617, 0.03, 0.916, -0.356, 192.0, 0.0, 0.0, 0.0, 0.0, 0.0, 0.0, 0.0, 0.0, 0.0, 1.741281157689398E9, 0.0, 2025-03-06 11:12:37.689
160.0, -31568.374522730654, -28761.97889590012, -34932.468525465556, -33307.8096279871, -5805.932677499375, -8387.313292898332, -40883.28521052423, -28599.928748599144, 0.03, 0.916, -0.356, 192.0, 0.0, 0.0, 0.0, 0.0, 0.0, 0.0, 0.0, 0.0, 0.0, 1.741281157689442E9, 0.0, 2025-03-06 11:12:37.689
161.0, -31558.42799644804, -28752.16648008424, -34925.22656026203, -33300.88058720596, -5773.969682928287, -8375.064536936825, -40881.56412620117, -28593.133818284732, 0.03, 0.916, -0.356, 192.0, 0.0, 0.0, 0.0, 0.0, 0.0, 0.0, 0.0, 0.0, 0.0, 1.741281157689473E9, 0.0, 2025-03-06 11:12:37.689
162.0, -31566.00523781839, -28761.755378455568, -34929.56279868636, -33299.42772381636, -5763.106735123007, -8376.226827648501, -40878.25606802179, -28582.27087047945, 0.03, 0.916, -0.356, 192.0, 0.0, 0.0, 0.0, 0.0, 0.0, 0.0, 0.0, 0.0, 0.0, 1.741281157689515E9, 0.0, 2025-03-06 11:12:37.689
163.0, -31569.24624076441, -28771.254869849072, -34931.194476031604, -33302.98165118476, -5808.570183345102, -8370.795353745862, -40872.60107667459, -28584.23782399152, 0.03, 0.916, -0.356, 192.0, 0.0, 0.0, 0.0, 0.0, 0.0, 0.0, 0.0, 0.0, 0.0, 1.741281157689545E9, 0.0, 2025-03-06 11:12:37.689
164.0, -31568.195708775012, -28771.813663460456, -34928.28874925241, -33298.93598543835, -5808.81605253411, -8357.920748939605, -40872.645780163504, -28590.60807116128, 0.03, 0.916, -0.356, 192.0, 0.0, 0.0, 0.0, 0.0, 0.0, 0.0, 0.0, 0.0, 0.0, 1.741281157689576E9, 0.0, 2025-03-06 11:12:37.689
165.0, -31571.839043121225, -28774.093541394897, -34931.887380109714, -33303.987479685245, -5779.356453342015, -8362.569911786308, -40879.910097111475, -28601.627481177748, 0.03, 0.916, -0.356, 192.0, 0.0, 0.0, 0.0, 0.0, 0.0, 0.0, 0.0, 0.0, 0.0, 1.741281157689607E9, 0.0, 2025-03-06 11:12:37.689
166.0, -31575.68354316754, -28784.6435647778, -34937.00592958998, -33309.709526265804, -5772.248598605228, -8358.345432084256, -40872.62342841905, -28599.41465847667, 0.03, 0.916, -0.356, 192.0, 0.0, 0.0, 0.0, 0.0, 0.0, 0.0, 0.0, 0.0, 0.0, 1.741281157749369E9, 0.0, 2025-03-06 11:12:37.749
167.0, -31582.590232204228, -28791.55025381449, -34940.090470324816, -33317.10795368051, -5815.633334592979, -8368.537827555874, -40876.065597065164, -28586.785922859424, 0.032, 0.926, -0.352, 192.0, 1.0, 0.0, 28.0, 240.0, 245.0, 0.0, 0.0, 0.0, 0.0, 1.741281157749416E9, 0.0, 2025-03-06 11:12:37.749
168.0, -31576.95759260149, -28782.676611265735, -34932.55793244337, -33312.0117559447, -5826.473930653802, -8373.790487502873, -40876.15500404299, -28593.290280495916, 0.032, 0.926, -0.352, 192.0, 0.0, 0.0, 0.0, 0.0, 0.0, 0.0, 0.0, 0.0, 0.0, 1.741281157749477E9, 0.0, 2025-03-06 11:12:37.749
169.0, -31565.334685484733, -28772.6406780053, -34929.36163298626, -33311.07298267758, -5785.793755745144, -8371.957644457538, -40870.72353014035, -28579.588661144815, 0.032, 0.926, -0.352, 192.0, 0.0, 0.0, 0.0, 0.0, 0.0, 0.0, 0.0, 0.0, 0.0, 1.741281157749513E9, 0.0, 2025-03-06 11:12:37.749
170.0, -31566.228755262942, -28777.40159957428, -34939.375214502244, -33324.484029350766, -5770.95219742682, -8379.04314744987, -40877.31729475466, -28566.356428427272, 0.032, 0.926, -0.352, 192.0, 0.0, 0.0, 0.0, 0.0, 0.0, 0.0, 0.0, 0.0, 0.0, 1.741281157749545E9, 0.0, 2025-03-06 11:12:37.749
171.0, -31570.58734543173, -28783.816550232954, -34947.46654599506, -33334.56466610011, -5815.789796804166, -8390.37548188871, -40878.7478063998, -28561.662562091657, 0.032, 0.926, -0.352, 192.0, 0.0, 0.0, 0.0, 0.0, 0.0, 0.0, 0.0, 0.0, 0.0, 1.741281157749575E9, 0.0, 2025-03-06 11:12:37.749
172.0, -31571.302601254298, -28785.82820723393, -34952.92037164216, -33344.77941331618, -5831.257203967239, -8400.456118638054, -40878.61369593307, -28561.260230691463, 0.032, 0.926, -0.352, 192.0, 0.0, 0.0, 0.0, 0.0, 0.0, 0.0, 0.0, 0.0, 0.0, 1.741281157749614E9, 0.0, 2025-03-06 11:12:37.749
173.0, -31563.837118606225, -28778.005096674577, -34949.500554740494, -33344.77941331618, -5816.706218326834, -8399.450290137565, -40876.08794880962, -28559.65090509068, 0.032, 0.926, -0.352, 192.0, 0.0, 0.0, 0.0, 0.0, 0.0, 0.0, 0.0, 0.0, 0.0, 1.741281157749651E9, 0.0, 2025-03-06 11:12:37.749
174.0, -31561.043150549314, -28769.93611692621, -34944.58317096033, -33336.24104693426, -5790.375863358482, -8395.717548813529, -40874.63508542003, -28561.08141673582, 0.032, 0.926, -0.352, 192.0, 0.0, 0.0, 0.0, 0.0, 0.0, 0.0, 0.0, 0.0, 0.0, 1.741281157749682E9, 0.0, 2025-03-06 11:12:37.749
175.0, -31571.81669137677, -28772.975954172132, -34947.53360122843, -33338.722090568794, -5810.894764768454, -8395.695197069073, -40870.00827431778, -28553.705341065568, 0.032, 0.926, -0.352, 192.0, 0.0, 0.0, 0.0, 0.0, 0.0, 0.0, 0.0, 0.0, 0.0, 1.741281157749725E9, 0.0, 2025-03-06 11:12:37.749
176.0, -31575.996467589914, -28769.39967505928, -34951.31104604138, -33337.2692271792, -5825.892785297965, -8398.667979081629, -40877.09377731011, -28576.079437265333, 0.032, 0.926, -0.352, 192.0, 0.0, 0.0, 0.0, 0.0, 0.0, 0.0, 0.0, 0.0, 0.0, 1.741281157749757E9, 0.0, 2025-03-06 11:12:37.749
177.0, -31558.785624359327, -28755.40748303026, -34937.05063307889, -33328.88732300846, -5809.240735678761, -8400.254952937956, -40875.03741682022, -28568.18927147261, 0.03, 0.928, -0.35000000000000003, 192.0, 0.0, 240.0, 29.0, 0.0, 245.0, 16.0, 0.0, 0.0, 0.0, 1.741281157749796E9, 0.0, 2025-03-06 11:12:37.749
178.0, -31549.01791203236, -28747.293799792984, -34927.17116202965, -33324.819305517594, -5777.724775996778, -8400.925505271614, -40868.175431272444, -28555.18055619962, 0.03, 0.928, -0.35000000000000003, 192.0, 0.0, 0.0, 0.0, 0.0, 0.0, 0.0, 0.0, 0.0, 0.0, 1.741281157749829E9, 0.0, 2025-03-06 11:12:37.749
179.0, -31551.968342300457, -28751.07124460593, -34921.22559800454, -33320.70658453782, -5804.748035043244, -8395.203458691056, -40865.716739382355, -28570.759722084968, 0.03, 0.928, -0.35000000000000003, 192.0, 0.0, 0.0, 0.0, 0.0, 0.0, 0.0, 0.0, 0.0, 0.0, 1.74128115774986E9, 0.0, 2025-03-06 11:12:37.749
180.0, -31552.080101022733, -28744.54453522498, -34912.86604557825, -33312.05645943361, -5825.2222329643055, -8391.493069111475, -40860.53113466873, -28544.49642234998, 0.03, 0.928, -0.35000000000000003, 192.0, 0.0, 0.0, 0.0, 0.0, 0.0, 0.0, 0.0, 0.0, 0.0, 1.741281157749891E9, 0.0, 2025-03-06 11:12:37.749
181.0, -31542.267685206854, -28732.34048275238, -34909.53563565441, -33306.80379948662, -5802.982247231275, -8391.1801446891, -40856.12784101103, -28529.185477398096, 0.03, 0.928, -0.35000000000000003, 192.0, 0.0, 0.0, 0.0, 0.0, 0.0, 0.0, 0.0, 0.0, 0.0, 1.741281157808543E9, 0.0, 2025-03-06 11:12:37.808
182.0, -31538.33377818272, -28722.7292326366, -34910.27324322143, -33300.902938950414, -5759.865732176988, -8384.407566119144, -40853.87031482105, -28543.9376287386, 0.03, 0.928, -0.35000000000000003, 192.0, 0.0, 0.0, 0.0, 0.0, 0.0, 0.0, 0.0, 0.0, 0.0, 1.74128115780859E9, 0.0, 2025-03-06 11:12:37.808
183.0, -31546.67097886455, -28726.149049538264, -34909.26741472095, -33298.22072961578, -5779.155287641917, -8369.52130431191, -40845.84603856159, -28528.961959953544, 0.03, 0.928, -0.35000000000000003, 192.0, 0.0, 0.0, 0.0, 0.0, 0.0, 0.0, 0.0, 0.0, 0.0, 1.741281157808643E9, 0.0, 2025-03-06 11:12:37.808
184.0, -31550.068444021756, -28726.171401282718, -34909.64739437668, -33292.29751733512, -5814.6722095814, -8365.833266476782, -40846.11425949505, -28552.855974776267, 0.03, 0.928, -0.35000000000000003, 192.0, 0.0, 0.0, 0.0, 0.0, 0.0, 0.0, 0.0, 0.0, 0.0, 1.741281157808675E9, 0.0, 2025-03-06 11:12:37.808
185.0, -31549.084967265724, -28724.78559312649, -34913.06721127835, -33291.895185934925, -5807.832575778077, -8375.355109614744, -40859.570009657145, -28566.736408083012, 0.03, 0.928, -0.35000000000000003, 192.0, 0.0, 0.0, 0.0, 0.0, 0.0, 0.0, 0.0, 0.0, 0.0, 1.741281157808706E9, 0.0, 2025-03-06 11:12:37.808
186.0, -31546.46981316445, -28726.171401282718, -34915.816475846346, -33297.63958425994, -5782.57510454358, -8380.89834223966, -40859.27943697923, -28567.228146461028, 0.03, 0.928, -0.35000000000000003, 192.0, 0.0, 0.0, 0.0, 0.0, 0.0, 0.0, 0.0, 0.0, 0.0, 1.741281157808738E9, 0.0, 2025-03-06 11:12:37.808
187.0, -31561.803109860793, -28740.96825611213, -34924.57835967283, -33301.752305239715, -5777.210685874305, -8375.578627059296, -40855.7925648442, -28549.07852996332, 0.034, 0.932, -0.34400000000000003, 192.0, 1.0, 16.0, 29.0, 32.0, 245.0, 64.0, 0.0, 0.0, 0.0, 1.741281157808769E9, 0.0, 2025-03-06 11:12:37.808
188.0, -31560.193784260013, -28742.801099157467, -34917.0905252803, -33295.33735458105, -5817.019142749208, -8362.882836208682, -40855.92667531093, -28538.953189725067, 0.034, 0.932, -0.34400000000000003, 192.0, 0.0, 0.0, 0.0, 0.0, 0.0, 0.0, 0.0, 0.0, 0.0, 1.741281157808818E9, 0.0, 2025-03-06 11:12:37.808
189.0, -31550.515478910864, -28734.195677542175, -34910.161484499156, -33283.89326141993, -5819.679000339389, -8358.390135573165, -40848.885875807515, -28547.78212878491, 0.034, 0.932, -0.34400000000000003, 192.0, 0.0, 0.0, 0.0, 0.0, 0.0, 0.0, 0.0, 0.0, 0.0, 1.74128115780885E9, 0.0, 2025-03-06 11:12:37.808
190.0, -31547.073310264746, -28728.92066585072, -34910.87674032173, -33281.63573522994, -5788.587723802058, -8360.64766176315, -40857.24542823379, -28567.60812611677, 0.034, 0.932, -0.34400000000000003, 192.0, 0.0, 0.0, 0.0, 0.0, 0.0, 0.0, 0.0, 0.0, 0.0, 1.741281157808888E9, 0.0, 2025-03-06 11:12:37.808
191.0, -31554.270571979356, -28731.02172982952, -34916.308214224366, -33285.83786318754, -5776.607188774013, -8364.000423431447, -40861.71577712486, -28554.308838165864, 0.034, 0.932, -0.34400000000000003, 192.0, 0.0, 0.0, 0.0, 0.0, 0.0, 0.0, 0.0, 0.0, 0.0, 1.741281157808927E9, 0.0, 2025-03-06 11:12:37.808
192.0, -31554.561144657273, -28724.87500010431, -34909.870911821235, -33279.378209039955, -5823.389389918971, -8359.351260584745, -40851.72454735333, -28549.70437880807, 0.034, 0.932, -0.34400000000000003, 192.0, 0.0, 0.0, 0.0, 0.0, 0.0, 0.0, 0.0, 0.0, 0.0, 1.741281157808958E9, 0.0, 2025-03-06 11:12:37.808
193.0, -31548.95085679899, -28719.287063990483, -34906.47344666403, -33279.89229916243, -5827.211538220828, -8352.869254692705, -40841.30863443716, -28541.07660544832, 0.034, 0.932, -0.34400000000000003, 192.0, 0.0, 0.0, 0.0, 0.0, 0.0, 0.0, 0.0, 0.0, 0.0, 1.741281157808997E9, 0.0, 2025-03-06 11:12:37.808
194.0, -31547.96738004296, -28727.177229783207, -34913.581301400816, -33294.15271212491, -5788.0065784462195, -8359.150094884646, -40854.406756687975, -28570.715018596056, 0.034, 0.932, -0.34400000000000003, 192.0, 0.0, 0.0, 0.0, 0.0, 0.0, 0.0, 0.0, 0.0, 0.0, 1.741281157809028E9, 0.0, 2025-03-06 11:12:37.809
195.0, -31549.44259517701, -28728.183058283696, -34910.76498159945, -33286.642525987925, -5763.397307800926, -8359.977109429492, -40853.8926665655, -28564.009495259466, 0.034, 0.932, -0.34400000000000003, 192.0, 0.0, 0.0, 0.0, 0.0, 0.0, 0.0, 0.0, 0.0, 0.0, 1.74128115780906E9, 0.0, 2025-03-06 11:12:37.809
196.0, -31558.226830747943, -28731.9828548411, -34916.509379924464, -33293.88449119145, -5804.233944920772, -8373.075231680303, -40853.60209388758, -28554.957038755067, 0.034, 0.932, -0.34400000000000003, 192.0, 0.0, 0.0, 0.0, 0.0, 0.0, 0.0, 0.0, 0.0, 0.0, 1.74128115786837E9, 0.0, 2025-03-06 11:12:37.868
197.0, -31547.788566087314, -28721.58929366938, -34913.06721127835, -33296.03025865916, -5831.771294089711, -8371.935292713082, -40852.149230497984, -28551.89484976469, 0.032, 0.92, -0.34600000000000003, 192.0, 1.0, 0.0, 28.0, 192.0, 245.0, 48.0, 0.0, 0.0, 0.0, 1.741281157868451E9, 0.0, 2025-03-06 11:12:37.868
198.0, -31538.400833416086, -28714.63790114378, -34912.91074906716, -33298.62306101598, -5787.894819723942, -8368.694289767061, -40852.70802410937, -28560.92495452463, 0.032, 0.92, -0.34600000000000003, 192.0, 0.0, 0.0, 0.0, 0.0, 0.0, 0.0, 0.0, 0.0, 0.0, 1.741281157868509E9, 0.0, 2025-03-06 11:12:37.868
199.0, -31543.117051496156, -28715.30845347744, -34920.82326660434, -33298.37719182696, -5752.467304762281, -8374.148115414157, -40853.11035550956, -28551.246649175486, 0.032, 0.92, -0.34600000000000003, 192.0, 0.0, 0.0, 0.0, 0.0, 0.0, 0.0, 0.0, 0.0, 0.0, 1.741281157868538E9, 0.0, 2025-03-06 11:12:37.868
200.0, -31553.778833601336, -28724.02563381501, -34926.657071907175, -33301.01469767269, -5780.027005675674, -8382.954702729548, -40855.90432356648, -28560.1426434687, 0.032, 0.92, -0.34600000000000003, 192.0, 0.0, 0.0, 0.0, 0.0, 0.0, 0.0, 0.0, 0.0, 0.0, 1.74128115786856E9, 0.0, 2025-03-06 11:12:37.868
201.0, -31551.454252177988, -28715.934302322188, -34922.07496429384, -33294.130360380455, -5813.19699444735, -8381.434784106586, -40849.35526244107, -28552.967733498543, 0.032, 0.92, -0.34600000000000003, 192.0, 0.0, 0.0, 0.0, 0.0, 0.0, 0.0, 0.0, 0.0, 0.0, 1.741281157868581E9, 0.0, 2025-03-06 11:12:37.868
202.0, -31549.75551959938, -28712.20156099815, -34922.85727534977, -33293.9068429359, -5802.334046642071, -8385.636912064185, -40851.389271186505, -28561.886079536212, 0.032, 0.92, -0.34600000000000003, 192.0, 0.0, 0.0, 0.0, 0.0, 0.0, 0.0, 0.0, 0.0, 0.0, 1.741281157868602E9, 0.0, 2025-03-06 11:12:37.868
203.0, -31542.535906140318, -28706.770087095512, -34916.46467643556, -33292.185758612846, -5771.7121567383, -8383.222923663012, -40849.914056052454, -28555.113500966254, 0.032, 0.92, -0.34600000000000003, 192.0, 0.0, 0.0, 0.0, 0.0, 0.0, 0.0, 0.0, 0.0, 0.0, 1.741281157868644E9, 0.0, 2025-03-06 11:12:37.868
204.0, -31535.025720003334, -28702.232682971084, -34906.27228096393, -33281.76984569667, -5799.070691951596, -8373.388156102677, -40842.739146082306, -28552.543050353892, 0.032, 0.92, -0.34600000000000003, 192.0, 0.0, 0.0, 0.0, 0.0, 0.0, 0.0, 0.0, 0.0, 0.0, 1.74128115786867E9, 0.0, 2025-03-06 11:12:37.868
205.0, -31534.466926391953, -28704.847837072353, -34909.06624902085, -33284.92144166487, -5813.286401425172, -8377.076193937803, -40850.0928700081, -28565.015323759955, 0.032, 0.92, -0.34600000000000003, 192.0, 0.0, 0.0, 0.0, 0.0, 0.0, 0.0, 0.0, 0.0, 0.0, 1.741281157868695E9, 0.0, 2025-03-06 11:12:37.868
206.0, -31539.026682260836, -28710.055793530442, -34915.749420612985, -33294.97972666976, -5798.601305318035, -8383.647606807663, -40850.51755315275, -28561.439044647104, 0.032, 0.92, -0.34600000000000003, 192.0, 0.0, 0.0, 0.0, 0.0, 0.0, 0.0, 0.0, 0.0, 0.0, 1.741281157868722E9, 0.0, 2025-03-06 11:12:37.868
207.0, -31543.273513707343, -28712.335671464883, -34921.2926532379, -33300.67942150586, -5764.984281657253, -8388.319121398821, -40851.47867816433, -28557.974524256533, 0.026000000000000002, 0.918, -0.352, 192.0, 0.0, 208.0, 28.0, 176.0, 245.0, 0.0, 0.0, 0.0, 0.0, 1.741281157868743E9, 0.0, 2025-03-06 11:12:37.868
208.0, -31551.409548689076, -28720.315244235426, -34922.164371271654, -33300.277090105665, -5781.770441743189, -8394.28703716839, -40856.083137522124, -28562.266059191952, 0.026000000000000002, 0.918, -0.352, 192.0, 0.0, 0.0, 0.0, 0.0, 0.0, 0.0, 0.0, 0.0, 0.0, 1.741281157868771E9, 0.0, 2025-03-06 11:12:37.868
209.0, -31544.90519105258, -28716.426040700204, -34909.870911821235, -33289.34708706702, -5827.01037252073, -8379.356071872244, -40846.11425949505, -28569.55272788438, 0.026000000000000002, 0.918, -0.352, 192.0, 0.0, 0.0, 0.0, 0.0, 0.0, 0.0, 0.0, 0.0, 0.0, 1.741281157868792E9, 0.0, 2025-03-06 11:12:37.868
210.0, -31548.168545743058, -28718.281235489994, -34916.57643515783, -33293.571566769075, -5805.955029243831, -8386.642740564674, -40852.931541553924, -28572.03377151892, 0.026000000000000002, 0.918, -0.352, 192.0, 0.0, 0.0, 0.0, 0.0, 0.0, 0.0, 0.0, 0.0, 0.0, 1.741281157868813E9, 0.0, 2025-03-06 11:12:37.868
211.0, -31559.947915071003, -28725.702014649156, -34929.40633647518, -33304.613328529995, -5759.530456010158, -8399.584400604297, -40868.53305918373, -28594.0502398074, 0.026000000000000002, 0.918, -0.352, 192.0, 0.0, 0.0, 0.0, 0.0, 0.0, 0.0, 0.0, 0.0, 0.0, 1.741281157928762E9, 0.0, 2025-03-06 11:12:37.928
212.0, -31566.0499413073, -28728.07129956142, -34925.02539456193, -33300.38884882794, -5781.301055109627, -8389.883743510693, -40855.92667531093, -28565.998800515987, 0.026000000000000002, 0.918, -0.352, 192.0, 0.0, 0.0, 0.0, 0.0, 0.0, 0.0, 0.0, 0.0, 0.0, 1.741281157928814E9, 0.0, 2025-03-06 11:12:37.928
213.0, -31563.81476686177, -28732.184020541197, -34926.992348074, -33305.373287841474, -5820.528366628691, -8388.542638843375, -40850.38344268602, -28549.972599741533, 0.026000000000000002, 0.918, -0.352, 192.0, 0.0, 0.0, 0.0, 0.0, 0.0, 0.0, 0.0, 0.0, 0.0, 1.741281157928841E9, 0.0, 2025-03-06 11:12:37.928
214.0, -31557.489223180917, -28735.64854093177, -34926.61236841826, -33302.40050582892, -5798.020159962197, -8374.103411925247, -40858.02773928973, -28591.144513028208, 0.026000000000000002, 0.918, -0.352, 192.0, 0.0, 0.0, 0.0, 0.0, 0.0, 0.0, 0.0, 0.0, 0.0, 1.741281157928863E9, 0.0, 2025-03-06 11:12:37.928
215.0, -31567.078121552244, -28744.388073013793, -34931.17212428714, -33305.9097297084, -5768.42645030337, -8371.979996201992, -40866.923733582946, -28583.32140246885, 0.026000000000000002, 0.918, -0.352, 192.0, 0.0, 0.0, 0.0, 0.0, 0.0, 0.0, 0.0, 0.0, 0.0, 1.741281157928884E9, 0.0, 2025-03-06 11:12:37.928
216.0, -31574.49890071141, -28749.50662249406, -34931.93208359863, -33307.831979731556, -5784.340892355549, -8382.150039929156, -40866.364939971565, -28568.16691972815, 0.026000000000000002, 0.918, -0.352, 192.0, 0.0, 0.0, 0.0, 0.0, 0.0, 0.0, 0.0, 0.0, 0.0, 1.741281157928909E9, 0.0, 2025-03-06 11:12:37.928
217.0, -31566.698141896504, -28741.59410495688, -34920.95737707107, -33297.706639493306, -5830.609003378035, -8376.472696837509, -40855.07730902163, -28574.09013200881, 0.028, 0.922, -0.35000000000000003, 192.0, 0.0, 224.0, 28.0, 208.0, 245.0, 16.0, 0.0, 0.0, 0.0, 1.741281157928931E9, 0.0, 2025-03-06 11:12:37.928
218.0, -31564.217098261965, -28742.354064268362, -34924.73482188402, -33299.45007556082, -5824.328163186093, -8369.968339201014, -40851.76925084225, -28565.060027248866, 0.028, 0.922, -0.35000000000000003, 192.0, 0.0, 0.0, 0.0, 0.0, 0.0, 0.0, 0.0, 0.0, 0.0, 1.741281157928959E9, 0.0, 2025-03-06 11:12:37.928
219.0, -31565.44644420701, -28746.198564314673, -34931.03801382041, -33306.73674425325, -5793.3486453710375, -8375.198647403557, -40857.78187010073, -28573.68780060861, 0.028, 0.922, -0.35000000000000003, 192.0, 0.0, 0.0, 0.0, 0.0, 0.0, 0.0, 0.0, 0.0, 0.0, 1.741281157928983E9, 0.0, 2025-03-06 11:12:37.928
220.0, -31569.447406464507, -28749.8866021498, -34934.59194118881, -33310.558892555106, -5772.919150938887, -8375.332757870288, -40866.65551264948, -28580.214509989564, 0.028, 0.922, -0.35000000000000003, 192.0, 0.0, 0.0, 0.0, 0.0, 0.0, 0.0, 0.0, 0.0, 0.0, 1.741281157929004E9, 0.0, 2025-03-06 11:12:37.929
221.0, -31565.893479096114, -28745.59506721438, -34926.657071907175, -33306.35676459751, -5815.678038081889, -8374.885722981182, -40858.54182941221, -28572.50315815248, 0.028, 0.922, -0.35000000000000003, 192.0, 0.0, 0.0, 0.0, 0.0, 0.0, 0.0, 0.0, 0.0, 0.0, 1.741281157929032E9, 0.0, 2025-03-06 11:12:37.929
222.0, -31572.040208821323, -28745.17038406973, -34931.23917952051, -33306.80379948662, -5825.6916195978665, -8377.009138704436, -40858.385367201015, -28576.66058262117, 0.028, 0.922, -0.35000000000000003, 192.0, 0.0, 0.0, 0.0, 0.0, 0.0, 0.0, 0.0, 0.0, 0.0, 1.741281157929053E9, 0.0, 2025-03-06 11:12:37.929
223.0, -31570.497938453907, -28739.805965400454, -34935.12838305574, -33309.59776754353, -5812.81701479161, -8381.747708528961, -40862.20751550287, -28568.681009850625, 0.028, 0.922, -0.35000000000000003, 192.0, 0.0, 0.0, 0.0, 0.0, 0.0, 0.0, 0.0, 0.0, 0.0, 1.741281157929079E9, 0.0, 2025-03-06 11:12:37.929
224.0, -31572.710761154984, -28740.610628200848, -34938.9952348465, -33316.862084491506, -5781.993959187742, -8390.129612699702, -40864.59915215959, -28567.004629016476, 0.028, 0.922, -0.35000000000000003, 192.0, 0.0, 0.0, 0.0, 0.0, 0.0, 0.0, 0.0, 0.0, 0.0, 1.741281157929101E9, 0.0, 2025-03-06 11:12:37.929
225.0, -31568.754502386393, -28736.140279309784, -34932.28971150991, -33307.608462287004, -5807.877279266987, -8385.972188231015, -40857.826573589635, -28580.438027434117, 0.028, 0.922, -0.35000000000000003, 192.0, 0.0, 0.0, 0.0, 0.0, 0.0, 0.0, 0.0, 0.0, 0.0, 1.741281157929122E9, 0.0, 2025-03-06 11:12:37.929
226.0, -31566.0499413073, -28730.507639707048, -34932.13324929872, -33307.608462287004, -5820.841291051065, -8391.738938300483, -40859.145326512495, -28560.74614056899, 0.028, 0.922, -0.35000000000000003, 192.0, 0.0, 0.0, 0.0, 0.0, 0.0, 0.0, 0.0, 0.0, 0.0, 1.741281157988913E9, 0.0, 2025-03-06 11:12:37.988
227.0, -31566.541679685317, -28732.78751764149, -34937.36355750127, -33314.179875156864, -5812.638200835968, -8394.667016824129, -40859.68176837942, -28562.489576636504, 0.03, 0.918, -0.34800000000000003, 192.0, 0.0, 240.0, 28.0, 176.0, 245.0, 32.0, 0.0, 0.0, 0.0, 1.741281157988974E9, 0.0, 2025-03-06 11:12:37.988
228.0, -31562.38425521663, -28725.79142162698, -34936.33537725632, -33305.038011674646, -5792.342816870549, -8381.859467251237, -40856.10548926658, -28583.097885024297, 0.03, 0.918, -0.34800000000000003, 192.0, 0.0, 0.0, 0.0, 0.0, 0.0, 0.0, 0.0, 0.0, 0.0, 1.741281157988998E9, 0.0, 2025-03-06 11:12:37.988
229.0, -31576.73407515694, -28738.97895085561, -34947.757118672984, -33314.73866876825, -5805.664456565912, -8390.174316188612, -40863.146288769996, -28590.049277549897, 0.03, 0.918, -0.34800000000000003, 192.0, 0.0, 0.0, 0.0, 0.0, 0.0, 0.0, 0.0, 0.0, 0.0, 1.741281157989028E9, 0.0, 2025-03-06 11:12:37.989
230.0, -31573.02368557736, -28732.072261818917, -34943.644397693206, -33314.53750306815, -5841.494302927769, -8390.934275500093, -40862.36397771406, -28575.99003028751, 0.03, 0.918, -0.34800000000000003, 192.0, 0.0, 0.0, 0.0, 0.0, 0.0, 0.0, 0.0, 0.0, 0.0, 1.741281157989049E9, 0.0, 2025-03-06 11:12:37.989
231.0, -31572.01785707687, -28729.16653503973, -34944.8513918938, -33314.85042749053, -5827.256241709739, -8392.90122901216, -40863.66037889247, -28583.14258851321, 0.03, 0.918, -0.34800000000000003, 192.0, 0.0, 0.0, 0.0, 0.0, 0.0, 0.0, 0.0, 0.0, 0.0, 1.741281157989069E9, 0.0, 2025-03-06 11:12:37.989
232.0, -31573.761293144384, -28730.865267618334, -34944.8513918938, -33316.2138839023, -5786.441956334348, -8394.555258101853, -40868.80128011719, -28599.66052766568, 0.03, 0.918, -0.34800000000000003, 192.0, 0.0, 0.0, 0.0, 0.0, 0.0, 0.0, 0.0, 0.0, 0.0, 1.74128115798909E9, 0.0, 2025-03-06 11:12:37.989
233.0, -31568.44157796402, -28734.977988598108, -34937.58707494582, -33311.475314077776, -5807.810224033621, -8390.867220266726, -40866.5437539272, -28594.497274696503, 0.03, 0.918, -0.34800000000000003, 192.0, 0.0, 0.0, 0.0, 0.0, 0.0, 0.0, 0.0, 0.0, 0.0, 1.741281157989119E9, 0.0, 2025-03-06 11:12:37.989
234.0, -31562.987752316923, -28736.050872331965, -34934.16725804416, -33309.73187801026, -5843.327145973104, -8387.201534176056, -40859.145326512495, -28576.057085520875, 0.03, 0.918, -0.34800000000000003, 192.0, 0.0, 0.0, 0.0, 0.0, 0.0, 0.0, 0.0, 0.0, 0.0, 1.741281157989143E9, 0.0, 2025-03-06 11:12:37.989
235.0, -31568.10630179719, -28743.69516893568, -34941.744499414504, -33319.32077638159, -5823.948183530353, -8397.081005225302, -40864.822669604146, -28586.361239714774, 0.03, 0.918, -0.34800000000000003, 192.0, 0.0, 0.0, 0.0, 0.0, 0.0, 0.0, 0.0, 0.0, 0.0, 1.741281157989164E9, 0.0, 2025-03-06 11:12:37.989
236.0, -31574.29773501131, -28751.31711379494, -34947.82417390635, -33328.32852939708, -5787.648950534935, -8402.132499472202, -40879.30660001119, -28603.639138178725, 0.03, 0.918, -0.34800000000000003, 192.0, 0.0, 0.0, 0.0, 0.0, 0.0, 0.0, 0.0, 0.0, 0.0, 1.741281157989192E9, 0.0, 2025-03-06 11:12:37.989
237.0, -31581.025610092358, -28763.007076145062, -34952.808612919885, -33335.54814285614, -5799.093043696052, -8402.71364482804, -40878.52428895525, -28574.425408175637, 0.03, 0.924, -0.34800000000000003, 192.0, 0.0, 240.0, 28.0, 224.0, 245.0, 32.0, 0.0, 0.0, 0.0, 1.741281157989213E9, 0.0, 2025-03-06 11:12:37.989
238.0, -31585.29479328332, -28769.489082037104, -34954.30617979839, -33339.05736673562, -5841.382544205492, -8406.312275685345, -40873.27162900825, -28583.522568168948, 0.03, 0.924, -0.34800000000000003, 192.0, 0.0, 0.0, 0.0, 0.0, 0.0, 0.0, 0.0, 0.0, 0.0, 1.741281157989241E9, 0.0, 2025-03-06 11:12:37.989
239.0, -31585.853586894704, -28764.236422090107, -34953.009778619984, -33325.243988662245, -5833.872358068509, -8385.435746364086, -40864.97913181533, -28592.150341528697, 0.03, 0.924, -0.34800000000000003, 192.0, 0.0, 0.0, 0.0, 0.0, 0.0, 0.0, 0.0, 0.0, 0.0, 1.741281157989262E9, 0.0, 2025-03-06 11:12:37.989
240.0, -31589.11694158518, -28762.82826218942, -34957.77070018896, -33322.092392694045, -5802.870488508998, -8382.708833540539, -40875.10447205359, -28606.36605100227, 0.03, 0.924, -0.34800000000000003, 192.0, 0.0, 0.0, 0.0, 0.0, 0.0, 0.0, 0.0, 0.0, 0.0, 1.741281157989283E9, 0.0, 2025-03-06 11:12:37.989
241.0, -31592.804979420303, -28767.96916341414, -34957.480127511044, -33324.23816016175, -5796.544944828146, -8386.106298697747, -40874.83625112013, -28601.873350366754, 0.03, 0.924, -0.34800000000000003, 192.0, 0.0, 0.0, 0.0, 0.0, 0.0, 0.0, 0.0, 0.0, 0.0, 1.741281157989304E9, 0.0, 2025-03-06 11:12:37.989
242.0, -31593.699049198516, -28769.578489014923, -34955.71433969907, -33323.67936655037, -5838.812093593132, -8384.072289952313, -40870.70117839589, -28588.41760020466, 0.03, 0.924, -0.34800000000000003, 192.0, 0.0, 0.0, 0.0, 0.0, 0.0, 0.0, 0.0, 0.0, 0.0, 1.741281158050238E9, 0.0, 2025-03-06 11:12:38.050
243.0, -31595.889520155135, -28770.15963437076, -34959.938819401126, -33331.815401532105, -5842.321317472615, -8388.453231865553, -40871.7964138742, -28589.31166998287, 0.03, 0.924, -0.34800000000000003, 192.0, 0.0, 0.0, 0.0, 0.0, 0.0, 0.0, 0.0, 0.0, 0.0, 1.74128115805029E9, 0.0, 2025-03-06 11:12:38.050
244.0, -31586.68060143955, -28759.31903830994, -34950.01464486297, -33320.416011859896, -5826.518634142713, -8376.89737998216, -40868.62246616155, -28588.641117649215, 0.03, 0.924, -0.34800000000000003, 192.0, 0.0, 0.0, 0.0, 0.0, 0.0, 0.0, 0.0, 0.0, 0.0, 1.74128115805033E9, 0.0, 2025-03-06 11:12:38.050
245.0, -31588.58049971825, -28757.44149177569, -34952.00395011949, -33320.863046749, -5803.0940059535515, -8388.654397565651, -40872.53402144123, -28577.75581809948, 0.03, 0.924, -0.34800000000000003, 192.0, 0.0, 0.0, 0.0, 0.0, 0.0, 0.0, 0.0, 0.0, 0.0, 1.741281158050352E9, 0.0, 2025-03-06 11:12:38.050
246.0, -31587.664078195583, -28758.000285387076, -34949.657016951685, -33323.45584910582, -5843.640070395479, -8392.2306766785, -40874.43391971993, -28579.85688207828, 0.03, 0.924, -0.34800000000000003, 192.0, 0.0, 0.0, 0.0, 0.0, 0.0, 0.0, 0.0, 0.0, 0.0, 1.741281158050373E9, 0.0, 2025-03-06 11:12:38.050
247.0, -31574.454197222498, -28746.377378270314, -34938.77171740195, -33309.508360565706, -5866.930588117908, -8382.015929462425, -40868.01896906125, -28594.139646785217, 0.036000000000000004, 0.918, -0.354, 192.0, 1.0, 32.0, 28.0, 176.0, 244.0, 240.0, 0.0, 0.0, 0.0, 1.741281158050394E9, 0.0, 2025-03-06 11:12:38.050
248.0, -31574.096569311212, -28743.136375324295, -34941.58803720332, -33314.00106120123, -5832.173625489906, -8390.37548188871, -40869.80710861768, -28596.575986930846, 0.036000000000000004, 0.918, -0.354, 192.0, 0.0, 0.0, 0.0, 0.0, 0.0, 0.0, 0.0, 0.0, 0.0, 1.741281158050418E9, 0.0, 2025-03-06 11:12:38.050
249.0, -31572.1519675436, -28737.10140432136, -34941.4986302255, -33313.844598990036, -5809.57601184559, -8391.671883067118, -40865.51557368226, -28579.0969227668, 0.036000000000000004, 0.918, -0.354, 192.0, 0.0, 0.0, 0.0, 0.0, 0.0, 0.0, 0.0, 0.0, 0.0, 1.741281158050447E9, 0.0, 2025-03-06 11:12:38.050
250.0, -31584.82540664976, -28749.39486377178, -34949.90288614069, -33322.584131072064, -5840.220253493817, -8399.271476181922, -40869.024797561746, -28586.584757159326, 0.036000000000000004, 0.918, -0.354, 192.0, 0.0, 0.0, 0.0, 0.0, 0.0, 0.0, 0.0, 0.0, 0.0, 1.741281158050468E9, 0.0, 2025-03-06 11:12:38.050
251.0, -31585.71947642797, -28757.08386386441, -34958.038921122425, -33338.1185934685, -5855.084163556596, -8408.770967575427, -40867.46017544987, -28570.357390684774, 0.036000000000000004, 0.918, -0.354, 192.0, 0.0, 0.0, 0.0, 0.0, 0.0, 0.0, 0.0, 0.0, 0.0, 1.741281158050498E9, 0.0, 2025-03-06 11:12:38.050
252.0, -31571.21319427648, -28739.96242761164, -34946.863048894775, -33321.73476478276, -5837.4262854369035, -8406.71460708554, -40871.77406212975, -28616.42433600716, 0.036000000000000004, 0.918, -0.354, 192.0, 0.0, 0.0, 0.0, 0.0, 0.0, 0.0, 0.0, 0.0, 0.0, 1.741281158050519E9, 0.0, 2025-03-06 11:12:38.050
253.0, -31563.323028483755, -28727.40074722776, -34937.96705460156, -33311.676479777874, -5807.139671699962, -8400.031435493402, -40872.914001096964, -28612.33396677184, 0.036000000000000004, 0.918, -0.354, 192.0, 0.0, 0.0, 0.0, 0.0, 0.0, 0.0, 0.0, 0.0, 0.0, 1.74128115805054E9, 0.0, 2025-03-06 11:12:38.050
254.0, -31578.253993779897, -28739.627151444813, -34946.706586683584, -33320.05838394861, -5820.707180584333, -8407.206345463555, -40873.15987028598, -28600.487542210525, 0.036000000000000004, 0.918, -0.354, 192.0, 0.0, 0.0, 0.0, 0.0, 0.0, 0.0, 0.0, 0.0, 0.0, 1.741281158050566E9, 0.0, 2025-03-06 11:12:38.050
255.0, -31584.601889205205, -28749.238401560593, -34951.35574953029, -33328.59675033054, -5848.356288475548, -8412.369598432731, -40875.52915519824, -28614.390327261728, 0.036000000000000004, 0.918, -0.354, 192.0, 0.0, 0.0, 0.0, 0.0, 0.0, 0.0, 0.0, 0.0, 0.0, 1.741281158050587E9, 0.0, 2025-03-06 11:12:38.050
0.0, -31586.16651131708, -28753.97697138512, -34956.20607807709, -33337.2692271792, -5836.308698214138, -8411.073197254324, -40874.56803018666, -28608.131838814243, 0.036000000000000004, 0.918, -0.354, 192.0, 0.0, 0.0, 0.0, 0.0, 0.0, 0.0, 0.0, 0.0, 0.0, 1.741281158050608E9, 0.0, 2025-03-06 11:12:38.050
1.0, -31584.11015082719, -28750.69126495019, -34953.12153734226, -33328.55204684163, -5807.184375188873, -8406.401682663165, -40873.45044296389, -28604.57791144585, 0.04, 0.916, -0.352, 192.0, 1.0, 64.0, 28.0, 160.0, 245.0, 0.0, 0.0, 0.0, 0.0, 1.741281158109545E9, 0.0, 2025-03-06 11:12:38.109
2.0, -31583.976040360456, -28751.54063123949, -34945.0972610828, -33317.890264736445, -5825.646916108956, -8401.57370586082, -40869.31537023966, -28602.9015306117, 0.04, 0.916, -0.352, 192.0, 0.0, 0.0, 0.0, 0.0, 0.0, 0.0, 0.0, 0.0, 0.0, 1.741281158109584E9, 0.0, 2025-03-06 11:12:38.109
3.0, -31588.982831118446, -28759.207279587663, -34951.400453019196, -33324.2158084173, -5851.820808866121, -8408.770967575427, -40870.70117839589, -28593.8490741073, 0.04, 0.916, -0.352, 192.0, 0.0, 0.0, 0.0, 0.0, 0.0, 0.0, 0.0, 0.0, 0.0, 1.741281158109609E9, 0.0, 2025-03-06 11:12:38.109
4.0, -31592.53675848684, -28761.420102288736, -34957.72599670005, -33327.52386659668, -5839.572052904613, -8411.162604232146, -40869.427128961936, -28573.50898665297, 0.04, 0.916, -0.352, 192.0, 0.0, 0.0, 0.0, 0.0, 0.0, 0.0, 0.0, 0.0, 0.0, 1.74128115810963E9, 0.0, 2025-03-06 11:12:38.109
5.0, -31592.20148232001, -28760.36957029934, -34957.9495141446, -33322.07004094959, -5808.123148455996, -8394.957589502048, -40877.13848079902, -28601.67218466666, 0.04, 0.916, -0.352, 192.0, 0.0, 0.0, 0.0, 0.0, 0.0, 0.0, 0.0, 0.0, 0.0, 1.741281158109651E9, 0.0, 2025-03-06 11:12:38.109
6.0, -31594.883691654646, -28764.348180812383, -34956.429595521644, -33314.71631702379, -5826.809206820632, -8389.928446999604, -40876.53498369873, -28610.72464117106, 0.04, 0.916, -0.352, 192.0, 0.0, 0.0, 0.0, 0.0, 0.0, 0.0, 0.0, 0.0, 0.0, 1.741281158109672E9, 0.0, 2025-03-06 11:12:38.109
7.0, -31599.868130668183, -28769.80200645948, -34956.76487168847, -33314.58220655706, -5854.190093778383, -8390.554295844353, -40870.678826651434, -28600.5993009328, 0.04, 0.916, -0.352, 192.0, 0.0, 0.0, 0.0, 0.0, 0.0, 0.0, 0.0, 0.0, 0.0, 1.741281158109693E9, 0.0, 2025-03-06 11:12:38.109
8.0, -31591.77679917536, -28764.236422090107, -34949.25468555149, -33308.79310474314, -5858.861608369542, -8388.453231865553, -40865.96260857137, -28582.8967193242, 0.04, 0.916, -0.352, 192.0, 0.0, 0.0, 0.0, 0.0, 0.0, 0.0, 0.0, 0.0, 0.0, 1.741281158109719E9, 0.0, 2025-03-06 11:12:38.109
9.0, -31585.83123515025, -28758.961410398653, -34951.82513616385, -33312.92817746737, -5824.328163186093, -8389.839040021783, -40865.448518448895, -28577.509948910472, 0.04, 0.916, -0.352, 192.0, 0.0, 0.0, 0.0, 0.0, 0.0, 0.0, 0.0, 0.0, 0.0, 1.741281158109746E9, 0.0, 2025-03-06 11:12:38.109
10.0, -31606.327784815763, -28779.748532742087, -34975.33917133083, -33338.7667940577, -5802.132880941973, -8412.615467621741, -40882.61465819057, -28607.260120780484, 0.04, 0.916, -0.352, 192.0, 0.0, 0.0, 0.0, 0.0, 0.0, 0.0, 0.0, 0.0, 0.0, 1.741281158109769E9, 0.0, 2025-03-06 11:12:38.109
11.0, -31607.60183424972, -28785.716448511655, -34969.930049172646, -33339.88438128047, -5844.847064596065, -8398.064481981335, -40885.296867525205, -28614.457382495093, 0.04, 0.926, -0.34800000000000003, 192.0, 1.0, 64.0, 28.0, 240.0, 245.0, 32.0, 0.0, 0.0, 0.0, 1.741281158109793E9, 0.0, 2025-03-06 11:12:38.109
12.0, -31600.024592879367, -28778.429779819227, -34959.76000544548, -33327.903846252426, -5864.673061927922, -8394.309388912843, -40884.58161170264, -28605.89666436871, 0.04, 0.926, -0.34800000000000003, 192.0, 0.0, 0.0, 0.0, 0.0, 0.0, 0.0, 0.0, 0.0, 0.0, 1.741281158109816E9, 0.0, 2025-03-06 11:12:38.109
13.0, -31597.320031800275, -28776.440474562703, -34960.4529095236, -33326.5180380962, -5840.10849477154, -8402.37836866121, -40888.314353026675, -28593.111466540275, 0.04, 0.926, -0.34800000000000003, 192.0, 0.0, 0.0, 0.0, 0.0, 0.0, 0.0, 0.0, 0.0, 0.0, 1.74128115810984E9, 0.0, 2025-03-06 11:12:38.109
14.0, -31593.16260733159, -28774.384114072815, -34959.15650834519, -33324.70754679532, -5824.775198075199, -8400.679636082607, -40885.11805356957, -28587.568233915357, 0.04, 0.926, -0.34800000000000003, 192.0, 0.0, 0.0, 0.0, 0.0, 0.0, 0.0, 0.0, 0.0, 0.0, 1.741281158109861E9, 0.0, 2025-03-06 11:12:38.109
15.0, -31594.928395143557, -28774.160596628262, -34963.31393281388, -33328.32852939708, -5849.943262331875, -8400.61258084924, -40888.29200128222, -28609.919978370664, 0.04, 0.926, -0.34800000000000003, 192.0, 0.0, 0.0, 0.0, 0.0, 0.0, 0.0, 0.0, 0.0, 0.0, 1.741281158109883E9, 0.0, 2025-03-06 11:12:38.109
16.0, -31597.87882541166, -28765.286954079504, -34966.152604359704, -33328.70850905282, -5868.942245118886, -8403.004217505959, -40888.4037600045, -28601.940405600122, 0.04, 0.926, -0.34800000000000003, 192.0, 0.0, 0.0, 0.0, 0.0, 0.0, 0.0, 0.0, 0.0, 0.0, 1.74128115816923E9, 0.0, 2025-03-06 11:12:38.169
17.0, -31596.738886444437, -28758.51437550955, -34973.86395619678, -33332.2177329323, -5852.469009455324, -8410.313237942844, -40888.35905651558, -28582.360277457272, 0.04, 0.926, -0.34800000000000003, 192.0, 0.0, 0.0, 0.0, 0.0, 0.0, 0.0, 0.0, 0.0, 0.0, 1.741281158169291E9, 0.0, 2025-03-06 11:12:38.169
18.0, -31586.30062178381, -28751.764148684044, -34971.89700268472, -33325.82513401808, -5833.715895857322, -8400.724339571518, -40883.553431457694, -28592.485617695525, 0.04, 0.926, -0.34800000000000003, 192.0, 0.0, 0.0, 0.0, 0.0, 0.0, 0.0, 0.0, 0.0, 0.0, 1.741281158169313E9, 0.0, 2025-03-06 11:12:38.169
19.0, -31589.027534607358, -28759.140224354294, -34968.49953752751, -33327.92619799688, -5855.084163556596, -8400.411415149143, -40887.19676580391, -28617.89955114121, 0.04, 0.926, -0.34800000000000003, 192.0, 0.0, 0.0, 0.0, 0.0, 0.0, 0.0, 0.0, 0.0, 0.0, 1.741281158169339E9, 0.0, 2025-03-06 11:12:38.169
20.0, -31581.182072303545, -28751.87590740632, -34958.329493800346, -33321.24302640474, -5880.006358624263, -8399.204420948556, -40887.688504181926, -28607.19306554712, 0.04, 0.926, -0.34800000000000003, 192.0, 0.0, 0.0, 0.0, 0.0, 0.0, 0.0, 0.0, 0.0, 0.0, 1.741281158169361E9, 0.0, 2025-03-06 11:12:38.169
21.0, -31582.85845313769, -28751.384169028304, -34959.76000544548, -33326.16041018491, -5862.2590735267495, -8403.965342517537, -40890.99656236131, -28602.45449572259, 0.042, 0.926, -0.34800000000000003, 192.0, 1.0, 80.0, 28.0, 240.0, 245.0, 32.0, 0.0, 0.0, 0.0, 1.741281158169382E9, 0.0, 2025-03-06 11:12:38.169
22.0, -31591.53092998635, -28760.526032510526, -34972.92518292966, -33342.14190747045, -5817.801453805144, -8420.773854347928, -40897.72443744236, -28588.32819322684, 0.042, 0.926, -0.34800000000000003, 192.0, 0.0, 0.0, 0.0, 0.0, 0.0, 0.0, 0.0, 0.0, 0.0, 1.741281158169406E9, 0.0, 2025-03-06 11:12:38.169
23.0, -31599.510502756897, -28767.589183758402, -34973.34986607431, -33339.97378825829, -5848.691564642378, -8418.270458968933, -40891.04126585022, -28599.481713710036, 0.042, 0.926, -0.34800000000000003, 192.0, 0.0, 0.0, 0.0, 0.0, 0.0, 0.0, 0.0, 0.0, 0.0, 1.741281158169432E9, 0.0, 2025-03-06 11:12:38.169
24.0, -31595.598947477218, -28763.096483122885, -34968.2536683385, -33333.22356143279, -5876.184210322405, -8410.939086787592, -40894.99752461881, -28605.024946334954, 0.042, 0.926, -0.34800000000000003, 192.0, 0.0, 0.0, 0.0, 0.0, 0.0, 0.0, 0.0, 0.0, 0.0, 1.741281158169457E9, 0.0, 2025-03-06 11:12:38.169
25.0, -31591.28506079734, -28757.285029564504, -34965.70556947059, -33331.72599455428, -5857.744021146777, -8413.464833911043, -40893.16468157348, -28616.29022554043, 0.042, 0.926, -0.34800000000000003, 192.0, 0.0, 0.0, 0.0, 0.0, 0.0, 0.0, 0.0, 0.0, 0.0, 1.741281158169477E9, 0.0, 2025-03-06 11:12:38.169
26.0, -31591.218005563976, -28755.988628386098, -34967.560764260386, -33334.20703818882, -5817.689695082867, -8411.631990865706, -40898.68556245394, -28632.316426314883, 0.042, 0.926, -0.34800000000000003, 192.0, 0.0, 0.0, 0.0, 0.0, 0.0, 0.0, 0.0, 0.0, 0.0, 1.74128115816951E9, 0.0, 2025-03-06 11:12:38.169
27.0, -31596.515368999884, -28762.135358111307, -34967.31489507138, -33333.98352074427, -5831.7265906008, -8407.720435586029, -40892.87410889556, -28618.637158708236, 0.042, 0.926, -0.34800000000000003, 192.0, 0.0, 0.0, 0.0, 0.0, 0.0, 0.0, 0.0, 0.0, 0.0, 1.741281158169531E9, 0.0, 2025-03-06 11:12:38.169
28.0, -31600.762200446392, -28766.628058746825, -34970.08651138384, -33336.710433567816, -5864.87422762802, -8412.302543199366, -40891.01891410576, -28598.453533465094, 0.042, 0.926, -0.34800000000000003, 192.0, 0.0, 0.0, 0.0, 0.0, 0.0, 0.0, 0.0, 0.0, 0.0, 1.741281158169557E9, 0.0, 2025-03-06 11:12:38.169
29.0, -31601.25393882441, -28765.93515466871, -34971.44996779561, -33340.912561525416, -5865.321262517126, -8425.177148005623, -40895.48926299682, -28609.22707429255, 0.042, 0.926, -0.34800000000000003, 192.0, 0.0, 0.0, 0.0, 0.0, 0.0, 0.0, 0.0, 0.0, 0.0, 1.741281158169578E9, 0.0, 2025-03-06 11:12:38.169
30.0, -31589.698086941018, -28757.128567353317, -34964.185650847634, -33334.09527946654, -5833.91706155742, -8416.459967668054, -40891.1530245725, -28623.778059932956, 0.042, 0.926, -0.34800000000000003, 192.0, 0.0, 0.0, 0.0, 0.0, 0.0, 0.0, 0.0, 0.0, 0.0, 1.741281158169599E9, 0.0, 2025-03-06 11:12:38.169
31.0, -31584.512482227386, -28757.8885266648, -34957.21190657758, -33324.59578807304, -5828.843215566065, -8408.547450130874, -40889.789568160726, -28617.206647063096, 0.042, 0.928, -0.356, 192.0, 1.0, 80.0, 29.0, 0.0, 244.0, 224.0, 0.0, 0.0, 0.0, 1.741281158229509E9, 0.0, 2025-03-06 11:12:38.229
32.0, -31591.77679917536, -28768.393846558793, -34959.04474962292, -33328.44028811935, -5858.995718836274, -8410.38029317621, -40893.00821936229, -28615.61967320677, 0.042, 0.928, -0.356, 192.0, 0.0, 0.0, 0.0, 0.0, 0.0, 0.0, 0.0, 0.0, 0.0, 1.74128115822955E9, 0.0, 2025-03-06 11:12:38.229
33.0, -31598.415267278586, -28778.429779819227, -34965.99614214851, -33336.55397135663, -5862.884922371498, -8412.235487966, -40893.969344373865, -28614.01034760599, 0.042, 0.928, -0.356, 192.0, 0.0, 0.0, 0.0, 0.0, 0.0, 0.0, 0.0, 0.0, 0.0, 1.741281158229572E9, 0.0, 2025-03-06 11:12:38.229
34.0, -31588.62520320716, -28770.718427982145, -34962.039883379926, -33332.4188986324, -5846.6799076414, -8409.218002464533, -40889.81191990518, -28597.626518920246, 0.042, 0.928, -0.356, 192.0, 0.0, 0.0, 0.0, 0.0, 0.0, 0.0, 0.0, 0.0, 0.0, 1.741281158229596E9, 0.0, 2025-03-06 11:12:38.229
35.0, -31593.430828265053, -28770.092579137396, -34962.59867699131, -33328.373232885984, -5832.933584801386, -8404.61354310674, -40885.36392275857, -28588.484655438027, 0.042, 0.928, -0.356, 192.0, 0.0, 0.0, 0.0, 0.0, 0.0, 0.0, 0.0, 0.0, 0.0, 1.741281158229616E9, 0.0, 2025-03-06 11:12:38.229
36.0, -31609.38997380614, -28786.141131656306, -34972.791072462926, -33337.02335799019, -5851.06084955464, -8410.782624576404, -40892.53883272873, -28612.915112127677, 0.042, 0.928, -0.356, 192.0, 0.0, 0.0, 0.0, 0.0, 0.0, 0.0, 0.0, 0.0, 0.0, 1.741281158229637E9, 0.0, 2025-03-06 11:12:38.229
37.0, -31607.40066854962, -28792.712544526166, -34974.71332248608, -33339.772622558194, -5863.555474705157, -8415.074159511823, -40895.176338574456, -28605.494332968516, 0.042, 0.928, -0.356, 192.0, 0.0, 0.0, 0.0, 0.0, 0.0, 0.0, 0.0, 0.0, 0.0, 1.741281158229658E9, 0.0, 2025-03-06 11:12:38.229
38.0, -31606.193674349033, -28793.718373026655, -34973.841604452326, -33339.79497430265, -5834.520558657713, -8407.340455930287, -40892.87410889556, -28607.684803925134, 0.042, 0.928, -0.356, 192.0, 0.0, 0.0, 0.0, 0.0, 0.0, 0.0, 0.0, 0.0, 0.0, 1.74128115822968E9, 0.0, 2025-03-06 11:12:38.229
39.0, -31610.328747073265, -28798.12166668435, -34972.83577595184, -33336.26339867871, -5830.25137546675, -8402.46777563903, -40893.9022891405, -28606.902492869198, 0.042, 0.928, -0.356, 192.0, 0.0, 0.0, 0.0, 0.0, 0.0, 0.0, 0.0, 0.0, 0.0, 1.741281158229708E9, 0.0, 2025-03-06 11:12:38.229
40.0, -31618.30831984381, -28806.481219110636, -34975.003895164, -33334.29644516664, -5855.374736234515, -8395.292865668878, -40892.918812384465, -28615.172638317665, 0.042, 0.928, -0.356, 192.0, 0.0, 0.0, 0.0, 0.0, 0.0, 0.0, 0.0, 0.0, 0.0, 1.741281158229729E9, 0.0, 2025-03-06 11:12:38.229
41.0, -31612.20629360751, -28802.45790510868, -34968.00779914949, -33328.28382590817, -5869.501038730269, -8387.983845231993, -40885.028646591745, -28612.781001660944, 0.044, 0.926, -0.352, 192.0, 1.0, 96.0, 28.0, 240.0, 245.0, 0.0, 0.0, 0.0, 0.0, 1.741281158229759E9, 0.0, 2025-03-06 11:12:38.229
42.0, -31610.239340095442, -28804.357803387382, -34974.42274980817, -33335.995177745244, -5844.891768084975, -8399.204420948556, -40893.701123440405, -28612.289263282928, 0.044, 0.926, -0.352, 192.0, 0.0, 0.0, 0.0, 0.0, 0.0, 0.0, 0.0, 0.0, 0.0, 1.741281158229782E9, 0.0, 2025-03-06 11:12:38.229
43.0, -31606.35013656022, -28798.300480639995, -34973.26045909649, -33335.43638413386, -5824.238756208272, -8404.099452984268, -40889.96838211636, -28606.477809724547, 0.044, 0.926, -0.352, 192.0, 0.0, 0.0, 0.0, 0.0, 0.0, 0.0, 0.0, 0.0, 0.0, 1.741281158229806E9, 0.0, 2025-03-06 11:12:38.229
44.0, -31614.0614883973, -28803.821361520455, -34978.28960159893, -33338.3197591686, -5845.428209951903, -8404.390025662187, -40893.76817867377, -28613.94329237262, 0.044, 0.926, -0.352, 192.0, 0.0, 0.0, 0.0, 0.0, 0.0, 0.0, 0.0, 0.0, 0.0, 1.741281158229828E9, 0.0, 2025-03-06 11:12:38.229
45.0, -31611.535741273852, -28795.394753860804, -34978.42371206566, -33341.35959641452, -5866.595311951079, -8407.228697208011, -40890.77304491676, -28600.487542210525, 0.044, 0.926, -0.352, 192.0, 0.0, 0.0, 0.0, 0.0, 0.0, 0.0, 0.0, 0.0, 0.0, 1.741281158229849E9, 0.0, 2025-03-06 11:12:38.229
46.0, -31609.859360439703, -28789.002154946586, -34979.094264399326, -33347.618084862006, -5856.022936823719, -8414.895345556182, -40892.44942575091, -28608.04243183642, 0.044, 0.926, -0.352, 192.0, 0.0, 0.0, 0.0, 0.0, 0.0, 0.0, 0.0, 0.0, 0.0, 1.741281158290021E9, 0.0, 2025-03-06 11:12:38.290
47.0, -31608.004165649912, -28787.63869853481, -34981.664715011684, -33350.85908780803, -5831.5030731562465, -8421.980848548514, -40897.34445778662, -28627.063766367886, 0.044, 0.926, -0.352, 192.0, 0.0, 0.0, 0.0, 0.0, 0.0, 0.0, 0.0, 0.0, 0.0, 1.741281158290078E9, 0.0, 2025-03-06 11:12:38.290
48.0, -31606.573654004773, -28786.521111312046, -34978.44606381012, -33350.45675640783, -5857.922835102419, -8423.701932871572, -40896.74096068632, -28615.753783673503, 0.044, 0.926, -0.352, 192.0, 0.0, 0.0, 0.0, 0.0, 0.0, 0.0, 0.0, 0.0, 0.0, 1.7412811582901E9, 0.0, 2025-03-06 11:12:38.290
49.0, -31609.077049383766, -28787.75045725709, -34981.91058420069, -33354.63653262097, -5878.844067912587, -8429.446331196586, -40903.155911345, -28626.437917523137, 0.044, 0.926, -0.352, 192.0, 0.0, 0.0, 0.0, 0.0, 0.0, 0.0, 0.0, 0.0, 0.0, 1.741281158290128E9, 0.0, 2025-03-06 11:12:38.290
50.0, -31609.45702903951, -28780.8437682204, -34982.75995048999, -33355.03886402117, -5876.4077277669585, -8430.116883530245, -40900.42899852145, -28615.19499006212, 0.044, 0.926, -0.352, 192.0, 0.0, 0.0, 0.0, 0.0, 0.0, 0.0, 0.0, 0.0, 0.0, 1.741281158290149E9, 0.0, 2025-03-06 11:12:38.290
51.0, -31617.905988443614, -28783.727143255135, -34992.2594418835, -33355.59765763255, -5835.749904602755, -8435.52600568843, -40905.68165846845, -28639.826612451867, 0.042, 0.928, -0.354, 192.0, 1.0, 80.0, 29.0, 0.0, 244.0, 240.0, 0.0, 0.0, 0.0, 1.741281158290175E9, 0.0, 2025-03-06 11:12:38.290
52.0, -31618.084802399255, -28794.813608504966, -34993.86876748428, -33355.91058205492, -5843.908291328942, -8435.637764410707, -40904.27349856776, -28629.0083681355, 0.042, 0.928, -0.354, 192.0, 0.0, 0.0, 0.0, 0.0, 0.0, 0.0, 0.0, 0.0, 0.0, 1.741281158290197E9, 0.0, 2025-03-06 11:12:38.290
53.0, -31611.82631395177, -28799.909806240776, -34990.73952326054, -33360.93972455737, -5879.581675479612, -8432.821444609339, -40897.09858859761, -28599.593472432312, 0.042, 0.928, -0.354, 192.0, 0.0, 0.0, 0.0, 0.0, 0.0, 0.0, 0.0, 0.0, 0.0, 1.741281158290218E9, 0.0, 2025-03-06 11:12:38.290
54.0, -31609.300566828322, -28792.89135848181, -34986.917374958684, -33353.474241909295, -5876.117155089039, -8425.512424172453, -40902.82063517817, -28632.741109459534, 0.042, 0.928, -0.354, 192.0, 0.0, 0.0, 0.0, 0.0, 0.0, 0.0, 0.0, 0.0, 0.0, 1.741281158290244E9, 0.0, 2025-03-06 11:12:38.290
55.0, -31606.77481970487, -28791.75141951459, -34987.56557554789, -33350.613218619015, -5845.405858207448, -8423.344304960288, -40906.061638124185, -28646.643894510737, 0.042, 0.928, -0.354, 192.0, 0.0, 0.0, 0.0, 0.0, 0.0, 0.0, 0.0, 0.0, 0.0, 1.741281158290269E9, 0.0, 2025-03-06 11:12:38.290
56.0, -31613.703860486017, -28801.362669630373, -34990.40424709371, -33357.45285242234, -5845.361154718537, -8424.059560782858, -40897.36680953107, -28619.307711041896, 0.042, 0.928, -0.354, 192.0, 0.0, 0.0, 0.0, 0.0, 0.0, 0.0, 0.0, 0.0, 0.0, 1.741281158290294E9, 0.0, 2025-03-06 11:12:38.290
57.0, -31625.863209469702, -28813.61142559188, -34995.27692738497, -33367.51113742723, -5878.151163834473, -8428.775778862928, -40902.03832412223, -28621.542885487426, 0.042, 0.928, -0.354, 192.0, 0.0, 0.0, 0.0, 0.0, 0.0, 0.0, 0.0, 0.0, 0.0, 1.741281158290318E9, 0.0, 2025-03-06 11:12:38.290
58.0, -31619.537665788852, -28811.666823824267, -34987.14089240324, -33354.055387265136, -5884.409652281958, -8420.818557836837, -40903.111207856084, -28649.70608350111, 0.042, 0.928, -0.354, 192.0, 0.0, 0.0, 0.0, 0.0, 0.0, 0.0, 0.0, 0.0, 0.0, 1.741281158290339E9, 0.0, 2025-03-06 11:12:38.290
59.0, -31622.15281989012, -28812.22561743565, -34990.58306104935, -33351.1720122304, -5840.3096604716375, -8415.320028700833, -40901.52423399976, -28629.544810002426, 0.042, 0.928, -0.354, 192.0, 0.0, 0.0, 0.0, 0.0, 0.0, 0.0, 0.0, 0.0, 0.0, 1.741281158290366E9, 0.0, 2025-03-06 11:12:38.290
60.0, -31629.439488582553, -28820.428707650746, -34998.71909603108, -33357.31874195561, -5833.2018057348505, -8427.412322451153, -40907.8050741917, -28623.84511516632, 0.042, 0.928, -0.354, 192.0, 0.0, 0.0, 0.0, 0.0, 0.0, 0.0, 0.0, 0.0, 0.0, 1.741281158290387E9, 0.0, 2025-03-06 11:12:38.290
61.0, -31628.321901359788, -28820.540466373026, -34990.85128198282, -33348.512154640215, -5869.054003841163, -8424.171319505134, -40904.2064433344, -28640.72068223008, 0.042, 0.926, -0.354, 192.0, 1.0, 80.0, 28.0, 240.0, 244.0, 240.0, 0.0, 0.0, 0.0, 1.741281158350283E9, 0.0, 2025-03-06 11:12:38.350
62.0, -31620.655253011617, -28810.862161023877, -34975.96502017558, -33326.07100320709, -5877.301797545171, -8398.824441292816, -40899.53492874324, -28653.170603891685, 0.042, 0.926, -0.354, 192.0, 0.0, 0.0, 0.0, 0.0, 0.0, 0.0, 0.0, 0.0, 0.0, 1.741281158350316E9, 0.0, 2025-03-06 11:12:38.350
63.0, -31618.800058221826, -28809.52105635656, -34975.652095753205, -33326.18276192937, -5857.296986257671, -8399.316179670832, -40894.57284147416, -28639.91601942969, 0.042, 0.926, -0.354, 192.0, 0.0, 0.0, 0.0, 0.0, 0.0, 0.0, 0.0, 0.0, 0.0, 1.741281158350361E9, 0.0, 2025-03-06 11:12:38.350
64.0, -31622.622206523683, -28814.706661070188, -34981.35179058931, -33334.966997500305, -5838.454465681847, -8408.256877452955, -40905.34638230162, -28649.415510823193, 0.042, 0.926, -0.354, 192.0, 0.0, 0.0, 0.0, 0.0, 0.0, 0.0, 0.0, 0.0, 0.0, 1.741281158350386E9, 0.0, 2025-03-06 11:12:38.350
65.0, -31621.437564067553, -28818.7523268166, -34978.71428474358, -33337.045709734644, -5871.579750964613, -8407.563973374841, -40905.793417190725, -28638.753728718013, 0.042, 0.926, -0.354, 192.0, 0.0, 0.0, 0.0, 0.0, 0.0, 0.0, 0.0, 0.0, 0.0, 1.741281158350408E9, 0.0, 2025-03-06 11:12:38.350
66.0, -31620.49879080043, -28822.61917860737, -34982.44702606762, -33343.86299179352, -5883.6273412260225, -8418.538679902396, -40906.19574859092, -28639.84896419632, 0.042, 0.926, -0.354, 192.0, 0.0, 0.0, 0.0, 0.0, 0.0, 0.0, 0.0, 0.0, 0.0, 1.741281158350429E9, 0.0, 2025-03-06 11:12:38.350
67.0, -31612.49686628543, -28817.590036104924, -34981.91058420069, -33350.30029419664, -5869.881018386009, -8414.403607178165, -40902.217138077875, -28626.75084194551, 0.042, 0.926, -0.354, 192.0, 0.0, 0.0, 0.0, 0.0, 0.0, 0.0, 0.0, 0.0, 0.0, 1.741281158350451E9, 0.0, 2025-03-06 11:12:38.350
68.0, -31618.330671588265, -28822.21684720717, -34991.92416571667, -33358.3245704561, -5838.141541259473, -8425.020685794436, -40908.8556061811, -28627.466097768083, 0.042, 0.926, -0.354, 192.0, 0.0, 0.0, 0.0, 0.0, 0.0, 0.0, 0.0, 0.0, 0.0, 1.741281158350472E9, 0.0, 2025-03-06 11:12:38.350
69.0, -31616.721345987484, -28818.729975072143, -34984.07870341286, -33351.61904711951, -5887.047158127685, -8424.081912527314, -40898.68556245394, -28629.500106513515, 0.042, 0.926, -0.354, 192.0, 0.0, 0.0, 0.0, 0.0, 0.0, 0.0, 0.0, 0.0, 0.0, 1.7412811583505E9, 0.0, 2025-03-06 11:12:38.350
70.0, -31607.40066854962, -28812.784411047032, -34985.75508424701, -33357.76577684472, -5898.401844310981, -8428.596964907285, -40899.28905955423, -28631.400004792216, 0.042, 0.926, -0.354, 192.0, 0.0, 0.0, 0.0, 0.0, 0.0, 0.0, 0.0, 0.0, 0.0, 1.741281158350525E9, 0.0, 2025-03-06 11:12:38.350
71.0, -31603.846741181227, -28803.374326631347, -34985.59862203582, -33353.42953842039, -5878.329977790115, -8429.245165496488, -40895.645725208014, -28630.43887978064, 0.044, 0.92, -0.354, 192.0, 1.0, 96.0, 28.0, 192.0, 244.0, 240.0, 0.0, 0.0, 0.0, 1.741281158350546E9, 0.0, 2025-03-06 11:12:38.350
72.0, -31605.16549410409, -28800.155675429785, -34985.084531913344, -33355.77647158819, -5835.01229703573, -8433.044962053891, -40892.31531528418, -28627.175525090162, 0.044, 0.92, -0.354, 192.0, 0.0, 0.0, 0.0, 0.0, 0.0, 0.0, 0.0, 0.0, 0.0, 1.741281158350578E9, 0.0, 2025-03-06 11:12:38.350
73.0, -31616.02844190937, -28813.007928491585, -34990.11367441579, -33362.25847748023, -5848.088067542085, -8434.073142298836, -40895.578669974646, -28633.434013537648, 0.044, 0.92, -0.354, 192.0, 0.0, 0.0, 0.0, 0.0, 0.0, 0.0, 0.0, 0.0, 0.0, 1.741281158350599E9, 0.0, 2025-03-06 11:12:38.350
74.0, -31622.55515129032, -28821.501591384604, -34995.858072740804, -33369.075759539104, -5881.012187124752, -8436.129502788723, -40896.11511184157, -28633.679882726658, 0.044, 0.92, -0.354, 192.0, 0.0, 0.0, 0.0, 0.0, 0.0, 0.0, 0.0, 0.0, 0.0, 1.741281158350624E9, 0.0, 2025-03-06 11:12:38.350
75.0, -31616.296662842833, -28815.17604770375, -34990.895985471725, -33365.94651531536, -5878.598198723579, -8434.028438809924, -40888.69433268241, -28626.32615880086, 0.044, 0.92, -0.354, 192.0, 0.0, 0.0, 0.0, 0.0, 0.0, 0.0, 0.0, 0.0, 0.0, 1.741281158350645E9, 0.0, 2025-03-06 11:12:38.350
76.0, -31623.628035024172, -28822.283902440537, -35000.64134605424, -33374.90956484194, -5830.206671977839, -8440.488092957508, -40894.751655429805, -28634.685711227146, 0.044, 0.92, -0.354, 192.0, 0.0, 0.0, 0.0, 0.0, 0.0, 0.0, 0.0, 0.0, 0.0, 1.741281158410599E9, 0.0, 2025-03-06 11:12:38.410
77.0, -31629.148915904632, -28827.51421064308, -35003.65883155571, -33370.28275373969, -5845.405858207448, -8440.085761557313, -40893.76817867377, -28633.791641448934, 0.044, 0.92, -0.354, 192.0, 0.0, 0.0, 0.0, 0.0, 0.0, 0.0, 0.0, 0.0, 0.0, 1.741281158410631E9, 0.0, 2025-03-06 11:12:38.410
78.0, -31623.046889668334, -28819.847562294908, -34998.71909603108, -33362.19142224687, -5878.598198723579, -8435.704819644072, -40887.06265533718, -28617.72073718557, 0.044, 0.92, -0.354, 192.0, 0.0, 0.0, 0.0, 0.0, 0.0, 0.0, 0.0, 0.0, 0.0, 1.741281158410672E9, 0.0, 2025-03-06 11:12:38.410
79.0, -31616.073145398277, -28806.101239454896, -34989.3090116154, -33351.88726805297, -5879.045233612685, -8426.942935817593, -40883.95576285789, -28620.470001753572, 0.044, 0.92, -0.354, 192.0, 0.0, 0.0, 0.0, 0.0, 0.0, 0.0, 0.0, 0.0, 0.0, 1.741281158410698E9, 0.0, 2025-03-06 11:12:38.410
80.0, -31620.699956500528, -28808.42582087825, -34994.87459598477, -33357.69872161135, -5839.884977326987, -8428.887537585204, -40897.34445778662, -28629.61186523579, 0.044, 0.92, -0.354, 192.0, 0.0, 0.0, 0.0, 0.0, 0.0, 0.0, 0.0, 0.0, 0.0, 1.741281158410724E9, 0.0, 2025-03-06 11:12:38.410
81.0, -31629.841819982747, -28813.879646525344, -35000.30606988741, -33361.63262863548, -5840.533177916191, -8429.155758518667, -40900.473702010364, -28611.171676060163, 0.044, 0.92, -0.34600000000000003, 192.0, 1.0, 96.0, 28.0, 192.0, 245.0, 48.0, 0.0, 0.0, 0.0, 1.741281158410745E9, 0.0, 2025-03-06 11:12:38.410
82.0, -31631.87582872818, -28813.879646525344, -35000.52958733196, -33355.865878566015, -5880.967483635841, -8426.42884569512, -40903.73705670083, -28620.358243031293, 0.044, 0.92, -0.34600000000000003, 192.0, 0.0, 0.0, 0.0, 0.0, 0.0, 0.0, 0.0, 0.0, 0.0, 1.741281158410769E9, 0.0, 2025-03-06 11:12:38.410
83.0, -31631.853476983724, -28814.281977925537, -34999.009668709004, -33347.50632613973, -5880.49809700228, -8422.182014248612, -40912.11896087157, -28663.51946157449, 0.044, 0.92, -0.34600000000000003, 192.0, 0.0, 0.0, 0.0, 0.0, 0.0, 0.0, 0.0, 0.0, 0.0, 1.74128115841079E9, 0.0, 2025-03-06 11:12:38.410
84.0, -31627.472535070487, -28814.214922692172, -34996.573328563376, -33345.42761390538, -5853.1619135334395, -8415.94587754558, -40923.49599879933, -28653.23765912505, 0.044, 0.92, -0.34600000000000003, 192.0, 0.0, 0.0, 0.0, 0.0, 0.0, 0.0, 0.0, 0.0, 0.0, 1.741281158410815E9, 0.0, 2025-03-06 11:12:38.410
85.0, -31622.219875123486, -28813.36555640287, -34991.6112412943, -33350.14383198546, -5846.523445430213, -8418.270458968933, -40921.97608017636, -28617.206647063096, 0.044, 0.92, -0.34600000000000003, 192.0, 0.0, 0.0, 0.0, 0.0, 0.0, 0.0, 0.0, 0.0, 0.0, 1.74128115841084E9, 0.0, 2025-03-06 11:12:38.410
86.0, -31623.493924557442, -28820.875742539854, -34986.44798832512, -33352.75898608673, -5876.49713474478, -8411.341418187789, -40909.30264107021, -28624.359205288794, 0.044, 0.92, -0.34600000000000003, 192.0, 0.0, 0.0, 0.0, 0.0, 0.0, 0.0, 0.0, 0.0, 0.0, 1.741281158410861E9, 0.0, 2025-03-06 11:12:38.410
87.0, -31620.74465998944, -28819.266416939074, -34977.17201437617, -33337.35863415702, -5883.806155181665, -8408.301580941867, -40912.34247831613, -28647.91794394469, 0.044, 0.92, -0.34600000000000003, 192.0, 0.0, 0.0, 0.0, 0.0, 0.0, 0.0, 0.0, 0.0, 0.0, 1.741281158410889E9, 0.0, 2025-03-06 11:12:38.410
88.0, -31622.041061167845, -28822.61917860737, -34978.11078764329, -33338.34211091305, -5860.5603409481455, -8418.963363047047, -40914.53294927275, -28658.445615583136, 0.044, 0.92, -0.34600000000000003, 192.0, 0.0, 0.0, 0.0, 0.0, 0.0, 0.0, 0.0, 0.0, 0.0, 1.74128115841091E9, 0.0, 2025-03-06 11:12:38.410
89.0, -31635.74268051895, -28836.454908425203, -34990.5607093049, -33349.04859650715, -5832.017163278719, -8436.889462100204, -40918.13158013005, -28662.603040051825, 0.044, 0.92, -0.34600000000000003, 192.0, 0.0, 0.0, 0.0, 0.0, 0.0, 0.0, 0.0, 0.0, 0.0, 1.741281158410934E9, 0.0, 2025-03-06 11:12:38.410
90.0, -31646.315055646308, -28841.14877476082, -34989.46547382659, -33344.242971449254, -5871.915027131442, -8427.05469453987, -40909.280289325754, -28654.53406030346, 0.044, 0.92, -0.34600000000000003, 192.0, 0.0, 0.0, 0.0, 0.0, 0.0, 0.0, 0.0, 0.0, 0.0, 1.741281158410956E9, 0.0, 2025-03-06 11:12:38.410
91.0, -31642.93994223356, -28837.7066061147, -34982.29056385643, -33341.873686536994, -5894.959675664863, -8421.757331103961, -40901.94891714441, -28632.562295503893, 0.046, 0.918, -0.34800000000000003, 192.0, 1.0, 112.0, 28.0, 176.0, 245.0, 32.0, 0.0, 0.0, 0.0, 1.741281158470055E9, 0.0, 2025-03-06 11:12:38.470
92.0, -31625.572636791785, -28827.08952749843, -34971.53937477343, -33336.82219229009, -5878.039405112196, -8415.700008356573, -40891.890632139526, -28617.072536596363, 0.046, 0.918, -0.34800000000000003, 192.0, 0.0, 0.0, 0.0, 0.0, 0.0, 0.0, 0.0, 0.0, 0.0, 1.74128115847009E9, 0.0, 2025-03-06 11:12:38.470
93.0, -31627.78545949286, -28831.314007200483, -34976.81438646488, -33343.013625504216, -5835.571090647112, -8413.688351355595, -40899.46787350987, -28633.299903070918, 0.046, 0.918, -0.34800000000000003, 192.0, 0.0, 0.0, 0.0, 0.0, 0.0, 0.0, 0.0, 0.0, 0.0, 1.74128115847013E9, 0.0, 2025-03-06 11:12:38.470
94.0, -31634.848610740737, -28835.51613515808, -34982.78230223445, -33345.60642786103, -5860.605044437057, -8405.2840954404, -40902.7535799448, -28638.127879873264, 0.046, 0.918, -0.34800000000000003, 192.0, 0.0, 0.0, 0.0, 0.0, 0.0, 0.0, 0.0, 0.0, 0.0, 1.741281158470152E9, 0.0, 2025-03-06 11:12:38.470
95.0, -31630.042985682845, -28824.60848386389, -34980.72594174456, -33341.09137548105, -5896.412539054459, -8405.127633229213, -40900.49605375482, -28630.170658847175, 0.046, 0.918, -0.34800000000000003, 192.0, 0.0, 0.0, 0.0, 0.0, 0.0, 0.0, 0.0, 0.0, 0.0, 1.741281158470179E9, 0.0, 2025-03-06 11:12:38.470
96.0, -31625.59498853624, -28818.41705064977, -34979.228374866056, -33337.55979985712, -5888.052986628174, -8402.825403550316, -40893.38819901803, -28623.152211088207, 0.046, 0.918, -0.34800000000000003, 192.0, 0.0, 0.0, 0.0, 0.0, 0.0, 0.0, 0.0, 0.0, 0.0, 1.7412811584702E9, 0.0, 2025-03-06 11:12:38.470
97.0, -31613.92737793057, -28807.41999237776, -34972.63461025174, -33334.69877656684, -5869.232817796805, -8399.830269793305, -40890.03543734973, -28624.135687844242, 0.046, 0.918, -0.34800000000000003, 192.0, 0.0, 0.0, 0.0, 0.0, 0.0, 0.0, 0.0, 0.0, 0.0, 1.741281158470222E9, 0.0, 2025-03-06 11:12:38.470
98.0, -31620.31997684479, -28816.51715237107, -34979.38483707725, -33342.74540457075, -5880.006358624263, -8401.640761094184, -40896.22687056385, -28628.98601639104, 0.046, 0.918, -0.34800000000000003, 192.0, 0.0, 0.0, 0.0, 0.0, 0.0, 0.0, 0.0, 0.0, 0.0, 1.741281158470248E9, 0.0, 2025-03-06 11:12:38.470
99.0, -31624.54445654684, -28826.28486469804, -34986.984430192046, -33354.74829134325, -5895.7196349763435, -8411.43082516561, -40900.8536816661, -28632.67405422617, 0.046, 0.918, -0.34800000000000003, 192.0, 0.0, 0.0, 0.0, 0.0, 0.0, 0.0, 0.0, 0.0, 0.0, 1.741281158470268E9, 0.0, 2025-03-06 11:12:38.470
100.0, -31620.364680333696, -28822.440364651724, -34986.76091274749, -33356.71524485532, -5895.741986720799, -8422.226717737522, -40901.47953051085, -28634.57395250487, 0.046, 0.918, -0.34800000000000003, 192.0, 0.0, 0.0, 0.0, 0.0, 0.0, 0.0, 0.0, 0.0, 0.0, 1.741281158470298E9, 0.0, 2025-03-06 11:12:38.470
101.0, -31623.002186179423, -28817.590036104924, -34992.572366305874, -33358.659846622926, -5863.935454360897, -8429.267517240944, -40905.7040102129, -28635.870353683276, 0.042, 0.914, -0.34600000000000003, 192.0, 1.0, 80.0, 28.0, 144.0, 245.0, 48.0, 0.0, 0.0, 0.0, 1.741281158470319E9, 0.0, 2025-03-06 11:12:38.470
102.0, -31637.463764842007, -28831.492821156124, -35005.648136812226, -33371.377989217995, -5867.198809051372, -8439.929299346126, -40914.06356263919, -28645.347493332327, 0.042, 0.914, -0.34600000000000003, 192.0, 0.0, 0.0, 0.0, 0.0, 0.0, 0.0, 0.0, 0.0, 0.0, 1.741281158470346E9, 0.0, 2025-03-06 11:12:38.470
103.0, -31637.68728228656, -28830.822268822467, -35004.48584610055, -33371.802672362646, -5915.053893930184, -8439.750485390483, -40902.61946947807, -28632.696405970622, 0.042, 0.914, -0.34600000000000003, 192.0, 0.0, 0.0, 0.0, 0.0, 0.0, 0.0, 0.0, 0.0, 0.0, 1.741281158470371E9, 0.0, 2025-03-06 11:12:38.470
104.0, -31632.83695373976, -28824.4520216527, -35002.295375143935, -33364.89598332596, -5911.432911328425, -8434.67663939913, -40893.56701297367, -28622.302844798905, 0.042, 0.914, -0.34600000000000003, 192.0, 0.0, 0.0, 0.0, 0.0, 0.0, 0.0, 0.0, 0.0, 0.0, 1.741281158470392E9, 0.0, 2025-03-06 11:12:38.470
105.0, -31627.561942048305, -28824.116745485873, -35003.23414841106, -33367.48878568278, -5876.295969044682, -8443.416171481154, -40896.47273975286, -28627.488449512537, 0.042, 0.914, -0.34600000000000003, 192.0, 0.0, 0.0, 0.0, 0.0, 0.0, 0.0, 0.0, 0.0, 0.0, 1.741281158470419E9, 0.0, 2025-03-06 11:12:38.470
106.0, -31631.20527639452, -28833.12449850136, -35006.45279961262, -33374.395474719466, -5870.104535830562, -8452.66979368565, -40899.82550142115, -28609.495295226014, 0.042, 0.914, -0.34600000000000003, 192.0, 0.0, 0.0, 0.0, 0.0, 0.0, 0.0, 0.0, 0.0, 0.0, 1.741281158529778E9, 0.0, 2025-03-06 11:12:38.529
107.0, -31628.903046715626, -28832.208076978695, -35001.28954664344, -33368.159338016434, -5914.8527282300865, -8448.311203516865, -40893.94699262941, -28634.10456587131, 0.042, 0.914, -0.34600000000000003, 192.0, 0.0, 0.0, 0.0, 0.0, 0.0, 0.0, 0.0, 0.0, 0.0, 1.741281158529811E9, 0.0, 2025-03-06 11:12:38.529
108.0, -31620.20821812251, -28818.685271583236, -34991.58888954984, -33353.67540760939, -5919.166614909961, -8434.788398121405, -40896.0033531193, -28665.128787175276, 0.042, 0.914, -0.34600000000000003, 192.0, 0.0, 0.0, 0.0, 0.0, 0.0, 0.0, 0.0, 0.0, 0.0, 1.741281158529833E9, 0.0, 2025-03-06 11:12:38.529
109.0, -31624.812677480302, -28821.94862627371, -34998.89790998673, -33361.56557340212, -5880.229876068816, -8441.516273202453, -40900.31723979917, -28654.690522514647, 0.042, 0.914, -0.34600000000000003, 192.0, 0.0, 0.0, 0.0, 0.0, 0.0, 0.0, 0.0, 0.0, 0.0, 1.741281158529874E9, 0.0, 2025-03-06 11:12:38.529
110.0, -31634.803907251826, -28835.113803757886, -35008.64327056924, -33371.713265384824, -5863.711936916344, -8449.227625039533, -40905.212271834884, -28632.964626904086, 0.042, 0.914, -0.34600000000000003, 192.0, 0.0, 0.0, 0.0, 0.0, 0.0, 0.0, 0.0, 0.0, 0.0, 1.7412811585299E9, 0.0, 2025-03-06 11:12:38.529
111.0, -31640.50360208793, -28844.345074217927, -35010.31965140339, -33370.1262915285, -5898.670065244444, -8449.875825628736, -40915.069391139674, -28670.269688399996, 0.05, 0.92, -0.34, 192.0, 1.0, 144.0, 28.0, 192.0, 245.0, 96.0, 0.0, 0.0, 0.0, 1.741281158529922E9, 0.0, 2025-03-06 11:12:38.529
112.0, -31637.79904100884, -28843.18278350625, -35010.87844501477, -33366.192384504364, -5908.124853149039, -8439.549319690386, -40912.834216694144, -28649.214345123095, 0.05, 0.92, -0.34, 192.0, 0.0, 0.0, 0.0, 0.0, 0.0, 0.0, 0.0, 0.0, 0.0, 1.741281158529945E9, 0.0, 2025-03-06 11:12:38.529
113.0, -31635.630921796674, -28838.153641003806, -35006.273985656975, -33360.15741350143, -5882.733271447811, -8439.10228480128, -40902.32889680015, -28659.093816172342, 0.05, 0.92, -0.34, 192.0, 0.0, 0.0, 0.0, 0.0, 0.0, 0.0, 0.0, 0.0, 0.0, 1.741281158529967E9, 0.0, 2025-03-06 11:12:38.529
114.0, -31632.59108455075, -28829.212943221683, -34998.227357653064, -33344.35473017153, -5859.420401980925, -8424.953630561069, -40895.779835674744, -28662.223060396085, 0.05, 0.92, -0.34, 192.0, 0.0, 0.0, 0.0, 0.0, 0.0, 0.0, 0.0, 0.0, 0.0, 1.741281158529992E9, 0.0, 2025-03-06 11:12:38.529
115.0, -31634.200410151534, -28839.159469504295, -34999.36729662029, -33344.31002668262, -5878.128812090017, -8422.249069481977, -40901.77010318877, -28645.369845076784, 0.05, 0.92, -0.34, 192.0, 0.0, 0.0, 0.0, 0.0, 0.0, 0.0, 0.0, 0.0, 0.0, 1.741281158530018E9, 0.0, 2025-03-06 11:12:38.530
116.0, -31626.578465292274, -28839.494745671123, -34992.706476772604, -33345.248799949746, -5895.853745443076, -8420.639743881196, -40897.27740255325, -28635.19980134962, 0.05, 0.92, -0.34, 192.0, 0.0, 0.0, 0.0, 0.0, 0.0, 0.0, 0.0, 0.0, 0.0, 1.741281158530043E9, 0.0, 2025-03-06 11:12:38.530
117.0, -31637.35200611973, -28848.971885320174, -35001.62482281027, -33361.4761664243, -5866.64001543999, -8432.441464953597, -40906.62043173557, -28648.610848022803, 0.05, 0.92, -0.34, 192.0, 0.0, 0.0, 0.0, 0.0, 0.0, 0.0, 0.0, 0.0, 0.0, 1.741281158530067E9, 0.0, 2025-03-06 11:12:38.530
118.0, -31639.20720090952, -28851.207059765704, -35003.81529376689, -33368.82989035009, -5848.378640220004, -8435.928337088626, -40910.15200735951, -28658.043284182942, 0.05, 0.92, -0.34, 192.0, 0.0, 0.0, 0.0, 0.0, 0.0, 0.0, 0.0, 0.0, 0.0, 1.741281158530095E9, 0.0, 2025-03-06 11:12:38.530
119.0, -31640.25773289892, -28856.52677494607, -35002.34007863284, -33371.28858224017, -5876.050099855674, -8429.33457247431, -40902.44065552243, -28645.213382865597, 0.05, 0.92, -0.34, 192.0, 0.0, 0.0, 0.0, 0.0, 0.0, 0.0, 0.0, 0.0, 0.0, 1.741281158530116E9, 0.0, 2025-03-06 11:12:38.530
120.0, -31639.475421842984, -28856.929106346266, -35002.76476177749, -33369.343980472564, -5899.988818167308, -8419.14217700269, -40897.85854790909, -28645.05692065441, 0.05, 0.92, -0.34, 192.0, 0.0, 0.0, 0.0, 0.0, 0.0, 0.0, 0.0, 0.0, 0.0, 1.74128115853014E9, 0.0, 2025-03-06 11:12:38.530
121.0, -31636.92732297508, -28849.821251609475, -35001.177787921166, -33364.76187285923, -5886.175440093928, -8416.437615923598, -40896.74096068632, -28641.257124097006, 0.044, 0.924, -0.34400000000000003, 192.0, 1.0, 96.0, 28.0, 224.0, 245.0, 64.0, 0.0, 0.0, 0.0, 1.741281158589986E9, 0.0, 2025-03-06 11:12:38.589
122.0, -31637.12848867518, -28843.965094562187, -35002.362430377296, -33361.34205595757, -5850.882035598998, -8415.342380445289, -40895.26574555227, -28638.709025229102, 0.044, 0.924, -0.34400000000000003, 192.0, 0.0, 0.0, 0.0, 0.0, 0.0, 0.0, 0.0, 0.0, 0.0, 1.741281158590019E9, 0.0, 2025-03-06 11:12:38.590
123.0, -31641.822355010794, -28844.970923062676, -35002.87652049977, -33361.36440770202, -5867.3105677736485, -8412.235487966, -40894.37167577406, -28638.887839184743, 0.044, 0.924, -0.34400000000000003, 192.0, 0.0, 0.0, 0.0, 0.0, 0.0, 0.0, 0.0, 0.0, 0.0, 1.741281158590041E9, 0.0, 2025-03-06 11:12:38.590
124.0, -31640.41419511011, -28843.00396955061, -35005.73754379005, -33364.58305890358, -5897.038387899207, -8415.565897889841, -40894.70695194089, -28642.642932253235, 0.044, 0.924, -0.34400000000000003, 192.0, 0.0, 0.0, 0.0, 0.0, 0.0, 0.0, 0.0, 0.0, 0.0, 1.741281158590085E9, 0.0, 2025-03-06 11:12:38.590
125.0, -31635.563866563305, -28837.75130960361, -35008.33034614687, -33371.19917526236, -5892.746852963788, -8426.09356952829, -40892.38237051754, -28636.8091269504, 0.044, 0.924, -0.34400000000000003, 192.0, 0.0, 0.0, 0.0, 0.0, 0.0, 0.0, 0.0, 0.0, 0.0, 1.741281158590107E9, 0.0, 2025-03-06 11:12:38.590
