%OpenBCI Raw EXG Data
%Number of channels = 8
%Sample Rate = 250 Hz
%Board = OpenBCI_GUI$BoardCytonSerial
Sample Index, EXG Channel 0, EXG Channel 1, EXG Channel 2, EXG Channel 3, EXG Channel 4, EXG Channel 5, EXG Channel 6, EXG Channel 7, Accel Channel 0, Accel Channel 1, Accel Channel 2, Not Used, Digital Channel 0 (D11), Digital Channel 1 (D12), Digital Channel 2 (D13), Digital Channel 3 (D17), Not Used, Digital Channel 4 (D18), Analog Channel 0, Analog Channel 1, Analog Channel 2, Timestamp, Marker Channel, Timestamp (Formatted)
57.0, -31862.657590229228, -28899.330365577982, -35109.539045040496, -33497.3077174792, -5964.808877087698, -8521.893146263737, -41049.22456136043, -28502.229273584995, 0.0, 0.0, 0.0, 192.0, 0.0, 0.0, 0.0, 0.0, 0.0, 0.0, 0.0, 0.0, 0.0, 1.741281178446685E9, 0.0, 2025-03-06 11:12:58.446
58.0, -31869.83250019938, -28906.05824065903, -35113.36119334235, -33498.3582494686, -5988.278208765771, -8522.094311963834, -41047.704642737466, -28483.54321522036, 0.0, 0.0, 0.0, 192.0, 0.0, 0.0, 0.0, 0.0, 0.0, 0.0, 0.0, 0.0, 0.0, 1.741281178446744E9, 0.0, 2025-03-06 11:12:58.446
59.0, -31871.978267667087, -28904.918301691807, -35114.1882078872, -33494.267880233274, -6015.457930023424, -8519.680323562661, -41042.809610701755, -28475.742456405456, 0.0, 0.0, 0.0, 192.0, 0.0, 0.0, 0.0, 0.0, 0.0, 0.0, 0.0, 0.0, 0.0, 1.741281178446809E9, 0.0, 2025-03-06 11:12:58.446
60.0, -31869.83250019938, -28903.644252257855, -35110.27665260752, -33492.68090637695, -5998.895287382042, -8515.120567693779, -41043.927197924524, -28491.098104846253, 0.0, 0.0, 0.0, 192.0, 0.0, 0.0, 0.0, 0.0, 0.0, 0.0, 0.0, 0.0, 0.0, 1.741281178446844E9, 0.0, 2025-03-06 11:12:58.446
61.0, -31858.813090182914, -28896.268176587604, -35103.526425782016, -33488.121150508065, -5965.837057332642, -8510.516108335985, -41044.8883229361, -28499.390602039173, 0.07200000000000001, 0.92, -0.352, 192.0, 2.0, 64.0, 28.0, 192.0, 245.0, 0.0, 0.0, 0.0, 0.0, 1.741281178446887E9, 0.0, 2025-03-06 11:12:58.446
62.0, -31866.30092457544, -28900.492656289658, -35104.04051590449, -33484.835444073135, -5978.5999034166225, -8513.69005604864, -41046.20707585896, -28493.98147988099, 0.07200000000000001, 0.92, -0.352, 192.0, 0.0, 0.0, 0.0, 0.0, 0.0, 0.0, 0.0, 0.0, 0.0, 1.741281178446926E9, 0.0, 2025-03-06 11:12:58.446
63.0, -31859.77421519449, -28893.809484697522, -35096.820902445426, -33476.11826373557, -6011.389912532558, -8514.360608382298, -41044.93302642501, -28488.550005978348, 0.07200000000000001, 0.92, -0.352, 192.0, 0.0, 0.0, 0.0, 0.0, 0.0, 0.0, 0.0, 0.0, 0.0, 1.741281178446961E9, 0.0, 2025-03-06 11:12:58.446
64.0, -31858.097834360342, -28896.134066120874, -35100.91127168075, -33482.22028997187, -5996.391892003047, -8515.992285727536, -41050.52096253884, -28483.0738285868, 0.07200000000000001, 0.92, -0.352, 192.0, 0.0, 0.0, 0.0, 0.0, 0.0, 0.0, 0.0, 0.0, 0.0, 1.741281178446996E9, 0.0, 2025-03-06 11:12:58.446
65.0, -31859.148366349742, -28891.6190137409, -35097.87143443483, -33479.605135870595, -5969.614502145589, -8515.031160715957, -41050.5880177722, -28497.758924693935, 0.07200000000000001, 0.92, -0.352, 192.0, 0.0, 0.0, 0.0, 0.0, 0.0, 0.0, 0.0, 0.0, 0.0, 1.741281178447038E9, 0.0, 2025-03-06 11:12:58.447
66.0, -31859.841270427856, -28890.926109662785, -35091.47883552061, -33475.80533931319, -5971.693214379932, -8509.756149024504, -41046.11766888114, -28485.376058265694, 0.07200000000000001, 0.92, -0.352, 192.0, 0.0, 0.0, 0.0, 0.0, 0.0, 0.0, 0.0, 0.0, 0.0, 1.741281178447083E9, 0.0, 2025-03-06 11:12:58.447
67.0, -31852.73341569107, -28889.987336395665, -35083.27574530551, -33476.67705734695, -6008.6182962201, -8511.700750792117, -41042.519038023835, -28471.182700536574, 0.07200000000000001, 0.92, -0.352, 192.0, 0.0, 0.0, 0.0, 0.0, 0.0, 0.0, 0.0, 0.0, 0.0, 1.741281178447118E9, 0.0, 2025-03-06 11:12:58.447
68.0, -31850.58764822336, -28886.634574727366, -35086.382637784794, -33482.28734520523, -6007.411302019514, -8517.78042528396, -41041.24498858988, -28453.703636372524, 0.07200000000000001, 0.92, -0.352, 192.0, 0.0, 0.0, 0.0, 0.0, 0.0, 0.0, 0.0, 0.0, 0.0, 1.741281178447143E9, 0.0, 2025-03-06 11:12:58.447
69.0, -31853.87335465829, -28889.60735673992, -35095.055114633455, -33490.75865635379, -5968.921598067474, -8528.129282966767, -41049.20220961597, -28481.509206474926, 0.07200000000000001, 0.92, -0.352, 192.0, 0.0, 0.0, 0.0, 0.0, 0.0, 0.0, 0.0, 0.0, 0.0, 1.741281178447168E9, 0.0, 2025-03-06 11:12:58.447
70.0, -31852.442843013152, -28890.791999196055, -35089.37777154181, -33485.14836849551, -5971.022662046274, -8514.651181060217, -41041.0885263787, -28489.108799589732, 0.07200000000000001, 0.92, -0.352, 192.0, 0.0, 0.0, 0.0, 0.0, 0.0, 0.0, 0.0, 0.0, 0.0, 1.741281178447192E9, 0.0, 2025-03-06 11:12:58.447
71.0, -31854.678017458682, -28893.29539457505, -35091.16591109824, -33487.13767375203, -6010.719360198898, -8513.265372903988, -41040.775601956324, -28479.184625051574, 0.07, 0.924, -0.354, 192.0, 2.0, 48.0, 28.0, 224.0, 244.0, 240.0, 0.0, 0.0, 0.0, 1.741281178447221E9, 0.0, 2025-03-06 11:12:58.447
72.0, -31854.92388664769, -28892.870711430398, -35097.06677163443, -33490.91511856498, -6017.00020039084, -8519.63562007375, -41042.541389768296, -28467.762883634914, 0.07, 0.924, -0.354, 192.0, 0.0, 0.0, 0.0, 0.0, 0.0, 0.0, 0.0, 0.0, 0.0, 1.741281178447252E9, 0.0, 2025-03-06 11:12:58.447
73.0, -31843.25627604202, -28879.34790603494, -35090.42830353121, -33481.348571938106, -5995.319008269193, -8512.773634525971, -41036.81934318774, -28477.754113406434, 0.07, 0.924, -0.354, 192.0, 0.0, 0.0, 0.0, 0.0, 0.0, 0.0, 0.0, 0.0, 0.0, 1.741281178447281E9, 0.0, 2025-03-06 11:12:58.447
74.0, -31853.091043602355, -28886.209891582715, -35101.51476878104, -33490.11045576459, -5960.316176452181, -8523.658934075705, -41051.25857010586, -28491.9251193911, 0.07, 0.924, -0.354, 192.0, 0.0, 0.0, 0.0, 0.0, 0.0, 0.0, 0.0, 0.0, 0.0, 1.741281178447311E9, 0.0, 2025-03-06 11:12:58.447
75.0, -31855.952066892634, -28893.183635852773, -35103.99581241558, -33494.53610116674, -6006.450177007935, -8529.78331205646, -41046.31883458124, -28485.264299543418, 0.07, 0.924, -0.354, 192.0, 0.0, 0.0, 0.0, 0.0, 0.0, 0.0, 0.0, 0.0, 0.0, 1.741281178447336E9, 0.0, 2025-03-06 11:12:58.447
0.0, 0.0, 0.0, 0.0, 0.0, 0.0, 0.0, 0.0, 0.0, 0.07, 0.924, -0.354, 192.0, 0.0, 0.0, 0.0, 0.0, 0.0, 0.0, 0.0, 0.0, 0.0, 1.741281178549451E9, 0.0, 2025-03-06 11:12:58.549
1.0, -32537.948493712964, -28999.063849337563, -35165.41840617877, -33575.82939575069, -6035.842720966664, -8508.660913546195, -41045.20124735848, -28604.89083586822, 0.07200000000000001, 0.912, -0.356, 192.0, 2.0, 64.0, 28.0, 128.0, 244.0, 224.0, 0.0, 0.0, 0.0, 1.741281178609738E9, 0.0, 2025-03-06 11:12:58.609
2.0, -32517.04961264725, -28991.844235878496, -35154.46605139566, -33558.529145542285, -6046.392744349569, -8491.49477380452, -41040.19445660048, -28606.276644024452, 0.07200000000000001, 0.912, -0.356, 192.0, 0.0, 0.0, 0.0, 0.0, 0.0, 0.0, 0.0, 0.0, 0.0, 1.741281178609774E9, 0.0, 2025-03-06 11:12:58.609
3.0, -32508.645356732057, -28994.92877661333, -35156.54476363001, -33559.512622298316, -6050.7960380072645, -8486.44327955762, -41042.76490721285, -28609.249426037008, 0.07200000000000001, 0.912, -0.356, 192.0, 0.0, 0.0, 0.0, 0.0, 0.0, 0.0, 0.0, 0.0, 0.0, 1.741281178609798E9, 0.0, 2025-03-06 11:12:58.609
4.0, -32488.059400088718, -28986.055134064572, -35149.36985365985, -33548.113232626114, -6047.733849016888, -8481.749413222005, -41041.35674731216, -28599.079382309843, 0.07200000000000001, 0.912, -0.356, 192.0, 0.0, 0.0, 0.0, 0.0, 0.0, 0.0, 0.0, 0.0, 0.0, 1.741281178609846E9, 0.0, 2025-03-06 11:12:58.609
5.0, -32474.782463882264, -28977.22619500473, -35153.10259498389, -33542.815869190206, -6006.628990963578, -8488.499640047508, -41052.376157328625, -28606.298995768906, 0.07200000000000001, 0.912, -0.356, 192.0, 0.0, 0.0, 0.0, 0.0, 0.0, 0.0, 0.0, 0.0, 0.0, 1.74128117860987E9, 0.0, 2025-03-06 11:12:58.609
6.0, -32468.054588801217, -28984.31169799706, -35154.08607173993, -33541.07243312269, -6002.896249639542, -8494.378148839254, -41058.522887053834, -28593.111466540275, 0.07200000000000001, 0.912, -0.356, 192.0, 0.0, 0.0, 0.0, 0.0, 0.0, 0.0, 0.0, 0.0, 0.0, 1.7412811786099E9, 0.0, 2025-03-06 11:12:58.609
7.0, -32459.784443352753, -28983.708200896766, -35153.72844382864, -33540.93832265596, -6042.905872214541, -8494.936942450637, -41061.62977953313, -28581.153283256685, 0.07200000000000001, 0.912, -0.356, 192.0, 0.0, 0.0, 0.0, 0.0, 0.0, 0.0, 0.0, 0.0, 0.0, 1.741281178609923E9, 0.0, 2025-03-06 11:12:58.609
8.0, -32447.401576924512, -28984.244642763693, -35150.018054249056, -33535.39509003104, -6036.893252956063, -8477.614340497774, -41066.927142969034, -28621.38642327624, 0.07, 0.916, -0.358, 192.0, 2.0, 48.0, 28.0, 160.0, 244.0, 208.0, 0.0, 0.0, 0.0, 1.741281178609948E9, 0.0, 2025-03-06 11:12:58.609
9.0, -32432.090631972627, -28994.280576024124, -35153.95196127319, -33539.82073543319, -6001.242220549849, -8480.20714285459, -41078.63945706361, -28621.721699443067, 0.07, 0.916, -0.358, 192.0, 0.0, 0.0, 0.0, 0.0, 0.0, 0.0, 0.0, 0.0, 0.0, 1.741281178609974E9, 0.0, 2025-03-06 11:12:58.609
10.0, -32423.08287895714, -28998.773276659642, -35157.59529561941, -33547.59914250364, -5999.7893571602535, -8489.840744714826, -41078.97473323044, -28599.012327076474, 0.07, 0.916, -0.358, 192.0, 0.0, 0.0, 0.0, 0.0, 0.0, 0.0, 0.0, 0.0, 0.0, 1.741281178609997E9, 0.0, 2025-03-06 11:12:58.609
11.0, -32413.73984977482, -28997.96861385925, -35155.00249326259, -33542.01120638981, -6030.992392419862, -8480.58712251033, -41077.85714600768, -28628.98601639104, 0.07, 0.916, -0.358, 192.0, 0.0, 0.0, 0.0, 0.0, 0.0, 0.0, 0.0, 0.0, 0.0, 1.741281178610025E9, 0.0, 2025-03-06 11:12:58.610
12.0, -32403.480399069835, -28997.186302803315, -35152.96848451716, -33537.02676737628, -6040.044848924262, -8473.479267773542, -41086.06023622277, -28624.85094366681, 0.07, 0.916, -0.358, 192.0, 0.0, 0.0, 0.0, 0.0, 0.0, 0.0, 0.0, 0.0, 0.0, 1.741281178610058E9, 0.0, 2025-03-06 11:12:58.610
13.0, -32395.59023327711, -28995.621680691445, -35160.03163576504, -33541.899447667536, -6014.116825356105, -8469.187732838123, -41086.149643200595, -28613.742126672525, 0.07, 0.916, -0.358, 192.0, 0.0, 0.0, 0.0, 0.0, 0.0, 0.0, 0.0, 0.0, 0.0, 1.74128117861009E9, 0.0, 2025-03-06 11:12:58.610
14.0, -32384.973154660842, -28993.095933567995, -35160.18809797622, -33544.894581424545, -5996.347188514136, -8468.897160160204, -41089.23418393543, -28623.599245977315, 0.07, 0.916, -0.358, 192.0, 0.0, 0.0, 0.0, 0.0, 0.0, 0.0, 0.0, 0.0, 0.0, 1.741281178610117E9, 0.0, 2025-03-06 11:12:58.610
15.0, -32370.824500420633, -28990.570186444544, -35153.46022289518, -33538.41257553251, -6032.713476742921, -8455.1955408091, -41086.03788447832, -28625.253275067007, 0.07, 0.916, -0.358, 192.0, 0.0, 0.0, 0.0, 0.0, 0.0, 0.0, 0.0, 0.0, 0.0, 1.741281178610141E9, 0.0, 2025-03-06 11:12:58.610
16.0, -32355.9382386134, -28986.278651509125, -35150.10746122688, -33535.75271794233, -6042.280023369793, -8445.472531971041, -41082.998047232395, -28605.069649823865, 0.07, 0.916, -0.358, 192.0, 0.0, 0.0, 0.0, 0.0, 0.0, 0.0, 0.0, 0.0, 0.0, 1.741281178670026E9, 0.0, 2025-03-06 11:12:58.670
17.0, -32358.419282247938, -28998.058020837074, -35170.31343821448, -33553.81292746221, -6006.114900841106, -8467.667814215161, -41104.76864633187, -28618.860676152788, 0.07, 0.916, -0.358, 192.0, 0.0, 0.0, 0.0, 0.0, 0.0, 0.0, 0.0, 0.0, 0.0, 1.74128117867006E9, 0.0, 2025-03-06 11:12:58.670
18.0, -32343.555372185157, -28995.107590568972, -35168.57000214696, -33553.25413385083, -5996.347188514136, -8463.108058346279, -41101.125311985656, -28626.370862289772, 0.076, 0.92, -0.358, 192.0, 2.0, 96.0, 28.0, 192.0, 244.0, 208.0, 0.0, 0.0, 0.0, 1.741281178670085E9, 0.0, 2025-03-06 11:12:58.670
19.0, -32336.20164825936, -29000.40495400488, -35166.96067654618, -33555.95869492993, -6023.772778960798, -8449.719363417551, -41093.7492363154, -28607.84126613632, 0.076, 0.92, -0.358, 192.0, 0.0, 0.0, 0.0, 0.0, 0.0, 0.0, 0.0, 0.0, 0.0, 1.741281178670111E9, 0.0, 2025-03-06 11:12:58.670
20.0, -32325.74103185428, -29005.16587557386, -35172.68272312674, -33559.80319497624, -6041.005973935839, -8447.752409905483, -41091.69287582551, -28604.46615272357, 0.076, 0.92, -0.358, 192.0, 0.0, 0.0, 0.0, 0.0, 0.0, 0.0, 0.0, 0.0, 0.0, 1.741281178670157E9, 0.0, 2025-03-06 11:12:58.670
21.0, -32317.44853466136, -29006.395221518902, -35176.05783653949, -33564.63117177858, -6019.347133558647, -8454.748505919993, -41097.347867172706, -28629.43305128015, 0.076, 0.92, -0.358, 192.0, 0.0, 0.0, 0.0, 0.0, 0.0, 0.0, 0.0, 0.0, 0.0, 1.741281178670186E9, 0.0, 2025-03-06 11:12:58.670
22.0, -32304.998612999752, -28998.885035381918, -35171.92276381526, -33562.15012814404, -5991.385101245058, -8456.044907098401, -41097.77255031736, -28617.988958119033, 0.076, 0.92, -0.358, 192.0, 0.0, 0.0, 0.0, 0.0, 0.0, 0.0, 0.0, 0.0, 0.0, 1.74128117867021E9, 0.0, 2025-03-06 11:12:58.670
23.0, -32303.277528676696, -29006.93166338583, -35177.6001069069, -33576.142320173065, -6002.940953128452, -8473.188695095623, -41102.444064908515, -28599.81698987687, 0.076, 0.92, -0.358, 192.0, 0.0, 0.0, 0.0, 0.0, 0.0, 0.0, 0.0, 0.0, 0.0, 1.741281178670234E9, 0.0, 2025-03-06 11:12:58.670
24.0, -32298.606014085533, -29009.524465742645, -35181.86929009787, -33586.781750533795, -6025.180938861482, -8485.079823145847, -41101.57234687476, -28601.381611988738, 0.076, 0.92, -0.358, 192.0, 0.0, 0.0, 0.0, 0.0, 0.0, 0.0, 0.0, 0.0, 0.0, 1.741281178670258E9, 0.0, 2025-03-06 11:12:58.670
25.0, -32287.407790113426, -29001.142561571905, -35179.99174356362, -33581.01500046432, -6019.369485303103, -8484.453974301097, -41106.33326844374, -28631.735280959045, 0.076, 0.92, -0.358, 192.0, 0.0, 0.0, 0.0, 0.0, 0.0, 0.0, 0.0, 0.0, 0.0, 1.741281178670281E9, 0.0, 2025-03-06 11:12:58.670
26.0, -32279.025885942687, -29003.4447912508, -35183.18804302073, -33580.67972429749, -5973.995444058829, -8487.87379120276, -41111.876501068655, -28638.172583362175, 0.076, 0.92, -0.358, 192.0, 0.0, 0.0, 0.0, 0.0, 0.0, 0.0, 0.0, 0.0, 0.0, 1.74128117867031E9, 0.0, 2025-03-06 11:12:58.670
27.0, -32268.38645558196, -29000.58376796052, -35173.26386848258, -33580.23268940839, -5985.260723264304, -8486.10800339079, -41107.406152177595, -28608.735335914535, 0.076, 0.92, -0.358, 192.0, 0.0, 0.0, 0.0, 0.0, 0.0, 0.0, 0.0, 0.0, 0.0, 1.741281178670338E9, 0.0, 2025-03-06 11:12:58.670
28.0, -32257.501156032224, -28992.492436467703, -35164.16670848927, -33572.00724744883, -6021.805825448731, -8478.419003298164, -41098.19723346201, -28610.72464117106, 0.078, 0.914, -0.358, 192.0, 2.0, 112.0, 28.0, 144.0, 244.0, 208.0, 0.0, 0.0, 0.0, 1.741281178670365E9, 0.0, 2025-03-06 11:12:58.670
29.0, -32249.745100706234, -28987.798570132087, -35161.260981710075, -33558.35033158664, -6007.076025852683, -8474.1498201072, -41097.72784682844, -28627.80137393491, 0.078, 0.914, -0.358, 192.0, 0.0, 0.0, 0.0, 0.0, 0.0, 0.0, 0.0, 0.0, 0.0, 1.7412811786704E9, 0.0, 2025-03-06 11:12:58.670
30.0, -32244.067757614586, -28990.458427722268, -35169.88875506983, -33565.07820666769, -5971.983787057851, -8488.276122602954, -41107.22733822195, -28612.401022005204, 0.078, 0.914, -0.358, 192.0, 0.0, 0.0, 0.0, 0.0, 0.0, 0.0, 0.0, 0.0, 0.0, 1.741281178670424E9, 0.0, 2025-03-06 11:12:58.670
31.0, -32236.28935054414, -28992.470084723245, -35166.379531190345, -33561.34546534365, -5974.621292903578, -8487.560866780384, -41108.79196033382, -28607.975376603055, 0.078, 0.914, -0.358, 192.0, 0.0, 0.0, 0.0, 0.0, 0.0, 0.0, 0.0, 0.0, 0.0, 1.741281178730337E9, 0.0, 2025-03-06 11:12:58.730
32.0, -32221.738364903733, -28985.11636079745, -35148.9451705152, -33544.08991862416, -6018.3413050581585, -8478.508410275985, -41105.953288788, -28614.837362150833, 0.078, 0.914, -0.358, 192.0, 0.0, 0.0, 0.0, 0.0, 0.0, 0.0, 0.0, 0.0, 0.0, 1.741281178730379E9, 0.0, 2025-03-06 11:12:58.730
33.0, -32216.016318323174, -28984.378753230427, -35147.492307125605, -33544.469898279895, -6016.6202207351, -8483.336387078332, -41107.696724855516, -28623.174562832664, 0.078, 0.914, -0.358, 192.0, 0.0, 0.0, 0.0, 0.0, 0.0, 0.0, 0.0, 0.0, 0.0, 1.741281178730403E9, 0.0, 2025-03-06 11:12:58.730
34.0, -32211.47891419875, -28984.199939274782, -35145.681815824726, -33541.40770928952, -5984.456060463913, -8482.263503344477, -41100.14183522962, -28603.57208294536, 0.078, 0.914, -0.358, 192.0, 0.0, 0.0, 0.0, 0.0, 0.0, 0.0, 0.0, 0.0, 0.0, 1.741281178730427E9, 0.0, 2025-03-06 11:12:58.730
35.0, -32208.014393808175, -28985.16106428636, -35139.15510644378, -33531.55058998473, -5971.737917868843, -8473.971006151558, -41096.65496309459, -28609.67410918166, 0.078, 0.914, -0.358, 192.0, 0.0, 0.0, 0.0, 0.0, 0.0, 0.0, 0.0, 0.0, 0.0, 1.741281178730468E9, 0.0, 2025-03-06 11:12:58.730
36.0, -32214.854027611498, -28994.861721379963, -35147.827583292434, -33537.473802265384, -6005.578458974178, -8480.318901576866, -41105.32743994325, -28622.41460352118, 0.078, 0.914, -0.358, 192.0, 0.0, 0.0, 0.0, 0.0, 0.0, 0.0, 0.0, 0.0, 0.0, 1.741281178730495E9, 0.0, 2025-03-06 11:12:58.730
37.0, -32214.13877178893, -28993.610023690468, -35146.642940836304, -33534.5680754862, -6003.924429884485, -8478.486058531531, -41116.68212612654, -28627.890780912734, 0.078, 0.914, -0.358, 192.0, 0.0, 0.0, 0.0, 0.0, 0.0, 0.0, 0.0, 0.0, 0.0, 1.741281178730523E9, 0.0, 2025-03-06 11:12:58.730
38.0, -32205.242777495718, -28988.960860843763, -35136.89758025379, -33529.20365681692, -5982.980845329863, -8474.77566895195, -41111.6529836241, -28606.00842309099, 0.08, 0.916, -0.362, 192.0, 2.0, 128.0, 28.0, 160.0, 244.0, 176.0, 0.0, 0.0, 0.0, 1.741281178730547E9, 0.0, 2025-03-06 11:12:58.730
39.0, -32195.47506516875, -28985.094009052995, -35134.640054063806, -33530.276540550774, -5971.648510891022, -8473.076936373345, -41112.10001851321, -28596.240710764017, 0.08, 0.916, -0.362, 192.0, 0.0, 0.0, 0.0, 0.0, 0.0, 0.0, 0.0, 0.0, 0.0, 1.741281178730574E9, 0.0, 2025-03-06 11:12:58.730
40.0, -32199.118399514962, -28994.615852190957, -35138.17162968774, -33538.99372088834, -5992.078005323173, -8476.049718385902, -41112.14472200212, -28594.586681674326, 0.08, 0.916, -0.362, 192.0, 0.0, 0.0, 0.0, 0.0, 0.0, 0.0, 0.0, 0.0, 0.0, 1.741281178730597E9, 0.0, 2025-03-06 11:12:58.730
41.0, -32193.955146545788, -28997.812151648064, -35136.33878664241, -33540.33482555566, -6007.344246786148, -8471.802886939393, -41110.557748145795, -28612.244559794017, 0.08, 0.916, -0.362, 192.0, 0.0, 0.0, 0.0, 0.0, 0.0, 0.0, 0.0, 0.0, 0.0, 1.741281178730625E9, 0.0, 2025-03-06 11:12:58.730
42.0, -32190.356515688483, -29000.82963714953, -35141.47968786713, -33544.08991862416, -5988.121746554583, -8466.863151414771, -41111.16124524608, -28613.0045191055, 0.08, 0.916, -0.362, 192.0, 0.0, 0.0, 0.0, 0.0, 0.0, 0.0, 0.0, 0.0, 0.0, 1.741281178730653E9, 0.0, 2025-03-06 11:12:58.730
43.0, -32187.920175542855, -29002.617776705956, -35149.928647271234, -33557.88094495308, -5961.076135763662, -8475.06624162987, -41116.81623659328, -28600.979280588544, 0.08, 0.916, -0.362, 192.0, 0.0, 0.0, 0.0, 0.0, 0.0, 0.0, 0.0, 0.0, 0.0, 1.741281178730681E9, 0.0, 2025-03-06 11:12:58.730
44.0, -32192.234062222728, -29009.70327969829, -35154.62251360685, -33562.77597698879, -5987.741766898843, -8471.91464566167, -41120.481922683946, -28626.52732450096, 0.08, 0.916, -0.362, 192.0, 0.0, 0.0, 0.0, 0.0, 0.0, 0.0, 0.0, 0.0, 0.0, 1.741281178730712E9, 0.0, 2025-03-06 11:12:58.730
45.0, -32189.931832543833, -29013.257207066683, -35156.030673507536, -33566.30755261273, -6016.888441668563, -8476.608511997285, -41119.8560738392, -28622.504010499004, 0.08, 0.916, -0.362, 192.0, 0.0, 0.0, 0.0, 0.0, 0.0, 0.0, 0.0, 0.0, 0.0, 1.741281178730737E9, 0.0, 2025-03-06 11:12:58.730
46.0, -32182.22048070675, -29007.132829085927, -35154.86838279586, -33566.59812529065, -6008.394778775547, -8473.121639862256, -41111.16124524608, -28592.329155484338, 0.08, 0.916, -0.362, 192.0, 0.0, 0.0, 0.0, 0.0, 0.0, 0.0, 0.0, 0.0, 0.0, 1.741281178790577E9, 0.0, 2025-03-06 11:12:58.790
47.0, -32179.046532994096, -29005.657613951877, -35155.51658338506, -33560.16082288752, -5967.51343816679, -8463.488038002019, -41116.838588337734, -28636.965589161588, 0.08, 0.916, -0.362, 192.0, 0.0, 0.0, 0.0, 0.0, 0.0, 0.0, 0.0, 0.0, 0.0, 1.741281178790611E9, 0.0, 2025-03-06 11:12:58.790
48.0, -32181.684038839823, -29008.250416308692, -35153.81785080646, -33557.63507576407, -5987.674711665477, -8461.632843212228, -41112.47999816895, -28612.42337374966, 0.082, 0.914, -0.364, 192.0, 2.0, 144.0, 28.0, 144.0, 244.0, 160.0, 0.0, 0.0, 0.0, 1.741281178790636E9, 0.0, 2025-03-06 11:12:58.790
49.0, -32181.147596972896, -29004.92000638485, -35152.38733916132, -33552.44947105044, -6011.322857299192, -8457.140142576713, -41108.85901556719, -28610.590530704325, 0.082, 0.914, -0.364, 192.0, 0.0, 0.0, 0.0, 0.0, 0.0, 0.0, 0.0, 0.0, 0.0, 1.741281178790663E9, 0.0, 2025-03-06 11:12:58.790
50.0, -32172.251602679684, -28994.749962657686, -35150.44273739371, -33546.34744481414, -6008.685351453466, -8451.753372162982, -41105.84153006572, -28593.8490741073, 0.082, 0.914, -0.364, 192.0, 0.0, 0.0, 0.0, 0.0, 0.0, 0.0, 0.0, 0.0, 0.0, 1.741281178790704E9, 0.0, 2025-03-06 11:12:58.790
51.0, -32168.384750888916, -28993.297099268093, -35160.27750495404, -33554.34936932914, -5975.381252215058, -8461.76695367896, -41112.7035156135, -28601.940405600122, 0.082, 0.914, -0.364, 192.0, 0.0, 0.0, 0.0, 0.0, 0.0, 0.0, 0.0, 0.0, 0.0, 1.741281178790732E9, 0.0, 2025-03-06 11:12:58.790
52.0, -32170.99990499019, -28999.577939460032, -35164.7478538451, -33558.14916588654, -5984.187839530449, -8465.499695002996, -41113.44112318053, -28603.125048056252, 0.082, 0.914, -0.364, 192.0, 0.0, 0.0, 0.0, 0.0, 0.0, 0.0, 0.0, 0.0, 0.0, 1.741281178790761E9, 0.0, 2025-03-06 11:12:58.790
53.0, -32163.55677408657, -29000.851988893988, -35161.797423577, -33556.76335773031, -6013.558031744723, -8462.057526356879, -41112.010611535385, -28600.331079999338, 0.082, 0.914, -0.364, 192.0, 0.0, 0.0, 0.0, 0.0, 0.0, 0.0, 0.0, 0.0, 0.0, 1.741281178790785E9, 0.0, 2025-03-06 11:12:58.790
54.0, -32164.60730607597, -29003.534198228623, -35165.23959222312, -33555.28814259626, -6002.695083939444, -8465.544398491907, -41120.124294772664, -28617.966606374575, 0.082, 0.914, -0.364, 192.0, 0.0, 0.0, 0.0, 0.0, 0.0, 0.0, 0.0, 0.0, 0.0, 1.741281178790809E9, 0.0, 2025-03-06 11:12:58.790
55.0, -32157.767672272646, -28999.42147724885, -35164.0996532559, -33552.62828500608, -5991.13923205605, -8463.62214846875, -41118.51496917188, -28611.28343478244, 0.082, 0.914, -0.364, 192.0, 0.0, 0.0, 0.0, 0.0, 0.0, 0.0, 0.0, 0.0, 0.0, 1.741281178790832E9, 0.0, 2025-03-06 11:12:58.790
56.0, -32155.845422249487, -29000.315547027058, -35156.589467118916, -33548.806136704225, -5991.116880311594, -8456.089610587313, -41108.5013876559, -28602.990937589522, 0.082, 0.914, -0.364, 192.0, 0.0, 0.0, 0.0, 0.0, 0.0, 0.0, 0.0, 0.0, 0.0, 1.741281178790856E9, 0.0, 2025-03-06 11:12:58.790
57.0, -32157.812375761558, -29003.780067417632, -35156.20948746318, -33545.58748550266, -6014.899136412041, -8450.524026217941, -41105.77447483235, -28586.808274603878, 0.082, 0.914, -0.364, 192.0, 0.0, 0.0, 0.0, 0.0, 0.0, 0.0, 0.0, 0.0, 0.0, 1.741281178790883E9, 0.0, 2025-03-06 11:12:58.790
58.0, -32153.87846873742, -28996.381640002925, -35154.130775228834, -33537.205581331924, -6008.6182962201, -8443.058543569869, -41105.863881810175, -28568.211623217063, 0.09, 0.918, -0.36, 192.0, 2.0, 208.0, 28.0, 176.0, 244.0, 192.0, 0.0, 0.0, 0.0, 1.741281178790914E9, 0.0, 2025-03-06 11:12:58.790
59.0, -32147.105890167462, -28992.134808556417, -35151.828545549935, -33534.21044757491, -5978.108165038606, -8442.365639491754, -41111.27300396836, -28576.638230876713, 0.09, 0.918, -0.36, 192.0, 0.0, 0.0, 0.0, 0.0, 0.0, 0.0, 0.0, 0.0, 0.0, 1.741281178790946E9, 0.0, 2025-03-06 11:12:58.790
60.0, -32147.843497734488, -28997.767448159153, -35151.60502810538, -33534.053985363724, -5959.80208632971, -8441.851549369281, -41115.27396622586, -28574.961850042564, 0.09, 0.918, -0.36, 192.0, 0.0, 0.0, 0.0, 0.0, 0.0, 0.0, 0.0, 0.0, 0.0, 1.741281178790973E9, 0.0, 2025-03-06 11:12:58.790
61.0, -32158.505279839672, -29011.603177976987, -35158.53406888653, -33541.07243312269, -5986.80299363172, -8446.165436049156, -41125.06403029728, -28589.535187427427, 0.09, 0.918, -0.36, 192.0, 0.0, 0.0, 0.0, 0.0, 0.0, 0.0, 0.0, 0.0, 0.0, 1.741281178850833E9, 0.0, 2025-03-06 11:12:58.850
62.0, -32149.095195423986, -29001.299023783093, -35145.86062978037, -33524.71095618141, -6008.394778775547, -8430.519214930442, -41119.74431511692, -28606.85778938029, 0.09, 0.918, -0.36, 192.0, 0.0, 0.0, 0.0, 0.0, 0.0, 0.0, 0.0, 0.0, 0.0, 1.741281178850886E9, 0.0, 2025-03-06 11:12:58.850
63.0, -32141.74147149819, -28991.35249750048, -35142.731385556624, -33524.08510733666, -5987.115918054094, -8434.38606672121, -41118.26909998287, -28594.407867718684, 0.09, 0.918, -0.36, 192.0, 0.0, 0.0, 0.0, 0.0, 0.0, 0.0, 0.0, 0.0, 0.0, 1.74128117885091E9, 0.0, 2025-03-06 11:12:58.850
64.0, -32150.101023924475, -29007.468105252756, -35154.30958918448, -33542.92762791248, -5953.3647839265805, -8454.43558149762, -41127.209797765, -28603.840303878824, 0.09, 0.918, -0.36, 192.0, 0.0, 0.0, 0.0, 0.0, 0.0, 0.0, 0.0, 0.0, 0.0, 1.741281178850934E9, 0.0, 2025-03-06 11:12:58.850
65.0, -32159.0417217066, -29020.96855890376, -35159.56224913147, -33547.77795645928, -5987.071214565184, -8461.72225019005, -41123.49940818542, -28613.60801620579, 0.09, 0.918, -0.36, 192.0, 0.0, 0.0, 0.0, 0.0, 0.0, 0.0, 0.0, 0.0, 0.0, 1.741281178850958E9, 0.0, 2025-03-06 11:12:58.850
66.0, -32154.146689670884, -29012.094916355007, -35156.76828107456, -33538.50198251033, -6006.7183979413985, -8454.077953586335, -41117.46443718248, -28605.874312624255, 0.09, 0.918, -0.36, 192.0, 0.0, 0.0, 0.0, 0.0, 0.0, 0.0, 0.0, 0.0, 0.0, 1.741281178850987E9, 0.0, 2025-03-06 11:12:58.850
67.0, -32153.610247803957, -29008.898616897895, -35164.18906023372, -33545.9674651584, -5994.760214657809, -8466.371413036753, -41118.51496917188, -28597.358297986782, 0.09, 0.918, -0.36, 192.0, 0.0, 0.0, 0.0, 0.0, 0.0, 0.0, 0.0, 0.0, 0.0, 1.741281178851016E9, 0.0, 2025-03-06 11:12:58.851
68.0, -32151.55388731407, -29009.21154132027, -35165.68662711223, -33549.54374427125, -5970.530923668257, -8463.331575790831, -41118.872597083166, -28591.61389966177, 0.082, 0.912, -0.358, 192.0, 2.0, 144.0, 28.0, 128.0, 244.0, 208.0, 0.0, 0.0, 0.0, 1.741281178851041E9, 0.0, 2025-03-06 11:12:58.851
69.0, -32148.60345704597, -29008.630395964432, -35159.651656109294, -33544.38049130207, -5987.607656432111, -8461.543436234408, -41110.58009989025, -28578.828701833332, 0.082, 0.912, -0.358, 192.0, 0.0, 0.0, 0.0, 0.0, 0.0, 0.0, 0.0, 0.0, 0.0, 1.741281178851067E9, 0.0, 2025-03-06 11:12:58.851
70.0, -32151.777404758624, -29003.48949473971, -35164.45728116718, -33549.27552333778, -6005.556107229723, -8468.316014804366, -41110.691858612525, -28552.31953290934, 0.082, 0.912, -0.358, 192.0, 0.0, 0.0, 0.0, 0.0, 0.0, 0.0, 0.0, 0.0, 0.0, 1.741281178851091E9, 0.0, 2025-03-06 11:12:58.851
71.0, -32154.95135247128, -29000.539064471614, -35167.6535806243, -33549.47668903788, -5992.033301834262, -8467.220779326055, -41128.0591640543, -28604.667318423668, 0.082, 0.912, -0.358, 192.0, 0.0, 0.0, 0.0, 0.0, 0.0, 0.0, 0.0, 0.0, 0.0, 1.741281178851114E9, 0.0, 2025-03-06 11:12:58.851
72.0, -32136.68997725129, -28992.492436467703, -35163.18323173323, -33543.30760756822, -5972.743746369332, -8458.10126758829, -41128.237978009936, -28621.207609320594, 0.082, 0.912, -0.358, 192.0, 0.0, 0.0, 0.0, 0.0, 0.0, 0.0, 0.0, 0.0, 0.0, 1.741281178851142E9, 0.0, 2025-03-06 11:12:58.851
73.0, -32136.131183639907, -28992.000698089683, -35163.8984875558, -33543.73229071287, -5989.529906455267, -8454.972023364548, -41129.15439953261, -28612.669242938668, 0.082, 0.912, -0.358, 192.0, 0.0, 0.0, 0.0, 0.0, 0.0, 0.0, 0.0, 0.0, 0.0, 1.741281178851172E9, 0.0, 2025-03-06 11:12:58.851
74.0, -32136.935846440298, -28991.374849244938, -35163.96554278917, -33548.69437798195, -6020.576479503689, -8457.743639677004, -41127.14274253163, -28597.917091598167, 0.082, 0.912, -0.358, 192.0, 0.0, 0.0, 0.0, 0.0, 0.0, 0.0, 0.0, 0.0, 0.0, 1.741281178851196E9, 0.0, 2025-03-06 11:12:58.851
75.0, -32132.59960801597, -28988.714991654753, -35164.63609512283, -33547.77795645928, -6018.743636458354, -8457.38601176572, -41128.08151579875, -28598.74410614301, 0.082, 0.912, -0.358, 192.0, 0.0, 0.0, 0.0, 0.0, 0.0, 0.0, 0.0, 0.0, 0.0, 1.741281178851231E9, 0.0, 2025-03-06 11:12:58.851
76.0, -32128.41983180283, -28987.530349198623, -35165.93249630123, -33546.503907025326, -5988.6134849326, -8458.01186061047, -41127.07568729826, -28586.696515881602, 0.082, 0.912, -0.358, 192.0, 0.0, 0.0, 0.0, 0.0, 0.0, 0.0, 0.0, 0.0, 0.0, 1.74128117891121E9, 0.0, 2025-03-06 11:12:58.911
77.0, -32130.766764970635, -28996.403991747382, -35167.02773177955, -33548.78378495977, -5997.75534841482, -8466.080840358834, -41127.410963465096, -28576.839396576812, 0.082, 0.912, -0.358, 192.0, 0.0, 0.0, 0.0, 0.0, 0.0, 0.0, 0.0, 0.0, 0.0, 1.741281178911282E9, 0.0, 2025-03-06 11:12:58.911
78.0, -32128.486887036193, -29001.70135518329, -35164.14435674481, -33550.415462305005, -6027.6172790071105, -8462.281043801433, -41131.0095943224, -28601.962757344576, 0.084, 0.912, -0.362, 192.0, 2.0, 160.0, 28.0, 128.0, 244.0, 176.0, 0.0, 0.0, 0.0, 1.741281178911307E9, 0.0, 2025-03-06 11:12:58.911
79.0, -32123.971834656222, -28995.778142902633, -35162.736196844126, -33550.750738471834, -6023.661020238522, -8463.488038002019, -41127.07568729826, -28597.80533287589, 0.084, 0.912, -0.362, 192.0, 0.0, 0.0, 0.0, 0.0, 0.0, 0.0, 0.0, 0.0, 0.0, 1.741281178911334E9, 0.0, 2025-03-06 11:12:58.911
80.0, -32117.802753186555, -28989.87728236643, -35160.85865030988, -33552.807098961726, -5994.715511168899, -8467.399593281698, -41122.38182096265, -28588.484655438027, 0.084, 0.912, -0.362, 192.0, 0.0, 0.0, 0.0, 0.0, 0.0, 0.0, 0.0, 0.0, 0.0, 1.741281178911357E9, 0.0, 2025-03-06 11:12:58.911
81.0, -32121.26727357713, -28994.54879695759, -35161.48449915463, -33548.604971004126, -5993.553220457223, -8467.556055492885, -41118.246748238416, -28579.85688207828, 0.084, 0.912, -0.362, 192.0, 0.0, 0.0, 0.0, 0.0, 0.0, 0.0, 0.0, 0.0, 0.0, 1.741281178911389E9, 0.0, 2025-03-06 11:12:58.911
82.0, -32129.850343447968, -29002.327204028035, -35166.04425502351, -33551.398939061044, -6021.425845792991, -8472.339328806322, -41117.106809271194, -28566.624649360736, 0.084, 0.912, -0.362, 192.0, 0.0, 0.0, 0.0, 0.0, 0.0, 0.0, 0.0, 0.0, 0.0, 1.741281178911414E9, 0.0, 2025-03-06 11:12:58.911
83.0, -32128.620997502923, -29000.717878427255, -35161.84212706592, -33546.414500047504, -6017.670752724499, -8467.712517704073, -41121.308937228794, -28570.335038940317, 0.084, 0.912, -0.362, 192.0, 0.0, 0.0, 0.0, 0.0, 0.0, 0.0, 0.0, 0.0, 0.0, 1.741281178911442E9, 0.0, 2025-03-06 11:12:58.911
84.0, -32126.31876782403, -29004.94235812931, -35163.4514526667, -33550.79544196075, -5992.301522767726, -8476.608511997285, -41127.34390823173, -28592.955004329087, 0.084, 0.912, -0.362, 192.0, 0.0, 0.0, 0.0, 0.0, 0.0, 0.0, 0.0, 0.0, 0.0, 1.741281178911466E9, 0.0, 2025-03-06 11:12:58.911
85.0, -32128.55394226956, -29008.920968642353, -35160.210449720675, -33546.436851791965, -5975.224790003871, -8468.695994460106, -41120.77249536187, -28608.914149870176, 0.084, 0.912, -0.362, 192.0, 0.0, 0.0, 0.0, 0.0, 0.0, 0.0, 0.0, 0.0, 0.0, 1.741281178911494E9, 0.0, 2025-03-06 11:12:58.911
86.0, -32133.001939416165, -29017.03465187963, -35158.71288284217, -33542.860572679114, -6007.076025852683, -8457.207197810078, -41119.94548081702, -28596.95596658659, 0.084, 0.912, -0.362, 192.0, 0.0, 0.0, 0.0, 0.0, 0.0, 0.0, 0.0, 0.0, 0.0, 1.741281178911518E9, 0.0, 2025-03-06 11:12:58.911
87.0, -32134.298340594574, -29021.259131581683, -35161.84212706592, -33545.028691891275, -6018.698932969443, -8463.465686257565, -41119.96783256147, -28559.159166712663, 0.084, 0.912, -0.362, 192.0, 0.0, 0.0, 0.0, 0.0, 0.0, 0.0, 0.0, 0.0, 0.0, 1.741281178911546E9, 0.0, 2025-03-06 11:12:58.911
88.0, -32136.64527376238, -29026.914122928876, -35169.10644401389, -33560.473747309894, -5996.168374558494, -8478.664872487172, -41125.13108553065, -28554.688817821603, 0.084, 0.916, -0.36, 192.0, 2.0, 160.0, 28.0, 160.0, 244.0, 192.0, 0.0, 0.0, 0.0, 1.741281178911574E9, 0.0, 2025-03-06 11:12:58.911
89.0, -32128.241017847184, -29024.053099638597, -35163.227935222145, -33552.98591291737, -5980.924484839975, -8468.338366548822, -41130.56255943329, -28621.56523723188, 0.084, 0.916, -0.36, 192.0, 0.0, 0.0, 0.0, 0.0, 0.0, 0.0, 0.0, 0.0, 0.0, 1.741281178911606E9, 0.0, 2025-03-06 11:12:58.911
90.0, -32132.26433184914, -29028.657558996387, -35160.836298565424, -33543.75464245732, -6003.835022906665, -8458.05656409938, -41131.590739678235, -28624.67212971117, 0.084, 0.916, -0.36, 192.0, 0.0, 0.0, 0.0, 0.0, 0.0, 0.0, 0.0, 0.0, 0.0, 1.741281178911636E9, 0.0, 2025-03-06 11:12:58.911
91.0, -32130.856171948457, -29022.376718804448, -35160.14339448731, -33542.59235174565, -6026.924374928996, -8461.185808323122, -41129.3108617438, -28595.88308285273, 0.084, 0.916, -0.36, 192.0, 0.0, 0.0, 0.0, 0.0, 0.0, 0.0, 0.0, 0.0, 0.0, 1.74128117897015E9, 0.0, 2025-03-06 11:12:58.970
92.0, -32120.484962521194, -29011.625529721445, -35158.53406888653, -33530.991796373346, -6014.966191645407, -8451.753372162982, -41125.84634135322, -28583.589623402313, 0.084, 0.916, -0.36, 192.0, 0.0, 0.0, 0.0, 0.0, 0.0, 0.0, 0.0, 0.0, 0.0, 1.74128117897021E9, 0.0, 2025-03-06 11:12:58.970
93.0, -32121.26727357713, -29014.486553011724, -35164.81490907847, -33540.37952904458, -5974.978920814863, -8459.576482722341, -41127.679184398556, -28575.006553531475, 0.084, 0.916, -0.36, 192.0, 0.0, 0.0, 0.0, 0.0, 0.0, 0.0, 0.0, 0.0, 0.0, 1.741281178970235E9, 0.0, 2025-03-06 11:12:58.970
94.0, -32134.61126501695, -29028.635207251933, -35174.33675221643, -33551.71186348341, -5988.457022721413, -8463.24216881301, -41136.75399264741, -28572.346695941294, 0.084, 0.916, -0.36, 192.0, 0.0, 0.0, 0.0, 0.0, 0.0, 0.0, 0.0, 0.0, 0.0, 1.741281178970259E9, 0.0, 2025-03-06 11:12:58.970
95.0, -32135.8853144509, -29030.22218110826, -35178.49417668512, -33556.04810190774, -6022.141101615561, -8461.05169785639, -41140.531437460355, -28594.56432992987, 0.084, 0.916, -0.36, 192.0, 0.0, 0.0, 0.0, 0.0, 0.0, 0.0, 0.0, 0.0, 0.0, 1.741281178970283E9, 0.0, 2025-03-06 11:12:58.970
96.0, -32132.219628360228, -29022.667291482365, -35181.8022348645, -33560.85372696564, -6022.588136504667, -8462.459857757076, -41146.49935322993, -28597.80533287589, 0.084, 0.916, -0.36, 192.0, 0.0, 0.0, 0.0, 0.0, 0.0, 0.0, 0.0, 0.0, 0.0, 1.741281178970312E9, 0.0, 2025-03-06 11:12:58.970
97.0, -32120.55201775456, -29009.189189575816, -35175.07435978346, -33553.634113506574, -5988.322912254681, -8459.420020511154, -41145.20295205152, -28593.782018873935, 0.084, 0.916, -0.36, 192.0, 0.0, 0.0, 0.0, 0.0, 0.0, 0.0, 0.0, 0.0, 0.0, 1.741281178970336E9, 0.0, 2025-03-06 11:12:58.970
98.0, -32123.591855000483, -29018.107535613482, -35177.24247899562, -33560.80902347672, -5998.872935637586, -8463.018651368458, -41144.733565417955, -28590.831588605834, 0.082, 0.92, -0.362, 192.0, 2.0, 144.0, 28.0, 192.0, 244.0, 176.0, 0.0, 0.0, 0.0, 1.741281178970366E9, 0.0, 2025-03-06 11:12:58.970
99.0, -32116.595758985968, -29013.816000678064, -35171.45337718169, -33563.69239851146, -6037.094418656161, -8464.136238591223, -41138.85505662621, -28584.55074841389, 0.082, 0.92, -0.362, 192.0, 0.0, 0.0, 0.0, 0.0, 0.0, 0.0, 0.0, 0.0, 0.0, 1.741281178970392E9, 0.0, 2025-03-06 11:12:58.970
100.0, -32121.22257008822, -29011.31260529907, -35174.47086268316, -33561.83720372167, -6030.210081363926, -8477.256712586488, -41141.06787932729, -28576.12414075424, 0.082, 0.92, -0.362, 192.0, 0.0, 0.0, 0.0, 0.0, 0.0, 0.0, 0.0, 0.0, 0.0, 1.741281178970416E9, 0.0, 2025-03-06 11:12:58.970
101.0, -32110.56078798304, -29001.611948205467, -35167.988856791126, -33555.39990131854, -6000.370502516092, -8477.234360842032, -41140.21851303799, -28582.203815246085, 0.082, 0.92, -0.362, 192.0, 0.0, 0.0, 0.0, 0.0, 0.0, 0.0, 0.0, 0.0, 0.0, 1.741281178970445E9, 0.0, 2025-03-06 11:12:58.970
102.0, -32120.30614856555, -29012.4972477552, -35174.560269660986, -33567.603953791135, -5999.252915293327, -8490.48894530403, -41150.746184676434, -28593.22322526255, 0.082, 0.92, -0.362, 192.0, 0.0, 0.0, 0.0, 0.0, 0.0, 0.0, 0.0, 0.0, 0.0, 1.741281178970468E9, 0.0, 2025-03-06 11:12:58.970
103.0, -32123.144820111374, -29012.653709966387, -35170.89458357031, -33567.8721747246, -6034.032229665784, -8498.714387263582, -41149.31567303129, -28601.18044628864, 0.082, 0.92, -0.362, 192.0, 0.0, 0.0, 0.0, 0.0, 0.0, 0.0, 0.0, 0.0, 0.0, 1.741281178970509E9, 0.0, 2025-03-06 11:12:58.970
104.0, -32109.86788390492, -28997.99096560371, -35160.38926367632, -33555.71282574091, -6031.886462198075, -8486.197410368612, -41141.604321194216, -28607.885969625233, 0.082, 0.92, -0.362, 192.0, 0.0, 0.0, 0.0, 0.0, 0.0, 0.0, 0.0, 0.0, 0.0, 1.741281178970537E9, 0.0, 2025-03-06 11:12:58.970
105.0, -32109.085572848988, -28997.29806152559, -35165.753682345596, -33558.73031124238, -5995.8554501361195, -8488.745509236516, -41149.00274860892, -28624.627426222258, 0.082, 0.92, -0.362, 192.0, 0.0, 0.0, 0.0, 0.0, 0.0, 0.0, 0.0, 0.0, 0.0, 1.741281178970568E9, 0.0, 2025-03-06 11:12:58.970
106.0, -32113.108886850943, -29002.93070112833, -35167.407711435284, -33564.944096200954, -5995.162546058005, -8495.942770951126, -41146.6111119522, -28615.910245884686, 0.082, 0.92, -0.362, 192.0, 0.0, 0.0, 0.0, 0.0, 0.0, 0.0, 0.0, 0.0, 0.0, 1.741281179030363E9, 0.0, 2025-03-06 11:12:59.030
107.0, -32108.660889704337, -29002.282500539128, -35159.71871134266, -33560.94313394346, -6033.674601754499, -8483.850477200804, -41132.68597515654, -28583.388457702218, 0.082, 0.92, -0.362, 192.0, 0.0, 0.0, 0.0, 0.0, 0.0, 0.0, 0.0, 0.0, 0.0, 1.7412811790304E9, 0.0, 2025-03-06 11:12:59.030
108.0, -32103.07295359051, -28990.234910277715, -35154.04136825101, -33551.06366289421, -6035.95447968894, -8482.241151600021, -41131.61309142269, -28608.75768765899, 0.078, 0.914, -0.366, 192.0, 2.0, 112.0, 28.0, 144.0, 244.0, 144.0, 0.0, 0.0, 0.0, 1.741281179030444E9, 0.0, 2025-03-06 11:12:59.030
109.0, -32097.820293643512, -28979.282555494614, -35150.44273739371, -33543.911104668514, -5999.6105432046115, -8475.021538140958, -41125.73458263095, -28599.79463813241, 0.078, 0.914, -0.366, 192.0, 0.0, 0.0, 0.0, 0.0, 0.0, 0.0, 0.0, 0.0, 0.0, 1.74128117903047E9, 0.0, 2025-03-06 11:12:59.030
110.0, -32096.25567153164, -28985.5410439421, -35156.43300490773, -33553.65646525103, -5989.395795988536, -8482.643483000218, -41129.355565232705, -28581.667373379158, 0.078, 0.914, -0.366, 192.0, 0.0, 0.0, 0.0, 0.0, 0.0, 0.0, 0.0, 0.0, 0.0, 1.741281179030502E9, 0.0, 2025-03-06 11:12:59.030
111.0, -32098.088514576975, -28990.704296911277, -35148.78870830402, -33548.046177392745, -6021.00116264834, -8466.997261881503, -41126.069858797775, -28593.960832829576, 0.078, 0.914, -0.366, 192.0, 0.0, 0.0, 0.0, 0.0, 0.0, 0.0, 0.0, 0.0, 0.0, 1.74128117903053E9, 0.0, 2025-03-06 11:12:59.030
112.0, -32083.82810161449, -28974.007543803164, -35127.97923421612, -33524.420383503486, -6034.1886918769715, -8448.221796539045, -41111.60828013519, -28595.860731108278, 0.078, 0.914, -0.366, 192.0, 0.0, 0.0, 0.0, 0.0, 0.0, 0.0, 0.0, 0.0, 0.0, 1.741281179030553E9, 0.0, 2025-03-06 11:12:59.030
113.0, -32086.286793504572, -28969.44778793428, -35129.05211794998, -33521.24643579083, -6003.052711850729, -8450.009936095468, -41109.440160923026, -28577.12996925473, 0.078, 0.914, -0.366, 192.0, 0.0, 0.0, 0.0, 0.0, 0.0, 0.0, 0.0, 0.0, 0.0, 1.741281179030582E9, 0.0, 2025-03-06 11:12:59.030
114.0, -32093.461703474728, -28979.327258983525, -35135.62353081984, -33527.88490389406, -5965.881760821553, -8450.904005873681, -41115.87746332616, -28582.784960601923, 0.078, 0.914, -0.366, 192.0, 0.0, 0.0, 0.0, 0.0, 0.0, 0.0, 0.0, 0.0, 0.0, 1.741281179030606E9, 0.0, 2025-03-06 11:12:59.030
115.0, -32099.429619244293, -28981.182453773316, -35135.757641286575, -33527.50492423832, -5994.000255346329, -8446.76893314945, -41118.20204474951, -28594.363164229773, 0.078, 0.914, -0.366, 192.0, 0.0, 0.0, 0.0, 0.0, 0.0, 0.0, 0.0, 0.0, 0.0, 1.74128117903063E9, 0.0, 2025-03-06 11:12:59.030
116.0, -32098.15556981034, -28975.92979382632, -35134.707109297175, -33522.90046488053, -6019.615354492111, -8441.33745924681, -41115.69864937051, -28576.682934365625, 0.078, 0.914, -0.366, 192.0, 0.0, 0.0, 0.0, 0.0, 0.0, 0.0, 0.0, 0.0, 0.0, 1.741281179030655E9, 0.0, 2025-03-06 11:12:59.030
117.0, -32089.01370632812, -28963.368113442437, -35129.47680109463, -33512.55160719772, -6014.541508500756, -8428.887537585204, -41110.71421035698, -28583.7460856135, 0.078, 0.914, -0.366, 192.0, 0.0, 0.0, 0.0, 0.0, 0.0, 0.0, 0.0, 0.0, 0.0, 1.741281179030679E9, 0.0, 2025-03-06 11:12:59.030
118.0, -32086.10797954893, -28961.60232563047, -35127.711013282664, -33507.47776120636, -5986.2889035092485, -8419.924488058627, -41109.23899522293, -28595.503103196992, 0.078, 0.916, -0.37, 192.0, 2.0, 112.0, 28.0, 160.0, 244.0, 112.0, 0.0, 0.0, 0.0, 1.741281179030707E9, 0.0, 2025-03-06 11:12:59.030
119.0, -32094.10990406393, -28971.839424591, -35133.00837671857, -33516.03847933275, -5988.300560510226, -8416.929354301614, -41110.535396401334, -28575.386533187215, 0.078, 0.916, -0.37, 192.0, 0.0, 0.0, 0.0, 0.0, 0.0, 0.0, 0.0, 0.0, 0.0, 1.741281179030742E9, 0.0, 2025-03-06 11:12:59.030
120.0, -32098.20027329925, -28975.281593237116, -35139.445679121694, -33523.839238147644, -6011.278153810282, -8424.66305788315, -41114.1563790031, -28572.27964070793, 0.078, 0.916, -0.37, 192.0, 0.0, 0.0, 0.0, 0.0, 0.0, 0.0, 0.0, 0.0, 0.0, 1.74128117903077E9, 0.0, 2025-03-06 11:12:59.030
121.0, -32087.225566771696, -28964.038665776097, -35135.35530988638, -33522.85576139161, -6013.267459066804, -8421.757331103961, -41109.350753945204, -28566.915222038657, 0.078, 0.916, -0.37, 192.0, 0.0, 0.0, 0.0, 0.0, 0.0, 0.0, 0.0, 0.0, 0.0, 1.741281179090671E9, 0.0, 2025-03-06 11:12:59.090
122.0, -32084.185729525776, -28957.333142439504, -35137.32226339844, -33524.755659670314, -5972.98961555834, -8423.56782240484, -41111.809445835286, -28573.978373286533, 0.078, 0.916, -0.37, 192.0, 0.0, 0.0, 0.0, 0.0, 0.0, 0.0, 0.0, 0.0, 0.0, 1.741281179090705E9, 0.0, 2025-03-06 11:12:59.090
123.0, -32093.796979641556, -28962.92107855333, -35145.90533326928, -33528.600159716625, -5983.986673830352, -8432.664982398152, -41116.704477871004, -28577.532300654926, 0.078, 0.916, -0.37, 192.0, 0.0, 0.0, 0.0, 0.0, 0.0, 0.0, 0.0, 0.0, 0.0, 1.741281179090743E9, 0.0, 2025-03-06 11:12:59.090
124.0, -32093.126427307896, -28959.836537818497, -35146.62058909185, -33533.226970818876, -6021.425845792991, -8446.880691871726, -41114.737524358934, -28554.59941084378, 0.078, 0.916, -0.37, 192.0, 0.0, 0.0, 0.0, 0.0, 0.0, 0.0, 0.0, 0.0, 0.0, 1.741281179090767E9, 0.0, 2025-03-06 11:12:59.090
125.0, -32091.49474996266, -28958.942468040284, -35150.018054249056, -33539.48545926636, -6019.7494649588425, -8457.00603210998, -41121.42069595107, -28583.723733869047, 0.078, 0.916, -0.37, 192.0, 0.0, 0.0, 0.0, 0.0, 0.0, 0.0, 0.0, 0.0, 0.0, 1.741281179090792E9, 0.0, 2025-03-06 11:12:59.090
126.0, -32078.06135154502, -28947.38661615689, -35140.89854251129, -33535.81977317569, -5997.285961781259, -8459.710593189073, -41119.25257673891, -28590.786885116922, 0.078, 0.916, -0.37, 192.0, 0.0, 0.0, 0.0, 0.0, 0.0, 0.0, 0.0, 0.0, 0.0, 1.741281179090815E9, 0.0, 2025-03-06 11:12:59.090
127.0, -32079.24599400115, -28946.313732423037, -35140.27269366654, -33540.491287766854, -5993.32970301267, -8465.879674658738, -41120.548977917315, -28599.526417198947, 0.078, 0.916, -0.37, 192.0, 0.0, 0.0, 0.0, 0.0, 0.0, 0.0, 0.0, 0.0, 0.0, 1.741281179090848E9, 0.0, 2025-03-06 11:12:59.090
128.0, -32087.49378770516, -28950.135880724894, -35144.00543499058, -33545.36396805811, -6014.854432923131, -8475.759145707983, -41131.27781525586, -28607.975376603055, 0.08, 0.92, -0.364, 192.0, 2.0, 128.0, 28.0, 192.0, 244.0, 160.0, 0.0, 0.0, 0.0, 1.741281179090877E9, 0.0, 2025-03-06 11:12:59.090
129.0, -32090.466569717715, -28951.231116203206, -35145.86062978037, -33555.13168038508, -6009.244145064848, -8487.113831891278, -41131.38957397814, -28599.66052766568, 0.08, 0.92, -0.364, 192.0, 0.0, 0.0, 0.0, 0.0, 0.0, 0.0, 0.0, 0.0, 0.0, 1.741281179090904E9, 0.0, 2025-03-06 11:12:59.090
130.0, -32084.565709181516, -28942.312770165536, -35143.80426929048, -33553.902334440034, -5996.660112936511, -8492.612361027284, -41129.221454765975, -28604.95789110159, 0.08, 0.92, -0.364, 192.0, 0.0, 0.0, 0.0, 0.0, 0.0, 0.0, 0.0, 0.0, 0.0, 1.741281179090927E9, 0.0, 2025-03-06 11:12:59.090
131.0, -32075.267383488106, -28938.267104419127, -35139.110402954866, -33546.05687213622, -5994.38023500207, -8484.141049878723, -41129.26615825488, -28635.445670538626, 0.08, 0.92, -0.364, 192.0, 0.0, 0.0, 0.0, 0.0, 0.0, 0.0, 0.0, 0.0, 0.0, 1.74128117909095E9, 0.0, 2025-03-06 11:12:59.090
132.0, -32088.36550573892, -28944.10090972196, -35146.28531292502, -33546.861534936615, -6024.465683038912, -8485.593913268318, -41123.4547046965, -28601.67218466666, 0.08, 0.92, -0.364, 192.0, 0.0, 0.0, 0.0, 0.0, 0.0, 0.0, 0.0, 0.0, 0.0, 1.741281179090974E9, 0.0, 2025-03-06 11:12:59.090
133.0, -32090.95830809573, -28946.33608416749, -35149.97335076015, -33543.285255823765, -6024.599793505645, -8487.225590613556, -41123.32059422977, -28600.532245699436, 0.08, 0.92, -0.364, 192.0, 0.0, 0.0, 0.0, 0.0, 0.0, 0.0, 0.0, 0.0, 0.0, 1.741281179091002E9, 0.0, 2025-03-06 11:12:59.091
134.0, -32072.361656708916, -28934.48965960618, -35134.61770231935, -33532.84699116313, -6000.99635136084, -8475.803849196893, -41115.74335285942, -28582.919071068656, 0.08, 0.92, -0.364, 192.0, 0.0, 0.0, 0.0, 0.0, 0.0, 0.0, 0.0, 0.0, 0.0, 1.741281179091032E9, 0.0, 2025-03-06 11:12:59.091
135.0, -32082.062313802522, -28947.498374879167, -35145.01126349107, -33548.13558437057, -5964.1606764984945, -8494.601666283806, -41122.76180061839, -28577.509948910472, 0.08, 0.92, -0.364, 192.0, 0.0, 0.0, 0.0, 0.0, 0.0, 0.0, 0.0, 0.0, 0.0, 1.741281179091055E9, 0.0, 2025-03-06 11:12:59.091
136.0, -32089.30427900604, -28958.45072966227, -35147.62641759234, -33549.096709382145, -6013.490976511357, -8491.561829037884, -41118.13498951614, -28585.780094358935, 0.08, 0.92, -0.364, 192.0, 0.0, 0.0, 0.0, 0.0, 0.0, 0.0, 0.0, 0.0, 0.0, 1.741281179150868E9, 0.0, 2025-03-06 11:12:59.150
137.0, -32084.16337778132, -28954.717988338234, -35142.127888456336, -33537.74202319885, -6030.4335988084795, -8474.976834652047, -41117.330326715746, -28610.434068493138, 0.088, 0.918, -0.36, 192.0, 2.0, 192.0, 28.0, 176.0, 244.0, 192.0, 0.0, 0.0, 0.0, 1.741281179150902E9, 0.0, 2025-03-06 11:12:59.150
138.0, -32087.717305149712, -28957.534308139602, -35147.067623980955, -33539.95484589993, -5997.464775736902, -8473.367509051264, -41126.11456228668, -28621.274664553963, 0.088, 0.918, -0.36, 192.0, 0.0, 0.0, 0.0, 0.0, 0.0, 0.0, 0.0, 0.0, 0.0, 1.741281179150947E9, 0.0, 2025-03-06 11:12:59.150
139.0, -32091.807674385032, -28962.496395408678, -35148.274618181546, -33536.31151155371, -5965.613539888089, -8466.214950825566, -41123.074725040766, -28617.09488834082, 0.088, 0.918, -0.36, 192.0, 0.0, 0.0, 0.0, 0.0, 0.0, 0.0, 0.0, 0.0, 0.0, 1.741281179150971E9, 0.0, 2025-03-06 11:12:59.150
140.0, -32086.152683037843, -28962.11641575294, -35141.43498437822, -33523.369851514086, -6002.3151042837035, -8448.95940410607, -41120.99601280642, -28624.068632610873, 0.088, 0.918, -0.36, 192.0, 0.0, 0.0, 0.0, 0.0, 0.0, 0.0, 0.0, 0.0, 0.0, 1.741281179150995E9, 0.0, 2025-03-06 11:12:59.150
141.0, -32087.24791851615, -28958.83070931801, -35142.172591945244, -33524.39803175903, -6026.85731969563, -8447.439485483108, -41120.57132966177, -28618.257179052496, 0.088, 0.918, -0.36, 192.0, 0.0, 0.0, 0.0, 0.0, 0.0, 0.0, 0.0, 0.0, 0.0, 1.741281179151024E9, 0.0, 2025-03-06 11:12:59.151
142.0, -32083.671639403303, -28952.035779003596, -35138.059870965466, -33522.07345033568, -6007.791281675253, -8433.693162643094, -41117.73265811594, -28594.27375725195, 0.088, 0.918, -0.36, 192.0, 0.0, 0.0, 0.0, 0.0, 0.0, 0.0, 0.0, 0.0, 0.0, 1.741281179151052E9, 0.0, 2025-03-06 11:12:59.151
143.0, -32083.49282544766, -28951.029950503107, -35140.74208030011, -33524.33097652566, -5978.75636562781, -8438.722305145538, -41116.68212612654, -28583.56727165786, 0.088, 0.918, -0.36, 192.0, 0.0, 0.0, 0.0, 0.0, 0.0, 0.0, 0.0, 0.0, 0.0, 1.741281179151077E9, 0.0, 2025-03-06 11:12:59.151
144.0, -32085.05744755953, -28953.77921507111, -35137.009338976066, -33513.26686302029, -5994.871973380086, -8425.423017194631, -41107.92024230007, -28584.37193445825, 0.088, 0.918, -0.36, 192.0, 0.0, 0.0, 0.0, 0.0, 0.0, 0.0, 0.0, 0.0, 0.0, 1.741281179151104E9, 0.0, 2025-03-06 11:12:59.151
145.0, -32090.555976695538, -28954.33800868249, -35141.412632633765, -33518.65363343401, -6016.396703290547, -8425.646534639185, -41114.737524358934, -28589.602242660792, 0.088, 0.918, -0.36, 192.0, 0.0, 0.0, 0.0, 0.0, 0.0, 0.0, 0.0, 0.0, 0.0, 1.741281179151128E9, 0.0, 2025-03-06 11:12:59.151
146.0, -32094.892215119868, -28953.645104604377, -35148.900467026295, -33524.196866058934, -6004.773796173787, -8429.222813752034, -41120.77249536187, -28590.13868452772, 0.088, 0.918, -0.36, 192.0, 0.0, 0.0, 0.0, 0.0, 0.0, 0.0, 0.0, 0.0, 0.0, 1.741281179151152E9, 0.0, 2025-03-06 11:12:59.151
147.0, -32085.325668492995, -28945.55377311156, -35137.74694654309, -33512.797476386724, -5992.636798934555, -8422.42788343762, -41115.47513192596, -28585.958908314577, 0.084, 0.916, -0.362, 192.0, 2.0, 160.0, 28.0, 160.0, 244.0, 176.0, 0.0, 0.0, 0.0, 1.741281179151176E9, 0.0, 2025-03-06 11:12:59.151
148.0, -32091.427694729293, -28953.287476693095, -35136.49524885359, -33515.613796188096, -6004.438520006957, -8420.796206092382, -41115.22926273695, -28583.14258851321, 0.084, 0.916, -0.362, 192.0, 0.0, 0.0, 0.0, 0.0, 0.0, 0.0, 0.0, 0.0, 0.0, 1.741281179151208E9, 0.0, 2025-03-06 11:12:59.151
149.0, -32090.846549373455, -28949.577087113514, -35136.07056570894, -33516.03847933275, -6028.444293551957, -8418.315162457844, -41112.27883246885, -28574.917146553656, 0.084, 0.916, -0.362, 192.0, 0.0, 0.0, 0.0, 0.0, 0.0, 0.0, 0.0, 0.0, 0.0, 1.741281179151236E9, 0.0, 2025-03-06 11:12:59.151
150.0, -32080.095360290452, -28947.34191266798, -35138.261036665564, -33518.65363343401, -6016.106130612628, -8422.070255526336, -41109.015477778375, -28569.686838351114, 0.084, 0.916, -0.362, 192.0, 0.0, 0.0, 0.0, 0.0, 0.0, 0.0, 0.0, 0.0, 0.0, 1.741281179151263E9, 0.0, 2025-03-06 11:12:59.151
151.0, -32074.90975557682, -28943.698578321768, -35139.043347721505, -33517.37958400006, -5991.988598345351, -8423.23254623801, -41108.032001022344, -28565.12708248223, 0.084, 0.916, -0.362, 192.0, 0.0, 0.0, 0.0, 0.0, 0.0, 0.0, 0.0, 0.0, 0.0, 1.741281179211167E9, 0.0, 2025-03-06 11:12:59.211
152.0, -32080.74356087966, -28952.30399993706, -35143.80426929048, -33522.58754045815, -5988.211153532405, -8431.681505642116, -41109.52956790085, -28561.03671324691, 0.084, 0.916, -0.362, 192.0, 0.0, 0.0, 0.0, 0.0, 0.0, 0.0, 0.0, 0.0, 0.0, 1.741281179211229E9, 0.0, 2025-03-06 11:12:59.211
153.0, -32090.60068018445, -28962.295229708583, -35147.984045503625, -33537.94318889895, -6020.6211829926, -8445.204311037578, -41110.6024516347, -28560.92495452463, 0.084, 0.916, -0.362, 192.0, 0.0, 0.0, 0.0, 0.0, 0.0, 0.0, 0.0, 0.0, 0.0, 1.741281179211268E9, 0.0, 2025-03-06 11:12:59.211
154.0, -32084.789226626068, -28956.953162783764, -35140.54091460001, -33537.09382260965, -6019.593002747656, -8442.410342980666, -41108.18846323353, -28560.92495452463, 0.084, 0.916, -0.362, 192.0, 0.0, 0.0, 0.0, 0.0, 0.0, 0.0, 0.0, 0.0, 0.0, 1.741281179211292E9, 0.0, 2025-03-06 11:12:59.211
155.0, -32080.29652599055, -28952.952200526262, -35139.311568654965, -33538.68079646597, -5995.497822224835, -8450.546377962397, -41113.7540476029, -28587.769399615456, 0.084, 0.916, -0.362, 192.0, 0.0, 0.0, 0.0, 0.0, 0.0, 0.0, 0.0, 0.0, 0.0, 1.741281179211315E9, 0.0, 2025-03-06 11:12:59.211
156.0, -32079.804787612535, -28953.01925575963, -35138.17162968774, -33537.272636565285, -5983.070252307684, -8456.603700709784, -41117.7550098604, -28597.09007705332, 0.084, 0.916, -0.362, 192.0, 0.0, 0.0, 0.0, 0.0, 0.0, 0.0, 0.0, 0.0, 0.0, 1.741281179211339E9, 0.0, 2025-03-06 11:12:59.211
157.0, -32084.297488248052, -28957.936639539796, -35141.05500472248, -33545.27456108029, -6009.937049142963, -8467.377241537242, -41120.37016396167, -28590.496312439005, 0.078, 0.916, -0.364, 192.0, 2.0, 112.0, 28.0, 160.0, 244.0, 160.0, 0.0, 0.0, 0.0, 1.741281179211367E9, 0.0, 2025-03-06 11:12:59.211
158.0, -32088.946651094753, -28957.556659884056, -35146.1959059472, -33556.69630249695, -6019.436540536469, -8480.721232977061, -41125.1087337862, -28593.938481085122, 0.078, 0.916, -0.364, 192.0, 0.0, 0.0, 0.0, 0.0, 0.0, 0.0, 0.0, 0.0, 0.0, 1.741281179211398E9, 0.0, 2025-03-06 11:12:59.211
159.0, -32090.175997039798, -28963.81514833154, -35154.89073454031, -33567.045160179754, -6007.768929930799, -8497.619151785273, -41129.82495186626, -28592.776190373446, 0.078, 0.916, -0.364, 192.0, 0.0, 0.0, 0.0, 0.0, 0.0, 0.0, 0.0, 0.0, 0.0, 1.741281179211426E9, 0.0, 2025-03-06 11:12:59.211
160.0, -32087.583194682982, -28965.133901254405, -35154.846031051406, -33565.033503178776, -6000.482261238368, -8492.142974393722, -41131.590739678235, -28606.79073414692, 0.078, 0.916, -0.364, 192.0, 0.0, 0.0, 0.0, 0.0, 0.0, 0.0, 0.0, 0.0, 0.0, 1.74128117921145E9, 0.0, 2025-03-06 11:12:59.211
161.0, -32084.990392326166, -28964.038665776097, -35146.10649896938, -33558.48444205337, -6027.751389473843, -8483.939884178626, -41126.8074663648, -28598.632347420735, 0.078, 0.916, -0.364, 192.0, 0.0, 0.0, 0.0, 0.0, 0.0, 0.0, 0.0, 0.0, 0.0, 1.741281179211473E9, 0.0, 2025-03-06 11:12:59.211
162.0, -32080.765912624112, -28956.573183128025, -35144.11719371285, -33553.05296815073, -6033.38402907658, -8485.079823145847, -41113.03879178033, -28567.809291816866, 0.078, 0.916, -0.364, 192.0, 0.0, 0.0, 0.0, 0.0, 0.0, 0.0, 0.0, 0.0, 0.0, 1.741281179211501E9, 0.0, 2025-03-06 11:12:59.211
163.0, -32091.07006681801, -28962.652857619865, -35158.22114446416, -33566.30755261273, -6004.594982218145, -8495.138108150733, -41124.102905285705, -28558.108634723263, 0.078, 0.916, -0.364, 192.0, 0.0, 0.0, 0.0, 0.0, 0.0, 0.0, 0.0, 0.0, 0.0, 1.741281179211525E9, 0.0, 2025-03-06 11:12:59.211
164.0, -32096.36743025392, -28968.620773389433, -35160.2998566985, -33561.01018917682, -5985.059557564206, -8485.258637101488, -41134.67528041307, -28624.91799890018, 0.078, 0.916, -0.364, 192.0, 0.0, 0.0, 0.0, 0.0, 0.0, 0.0, 0.0, 0.0, 0.0, 1.741281179211556E9, 0.0, 2025-03-06 11:12:59.211
165.0, -32101.083648333988, -28967.614944888945, -35157.9976270196, -33549.990779160355, -6009.7135316984095, -8469.053622371392, -41134.49646645742, -28638.150231617718, 0.078, 0.916, -0.364, 192.0, 0.0, 0.0, 0.0, 0.0, 0.0, 0.0, 0.0, 0.0, 0.0, 1.741281179211583E9, 0.0, 2025-03-06 11:12:59.211
166.0, -32096.702706420747, -28961.647029119376, -35158.80228981999, -33546.414500047504, -6032.802883720742, -8458.168322821657, -41130.406097222105, -28621.676995954156, 0.078, 0.916, -0.364, 192.0, 0.0, 0.0, 0.0, 0.0, 0.0, 0.0, 0.0, 0.0, 0.0, 1.741281179271462E9, 0.0, 2025-03-06 11:12:59.271
167.0, -32093.68522091928, -28960.037703518596, -35159.71871134266, -33542.21237208991, -6017.022552135295, -8454.927319875636, -41126.02515530887, -28609.160019059185, 0.076, 0.914, -0.368, 192.0, 2.0, 96.0, 28.0, 144.0, 244.0, 128.0, 0.0, 0.0, 0.0, 1.741281179271503E9, 0.0, 2025-03-06 11:12:59.271
168.0, -32091.472398218204, -28955.790872072088, -35157.215315963665, -33540.37952904458, -5985.595999431133, -8455.575520464841, -41121.82302735127, -28584.573100158348, 0.076, 0.914, -0.368, 192.0, 0.0, 0.0, 0.0, 0.0, 0.0, 0.0, 0.0, 0.0, 0.0, 1.74128117927155E9, 0.0, 2025-03-06 11:12:59.271
169.0, -32096.523892465106, -28961.557622141558, -35156.47770839664, -33541.22889533388, -6001.085758338661, -8457.631880954728, -41123.968794818975, -28598.76645788747, 0.076, 0.914, -0.368, 192.0, 0.0, 0.0, 0.0, 0.0, 0.0, 0.0, 0.0, 0.0, 0.0, 1.741281179271574E9, 0.0, 2025-03-06 11:12:59.271
170.0, -32102.469456490217, -28968.643125133887, -35160.501022398596, -33541.899447667536, -6018.140139358061, -8450.702840173584, -41125.5557686753, -28608.310652769884, 0.076, 0.914, -0.368, 192.0, 0.0, 0.0, 0.0, 0.0, 0.0, 0.0, 0.0, 0.0, 0.0, 1.741281179271598E9, 0.0, 2025-03-06 11:12:59.271
171.0, -32103.452933246248, -28969.939526312297, -35166.513641657075, -33545.49807852484, -6010.227621820882, -8459.375317022243, -41131.83660886724, -28604.019117834465, 0.076, 0.914, -0.368, 192.0, 0.0, 0.0, 0.0, 0.0, 0.0, 0.0, 0.0, 0.0, 0.0, 1.741281179271621E9, 0.0, 2025-03-06 11:12:59.271
172.0, -32094.44518023076, -28959.97064828523, -35157.59529561941, -33535.104517353124, -5982.243237762837, -8454.368526264254, -41128.237978009936, -28600.5993009328, 0.076, 0.914, -0.368, 192.0, 0.0, 0.0, 0.0, 0.0, 0.0, 0.0, 0.0, 0.0, 0.0, 1.741281179271651E9, 0.0, 2025-03-06 11:12:59.271
173.0, -32098.960232610734, -28961.06588376354, -35156.90239154129, -33528.01901436079, -5997.017740847796, -8449.317032017354, -41117.687954627036, -28570.46914940705, 0.076, 0.914, -0.368, 192.0, 0.0, 0.0, 0.0, 0.0, 0.0, 0.0, 0.0, 0.0, 0.0, 1.741281179271674E9, 0.0, 2025-03-06 11:12:59.271
174.0, -32102.514159979128, -28956.662590105843, -35157.86351655287, -33529.42717426147, -6026.81261620672, -8454.90496813118, -41118.55967266079, -28568.301030194885, 0.076, 0.914, -0.368, 192.0, 0.0, 0.0, 0.0, 0.0, 0.0, 0.0, 0.0, 0.0, 0.0, 1.741281179271705E9, 0.0, 2025-03-06 11:12:59.271
175.0, -32101.038944845077, -28953.332180182002, -35158.824641564446, -33528.890732394546, -6029.248956352349, -8450.792247151405, -41121.666565140076, -28609.875274881757, 0.076, 0.914, -0.368, 192.0, 0.0, 0.0, 0.0, 0.0, 0.0, 0.0, 0.0, 0.0, 0.0, 1.741281179271729E9, 0.0, 2025-03-06 11:12:59.271
176.0, -32085.906813848833, -28946.894877778876, -35152.4990978836, -33524.86741839259, -6001.823365905687, -8439.258747012467, -41116.92799531556, -28601.47101896656, 0.076, 0.914, -0.368, 192.0, 0.0, 0.0, 0.0, 0.0, 0.0, 0.0, 0.0, 0.0, 0.0, 1.741281179271757E9, 0.0, 2025-03-06 11:12:59.271
177.0, -32086.286793504572, -28953.667456348834, -35152.4990978836, -33531.885866151555, -5985.126612797572, -8445.852511626783, -41120.21370175049, -28589.51283568297, 0.076, 0.918, -0.366, 192.0, 2.0, 96.0, 28.0, 176.0, 244.0, 144.0, 0.0, 0.0, 0.0, 1.741281179271781E9, 0.0, 2025-03-06 11:12:59.271
178.0, -32087.69495340526, -28954.472119149224, -35152.96848451716, -33536.2668080648, -6020.487072525868, -8450.05463958438, -41120.414867450585, -28580.102751267284, 0.076, 0.918, -0.366, 192.0, 0.0, 0.0, 0.0, 0.0, 0.0, 0.0, 0.0, 0.0, 0.0, 1.741281179271808E9, 0.0, 2025-03-06 11:12:59.271
179.0, -32083.604584169938, -28948.235982446193, -35157.26001945257, -33542.07826162318, -6021.3364388151695, -8460.090572844812, -41123.834684352245, -28581.645021634704, 0.076, 0.918, -0.366, 192.0, 0.0, 0.0, 0.0, 0.0, 0.0, 0.0, 0.0, 0.0, 0.0, 1.741281179271835E9, 0.0, 2025-03-06 11:12:59.271
180.0, -32086.555014438036, -28946.33608416749, -35161.551554387996, -33545.051043635736, -5997.978865859373, -8465.365584536265, -41130.33904198874, -28604.37674574575, 0.076, 0.918, -0.366, 192.0, 0.0, 0.0, 0.0, 0.0, 0.0, 0.0, 0.0, 0.0, 0.0, 1.741281179271865E9, 0.0, 2025-03-06 11:12:59.271
181.0, -32081.324706235497, -28944.592648099977, -35155.71774908516, -33537.85378192113, -5994.4472902354355, -8464.516218246963, -41123.6558703966, -28599.593472432312, 0.076, 0.918, -0.366, 192.0, 0.0, 0.0, 0.0, 0.0, 0.0, 0.0, 0.0, 0.0, 0.0, 1.741281179330784E9, 0.0, 2025-03-06 11:12:59.330
182.0, -32074.59683115445, -28941.77632829861, -35146.75469955858, -33533.89752315253, -6029.248956352349, -8463.376279279742, -41110.42363767906, -28565.395303415695, 0.076, 0.918, -0.366, 192.0, 0.0, 0.0, 0.0, 0.0, 0.0, 0.0, 0.0, 0.0, 0.0, 1.741281179330895E9, 0.0, 2025-03-06 11:12:59.330
183.0, -32076.96611606671, -28943.29624692157, -35148.744004815104, -33546.414500047504, -6029.04779065225, -8474.552151507396, -41115.74335285942, -28570.022114517942, 0.076, 0.918, -0.366, 192.0, 0.0, 0.0, 0.0, 0.0, 0.0, 0.0, 0.0, 0.0, 0.0, 1.74128117933092E9, 0.0, 2025-03-06 11:12:59.330
184.0, -32081.39176146886, -28943.49741262167, -35152.43204265023, -33548.046177392745, -6007.970095630896, -8467.489000259518, -41118.53732091634, -28591.79271361741, 0.076, 0.918, -0.366, 192.0, 0.0, 0.0, 0.0, 0.0, 0.0, 0.0, 0.0, 0.0, 0.0, 1.741281179330948E9, 0.0, 2025-03-06 11:12:59.330
185.0, -32084.00691557013, -28947.878354534907, -35151.6497315943, -33547.10740412562, -5988.904057610519, -8465.857322914282, -41116.16803600407, -28587.747047871002, 0.076, 0.918, -0.366, 192.0, 0.0, 0.0, 0.0, 0.0, 0.0, 0.0, 0.0, 0.0, 0.0, 1.741281179330971E9, 0.0, 2025-03-06 11:12:59.330
186.0, -32084.58806092597, -28956.327313939015, -35150.845068793904, -33550.50486928283, -6015.90496491253, -8472.182866595134, -41111.876501068655, -28575.23007097603, 0.076, 0.918, -0.366, 192.0, 0.0, 0.0, 0.0, 0.0, 0.0, 0.0, 0.0, 0.0, 0.0, 1.741281179330995E9, 0.0, 2025-03-06 11:12:59.330
187.0, -32081.145892279852, -28948.481851635202, -35148.65459783728, -33545.14045061355, -6025.516215028312, -8466.282006058933, -41105.103922498696, -28571.363219185263, 0.074, 0.916, -0.36, 192.0, 2.0, 80.0, 28.0, 160.0, 244.0, 192.0, 0.0, 0.0, 0.0, 1.741281179331023E9, 0.0, 2025-03-06 11:12:59.331
188.0, -32090.712438906725, -28951.097005736472, -35155.98597001862, -33544.87222968009, -6002.158642072516, -8463.86801765776, -41107.56261438878, -28581.89089082371, 0.074, 0.916, -0.36, 192.0, 0.0, 0.0, 0.0, 0.0, 0.0, 0.0, 0.0, 0.0, 0.0, 1.741281179331053E9, 0.0, 2025-03-06 11:12:59.331
189.0, -32093.21583428572, -28954.15919472685, -35158.824641564446, -33547.196811103444, -5971.357938213103, -8457.475418743541, -41110.11071325668, -28587.970565315554, 0.074, 0.916, -0.36, 192.0, 0.0, 0.0, 0.0, 0.0, 0.0, 0.0, 0.0, 0.0, 0.0, 1.74128117933108E9, 0.0, 2025-03-06 11:12:59.331
190.0, -32097.954404110245, -28962.250526219672, -35159.22697296464, -33548.82848844868, -6001.353979272125, -8454.72615417554, -41113.59758539171, -28588.12702752674, 0.074, 0.916, -0.36, 192.0, 0.0, 0.0, 0.0, 0.0, 0.0, 0.0, 0.0, 0.0, 0.0, 1.741281179331104E9, 0.0, 2025-03-06 11:12:59.331
191.0, -32095.205139542242, -28965.156252998862, -35155.538935129516, -33544.78282270227, -6027.237299351371, -8445.606642437773, -41113.59758539171, -28578.359315199774, 0.074, 0.916, -0.36, 192.0, 0.0, 0.0, 0.0, 0.0, 0.0, 0.0, 0.0, 0.0, 0.0, 1.741281179331128E9, 0.0, 2025-03-06 11:12:59.331
192.0, -32093.908738363833, -28964.21747973174, -35153.437871150716, -33541.38535754506, -6014.675618967488, -8447.081857571824, -41116.637422637636, -28585.42246644765, 0.074, 0.916, -0.36, 192.0, 0.0, 0.0, 0.0, 0.0, 0.0, 0.0, 0.0, 0.0, 0.0, 1.741281179331153E9, 0.0, 2025-03-06 11:12:59.331
193.0, -32093.43935173027, -28954.87445054942, -35156.097728740904, -33540.67010172249, -5989.552258199723, -8452.915662874659, -41115.36337320368, -28559.405035901673, 0.074, 0.916, -0.36, 192.0, 0.0, 0.0, 0.0, 0.0, 0.0, 0.0, 0.0, 0.0, 0.0, 1.741281179331177E9, 0.0, 2025-03-06 11:12:59.331
194.0, -32095.272194775607, -28953.645104604377, -35153.303760683986, -33535.70801445341, -6010.7640636878095, -8451.172226807144, -41108.456684166995, -28554.733521310514, 0.074, 0.916, -0.36, 192.0, 0.0, 0.0, 0.0, 0.0, 0.0, 0.0, 0.0, 0.0, 0.0, 1.741281179331204E9, 0.0, 2025-03-06 11:12:59.331
195.0, -32092.83585462998, -28953.198069715272, -35144.02778673504, -33523.32514802518, -6024.398627805546, -8431.927374831126, -41103.53930038682, -28582.09205652381, 0.074, 0.916, -0.36, 192.0, 0.0, 0.0, 0.0, 0.0, 0.0, 0.0, 0.0, 0.0, 0.0, 1.741281179331234E9, 0.0, 2025-03-06 11:12:59.331
196.0, -32086.77853188259, -28947.990113257187, -35135.86940000885, -33515.59144444364, -6020.799996948243, -8427.680543384617, -41097.70549508399, -28566.13291098272, 0.074, 0.916, -0.36, 192.0, 0.0, 0.0, 0.0, 0.0, 0.0, 0.0, 0.0, 0.0, 0.0, 1.741281179390649E9, 0.0, 2025-03-06 11:12:59.390
197.0, -32093.461703474728, -28950.515860380634, -35142.77608904554, -33520.2629590348, -5983.450231963424, -8433.916680087648, -41108.300221955804, -28583.723733869047, 0.082, 0.908, -0.362, 192.0, 2.0, 144.0, 28.0, 96.0, 244.0, 176.0, 0.0, 0.0, 0.0, 1.741281179390706E9, 0.0, 2025-03-06 11:12:59.390
198.0, -32100.43544774478, -28960.574145385523, -35144.45246987969, -33525.02388060378, -5988.769947143787, -8444.109075559269, -41109.440160923026, -28589.065800793865, 0.082, 0.908, -0.362, 192.0, 0.0, 0.0, 0.0, 0.0, 0.0, 0.0, 0.0, 0.0, 0.0, 1.741281179390733E9, 0.0, 2025-03-06 11:12:59.390
199.0, -32098.02145934361, -28961.512918652646, -35141.03265297802, -33523.436906747454, -6028.801921463242, -8443.57263369234, -41112.47999816895, -28606.969548102566, 0.082, 0.908, -0.362, 192.0, 0.0, 0.0, 0.0, 0.0, 0.0, 0.0, 0.0, 0.0, 0.0, 1.741281179390761E9, 0.0, 2025-03-06 11:12:59.390
200.0, -32090.421866228804, -28950.29234293608, -35133.25424590758, -33511.38931648604, -6022.699895226943, -8423.254897982466, -41114.670469125565, -28601.22514977755, 0.082, 0.908, -0.362, 192.0, 0.0, 0.0, 0.0, 0.0, 0.0, 0.0, 0.0, 0.0, 0.0, 1.741281179390785E9, 0.0, 2025-03-06 11:12:59.390
201.0, -32093.39464824136, -28951.05230224756, -35138.66336806576, -33522.22991254686, -5989.172278543982, -8427.85935734026, -41117.73265811594, -28583.209643746573, 0.082, 0.908, -0.362, 192.0, 0.0, 0.0, 0.0, 0.0, 0.0, 0.0, 0.0, 0.0, 0.0, 1.741281179390813E9, 0.0, 2025-03-06 11:12:59.390
202.0, -32085.05744755953, -28946.49254637868, -35134.61770231935, -33518.83244738966, -5999.7893571602535, -8426.09356952829, -41110.46834116797, -28578.80635008888, 0.082, 0.908, -0.362, 192.0, 0.0, 0.0, 0.0, 0.0, 0.0, 0.0, 0.0, 0.0, 0.0, 1.741281179390836E9, 0.0, 2025-03-06 11:12:59.390
203.0, -32083.40341846984, -28946.984284756698, -35134.99768197509, -33519.05596483421, -6032.109979642628, -8433.42494170963, -41107.74142834442, -28557.75100681198, 0.082, 0.908, -0.362, 192.0, 0.0, 0.0, 0.0, 0.0, 0.0, 0.0, 0.0, 0.0, 0.0, 1.741281179390866E9, 0.0, 2025-03-06 11:12:59.390
204.0, -32080.25182250164, -28938.20004918576, -35133.5448185855, -33516.77608689977, -6042.503540814346, -8436.218909766545, -41102.779341075344, -28549.346750896784, 0.082, 0.908, -0.362, 192.0, 0.0, 0.0, 0.0, 0.0, 0.0, 0.0, 0.0, 0.0, 0.0, 1.74128117939089E9, 0.0, 2025-03-06 11:12:59.390
205.0, -32069.67944737428, -28929.68403454829, -35129.43209760572, -33511.2105025304, -6016.016723634806, -8435.369543477243, -41112.32353595776, -28586.249480992497, 0.082, 0.908, -0.362, 192.0, 0.0, 0.0, 0.0, 0.0, 0.0, 0.0, 0.0, 0.0, 0.0, 1.741281179390917E9, 0.0, 2025-03-06 11:12:59.390
206.0, -32073.948630565243, -28941.68692132079, -35137.67989130973, -33521.000566601826, -5982.466755207391, -8435.280136499421, -41115.721001114965, -28583.522568168948, 0.082, 0.908, -0.362, 192.0, 0.0, 0.0, 0.0, 0.0, 0.0, 0.0, 0.0, 0.0, 0.0, 1.741281179390941E9, 0.0, 2025-03-06 11:12:59.390
207.0, -32083.179901025287, -28953.868622048933, -35144.78774604652, -33536.155049342524, -6023.0351713937725, -8441.896252858192, -41115.81040809279, -28590.652774650192, 0.082, 0.912, -0.364, 192.0, 2.0, 144.0, 28.0, 128.0, 244.0, 160.0, 0.0, 0.0, 0.0, 1.741281179390964E9, 0.0, 2025-03-06 11:12:59.390
208.0, -32074.06038928752, -28946.805470801053, -35137.366966887355, -33531.125906840076, -6047.6891455279765, -8438.43173246762, -41104.56748063177, -28573.441931419606, 0.082, 0.912, -0.364, 192.0, 0.0, 0.0, 0.0, 0.0, 0.0, 0.0, 0.0, 0.0, 0.0, 1.74128117939099E9, 0.0, 2025-03-06 11:12:59.390
209.0, -32070.171185752297, -28944.30207542206, -35138.86453376586, -33532.89169465205, -6018.542470758256, -8440.778665635427, -41109.37310568966, -28575.878271565234, 0.082, 0.912, -0.364, 192.0, 0.0, 0.0, 0.0, 0.0, 0.0, 0.0, 0.0, 0.0, 0.0, 1.741281179391018E9, 0.0, 2025-03-06 11:12:59.391
210.0, -32073.09926427594, -28946.090214978485, -35144.81009779097, -33535.14922084203, -5995.117842569094, -8446.835988382816, -41115.586890648236, -28582.09205652381, 0.082, 0.912, -0.364, 192.0, 0.0, 0.0, 0.0, 0.0, 0.0, 0.0, 0.0, 0.0, 0.0, 1.741281179391046E9, 0.0, 2025-03-06 11:12:59.391
211.0, -32088.36550573892, -28962.071712264027, -35150.219219949155, -33542.525296512285, -6014.608563734122, -8458.503598988485, -41116.16803600407, -28576.682934365625, 0.082, 0.912, -0.364, 192.0, 0.0, 0.0, 0.0, 0.0, 0.0, 0.0, 0.0, 0.0, 0.0, 1.741281179451495E9, 0.0, 2025-03-06 11:12:59.451
212.0, -32099.228453544198, -28976.332125226516, -35160.076339253945, -33552.36006407262, -6029.405418563535, -8464.359756035776, -41115.49748367041, -28563.383646414717, 0.082, 0.912, -0.364, 192.0, 0.0, 0.0, 0.0, 0.0, 0.0, 0.0, 0.0, 0.0, 0.0, 1.741281179451552E9, 0.0, 2025-03-06 11:12:59.451
213.0, -32101.106000078442, -28981.048343306586, -35164.25611546709, -33555.15403212953, -6015.8155579347085, -8462.504561245985, -41118.85024533871, -28584.55074841389, 0.082, 0.912, -0.364, 192.0, 0.0, 0.0, 0.0, 0.0, 0.0, 0.0, 0.0, 0.0, 0.0, 1.741281179451577E9, 0.0, 2025-03-06 11:12:59.451
214.0, -32097.30620352104, -28975.706276381767, -35158.86934505336, -33546.19098260295, -5997.241258292349, -8452.736848919016, -41116.771533104366, -28591.23392000603, 0.082, 0.912, -0.364, 192.0, 0.0, 0.0, 0.0, 0.0, 0.0, 0.0, 0.0, 0.0, 0.0, 1.741281179451605E9, 0.0, 2025-03-06 11:12:59.451
215.0, -32107.185674570286, -28985.943375342296, -35165.12783350085, -33553.142375128555, -6008.730054942376, -8467.86897991526, -41120.77249536187, -28581.913242568167, 0.082, 0.912, -0.364, 192.0, 0.0, 0.0, 0.0, 0.0, 0.0, 0.0, 0.0, 0.0, 0.0, 1.741281179451629E9, 0.0, 2025-03-06 11:12:59.451
216.0, -32109.64436646037, -28989.07261956604, -35169.70994111418, -33558.73031124238, -6034.456912810435, -8480.542419021418, -41124.125257030166, -28573.598393630793, 0.082, 0.912, -0.364, 192.0, 0.0, 0.0, 0.0, 0.0, 0.0, 0.0, 0.0, 0.0, 0.0, 1.741281179451653E9, 0.0, 2025-03-06 11:12:59.451
217.0, -32102.178883812296, -28979.349610727983, -35163.54085964452, -33550.66133149402, -6029.740694730365, -8473.076936373345, -41120.59368140622, -28580.50508266748, 0.084, 0.912, -0.364, 192.0, 2.0, 160.0, 28.0, 128.0, 244.0, 160.0, 0.0, 0.0, 0.0, 1.741281179451681E9, 0.0, 2025-03-06 11:12:59.451
218.0, -32101.597738456458, -28978.813168861052, -35162.95971428868, -33549.94607567145, -5990.491031466846, -8467.064317114868, -41117.57619590476, -28602.789771889424, 0.084, 0.912, -0.364, 192.0, 0.0, 0.0, 0.0, 0.0, 0.0, 0.0, 0.0, 0.0, 0.0, 1.741281179451711E9, 0.0, 2025-03-06 11:12:59.451
219.0, -32102.558863468035, -28983.21646251875, -35158.53406888653, -33548.604971004126, -6002.382159517069, -8459.062392599868, -41116.637422637636, -28603.50502771199, 0.084, 0.912, -0.364, 192.0, 0.0, 0.0, 0.0, 0.0, 0.0, 0.0, 0.0, 0.0, 0.0, 1.741281179451735E9, 0.0, 2025-03-06 11:12:59.451
220.0, -32103.676450690804, -28982.031820062617, -35157.93057178624, -33539.440755777454, -6025.873842939597, -8457.564825721363, -41118.91730057207, -28601.336908499827, 0.084, 0.912, -0.364, 192.0, 0.0, 0.0, 0.0, 0.0, 0.0, 0.0, 0.0, 0.0, 0.0, 1.741281179451763E9, 0.0, 2025-03-06 11:12:59.451
221.0, -32109.331442037994, -28985.49634045319, -35167.22889747965, -33549.00730240432, -6014.5862119896665, -8465.365584536265, -41125.62282390867, -28582.56144315737, 0.084, 0.912, -0.364, 192.0, 0.0, 0.0, 0.0, 0.0, 0.0, 0.0, 0.0, 0.0, 0.0, 1.741281179451786E9, 0.0, 2025-03-06 11:12:59.451
222.0, -32102.06712509002, -28985.5410439421, -35165.68662711223, -33551.10836638312, -5994.80491814672, -8465.812619425371, -41125.42165820857, -28593.938481085122, 0.084, 0.912, -0.364, 192.0, 0.0, 0.0, 0.0, 0.0, 0.0, 0.0, 0.0, 0.0, 0.0, 1.74128117945181E9, 0.0, 2025-03-06 11:12:59.451
223.0, -32106.425715258803, -28986.792741631598, -35162.26681021057, -33544.29108432425, -6000.079929838173, -8460.895235645203, -41116.30214647081, -28590.585719416824, 0.084, 0.912, -0.364, 192.0, 0.0, 0.0, 0.0, 0.0, 0.0, 0.0, 0.0, 0.0, 0.0, 1.741281179451834E9, 0.0, 2025-03-06 11:12:59.451
224.0, -32105.01755535812, -28990.257262022173, -35159.85282180939, -33544.35813955762, -6024.95742141693, -8458.302433288389, -41117.397381949115, -28570.98323952952, 0.084, 0.912, -0.364, 192.0, 0.0, 0.0, 0.0, 0.0, 0.0, 0.0, 0.0, 0.0, 0.0, 1.741281179451858E9, 0.0, 2025-03-06 11:12:59.451
225.0, -32095.227491286696, -28981.49537819569, -35151.02388274955, -33541.25124707833, -6025.627973750588, -8453.474456486041, -41115.94451855952, -28567.831643561323, 0.084, 0.912, -0.364, 192.0, 0.0, 0.0, 0.0, 0.0, 0.0, 0.0, 0.0, 0.0, 0.0, 1.741281179451888E9, 0.0, 2025-03-06 11:12:59.451
226.0, -32098.759066910636, -28981.987116573706, -35158.86934505336, -33549.87902043808, -5996.727168169877, -8457.654232699184, -41124.5052366859, -28576.526472154437, 0.084, 0.912, -0.364, 192.0, 0.0, 0.0, 0.0, 0.0, 0.0, 0.0, 0.0, 0.0, 0.0, 1.74128117951114E9, 0.0, 2025-03-06 11:12:59.511
227.0, -32105.01755535812, -28984.53521544161, -35162.62443812185, -33557.322151341694, -5996.5036507253235, -8466.416116525665, -41121.71126862899, -28557.6392480897, 0.08600000000000001, 0.918, -0.36, 192.0, 2.0, 176.0, 28.0, 176.0, 244.0, 192.0, 0.0, 0.0, 0.0, 1.741281179511185E9, 0.0, 2025-03-06 11:12:59.511
228.0, -32106.246901303162, -28980.914232839852, -35160.32220844295, -33553.008264661825, -6025.6726772394995, -8461.275215300944, -41115.89981507061, -28566.64700110519, 0.08600000000000001, 0.918, -0.36, 192.0, 0.0, 0.0, 0.0, 0.0, 0.0, 0.0, 0.0, 0.0, 0.0, 1.741281179511212E9, 0.0, 2025-03-06 11:12:59.511
229.0, -32103.899968135356, -28976.82386360453, -35164.7478538451, -33554.483479795876, -6027.706685984932, -8459.509427488974, -41119.766666861375, -28573.732504097523, 0.08600000000000001, 0.918, -0.36, 192.0, 0.0, 0.0, 0.0, 0.0, 0.0, 0.0, 0.0, 0.0, 0.0, 1.741281179511241E9, 0.0, 2025-03-06 11:12:59.511
230.0, -32093.43935173027, -28968.10668326696, -35159.13756598682, -33551.667159994504, -6006.986618874863, -8456.022555353948, -41122.24771049592, -28593.111466540275, 0.08600000000000001, 0.918, -0.36, 192.0, 0.0, 0.0, 0.0, 0.0, 0.0, 0.0, 0.0, 0.0, 0.0, 1.741281179511265E9, 0.0, 2025-03-06 11:12:59.511
231.0, -32092.098247062953, -28968.129035011418, -35157.95292353069, -33552.0694913947, -5995.050787335728, -8453.988546608514, -41118.96200406099, -28575.542995398402, 0.08600000000000001, 0.918, -0.36, 192.0, 0.0, 0.0, 0.0, 0.0, 0.0, 0.0, 0.0, 0.0, 0.0, 1.741281179511288E9, 0.0, 2025-03-06 11:12:59.511
232.0, -32092.768799396614, -28969.805415845563, -35158.24349620861, -33552.13654662807, -6022.588136504667, -8451.61926169625, -41119.58785290574, -28568.435140661615, 0.08600000000000001, 0.918, -0.36, 192.0, 0.0, 0.0, 0.0, 0.0, 0.0, 0.0, 0.0, 0.0, 0.0, 1.741281179511313E9, 0.0, 2025-03-06 11:12:59.511
233.0, -32087.404380727337, -28957.847232561977, -35155.449528151694, -33545.43102329147, -6036.513273300323, -8450.881654129225, -41118.47026568297, -28567.474015650037, 0.08600000000000001, 0.918, -0.36, 192.0, 0.0, 0.0, 0.0, 0.0, 0.0, 0.0, 0.0, 0.0, 0.0, 1.74128117951134E9, 0.0, 2025-03-06 11:12:59.511
234.0, -32081.883499846877, -28949.24181094668, -35156.00832176308, -33541.07243312269, -6013.580383489178, -8453.34034601931, -41124.594643663724, -28557.594544600794, 0.08600000000000001, 0.918, -0.36, 192.0, 0.0, 0.0, 0.0, 0.0, 0.0, 0.0, 0.0, 0.0, 0.0, 1.741281179511363E9, 0.0, 2025-03-06 11:12:59.511
235.0, -32086.01857257111, -28954.427415660313, -35164.300818956, -33551.84597395015, -5994.4472902354355, -8466.058488614379, -41133.73650714594, -28554.040617232396, 0.08600000000000001, 0.918, -0.36, 192.0, 0.0, 0.0, 0.0, 0.0, 0.0, 0.0, 0.0, 0.0, 0.0, 1.741281179511392E9, 0.0, 2025-03-06 11:12:59.511
236.0, -32089.326630750496, -28962.5858023865, -35164.703150356196, -33556.67395075249, -6023.817482449709, -8469.791229938415, -41146.18642880755, -28598.74410614301, 0.08600000000000001, 0.918, -0.36, 192.0, 0.0, 0.0, 0.0, 0.0, 0.0, 0.0, 0.0, 0.0, 0.0, 1.741281179511416E9, 0.0, 2025-03-06 11:12:59.511
237.0, -32082.822273114, -28957.62371511742, -35155.62834210734, -33544.87222968009, -6036.557976789234, -8455.933148376125, -41145.024138095876, -28594.139646785217, 0.084, 0.92, -0.362, 192.0, 2.0, 160.0, 28.0, 192.0, 244.0, 176.0, 0.0, 0.0, 0.0, 1.741281179511439E9, 0.0, 2025-03-06 11:12:59.511
238.0, -32078.195462011754, -28956.081444750005, -35149.81688854896, -33545.9674651584, -6023.951592916441, -8463.15276183519, -41143.817143895285, -28592.150341528697, 0.084, 0.92, -0.362, 192.0, 0.0, 0.0, 0.0, 0.0, 0.0, 0.0, 0.0, 0.0, 0.0, 1.741281179511465E9, 0.0, 2025-03-06 11:12:59.511
239.0, -32078.374275967395, -28957.377845928415, -35152.14146997231, -33544.40284304653, -6001.309275783215, -8466.706689203584, -41142.565446205794, -28606.00842309099, 0.084, 0.92, -0.362, 192.0, 0.0, 0.0, 0.0, 0.0, 0.0, 0.0, 0.0, 0.0, 0.0, 1.741281179511489E9, 0.0, 2025-03-06 11:12:59.511
240.0, -32095.406305242337, -28971.079465279516, -35160.568077631964, -33550.99660766085, -6014.452101522935, -8478.173134109156, -41145.359414262704, -28598.721754398557, 0.084, 0.92, -0.362, 192.0, 0.0, 0.0, 0.0, 0.0, 0.0, 0.0, 0.0, 0.0, 0.0, 1.741281179511522E9, 0.0, 2025-03-06 11:12:59.511
241.0, -32099.139046566375, -28972.39821820238, -35159.316379942466, -33549.566096015704, -6041.095380913661, -8482.285855088932, -41140.754954904914, -28583.455512935583, 0.084, 0.92, -0.362, 192.0, 0.0, 0.0, 0.0, 0.0, 0.0, 0.0, 0.0, 0.0, 0.0, 1.741281179570773E9, 0.0, 2025-03-06 11:12:59.570
242.0, -32091.762970896125, -28966.653819877367, -35152.20852520568, -33547.10740412562, -6031.819406964709, -8479.044852142913, -41128.81912336578, -28570.26798370695, 0.084, 0.92, -0.362, 192.0, 0.0, 0.0, 0.0, 0.0, 0.0, 0.0, 0.0, 0.0, 0.0, 1.74128117957083E9, 0.0, 2025-03-06 11:12:59.570
243.0, -32094.623994186404, -28974.812206603554, -35158.91404854227, -33553.1200233841, -5982.310292996203, -8486.577390024351, -41132.75303038991, -28581.04152453441, 0.084, 0.92, -0.362, 192.0, 0.0, 0.0, 0.0, 0.0, 0.0, 0.0, 0.0, 0.0, 0.0, 1.741281179570859E9, 0.0, 2025-03-06 11:12:59.570
244.0, -32098.692011677267, -28979.707238639265, -35153.236705450625, -33544.02286339079, -6001.242220549849, -8484.811602212381, -41127.8579983542, -28569.195099973098, 0.084, 0.92, -0.362, 192.0, 0.0, 0.0, 0.0, 0.0, 0.0, 0.0, 0.0, 0.0, 0.0, 1.741281179570883E9, 0.0, 2025-03-06 11:12:59.570
245.0, -32102.335346023483, -28978.299078738582, -35146.77705130304, -33532.22114231839, -6027.349058073647, -8472.875770673249, -41123.275890740864, -28577.152320999186, 0.084, 0.92, -0.362, 192.0, 0.0, 0.0, 0.0, 0.0, 0.0, 0.0, 0.0, 0.0, 0.0, 1.741281179570911E9, 0.0, 2025-03-06 11:12:59.570
246.0, -32102.223587301207, -28979.416665961347, -35149.950999015695, -33534.03163361927, -6010.674656709988, -8475.58033175234, -41129.064992554784, -28574.358352942272, 0.084, 0.92, -0.362, 192.0, 0.0, 0.0, 0.0, 0.0, 0.0, 0.0, 0.0, 0.0, 0.0, 1.741281179570935E9, 0.0, 2025-03-06 11:12:59.570
247.0, -32092.50057846315, -28978.746113627687, -35151.895600783304, -33540.848915678136, -5982.3549964851145, -8483.649311500707, -41133.691803657035, -28597.13478054223, 0.08, 0.916, -0.364, 192.0, 2.0, 128.0, 28.0, 160.0, 244.0, 160.0, 0.0, 0.0, 0.0, 1.741281179570959E9, 0.0, 2025-03-06 11:12:59.570
248.0, -32092.947613352255, -28978.88022409442, -35147.358196658875, -33534.8139446752, -5994.089662324151, -8466.304357803388, -41127.545073931826, -28587.367068215262, 0.08, 0.916, -0.364, 192.0, 0.0, 0.0, 0.0, 0.0, 0.0, 0.0, 0.0, 0.0, 0.0, 1.741281179570985E9, 0.0, 2025-03-06 11:12:59.570
249.0, -32098.624956443902, -28982.635317162913, -35148.92281877075, -33538.25611332132, -6018.564822502712, -8456.536645476419, -41122.225358751464, -28555.89581202219, 0.08, 0.916, -0.364, 192.0, 0.0, 0.0, 0.0, 0.0, 0.0, 0.0, 0.0, 0.0, 0.0, 1.741281179571012E9, 0.0, 2025-03-06 11:12:59.571
250.0, -32093.662869174826, -28972.64408739139, -35144.65363557979, -33525.26974979279, -6026.678505739988, -8440.890424357704, -41112.81527433578, -28551.69368406459, 0.08, 0.916, -0.364, 192.0, 0.0, 0.0, 0.0, 0.0, 0.0, 0.0, 0.0, 0.0, 0.0, 1.741281179571041E9, 0.0, 2025-03-06 11:12:59.571
251.0, -32092.053543574042, -28970.699485623776, -35153.46022289518, -33526.20852305991, -5991.85448787862, -8443.505578458975, -41118.89494882762, -28556.499309122482, 0.08, 0.916, -0.364, 192.0, 0.0, 0.0, 0.0, 0.0, 0.0, 0.0, 0.0, 0.0, 0.0, 1.741281179571065E9, 0.0, 2025-03-06 11:12:59.571
252.0, -32095.36160175343, -28979.6401834059, -35158.93640028672, -33545.87805818058, -5976.409432460003, -8455.776686164938, -41122.44887619602, -28529.677215776115, 0.08, 0.916, -0.364, 192.0, 0.0, 0.0, 0.0, 0.0, 0.0, 0.0, 0.0, 0.0, 0.0, 1.741281179571089E9, 0.0, 2025-03-06 11:12:59.571
253.0, -32099.65313668885, -28983.998773574684, -35159.584600875925, -33543.419366290495, -6021.515252770812, -8448.53472096142, -41121.08541978424, -28546.12809969522, 0.08, 0.916, -0.364, 192.0, 0.0, 0.0, 0.0, 0.0, 0.0, 0.0, 0.0, 0.0, 0.0, 1.741281179571113E9, 0.0, 2025-03-06 11:12:59.571
254.0, -32091.561805196026, -28972.8899565804, -35154.17547871774, -33529.74009868385, -6034.501616299345, -8436.151854533178, -41120.973661061966, -28574.850091320288, 0.08, 0.916, -0.364, 192.0, 0.0, 0.0, 0.0, 0.0, 0.0, 0.0, 0.0, 0.0, 0.0, 1.741281179571136E9, 0.0, 2025-03-06 11:12:59.571
255.0, -32089.7736656396, -28968.6878286228, -35160.65748460979, -33537.697319709936, -6003.835022906665, -8444.421999981643, -41130.36139373319, -28575.721809354047, 0.08, 0.916, -0.364, 192.0, 0.0, 0.0, 0.0, 0.0, 0.0, 0.0, 0.0, 0.0, 0.0, 1.741281179571163E9, 0.0, 2025-03-06 11:12:59.571
0.0, -32092.612337185426, -28972.197052502284, -35164.01024627808, -33544.51460176881, -5992.7485576568315, -8449.540549461908, -41129.15439953261, -28562.60133535878, 0.08, 0.916, -0.364, 192.0, 0.0, 0.0, 0.0, 0.0, 0.0, 0.0, 0.0, 0.0, 0.0, 1.741281179630984E9, 0.0, 2025-03-06 11:12:59.630
1.0, -32099.809598900036, -28981.651840406877, -35169.41936843626, -33553.1200233841, -6026.47734003989, -8456.514293731963, -41130.65196641111, -28563.78597781491, 0.078, 0.918, -0.356, 192.0, 2.0, 112.0, 28.0, 176.0, 244.0, 224.0, 0.0, 0.0, 0.0, 1.741281179631025E9, 0.0, 2025-03-06 11:12:59.631
2.0, -32099.20610179974, -28981.562433429055, -35167.72063585766, -33553.67881699548, -6045.543378060267, -8455.1955408091, -41125.84634135322, -28560.880251035724, 0.078, 0.918, -0.356, 192.0, 0.0, 0.0, 0.0, 0.0, 0.0, 0.0, 0.0, 0.0, 0.0, 1.741281179631058E9, 0.0, 2025-03-06 11:12:59.631
3.0, -32089.952479595242, -28974.052247292075, -35168.21237423568, -33551.51069778332, -6023.5045580273345, -8454.122657075246, -41125.84634135322, -28560.656733591168, 0.078, 0.918, -0.356, 192.0, 0.0, 0.0, 0.0, 0.0, 0.0, 0.0, 0.0, 0.0, 0.0, 1.741281179631081E9, 0.0, 2025-03-06 11:12:59.631
4.0, -32101.150703567353, -28983.372924729938, -35181.44460695322, -33568.98976194737, -5984.7019296529215, -8470.908817161182, -41137.80452463681, -28564.27771619293, 0.078, 0.918, -0.356, 192.0, 0.0, 0.0, 0.0, 0.0, 0.0, 0.0, 0.0, 0.0, 0.0, 1.741281179631109E9, 0.0, 2025-03-06 11:12:59.631
5.0, -32105.665755947324, -28983.261166007658, -35176.25900223959, -33565.25702062333, -6028.466645296413, -8474.01570964047, -41141.1125828162, -28562.243707447495, 0.078, 0.918, -0.356, 192.0, 0.0, 0.0, 0.0, 0.0, 0.0, 0.0, 0.0, 0.0, 0.0, 1.741281179631133E9, 0.0, 2025-03-06 11:12:59.631
6.0, -32103.005898357143, -28974.07459903653, -35169.933458558735, -33559.24440136486, -6050.48311358489, -8479.044852142913, -41142.565446205794, -28583.880196080234, 0.078, 0.918, -0.356, 192.0, 0.0, 0.0, 0.0, 0.0, 0.0, 0.0, 0.0, 0.0, 0.0, 1.741281179631156E9, 0.0, 2025-03-06 11:12:59.631
7.0, -32091.003011584642, -28968.55371815607, -35165.64192362332, -33557.277447852786, -6030.321840086203, -8482.621131255763, -41132.66362341209, -28570.379742429228, 0.078, 0.918, -0.356, 192.0, 0.0, 0.0, 0.0, 0.0, 0.0, 0.0, 0.0, 0.0, 0.0, 1.741281179631179E9, 0.0, 2025-03-06 11:12:59.631
8.0, -32083.604584169938, -28972.375866457925, -35168.882926569335, -33561.59133453266, -6001.3763310165805, -8490.131317392745, -41135.41288798009, -28564.970620271044, 0.078, 0.918, -0.356, 192.0, 0.0, 0.0, 0.0, 0.0, 0.0, 0.0, 0.0, 0.0, 0.0, 1.741281179631206E9, 0.0, 2025-03-06 11:12:59.631
9.0, -32097.127389565398, -28983.998773574684, -35170.33578995893, -33559.19969787594, -6018.073084124695, -8491.383015082243, -41140.03969908234, -28577.487597166015, 0.078, 0.918, -0.356, 192.0, 0.0, 0.0, 0.0, 0.0, 0.0, 0.0, 0.0, 0.0, 0.0, 1.74128117963123E9, 0.0, 2025-03-06 11:12:59.631
10.0, -32090.421866228804, -28974.72279962573, -35159.942228787215, -33549.02965414878, -6048.583215306189, -8483.068166144869, -41129.914358844086, -28557.41573064515, 0.078, 0.918, -0.356, 192.0, 0.0, 0.0, 0.0, 0.0, 0.0, 0.0, 0.0, 0.0, 0.0, 1.741281179631257E9, 0.0, 2025-03-06 11:12:59.631
11.0, -32084.20808127023, -28969.40308444537, -35156.25419095209, -33544.58165700217, -6034.725133743898, -8486.711500491083, -41132.708326901, -28576.12414075424, 0.084, 0.918, -0.356, 192.0, 2.0, 160.0, 28.0, 176.0, 244.0, 224.0, 0.0, 0.0, 0.0, 1.741281179631284E9, 0.0, 2025-03-06 11:12:59.631
12.0, -32080.050656801544, -28973.091122280493, -35151.35915891638, -33539.999549388835, -5997.9118106260075, -8476.58616025283, -41133.22241702347, -28590.675126394646, 0.084, 0.918, -0.356, 192.0, 0.0, 0.0, 0.0, 0.0, 0.0, 0.0, 0.0, 0.0, 0.0, 1.74128117963131E9, 0.0, 2025-03-06 11:12:59.631
13.0, -32088.20904352773, -28981.405971217868, -35147.514658870066, -33527.8625521496, -6009.311200298214, -8463.309224046377, -41128.77441987686, -28589.423428705148, 0.084, 0.918, -0.356, 192.0, 0.0, 0.0, 0.0, 0.0, 0.0, 0.0, 0.0, 0.0, 0.0, 1.741281179631334E9, 0.0, 2025-03-06 11:12:59.631
14.0, -32087.426732471795, -28976.77916011562, -35137.43402212072, -33518.161895056, -6037.854377967641, -8454.457933242074, -41118.40321044961, -28563.674219092634, 0.084, 0.918, -0.356, 192.0, 0.0, 0.0, 0.0, 0.0, 0.0, 0.0, 0.0, 0.0, 0.0, 1.741281179631362E9, 0.0, 2025-03-06 11:12:59.631
15.0, -32086.219738271207, -28972.465273435748, -35132.85191450738, -33511.2105025304, -6023.370447560603, -8454.033250097424, -41116.12333251516, -28566.17761447163, 0.084, 0.918, -0.356, 192.0, 0.0, 0.0, 0.0, 0.0, 0.0, 0.0, 0.0, 0.0, 0.0, 1.741281179691348E9, 0.0, 2025-03-06 11:12:59.691
16.0, -32085.88446210438, -28970.855947834963, -35133.455411607676, -33511.56813044169, -5992.5697437011895, -8453.04977334139, -41120.16899826157, -28566.08820749381, 0.084, 0.918, -0.356, 192.0, 0.0, 0.0, 0.0, 0.0, 0.0, 0.0, 0.0, 0.0, 0.0, 1.7412811796914E9, 0.0, 2025-03-06 11:12:59.691
17.0, -32085.973869082198, -28981.7412473847, -35135.332958141924, -33522.22991254686, -6003.611505462111, -8460.448200756098, -41121.01836455087, -28546.016340972943, 0.084, 0.918, -0.356, 192.0, 0.0, 0.0, 0.0, 0.0, 0.0, 0.0, 0.0, 0.0, 0.0, 1.741281179691434E9, 0.0, 2025-03-06 11:12:59.691
18.0, -32086.599717926947, -28987.396238731893, -35138.77512678804, -33534.3669097861, -6034.501616299345, -8466.550226992396, -41119.14081801663, -28547.335093895806, 0.084, 0.918, -0.356, 192.0, 0.0, 0.0, 0.0, 0.0, 0.0, 0.0, 0.0, 0.0, 0.0, 1.741281179691458E9, 0.0, 2025-03-06 11:12:59.691
19.0, -32088.9242993503, -28984.31169799706, -35144.58658034642, -33532.73523244086, -6027.796092962753, -8452.736848919016, -41126.4051349646, -28578.18050124413, 0.084, 0.918, -0.356, 192.0, 0.0, 0.0, 0.0, 0.0, 0.0, 0.0, 0.0, 0.0, 0.0, 1.741281179691486E9, 0.0, 2025-03-06 11:12:59.691
20.0, -32088.7231336502, -28978.857872349963, -35146.173554202745, -33532.22114231839, -6003.700912439932, -8449.04881108389, -41128.12621928766, -28580.66154487867, 0.084, 0.918, -0.356, 192.0, 0.0, 0.0, 0.0, 0.0, 0.0, 0.0, 0.0, 0.0, 0.0, 1.741281179691512E9, 0.0, 2025-03-06 11:12:59.691
21.0, -32095.78628489808, -28984.60227067498, -35153.05789149498, -33539.440755777454, -6000.459909493913, -8451.015764595957, -41131.27781525586, -28571.318515696352, 0.09, 0.92, -0.356, 192.0, 2.0, 208.0, 28.0, 192.0, 244.0, 224.0, 0.0, 0.0, 0.0, 1.741281179691535E9, 0.0, 2025-03-06 11:12:59.691
22.0, -32095.562767453524, -28988.379715487925, -35156.07537699644, -33547.24151459235, -6051.600700807656, -8455.597872209295, -41123.11942852967, -28547.98329448501, 0.09, 0.92, -0.356, 192.0, 0.0, 0.0, 0.0, 0.0, 0.0, 0.0, 0.0, 0.0, 0.0, 1.741281179691562E9, 0.0, 2025-03-06 11:12:59.691
23.0, -32093.528758708093, -28982.74707588519, -35154.44369965121, -33540.893619167044, -6053.411192108535, -8448.422962239143, -41123.342945974226, -28581.309745467872, 0.09, 0.92, -0.356, 192.0, 0.0, 0.0, 0.0, 0.0, 0.0, 0.0, 0.0, 0.0, 0.0, 1.74128117969159E9, 0.0, 2025-03-06 11:12:59.691
24.0, -32084.00691557013, -28968.97840130072, -35146.732347814126, -33528.86838065009, -6023.705723727432, -8429.602793407774, -41122.650041896115, -28586.85297809279, 0.09, 0.92, -0.356, 192.0, 0.0, 0.0, 0.0, 0.0, 0.0, 0.0, 0.0, 0.0, 0.0, 1.741281179691614E9, 0.0, 2025-03-06 11:12:59.691
25.0, -32094.892215119868, -28977.82969210502, -35160.210449720675, -33547.15210761453, -5996.034264091762, -8442.499749958486, -41128.19327452103, -28585.8471495923, 0.09, 0.92, -0.356, 192.0, 0.0, 0.0, 0.0, 0.0, 0.0, 0.0, 0.0, 0.0, 0.0, 1.741281179691641E9, 0.0, 2025-03-06 11:12:59.691
26.0, -32100.25663378914, -28984.691677652798, -35162.020941021554, -33560.36198858762, -6043.263500125826, -8442.566805191851, -41123.074725040766, -28572.927841297133, 0.09, 0.92, -0.356, 192.0, 0.0, 0.0, 0.0, 0.0, 0.0, 0.0, 0.0, 0.0, 0.0, 1.741281179691666E9, 0.0, 2025-03-06 11:12:59.691
27.0, -32100.949537867255, -28981.763599129154, -35164.904316056294, -33572.81191024923, -6042.48118906989, -8449.38408725072, -41122.04654479582, -28559.427387646127, 0.09, 0.92, -0.356, 192.0, 0.0, 0.0, 0.0, 0.0, 0.0, 0.0, 0.0, 0.0, 0.0, 1.741281179691689E9, 0.0, 2025-03-06 11:12:59.691
28.0, -32093.68522091928, -28967.525537911122, -35161.551554387996, -33563.06654966671, -6027.505520284834, -8450.881654129225, -41121.04071629533, -28565.909393538168, 0.09, 0.92, -0.356, 192.0, 0.0, 0.0, 0.0, 0.0, 0.0, 0.0, 0.0, 0.0, 0.0, 1.741281179691713E9, 0.0, 2025-03-06 11:12:59.691
29.0, -32084.856281859433, -28957.62371511742, -35156.07537699644, -33548.82848844868, -6000.795185660742, -8446.970098849548, -41117.50914067139, -28575.408884931672, 0.09, 0.92, -0.356, 192.0, 0.0, 0.0, 0.0, 0.0, 0.0, 0.0, 0.0, 0.0, 0.0, 1.741281179691738E9, 0.0, 2025-03-06 11:12:59.691
30.0, -32093.975793597197, -28966.564412899545, -35161.73036834364, -33554.327017584685, -6024.845662694653, -8453.67562218614, -41119.38668720564, -28577.75581809948, 0.09, 0.92, -0.356, 192.0, 0.0, 0.0, 0.0, 0.0, 0.0, 0.0, 0.0, 0.0, 0.0, 1.741281179751629E9, 0.0, 2025-03-06 11:12:59.751
31.0, -32085.191558026265, -28954.941505782786, -35148.542839115005, -33545.095747124644, -6059.021479966817, -8446.81363663836, -41107.16028298858, -28560.254402190974, 0.084, 0.918, -0.356, 192.0, 2.0, 160.0, 28.0, 176.0, 244.0, 224.0, 0.0, 0.0, 0.0, 1.74128117975168E9, 0.0, 2025-03-06 11:12:59.751
32.0, -32081.92820333579, -28949.800604558066, -35146.017091991554, -33545.07339538019, -6031.3723720756025, -8450.658136684673, -41101.70645734149, -28554.59941084378, 0.084, 0.918, -0.356, 192.0, 0.0, 0.0, 0.0, 0.0, 0.0, 0.0, 0.0, 0.0, 0.0, 1.741281179751718E9, 0.0, 2025-03-06 11:12:59.751
33.0, -32081.9729068247, -28948.97359001322, -35150.152164715786, -33549.94607567145, -5992.99442684584, -8459.263558299966, -41105.90858529909, -28554.666466077146, 0.084, 0.918, -0.356, 192.0, 0.0, 0.0, 0.0, 0.0, 0.0, 0.0, 0.0, 0.0, 0.0, 1.741281179751742E9, 0.0, 2025-03-06 11:12:59.751
34.0, -32084.521005692604, -28946.7831190566, -35143.781917546024, -33542.01120638981, -6018.184842846971, -8459.129447833235, -41100.81238756328, -28553.437120132105, 0.084, 0.918, -0.356, 192.0, 0.0, 0.0, 0.0, 0.0, 0.0, 0.0, 0.0, 0.0, 0.0, 1.741281179751765E9, 0.0, 2025-03-06 11:12:59.751
35.0, -32086.532662693582, -28949.152403968863, -35145.391243146805, -33541.27359882279, -6041.654174525043, -8459.10709608878, -41111.02713477935, -28568.61395461726, 0.084, 0.918, -0.356, 192.0, 0.0, 0.0, 0.0, 0.0, 0.0, 0.0, 0.0, 0.0, 0.0, 1.741281179751793E9, 0.0, 2025-03-06 11:12:59.751
36.0, -32087.806712127534, -28949.666494091332, -35150.26392343806, -33545.654540736025, -6025.3821045615805, -8466.10319210329, -41118.26909998287, -28579.40984718917, 0.084, 0.918, -0.356, 192.0, 0.0, 0.0, 0.0, 0.0, 0.0, 0.0, 0.0, 0.0, 0.0, 1.741281179751821E9, 0.0, 2025-03-06 11:12:59.751
37.0, -32077.25668874463, -28935.696653806768, -35138.395147132294, -33534.478668508375, -6001.398682761036, -8464.538569991419, -41111.6529836241, -28571.497329651993, 0.084, 0.918, -0.356, 192.0, 0.0, 0.0, 0.0, 0.0, 0.0, 0.0, 0.0, 0.0, 0.0, 1.741281179751845E9, 0.0, 2025-03-06 11:12:59.751
38.0, -32080.631802157382, -28938.758842797142, -35137.38931863181, -33536.19975283143, -6016.5755172461895, -8472.29462531741, -41108.07670451125, -28542.484765349003, 0.084, 0.918, -0.356, 192.0, 0.0, 0.0, 0.0, 0.0, 0.0, 0.0, 0.0, 0.0, 0.0, 1.741281179751874E9, 0.0, 2025-03-06 11:12:59.751
39.0, -32082.084665546976, -28942.69274982128, -35137.702243054184, -33539.95484589993, -6045.453971082446, -8475.312110818877, -41108.00964927788, -28557.88511727871, 0.084, 0.918, -0.356, 192.0, 0.0, 0.0, 0.0, 0.0, 0.0, 0.0, 0.0, 0.0, 0.0, 1.741281179751899E9, 0.0, 2025-03-06 11:12:59.751
40.0, -32071.400531697338, -28931.002787471152, -35125.051155692476, -33524.35332827012, -6041.542415802767, -8453.452104741586, -41102.55582363079, -28586.361239714774, 0.084, 0.918, -0.356, 192.0, 0.0, 0.0, 0.0, 0.0, 0.0, 0.0, 0.0, 0.0, 0.0, 1.741281179751926E9, 0.0, 2025-03-06 11:12:59.751
41.0, -32069.858261329922, -28932.96974098322, -35123.55358881397, -33530.09772659513, -5996.660112936511, -8453.005069852481, -41108.9037190561, -28586.070667036853, 0.082, 0.916, -0.362, 192.0, 2.0, 144.0, 28.0, 160.0, 244.0, 176.0, 0.0, 0.0, 0.0, 1.741281179751949E9, 0.0, 2025-03-06 11:12:59.751
42.0, -32076.16145326632, -28936.590723584977, -35124.24649289209, -33532.511714996304, -5999.856412393619, -8459.95646237808, -41110.401285934604, -28578.582832644326, 0.082, 0.916, -0.362, 192.0, 0.0, 0.0, 0.0, 0.0, 0.0, 0.0, 0.0, 0.0, 0.0, 1.741281179751976E9, 0.0, 2025-03-06 11:12:59.751
43.0, -32081.056485302033, -28936.322502651514, -35122.95009171368, -33530.38829927305, -6038.077895412194, -8460.358793778276, -41106.24386146592, -28574.961850042564, 0.082, 0.916, -0.362, 192.0, 0.0, 0.0, 0.0, 0.0, 0.0, 0.0, 0.0, 0.0, 0.0, 1.741281179752001E9, 0.0, 2025-03-06 11:12:59.752
44.0, -32082.889328347366, -28942.089252720983, -35123.64299579179, -33536.49032550935, -6035.328630844192, -8458.257729799478, -41099.98537301843, -28552.632457331714, 0.082, 0.916, -0.362, 192.0, 0.0, 0.0, 0.0, 0.0, 0.0, 0.0, 0.0, 0.0, 0.0, 1.741281179752025E9, 0.0, 2025-03-06 11:12:59.752
45.0, -32078.01664805611, -28938.311807908038, -35122.70422252467, -33534.3669097861, -6008.551240986734, -8454.524988475441, -41094.12921597114, -28555.381721899717, 0.082, 0.916, -0.362, 192.0, 0.0, 0.0, 0.0, 0.0, 0.0, 0.0, 0.0, 0.0, 0.0, 1.741281179811938E9, 0.0, 2025-03-06 11:12:59.811
46.0, -32083.604584169938, -28945.710235322746, -35125.90052198178, -33532.28819755175, -5988.077043065673, -8446.701877916084, -41099.56068987378, -28586.22712924804, 0.082, 0.916, -0.362, 192.0, 0.0, 0.0, 0.0, 0.0, 0.0, 0.0, 0.0, 0.0, 0.0, 1.741281179811994E9, 0.0, 2025-03-06 11:12:59.811
47.0, -32091.695915662756, -28954.248601704672, -35128.76154527206, -33540.53599125576, -6017.246069579848, -8440.085761557313, -41093.23514619293, -28548.117404951743, 0.082, 0.916, -0.362, 192.0, 0.0, 0.0, 0.0, 0.0, 0.0, 0.0, 0.0, 0.0, 0.0, 1.741281179812022E9, 0.0, 2025-03-06 11:12:59.812
48.0, -32098.624956443902, -28959.30009595157, -35138.93158899922, -33555.310494340716, -6026.387933062069, -8443.460874970064, -41097.28081193934, -28549.302047407873, 0.082, 0.916, -0.362, 192.0, 0.0, 0.0, 0.0, 0.0, 0.0, 0.0, 0.0, 0.0, 0.0, 1.74128117981205E9, 0.0, 2025-03-06 11:12:59.812
49.0, -32096.7250581652, -28961.132938996907, -35143.46899312365, -33551.533049527774, -6007.992447375352, -8434.944860332593, -41104.679239354045, -28585.288355980916, 0.082, 0.916, -0.362, 192.0, 0.0, 0.0, 0.0, 0.0, 0.0, 0.0, 0.0, 0.0, 0.0, 1.741281179812074E9, 0.0, 2025-03-06 11:12:59.812
50.0, -32090.64538367336, -28962.719912853234, -35146.24060943611, -33548.89554368205, -5986.780641887265, -8428.57461316283, -41101.21471896347, -28567.786940072412, 0.082, 0.916, -0.362, 192.0, 0.0, 0.0, 0.0, 0.0, 0.0, 0.0, 0.0, 0.0, 0.0, 1.741281179812104E9, 0.0, 2025-03-06 11:12:59.812
51.0, -32089.907776106334, -28959.836537818497, -35143.6925105682, -33548.381453559574, -6015.726150956888, -8429.133406774212, -41107.78613183333, -28581.33209721233, 0.08600000000000001, 0.912, -0.362, 192.0, 2.0, 176.0, 28.0, 128.0, 244.0, 176.0, 0.0, 0.0, 0.0, 1.741281179812127E9, 0.0, 2025-03-06 11:12:59.812
52.0, -32089.661906917325, -28954.472119149224, -35148.14050771481, -33551.26482859431, -6034.05458141024, -8431.346229475288, -41111.0047830349, -28570.379742429228, 0.08600000000000001, 0.912, -0.362, 192.0, 0.0, 0.0, 0.0, 0.0, 0.0, 0.0, 0.0, 0.0, 0.0, 1.741281179812153E9, 0.0, 2025-03-06 11:12:59.812
53.0, -32083.559880681027, -28945.754938811653, -35150.845068793904, -33556.87511645259, -6030.590061019667, -8440.53279644642, -41111.47416966846, -28577.577004143837, 0.08600000000000001, 0.912, -0.362, 192.0, 0.0, 0.0, 0.0, 0.0, 0.0, 0.0, 0.0, 0.0, 0.0, 1.741281179812178E9, 0.0, 2025-03-06 11:12:59.812
54.0, -32081.7717411246, -28942.290418421082, -35151.15799321628, -33550.88484893857, -5994.939028613452, -8436.71064814456, -41115.452780181506, -28599.012327076474, 0.08600000000000001, 0.912, -0.362, 192.0, 0.0, 0.0, 0.0, 0.0, 0.0, 0.0, 0.0, 0.0, 0.0, 1.741281179812209E9, 0.0, 2025-03-06 11:12:59.812
55.0, -32090.824197629, -28947.185450456793, -35159.76341483157, -33556.428081563485, -6022.588136504667, -8441.628031924729, -41110.22247197896, -28568.36808542825, 0.08600000000000001, 0.912, -0.362, 192.0, 0.0, 0.0, 0.0, 0.0, 0.0, 0.0, 0.0, 0.0, 0.0, 1.741281179812237E9, 0.0, 2025-03-06 11:12:59.812
56.0, -32084.67746790379, -28941.39634864287, -35156.96944677466, -33558.104462397634, -6047.040944938773, -8443.930261603626, -41112.47999816895, -28582.98612630202, 0.08600000000000001, 0.912, -0.362, 192.0, 0.0, 0.0, 0.0, 0.0, 0.0, 0.0, 0.0, 0.0, 0.0, 1.741281179812261E9, 0.0, 2025-03-06 11:12:59.812
57.0, -32081.59292716896, -28939.071767219517, -35154.130775228834, -33556.51748854131, -6024.33157257218, -8440.666906913151, -41116.95034706001, -28593.22322526255, 0.08600000000000001, 0.912, -0.362, 192.0, 0.0, 0.0, 0.0, 0.0, 0.0, 0.0, 0.0, 0.0, 0.0, 1.741281179812285E9, 0.0, 2025-03-06 11:12:59.812
58.0, -32085.348020237452, -28937.931828252298, -35158.28819969752, -33552.89650593955, -5993.039130334751, -8442.276232513932, -41112.61410863568, -28602.208626533586, 0.08600000000000001, 0.912, -0.362, 192.0, 0.0, 0.0, 0.0, 0.0, 0.0, 0.0, 0.0, 0.0, 0.0, 1.741281179812309E9, 0.0, 2025-03-06 11:12:59.812
59.0, -32091.181825540287, -28940.234057931193, -35159.159917731275, -33550.571924516196, -6015.6367439790665, -8450.05463958438, -41111.317707457274, -28593.692611896113, 0.08600000000000001, 0.912, -0.362, 192.0, 0.0, 0.0, 0.0, 0.0, 0.0, 0.0, 0.0, 0.0, 0.0, 1.741281179812333E9, 0.0, 2025-03-06 11:12:59.812
60.0, -32088.25374701664, -28937.261275918638, -35158.08703399742, -33548.76143321532, -6041.430657080491, -8455.597872209295, -41110.28952721233, -28570.312687195863, 0.08600000000000001, 0.912, -0.362, 192.0, 0.0, 0.0, 0.0, 0.0, 0.0, 0.0, 0.0, 0.0, 0.0, 1.741281179871567E9, 0.0, 2025-03-06 11:12:59.871
61.0, -32089.572499939502, -28940.14465095337, -35162.803252077494, -33553.701168739935, -6027.170244118005, -8469.210084582577, -41116.59271914873, -28582.449684435094, 0.08600000000000001, 0.916, -0.358, 192.0, 2.0, 176.0, 28.0, 160.0, 244.0, 208.0, 0.0, 0.0, 0.0, 1.741281179871637E9, 0.0, 2025-03-06 11:12:59.871
62.0, -32087.091456304963, -28934.91434275083, -35157.550592130494, -33542.48059302337, -5999.454080993424, -8461.163456578668, -41113.88815806963, -28584.774265858447, 0.08600000000000001, 0.916, -0.358, 192.0, 0.0, 0.0, 0.0, 0.0, 0.0, 0.0, 0.0, 0.0, 0.0, 1.74128117987167E9, 0.0, 2025-03-06 11:12:59.871
63.0, -32096.456837231737, -28948.77242431312, -35162.177403232745, -33546.90623842552, -6007.031322363773, -8462.348099034798, -41111.18359699054, -28595.011364818976, 0.08600000000000001, 0.916, -0.358, 192.0, 0.0, 0.0, 0.0, 0.0, 0.0, 0.0, 0.0, 0.0, 0.0, 1.741281179871701E9, 0.0, 2025-03-06 11:12:59.871
64.0, -32094.44518023076, -28947.096043478974, -35157.37177817486, -33538.59138948815, -6034.725133743898, -8452.781552407927, -41108.9037190561, -28597.71592589807, 0.08600000000000001, 0.916, -0.358, 192.0, 0.0, 0.0, 0.0, 0.0, 0.0, 0.0, 0.0, 0.0, 0.0, 1.741281179871726E9, 0.0, 2025-03-06 11:12:59.871
65.0, -32091.0253633291, -28945.084386477996, -35153.236705450625, -33540.17836334448, -6035.798017477753, -8460.358793778276, -41108.00964927788, -28580.32626871184, 0.08600000000000001, 0.916, -0.358, 192.0, 0.0, 0.0, 0.0, 0.0, 0.0, 0.0, 0.0, 0.0, 0.0, 1.741281179871754E9, 0.0, 2025-03-06 11:12:59.871
66.0, -32085.370371981906, -28939.742319553177, -35150.04040599351, -33542.525296512285, -6009.288848553759, -8461.588139723319, -41105.39449517662, -28574.224242475542, 0.08600000000000001, 0.916, -0.358, 192.0, 0.0, 0.0, 0.0, 0.0, 0.0, 0.0, 0.0, 0.0, 0.0, 1.741281179871777E9, 0.0, 2025-03-06 11:12:59.871
67.0, -32084.431598714782, -28942.759805054644, -35143.60310359039, -33540.11130811111, -6009.691179953955, -8453.362697763765, -41104.053390509296, -28585.55657691438, 0.08600000000000001, 0.916, -0.358, 192.0, 0.0, 0.0, 0.0, 0.0, 0.0, 0.0, 0.0, 0.0, 0.0, 1.741281179871806E9, 0.0, 2025-03-06 11:12:59.871
68.0, -32082.621107413903, -28943.92209576632, -35135.19884767519, -33535.39509003104, -6038.681392512488, -8442.76797089195, -41097.392570661614, -28567.406960416673, 0.08600000000000001, 0.916, -0.358, 192.0, 0.0, 0.0, 0.0, 0.0, 0.0, 0.0, 0.0, 0.0, 0.0, 1.741281179871829E9, 0.0, 2025-03-06 11:12:59.871
69.0, -32084.67746790379, -28943.586819599488, -35134.68475755271, -33536.13269759806, -6034.792188977264, -8443.28206101442, -41095.91735552756, -28552.36423639825, 0.08600000000000001, 0.916, -0.358, 192.0, 0.0, 0.0, 0.0, 0.0, 0.0, 0.0, 0.0, 0.0, 0.0, 1.741281179871858E9, 0.0, 2025-03-06 11:12:59.871
70.0, -32091.58415694048, -28948.481851635202, -35140.69737681119, -33543.37466280159, -6005.109072340617, -8449.67465992864, -41104.20985272049, -28558.75683531247, 0.08600000000000001, 0.916, -0.358, 192.0, 0.0, 0.0, 0.0, 0.0, 0.0, 0.0, 0.0, 0.0, 0.0, 1.741281179871883E9, 0.0, 2025-03-06 11:12:59.871
71.0, -32094.758104653134, -28952.862793548444, -35138.93158899922, -33536.0656423647, -5993.240296034849, -8440.845720868792, -41102.22054746396, -28568.524547639438, 0.08, 0.918, -0.362, 192.0, 2.0, 128.0, 28.0, 176.0, 244.0, 176.0, 0.0, 0.0, 0.0, 1.74128117987191E9, 0.0, 2025-03-06 11:12:59.871
72.0, -32092.58998544097, -28951.25346794766, -35127.845123749394, -33526.00735735981, -6030.590061019667, -8422.897270071182, -41088.07189322375, -28543.289428149397, 0.08, 0.918, -0.362, 192.0, 0.0, 0.0, 0.0, 0.0, 0.0, 0.0, 0.0, 0.0, 0.0, 1.741281179871937E9, 0.0, 2025-03-06 11:12:59.871
73.0, -32099.116694821918, -28953.5333458821, -35135.71293779766, -33531.17061032899, -6031.640593009066, -8426.384142206209, -41101.102960241195, -28588.52935892694, 0.08, 0.918, -0.362, 192.0, 0.0, 0.0, 0.0, 0.0, 0.0, 0.0, 0.0, 0.0, 0.0, 1.741281179871961E9, 0.0, 2025-03-06 11:12:59.871
74.0, -32092.947613352255, -28944.413834144336, -35134.841219763905, -33535.0151103753, -6014.04977012274, -8434.095494043291, -41113.28466096934, -28599.839341621322, 0.08, 0.918, -0.362, 192.0, 0.0, 0.0, 0.0, 0.0, 0.0, 0.0, 0.0, 0.0, 0.0, 1.741281179871985E9, 0.0, 2025-03-06 11:12:59.871
75.0, -32090.77949414009, -28941.373996898415, -35135.958806986666, -33539.10547961062, -5999.029397848773, -8438.252918511978, -41110.04365802332, -28561.014361502454, 0.08, 0.918, -0.362, 192.0, 0.0, 0.0, 0.0, 0.0, 0.0, 0.0, 0.0, 0.0, 0.0, 1.741281179931137E9, 0.0, 2025-03-06 11:12:59.931
76.0, -32087.404380727337, -28942.804508543555, -35132.33782438491, -33538.63609297706, -6031.305316842237, -8433.134369031712, -41101.393532919115, -28547.670370062635, 0.08, 0.918, -0.362, 192.0, 0.0, 0.0, 0.0, 0.0, 0.0, 0.0, 0.0, 0.0, 0.0, 1.741281179931187E9, 0.0, 2025-03-06 11:12:59.931
77.0, -32080.765912624112, -28937.55184859656, -35130.14735342829, -33536.89265690955, -6049.477285084401, -8433.96138357656, -41110.31187895678, -28559.60620160177, 0.08, 0.918, -0.362, 192.0, 0.0, 0.0, 0.0, 0.0, 0.0, 0.0, 0.0, 0.0, 0.0, 1.741281179931216E9, 0.0, 2025-03-06 11:12:59.931
78.0, -32071.422883441795, -28930.756918282143, -35128.985062716616, -33537.65261622103, -6027.840796451664, -8446.165436049156, -41113.50817841389, -28601.001632333, 0.08, 0.918, -0.362, 192.0, 0.0, 0.0, 0.0, 0.0, 0.0, 0.0, 0.0, 0.0, 0.0, 1.741281179931249E9, 0.0, 2025-03-06 11:12:59.931
79.0, -32064.359732193916, -28921.34683386646, -35127.37573711583, -33534.45631676392, -6002.404511261525, -8446.1430843047, -41112.927033058055, -28598.38647823173, 0.08, 0.918, -0.362, 192.0, 0.0, 0.0, 0.0, 0.0, 0.0, 0.0, 0.0, 0.0, 0.0, 1.741281179931273E9, 0.0, 2025-03-06 11:12:59.931
80.0, -32072.451063686738, -28923.738470523178, -35135.73528954211, -33548.15793611502, -6020.978810903885, -8456.648404198695, -41114.044620280816, -28567.36225692776, 0.08, 0.918, -0.362, 192.0, 0.0, 0.0, 0.0, 0.0, 0.0, 0.0, 0.0, 0.0, 0.0, 1.7412811799313E9, 0.0, 2025-03-06 11:12:59.931
81.0, -32077.7707788671, -28926.554790324546, -35142.731385556624, -33553.74587222885, -6035.708610499932, -8468.248959571, -41122.11360002919, -28597.80533287589, 0.08600000000000001, 0.922, -0.364, 192.0, 2.0, 176.0, 28.0, 208.0, 244.0, 160.0, 0.0, 0.0, 0.0, 1.741281179931324E9, 0.0, 2025-03-06 11:12:59.931
82.0, -32068.96419155171, -28920.653929788346, -35141.52439135604, -33552.650636750535, -6029.830101708187, -8471.020575883458, -41126.87452159817, -28609.47294348156, 0.08600000000000001, 0.922, -0.364, 192.0, 0.0, 0.0, 0.0, 0.0, 0.0, 0.0, 0.0, 0.0, 0.0, 1.74128117993135E9, 0.0, 2025-03-06 11:12:59.931
83.0, -32065.276153716586, -28917.05529893104, -35137.45637386518, -33551.93538092797, -6010.451139265435, -8473.367509051264, -41119.72196337247, -28593.983184574034, 0.08600000000000001, 0.922, -0.364, 192.0, 0.0, 0.0, 0.0, 0.0, 0.0, 0.0, 0.0, 0.0, 0.0, 1.741281179931374E9, 0.0, 2025-03-06 11:12:59.931
84.0, -32077.033171300078, -28923.894932734365, -35143.96073150167, -33554.99756991835, -6024.95742141693, -8481.190619610623, -41123.678222141054, -28596.643042164214, 0.08600000000000001, 0.922, -0.364, 192.0, 0.0, 0.0, 0.0, 0.0, 0.0, 0.0, 0.0, 0.0, 0.0, 1.741281179931401E9, 0.0, 2025-03-06 11:12:59.931
85.0, -32068.517156662605, -28912.115563406416, -35135.93645524221, -33543.06173837921, -6054.7299450313985, -8477.480230031042, -41115.34102145923, -28585.735390870024, 0.08600000000000001, 0.922, -0.364, 192.0, 0.0, 0.0, 0.0, 0.0, 0.0, 0.0, 0.0, 0.0, 0.0, 1.741281179931425E9, 0.0, 2025-03-06 11:12:59.931
86.0, -32074.30625847653, -28920.788040255076, -35145.1453739578, -33544.80517444672, -6029.517177285812, -8480.408308554686, -41118.26909998287, -28573.956021542075, 0.08600000000000001, 0.922, -0.364, 192.0, 0.0, 0.0, 0.0, 0.0, 0.0, 0.0, 0.0, 0.0, 0.0, 1.741281179931457E9, 0.0, 2025-03-06 11:12:59.931
87.0, -32080.475339946195, -28926.01834845762, -35152.05206299449, -33547.30856982572, -6002.80684266172, -8482.844648700315, -41114.06697202528, -28577.062914021364, 0.08600000000000001, 0.922, -0.364, 192.0, 0.0, 0.0, 0.0, 0.0, 0.0, 0.0, 0.0, 0.0, 0.0, 1.741281179931481E9, 0.0, 2025-03-06 11:12:59.931
88.0, -32086.957345838233, -28930.622807815413, -35151.02388274955, -33539.26194182181, -6012.485148010868, -8469.545360749407, -41106.020344021366, -28576.258251220974, 0.08600000000000001, 0.922, -0.364, 192.0, 0.0, 0.0, 0.0, 0.0, 0.0, 0.0, 0.0, 0.0, 0.0, 1.741281179931506E9, 0.0, 2025-03-06 11:12:59.931
89.0, -32089.840720872966, -28935.808412529044, -35156.500060141094, -33532.89169465205, -6041.184787891482, -8464.739735691517, -41102.84639630871, -28559.51679462395, 0.08600000000000001, 0.922, -0.364, 192.0, 0.0, 0.0, 0.0, 0.0, 0.0, 0.0, 0.0, 0.0, 0.0, 1.74128117993153E9, 0.0, 2025-03-06 11:12:59.931
90.0, -32086.01857257111, -28933.126203194406, -35152.70026358369, -33529.226008561374, -6038.971965190407, -8461.454029256587, -41107.339096944226, -28558.17568995663, 0.08600000000000001, 0.922, -0.364, 192.0, 0.0, 0.0, 0.0, 0.0, 0.0, 0.0, 0.0, 0.0, 0.0, 1.741281179991378E9, 0.0, 2025-03-06 11:12:59.991
91.0, -32083.984563825677, -28928.767613025622, -35147.827583292434, -33527.37081377159, -5996.347188514136, -8459.218854811055, -41111.56357664628, -28574.8947948092, 0.088, 0.922, -0.37, 192.0, 2.0, 192.0, 28.0, 208.0, 244.0, 112.0, 0.0, 0.0, 0.0, 1.741281179991446E9, 0.0, 2025-03-06 11:12:59.991
92.0, -32083.381066725382, -28938.311807908038, -35145.23478093562, -33529.382470772565, -6004.907906640519, -8447.81946513885, -41101.952326530496, -28552.878326520724, 0.088, 0.922, -0.37, 192.0, 0.0, 0.0, 0.0, 0.0, 0.0, 0.0, 0.0, 0.0, 0.0, 1.741281179991477E9, 0.0, 2025-03-06 11:12:59.991
93.0, -32084.20808127023, -28942.06690097653, -35140.54091460001, -33524.286273036756, -6036.379162833591, -8441.180997035623, -41094.106864226684, -28562.310762680863, 0.088, 0.922, -0.37, 192.0, 0.0, 0.0, 0.0, 0.0, 0.0, 0.0, 0.0, 0.0, 0.0, 1.741281179991508E9, 0.0, 2025-03-06 11:12:59.991
94.0, -32090.287755762074, -28940.01054048664, -35144.16189720177, -33524.57684571467, -6031.037095908773, -8445.919566860148, -41095.47032063846, -28567.56342262786, 0.088, 0.922, -0.37, 192.0, 0.0, 0.0, 0.0, 0.0, 0.0, 0.0, 0.0, 0.0, 0.0, 1.741281179991536E9, 0.0, 2025-03-06 11:12:59.991
95.0, -32087.382028982884, -28932.098022949463, -35140.83148727792, -33523.213389302895, -6005.176127573983, -8439.504616201475, -41096.2526316944, -28551.604277086768, 0.088, 0.922, -0.37, 192.0, 0.0, 0.0, 0.0, 0.0, 0.0, 0.0, 0.0, 0.0, 0.0, 1.74128117999156E9, 0.0, 2025-03-06 11:12:59.991
96.0, -32094.981622097686, -28942.357473654447, -35145.190077446714, -33531.68470045146, -5986.80299363172, -8439.057581312369, -41101.77351257486, -28549.100881707775, 0.088, 0.922, -0.37, 192.0, 0.0, 0.0, 0.0, 0.0, 0.0, 0.0, 0.0, 0.0, 0.0, 1.741281179991588E9, 0.0, 2025-03-06 11:12:59.991
97.0, -32106.381011769896, -28955.16502322734, -35152.78967056151, -33540.625398233584, -6027.460816795924, -8448.110037816768, -41097.88430903963, -28542.954151982565, 0.088, 0.922, -0.37, 192.0, 0.0, 0.0, 0.0, 0.0, 0.0, 0.0, 0.0, 0.0, 0.0, 1.741281179991612E9, 0.0, 2025-03-06 11:12:59.991
98.0, -32099.07199133301, -28953.57804937101, -35147.13467921432, -33531.59529347364, -6036.781494233786, -8433.469645198542, -41098.35369567319, -28563.42834990363, 0.088, 0.922, -0.37, 192.0, 0.0, 0.0, 0.0, 0.0, 0.0, 0.0, 0.0, 0.0, 0.0, 1.741281179991637E9, 0.0, 2025-03-06 11:12:59.991
99.0, -32093.327593007994, -28946.693712078777, -35145.748871058095, -33529.941264383946, -6007.90304039753, -8433.33553473181, -41099.359524173684, -28572.681972108123, 0.088, 0.922, -0.37, 192.0, 0.0, 0.0, 0.0, 0.0, 0.0, 0.0, 0.0, 0.0, 0.0, 1.74128117999166E9, 0.0, 2025-03-06 11:12:59.991
100.0, -32098.267328532616, -28947.274857434615, -35151.91795252776, -33535.797421431234, -5988.188801787949, -8442.43269472512, -41105.52860564335, -28572.056123263377, 0.088, 0.922, -0.37, 192.0, 0.0, 0.0, 0.0, 0.0, 0.0, 0.0, 0.0, 0.0, 0.0, 1.741281179991688E9, 0.0, 2025-03-06 11:12:59.991
101.0, -32102.469456490217, -28953.10866273745, -35154.063719995465, -33541.83239243417, -6024.7339039723765, -8440.331630746321, -41101.102960241195, -28552.69951256508, 0.084, 0.92, -0.366, 192.0, 2.0, 160.0, 28.0, 192.0, 244.0, 144.0, 0.0, 0.0, 0.0, 1.741281179991717E9, 0.0, 2025-03-06 11:12:59.991
102.0, -32099.943709366766, -28950.560563869545, -35158.06468225297, -33551.465994294405, -6050.617224051622, -8449.205273295078, -41101.90762304159, -28542.194192671086, 0.084, 0.92, -0.366, 192.0, 0.0, 0.0, 0.0, 0.0, 0.0, 0.0, 0.0, 0.0, 0.0, 1.741281179991743E9, 0.0, 2025-03-06 11:12:59.991
103.0, -32085.616241170916, -28937.328331152003, -35148.52048737055, -33543.0170348903, -6033.4287325654905, -8437.649421411685, -41101.84056780822, -28578.202852988587, 0.084, 0.92, -0.366, 192.0, 0.0, 0.0, 0.0, 0.0, 0.0, 0.0, 0.0, 0.0, 0.0, 1.741281179991768E9, 0.0, 2025-03-06 11:12:59.991
104.0, -32082.39758996935, -28935.562543340035, -35148.63224609283, -33540.11130811111, -5997.017740847796, -8431.435636453109, -41105.305088198795, -28590.27279499445, 0.084, 0.92, -0.366, 192.0, 0.0, 0.0, 0.0, 0.0, 0.0, 0.0, 0.0, 0.0, 0.0, 1.741281179991792E9, 0.0, 2025-03-06 11:12:59.991
105.0, -32093.908738363833, -28948.660665590844, -35154.17547871774, -33551.13071812758, -6005.891383396553, -8445.092552315302, -41113.1058470137, -28583.388457702218, 0.084, 0.92, -0.366, 192.0, 0.0, 0.0, 0.0, 0.0, 0.0, 0.0, 0.0, 0.0, 0.0, 1.741281180051689E9, 0.0, 2025-03-06 11:13:00.051
106.0, -32091.338287751474, -28951.34287492548, -35159.53989738702, -33562.01601767731, -6036.222700622404, -8453.854436141783, -41111.02713477935, -28570.60325987378, 0.084, 0.92, -0.366, 192.0, 0.0, 0.0, 0.0, 0.0, 0.0, 0.0, 0.0, 0.0, 0.0, 1.741281180051741E9, 0.0, 2025-03-06 11:13:00.051
107.0, -32085.951517337744, -28951.007598758653, -35164.904316056294, -33569.88383172558, -6029.070142396706, -8465.142067091712, -41117.79971334931, -28560.343809168793, 0.084, 0.92, -0.366, 192.0, 0.0, 0.0, 0.0, 0.0, 0.0, 0.0, 0.0, 0.0, 0.0, 1.741281180051778E9, 0.0, 2025-03-06 11:13:00.051
108.0, -32078.597793411947, -28936.210743929238, -35154.846031051406, -33555.69047399646, -6011.814595677209, -8463.018651368458, -41121.5548064178, -28592.485617695525, 0.084, 0.92, -0.366, 192.0, 0.0, 0.0, 0.0, 0.0, 0.0, 0.0, 0.0, 0.0, 0.0, 1.741281180051807E9, 0.0, 2025-03-06 11:13:00.051
109.0, -32081.615278913414, -28933.14855493886, -35149.950999015695, -33549.16376461551, -6027.9078516850295, -8453.407401252676, -41114.402248192106, -28576.57117564335, 0.084, 0.92, -0.366, 192.0, 0.0, 0.0, 0.0, 0.0, 0.0, 0.0, 0.0, 0.0, 0.0, 1.741281180051836E9, 0.0, 2025-03-06 11:13:00.051
110.0, -32078.86601434541, -28929.751089781654, -35146.41942339175, -33545.654540736025, -6050.550168818256, -8455.642575698206, -41104.746294587414, -28564.36712317075, 0.084, 0.92, -0.366, 192.0, 0.0, 0.0, 0.0, 0.0, 0.0, 0.0, 0.0, 0.0, 0.0, 1.741281180051859E9, 0.0, 2025-03-06 11:13:00.051
111.0, -32079.000124812144, -28923.91728447882, -35148.16285945927, -33541.944151156444, -6031.931165686985, -8463.756258935484, -41102.935803286535, -28568.099864494787, 0.082, 0.92, -0.372, 192.0, 2.0, 144.0, 28.0, 192.0, 244.0, 96.0, 0.0, 0.0, 0.0, 1.741281180051888E9, 0.0, 2025-03-06 11:13:00.051
112.0, -32082.084665546976, -28925.973644968708, -35150.73331007163, -33541.944151156444, -5995.922505369485, -8463.130410090735, -41107.80848357779, -28572.391399430206, 0.082, 0.92, -0.372, 192.0, 0.0, 0.0, 0.0, 0.0, 0.0, 0.0, 0.0, 0.0, 0.0, 1.741281180051914E9, 0.0, 2025-03-06 11:13:00.051
113.0, -32082.73286613618, -28933.908514250343, -35148.05110073699, -33544.35813955762, -6005.936086885463, -8466.863151414771, -41105.88623355463, -28563.115425481254, 0.082, 0.92, -0.372, 192.0, 0.0, 0.0, 0.0, 0.0, 0.0, 0.0, 0.0, 0.0, 0.0, 1.741281180051937E9, 0.0, 2025-03-06 11:13:00.051
114.0, -32088.633726672382, -28940.859906775942, -35149.39220540431, -33544.58165700217, -6039.463703568424, -8457.76599142146, -41108.07670451125, -28576.884100065723, 0.082, 0.92, -0.372, 192.0, 0.0, 0.0, 0.0, 0.0, 0.0, 0.0, 0.0, 0.0, 0.0, 1.741281180051962E9, 0.0, 2025-03-06 11:13:00.051
115.0, -32079.938898079265, -28933.528534594603, -35142.172591945244, -33535.73036619787, -6038.8825582125855, -8453.563863463864, -41104.16514923157, -28567.049332505387, 0.082, 0.92, -0.372, 192.0, 0.0, 0.0, 0.0, 0.0, 0.0, 0.0, 0.0, 0.0, 0.0, 1.741281180051988E9, 0.0, 2025-03-06 11:13:00.051
116.0, -32071.6687526308, -28925.616017057422, -35138.886885510314, -33534.411613275006, -6007.456005508424, -8459.24120655551, -41101.594698619214, -28562.98131501452, 0.082, 0.92, -0.372, 192.0, 0.0, 0.0, 0.0, 0.0, 0.0, 0.0, 0.0, 0.0, 0.0, 1.741281180052012E9, 0.0, 2025-03-06 11:13:00.052
117.0, -32079.69302889026, -28935.719005551222, -35141.278522167035, -33536.087994109155, -5998.627066448577, -8457.944805377103, -41104.61218412068, -28575.475940165037, 0.082, 0.92, -0.372, 192.0, 0.0, 0.0, 0.0, 0.0, 0.0, 0.0, 0.0, 0.0, 0.0, 1.741281180052039E9, 0.0, 2025-03-06 11:13:00.052
118.0, -32089.10311330594, -28947.096043478974, -35144.407766390774, -33539.61956973309, -6033.00404942084, -8455.039078597913, -41105.90858529909, -28562.42252140314, 0.082, 0.92, -0.372, 192.0, 0.0, 0.0, 0.0, 0.0, 0.0, 0.0, 0.0, 0.0, 0.0, 1.741281180052064E9, 0.0, 2025-03-06 11:13:00.052
119.0, -32086.44325571576, -28943.92209576632, -35145.458298380174, -33541.675930222984, -6039.5307588017895, -8458.838875155316, -41102.6005271197, -28543.64705606068, 0.082, 0.92, -0.372, 192.0, 0.0, 0.0, 0.0, 0.0, 0.0, 0.0, 0.0, 0.0, 0.0, 1.741281180052087E9, 0.0, 2025-03-06 11:13:00.052
120.0, -32084.319839992506, -28943.698578321768, -35147.782879803526, -33541.27359882279, -6004.036188606762, -8455.284947786922, -41108.27787021135, -28574.537166897913, 0.082, 0.92, -0.372, 192.0, 0.0, 0.0, 0.0, 0.0, 0.0, 0.0, 0.0, 0.0, 0.0, 1.741281180111936E9, 0.0, 2025-03-06 11:13:00.111
121.0, -32088.20904352773, -28949.510031880145, -35148.02874899253, -33545.20750584692, -5994.067310579695, -8453.697973930595, -41112.27883246885, -28590.675126394646, 0.088, 0.912, -0.372, 192.0, 2.0, 192.0, 28.0, 128.0, 244.0, 96.0, 0.0, 0.0, 0.0, 1.741281180111989E9, 0.0, 2025-03-06 11:13:00.111
122.0, -32093.126427307896, -28954.896802293875, -35147.916990270256, -33545.29691282474, -6027.013781906818, -8447.014802338457, -41108.12140800017, -28573.777207586434, 0.088, 0.912, -0.372, 192.0, 0.0, 0.0, 0.0, 0.0, 0.0, 0.0, 0.0, 0.0, 0.0, 1.741281180112021E9, 0.0, 2025-03-06 11:13:00.112
123.0, -32100.45779948924, -28958.338970939993, -35153.72844382864, -33550.43781404946, -6030.768874975309, -8448.579424450329, -41106.065047510274, -28547.78212878491, 0.088, 0.912, -0.372, 192.0, 0.0, 0.0, 0.0, 0.0, 0.0, 0.0, 0.0, 0.0, 0.0, 1.741281180112049E9, 0.0, 2025-03-06 11:13:00.112
124.0, -32097.708534921236, -28951.49933713667, -35155.80715606298, -33550.72838672738, -6014.519156756301, -8456.715459432062, -41113.01644003588, -28558.51096612346, 0.088, 0.912, -0.372, 192.0, 0.0, 0.0, 0.0, 0.0, 0.0, 0.0, 0.0, 0.0, 0.0, 1.741281180112079E9, 0.0, 2025-03-06 11:13:00.112
125.0, -32092.16530229632, -28940.055243975552, -35146.55353385848, -33534.32220629718, -5994.179069301971, -8444.064372070357, -41114.1563790031, -28574.000725030986, 0.088, 0.912, -0.372, 192.0, 0.0, 0.0, 0.0, 0.0, 0.0, 0.0, 0.0, 0.0, 0.0, 1.741281180112104E9, 0.0, 2025-03-06 11:13:00.112
126.0, -32092.768799396614, -28940.77049979812, -35148.81106004847, -33538.30081681023, -6024.130406872083, -8447.864168627759, -41109.931899301046, -28543.490593849492, 0.088, 0.912, -0.372, 192.0, 0.0, 0.0, 0.0, 0.0, 0.0, 0.0, 0.0, 0.0, 0.0, 1.741281180112136E9, 0.0, 2025-03-06 11:13:00.112
127.0, -32094.91456686432, -28942.312770165536, -35157.43883340822, -33548.49321228185, -6032.579366276189, -8457.609529210273, -41113.1058470137, -28541.925971737623, 0.088, 0.912, -0.372, 192.0, 0.0, 0.0, 0.0, 0.0, 0.0, 0.0, 0.0, 0.0, 0.0, 1.74128118011216E9, 0.0, 2025-03-06 11:13:00.112
128.0, -32087.024401071598, -28933.305017150047, -35153.996664762104, -33542.57000000119, -6017.961325402418, -8445.137255804213, -41111.27300396836, -28574.157187242174, 0.088, 0.912, -0.372, 192.0, 0.0, 0.0, 0.0, 0.0, 0.0, 0.0, 0.0, 0.0, 0.0, 1.741281180112183E9, 0.0, 2025-03-06 11:13:00.112
129.0, -32090.53362495108, -28936.09898520696, -35158.42231016425, -33540.17836334448, -5987.18297328746, -8432.776741120428, -41117.91147207159, -28592.440914206614, 0.088, 0.912, -0.372, 192.0, 0.0, 0.0, 0.0, 0.0, 0.0, 0.0, 0.0, 0.0, 0.0, 1.741281180112207E9, 0.0, 2025-03-06 11:13:00.112
