%OpenBCI Raw EXG Data
%Number of channels = 16
%Sample Rate = 125 Hz
%Board = OpenBCI_GUI$BoardCytonSerialDaisy
Sample Index, EXG Channel 0, EXG Channel 1, EXG Channel 2, EXG Channel 3, EXG Channel 4, EXG Channel 5, EXG Channel 6, EXG Channel 7, EXG Channel 8, EXG Channel 9, EXG Channel 10, EXG Channel 11, EXG Channel 12, EXG Channel 13, EXG Channel 14, EXG Channel 15, Accel Channel 0, Accel Channel 1, Accel Channel 2, Not Used, Digital Channel 0 (D11), Digital Channel 1 (D12), Digital Channel 2 (D13), Digital Channel 3 (D17), Not Used, Digital Channel 4 (D18), Analog Channel 0, Analog Channel 1, Analog Channel 2, Timestamp, Marker Channel, Timestamp (Formatted)
22.0, -26710.66990025877, -9518.26685884796, -34184.93678390227, -30085.515092076672, -15464.367325826566, -23094.984661934934, -16622.947647922952, -14119.686379395293, -27347.091120134726, -29209.393764662, -33357.31874195561, -10841.154854435308, -32722.19392325806, -24335.86410711576, -34282.7927211276, -30160.25932553522, 0.0, 0.0, 0.0, 192.0, 0.0, 0.0, 0.0, 0.0, 0.0, 0.0, 0.0, 0.0, 0.0, 1.741628098929797E9, 0.0, 2025-03-10 12:34:58.929
24.0, -26749.651342588826, -9524.79356822891, -34184.6685629688, -30078.8989757179, -15469.374116584555, -23088.793228720813, -16624.66873224601, -14115.685417137793, -27327.44393675851, -29204.78930530421, -33324.484029350766, -10820.926525703255, -32682.13959719415, -24310.89720855918, -34206.036830668076, -30147.29531375114, -0.064, 0.982, 0.256, 192.0, 127.0, 0.0, 15.0, 88.0, 4.0, 0.0, 0.0, 0.0, 0.0, 1.741628098929943E9, 0.0, 2025-03-10 12:34:58.929
30.0, -26727.120784177874, -9521.686675749621, -34177.33719078746, -30082.408199597383, -15457.594747256608, -23098.873865470156, -16642.57247955471, -14145.279126796619, -27350.399178314114, -29204.699898326387, -33368.33815197208, -10840.57370907947, -32727.55834192733, -24303.118801488734, -34283.776197883635, -30147.898810851435, -0.064, 0.982, 0.256, 192.0, 0.0, 0.0, 0.0, 0.0, 0.0, 0.0, 0.0, 0.0, 0.0, 1.741628098930074E9, 0.0, 2025-03-10 12:34:58.930
32.0, -26725.958493466198, -9505.772233697442, -34176.42076926479, -30079.27895537364, -15460.969860669358, -23094.67173751256, -16623.439386300968, -14149.727123943225, -27326.46046000248, -29193.859302265562, -33330.45194512033, -10814.735092489134, -32695.75180956743, -24281.012926222436, -34204.33809808947, -30151.229220775276, -0.064, 0.982, 0.256, 192.0, 0.0, 0.0, 0.0, 0.0, 0.0, 0.0, 0.0, 0.0, 0.0, 1.74162809893019E9, 0.0, 2025-03-10 12:34:58.930
36.0, -26740.174202939776, -9532.16964389916, -34195.24093809616, -30095.81924627057, -15460.38871531352, -23091.60954852218, -16617.851450187143, -14133.075074324022, -27332.4507275165, -29209.30435768418, -33341.13607896997, -10832.415322353283, -32685.447655373533, -24312.864162071248, -34207.26617661311, -30158.11355806751, -0.068, 0.98, 0.262, 192.0, 0.0, 0.0, 0.0, 0.0, 0.0, 0.0, 0.0, 0.0, 0.0, 1.741628098930299E9, 0.0, 2025-03-10 12:34:58.930
38.0, -26716.257836372595, -9513.304771578882, -34176.599583220435, -30076.328525105542, -15443.043761616203, -23091.743658988915, -16608.53077274928, -14126.905992854357, -27346.577030012257, -29212.97004377485, -33364.2254309923, -10844.552319592514, -32734.420327475113, -24330.745557635495, -34279.21644201475, -30169.95998262882, -0.068, 0.98, 0.262, 192.0, 0.0, 0.0, 0.0, 0.0, 0.0, 0.0, 0.0, 0.0, 0.0, 1.741628098930426E9, 0.0, 2025-03-10 12:34:58.930
42.0, -26730.674711546268, -9507.582724998323, -34180.04175186655, -30074.47333031575, -15455.024296644247, -23093.598853778705, -16631.10603464914, -14134.12560631342, -27327.712157691978, -29197.055601722674, -33347.50632613973, -10819.51836580257, -32728.273597749903, -24312.32772020432, -34258.45167141577, -30155.565459199606, -0.068, 0.98, 0.262, 192.0, 0.0, 0.0, 0.0, 0.0, 0.0, 0.0, 0.0, 0.0, 0.0, 1.74162809893054E9, 0.0, 2025-03-10 12:34:58.930
44.0, -26714.96143519419, -9514.020027401451, -34183.238051323664, -30086.230347899243, -15446.575337240141, -23085.172246119055, -16615.258647830327, -14113.025559547612, -27320.783116910832, -29200.073087224137, -33328.0156049747, -10818.624296024358, -32679.971477981984, -24288.165484448135, -34207.64615626886, -30158.046502834142, -0.066, 0.974, 0.262, 192.0, 126.5, 120.0, 15.0, 56.0, 4.0, 24.0, 0.0, 0.0, 0.0, 1.741628098930649E9, 0.0, 2025-03-10 12:34:58.930
46.0, -26738.72133955018, -9523.02778041694, -34183.461568768216, -30081.0000396967, -15457.43828504542, -23101.936054460533, -16633.855299217143, -14137.523071470629, -27333.59066648372, -29202.48707562531, -33348.243933706755, -10829.733113018647, -32739.203600788547, -24320.731976119518, -34263.05613077356, -30160.77341565769, -0.066, 0.974, 0.262, 192.0, 0.0, 0.0, 0.0, 0.0, 0.0, 0.0, 0.0, 0.0, 0.0, 1.741628098930788E9, 0.0, 2025-03-10 12:34:58.930
48.0, -26710.491086303125, -9530.40385608719, -34181.986353634165, -30087.9514322223, -15458.511168779276, -23103.7018422725, -16610.76594719481, -14141.076998839022, -27329.92498039305, -29208.365584417057, -33331.949511998835, -10823.206403637696, -32687.056980974317, -24313.53471440491, -34212.65294702684, -30159.588773201558, -0.066, 0.974, 0.262, 192.0, 0.0, 0.0, 0.0, 0.0, 0.0, 0.0, 0.0, 0.0, 0.0, 1.741628098930909E9, 0.0, 2025-03-10 12:34:58.930
50.0, -26742.38702564085, -9532.303754365892, -34190.368257804905, -30084.442208342818, -15467.138942139023, -23102.226627138454, -16663.96309899844, -14128.135338799399, -27341.480832276444, -29215.20521822038, -33352.35665468653, -10828.280249629051, -32722.640958147167, -24313.892342316194, -34262.07265401753, -30161.801595902634, -0.066, 0.974, 0.262, 192.0, 0.0, 0.0, 0.0, 0.0, 0.0, 0.0, 0.0, 0.0, 0.0, 1.74162809893103E9, 0.0, 2025-03-10 12:34:58.931
54.0, -26737.112013949398, -9516.299905335893, -34187.015496136606, -30079.502472818196, -15451.045686131203, -23100.974929448956, -16612.598790240143, -14121.340408484986, -27328.94150363702, -29200.5424738577, -33344.041805749155, -10825.978019950155, -32712.42621093109, -24319.301464474378, -34244.57123810902, -30165.69079943786, -0.07200000000000001, 0.972, 0.27, 192.0, 126.5, 96.0, 15.0, 48.0, 4.0, 56.0, 0.0, 0.0, 0.0, 1.741628098931161E9, 0.0, 2025-03-10 12:34:58.931
54.0, -26750.791281556045, -9524.614754273267, -34189.78711244906, -30080.687115274326, -15454.845482688605, -23089.66494675457, -16631.15073813805, -14107.616437389426, -27328.94150363702, -29200.5424738577, -33344.041805749155, -10825.978019950155, -32712.42621093109, -24319.301464474378, -34244.57123810902, -30165.69079943786, -0.07200000000000001, 0.972, 0.27, 192.0, 63.25, 48.0, 7.5, 24.0, 2.0, 28.0, 0.0, 0.0, 0.0, 1.74162809893129E9, 0.0, 2025-03-10 12:34:58.931
54.0, -26714.045013671523, -9522.334876338826, -34194.95036541824, -30089.314888634075, -15453.01263964327, -23095.34228984622, -16628.24501135886, -14122.636809663392, -27328.94150363702, -29200.5424738577, -33344.041805749155, -10825.978019950155, -32712.42621093109, -24319.301464474378, -34244.57123810902, -30165.69079943786, -0.07200000000000001, 0.972, 0.27, 192.0, 31.625, 24.0, 3.75, 12.0, 1.0, 14.0, 0.0, 0.0, 0.0, 1.741628098931402E9, 0.0, 2025-03-10 12:34:58.931
58.0, -26742.141156451842, -9522.558393783378, -34191.262327583114, -30078.563699551072, -15450.330430308633, -23109.200371408508, -16629.653171259542, -14147.648411708882, -27335.825840929254, -29207.762087316765, -33343.415956904406, -10823.51932806007, -32736.923722854106, -24328.15275527868, -34239.07270897302, -30158.649999934438, -0.07200000000000001, 0.972, 0.27, 192.0, 0.0, 0.0, 0.0, 0.0, 0.0, 0.0, 0.0, 0.0, 0.0, 1.741628098931514E9, 0.0, 2025-03-10 12:34:58.931
60.0, -26707.47360080166, -9524.950030440097, -34184.33328680197, -30086.632679299437, -15439.2439650588, -23081.841836195214, -16613.17993559598, -14115.439547948785, -27338.239829330425, -29210.176075717936, -33337.80566904612, -10825.061598427486, -32719.399955201145, -24320.731976119518, -34242.55958110805, -30157.152433055933, -0.07200000000000001, 0.972, 0.27, 192.0, 0.0, 0.0, 0.0, 0.0, 0.0, 0.0, 0.0, 0.0, 0.0, 1.741628098931635E9, 0.0, 2025-03-10 12:34:58.931
0.0, -13419.428577354978, -5070.0014913083905, -17072.530635896997, -14976.741668789587, -7666.916569103786, -11533.701304638542, -8348.667126735107, -6973.498400866795, -13665.007193685437, -14596.203219437984, -16669.126351967618, -5410.038579706977, -16351.083380113052, -12143.859224779515, -17112.47320323863, -15079.090306650438, -0.07200000000000001, 0.97, 0.268, 192.0, 126.5, 112.0, 15.0, 40.0, 4.0, 48.0, 0.0, 0.0, 0.0, 1.74162809909222E9, 0.0, 2025-03-10 12:34:59.092
2.0, -26895.47412341525, -10167.003889918791, -34167.05538833802, -29974.471625622708, -15371.94286250387, -23094.76114449038, -16734.68401845503, -14029.050055629023, -27267.742427318386, -29769.41672198972, -33274.7513979377, -10806.308484829484, -32820.80981979487, -24149.674075803054, -34019.28800574398, -30042.487984000207, -0.07200000000000001, 0.97, 0.268, 192.0, 0.0, 0.0, 0.0, 0.0, 0.0, 0.0, 0.0, 0.0, 0.0, 1.741628099092384E9, 0.0, 2025-03-10 12:34:59.092
4.0, -26873.502358615682, -10164.902825939993, -34148.503440440116, -29967.207308674733, -15350.529891315688, -23075.13631285862, -16704.799736118286, -13950.550729101984, -27288.931881062017, -29780.682001195193, -33302.44520931783, -10823.832252482445, -32861.3558842368, -24128.216401125956, -34095.3956956143, -30056.07784462903, -0.07200000000000001, 0.97, 0.268, 192.0, 0.0, 0.0, 0.0, 0.0, 0.0, 0.0, 0.0, 0.0, 0.0, 1.741628099092503E9, 0.0, 2025-03-10 12:34:59.092
6.0, -26882.21953895325, -10157.01266014727, -34153.7113968982, -29964.9721342292, -15356.006068707236, -23082.780609462334, -16716.6461606796, -13975.159999747277, -27274.62676461062, -29775.474044737108, -33279.19939508431, -10808.677769741747, -32800.492084085, -24196.188056014547, -34009.76616260602, -30040.073995599032, -0.07200000000000001, 0.97, 0.268, 192.0, 0.0, 0.0, 0.0, 0.0, 0.0, 0.0, 0.0, 0.0, 0.0, 1.741628099092634E9, 0.0, 2025-03-10 12:34:59.092
8.0, -26865.768655034146, -10148.38488678752, -34153.55493468701, -29965.44152086276, -15348.51823431471, -23098.739755003426, -16696.998977303385, -13998.361110491885, -27269.575270363723, -29773.484739480587, -33292.2081103573, -10811.47173779866, -32845.530849162446, -24200.613701416696, -34089.18191065573, -30052.032178882622, -0.066, 0.972, 0.274, 192.0, 126.5, 120.0, 15.0, 48.0, 4.0, 72.0, 0.0, 0.0, 0.0, 1.741628099092754E9, 0.0, 2025-03-10 12:34:59.092
10.0, -26878.732666818225, -10152.966994400858, -34170.318743028496, -29968.906041253336, -15362.219853665812, -23085.462818796972, -16729.945448630508, -13993.44372671172, -27260.4334068815, -29780.32437328391, -33277.50066250571, -10808.655417997292, -32816.33947090381, -24171.243509202424, -34021.79140112298, -30061.196394109298, -0.066, 0.972, 0.274, 192.0, 0.0, 0.0, 0.0, 0.0, 0.0, 0.0, 0.0, 0.0, 0.0, 1.741628099092882E9, 0.0, 2025-03-10 12:34:59.092
12.0, -26879.693791829803, -10150.418895532954, -34173.604449463426, -29974.0245907336, -15364.991469978271, -23102.740717260924, -16739.82491967975, -14037.700180733227, -27264.54612786128, -29773.66355343623, -33299.18185462736, -10812.23169711014, -32867.346151750826, -24178.016087772383, -34100.78246602803, -30060.41408305336, -0.066, 0.972, 0.274, 192.0, 0.0, 0.0, 0.0, 0.0, 0.0, 0.0, 0.0, 0.0, 0.0, 1.741628099093015E9, 0.0, 2025-03-10 12:34:59.093
14.0, -26884.36530642096, -10156.207997346879, -34175.057312853016, -29971.923526754803, -15366.533740345687, -23073.03524887982, -16722.79289040481, -13968.85680781088, -27261.618049337634, -29771.830710390892, -33283.87090967547, -10804.743862717613, -32821.614482595265, -24128.484622059423, -34031.69322391668, -30056.815452196057, -0.066, 0.972, 0.274, 192.0, 0.0, 0.0, 0.0, 0.0, 0.0, 0.0, 0.0, 0.0, 0.0, 1.741628099093143E9, 0.0, 2025-03-10 12:34:59.093
16.0, -26885.16996922135, -10149.793046688204, -34167.74829241613, -29967.900212752847, -15368.52304560221, -23085.66398449707, -16729.78898641932, -14008.1064710744, -27274.649116355078, -29774.89289938127, -33308.56958729858, -10820.85947046989, -32846.89430557422, -24173.746904581418, -34102.61530907337, -30054.46851902825, -0.066, 0.972, 0.274, 192.0, 0.0, 0.0, 0.0, 0.0, 0.0, 0.0, 0.0, 0.0, 0.0, 1.741628099151755E9, 0.0, 2025-03-10 12:34:59.151
18.0, -26875.93869876131, -10143.95924138537, -34167.658885438315, -29973.957535500234, -15362.443371110365, -23094.448220068007, -16712.622846677645, -14007.480622229652, -27259.964020247942, -29769.483777223086, -33281.70279046331, -10800.429976037738, -32823.38027040724, -24174.39510517062, -34026.23939826959, -30051.719254460248, -0.07200000000000001, 0.978, 0.276, 192.0, 126.5, 96.0, 15.0, 72.0, 4.0, 80.0, 0.0, 0.0, 0.0, 1.741628099151886E9, 0.0, 2025-03-10 12:34:59.151
20.0, -26886.198149466294, -10133.163348813458, -34160.48397546816, -29956.03143644708, -15359.112961186525, -23073.437580280017, -16714.20982053397, -13982.446668439707, -27268.278869185317, -29778.156254071746, -33300.12062789448, -10815.629162267347, -32863.74752089352, -24153.965610738473, -34085.06918967595, -30055.608457995473, -0.07200000000000001, 0.978, 0.276, 192.0, 0.0, 0.0, 0.0, 0.0, 0.0, 0.0, 0.0, 0.0, 0.0, 1.741628099152038E9, 0.0, 2025-03-10 12:34:59.152
22.0, -26858.437282852803, -10131.799892401683, -34147.36350147289, -29957.93133472578, -15351.669830282908, -23091.251920610895, -16710.298265254292, -13995.097755801411, -27254.241973667384, -29771.383675501787, -33276.29366830512, -10798.172449847752, -32804.51539808696, -24182.82171283027, -34028.29575875947, -30043.7396816897, -0.07200000000000001, 0.978, 0.276, 192.0, 0.0, 0.0, 0.0, 0.0, 0.0, 0.0, 0.0, 0.0, 0.0, 1.741628099152156E9, 0.0, 2025-03-10 12:34:59.152
24.0, -26879.693791829803, -10133.252755791278, -34151.364463730395, -29950.935238711267, -15364.298565900155, -23083.42881005154, -16734.7510736884, -14000.573933192962, -27254.68900855649, -29760.766596885514, -33283.17800559736, -10794.015025379065, -32827.694157087106, -24173.076352247757, -34073.066302903455, -30053.105062616476, -0.07200000000000001, 0.978, 0.276, 192.0, 0.0, 0.0, 0.0, 0.0, 0.0, 0.0, 0.0, 0.0, 0.0, 1.741628099152263E9, 0.0, 2025-03-10 12:34:59.152
26.0, -26848.848384481476, -10128.782406900216, -34147.6093706619, -29956.567878314007, -15343.690257512362, -23079.47255128295, -16700.508201182867, -13974.511799158074, -27245.63655205209, -29766.980381844092, -33267.62119145646, -10793.836211423422, -32816.160656948174, -24151.126939192647, -34033.39195649528, -30044.924324145835, -0.07200000000000001, 0.978, 0.276, 192.0, 0.0, 0.0, 0.0, 0.0, 0.0, 0.0, 0.0, 0.0, 0.0, 1.741628099152386E9, 0.0, 2025-03-10 12:34:59.152
28.0, -26877.57037610655, -10131.017581345748, -34155.812460877, -29957.126671925387, -15361.951632732349, -23085.015783907867, -16719.88716362562, -13995.0530523125, -27247.379988119603, -29759.201974773645, -33279.668781717875, -10794.70792945718, -32860.417110969676, -24147.97534322445, -34063.85738418787, -30052.680379471825, -0.066, 0.98, 0.272, 192.0, 126.5, 120.0, 15.0, 80.0, 4.0, 64.0, 0.0, 0.0, 0.0, 1.741628099152509E9, 0.0, 2025-03-10 12:34:59.152
30.0, -26840.332369844007, -10125.854328376572, -34148.078757295465, -29959.183032415276, -15345.992487191259, -23100.684356771035, -16724.40221600559, -14003.077328571955, -27242.216735150425, -29765.84044287687, -33269.2528688017, -10792.09277535591, -32825.950721019595, -24182.03940177434, -34045.6854159457, -30055.541402762105, -0.066, 0.98, 0.272, 192.0, 0.0, 0.0, 0.0, 0.0, 0.0, 0.0, 0.0, 0.0, 0.0, 1.741628099210629E9, 0.0, 2025-03-10 12:34:59.210
32.0, -26877.346858661993, -10125.161424298456, -34151.498574197125, -29955.58440155797, -15353.905004728438, -23104.77472600636, -16734.035817865828, -14007.972360607668, -27239.825098493708, -29765.907498110235, -33270.370456024466, -10795.266723068562, -32849.66592188668, -24165.58851785523, -34061.46574753115, -30062.023408654146, -0.066, 0.98, 0.272, 192.0, 0.0, 0.0, 0.0, 0.0, 0.0, 0.0, 0.0, 0.0, 0.0, 1.741628099210783E9, 0.0, 2025-03-10 12:34:59.210
34.0, -26845.94265770229, -10132.537499968708, -34146.29061773904, -29959.719474282203, -15347.870033725505, -23074.354001802683, -16724.20105030549, -13980.166790505265, -27245.569496818724, -29768.388541744775, -33264.71546467727, -10795.222019579653, -32810.7962382789, -24140.53221232083, -34045.75247117907, -30038.151745575877, -0.066, 0.98, 0.272, 192.0, 0.0, 0.0, 0.0, 0.0, 0.0, 0.0, 0.0, 0.0, 0.0, 1.741628099210917E9, 0.0, 2025-03-10 12:34:59.210
36.0, -26885.54994887709, -10132.76101741326, -34162.49563246914, -29958.713645781714, -15369.864150269528, -23094.22470262345, -16747.625678494656, -13987.833438853437, -27260.589869092688, -29776.9269081267, -33283.20035734181, -10804.542697017516, -32837.417165925166, -24172.11522723618, -34052.50269800457, -30056.9942661517, -0.066, 0.98, 0.272, 192.0, 0.0, 0.0, 0.0, 0.0, 0.0, 0.0, 0.0, 0.0, 0.0, 1.741628099211037E9, 0.0, 2025-03-10 12:34:59.211
38.0, -26848.55781180356, -10126.234308032312, -34146.33532122795, -29960.613544060416, -15344.316106357111, -23088.65911825408, -16718.747224658397, -14000.126898303855, -27250.509232343346, -29758.26320150652, -33278.126511350456, -10783.532057229526, -32837.126593247245, -24153.92090724956, -34067.1430906228, -30046.488946257705, -0.064, 0.976, 0.272, 192.0, 127.0, 0.0, 15.0, 64.0, 4.0, 64.0, 0.0, 0.0, 0.0, 1.741628099211151E9, 0.0, 2025-03-10 12:34:59.211
40.0, -26885.773466321643, -10137.320773282145, -34155.45483296571, -29957.663113792314, -15366.578443834596, -23089.240263609918, -16736.78508243383, -13998.942255847724, -27256.16422369054, -29767.51682371102, -33285.21201434279, -10793.478583512138, -32834.08675600133, -24152.110415948682, -34043.22672405562, -30057.038969640613, -0.064, 0.976, 0.272, 192.0, 0.0, 0.0, 0.0, 0.0, 0.0, 0.0, 0.0, 0.0, 0.0, 1.741628099211265E9, 0.0, 2025-03-10 12:34:59.211
42.0, -26844.9368292018, -10132.023409846237, -34141.932027570256, -29967.140253441365, -15335.487167297266, -23101.936054460533, -16719.753053158885, -14011.459232742696, -27256.432444624003, -29762.957067842137, -33289.168273111376, -10793.456231767683, -32844.748538106505, -24143.840270500215, -34080.42002682925, -30059.56471676406, -0.064, 0.976, 0.272, 192.0, 0.0, 0.0, 0.0, 0.0, 0.0, 0.0, 0.0, 0.0, 0.0, 1.74162809921139E9, 0.0, 2025-03-10 12:34:59.211
44.0, -26885.50524538818, -10140.405314016976, -34159.72401615668, -29968.995448231155, -15366.936071745882, -23093.218874122966, -16742.93181215904, -14006.854773384903, -27252.72205504442, -29769.99786734556, -33285.23436608724, -10793.925618401245, -32834.08675600133, -24191.114210023192, -34031.31324426094, -30059.274144086143, -0.064, 0.976, 0.272, 192.0, 0.0, 0.0, 0.0, 0.0, 0.0, 0.0, 0.0, 0.0, 0.0, 1.741628099211509E9, 0.0, 2025-03-10 12:34:59.211
46.0, -26856.090349684997, -10130.43643598991, -34144.94951307172, -29972.057637221533, -15349.23349013728, -23084.61345250767, -16717.719044413454, -13990.739165632625, -27262.087435971196, -29781.576070973406, -33303.33927909604, -10808.878935441844, -32845.19557299562, -24194.422268202576, -34086.611460043365, -30063.878603443936, -0.064, 0.976, 0.272, 192.0, 0.0, 0.0, 0.0, 0.0, 0.0, 0.0, 0.0, 0.0, 0.0, 1.74162809927246E9, 0.0, 2025-03-10 12:34:59.272
48.0, -26880.498454630193, -10124.401464986977, -34144.41307120479, -29957.998389959146, -15352.116865172013, -23099.85734222619, -16721.094157826206, -14018.365921779387, -27247.514098586336, -29768.99203884507, -33280.60755498499, -10793.322121300951, -32812.2938051574, -24145.49429958991, -34027.53579944799, -30059.22944059723, -0.066, 0.978, 0.27, 192.0, 126.5, 120.0, 15.0, 72.0, 4.0, 56.0, 0.0, 0.0, 0.0, 1.741628099272624E9, 0.0, 2025-03-10 12:34:59.272
50.0, -26854.16809966184, -10121.920421352437, -34141.06030953649, -29959.719474282203, -15342.03622842267, -23091.654252011092, -16705.135012285114, -14007.01123559609, -27253.616124822634, -29757.65970440623, -33294.487988291745, -10793.925618401245, -32844.3015032174, -24154.747921794406, -34092.19939615719, -30068.684228501825, -0.066, 0.978, 0.27, 192.0, 0.0, 0.0, 0.0, 0.0, 0.0, 0.0, 0.0, 0.0, 0.0, 1.741628099272754E9, 0.0, 2025-03-10 12:34:59.272
52.0, -26877.883300528923, -10131.375209257032, -34146.5588386725, -29958.64659054835, -15350.932222715883, -23096.169304391064, -16711.63936992161, -13982.044337039511, -27240.383892105092, -29754.709274138128, -33272.315057792075, -10777.340624015407, -32825.1460582192, -24157.74305555142, -34017.18694176518, -30049.90876315937, -0.066, 0.978, 0.27, 192.0, 0.0, 0.0, 0.0, 0.0, 0.0, 0.0, 0.0, 0.0, 0.0, 1.741628099272873E9, 0.0, 2025-03-10 12:34:59.272
54.0, -26856.515032829648, -10119.282915506712, -34129.92914079775, -29947.60482878743, -15331.307391084123, -23068.654306966582, -16707.057262308273, -13944.42635112123, -27250.330418387704, -29757.905573595235, -33286.709581221294, -10781.945083373199, -32858.62897141325, -24142.275648388346, -34084.08571291992, -30043.51616424515, -0.066, 0.978, 0.27, 192.0, 0.0, 0.0, 0.0, 0.0, 0.0, 0.0, 0.0, 0.0, 0.0, 1.741628099272998E9, 0.0, 2025-03-10 12:34:59.272
56.0, -26875.424608638838, -10133.856252891572, -34142.11084152589, -29956.9702097142, -15347.17712964739, -23102.51719981637, -16701.20110526098, -14000.640988426327, -27240.71916827192, -29763.135881797778, -33260.82626114205, -10770.9927285901, -32805.945909732094, -24113.039566640804, -34007.21806373812, -30046.2430770687, -0.066, 0.978, 0.27, 192.0, 0.0, 0.0, 0.0, 0.0, 0.0, 0.0, 0.0, 0.0, 0.0, 1.741628099273113E9, 0.0, 2025-03-10 12:34:59.273
58.0, -26863.533480588616, -10135.510281981264, -34135.18180074475, -29939.871125205893, -15338.459949309821, -23079.8972344276, -16711.035872821318, -13969.594415377906, -27261.30512491526, -29767.829748133394, -33287.08956087704, -10782.928560129234, -32868.03905582894, -24186.12977100966, -34085.851500731886, -30052.43451028282, -0.064, 0.978, 0.268, 192.0, 127.0, 0.0, 15.0, 72.0, 4.0, 48.0, 0.0, 0.0, 0.0, 1.74162809927324E9, 0.0, 2025-03-10 12:34:59.273
60.0, -26867.6909050573, -10142.081694851124, -34139.406280446805, -29946.06255842001, -15350.619298293508, -23077.907929171077, -16713.271047266848, -13987.475810942151, -27249.749273031866, -29761.906535852737, -33262.05560708709, -10768.51168495556, -32815.28893891441, -24149.942296736517, -34001.80894157993, -30036.028329852623, -0.064, 0.978, 0.268, 192.0, 0.0, 0.0, 0.0, 0.0, 0.0, 0.0, 0.0, 0.0, 0.0, 1.741628099332201E9, 0.0, 2025-03-10 12:34:59.332
62.0, -26864.829881767022, -10141.81347391766, -34136.70171936771, -29954.891497479857, -15360.23054840929, -23085.596929263706, -16755.292326842824, -14016.197802567222, -27265.484901128402, -29770.646067934762, -33285.90491842091, -10783.532057229526, -32849.17418350866, -24166.884919033637, -34088.17608215524, -30053.932077161324, -0.064, 0.978, 0.268, 192.0, 0.0, 0.0, 0.0, 0.0, 0.0, 0.0, 0.0, 0.0, 0.0, 1.741628099332332E9, 0.0, 2025-03-10 12:34:59.332
64.0, -26845.585029791004, -10124.468520220342, -34127.00106227411, -29946.375482842384, -15348.2723651257, -23085.552225774794, -16693.377994701623, -13992.773174378059, -27249.57045907622, -29766.13101555479, -33256.87000237346, -10769.830437878423, -32807.33171788832, -24138.364093108667, -34018.7292121326, -30060.302324331085, -0.064, 0.978, 0.268, 192.0, 0.0, 0.0, 0.0, 0.0, 0.0, 0.0, 0.0, 0.0, 0.0, 1.741628099332478E9, 0.0, 2025-03-10 12:34:59.332
66.0, -26865.947468989787, -10122.09923530808, -34135.919408311776, -29944.74380549715, -15347.825330236594, -23092.548321789305, -16728.894916641108, -13991.543828433018, -27244.138985173584, -29753.79285261546, -33269.56579322407, -10768.087001810909, -32863.4569482156, -24159.553546852298, -34079.81652972895, -30064.638562755415, -0.064, 0.978, 0.268, 192.0, 0.0, 0.0, 0.0, 0.0, 0.0, 0.0, 0.0, 0.0, 0.0, 1.741628099332592E9, 0.0, 2025-03-10 12:34:59.332
68.0, -26852.804643250067, -10129.430607489421, -34137.55108565701, -29947.15779389832, -15347.043019180659, -23080.768952461356, -16711.237038521416, -14000.216305281676, -27240.048615938264, -29756.78798637247, -33256.55707795108, -10758.945138328689, -32841.820459582865, -24133.379654095133, -34006.97219454911, -30039.64931245438, -0.07, 0.982, 0.27, 192.0, 126.5, 104.0, 15.0, 88.0, 4.0, 56.0, 0.0, 0.0, 0.0, 1.741628099332699E9, 0.0, 2025-03-10 12:34:59.332
70.0, -26866.21568992325, -10124.96025859836, -34124.721184339665, -29932.517401280096, -15346.484225569277, -23078.354964060185, -16717.58493394672, -13963.492389141607, -27251.179784677006, -29758.777291628994, -33277.09833110551, -10766.902359354777, -32847.207229996595, -24118.515744032353, -34070.540555780004, -30057.977742907733, -0.07, 0.982, 0.27, 192.0, 0.0, 0.0, 0.0, 0.0, 0.0, 0.0, 0.0, 0.0, 0.0, 1.741628099332837E9, 0.0, 2025-03-10 12:34:59.332
72.0, -26830.69876798377, -10126.413121987955, -34121.435477904735, -29937.233619360166, -15343.422036578899, -23081.730077472937, -16711.192335032505, -13998.070537813966, -27241.076796183206, -29752.65291364824, -33247.16934527986, -10756.061763293954, -32799.35214511778, -24170.461198146488, -34011.73311611809, -30038.84464965399, -0.07, 0.982, 0.27, 192.0, 0.0, 0.0, 0.0, 0.0, 0.0, 0.0, 0.0, 0.0, 0.0, 1.741628099332956E9, 0.0, 2025-03-10 12:34:59.332
74.0, -26866.148634689886, -10129.587069700608, -34129.16918148627, -29936.74188098215, -15350.619298293508, -23075.605699492182, -16719.26131478087, -13990.783869121537, -27247.96113347544, -29757.436186961677, -33258.36756925197, -10766.187103532207, -32842.62512238325, -24157.72070380696, -34054.40259628327, -30038.330559531518, -0.07, 0.982, 0.27, 192.0, 0.0, 0.0, 0.0, 0.0, 0.0, 0.0, 0.0, 0.0, 0.0, 1.741628099333074E9, 0.0, 2025-03-10 12:34:59.333
76.0, -26852.89405022789, -10144.272165807744, -34143.85427759341, -29957.149023669845, -15348.741751759262, -23080.210158849975, -16703.5927419177, -13973.863598568869, -27258.24293592488, -29771.27191677951, -33267.46472924527, -10777.65354843778, -32845.01675903997, -24174.372753426167, -34030.59798843837, -30058.849460941492, -0.07, 0.982, 0.27, 192.0, 0.0, 0.0, 0.0, 0.0, 0.0, 0.0, 0.0, 0.0, 0.0, 1.741628099390949E9, 0.0, 2025-03-10 12:34:59.390
78.0, -26885.348783176993, -10138.348953527087, -34153.2643620091, -29946.30842760902, -15366.109057201036, -23075.739809958915, -16729.632524208133, -13978.33394745993, -27263.92027901653, -29766.55569869944, -33287.91657542188, -10782.28035954003, -32865.53566044995, -24157.78775904033, -34053.150898593776, -30050.46755677075, -0.058, 0.988, 0.272, 192.0, 127.0, 24.0, 15.0, 112.0, 4.0, 64.0, 0.0, 0.0, 0.0, 1.741628099391106E9, 0.0, 2025-03-10 12:34:59.391
80.0, -26837.49369829818, -10126.48017722132, -34134.71241411119, -29940.005235672623, -15334.838966708061, -23060.76414117386, -16688.371203943636, -13965.436990909218, -27255.20309867896, -29760.878355607794, -33275.08667410453, -10770.769211145545, -32859.21011676909, -24144.935505978527, -34035.35891000735, -30040.588085721505, -0.058, 0.988, 0.272, 192.0, 0.0, 0.0, 0.0, 0.0, 0.0, 0.0, 0.0, 0.0, 0.0, 1.741628099391216E9, 0.0, 2025-03-10 12:34:59.391
82.0, -26868.160291690863, -10135.264412792256, -34139.1604112578, -29942.508631051616, -15352.340382616567, -23075.33747855872, -16735.10870159968, -13991.275607499554, -27247.71526428643, -29758.106739295334, -33262.72615942075, -10768.534036700015, -32841.462831671575, -24119.745089977398, -34030.66504367173, -30036.721233930737, -0.058, 0.988, 0.272, 192.0, 0.0, 0.0, 0.0, 0.0, 0.0, 0.0, 0.0, 0.0, 0.0, 1.741628099391296E9, 0.0, 2025-03-10 12:34:59.391
84.0, -26843.618076278937, -10145.546215241697, -34136.388794945335, -29947.850697976435, -15330.525080028186, -23067.737885443912, -16682.5373986408, -13972.298976456997, -27252.744406788875, -29770.46725397912, -33257.02646458465, -10773.89845536929, -32854.672712644664, -24151.886898504126, -34032.363776250335, -30044.343178789997, -0.058, 0.988, 0.272, 192.0, 0.0, 0.0, 0.0, 0.0, 0.0, 0.0, 0.0, 0.0, 0.0, 1.741628099391395E9, 0.0, 2025-03-10 12:34:59.391
86.0, -26880.65491684138, -10139.757113427773, -34144.97186481617, -29937.770061227093, -15348.808806992629, -23067.33555404372, -16711.661721666067, -13986.62644465285, -27264.032037738805, -29774.51291972553, -33266.660066444885, -10778.055879837977, -32846.223753240556, -24130.853906971683, -34019.39976446626, -30048.61236198096, -0.058, 0.988, 0.272, 192.0, 0.0, 0.0, 0.0, 0.0, 0.0, 0.0, 0.0, 0.0, 0.0, 1.741628099391472E9, 0.0, 2025-03-10 12:34:59.391
88.0, -26848.11077691445, -10137.074904093135, -34142.267303737084, -29937.1665641268, -15324.624219491985, -23066.776760432334, -16687.231264976414, -13973.774191591048, -27255.650133568066, -29758.12909103979, -33268.09057809002, -10766.164751787754, -32850.895267831715, -24156.625468328653, -34042.019729855034, -30042.13035608892, -0.05, 0.978, 0.272, 192.0, 127.0, 56.0, 15.0, 72.0, 4.0, 64.0, 0.0, 0.0, 0.0, 1.741628099391552E9, 0.0, 2025-03-10 12:34:59.391
90.0, -26877.92800401783, -10135.510281981264, -34145.57536191647, -29926.191857599242, -15341.410379577921, -23055.489129482405, -16708.97951233143, -13967.605110121383, -27258.15352894706, -29766.533346954984, -33271.622153713965, -10771.283301268018, -32877.471491989076, -24165.36500041068, -34003.75354334754, -30038.28585604261, -0.05, 0.978, 0.272, 192.0, 0.0, 0.0, 0.0, 0.0, 0.0, 0.0, 0.0, 0.0, 0.0, 1.741628099391638E9, 0.0, 2025-03-10 12:34:59.391
92.0, -26834.096233140976, -10145.76973268625, -34133.952454799706, -29940.20640137272, -15333.98960041876, -23062.217004563452, -16705.246771007394, -14004.038453583535, -27256.074816712717, -29761.99594283056, -33266.034217600136, -10767.617615177347, -32846.89430557422, -24129.468098815454, -34037.45997398615, -30032.832030395515, -0.05, 0.978, 0.272, 192.0, 0.0, 0.0, 0.0, 0.0, 0.0, 0.0, 0.0, 0.0, 0.0, 1.741628099414381E9, 0.0, 2025-03-10 12:34:59.414
94.0, -26863.153500932873, -10136.069075592646, -34130.93496929824, -29920.045127874033, -15338.661115009918, -23048.26951602334, -16710.722948398943, -13943.398170876286, -27253.43731086699, -29760.65483816324, -33255.95358085079, -10763.46019070866, -32820.631005839234, -24128.551677292788, -33991.14715947475, -30031.46857398374, -0.05, 0.978, 0.272, 192.0, 0.0, 0.0, 0.0, 0.0, 0.0, 0.0, 0.0, 0.0, 0.0, 1.7416280994678E9, 0.0, 2025-03-10 12:34:59.467
96.0, -26831.97281741772, -10126.837805132605, -34118.283881936535, -29928.02470064458, -15311.950780385827, -23058.75248417288, -16678.737602083398, -13960.631365851328, -27243.334322373194, -29747.891992079258, -33251.46088021527, -10751.770228358535, -32841.038148526924, -24128.663436015064, -34042.26559904404, -30025.52300995863, -0.05, 0.978, 0.272, 192.0, 0.0, 0.0, 0.0, 0.0, 0.0, 0.0, 0.0, 0.0, 0.0, 1.741628099467918E9, 0.0, 2025-03-10 12:34:59.467
98.0, -26880.78902730811, -10153.168160100957, -34147.13998402834, -29950.577610799985, -15340.538661544164, -23075.51629251436, -16716.22147753495, -13994.494258701117, -27247.558802075244, -29767.025085333004, -33256.89235411792, -10764.84599886489, -32836.433689169135, -24133.78198549533, -33983.10053147084, -30039.984588621213, -0.062, 0.974, 0.272, 192.0, 127.0, 8.0, 15.0, 56.0, 4.0, 64.0, 0.0, 0.0, 0.0, 1.741628099468011E9, 0.0, 2025-03-10 12:34:59.468
100.0, -26856.69384678529, -10149.457770521376, -34131.806687332, -29949.907058466324, -15319.438614778355, -23063.401647019586, -16692.77449760133, -13976.47875267014, -27270.178767464015, -29778.670344194215, -33298.44424706033, -10783.532057229526, -32870.833023885854, -24162.906308520593, -34064.77380571053, -30056.10019637349, -0.062, 0.974, 0.272, 192.0, 0.0, 0.0, 0.0, 0.0, 0.0, 0.0, 0.0, 0.0, 0.0, 1.741628099468097E9, 0.0, 2025-03-10 12:34:59.468
102.0, -26873.345896404495, -10160.790104960217, -34141.84262059243, -29955.83027074698, -15325.562992759109, -23057.09845508319, -16699.636483149112, -13976.299938714497, -27261.90862201555, -29781.352553528854, -33283.49093001973, -10781.632158950826, -32814.908959258675, -24157.228965428945, -33986.58740360587, -30049.819356181546, -0.062, 0.974, 0.272, 192.0, 0.0, 0.0, 0.0, 0.0, 0.0, 0.0, 0.0, 0.0, 0.0, 1.741628099468175E9, 0.0, 2025-03-10 12:34:59.468
104.0, -26853.676361283826, -10151.648241477997, -34134.913579811284, -29950.242334633152, -15318.879821166973, -23058.171338817043, -16694.987320302407, -13990.783869121537, -27269.128235474618, -29776.435169748685, -33297.50547379321, -10785.476658997139, -32862.227602270556, -24110.335005561712, -34062.091596375896, -30053.79796669459, -0.062, 0.974, 0.272, 192.0, 0.0, 0.0, 0.0, 0.0, 0.0, 0.0, 0.0, 0.0, 0.0, 1.741628099468252E9, 0.0, 2025-03-10 12:34:59.468
106.0, -26863.913460244356, -10145.188587330413, -34141.97673105916, -29949.571782299496, -15335.93420218637, -23057.791359161303, -16712.51108795537, -13980.658528883283, -27255.7842440348, -29771.629544690793, -33270.68338044684, -10772.155019301776, -32823.916712274164, -24166.817863800272, -33985.55922336093, -30048.590010236505, -0.062, 0.974, 0.272, 192.0, 0.0, 0.0, 0.0, 0.0, 0.0, 0.0, 0.0, 0.0, 0.0, 1.741628099468337E9, 0.0, 2025-03-10 12:34:59.468
108.0, -26860.51599508715, -10140.2935552947, -34136.388794945335, -29947.850697976435, -15337.208251620325, -23050.057655579767, -16709.717119898454, -13976.255235225588, -27259.00289523636, -29763.582916686886, -33290.79995045662, -10776.245388537096, -32868.35198025131, -24098.130953089116, -34068.77476796803, -30043.694978200794, -0.064, 0.976, 0.268, 192.0, 127.0, 0.0, 15.0, 64.0, 4.0, 48.0, 0.0, 0.0, 0.0, 1.741628099468412E9, 0.0, 2025-03-10 12:34:59.468
110.0, -26863.779349777622, -10144.361572785565, -34141.95437931471, -29956.724340525194, -15336.045960908648, -23063.17812957503, -16695.747279613886, -14000.551581448506, -27244.608371807146, -29763.4264544757, -33269.11875833497, -10765.918882598744, -32809.41043012267, -24184.051058775316, -33992.22004320861, -30058.916516174857, -0.064, 0.976, 0.268, 192.0, 0.0, 0.0, 0.0, 0.0, 0.0, 0.0, 0.0, 0.0, 0.0, 1.741628099531614E9, 0.0, 2025-03-10 12:34:59.531
112.0, -26878.79972205159, -10144.026296618737, -34138.51221066859, -29946.487241564664, -15326.524117770687, -23037.004236817866, -16696.239017991902, -13949.813121534959, -27264.479072627913, -29766.55569869944, -33301.84171221754, -10778.592321704904, -32876.979753611064, -24164.180357954545, -34066.51724177805, -30050.869888170946, -0.064, 0.976, 0.268, 192.0, 0.0, 0.0, 0.0, 0.0, 0.0, 0.0, 0.0, 0.0, 0.0, 1.741628099531716E9, 0.0, 2025-03-10 12:34:59.531
114.0, -26865.120454444943, -10145.613270475063, -34137.796954846024, -29949.571782299496, -15330.949763172837, -23060.004181862376, -16714.388634489613, -13985.285339985532, -27254.174918434015, -29765.84044287687, -33281.43456952984, -10771.50681871257, -32826.77773556444, -24142.856793744184, -33999.797284578955, -30046.265428813153, -0.064, 0.976, 0.268, 192.0, 0.0, 0.0, 0.0, 0.0, 0.0, 0.0, 0.0, 0.0, 0.0, 1.741628099531791E9, 0.0, 2025-03-10 12:34:59.531
116.0, -26883.605347109482, -10153.548139756696, -34141.44028919224, -29950.331741610975, -15334.41428356341, -23057.254917294376, -16701.20110526098, -13974.176522991243, -27262.91445051604, -29766.734512655083, -33300.433552316856, -10777.295920526496, -32878.4102652562, -24144.756692022886, -34060.750491708575, -30049.394673036895, -0.064, 0.976, 0.268, 192.0, 0.0, 0.0, 0.0, 0.0, 0.0, 0.0, 0.0, 0.0, 0.0, 1.741628099531875E9, 0.0, 2025-03-10 12:34:59.531
118.0, -26860.98538172071, -10152.430552533931, -34143.94368457123, -29957.193727158756, -15335.93420218637, -23058.551318472782, -16693.489753423903, -13974.310633457975, -27261.573345848723, -29775.630506948295, -33287.93892716634, -10776.021871092544, -32831.06927049986, -24164.426227143555, -34012.26955798502, -30052.702731216283, -0.07200000000000001, 0.978, 0.268, 192.0, 126.5, 96.0, 15.0, 72.0, 4.0, 48.0, 0.0, 0.0, 0.0, 1.74162809953196E9, 0.0, 2025-03-10 12:34:59.531
120.0, -26872.40712313737, -10153.3469740566, -34139.339225213436, -29953.30452362353, -15333.408455062921, -23058.350152772684, -16714.12041355615, -13987.140534775323, -27263.49559587188, -29773.305925524943, -33298.84657846053, -10784.739051430113, -32854.78447136694, -24139.30286637579, -34057.50948876256, -30051.00399863768, -0.07200000000000001, 0.978, 0.268, 192.0, 0.0, 0.0, 0.0, 0.0, 0.0, 0.0, 0.0, 0.0, 0.0, 1.741628099532045E9, 0.0, 2025-03-10 12:34:59.532
122.0, -26856.895012485387, -10157.370288058555, -34147.67642589527, -29965.26270690712, -15318.74571070024, -23060.56297547376, -16692.796849345785, -13977.216360237166, -27264.59083135019, -29776.256355793044, -33287.3577818105, -10786.571894475448, -32826.46481114207, -24096.611034466154, -34008.737982361075, -30051.0934056155, -0.07200000000000001, 0.978, 0.268, 192.0, 0.0, 0.0, 0.0, 0.0, 0.0, 0.0, 0.0, 0.0, 0.0, 1.741628099532128E9, 0.0, 2025-03-10 12:34:59.532
124.0, -26875.245794683196, -10161.997099160802, -34149.28575149605, -29962.871070250403, -15339.801053977139, -23080.14310361661, -16731.197146320003, -13996.662377913282, -27275.140854733094, -29785.80055067546, -33309.10602916551, -10801.659321982781, -32893.78826544145, -24190.801285600817, -34051.183945081706, -30067.700751745793, -0.07200000000000001, 0.978, 0.268, 192.0, 0.0, 0.0, 0.0, 0.0, 0.0, 0.0, 0.0, 0.0, 0.0, 1.741628099589736E9, 0.0, 2025-03-10 12:34:59.589
126.0, -26845.674436768822, -10142.796950673694, -34134.444193177726, -29960.74765452715, -15314.409472275911, -23074.108132613677, -16686.068974264737, -13990.33683423243, -27254.823119023218, -29777.1280738268, -33284.832034687046, -10785.454307252683, -32812.78554353542, -24166.97432601146, -34015.7787818645, -30058.38007430793, -0.07200000000000001, 0.978, 0.268, 192.0, 0.0, 0.0, 0.0, 0.0, 0.0, 0.0, 0.0, 0.0, 0.0, 1.741628099589819E9, 0.0, 2025-03-10 12:34:59.589
128.0, -26883.51594013166, -10149.167197843457, -34141.909675825795, -29956.1208434249, -15346.595984291553, -23059.244222550897, -16726.63739045112, -13983.832476595937, -27260.142834203583, -29775.406989503743, -33295.87379644797, -10786.974225875643, -32857.57843942385, -24163.286288176336, -34036.74471816358, -30060.9952284092, -0.07200000000000001, 0.978, 0.268, 192.0, 126.5, 96.0, 15.0, 72.0, 4.0, 48.0, 0.0, 0.0, 0.0, 1.741628099589909E9, 0.0, 2025-03-10 12:34:59.589
130.0, -26835.012654663642, -10137.566642471153, -34126.889303551834, -29949.46002357722, -15322.366693302, -23049.45415847947, -16703.033948306318, -13993.220209267165, -27258.175880691517, -29769.528480711997, -33283.557985253094, -10777.742955415602, -32818.5969970938, -24143.504994333387, -34024.20538952415, -30059.676475486336, -0.07200000000000001, 0.978, 0.268, 192.0, 0.0, 0.0, 0.0, 0.0, 0.0, 0.0, 0.0, 0.0, 0.0, 1.741628099589989E9, 0.0, 2025-03-10 12:34:59.589
132.0, -26884.342954676504, -10154.95629965738, -34142.02143454808, -29946.464889820207, -15335.04013240816, -23036.579553673215, -16720.445957237, -13939.196042918687, -27261.819215037733, -29771.696599924162, -33290.06234288959, -10776.200685048187, -32855.4550237006, -24142.2980001328, -34023.66894765722, -30046.42189102434, -0.07200000000000001, 0.978, 0.268, 192.0, 0.0, 0.0, 0.0, 0.0, 0.0, 0.0, 0.0, 0.0, 0.0, 1.741628099590062E9, 0.0, 2025-03-10 12:34:59.590
134.0, -26841.517012300137, -10144.741552441306, -34125.078812250955, -29944.185011885766, -15315.50470775422, -23048.22481253443, -16683.16324748555, -13981.284377728032, -27264.926107517018, -29771.40602724624, -33293.63862200244, -10783.062670595966, -32853.979808566546, -24114.33596781921, -34032.27436927252, -30046.935981146813, -0.07200000000000001, 0.978, 0.268, 192.0, 0.0, 0.0, 0.0, 0.0, 0.0, 0.0, 0.0, 0.0, 0.0, 1.741628099590152E9, 0.0, 2025-03-10 12:34:59.590
136.0, -26877.257451684174, -10148.72016295435, -34143.13902177084, -29936.898343193334, -15329.474548038788, -23041.139309542097, -16731.84534690921, -13970.175560733744, -27262.28860167129, -29771.830710390892, -33288.944755666824, -10781.520400228548, -32841.90986656069, -24118.202819609978, -34005.58638639288, -30047.539478247105, -0.07200000000000001, 0.978, 0.268, 192.0, 0.0, 0.0, 0.0, 0.0, 0.0, 0.0, 0.0, 0.0, 0.0, 1.741628099590233E9, 0.0, 2025-03-10 12:34:59.590
138.0, -26821.758070201646, -10124.781444642716, -34115.221692946165, -29925.96834015469, -15305.22290530478, -23028.957608813955, -16667.71819206693, -13949.299031412487, -27254.264325411837, -29753.3234659819, -33281.72514220776, -10767.014118077055, -32837.64068336972, -24131.546811049797, -34030.3297675049, -30027.55701870406, -0.074, 0.98, 0.27, 192.0, 126.5, 88.0, 15.0, 80.0, 4.0, 56.0, 0.0, 0.0, 0.0, 1.741628099590315E9, 0.0, 2025-03-10 12:34:59.590
140.0, -26867.6909050573, -10140.38296227252, -34135.45002167821, -29935.73605248166, -15330.234507350267, -23044.402664232573, -16708.934808842518, -13968.610938621872, -27241.479127583403, -29748.294323479455, -33268.761130423685, -10759.682745895714, -32832.16450597817, -24142.36505536617, -33990.7224763301, -30028.27227452663, -0.074, 0.98, 0.27, 192.0, 0.0, 0.0, 0.0, 0.0, 0.0, 0.0, 0.0, 0.0, 0.0, 1.741628099643997E9, 0.0, 2025-03-10 12:34:59.643
142.0, -26858.973724719734, -10162.175913116445, -34143.6084084044, -29962.60284931694, -15335.263649852712, -23072.163530846065, -16701.22345700544, -13993.91311334528, -27267.92124127403, -29773.618849947317, -33296.611404015, -10785.007272363577, -32863.03226507095, -24145.136671678625, -34053.285009060506, -30051.00399863768, -0.074, 0.98, 0.27, 192.0, 0.0, 0.0, 0.0, 0.0, 0.0, 0.0, 0.0, 0.0, 0.0, 1.741628099644151E9, 0.0, 2025-03-10 12:34:59.644
144.0, -26885.237024454716, -10169.082602153136, -34151.52092594158, -29956.9702097142, -15353.547376817152, -23069.973059889446, -16739.579050490745, -13997.109412802389, -27277.644250112087, -29790.583823988894, -33303.18281688486, -10790.729318944135, -32844.54737240641, -24172.875186547662, -34010.414363195225, -30061.37520806494, -0.074, 0.98, 0.27, 192.0, 0.0, 0.0, 0.0, 0.0, 0.0, 0.0, 0.0, 0.0, 0.0, 1.741628099644225E9, 0.0, 2025-03-10 12:34:59.644
146.0, -26855.30803862906, -10161.326546827144, -34144.6589403938, -29962.200517916743, -15327.597001504542, -23066.977926132433, -16712.533439699822, -14010.542811220028, -27280.661735613554, -29782.22427156261, -33313.53167456766, -10790.282284055029, -32858.673674902166, -24158.033628229336, -34076.68728550521, -30075.032123927132, -0.074, 0.98, 0.27, 192.0, 0.0, 0.0, 0.0, 0.0, 0.0, 0.0, 0.0, 0.0, 0.0, 1.741628099644298E9, 0.0, 2025-03-10 12:34:59.644
148.0, -26877.9950592512, -10165.148695129, -34158.829946378464, -29961.820538261003, -15348.875862225994, -23045.408492733062, -16727.531460229333, -13952.629441336328, -27278.78418907931, -29786.89578615377, -33302.9592994403, -10789.857600910378, -32852.90692483269, -24136.084215174225, -34010.771991106514, -30065.666743000358, -0.074, 0.98, 0.27, 192.0, 126.5, 88.0, 15.0, 80.0, 4.0, 56.0, 0.0, 0.0, 0.0, 1.741628099644379E9, 0.0, 2025-03-10 12:34:59.644
150.0, -26857.36439911895, -10154.978651401836, -34153.063196309, -29959.94299172676, -15335.643629508451, -23055.958516115967, -16711.08057631023, -13988.81691560947, -27276.12433148913, -29783.855948907847, -33314.604558301515, -10794.75263294609, -32890.27904156197, -24168.158968467593, -34080.50943380707, -30063.677437743838, -0.074, 0.98, 0.27, 192.0, 0.0, 0.0, 0.0, 0.0, 0.0, 0.0, 0.0, 0.0, 0.0, 1.741628099644462E9, 0.0, 2025-03-10 12:34:59.644
152.0, -26869.88137601392, -10158.554930514685, -34149.59867591842, -29955.763215513616, -15343.533795301175, -23057.27726903883, -16713.002826333384, -13966.934557787725, -27268.144758718583, -29784.258280308044, -33293.59391851353, -10785.230789808129, -32857.64549465722, -24175.579747626754, -34003.842950325365, -30072.796949481602, -0.074, 0.98, 0.27, 192.0, 0.0, 0.0, 0.0, 0.0, 0.0, 0.0, 0.0, 0.0, 0.0, 1.74162809964454E9, 0.0, 2025-03-10 12:34:59.644
154.0, -26855.6880182848, -10153.034049634225, -34141.23912349214, -29955.629105046883, -15330.815652706106, -23060.38416151812, -16718.344893258203, -13983.966587062669, -27273.375066921126, -29770.1766813012, -33303.696907007325, -10780.156943816775, -32847.72132011906, -24148.198860669003, -34067.90304993428, -30069.533594791126, -0.074, 0.98, 0.27, 192.0, 0.0, 0.0, 0.0, 0.0, 0.0, 0.0, 0.0, 0.0, 0.0, 1.741628099702837E9, 0.0, 2025-03-10 12:34:59.702
156.0, -26867.13211144592, -10160.410125304476, -34154.71722539869, -29961.999352216644, -15343.779664490185, -23061.881728396624, -16728.98432361893, -13978.803334093493, -27269.999953508373, -29778.491530238574, -33293.52686328016, -10781.587455461915, -32846.000235796004, -24121.734395233918, -33992.68942984217, -30074.741551249215, -0.074, 0.98, 0.27, 192.0, 0.0, 0.0, 0.0, 0.0, 0.0, 0.0, 0.0, 0.0, 0.0, 1.741628099702938E9, 0.0, 2025-03-10 12:34:59.702
158.0, -26865.41102712286, -10152.519959511752, -34156.61712367739, -29958.64659054835, -15344.114940657013, -23064.943917387, -16723.508146227377, -13973.885950313324, -27272.905680287564, -29772.948297613657, -33310.9612239553, -10791.75749918908, -32887.48507350506, -24143.30382863329, -34074.83209071542, -30071.9475831923, -0.074, 0.98, 0.276, 192.0, 126.5, 88.0, 15.0, 80.0, 4.0, 80.0, 0.0, 0.0, 0.0, 1.74162809970302E9, 0.0, 2025-03-10 12:34:59.703
160.0, -26862.214727665752, -10145.210939074866, -34153.13025154236, -29955.53969806906, -15340.046923166148, -23067.447312765995, -16712.01934957735, -13978.28924397102, -27262.668581327034, -29779.251489550054, -33291.403447556906, -10781.810972906467, -32858.517212690975, -24179.513654650887, -34004.602909636844, -30069.779463980136, -0.074, 0.98, 0.276, 192.0, 0.0, 0.0, 0.0, 0.0, 0.0, 0.0, 0.0, 0.0, 0.0, 1.741628099703107E9, 0.0, 2025-03-10 12:34:59.703
162.0, -26858.07965494152, -10143.19928207389, -34139.272169980075, -29944.430881074775, -15334.32487658559, -23059.13246382862, -16702.855134350673, -13973.014232279567, -27267.42950289601, -29771.450730735152, -33303.428686073865, -10776.044222837, -32879.32668677887, -24151.663381059574, -34068.77476796803, -30068.974801179746, -0.074, 0.98, 0.276, 192.0, 0.0, 0.0, 0.0, 0.0, 0.0, 0.0, 0.0, 0.0, 0.0, 1.7416280997032E9, 0.0, 2025-03-10 12:34:59.703
164.0, -26849.071901926032, -10152.072924622647, -34148.503440440116, -29954.2209451462, -15337.834100465072, -23074.309298313776, -16718.41194849157, -13984.123049273856, -27259.964020247942, -29768.165024300222, -33281.188700340834, -10767.237635521607, -32846.93900906313, -24152.02100897086, -34000.221967723606, -30070.360609335974, -0.074, 0.98, 0.276, 192.0, 0.0, 0.0, 0.0, 0.0, 0.0, 0.0, 0.0, 0.0, 0.0, 1.741628099703281E9, 0.0, 2025-03-10 12:34:59.703
166.0, -26865.522785845136, -10156.520921769254, -34150.40333871882, -29960.188860915765, -15344.383161590476, -23074.421057036052, -16724.78219566133, -14022.38923578134, -27272.97273552093, -29784.504149497054, -33311.318851866585, -10793.322121300951, -32897.90098642123, -24170.26003244639, -34059.007055641065, -30074.160405893377, -0.074, 0.98, 0.276, 192.0, 0.0, 0.0, 0.0, 0.0, 0.0, 0.0, 0.0, 0.0, 0.0, 1.741628099703352E9, 0.0, 2025-03-10 12:34:59.703
168.0, -26852.245849638686, -10155.984479902325, -34154.359597487404, -29965.93325924078, -15337.923507442894, -23077.304432070785, -16699.5917796602, -13960.251386195587, -27260.50046211487, -29787.812207676438, -33293.68332549135, -10788.270627054051, -32873.336419264844, -24164.046247487815, -34019.19859876616, -30082.519958319663, -0.068, 0.974, 0.27, 192.0, 126.5, 112.0, 15.0, 56.0, 4.0, 56.0, 0.0, 0.0, 0.0, 1.741628099703429E9, 0.0, 2025-03-10 12:34:59.703
170.0, -26866.238041667708, -10147.96020364287, -34144.54718167152, -29948.655360776826, -15344.673734268395, -23050.929373613522, -16720.803585148285, -13960.944290273703, -27262.176842949015, -29780.592594217374, -33298.57835752706, -10779.598150205393, -32879.48314899005, -24135.1454419071, -34058.22474458513, -30065.1973563668, -0.068, 0.974, 0.27, 192.0, 0.0, 0.0, 0.0, 0.0, 0.0, 0.0, 0.0, 0.0, 0.0, 1.741628099725889E9, 0.0, 2025-03-10 12:34:59.725
172.0, -26838.633637265404, -10150.843578677604, -34145.351844471916, -29955.271477135597, -15333.788434718661, -23067.961402888468, -16699.703538382477, -13992.281436000043, -27261.43923538199, -29774.69173368117, -33282.75332245271, -10769.584568689415, -32825.92836927514, -24119.074537643737, -34019.55622667745, -30063.56567902156, -0.068, 0.974, 0.27, 192.0, 0.0, 0.0, 0.0, 0.0, 0.0, 0.0, 0.0, 0.0, 0.0, 1.741628099781436E9, 0.0, 2025-03-10 12:34:59.781
174.0, -26873.323544660037, -10164.902825939993, -34161.24393477964, -29960.032398704578, -15358.531815830687, -23065.860338909668, -16745.59166974922, -14013.336779276942, -27273.956212276964, -29783.18539657419, -33309.39660184343, -10787.734185187124, -32884.57934672586, -24188.655518133106, -34059.74466320809, -30083.257565886684, -0.068, 0.974, 0.27, 192.0, 0.0, 0.0, 0.0, 0.0, 0.0, 0.0, 0.0, 0.0, 0.0, 1.741628099781521E9, 0.0, 2025-03-10 12:34:59.781
176.0, -26834.073881396518, -10148.094314109601, -34145.95534157221, -29955.271477135597, -15333.900193440939, -23046.347266000186, -16696.909570325563, -13953.367048903352, -27261.618049337634, -29777.08337033789, -33296.521997037176, -10784.023795607543, -32860.86414585878, -24132.463232572467, -34038.175229808716, -30073.087522159523, -0.068, 0.974, 0.27, 192.0, 0.0, 0.0, 0.0, 0.0, 0.0, 0.0, 0.0, 0.0, 0.0, 1.741628099781609E9, 0.0, 2025-03-10 12:34:59.781
178.0, -26870.104893458476, -10138.550119227186, -34141.775565359065, -29941.994540929147, -15342.438559822865, -23053.522175970338, -16725.005713105886, -13965.928729287236, -27254.95722948995, -29777.284536037987, -33295.78438947015, -10777.519437971048, -32894.30235556392, -24176.362058682687, -34044.76899442304, -30061.978705165235, -0.07200000000000001, 0.978, 0.272, 192.0, 126.5, 96.0, 15.0, 72.0, 4.0, 64.0, 0.0, 0.0, 0.0, 1.741628099781693E9, 0.0, 2025-03-10 12:34:59.781
180.0, -26834.297398841074, -10136.627869204029, -34130.42087917577, -29947.805994487524, -15332.89436494045, -23049.47651022393, -16692.93095981252, -13971.2484444676, -27244.25074389586, -29773.90942262524, -33282.596860241516, -10766.298862254485, -32832.99152052301, -24153.295058404812, -34036.65531118576, -30057.843632441003, -0.07200000000000001, 0.978, 0.272, 192.0, 0.0, 0.0, 0.0, 0.0, 0.0, 0.0, 0.0, 0.0, 0.0, 1.741628099781778E9, 0.0, 2025-03-10 12:34:59.781
182.0, -26879.537329618615, -10148.027258876236, -34141.03795779204, -29948.320084609997, -15344.830196479583, -23062.731094685925, -16739.46729176847, -13991.208552266187, -27251.67152305502, -29768.902631867248, -33289.861177189494, -10770.098658811887, -32834.66790135716, -24125.467136557956, -34029.79332563798, -30063.90095518839, -0.07200000000000001, 0.978, 0.272, 192.0, 0.0, 0.0, 0.0, 0.0, 0.0, 0.0, 0.0, 0.0, 0.0, 1.741628099781859E9, 0.0, 2025-03-10 12:34:59.781
184.0, -26843.349855345474, -10147.334354798122, -34136.56760890098, -29947.940104954258, -15325.048902636636, -23043.575649687726, -16677.91058753855, -13983.921883573757, -27253.90669750055, -29772.769483658016, -33293.280994091154, -10770.61274893436, -32837.43951766962, -24157.072503217758, -34044.344311278386, -30059.274144086143, -0.07200000000000001, 0.978, 0.272, 192.0, 0.0, 0.0, 0.0, 0.0, 0.0, 0.0, 0.0, 0.0, 0.0, 1.741628099781942E9, 0.0, 2025-03-10 12:34:59.781
186.0, -26874.061152227063, -10150.195378088401, -34139.74155661363, -29936.20543911522, -15343.444388323354, -23057.880766139122, -16723.150518316095, -13979.518589916062, -27251.62681956611, -29780.547890728463, -33294.756209225205, -10776.401850748283, -32837.908904303185, -24153.987962482926, -34024.69712790217, -30057.441301040806, -0.07200000000000001, 0.978, 0.272, 192.0, 0.0, 0.0, 0.0, 0.0, 0.0, 0.0, 0.0, 0.0, 0.0, 1.741628099782024E9, 0.0, 2025-03-10 12:34:59.782
188.0, -26842.74635824518, -10142.059343106668, -34128.789201830536, -29937.010101915614, -15320.310332812112, -23050.012952090856, -16680.436334662, -13948.181444189722, -27243.44608109547, -29771.04839933496, -33286.17313935437, -10770.545693700993, -32823.80495355189, -24154.92673575005, -34049.95459913666, -30032.69791992878, -0.076, 0.976, 0.274, 192.0, 126.5, 80.0, 15.0, 64.0, 4.0, 72.0, 0.0, 0.0, 0.0, 1.74162809983426E9, 0.0, 2025-03-10 12:34:59.834
190.0, -26871.960088248266, -10141.81347391766, -34139.02630079106, -29932.293883835544, -15346.104245913535, -23056.293792282795, -16714.612151934165, -13986.201761508199, -27235.62297053611, -29770.333143512387, -33271.91272639188, -10769.830437878423, -32798.94981371758, -24134.609000040175, -34005.34051720387, -30023.064318068544, -0.076, 0.976, 0.274, 192.0, 0.0, 0.0, 0.0, 0.0, 0.0, 0.0, 0.0, 0.0, 0.0, 1.741628099834347E9, 0.0, 2025-03-10 12:34:59.834
192.0, -26841.69582625578, -10137.320773282145, -34136.61231238989, -29933.1656018693, -15346.081894169081, -23042.972152587434, -16719.12720431414, -13979.250368982599, -27237.142889159073, -29769.059094078435, -33278.73000845075, -10776.491257726104, -32809.49983710049, -24159.799416041307, -34065.98079991112, -30026.350024503474, -0.076, 0.976, 0.274, 192.0, 0.0, 0.0, 0.0, 0.0, 0.0, 0.0, 0.0, 0.0, 0.0, 1.741628099834435E9, 0.0, 2025-03-10 12:34:59.834
194.0, -26874.575242349536, -10138.773636671738, -34134.22067573317, -29919.463982518195, -15339.354019088034, -23037.56303042925, -16705.984378574416, -13951.37774364683, -27233.834830979686, -29768.656762678238, -33267.37532226746, -10769.56221694496, -32792.49015957, -24126.20474412498, -34004.96053754813, -30016.358794731954, -0.076, 0.976, 0.274, 192.0, 0.0, 0.0, 0.0, 0.0, 0.0, 0.0, 0.0, 0.0, 0.0, 1.741628099834519E9, 0.0, 2025-03-10 12:34:59.834
196.0, -26852.201146149775, -10140.740590183806, -34133.885399566345, -29932.673863491284, -15332.693199240352, -23056.338495771706, -16715.327407756737, -13983.318386473464, -27237.25464788135, -29764.007599831537, -33274.72904619325, -10770.635100678814, -32817.50176161549, -24145.114319934168, -34067.813642956455, -30023.109021557455, -0.076, 0.976, 0.274, 192.0, 0.0, 0.0, 0.0, 0.0, 0.0, 0.0, 0.0, 0.0, 0.0, 1.741628099834593E9, 0.0, 2025-03-10 12:34:59.834
198.0, -26872.02714348163, -10145.188587330413, -34138.46750717968, -29933.76909896959, -15336.090664397558, -23054.438597493005, -16703.860962851162, -13957.546825116495, -27236.472336825413, -29768.030913833492, -33262.97202860976, -10773.741993158103, -32791.05964792486, -24154.5020526054, -33998.83615956738, -30022.79609713508, -0.07200000000000001, 0.974, 0.274, 192.0, 126.5, 96.0, 15.0, 56.0, 4.0, 72.0, 0.0, 0.0, 0.0, 1.741628099834682E9, 0.0, 2025-03-10 12:34:59.834
200.0, -26862.17002417684, -10143.311040796167, -34138.71337636869, -29940.9663606842, -15339.532833043675, -23064.0945510977, -16723.84342239421, -13988.593398164916, -27244.720130529422, -29771.718951668616, -33284.96614515378, -10784.761403174569, -32821.92740701764, -24155.3514188947, -34074.65327675978, -30034.441355996296, -0.07200000000000001, 0.974, 0.274, 192.0, 0.0, 0.0, 0.0, 0.0, 0.0, 0.0, 0.0, 0.0, 0.0, 1.741628099834766E9, 0.0, 2025-03-10 12:34:59.834
202.0, -26870.037838225107, -10142.126398340035, -34135.67353912277, -29933.813802458502, -15340.784530733174, -23049.32004801274, -16719.663646181067, -13976.724621859148, -27236.539392058778, -29776.591631959873, -33271.39863626941, -10779.240522294107, -32795.328831115825, -24156.49135786192, -34000.132560745784, -30029.70278617177, -0.07200000000000001, 0.974, 0.274, 192.0, 0.0, 0.0, 0.0, 0.0, 0.0, 0.0, 0.0, 0.0, 0.0, 1.741628099896293E9, 0.0, 2025-03-10 12:34:59.896
204.0, -26855.55390781807, -10138.86304364956, -34129.7056233532, -29931.221000101687, -15342.282097611678, -23042.189841531497, -16724.82689915024, -13948.695534312194, -27240.607409549644, -29763.292344008965, -33282.97683989726, -10779.933426372221, -32816.2947674149, -24103.607130480665, -34078.56483203946, -30027.065280326045, -0.07200000000000001, 0.974, 0.274, 192.0, 0.0, 0.0, 0.0, 0.0, 0.0, 0.0, 0.0, 0.0, 0.0, 1.741628099896418E9, 0.0, 2025-03-10 12:34:59.896
206.0, -26857.5879165635, -10143.691020451906, -34135.964111800684, -29934.327892580975, -15339.957516188326, -23053.1421963146, -16703.50333493988, -13970.890816556313, -27236.29352286977, -29768.008562089035, -33265.63188619994, -10776.781830404023, -32806.75057253249, -24149.182337425034, -34001.29485145746, -30019.979777333712, -0.07200000000000001, 0.974, 0.274, 192.0, 0.0, 0.0, 0.0, 0.0, 0.0, 0.0, 0.0, 0.0, 0.0, 1.741628099896514E9, 0.0, 2025-03-10 12:34:59.896
208.0, -26869.27787891363, -10147.177892586935, -34140.63562639184, -29940.34051183945, -15349.23349013728, -23052.31518176975, -16734.728721943942, -13989.822744109959, -27240.6297612941, -29765.974553343603, -33283.04389513062, -10782.41447000676, -32813.41139238017, -24177.434942416545, -34080.73295125162, -30027.33350125951, -0.07200000000000001, 0.976, 0.28, 192.0, 126.5, 96.0, 15.0, 64.0, 4.0, 96.0, 0.0, 0.0, 0.0, 1.741628099896588E9, 0.0, 2025-03-10 12:34:59.896
210.0, -26863.84640501099, -10144.607441974575, -34133.66188212179, -29933.702043736226, -15342.550318545142, -23033.718530382936, -16708.800698375788, -13947.220319178143, -27239.847450238165, -29774.579974958895, -33274.39377002642, -10783.152077573786, -32777.782711718406, -24172.808131314294, -34015.71172663113, -30020.80679187856, -0.07200000000000001, 0.976, 0.28, 192.0, 0.0, 0.0, 0.0, 0.0, 0.0, 0.0, 0.0, 0.0, 0.0, 1.741628099896664E9, 0.0, 2025-03-10 12:34:59.896
212.0, -26874.12820746043, -10146.395581530998, -34126.71048959619, -29935.244314103642, -15329.295734083145, -23050.996428846887, -16701.916361083553, -13970.980223534134, -27243.848412495663, -29769.193204545165, -33288.765941711186, -10784.403775263283, -32827.38123266473, -24152.602154326698, -34072.03812265851, -30025.27714076962, -0.07200000000000001, 0.976, 0.28, 192.0, 0.0, 0.0, 0.0, 0.0, 0.0, 0.0, 0.0, 0.0, 0.0, 1.741628099896746E9, 0.0, 2025-03-10 12:34:59.896
214.0, -26852.06703568304, -10147.736686198317, -34134.06421352198, -29943.916790952302, -15334.50369054123, -23054.058617837265, -16708.241904764403, -13997.668206413771, -27230.81734547822, -29771.540137712975, -33262.56969720956, -10774.32313851394, -32782.118950142736, -24136.01715994086, -34006.39104919327, -30028.31697801554, -0.07200000000000001, 0.976, 0.28, 192.0, 0.0, 0.0, 0.0, 0.0, 0.0, 0.0, 0.0, 0.0, 0.0, 1.741628099896822E9, 0.0, 2025-03-10 12:34:59.896
216.0, -26867.825015524035, -10141.344087284098, -34134.13126875535, -29931.176296612775, -15342.952649945337, -23048.18010904552, -16724.6480851946, -13970.577892133939, -27239.06513918223, -29767.539175455473, -33282.61921198597, -10783.80027816299, -32839.40647118169, -24155.5525845948, -34074.58622152641, -30028.540495460096, -0.07200000000000001, 0.976, 0.28, 192.0, 0.0, 0.0, 0.0, 0.0, 0.0, 0.0, 0.0, 0.0, 0.0, 1.741628099951015E9, 0.0, 2025-03-10 12:34:59.951
218.0, -26858.772559019635, -10146.216767575355, -34131.53846639854, -29934.372596069887, -15330.100396883536, -23053.32101027024, -16691.522799911832, -13950.707191313171, -27236.651150781054, -29763.828785875892, -33268.336447279034, -10777.98882460461, -32800.62619455173, -24135.10073841819, -34018.9303778327, -30019.9350738448, -0.07, 0.978, 0.276, 192.0, 126.5, 104.0, 15.0, 72.0, 4.0, 80.0, 0.0, 0.0, 0.0, 1.7416280999511E9, 0.0, 2025-03-10 12:34:59.951
220.0, -26885.348783176993, -10150.888282166516, -34141.84262059243, -29939.73701473916, -15354.374391362, -23066.977926132433, -16733.27585855435, -13987.34170047542, -27246.977656719406, -29772.389504002276, -33290.03999114514, -10791.04224336651, -32813.38904063571, -24150.858718259184, -34061.44339578669, -30025.210085536255, -0.07, 0.978, 0.276, 192.0, 0.0, 0.0, 0.0, 0.0, 0.0, 0.0, 0.0, 0.0, 0.0, 1.741628099951214E9, 0.0, 2025-03-10 12:34:59.951
222.0, -26848.669570525835, -10146.52969199773, -34137.864010079385, -29945.34730259744, -15335.263649852712, -23060.004181862376, -16710.03004432083, -13983.67601438475, -27243.06610143973, -29779.85498665035, -33274.706694448796, -10786.281321797529, -32791.10435141377, -24190.577768156265, -34036.700014674665, -30032.22853329522, -0.07, 0.978, 0.276, 192.0, 0.0, 0.0, 0.0, 0.0, 0.0, 0.0, 0.0, 0.0, 0.0, 1.741628099951296E9, 0.0, 2025-03-10 12:34:59.951
224.0, -26871.915384759355, -10145.054476863681, -34141.484992681144, -29936.27249434859, -15348.2723651257, -23053.879803881624, -16720.244791536905, -13959.08909548391, -27240.182726404993, -29773.149463313755, -33275.19843282681, -10782.660339195769, -32818.462886627065, -24168.62835510115, -34056.905991662265, -30032.51910597314, -0.07, 0.978, 0.276, 192.0, 0.0, 0.0, 0.0, 0.0, 0.0, 0.0, 0.0, 0.0, 0.0, 1.741628099951379E9, 0.0, 2025-03-10 12:34:59.951
226.0, -26850.301247871073, -10149.502474010287, -34138.847486835424, -29943.760328741115, -15334.32487658559, -23060.071237095744, -16702.00576806137, -13964.185293219722, -27234.81830773572, -29772.61302144683, -33262.14501406491, -10776.401850748283, -32803.91190098666, -24160.87229977516, -34043.53964847799, -30021.030309323112, -0.07, 0.978, 0.276, 192.0, 0.0, 0.0, 0.0, 0.0, 0.0, 0.0, 0.0, 0.0, 0.0, 1.741628099951465E9, 0.0, 2025-03-10 12:34:59.951
228.0, -26882.331297675526, -10147.177892586935, -34136.29938796751, -29931.48922103515, -15347.244184880756, -23045.31908575524, -16722.278800282336, -13956.988031505112, -27244.094281684673, -29769.41672198972, -33275.176081082354, -10776.535961215015, -32812.047935968396, -24143.63910480012, -34041.77386066602, -30025.120678558433, -0.068, 0.98, 0.278, 192.0, 126.5, 112.0, 15.0, 80.0, 4.0, 88.0, 0.0, 0.0, 0.0, 1.741628099951545E9, 0.0, 2025-03-10 12:34:59.951
230.0, -26838.27600935412, -10142.126398340035, -34126.62108261837, -29939.714662994706, -15333.877841696483, -23047.59896368968, -16715.21564903446, -13977.9986712931, -27236.159412403038, -29766.153367299245, -33263.03908384313, -10772.311481512963, -32806.504703343475, -24121.510877789366, -34043.897276389274, -30013.833047608503, -0.068, 0.98, 0.278, 192.0, 0.0, 0.0, 0.0, 0.0, 0.0, 0.0, 0.0, 0.0, 0.0, 1.741628100006433E9, 0.0, 2025-03-10 12:35:00.006
232.0, -26892.031954769132, -10158.353764814588, -34146.42472820577, -29941.525154295585, -15357.481283841287, -23048.202460789977, -16723.664608438565, -13971.561368889972, -27245.904772985552, -29780.0785040949, -33273.2538310592, -10788.292978798507, -32812.33850864631, -24159.911174763583, -34037.37056700833, -30030.574504205528, -0.068, 0.98, 0.278, 192.0, 0.0, 0.0, 0.0, 0.0, 0.0, 0.0, 0.0, 0.0, 0.0, 1.741628100006518E9, 0.0, 2025-03-10 12:35:00.006
234.0, -26848.35664610346, -10146.77556118674, -34125.30232969551, -29936.294846093042, -15335.487167297266, -23051.197594546986, -16694.45087843548, -13960.676069340238, -27247.11176718614, -29774.065884836422, -33277.36655203898, -10789.209400321175, -32841.86516307177, -24166.303773677802, -34053.150898593776, -30013.542474930582, -0.068, 0.98, 0.278, 192.0, 0.0, 0.0, 0.0, 0.0, 0.0, 0.0, 0.0, 0.0, 0.0, 1.741628100006607E9, 0.0, 2025-03-10 12:35:00.006
236.0, -26878.866777284955, -10147.110837353568, -34127.023414018564, -29923.174372097776, -15353.212100650324, -23045.36378924415, -16740.942506902516, -13969.303842699986, -27243.513136328835, -29772.434207491187, -33268.98464786824, -10782.41447000676, -32771.144243615185, -24181.570015140776, -34018.61745341033, -30018.50456219966, -0.068, 0.98, 0.278, 192.0, 0.0, 0.0, 0.0, 0.0, 0.0, 0.0, 0.0, 0.0, 0.0, 1.741628100006687E9, 0.0, 2025-03-10 12:35:00.006
238.0, -26847.149651902873, -10148.451942020887, -34125.65995760679, -29939.49114555015, -15333.98960041876, -23056.0926265827, -16715.908553112575, -13990.225075510154, -27240.182726404993, -29763.582916686886, -33269.454034501796, -10774.61371119186, -32802.25787189697, -24155.597288083707, -34067.947753423185, -30009.69797488427, -0.066, 0.978, 0.274, 192.0, 126.5, 120.0, 15.0, 72.0, 4.0, 72.0, 0.0, 0.0, 0.0, 1.741628100006759E9, 0.0, 2025-03-10 12:35:00.006
240.0, -26881.169006963853, -10151.782351944728, -34134.08656526644, -29937.1665641268, -15341.186862133369, -23046.906059611567, -16726.50327998439, -13989.420412709764, -27241.456775838946, -29777.530405226997, -33271.5998019695, -10783.353243273885, -32820.273377927944, -24155.30671540579, -34012.090744029374, -30023.46664946874, -0.066, 0.978, 0.274, 192.0, 0.0, 0.0, 0.0, 0.0, 0.0, 0.0, 0.0, 0.0, 0.0, 1.741628100006847E9, 0.0, 2025-03-10 12:35:00.006
242.0, -26852.737588016702, -10147.133189098024, -34130.5549896425, -29946.040206675556, -15337.297658598145, -23054.32683877073, -16705.962026829962, -13971.76253459007, -27246.44121485248, -29770.444902234663, -33284.474406775764, -10785.543714230504, -32835.047881012906, -24118.06870914325, -34079.50360530658, -30026.797059392582, -0.066, 0.978, 0.274, 192.0, 0.0, 0.0, 0.0, 0.0, 0.0, 0.0, 0.0, 0.0, 0.0, 1.74162810000693E9, 0.0, 2025-03-10 12:35:00.006
244.0, -26872.40712313737, -10144.339221041111, -34137.88636182384, -29937.72535773818, -15351.222795393802, -23046.928411356024, -16704.88914309611, -13943.465226109653, -27240.830926994196, -29769.03674233398, -33270.03517985764, -10779.709908927669, -32795.01590669345, -24162.571032353764, -34006.34634570436, -30018.929245344312, -0.066, 0.978, 0.274, 192.0, 0.0, 0.0, 0.0, 0.0, 0.0, 0.0, 0.0, 0.0, 0.0, 1.741628100007008E9, 0.0, 2025-03-10 12:35:00.007
246.0, -26845.24975362417, -10145.881491408527, -34129.43740241974, -29942.575686284985, -15336.247126608745, -23051.80109164728, -16698.36243371516, -13979.987976549624, -27241.054444438752, -29770.489605723575, -33277.210089827786, -10783.934388629723, -32823.715546574065, -24180.78770408484, -34074.541518037506, -30019.868018611436, -0.066, 0.978, 0.274, 192.0, 0.0, 0.0, 0.0, 0.0, 0.0, 0.0, 0.0, 0.0, 0.0, 1.741628100068617E9, 0.0, 2025-03-10 12:35:00.068
248.0, -26859.353704375473, -10144.071000107646, -34129.347995441916, -29941.525154295585, -15336.157719630924, -23050.236469535408, -16712.622846677645, -13965.258176953575, -27237.00877869234, -29774.669381936717, -33258.92636286335, -10778.502914727082, -32796.513473571955, -24140.398101854098, -34001.58542413538, -30029.74748966068, -0.06, 0.978, 0.268, 192.0, 127.0, 16.0, 15.0, 72.0, 4.0, 48.0, 0.0, 0.0, 0.0, 1.741628100068721E9, 0.0, 2025-03-10 12:35:00.068
250.0, -26845.473271068728, -10141.277032050733, -34122.86598954988, -29941.41339557331, -15329.675713738885, -23038.635914163104, -16713.338102500213, -13974.936482302724, -27240.272133382816, -29773.998829603057, -33273.075017103554, -10783.710871185169, -32828.11884023176, -24178.954861039503, -34065.64552374429, -30018.482210455208, -0.06, 0.978, 0.268, 192.0, 0.0, 0.0, 0.0, 0.0, 0.0, 0.0, 0.0, 0.0, 0.0, 1.741628100068806E9, 0.0, 2025-03-10 12:35:00.068
252.0, -26862.50530034367, -10140.539424483708, -34126.554027385006, -29941.569857784496, -15341.477434811288, -23040.938143842002, -16714.79096588981, -13955.71398207116, -27232.784298990286, -29772.4789109801, -33254.45601397229, -10775.619539692349, -32803.084886441815, -24153.92090724956, -33995.70691534363, -30022.706690157258, -0.06, 0.978, 0.268, 192.0, 0.0, 0.0, 0.0, 0.0, 0.0, 0.0, 0.0, 0.0, 0.0, 1.741628100068881E9, 0.0, 2025-03-10 12:35:00.068
254.0, -26855.956239218267, -10142.260508806767, -34116.56279761348, -29939.044110661045, -15336.56005103112, -23032.444480948983, -16706.274951252337, -13969.169732233255, -27247.178822419504, -29768.455596978143, -33282.663915474885, -10785.007272363577, -32844.92735206215, -24138.475851830943, -34078.96716343965, -30021.767916890138, -0.06, 0.978, 0.268, 192.0, 0.0, 0.0, 0.0, 0.0, 0.0, 0.0, 0.0, 0.0, 0.0, 1.741628100068954E9, 0.0, 2025-03-10 12:35:00.068
0.0, -26859.867794497943, -10149.502474010287, -34126.77754482956, -29944.855564219426, -15349.166434903913, -23052.829271892224, -16726.03389335083, -13988.347528975908, -27233.700720512956, -29765.482814965584, -33261.07213033106, -10772.602054190882, -32794.63592703771, -24118.96277892146, -33998.7244008451, -30024.42777448032, -0.06, 0.978, 0.268, 192.0, 0.0, 0.0, 0.0, 0.0, 0.0, 0.0, 0.0, 0.0, 0.0, 1.741628100069041E9, 0.0, 2025-03-10 12:35:00.069
2.0, -26858.057303197063, -10142.10404659558, -34120.56375987098, -29934.707872236715, -15333.944896929848, -23040.13348104161, -16678.3352706832, -13959.156150717277, -27241.21090664994, -29769.595535945362, -33283.31211606409, -10776.22303679264, -32818.954625005084, -24201.038384561347, -34068.305381334474, -30022.259655268153, -0.07200000000000001, 0.98, 0.262, 192.0, 126.5, 96.0, 15.0, 80.0, 4.0, 24.0, 0.0, 0.0, 0.0, 1.741628100069115E9, 0.0, 2025-03-10 12:35:00.069
4.0, -26849.295419370585, -10142.81930241815, -34125.74936458461, -29942.30746535152, -15336.872975453494, -23047.777777645326, -16696.06020403626, -13977.28341547053, -27231.554953045244, -29769.237908034076, -33265.40836875539, -10766.880007610323, -32782.56598503184, -24170.12592197966, -33996.73509558858, -30025.61241693645, -0.07200000000000001, 0.98, 0.262, 192.0, 0.0, 0.0, 0.0, 0.0, 0.0, 0.0, 0.0, 0.0, 0.0, 1.741628100127639E9, 0.0, 2025-03-10 12:35:00.127
6.0, -26861.857099754467, -10137.857215149072, -34125.81641981798, -29936.138383881855, -15345.076065668592, -23037.630085662615, -16724.715140427965, -13979.138610260321, -27235.62297053611, -29769.193204545165, -33280.02640962916, -10773.429068735728, -32847.16252650768, -24167.287250433834, -34071.00994241356, -30027.80288789307, -0.07200000000000001, 0.98, 0.262, 192.0, 0.0, 0.0, 0.0, 0.0, 0.0, 0.0, 0.0, 0.0, 0.0, 1.741628100127757E9, 0.0, 2025-03-10 12:35:00.127
8.0, -26835.526744786115, -10138.237194804811, -34122.30719593849, -29943.44740431874, -15330.659190494918, -23044.670885166037, -16690.204046988973, -13963.939424030714, -27222.90482794104, -29762.80060563095, -33254.38895873892, -10761.202664518674, -32783.862386210254, -24139.973418709447, -34000.6242991238, -30020.225646522722, -0.07200000000000001, 0.98, 0.262, 192.0, 0.0, 0.0, 0.0, 0.0, 0.0, 0.0, 0.0, 0.0, 0.0, 1.741628100127842E9, 0.0, 2025-03-10 12:35:00.127
10.0, -26872.22830918173, -10136.2925930372, -34127.26928320757, -29936.719529237693, -15343.243222623256, -23029.292884980787, -16690.427564433525, -13938.681952796216, -27237.411110092537, -29766.84627137736, -33274.907860148895, -10771.998557090588, -32837.21600022507, -24134.653703529086, -34058.64942772978, -30023.958387846757, -0.07200000000000001, 0.98, 0.262, 192.0, 0.0, 0.0, 0.0, 0.0, 0.0, 0.0, 0.0, 0.0, 0.0, 1.741628100127926E9, 0.0, 2025-03-10 12:35:00.127
12.0, -26825.222590592217, -10126.52488071023, -34115.17698945725, -29934.864334447902, -15337.074141153591, -23036.668960651037, -16693.914436568553, -13959.781999562027, -27220.53554302878, -29757.45853870613, -33251.48323195973, -10760.576815673927, -32781.001362919975, -24151.77513978185, -34009.989680050574, -30009.720326628725, -0.068, 0.976, 0.262, 192.0, 126.5, 112.0, 15.0, 64.0, 4.0, 24.0, 0.0, 0.0, 0.0, 1.741628100128015E9, 0.0, 2025-03-10 12:35:00.128
14.0, -26865.813358523057, -10144.38392453002, -34125.637605862335, -29938.015930416102, -15345.388990090965, -23039.731149641415, -16708.800698375788, -13969.594415377906, -27226.279941353794, -29758.374960228797, -33265.65423794439, -10768.042298321998, -32815.02071798095, -24162.07929397575, -34048.725253191624, -30017.185809276798, -0.068, 0.976, 0.262, 192.0, 0.0, 0.0, 0.0, 0.0, 0.0, 0.0, 0.0, 0.0, 0.0, 1.741628100128097E9, 0.0, 2025-03-10 12:35:00.128
16.0, -26839.527707043613, -10142.215805317855, -34126.64343436282, -29944.587343285963, -15337.744693487251, -23034.858469350158, -16694.65204413558, -13971.024927023045, -27235.421804836013, -29768.679114422695, -33265.877755388945, -10771.75268790158, -32814.64073832521, -24144.64493330061, -34015.19763650866, -30023.399594235372, -0.068, 0.976, 0.262, 192.0, 0.0, 0.0, 0.0, 0.0, 0.0, 0.0, 0.0, 0.0, 0.0, 1.741628100128182E9, 0.0, 2025-03-10 12:35:00.128
18.0, -26862.37118987694, -10138.43836050491, -34125.19057097323, -29932.070366390988, -15349.971097704303, -23040.781681630815, -16726.59268696221, -13962.240691452109, -27237.701682770454, -29761.280687007988, -33273.16442408138, -10770.009251834066, -32834.44438391261, -24157.29602066231, -34038.57756120891, -30017.677547654814, -0.068, 0.976, 0.262, 192.0, 0.0, 0.0, 0.0, 0.0, 0.0, 0.0, 0.0, 0.0, 0.0, 1.741628100128262E9, 0.0, 2025-03-10 12:35:00.128
20.0, -26825.870791181424, -10130.81641564565, -34122.57541687196, -29938.038282160556, -15334.593097519053, -23033.83028910521, -16699.815297104753, -13962.084229240923, -27225.698795997956, -29755.156309027236, -33260.2004122973, -10760.912091840755, -32794.50181657098, -24163.3533434097, -34030.77680239401, -30012.46959119673, -0.068, 0.976, 0.262, 192.0, 0.0, 0.0, 0.0, 0.0, 0.0, 0.0, 0.0, 0.0, 0.0, 1.74162810017176E9, 0.0, 2025-03-10 12:35:00.171
22.0, -26868.65203006888, -10141.209976817367, -34128.073946007964, -29931.53392452406, -15349.479359326288, -23030.32106522573, -16708.063090808762, -13945.633345321816, -27236.96407520343, -29765.482814965584, -33273.723217692765, -10775.306615269974, -32824.408450652176, -24151.73043629294, -34024.09363080187, -30013.028384808113, -0.06, 0.976, 0.266, 192.0, 127.0, 16.0, 15.0, 64.0, 4.0, 40.0, 0.0, 0.0, 0.0, 1.741628100171872E9, 0.0, 2025-03-10 12:35:00.171
24.0, -26844.02040767913, -10151.558834500174, -34126.129344240355, -29947.470718320696, -15340.203385377336, -23057.210213805465, -16704.68797739601, -13992.795526122514, -27236.718206014422, -29768.254431278045, -33268.80583391259, -10773.362013502361, -32804.53774983141, -24141.31452337677, -34036.58825595239, -30018.213989521744, -0.06, 0.976, 0.266, 192.0, 0.0, 0.0, 0.0, 0.0, 0.0, 0.0, 0.0, 0.0, 0.0, 1.741628100171953E9, 0.0, 2025-03-10 12:35:00.171
26.0, -26871.37894289243, -10145.76973268625, -34121.48018139365, -29927.2647413331, -15334.70485624133, -23036.043111806288, -16683.72204109693, -13945.968621488646, -27239.646284538067, -29767.2262510331, -33268.69407519032, -10774.121972813842, -32820.698061072595, -24152.378636882146, -34018.10336328785, -30029.56867570504, -0.06, 0.976, 0.266, 192.0, 0.0, 0.0, 0.0, 0.0, 0.0, 0.0, 0.0, 0.0, 0.0, 1.741628100172027E9, 0.0, 2025-03-10 12:35:00.172
28.0, -26827.77068946012, -10136.136130826013, -34116.38398365784, -29928.985825656157, -15315.750576943228, -23020.575704643215, -16652.25078490386, -13937.89964174028, -27231.085566411683, -29752.921134581702, -33262.86026988748, -10763.326080241928, -32808.20343592208, -24137.470023330454, -34029.234532026596, -29996.041059022078, -0.06, 0.976, 0.266, 192.0, 0.0, 0.0, 0.0, 0.0, 0.0, 0.0, 0.0, 0.0, 0.0, 1.741628100225991E9, 0.0, 2025-03-10 12:35:00.225
30.0, -26879.35851566297, -10152.34114555611, -34143.384890959846, -29940.228753117175, -15348.56293780362, -23029.18112625851, -16709.113622798162, -13954.171711703744, -27234.14775540206, -29760.74424514106, -33265.96716236677, -10769.137533800309, -32811.4444388681, -24169.611831857186, -33995.9751362771, -30016.939940087792, -0.06, 0.976, 0.266, 192.0, 0.0, 0.0, 0.0, 0.0, 0.0, 0.0, 0.0, 0.0, 0.0, 1.741628100226092E9, 0.0, 2025-03-10 12:35:00.226
32.0, -26844.199221634775, -10142.238157062311, -34125.68230935124, -29938.440613560753, -15326.144138114947, -23034.769062372336, -16704.01742506235, -13966.107543242877, -27246.955304974952, -29765.862794621327, -33288.54242426663, -10782.772097918047, -32843.563895650375, -24149.53996533632, -34059.20822134116, -30019.577445933515, -0.066, 0.972, 0.266, 192.0, 126.5, 120.0, 15.0, 48.0, 4.0, 40.0, 0.0, 0.0, 0.0, 1.741628100226175E9, 0.0, 2025-03-10 12:35:00.226
34.0, -26872.56358534856, -10146.797912931193, -34125.16821922877, -29923.599055242426, -15328.803995705128, -23028.17529775802, -16683.476171907925, -13937.206737662165, -27231.577304789702, -29754.21753576011, -33268.17998506784, -10767.237635521607, -32794.94885146008, -24152.512747348876, -33985.112188471816, -30005.51819867113, -0.066, 0.972, 0.266, 192.0, 0.0, 0.0, 0.0, 0.0, 0.0, 0.0, 0.0, 0.0, 0.0, 1.741628100226267E9, 0.0, 2025-03-10 12:35:00.226
36.0, -26845.07093966853, -10145.09918035259, -34124.60942561739, -29933.679691991772, -15330.07804513908, -23047.0401700783, -16688.72883185492, -13971.00257527859, -27236.338226358683, -29751.781195614483, -33277.433607272345, -10772.020908835044, -32824.05082274089, -24129.132822648626, -34037.25880828605, -30012.067259796535, -0.066, 0.972, 0.266, 192.0, 0.0, 0.0, 0.0, 0.0, 0.0, 0.0, 0.0, 0.0, 0.0, 1.741628100226349E9, 0.0, 2025-03-10 12:35:00.226
38.0, -26865.27691665613, -10150.105971110579, -34133.77364084407, -29938.77588972758, -15340.963344688815, -23044.98380958841, -16700.843477349696, -13967.00161302109, -27234.706549013445, -29760.878355607794, -33267.420025756364, -10778.547618215993, -32801.67672654113, -24157.20661368449, -33993.985831020575, -30019.46568721124, -0.066, 0.972, 0.266, 192.0, 0.0, 0.0, 0.0, 0.0, 0.0, 0.0, 0.0, 0.0, 0.0, 1.741628100226421E9, 0.0, 2025-03-10 12:35:00.226
40.0, -26845.227401879718, -10151.894110667004, -34128.565684385976, -29942.553334540527, -15321.60673399052, -23033.22679200492, -16687.991224287896, -13948.539072101006, -27244.764834018333, -29765.259297521032, -33284.63086898695, -10786.504839242083, -32827.001253008995, -24166.326125422256, -34049.440509014195, -30021.11971630093, -0.066, 0.972, 0.266, 192.0, 0.0, 0.0, 0.0, 0.0, 0.0, 0.0, 0.0, 0.0, 0.0, 1.741628100226497E9, 0.0, 2025-03-10 12:35:00.226
42.0, -26869.36728589145, -10153.43638103442, -34136.47820192316, -29948.54360205455, -15344.249051123745, -23031.148079770577, -16729.07373059675, -13968.521531644052, -27242.552011317257, -29762.867660864315, -33274.88550840443, -10785.208438063675, -32799.799180006885, -24109.463287527953, -33995.01401126552, -30032.362643761953, -0.064, 0.974, 0.264, 192.0, 127.0, 0.0, 15.0, 56.0, 4.0, 32.0, 0.0, 0.0, 0.0, 1.741628100226579E9, 0.0, 2025-03-10 12:35:00.226
44.0, -26851.93292521631, -10145.680325708428, -34121.435477904735, -29937.54654378254, -15322.612562491007, -23031.97509431542, -16660.54328209678, -13933.563403315951, -27246.66473229703, -29760.341913740864, -33286.28489807664, -10790.237580566118, -32819.62517733874, -24167.622526600662, -34055.74370095059, -30018.25869301065, -0.064, 0.974, 0.264, 192.0, 0.0, 0.0, 0.0, 0.0, 0.0, 0.0, 0.0, 0.0, 0.0, 1.741628100282807E9, 0.0, 2025-03-10 12:35:00.282
46.0, -26857.096178185486, -10152.028221133736, -34127.47044890767, -29931.288055335055, -15326.010027648215, -23030.54458267028, -16695.88139008062, -13947.443836622697, -27231.174973389505, -29756.117434038813, -33257.60760994048, -10770.098658811887, -32794.23359563752, -24164.426227143555, -33975.29977265594, -30014.660062153347, -0.064, 0.974, 0.264, 192.0, 0.0, 0.0, 0.0, 0.0, 0.0, 0.0, 0.0, 0.0, 0.0, 1.741628100282907E9, 0.0, 2025-03-10 12:35:00.282
48.0, -26860.22542240923, -10150.77652344424, -34129.549161142015, -29932.763270469102, -15325.384178803466, -23038.79237637429, -16690.382860944614, -13954.059952981468, -27242.57436306171, -29754.150480526747, -33278.14886309491, -10771.104487312376, -32851.00702655399, -24152.468043859964, -34046.3336165349, -30019.68920465579, -0.064, 0.974, 0.264, 192.0, 0.0, 0.0, 0.0, 0.0, 0.0, 0.0, 0.0, 0.0, 0.0, 1.741628100282992E9, 0.0, 2025-03-10 12:35:00.282
50.0, -26849.921268215334, -10146.037953619714, -34128.69979485271, -29935.758404226115, -15328.13344337147, -23029.06936753623, -16692.282759223315, -13958.954985017179, -27231.53260130079, -29755.111605538325, -33256.98176109573, -10762.9908040751, -32811.91382550166, -24135.927752963038, -33981.35709540333, -30020.203294778265, -0.064, 0.974, 0.264, 192.0, 0.0, 0.0, 0.0, 0.0, 0.0, 0.0, 0.0, 0.0, 0.0, 1.741628100283074E9, 0.0, 2025-03-10 12:35:00.283
52.0, -26854.74924501768, -10140.427665761432, -34123.62594886136, -29932.249180346633, -15335.151891130436, -23031.37159721513, -16696.976625558927, -13949.23197617912, -27233.991293190873, -29744.785099599972, -33271.53274673614, -10763.41548721975, -32821.21215119507, -24146.43307285703, -34052.32388404893, -30017.163457532344, -0.068, 0.982, 0.266, 192.0, 126.5, 112.0, 15.0, 88.0, 4.0, 40.0, 0.0, 0.0, 0.0, 1.741628100283157E9, 0.0, 2025-03-10 12:35:00.283
54.0, -26853.65400953937, -10155.760962457773, -34133.7065856107, -29947.73893925416, -15335.174242874891, -23042.07808280922, -16719.037797336317, -13992.080270299944, -27233.09722341266, -29760.610134674327, -33258.05464482959, -10767.41644947725, -32796.17819740513, -24143.460290844476, -33993.96347927612, -30031.982664106214, -0.068, 0.982, 0.266, 192.0, 0.0, 0.0, 0.0, 0.0, 0.0, 0.0, 0.0, 0.0, 0.0, 1.741628100283244E9, 0.0, 2025-03-10 12:35:00.283
56.0, -26862.50530034367, -10151.871758922549, -34128.18570473024, -29928.44938378923, -15316.622294976985, -23014.406623173552, -16677.195331715982, -13948.583775589917, -27245.591848563177, -29755.64804740525, -33277.81358692808, -10772.110315812864, -32841.90986656069, -24132.01619768336, -34059.07411087443, -30022.12554480142, -0.068, 0.982, 0.266, 192.0, 0.0, 0.0, 0.0, 0.0, 0.0, 0.0, 0.0, 0.0, 0.0, 1.741628100283329E9, 0.0, 2025-03-10 12:35:00.283
58.0, -26839.93003844381, -10144.607441974575, -34122.486009894135, -29925.1636773543, -15309.93912338485, -23015.524210396317, -16665.080686221205, -13946.57211858894, -27235.757081002845, -29757.79381487296, -33254.52306920565, -10762.432010463717, -32819.35695640528, -24127.367034836654, -33985.44746463865, -30011.597873162973, -0.068, 0.982, 0.266, 192.0, 0.0, 0.0, 0.0, 0.0, 0.0, 0.0, 0.0, 0.0, 0.0, 1.741628100341617E9, 0.0, 2025-03-10 12:35:00.341
60.0, -26866.528614345625, -10151.000040888792, -34128.09629775242, -29923.084965119957, -15333.766082974207, -23020.665111621038, -16697.26719823685, -13959.491426884108, -27241.054444438752, -29754.88808809377, -33271.91272639188, -10764.689536653703, -32816.853561026284, -24142.476814088444, -34038.06347108644, -30015.107097042455, -0.068, 0.982, 0.266, 192.0, 0.0, 0.0, 0.0, 0.0, 0.0, 0.0, 0.0, 0.0, 0.0, 1.7416281003417E9, 0.0, 2025-03-10 12:35:00.341
62.0, -26842.053454167064, -10152.497607767298, -34126.30815819599, -29928.650549489328, -15321.182050845868, -23007.522285881318, -16706.476116952435, -13925.315609611942, -27232.829002479197, -29752.2729339925, -33259.39574949691, -10754.877120837822, -32802.48138934152, -24168.4048376566, -33989.806054807435, -30003.03715503659, -0.07, 0.982, 0.272, 192.0, 126.5, 104.0, 15.0, 88.0, 4.0, 64.0, 0.0, 0.0, 0.0, 1.741628100341774E9, 0.0, 2025-03-10 12:35:00.341
64.0, -26866.483910856714, -10150.038915877214, -34118.06036449198, -29917.944063895236, -15319.863297923006, -23008.103431237156, -16664.365430398637, -13941.341810386397, -27248.139947431082, -29764.23111727609, -33279.73583695124, -10770.255121023074, -32859.81361386939, -24154.68086656104, -34031.08972681638, -30006.345213215976, -0.07, 0.982, 0.272, 192.0, 0.0, 0.0, 0.0, 0.0, 0.0, 0.0, 0.0, 0.0, 0.0, 1.741628100341881E9, 0.0, 2025-03-10 12:35:00.341
66.0, -26828.128317371407, -10148.20607283188, -34110.728992310644, -29921.565046496995, -15311.16846932989, -23023.57083840023, -16668.67931707851, -13943.845205765392, -27235.287694369283, -29753.681093893185, -33254.143089549914, -10754.36303071535, -32804.38128762022, -24125.042453413305, -33990.9236420302, -29999.99731779067, -0.07, 0.982, 0.272, 192.0, 0.0, 0.0, 0.0, 0.0, 0.0, 0.0, 0.0, 0.0, 0.0, 1.741628100341956E9, 0.0, 2025-03-10 12:35:00.341
68.0, -26860.404236364873, -10143.266337307256, -34119.535579626034, -29908.73514517965, -15324.400702047433, -23021.60388488816, -16710.49943095439, -13938.212566162654, -27232.11374665663, -29749.61307640232, -33256.75824365118, -10751.680821380714, -32821.50272387299, -24136.307732618778, -34009.34147946137, -30000.22083523522, -0.07, 0.982, 0.272, 192.0, 0.0, 0.0, 0.0, 0.0, 0.0, 0.0, 0.0, 0.0, 0.0, 1.741628100342032E9, 0.0, 2025-03-10 12:35:00.342
70.0, -26834.45386105226, -10143.467503007354, -34121.144905226814, -29918.905188906814, -15317.337550799555, -23020.016911031835, -16679.050526505773, -13940.894775497292, -27233.76777574632, -29749.501317680042, -33253.31607500507, -10751.904338825267, -32820.16161920567, -24113.888932930106, -34015.89054058678, -30000.80198059106, -0.07, 0.982, 0.272, 192.0, 0.0, 0.0, 0.0, 0.0, 0.0, 0.0, 0.0, 0.0, 0.0, 1.741628100342121E9, 0.0, 2025-03-10 12:35:00.342
72.0, -26854.79394850659, -10143.355744285076, -34120.02731800405, -29917.049994117024, -15323.12665261348, -23045.073216566234, -16699.12239302664, -13978.065726526467, -27230.146793144562, -29748.56254441292, -33245.604723167984, -10752.150208014275, -32823.51438087397, -24140.68867453202, -34003.150046247254, -30006.255806238154, -0.064, 0.978, 0.268, 192.0, 127.0, 0.0, 15.0, 72.0, 4.0, 48.0, 0.0, 0.0, 0.0, 1.741628100342197E9, 0.0, 2025-03-10 12:35:00.342
74.0, -26819.142916100376, -10144.518034996752, -34111.95833825569, -29918.122877850878, -15308.061576850603, -23005.778849813803, -16688.482962665912, -13948.069685467444, -27229.4762408109, -29756.542117183464, -33242.251961499685, -10753.468960937138, -32808.00227022199, -24140.53221232083, -34016.94107257618, -30008.04394579458, -0.064, 0.978, 0.268, 192.0, 0.0, 0.0, 0.0, 0.0, 0.0, 0.0, 0.0, 0.0, 0.0, 1.741628100404224E9, 0.0, 2025-03-10 12:35:00.404
76.0, -26861.834748010013, -10153.123456612046, -34123.71535583918, -29912.356127781408, -15328.89340268295, -23023.481431422406, -16683.34206144119, -13942.101769697878, -27235.265342624825, -29761.526556196997, -33251.48323195973, -10753.826588848424, -32824.0955262298, -24152.982133982438, -33993.82936880939, -30003.305375970052, -0.064, 0.978, 0.268, 192.0, 0.0, 0.0, 0.0, 0.0, 0.0, 0.0, 0.0, 0.0, 0.0, 1.741628100404324E9, 0.0, 2025-03-10 12:35:00.404
78.0, -26814.113773597932, -10129.542366211697, -34100.76011428358, -29903.52718872156, -15305.714643682795, -23009.511591137838, -16669.39457290108, -13944.113426698856, -27230.68323501149, -29749.65777989123, -33253.42783372734, -10743.254213721064, -32830.86810479976, -24120.907380689074, -34022.77487787901, -29991.704820597748, -0.064, 0.978, 0.268, 192.0, 0.0, 0.0, 0.0, 0.0, 0.0, 0.0, 0.0, 0.0, 0.0, 1.741628100404412E9, 0.0, 2025-03-10 12:35:00.404
80.0, -26848.9377914593, -10147.58022398713, -34114.88641677933, -29907.416392256786, -15326.300600326134, -23026.40950994605, -16693.333291212715, -13950.707191313171, -27221.00492966234, -29747.087329278867, -33242.184906266324, -10738.985030530099, -32803.77779051993, -24119.365110321654, -33976.19384243415, -29996.778666589104, -0.064, 0.978, 0.268, 192.0, 0.0, 0.0, 0.0, 0.0, 0.0, 0.0, 0.0, 0.0, 0.0, 1.741628100404495E9, 0.0, 2025-03-10 12:35:00.404
82.0, -26824.88731442539, -10148.317831554155, -34105.20811143018, -29914.658357460306, -15315.661169965408, -23015.524210396317, -16691.5898551452, -13944.828682521425, -27239.24395313787, -29764.23111727609, -33267.352970522996, -10761.180312774219, -32841.887514816226, -24169.67888709055, -34034.97893035161, -29998.56680614553, -0.056, 0.982, 0.264, 192.0, 127.0, 32.0, 15.0, 88.0, 4.0, 32.0, 0.0, 0.0, 0.0, 1.741628100404567E9, 0.0, 2025-03-10 12:35:00.404
84.0, -26849.518936815137, -10141.992287873303, -34102.52590209555, -29901.73904916514, -15316.242315321246, -23011.299730694263, -16675.54130262629, -13935.575060316929, -27227.285769854283, -29757.88322185078, -33247.012883068666, -10751.949042314178, -32793.49598807049, -24136.911229719073, -33965.733226029064, -29987.0780094955, -0.056, 0.982, 0.264, 192.0, 0.0, 0.0, 0.0, 0.0, 0.0, 0.0, 0.0, 0.0, 0.0, 1.741628100404645E9, 0.0, 2025-03-10 12:35:00.404
86.0, -26825.55786675905, -10140.897052394994, -34099.351954382895, -29902.499008476618, -15308.709777439808, -23020.374538943117, -16668.411096145046, -13941.654734808772, -27234.57243854671, -29750.93182932518, -33262.83791814303, -10751.36789695834, -32834.332625190335, -24123.924866190537, -34029.77097389352, -29986.899195539856, -0.056, 0.982, 0.264, 192.0, 0.0, 0.0, 0.0, 0.0, 0.0, 0.0, 0.0, 0.0, 0.0, 1.741628100404736E9, 0.0, 2025-03-10 12:35:00.404
88.0, -26849.563640304048, -10153.324622312144, -34109.94668125471, -29911.21618881419, -15318.969228144793, -23016.664149363536, -16698.004805803874, -13947.846168022892, -27230.951455944953, -29762.867660864315, -33256.71354016227, -10751.502007425071, -32806.929386488126, -24117.353453320677, -33967.074330696385, -29997.382163689395, -0.056, 0.982, 0.264, 192.0, 0.0, 0.0, 0.0, 0.0, 0.0, 0.0, 0.0, 0.0, 0.0, 1.741628100462968E9, 0.0, 2025-03-10 12:35:00.462
90.0, -26832.59866626247, -10145.501511752786, -34101.0506869615, -29908.86925564638, -15311.012007118703, -23012.41731791703, -16695.948445313985, -13933.719865527139, -27237.321703114714, -29759.26903000701, -33273.298534548114, -10760.59916741838, -32856.21498301208, -24137.87235473065, -34042.17619206622, -30008.066297539033, -0.056, 0.982, 0.264, 192.0, 0.0, 0.0, 0.0, 0.0, 0.0, 0.0, 0.0, 0.0, 0.0, 1.741628100463047E9, 0.0, 2025-03-10 12:35:00.463
92.0, -26845.048587924077, -10150.217729832857, -34103.41997187376, -29909.58451146895, -15313.046015864136, -23009.64570160457, -16679.989299772897, -13942.57115633144, -27227.75515648784, -29759.581954429384, -33249.56098193657, -10751.79258010299, -32781.11312164225, -24124.81893596875, -33958.692426525646, -29992.889463053878, -0.058, 0.988, 0.266, 192.0, 127.0, 24.0, 15.0, 112.0, 4.0, 40.0, 0.0, 0.0, 0.0, 1.741628100463146E9, 0.0, 2025-03-10 12:35:00.463
94.0, -26841.69582625578, -10144.38392453002, -34103.62113757386, -29906.477618989662, -15306.340492527544, -23006.628216103105, -16684.54905564178, -13924.198022389177, -27240.316836871727, -29752.429396203686, -33267.01769435617, -10756.464094694149, -32829.862276299275, -24125.176563880035, -34032.90021811726, -29993.068277009523, -0.058, 0.988, 0.266, 192.0, 0.0, 0.0, 0.0, 0.0, 0.0, 0.0, 0.0, 0.0, 0.0, 1.741628100463232E9, 0.0, 2025-03-10 12:35:00.463
96.0, -26841.427605322315, -10149.144846099001, -34116.58514935793, -29912.132610336856, -15323.886611924961, -23017.42410867502, -16713.986303089416, -13964.498217642096, -27229.498592555356, -29759.13491954028, -33245.69413014581, -10752.396077203284, -32816.74180230401, -24134.877220973638, -33964.88385973976, -29991.391896175373, -0.058, 0.988, 0.266, 192.0, 0.0, 0.0, 0.0, 0.0, 0.0, 0.0, 0.0, 0.0, 0.0, 1.741628100463312E9, 0.0, 2025-03-10 12:35:00.463
98.0, -26852.379960105416, -10163.002927661291, -34118.55210287, -29918.14522959533, -15324.780681703172, -23025.157812256555, -16675.74246832639, -13965.52639788704, -27238.640456037578, -29761.213631774623, -33268.06822634557, -10759.302766239973, -32844.21209623958, -24160.87229977516, -34041.86326764384, -30005.56290216004, -0.058, 0.988, 0.266, 192.0, 0.0, 0.0, 0.0, 0.0, 0.0, 0.0, 0.0, 0.0, 0.0, 1.741628100463405E9, 0.0, 2025-03-10 12:35:00.463
100.0, -26838.27600935412, -10161.214788104868, -34118.73091682565, -29925.007215143112, -15318.186917088857, -23021.827402332714, -16693.10977376816, -13947.62265057834, -27241.456775838946, -29772.724780169105, -33258.747548907704, -10759.928615084722, -32817.18883719311, -24138.855831486682, -33970.069464453394, -30005.629957393405, -0.058, 0.988, 0.266, 192.0, 0.0, 0.0, 0.0, 0.0, 0.0, 0.0, 0.0, 0.0, 0.0, 1.74162810046349E9, 0.0, 2025-03-10 12:35:00.463
102.0, -26847.35081760297, -10155.58214850213, -34110.21490218817, -29917.631139472862, -15316.59994323253, -23008.84103880418, -16683.54322714129, -13935.843281250392, -27242.172031661517, -29770.534309212486, -33272.29270604762, -10768.623443677836, -32852.83986959933, -24100.3884792791, -34035.73888966309, -30009.45210569526, -0.066, 0.98, 0.268, 192.0, 126.5, 120.0, 15.0, 80.0, 4.0, 48.0, 0.0, 0.0, 0.0, 1.741628100463562E9, 0.0, 2025-03-10 12:35:00.463
104.0, -26841.293494855585, -10156.72208746935, -34115.24404469062, -29934.618465258893, -15322.724321213285, -23018.966379042435, -16693.15447725707, -13963.827665308436, -27226.078775653696, -29763.35939924233, -33248.15282203589, -10761.001498818578, -32805.36476437626, -24148.48943334692, -33977.713761057115, -30008.111001027944, -0.066, 0.98, 0.268, 192.0, 0.0, 0.0, 0.0, 0.0, 0.0, 0.0, 0.0, 0.0, 0.0, 1.741628100521283E9, 0.0, 2025-03-10 12:35:00.521
106.0, -26864.047570711085, -10155.62685199104, -34112.204207444694, -29908.9586626242, -15327.75346371573, -23035.216097261444, -16687.052451020772, -13957.18919720521, -27249.57045907622, -29758.486718951073, -33274.68434270434, -10769.919844856244, -32851.27524748746, -24117.375805065134, -34039.11400307584, -30022.639634923893, -0.066, 0.98, 0.268, 192.0, 0.0, 0.0, 0.0, 0.0, 0.0, 0.0, 0.0, 0.0, 0.0, 1.741628100521396E9, 0.0, 2025-03-10 12:35:00.521
108.0, -26834.655026752356, -10161.460657293876, -34109.410239387784, -29921.29682556353, -15311.637855963452, -23035.529021683815, -16678.469381149935, -13943.33111564292, -27243.222563650914, -29767.628582433295, -33261.563868709076, -10758.878083095322, -32828.14119197622, -24138.38644485312, -33987.906156528734, -30008.111001027944, -0.066, 0.98, 0.268, 192.0, 0.0, 0.0, 0.0, 0.0, 0.0, 0.0, 0.0, 0.0, 0.0, 1.741628100521472E9, 0.0, 2025-03-10 12:35:00.521
110.0, -26857.811434008057, -10160.410125304476, -34110.66193707728, -29921.319177307985, -15330.07804513908, -23041.340475242196, -16721.6976549265, -13972.991880535112, -27248.877554998107, -29764.36522774282, -33276.226613071754, -10771.104487312376, -32857.66784640167, -24161.69931432001, -34033.2354942841, -30013.028384808113, -0.066, 0.98, 0.268, 192.0, 0.0, 0.0, 0.0, 0.0, 0.0, 0.0, 0.0, 0.0, 0.0, 1.741628100521552E9, 0.0, 2025-03-10 12:35:00.521
112.0, -26821.713366712735, -10148.831921676627, -34103.7999515295, -29930.841020445947, -15309.357978029011, -23011.322082438717, -16666.332383910703, -13930.009475947558, -27238.05931068174, -29773.03770459148, -33258.3005140186, -10762.007327319066, -32807.68934579961, -24125.847116213696, -34003.53002590299, -30009.69797488427, -0.066, 0.976, 0.266, 192.0, 126.5, 120.0, 15.0, 64.0, 4.0, 40.0, 0.0, 0.0, 0.0, 1.741628100521631E9, 0.0, 2025-03-10 12:35:00.521
114.0, -26860.605402064968, -10151.067096122159, -34116.406335402295, -29919.061651118, -15321.249106079234, -23026.007178545857, -16702.20693376147, -13964.118237986355, -27232.001987934353, -29763.56056494243, -33264.02256059916, -10761.470885452138, -32842.28984621642, -24105.864656670652, -34016.76225862053, -30011.88844584089, -0.066, 0.976, 0.266, 192.0, 0.0, 0.0, 0.0, 0.0, 0.0, 0.0, 0.0, 0.0, 0.0, 1.74162810052172E9, 0.0, 2025-03-10 12:35:00.521
116.0, -26824.194410347274, -10152.765828700762, -34110.818399288466, -29926.34831981043, -15309.894419895938, -23022.36384419964, -16704.576218673734, -13964.498217642096, -27229.655054766543, -29766.376884743797, -33256.4006157399, -10756.8887778388, -32826.241293697516, -24089.34671751818, -34001.317203201914, -30006.79224810508, -0.066, 0.976, 0.266, 192.0, 0.0, 0.0, 0.0, 0.0, 0.0, 0.0, 0.0, 0.0, 0.0, 1.741628100588253E9, 0.0, 2025-03-10 12:35:00.588
118.0, -26856.80560550757, -10165.238102106823, -34122.351899427405, -29935.758404226115, -15325.674751481385, -23028.242352991387, -16703.3915762176, -13941.23005166412, -27239.400415349057, -29772.501262724552, -33261.85444138699, -10766.455324465673, -32850.18001200915, -24152.289229904323, -34014.16945626372, -30022.282007012607, -0.066, 0.976, 0.266, 192.0, 0.0, 0.0, 0.0, 0.0, 0.0, 0.0, 0.0, 0.0, 0.0, 1.74162810058839E9, 0.0, 2025-03-10 12:35:00.588
120.0, -26823.948541158265, -10155.090410124114, -34118.73091682565, -29940.988712428658, -15314.588286231554, -23041.69810315348, -16688.929997555017, -13965.369935675853, -27231.778470489797, -29773.41768424722, -33250.41034822587, -10763.08021105292, -32819.53577036092, -24131.278590116333, -34008.98385155009, -30027.31114951505, -0.066, 0.976, 0.266, 192.0, 0.0, 0.0, 0.0, 0.0, 0.0, 0.0, 0.0, 0.0, 0.0, 1.74162810058848E9, 0.0, 2025-03-10 12:35:00.588
122.0, -26849.273067626127, -10143.713372196362, -34121.12255348236, -29919.307520307008, -15322.277286324179, -23023.74965235587, -16691.29928246728, -13959.983165262123, -27228.00102567685, -29767.025085333004, -33258.56873495206, -10762.074382552431, -32848.190706752626, -24122.80727896777, -34002.21127298013, -30026.238265781198, -0.07200000000000001, 0.972, 0.264, 192.0, 126.5, 96.0, 15.0, 48.0, 4.0, 32.0, 0.0, 0.0, 0.0, 1.741628100588563E9, 0.0, 2025-03-10 12:35:00.588
124.0, -26823.657968480347, -10145.635622219519, -34122.32954768295, -29926.437726788252, -15319.148042100436, -23028.354111713663, -16681.8891980516, -13958.530301872528, -27219.44030755047, -29739.420680930696, -33260.69215067532, -10752.12785626982, -32829.571703621354, -24118.62750275463, -34028.78749713749, -30017.364623232443, -0.07200000000000001, 0.972, 0.264, 192.0, 0.0, 0.0, 0.0, 0.0, 0.0, 0.0, 0.0, 0.0, 0.0, 1.741628100588641E9, 0.0, 2025-03-10 12:35:00.588
126.0, -26860.06896019804, -10147.066133864659, -34128.83390531944, -29931.802145457525, -15343.377333089988, -23039.954667085967, -16729.476061996946, -13985.330043474441, -27235.108880413638, -29744.852154833337, -33274.907860148895, -10765.784772132012, -32829.504648387985, -24087.46917098393, -34000.93722354618, -30026.104155314468, -0.07200000000000001, 0.972, 0.264, 192.0, 0.0, 0.0, 0.0, 0.0, 0.0, 0.0, 0.0, 0.0, 0.0, 1.741628100588718E9, 0.0, 2025-03-10 12:35:00.588
128.0, -26814.605511975948, -10131.218747045845, -34112.360669655885, -29938.284151349566, -15313.22482981978, -23043.08391130971, -16686.694823109487, -13940.335981885908, -27219.99910116185, -29734.39153842825, -33273.991438626224, -10766.209455276663, -32838.13242174774, -24131.747976749895, -34048.88171540281, -30028.831068138014, -0.07200000000000001, 0.972, 0.264, 192.0, 0.0, 0.0, 0.0, 0.0, 0.0, 0.0, 0.0, 0.0, 0.0, 1.741628100588801E9, 0.0, 2025-03-10 12:35:00.588
130.0, -26860.828919509524, -10172.43536382143, -34119.73674532613, -29934.484354792163, -15331.195632361847, -23047.576611945227, -16699.077689537728, -13967.694517099204, -27223.754194230343, -29758.397311973255, -33263.28495303213, -10770.143362300798, -32825.7495553195, -24112.81604919625, -33995.3716391768, -30025.90298961437, -0.07200000000000001, 0.972, 0.264, 192.0, 0.0, 0.0, 0.0, 0.0, 0.0, 0.0, 0.0, 0.0, 0.0, 1.741628100588877E9, 0.0, 2025-03-10 12:35:00.588
132.0, -26827.97185516022, -10169.820209720161, -34119.93791102623, -29946.084910164467, -15318.455138022322, -23042.055731064767, -16689.511142910855, -13965.794618820504, -27240.607409549644, -29769.774349901003, -33278.99822938421, -10781.36393801736, -32845.50849741799, -24131.993845938905, -34042.9361513777, -30032.250885039677, -0.07200000000000001, 0.968, 0.266, 192.0, 126.5, 96.0, 15.0, 32.0, 4.0, 40.0, 0.0, 0.0, 0.0, 1.741628100643306E9, 0.0, 2025-03-10 12:35:00.643
134.0, -26856.31386712955, -10190.987311719337, -34129.32564369746, -29948.811822988013, -15327.775815460183, -23031.483355937406, -16701.491677938902, -13941.051237708478, -27252.990275977885, -29786.918137898225, -33278.35002879501, -10789.052938109988, -32828.342357676316, -24143.952029222495, -33994.38816242077, -30052.680379471825, -0.07200000000000001, 0.968, 0.266, 192.0, 0.0, 0.0, 0.0, 0.0, 0.0, 0.0, 0.0, 0.0, 0.0, 1.741628100643408E9, 0.0, 2025-03-10 12:35:00.643
136.0, -26824.954369658753, -10190.361462874587, -34107.33152715344, -29950.68936952226, -15328.64753349394, -23034.545544927783, -16703.480983195423, -13960.43020015123, -27257.81825278023, -29788.549815243463, -33285.97197365427, -10793.120955600853, -32863.009913326496, -24137.291209374813, -34057.86711667384, -30044.544344490096, -0.07200000000000001, 0.968, 0.266, 192.0, 0.0, 0.0, 0.0, 0.0, 0.0, 0.0, 0.0, 0.0, 0.0, 1.741628100643493E9, 0.0, 2025-03-10 12:35:00.643
138.0, -26832.911590684846, -10182.471297081864, -34110.61723358837, -29942.799203729537, -15321.316161312601, -23031.37159721513, -16682.67150910753, -13944.403999376775, -27254.554898089755, -29794.02599263501, -33264.424891999355, -10786.907170642278, -32802.816665508355, -24125.578895280232, -33979.74776980255, -30040.65514095487, -0.07200000000000001, 0.968, 0.266, 192.0, 0.0, 0.0, 0.0, 0.0, 0.0, 0.0, 0.0, 0.0, 0.0, 1.741628100643575E9, 0.0, 2025-03-10 12:35:00.643
140.0, -26820.729889956703, -10177.308044112688, -34120.76492557108, -29946.241372375654, -15336.202423119836, -23053.477472481427, -16724.961009616974, -13986.224113252654, -27243.177860162006, -29784.54885298596, -33273.32088629257, -10788.47179275415, -32841.10520376029, -24103.29420605829, -34061.242230086595, -30053.37328354994, -0.07200000000000001, 0.968, 0.266, 192.0, 0.0, 0.0, 0.0, 0.0, 0.0, 0.0, 0.0, 0.0, 0.0, 1.741628100643653E9, 0.0, 2025-03-10 12:35:00.643
142.0, -26839.639465765893, -10189.44504135192, -34134.82417283347, -29949.437671832762, -15340.516309799708, -23048.336571256707, -16731.5994777202, -13986.402927208297, -27242.283790383794, -29793.735419957095, -33257.87583087395, -10784.828458407934, -32817.09943021529, -24123.991921423905, -33992.510615886524, -30056.52487951814, -0.07, 0.97, 0.262, 192.0, 126.5, 104.0, 15.0, 40.0, 4.0, 24.0, 0.0, 0.0, 0.0, 1.741628100643743E9, 0.0, 2025-03-10 12:35:00.643
144.0, -26836.46551805324, -10198.005759478303, -34137.28286472355, -29963.720436539705, -15333.721379485296, -23059.020705106344, -16714.992131589905, -13980.412659694275, -27252.610296322146, -29802.452600294662, -33275.51135724918, -10797.99363589211, -32890.256689817514, -24150.12111069216, -34067.29955283398, -30065.018542411155, -0.07, 0.97, 0.262, 192.0, 0.0, 0.0, 0.0, 0.0, 0.0, 0.0, 0.0, 0.0, 0.0, 1.74162810064383E9, 0.0, 2025-03-10 12:35:00.643
146.0, -26834.699730241267, -10202.25259092481, -34137.931065312754, -29967.207308674733, -15329.832175950072, -23078.645536738102, -16704.93384658502, -14010.498107731119, -27252.118557944126, -29817.070641168433, -33260.55804020858, -10801.435804538227, -32827.35888092028, -24125.06480515776, -33993.60585136484, -30063.252754599187, -0.07, 0.97, 0.262, 192.0, 0.0, 0.0, 0.0, 0.0, 0.0, 0.0, 0.0, 0.0, 0.0, 1.741628100694296E9, 0.0, 2025-03-10 12:35:00.694
148.0, -26842.276971611616, -10198.96688448988, -34133.66188212179, -29956.478471336184, -15329.519251527698, -23065.32389704274, -16712.712253655463, -13966.1969502207, -27256.454796368456, -29810.23100736511, -33278.97587763976, -10800.966417904667, -32841.50753516049, -24160.849948030707, -34058.381206796315, -30066.247888356196, -0.07, 0.97, 0.262, 192.0, 0.0, 0.0, 0.0, 0.0, 0.0, 0.0, 0.0, 0.0, 0.0, 1.741628100694376E9, 0.0, 2025-03-10 12:35:00.694
150.0, -26836.242000608683, -10194.474183854365, -34143.94368457123, -29966.201480174244, -15336.113016142013, -23077.43854253752, -16730.459538752977, -13991.67793889975, -27246.48591834139, -29816.109516156856, -33264.87192688846, -10796.049034124499, -32809.00809872247, -24142.141537921612, -33997.11507524432, -30058.067149885555, -0.07, 0.97, 0.262, 192.0, 0.0, 0.0, 0.0, 0.0, 0.0, 0.0, 0.0, 0.0, 0.0, 1.741628100694465E9, 0.0, 2025-03-10 12:35:00.694
152.0, -26842.992227434188, -10189.847372752116, -34126.7551930851, -29952.633971289873, -15326.054731137125, -23058.50661498387, -16703.525686684334, -13950.260156424065, -27255.940706245987, -29816.690661512694, -33291.42579930137, -10807.068444140965, -32863.903983104705, -24150.031703714336, -34062.76214870955, -30063.923306932844, -0.07200000000000001, 0.974, 0.268, 192.0, 126.5, 96.0, 15.0, 56.0, 4.0, 48.0, 0.0, 0.0, 0.0, 1.741628100694544E9, 0.0, 2025-03-10 12:35:00.694
154.0, -26821.40044229036, -10190.339111130132, -34129.14682974182, -29956.45611959173, -15327.686408482363, -23075.605699492182, -16707.459593708467, -13997.467040713675, -27241.94851421696, -29807.437039308195, -33265.69894143331, -10796.294903313506, -32822.97793900704, -24137.045340185803, -33992.15298797524, -30059.899992930892, -0.07200000000000001, 0.974, 0.268, 192.0, 0.0, 0.0, 0.0, 0.0, 0.0, 0.0, 0.0, 0.0, 0.0, 1.74162810069462E9, 0.0, 2025-03-10 12:35:00.694
156.0, -26840.332369844007, -10179.29734936921, -34125.771716329065, -29947.001331687134, -15338.549356287642, -23069.503673255884, -16734.415797521568, -13974.310633457975, -27250.86686025463, -29808.554626530964, -33284.407351542395, -10801.838135938422, -32860.64062841423, -24128.171697637048, -34060.8398986864, -30066.404350567384, -0.07200000000000001, 0.974, 0.268, 192.0, 0.0, 0.0, 0.0, 0.0, 0.0, 0.0, 0.0, 0.0, 0.0, 1.741628100694711E9, 0.0, 2025-03-10 12:35:00.694
158.0, -26810.224570062706, -10178.380927846543, -34123.93887328373, -29952.142232911854, -15322.679617724374, -23057.389027761106, -16694.853209835674, -13965.928729287236, -27242.037921194784, -29801.04444039398, -33265.318961777564, -10788.024757865043, -32803.4425143531, -24095.67226119903, -34009.31912771692, -30066.0467226561, -0.07200000000000001, 0.974, 0.268, 192.0, 0.0, 0.0, 0.0, 0.0, 0.0, 0.0, 0.0, 0.0, 0.0, 1.741628100694789E9, 0.0, 2025-03-10 12:35:00.694
160.0, -26848.60251529247, -10189.40033786301, -34143.20607700421, -29956.21025040272, -15340.002219677237, -23077.706763470982, -16732.180623076038, -13984.033642296034, -27244.854240996152, -29809.113420142345, -33280.071113118065, -10790.729318944135, -32837.03718626943, -24172.58461386974, -34044.88075314531, -30069.62300176895, -0.07200000000000001, 0.974, 0.268, 192.0, 0.0, 0.0, 0.0, 0.0, 0.0, 0.0, 0.0, 0.0, 0.0, 1.741628100694869E9, 0.0, 2025-03-10 12:35:00.694
162.0, -26823.412099291338, -10193.244837909322, -34151.87855385287, -29973.532852355584, -15341.27626911119, -23081.238339094918, -16743.155329603593, -13985.86648534137, -27253.10203470016, -29819.596388291884, -33276.807758427596, -10800.854659182389, -32844.65913112869, -24154.837328772228, -34027.96048259264, -30083.43637984233, -0.074, 0.978, 0.268, 192.0, 126.5, 88.0, 15.0, 72.0, 4.0, 48.0, 0.0, 0.0, 0.0, 1.741628100754356E9, 0.0, 2025-03-10 12:35:00.754
164.0, -26846.07676816902, -10188.39450936252, -34148.88342009585, -29960.993523716155, -15348.048847681148, -23087.47447579795, -16723.64225669411, -13986.96172081968, -27252.744406788875, -29817.025937679522, -33277.72417995026, -10800.921714415756, -32882.52298623598, -24143.996732711403, -34055.989570139594, -30089.80662701209, -0.074, 0.978, 0.268, 192.0, 0.0, 0.0, 0.0, 0.0, 0.0, 0.0, 0.0, 0.0, 0.0, 1.741628100754492E9, 0.0, 2025-03-10 12:35:00.754
166.0, -26807.229436305697, -10175.564608045175, -34135.42766993376, -29956.54552656955, -15330.927411428382, -23064.072199353242, -16705.44793670749, -13967.225130465644, -27243.736653773387, -29806.94530093018, -33255.64065642842, -10782.772097918047, -32829.1470204767, -24125.556543535775, -34037.21410479714, -30080.061266429577, -0.074, 0.978, 0.268, 192.0, 0.0, 0.0, 0.0, 0.0, 0.0, 0.0, 0.0, 0.0, 0.0, 1.741628100754568E9, 0.0, 2025-03-10 12:35:00.754
168.0, -26852.491718827692, -10182.91833197097, -34148.16816427329, -29955.427939346784, -15345.433693579876, -23075.42688553654, -16745.569318004767, -13990.448592954708, -27249.257534653847, -29812.13090564381, -33266.01186585568, -10787.577722975937, -32845.28497997343, -24111.430241040023, -34031.76027915005, -30077.155539650386, -0.074, 0.978, 0.268, 192.0, 0.0, 0.0, 0.0, 0.0, 0.0, 0.0, 0.0, 0.0, 0.0, 1.741628100754641E9, 0.0, 2025-03-10 12:35:00.754
170.0, -26831.07874763951, -10189.40033786301, -34151.27505675257, -29966.916735996812, -15343.019705178704, -23072.945841902, -16743.669419726066, -13998.025834325057, -27248.452871853457, -29806.431210807707, -33268.78348216814, -10785.18608631922, -32850.135308520235, -24159.039456729824, -34046.22185781263, -30081.089446674523, -0.074, 0.978, 0.268, 192.0, 0.0, 0.0, 0.0, 0.0, 0.0, 0.0, 0.0, 0.0, 0.0, 1.74162810075472E9, 0.0, 2025-03-10 12:35:00.754
172.0, -26862.058265454565, -10186.87459073956, -34146.91646658379, -29963.295753395054, -15346.439522080365, -23080.0984001277, -16713.31575075576, -14005.826593139958, -27258.533508602803, -29813.47201031113, -33285.390828298434, -10796.8984004138, -32881.91948913568, -24104.747069447883, -34037.23645654159, -30094.411086369884, -0.076, 0.98, 0.262, 192.0, 126.5, 80.0, 15.0, 80.0, 4.0, 24.0, 0.0, 0.0, 0.0, 1.741628100754796E9, 0.0, 2025-03-10 12:35:00.754
174.0, -26825.647273736868, -10189.73561402984, -34135.87470482286, -29963.74278828416, -15332.335571329068, -23074.018725635855, -16696.976625558927, -13961.883063540825, -27253.77258703382, -29807.57114977493, -33283.44622653082, -10792.763327689569, -32852.728110877055, -24127.92582844804, -34047.764128180046, -30083.41402809787, -0.076, 0.98, 0.262, 192.0, 0.0, 0.0, 0.0, 0.0, 0.0, 0.0, 0.0, 0.0, 0.0, 1.741628100754876E9, 0.0, 2025-03-10 12:35:00.754
176.0, -26852.82699499452, -10191.099070441613, -34134.37713794436, -29953.081006178978, -15344.159644145924, -23070.576556989738, -16723.754015416387, -13965.034659509023, -27256.96888649093, -29812.019146921535, -33283.13330210844, -10792.651568967292, -32841.90986656069, -24126.383558080623, -34011.66606088472, -30077.222594883755, -0.076, 0.98, 0.262, 192.0, 0.0, 0.0, 0.0, 0.0, 0.0, 0.0, 0.0, 0.0, 0.0, 1.741628100775664E9, 0.0, 2025-03-10 12:35:00.775
178.0, -26825.043776636576, -10185.041747694224, -34128.208056474694, -29961.664076049816, -15336.671809753396, -23092.61537702267, -16741.903631914098, -14023.529174748563, -27254.7337120454, -29806.073582896424, -33282.82037768607, -10786.236618308618, -32834.53379089043, -24149.36115138068, -34061.2869335755, -30080.463597829774, -0.076, 0.98, 0.262, 192.0, 0.0, 0.0, 0.0, 0.0, 0.0, 0.0, 0.0, 0.0, 0.0, 1.741628100828199E9, 0.0, 2025-03-10 12:35:00.828
180.0, -26851.08355892701, -10181.644282537018, -34126.57637912946, -29946.889572964858, -15334.101359141036, -23061.41234176306, -16697.26719823685, -13945.499234855084, -27247.402339864057, -29804.71012648465, -33274.23730781523, -10784.694347941202, -32823.78260180743, -24140.35339836519, -34008.15683700524, -30087.727914777748, -0.076, 0.98, 0.262, 192.0, 0.0, 0.0, 0.0, 0.0, 0.0, 0.0, 0.0, 0.0, 0.0, 1.741628100828295E9, 0.0, 2025-03-10 12:35:00.828
182.0, -26827.725985971214, -10179.766736002772, -34125.503495395606, -29957.484299836673, -15320.802071190128, -23062.887556897113, -16689.82406733323, -13969.505008400085, -27247.759967775342, -29798.09401012588, -33285.36847655397, -10786.37072877535, -32842.870991572265, -24121.041491155804, -34057.755357951566, -30072.9981151817, -0.08, 0.984, 0.264, 192.0, 126.5, 64.0, 15.0, 96.0, 4.0, 32.0, 0.0, 0.0, 0.0, 1.741628100828375E9, 0.0, 2025-03-10 12:35:00.828
184.0, -26857.543213074594, -10186.069927939168, -34137.059347279, -29964.770968529105, -15339.13050164348, -23064.02749586433, -16723.463442738466, -13978.512761415574, -27242.10497642815, -29800.731515971605, -33274.66199095988, -10785.119031085853, -32819.28990117191, -24082.127104059113, -33998.0762002559, -30081.044743185612, -0.08, 0.984, 0.264, 192.0, 0.0, 0.0, 0.0, 0.0, 0.0, 0.0, 0.0, 0.0, 0.0, 1.741628100828469E9, 0.0, 2025-03-10 12:35:00.828
186.0, -26836.510221542147, -10185.533486072241, -34137.48403042365, -29973.152872699844, -15333.60962076302, -23070.777722689836, -16718.322541513746, -13978.468057926662, -27248.29640964227, -29806.274748596523, -33292.58809001304, -10800.586438248925, -32830.130497232734, -24146.097796690203, -34076.88845120531, -30083.90576647589, -0.08, 0.984, 0.264, 192.0, 0.0, 0.0, 0.0, 0.0, 0.0, 0.0, 0.0, 0.0, 0.0, 1.741628100828549E9, 0.0, 2025-03-10 12:35:00.828
188.0, -26857.677323541324, -10191.568457075175, -34153.01849282008, -29978.964326258225, -15352.51919657221, -23089.95551943249, -16736.203937077993, -14019.863488657891, -27239.690988026978, -29815.640129523294, -33273.14207233692, -10799.245333581608, -32774.76522621694, -24158.77123579636, -34008.58152014989, -30091.773580524157, -0.08, 0.984, 0.264, 192.0, 0.0, 0.0, 0.0, 0.0, 0.0, 0.0, 0.0, 0.0, 0.0, 1.741628100828622E9, 0.0, 2025-03-10 12:35:00.828
190.0, -26849.518936815137, -10189.44504135192, -34145.9106380833, -29969.531890098086, -15333.98960041876, -23077.125618115144, -16699.77059361584, -13980.882046327835, -27240.473299082914, -29810.879207954313, -33285.97197365427, -10802.620446994359, -32801.58731956331, -24163.12982596515, -34079.10127390639, -30082.43055134184, -0.08, 0.984, 0.264, 192.0, 0.0, 0.0, 0.0, 0.0, 0.0, 0.0, 0.0, 0.0, 0.0, 1.741628100828693E9, 0.0, 2025-03-10 12:35:00.828
192.0, -26859.241945653197, -10193.513058842786, -34153.97961783166, -29967.900212752847, -15344.159644145924, -23067.536719743817, -16730.59364921971, -13966.420467665252, -27236.718206014422, -29816.958882446157, -33273.298534548114, -10804.60975225088, -32771.18894710409, -24140.331046620733, -34004.28998521447, -30063.453920299286, -0.076, 0.968, 0.27, 192.0, 126.5, 80.0, 15.0, 32.0, 4.0, 56.0, 0.0, 0.0, 0.0, 1.741628100828775E9, 0.0, 2025-03-10 12:35:00.828
194.0, -26863.041742210597, -10189.44504135192, -34152.549106186525, -29962.15581442783, -15344.047885423648, -23067.402609277084, -16717.808451391276, -13975.808200336482, -27245.681255541, -29805.917120685237, -33293.97389816927, -10810.443557553715, -32830.93516003313, -24074.683973155497, -34086.56675655446, -30056.32371381804, -0.076, 0.968, 0.27, 192.0, 0.0, 0.0, 0.0, 0.0, 0.0, 0.0, 0.0, 0.0, 0.0, 1.741628100883715E9, 0.0, 2025-03-10 12:35:00.883
196.0, -26845.74149200219, -10183.320663371165, -34138.31104496849, -29951.2705148781, -15338.32583884309, -23061.7923214188, -16718.143727558105, -13971.76253459007, -27232.761947245832, -29807.124114885824, -33266.63771470043, -10798.351263803395, -32771.52422327092, -24169.29890743481, -34012.247206240565, -30044.834917168013, -0.076, 0.968, 0.27, 192.0, 0.0, 0.0, 0.0, 0.0, 0.0, 0.0, 0.0, 0.0, 0.0, 1.7416281008838E9, 0.0, 2025-03-10 12:35:00.883
198.0, -26853.542250817092, -10178.693852268918, -34127.64926286331, -29942.955665940724, -15329.429844549877, -23054.080969581722, -16697.155439514572, -13959.849054795392, -27239.802746749254, -29800.776219460517, -33281.50162476321, -10805.816746451468, -32787.05868566736, -24148.31061939128, -34071.56873602494, -30040.632789210416, -0.076, 0.968, 0.27, 192.0, 0.0, 0.0, 0.0, 0.0, 0.0, 0.0, 0.0, 0.0, 0.0, 1.741628100883887E9, 0.0, 2025-03-10 12:35:00.883
200.0, -26835.437337808293, -10179.54321855822, -34134.84652457792, -29944.54263979705, -15332.17910911788, -23069.078990111233, -16711.281742010324, -13961.793656563004, -27220.80376396224, -29792.930757156704, -33247.974008080244, -10785.968397375154, -32741.058795578338, -24119.007482410372, -33999.663174112226, -30025.813582636547, -0.076, 0.968, 0.27, 192.0, 0.0, 0.0, 0.0, 0.0, 0.0, 0.0, 0.0, 0.0, 0.0, 1.741628100883977E9, 0.0, 2025-03-10 12:35:00.883
202.0, -26853.586954306003, -10180.191419147422, -34145.12832702736, -29938.284151349566, -15346.953612202838, -23050.41528349105, -16734.773425432853, -13938.301973140477, -27232.516078056822, -29800.507998527053, -33267.68824668983, -10801.569915004959, -32801.31909862984, -24135.59247679621, -34062.20335509817, -30027.981701848712, -0.07, 0.968, 0.264, 192.0, 126.5, 104.0, 15.0, 32.0, 4.0, 32.0, 0.0, 0.0, 0.0, 1.741628100884057E9, 0.0, 2025-03-10 12:35:00.884
204.0, -26843.573372790026, -10180.236122636334, -34152.549106186525, -29949.21415438821, -15338.482301054277, -23072.431751779528, -16715.193297290003, -13982.111392272878, -27228.8280402217, -29803.2349113506, -33254.545420950104, -10798.32891205894, -32770.361932559244, -24123.835459212718, -34017.79043886548, -30033.726100173724, -0.07, 0.968, 0.264, 192.0, 0.0, 0.0, 0.0, 0.0, 0.0, 0.0, 0.0, 0.0, 0.0, 1.74162810088414E9, 0.0, 2025-03-10 12:35:00.884
206.0, -26859.6889805423, -10173.128267899547, -34153.33141724246, -29942.173354884788, -15351.580423305086, -23065.770931931846, -16739.288477812825, -13973.349508446398, -27235.488860069378, -29798.406934548253, -33269.61049671299, -10802.531040016538, -32811.42208712365, -24047.14662398656, -34061.8904306758, -30044.00790262317, -0.07, 0.968, 0.264, 192.0, 0.0, 0.0, 0.0, 0.0, 0.0, 0.0, 0.0, 0.0, 0.0, 1.741628100884226E9, 0.0, 2025-03-10 12:35:00.884
208.0, -26836.64433200888, -10173.083564410636, -34149.33045498496, -29940.74284323965, -15348.004144192237, -23061.36763827415, -16749.391466306624, -13988.43693595373, -27224.558857030734, -29787.47693150961, -33251.66204591537, -10786.035452608521, -32764.416368534134, -24147.997694968904, -34021.99256682308, -30025.23243728071, -0.07, 0.968, 0.264, 192.0, 0.0, 0.0, 0.0, 0.0, 0.0, 0.0, 0.0, 0.0, 0.0, 1.741628100942485E9, 0.0, 2025-03-10 12:35:00.942
210.0, -26867.84736726849, -10180.616102292073, -34153.84550736493, -29947.917753209804, -15354.173225661902, -23075.292775069807, -16744.02704763735, -13983.251331240099, -27237.366406603625, -29799.2339490931, -33274.68434270434, -10802.37457780535, -32812.53967434641, -24167.041381244824, -34072.10517789188, -30050.668722470848, -0.07, 0.968, 0.264, 192.0, 0.0, 0.0, 0.0, 0.0, 0.0, 0.0, 0.0, 0.0, 0.0, 1.741628100942578E9, 0.0, 2025-03-10 12:35:00.942
212.0, -26836.17494537532, -10177.375099346054, -34141.82026884798, -29948.655360776826, -15329.452196294333, -23066.08385635422, -16691.835724334207, -13976.031717781034, -27231.62200827861, -29796.998774647567, -33258.92636286335, -10795.579647490937, -32765.91393541264, -24115.744127719896, -34022.81958136792, -30030.283931527607, -0.062, 0.97, 0.27, 192.0, 127.0, 8.0, 15.0, 40.0, 4.0, 56.0, 0.0, 0.0, 0.0, 1.741628100942653E9, 0.0, 2025-03-10 12:35:00.942
214.0, -26860.113663686952, -10170.2001893759, -34140.68032988076, -29940.78754672856, -15350.41813259341, -23078.75729546038, -16737.232117322936, -14005.088985572933, -27230.81734547822, -29791.433190278196, -33267.64354320092, -10796.361958546873, -32812.517322601954, -24108.211589838458, -34047.1382793353, -30039.314036287553, -0.062, 0.97, 0.27, 192.0, 0.0, 0.0, 0.0, 0.0, 0.0, 0.0, 0.0, 0.0, 0.0, 1.741628100942753E9, 0.0, 2025-03-10 12:35:00.942
216.0, -26826.02725339261, -10166.91448294097, -34129.9067890533, -29943.89443920785, -15335.576574275086, -23060.18299581802, -16745.949297660507, -13946.169787188745, -27223.977711674896, -29793.310736812444, -33261.58622045353, -10796.51842075806, -32763.52229875592, -24132.753805250384, -34048.97112238063, -30043.98555087871, -0.062, 0.97, 0.27, 192.0, 0.0, 0.0, 0.0, 0.0, 0.0, 0.0, 0.0, 0.0, 0.0, 1.741628100942828E9, 0.0, 2025-03-10 12:35:00.942
218.0, -26864.673419555835, -10172.167142887967, -34135.45002167821, -29942.59803802944, -15354.597908806552, -23077.460894281972, -16738.908498157085, -13981.127915516845, -27223.798897719254, -29794.85300717986, -33265.40836875539, -10799.357092303884, -32765.891583668184, -24118.426337054534, -34041.08095658791, -30019.979777333712, -0.062, 0.97, 0.27, 192.0, 0.0, 0.0, 0.0, 0.0, 0.0, 0.0, 0.0, 0.0, 0.0, 1.741628100942902E9, 0.0, 2025-03-10 12:35:00.942
220.0, -26833.626846507414, -10165.372212573555, -34127.49280065212, -29939.98288392817, -15340.426902821888, -23052.628106192125, -16701.849305850184, -13934.926859727724, -27227.263418109826, -29797.26699558103, -33270.92924963585, -10798.463022525671, -32777.58154601831, -24155.820805528263, -34058.22474458513, -30025.634768680906, -0.062, 0.97, 0.27, 192.0, 0.0, 0.0, 0.0, 0.0, 0.0, 0.0, 0.0, 0.0, 0.0, 1.741628100942989E9, 0.0, 2025-03-10 12:35:00.942
222.0, -26856.492681085194, -10157.303232825188, -34119.55793137049, -29927.600017499928, -15343.109112156524, -23048.001295089878, -16718.5460589583, -13946.102731955378, -27221.228447106892, -29787.61104197634, -33263.17319430986, -10789.388214276816, -32776.0839791398, -24133.558468050775, -34028.89925585977, -30020.069184311535, -0.066, 0.978, 0.268, 192.0, 126.5, 120.0, 15.0, 72.0, 4.0, 48.0, 0.0, 0.0, 0.0, 1.741628100943071E9, 0.0, 2025-03-10 12:35:00.943
224.0, -26825.624921992414, -10160.387773560022, -34109.74551555461, -29939.222924616686, -15332.827309707083, -23069.61543197816, -16723.41873924956, -13986.96172081968, -27219.61912150611, -29785.264108808533, -33262.99438035421, -10788.963531132165, -32753.15108932866, -24102.24367406889, -34059.94582890819, -30017.94576858828, -0.066, 0.978, 0.268, 192.0, 0.0, 0.0, 0.0, 0.0, 0.0, 0.0, 0.0, 0.0, 0.0, 1.741628101002806E9, 0.0, 2025-03-10 12:35:01.002
