%OpenBCI Raw EXG Data
%Number of channels = 8
%Sample Rate = 250 Hz
%Board = OpenBCI_GUI$BoardCytonSerial
Sample Index, EXG Channel 0, EXG Channel 1, EXG Channel 2, EXG Channel 3, EXG Channel 4, EXG Channel 5, EXG Channel 6, EXG Channel 7, Accel Channel 0, Accel Channel 1, Accel Channel 2, Not Used, Digital Channel 0 (D11), Digital Channel 1 (D12), Digital Channel 2 (D13), Digital Channel 3 (D17), Not Used, Digital Channel 4 (D18), Analog Channel 0, Analog Channel 1, Analog Channel 2, Timestamp, Marker Channel, Timestamp (Formatted)
119.0, 8783.386204646375, -22963.55640453773, -25461.453254396114, 8149.870711549606, -1005.6943900220859, 5599.268448265606, -18371.569320150535, 20419.838478545964, 0.0, 0.0, 0.0, 192.0, 0.0, 0.0, 0.0, 0.0, 0.0, 0.0, 0.0, 0.0, 0.0, 1.741746313089103E9, 0.0, 2025-03-11 21:25:13.089
120.0, 8787.610684348427, -22960.31540159171, -25457.742864816533, 8145.869749292106, -1003.5709742988319, 5602.531802956081, -18369.714125360744, 20415.256370932624, 0.0, 0.0, 0.0, 192.0, 0.0, 0.0, 0.0, 0.0, 0.0, 0.0, 0.0, 0.0, 0.0, 1.741746313089166E9, 0.0, 2025-03-11 21:25:13.089
121.0, 8791.45518439474, -22953.185195110465, -25453.808957792397, 8146.450894647944, -998.5418317963877, 5596.161555786319, -18370.83171258351, 20404.192257427247, -0.154, 0.964, -0.112, 192.0, 251.0, 48.0, 30.0, 32.0, 252.0, 128.0, 0.0, 0.0, 0.0, 1.741746313089206E9, 0.0, 2025-03-11 21:25:13.089
122.0, 8785.576675602993, -22954.839224200157, -25458.815748550387, 8146.920281281506, -1004.9791341995161, 5585.723291125691, -18382.052288300074, 20395.922111978784, -0.154, 0.964, -0.112, 192.0, 0.0, 0.0, 0.0, 0.0, 0.0, 0.0, 0.0, 0.0, 0.0, 1.741746313089249E9, 0.0, 2025-03-11 21:25:13.089
123.0, 8781.374547645397, -22950.681799731472, -25460.067446239886, 8147.501426637344, -1003.213346387547, 5596.496831953148, -18374.072715529528, 20415.1669639548, -0.154, 0.964, -0.112, 192.0, 0.0, 0.0, 0.0, 0.0, 0.0, 0.0, 0.0, 0.0, 0.0, 1.741746313089309E9, 0.0, 2025-03-11 21:25:13.089
124.0, 8777.373585387897, -22963.824625471192, -25461.676771840666, 8149.915415038517, -1005.1802998996139, 5593.68051215178, -18370.943471305785, 20415.85986803292, -0.154, 0.964, -0.112, 192.0, 0.0, 0.0, 0.0, 0.0, 0.0, 0.0, 0.0, 0.0, 0.0, 1.741746313089348E9, 0.0, 2025-03-11 21:25:13.089
125.0, 8786.98483550368, -22960.538919036262, -25450.83617577984, 8148.239034204368, -1000.1735091416251, 5591.177116772785, -18369.490607916192, 20408.46144061821, -0.154, 0.964, -0.112, 192.0, 0.0, 0.0, 0.0, 0.0, 0.0, 0.0, 0.0, 0.0, 0.0, 1.741746313089392E9, 0.0, 2025-03-11 21:25:13.089
126.0, 8787.677739581794, -22957.83435795717, -25454.524213614968, 8146.89792953705, -1004.5097475659547, 5590.148936527841, -18375.570282408033, 20407.343853395447, -0.154, 0.964, -0.112, 192.0, 0.0, 0.0, 0.0, 0.0, 0.0, 0.0, 0.0, 0.0, 0.0, 1.741746313089431E9, 0.0, 2025-03-11 21:25:13.089
127.0, 8782.156858701332, -22961.1200643921, -25456.80409154941, 8149.982470271882, -1006.208480144558, 5591.19946851724, -18374.899730074376, 20416.016330244103, -0.154, 0.964, -0.112, 192.0, 0.0, 0.0, 0.0, 0.0, 0.0, 0.0, 0.0, 0.0, 0.0, 1.74174631308947E9, 0.0, 2025-03-11 21:25:13.089
128.0, 8779.675815066794, -22962.63998301506, -25453.965420003584, 8146.763819070318, -999.9276399526168, 5592.272352251095, -18371.4352096838, 20415.144612210348, -0.154, 0.964, -0.112, 192.0, 0.0, 0.0, 0.0, 0.0, 0.0, 0.0, 0.0, 0.0, 0.0, 1.741746313089509E9, 0.0, 2025-03-11 21:25:13.089
129.0, 8778.044137721556, -22961.3212300922, -25453.496033370026, 8137.733714310374, -996.6866370065973, 5592.272352251095, -18368.685945115798, 20416.150440710837, -0.154, 0.964, -0.112, 192.0, 0.0, 0.0, 0.0, 0.0, 0.0, 0.0, 0.0, 0.0, 0.0, 1.741746313089556E9, 0.0, 2025-03-11 21:25:13.089
130.0, 8779.49700111115, -22968.0714569177, -25459.352190417314, 8130.290583406757, -1003.0568841763597, 5591.91472433981, -18373.938605062798, 20411.925961008783, -0.154, 0.964, -0.112, 192.0, 0.0, 0.0, 0.0, 0.0, 0.0, 0.0, 0.0, 0.0, 0.0, 1.741746313089594E9, 0.0, 2025-03-11 21:25:13.089
131.0, 8784.21321919122, -22967.89264296206, -25457.04996073842, 8143.947499268949, -1001.6040207867647, 5592.607628417924, -18373.759791107153, 20412.46240287571, -0.152, 0.964, -0.122, 192.0, 251.0, 64.0, 30.0, 32.0, 252.0, 48.0, 0.0, 0.0, 0.0, 1.741746313089633E9, 0.0, 2025-03-11 21:25:13.089
132.0, 8782.201562190243, -22967.512663306316, -25455.32887641536, 8146.160321970025, -1002.565145798343, 5585.991512059154, -18374.87737832992, 20409.80254528553, -0.152, 0.964, -0.122, 192.0, 0.0, 0.0, 0.0, 0.0, 0.0, 0.0, 0.0, 0.0, 0.0, 1.741746313089699E9, 0.0, 2025-03-11 21:25:13.089
133.0, 8785.30845466953, -22965.076323160687, -25453.09370196983, 8145.489769636366, -1000.8887649641949, 5586.729119626179, -18372.30692771756, 20412.417699386802, -0.152, 0.964, -0.122, 192.0, 0.0, 0.0, 0.0, 0.0, 0.0, 0.0, 0.0, 0.0, 0.0, 1.741746313089738E9, 0.0, 2025-03-11 21:25:13.089
134.0, 8785.599027347449, -22968.049105173246, -25455.440635137635, 8138.068990477203, -1001.3581515977564, 5579.554209656026, -18373.044535284585, 20405.75687953912, -0.152, 0.964, -0.122, 192.0, 0.0, 0.0, 0.0, 0.0, 0.0, 0.0, 0.0, 0.0, 0.0, 1.741746313089784E9, 0.0, 2025-03-11 21:25:13.089
135.0, 8771.226855662688, -22970.35133485214, -25463.084931741352, 8130.692914806952, -1009.1589104126585, 5571.686395607758, -18381.11351503295, 20396.302091634523, -0.152, 0.964, -0.122, 192.0, 0.0, 0.0, 0.0, 0.0, 0.0, 0.0, 0.0, 0.0, 0.0, 1.741746313089838E9, 0.0, 2025-03-11 21:25:13.089
136.0, 8775.250169664641, -22966.909166206024, -25466.594155620834, 8129.821196773196, -1010.5223668244323, 5570.188828729252, -18381.337032477502, 20393.41871659979, -0.152, 0.964, -0.122, 192.0, 0.0, 0.0, 0.0, 0.0, 0.0, 0.0, 0.0, 0.0, 0.0, 1.741746313089877E9, 0.0, 2025-03-11 21:25:13.089
0.0, 0.0, 0.0, 0.0, 0.0, 0.0, 0.0, 0.0, 0.0, -0.152, 0.964, -0.122, 192.0, 0.0, 0.0, 0.0, 0.0, 0.0, 0.0, 0.0, 0.0, 0.0, 1.741746313190715E9, 0.0, 2025-03-11 21:25:13.190
1.0, 8770.73511728467, -23020.68746336549, -25449.94210600163, 8142.494635879355, -915.6615633561091, 5668.178876421318, -18395.50803846217, 20475.471970495222, -0.156, 0.96, -0.112, 192.0, 251.0, 32.0, 30.0, 0.0, 252.0, 128.0, 0.0, 0.0, 0.0, 1.741746313206716E9, 0.0, 2025-03-11 21:25:13.206
2.0, 8775.093707453456, -23019.860448820647, -25445.47175711057, 8141.198234700947, -909.3136679308019, 5667.038937454097, -18392.110573304963, 20472.029801849105, -0.156, 0.96, -0.112, 192.0, 0.0, 0.0, 0.0, 0.0, 0.0, 0.0, 0.0, 0.0, 0.0, 1.741746313265665E9, 0.0, 2025-03-11 21:25:13.265
3.0, 8782.246265679154, -23016.530038896806, -25443.862431509788, 8145.735638825374, -908.956040019517, 5670.190533422296, -18393.295215761093, 20472.14156057138, -0.156, 0.96, -0.112, 192.0, 0.0, 0.0, 0.0, 0.0, 0.0, 0.0, 0.0, 0.0, 0.0, 1.741746313265718E9, 0.0, 2025-03-11 21:25:13.265
4.0, 8782.916818012813, -23016.239466218885, -25446.835213522343, 8145.020383002804, -916.3991709231343, 5664.401431608371, -18402.54883796559, 20475.00258386166, -0.156, 0.96, -0.112, 192.0, 0.0, 0.0, 0.0, 0.0, 0.0, 0.0, 0.0, 0.0, 0.0, 1.741746313265757E9, 0.0, 2025-03-11 21:25:13.265
5.0, 8798.473632153706, -22998.98391949939, -25435.74874827251, 8157.067973264215, -907.8384527967517, 5672.939797990299, -18391.529427949125, 20483.608005476955, -0.156, 0.96, -0.112, 192.0, 0.0, 0.0, 0.0, 0.0, 0.0, 0.0, 0.0, 0.0, 0.0, 1.741746313265795E9, 0.0, 2025-03-11 21:25:13.265
6.0, 8790.650521594349, -23006.292939936273, -25440.5543733304, 8145.623880103098, -914.2534034554247, 5663.574417063524, -18402.437079243315, 20463.446731978267, -0.156, 0.96, -0.112, 192.0, 0.0, 0.0, 0.0, 0.0, 0.0, 0.0, 0.0, 0.0, 0.0, 1.741746313265832E9, 0.0, 2025-03-11 21:25:13.265
7.0, 8792.371605917408, -23001.55437011175, -25437.26866689547, 8148.6860690934745, -910.0736272422823, 5669.989367722198, -18398.83844838601, 20468.140598313883, -0.156, 0.96, -0.112, 192.0, 0.0, 0.0, 0.0, 0.0, 0.0, 0.0, 0.0, 0.0, 0.0, 1.74174631326587E9, 0.0, 2025-03-11 21:25:13.265
8.0, 8803.435719422785, -22985.50581759284, -25429.13263191374, 8166.18748500198, -904.3292289172684, 5674.593827079992, -18393.608140183467, 20472.05215359356, -0.162, 0.9540000000000001, -0.114, 192.0, 250.0, 240.0, 29.0, 208.0, 252.0, 112.0, 0.0, 0.0, 0.0, 1.741746313265938E9, 0.0, 2025-03-11 21:25:13.265
9.0, 8800.731158343693, -22983.181236169487, -25428.819707491366, 8160.398383188056, -903.3681039056902, 5676.717242803245, -18391.954111093775, 20483.563301988044, -0.162, 0.9540000000000001, -0.114, 192.0, 0.0, 0.0, 0.0, 0.0, 0.0, 0.0, 0.0, 0.0, 0.0, 1.741746313265981E9, 0.0, 2025-03-11 21:25:13.265
10.0, 8801.513469399628, -22975.24636688785, -25430.384329603236, 8163.147647756058, -907.5255283743774, 5675.4208416248375, -18393.63049192792, 20487.184284589803, -0.162, 0.9540000000000001, -0.114, 192.0, 0.0, 0.0, 0.0, 0.0, 0.0, 0.0, 0.0, 0.0, 0.0, 1.741746313266027E9, 0.0, 2025-03-11 21:25:13.266
11.0, 8798.317169942518, -22967.333849350674, -25432.93242847114, 8161.873598322106, -910.341848175746, 5671.308120645061, -18396.93855010731, 20479.696450197276, -0.162, 0.9540000000000001, -0.114, 192.0, 0.0, 0.0, 0.0, 0.0, 0.0, 0.0, 0.0, 0.0, 0.0, 1.741746313266092E9, 0.0, 2025-03-11 21:25:13.266
12.0, 8805.000341534656, -22965.38924758306, -25421.957721943585, 8168.914397825528, -902.4740341274779, 5680.986425994209, -18391.328262249026, 20485.15027584437, -0.162, 0.9540000000000001, -0.114, 192.0, 0.0, 0.0, 0.0, 0.0, 0.0, 0.0, 0.0, 0.0, 0.0, 1.741746313266131E9, 0.0, 2025-03-11 21:25:13.266
13.0, 8810.588277648483, -22966.618593528106, -25421.242466121017, 8165.829857090695, -902.3175719162908, 5681.455812627771, -18397.050308829585, 20472.879168138406, -0.162, 0.9540000000000001, -0.114, 192.0, 0.0, 0.0, 0.0, 0.0, 0.0, 0.0, 0.0, 0.0, 0.0, 1.741746313266176E9, 0.0, 2025-03-11 21:25:13.266
14.0, 8811.661161382337, -22962.371762081595, -25419.119050397763, 8168.6461768920635, -902.4069788941121, 5678.304216659572, -18395.955073351273, 20476.00841236215, -0.162, 0.9540000000000001, -0.114, 192.0, 0.0, 0.0, 0.0, 0.0, 0.0, 0.0, 0.0, 0.0, 0.0, 1.741746313266228E9, 0.0, 2025-03-11 21:25:13.266
15.0, 8815.483309684196, -22955.39801781154, -25415.900399196198, 8169.652005392552, -898.9871619924501, 5674.973806735731, -18391.77529713813, 20478.310642041048, -0.162, 0.9540000000000001, -0.114, 192.0, 0.0, 0.0, 0.0, 0.0, 0.0, 0.0, 0.0, 0.0, 0.0, 1.741746313266267E9, 0.0, 2025-03-11 21:25:13.266
16.0, 8812.130548015899, -22954.05691314422, -25420.057823664883, 8162.588854144676, -901.89288877164, 5667.083640943008, -18396.580922196023, 20474.510845483645, -0.162, 0.9540000000000001, -0.114, 192.0, 0.0, 0.0, 0.0, 0.0, 0.0, 0.0, 0.0, 0.0, 0.0, 1.741746313266305E9, 0.0, 2025-03-11 21:25:13.266
17.0, 8811.057664282043, -22955.263907344808, -25424.729338256042, 8160.107810510137, -903.8374905392517, 5669.184704921807, -18398.257303030172, 20476.38839201789, -0.162, 0.9540000000000001, -0.114, 192.0, 0.0, 0.0, 0.0, 0.0, 0.0, 0.0, 0.0, 0.0, 0.0, 1.741746313325973E9, 0.0, 2025-03-11 21:25:13.325
18.0, 8812.64463813837, -22949.9665439089, -25426.02573943445, 8158.252615720346, -902.6081445942098, 5666.189571164796, -18397.720861163245, 20472.834464649495, -0.162, 0.96, -0.116, 192.0, 250.0, 240.0, 30.0, 0.0, 252.0, 96.0, 0.0, 0.0, 0.0, 1.741746313326026E9, 0.0, 2025-03-11 21:25:13.326
19.0, 8810.163594503832, -22938.947133892434, -25421.55539054339, 8168.4673629364215, -902.2728684273802, 5667.1506961763735, -18399.710166419765, 20471.71687742673, -0.162, 0.96, -0.116, 192.0, 0.0, 0.0, 0.0, 0.0, 0.0, 0.0, 0.0, 0.0, 0.0, 1.74174631332607E9, 0.0, 2025-03-11 21:25:13.326
20.0, 8827.933231345802, -22928.82179365418, -25411.675919494144, 8174.345871728167, -892.5275078448664, 5670.950492733776, -18391.931759349318, 20476.29898504007, -0.162, 0.96, -0.116, 192.0, 0.0, 0.0, 0.0, 0.0, 0.0, 0.0, 0.0, 0.0, 0.0, 1.741746313326108E9, 0.0, 2025-03-11 21:25:13.326
21.0, 8822.434702209795, -22941.852860671625, -25417.643835263712, 8161.046583777259, -893.5333363453551, 5672.917446245843, -18389.78599188161, 20477.03659260709, -0.162, 0.96, -0.116, 192.0, 0.0, 0.0, 0.0, 0.0, 0.0, 0.0, 0.0, 0.0, 0.0, 1.741746313326146E9, 0.0, 2025-03-11 21:25:13.326
22.0, 8810.565925904028, -22952.313477076706, -25425.243428378515, 8165.315766968223, -899.6800660705646, 5664.334376375005, -18396.469163473746, 20475.963708873238, -0.162, 0.96, -0.116, 192.0, 0.0, 0.0, 0.0, 0.0, 0.0, 0.0, 0.0, 0.0, 0.0, 1.741746313326184E9, 0.0, 2025-03-11 21:25:13.326
23.0, 8808.308399714042, -22954.05691314422, -25429.55731505839, 8160.688955865974, -908.0843219857601, 5662.546236818581, -18407.533276979124, 20467.559452958045, -0.162, 0.96, -0.116, 192.0, 0.0, 0.0, 0.0, 0.0, 0.0, 0.0, 0.0, 0.0, 0.0, 1.741746313326222E9, 0.0, 2025-03-11 21:25:13.326
24.0, 8803.569829889517, -22953.743988721846, -25432.485393582036, 8160.666604121519, -909.827758053274, 5662.657995540857, -18406.527448478635, 20466.352458757457, -0.162, 0.96, -0.116, 192.0, 0.0, 0.0, 0.0, 0.0, 0.0, 0.0, 0.0, 0.0, 0.0, 1.741746313326284E9, 0.0, 2025-03-11 21:25:13.326
25.0, 8798.563039131528, -22950.59239275365, -25437.55923957339, 8163.840551834172, -911.504138887422, 5664.960225219754, -18406.34863452299, 20465.72660991271, -0.162, 0.96, -0.116, 192.0, 0.0, 0.0, 0.0, 0.0, 0.0, 0.0, 0.0, 0.0, 0.0, 1.741746313326322E9, 0.0, 2025-03-11 21:25:13.326
26.0, 8804.866231067925, -22950.39122705355, -25436.776928517455, 8157.447952919955, -909.5595371198103, 5664.222617652728, -18403.55466646608, 20467.134769813394, -0.162, 0.96, -0.116, 192.0, 0.0, 0.0, 0.0, 0.0, 0.0, 0.0, 0.0, 0.0, 0.0, 1.741746313326379E9, 0.0, 2025-03-11 21:25:13.326
27.0, 8817.964353318734, -22940.623514726583, -25432.239524393026, 8155.458647663432, -909.023095252883, 5667.2624548986505, -18407.153297323384, 20466.687734924286, -0.162, 0.96, -0.116, 192.0, 0.0, 0.0, 0.0, 0.0, 0.0, 0.0, 0.0, 0.0, 0.0, 1.741746313326434E9, 0.0, 2025-03-11 21:25:13.326
28.0, 8814.991571306178, -22940.668218215495, -25436.66516979518, 8151.860016806128, -911.4817871429667, 5664.580245564013, -18408.136774079416, 20464.452560478756, -0.16, 0.964, -0.116, 192.0, 251.0, 0.0, 30.0, 32.0, 252.0, 96.0, 0.0, 0.0, 0.0, 1.741746313326478E9, 0.0, 2025-03-11 21:25:13.326
29.0, 8808.017827036123, -22945.563250251205, -25440.777890774953, 8158.409077931533, -915.1027697447264, 5659.081716428008, -18412.003625870184, 20464.005525589648, -0.16, 0.964, -0.116, 192.0, 0.0, 0.0, 0.0, 0.0, 0.0, 0.0, 0.0, 0.0, 0.0, 1.741746313326532E9, 0.0, 2025-03-11 21:25:13.326
30.0, 8811.661161382337, -22933.694473945437, -25434.60880930529, 8167.796810602762, -908.1737289635813, 5665.02728045312, -18406.41568975636, 20467.5818047025, -0.16, 0.964, -0.116, 192.0, 0.0, 0.0, 0.0, 0.0, 0.0, 0.0, 0.0, 0.0, 0.0, 1.741746313326571E9, 0.0, 2025-03-11 21:25:13.326
31.0, 8811.080016026499, -22935.2143925684, -25435.525230827956, 8161.873598322106, -908.8666330416958, 5670.8387340115, -18403.152335065883, 20472.47683673821, -0.16, 0.964, -0.116, 192.0, 0.0, 0.0, 0.0, 0.0, 0.0, 0.0, 0.0, 0.0, 0.0, 1.741746313326609E9, 0.0, 2025-03-11 21:25:13.326
32.0, 8804.620361878915, -22944.64682872854, -25442.476623353556, 8158.18556048698, -912.375856921179, 5673.0739084570305, -18405.856896144975, 20475.62843270641, -0.16, 0.964, -0.116, 192.0, 0.0, 0.0, 0.0, 0.0, 0.0, 0.0, 0.0, 0.0, 0.0, 1.741746313386168E9, 0.0, 2025-03-11 21:25:13.386
33.0, 8813.35989396094, -22938.231878069866, -25435.07819593885, 8165.002842545849, -902.2505166829249, 5675.465545113748, -18399.106669319473, 20475.87430189542, -0.16, 0.964, -0.116, 192.0, 0.0, 0.0, 0.0, 0.0, 0.0, 0.0, 0.0, 0.0, 0.0, 1.741746313386252E9, 0.0, 2025-03-11 21:25:13.386
34.0, 8818.679609141303, -22932.375721022574, -25430.049053436407, 8167.573293158209, -896.3943596356345, 5681.366405649949, -18393.20580878327, 20485.19497933328, -0.16, 0.964, -0.116, 192.0, 0.0, 0.0, 0.0, 0.0, 0.0, 0.0, 0.0, 0.0, 0.0, 1.741746313386292E9, 0.0, 2025-03-11 21:25:13.386
35.0, 8814.477481183707, -22938.410692025507, -25437.045149450918, 8150.876540050094, -904.6198015951875, 5677.74542304819, -18397.698509418788, 20481.641051964885, -0.16, 0.964, -0.116, 192.0, 0.0, 0.0, 0.0, 0.0, 0.0, 0.0, 0.0, 0.0, 0.0, 1.741746313386331E9, 0.0, 2025-03-11 21:25:13.386
36.0, 8817.450263196262, -22934.521488490285, -25434.117070927274, 8163.7734966008065, -901.021170737883, 5675.1302689469185, -18393.854009372477, 20483.00450837666, -0.16, 0.964, -0.116, 192.0, 0.0, 0.0, 0.0, 0.0, 0.0, 0.0, 0.0, 0.0, 0.0, 1.74174631338637E9, 0.0, 2025-03-11 21:25:13.386
37.0, 8819.730141130703, -22930.788747166247, -25434.42999534965, 8169.80846760374, -900.9317637600618, 5678.997120737687, -18397.16206755186, 20480.456409508755, -0.16, 0.964, -0.116, 192.0, 0.0, 0.0, 0.0, 0.0, 0.0, 0.0, 0.0, 0.0, 0.0, 1.741746313386421E9, 0.0, 2025-03-11 21:25:13.386
38.0, 8820.311286486542, -22931.68281694446, -25434.497050583013, 8162.700612866952, -899.3000864148244, 5679.310045160061, -18392.714070405254, 20479.91996764183, -0.154, 0.968, -0.116, 192.0, 251.0, 48.0, 30.0, 64.0, 252.0, 96.0, 0.0, 0.0, 0.0, 1.741746313386449E9, 0.0, 2025-03-11 21:25:13.386
39.0, 8821.183004520299, -22935.72848269087, -25430.965474959074, 8159.5490168987535, -892.8627840116959, 5674.280902657617, -18385.78502962411, 20477.6847931963, -0.154, 0.968, -0.116, 192.0, 0.0, 0.0, 0.0, 0.0, 0.0, 0.0, 0.0, 0.0, 0.0, 1.741746313386503E9, 0.0, 2025-03-11 21:25:13.386
40.0, 8824.111083043943, -22927.39128200904, -25425.42224233416, 8161.337156455178, -889.3088566433021, 5682.975731250731, -18383.907483089864, 20485.217331077736, -0.154, 0.968, -0.116, 192.0, 0.0, 0.0, 0.0, 0.0, 0.0, 0.0, 0.0, 0.0, 0.0, 1.741746313386535E9, 0.0, 2025-03-11 21:25:13.386
41.0, 8820.333638230997, -22929.24647679883, -25429.51261156948, 8158.4314296759885, -896.215545679992, 5679.019472482142, -18392.82582912753, 20481.261072309146, -0.154, 0.968, -0.116, 192.0, 0.0, 0.0, 0.0, 0.0, 0.0, 0.0, 0.0, 0.0, 0.0, 1.741746313386561E9, 0.0, 2025-03-11 21:25:13.386
42.0, 8828.357914490452, -22924.284389529752, -25419.074346908852, 8166.746278613363, -886.4031298641122, 5687.9825220087205, -18380.30885223256, 20486.469028767235, -0.154, 0.968, -0.116, 192.0, 0.0, 0.0, 0.0, 0.0, 0.0, 0.0, 0.0, 0.0, 0.0, 1.7417463133866E9, 0.0, 2025-03-11 21:25:13.386
43.0, 8819.9313068308, -22925.24551454133, -25421.376576587747, 8166.723926868907, -890.1135194436931, 5682.998082995186, -18382.611081911455, 20491.72168871423, -0.154, 0.968, -0.116, 192.0, 0.0, 0.0, 0.0, 0.0, 0.0, 0.0, 0.0, 0.0, 0.0, 1.74174631338663E9, 0.0, 2025-03-11 21:25:13.386
44.0, 8834.057609326555, -22917.73532840435, -25412.16765787216, 8177.363357229634, -888.280676398358, 5683.445117884293, -18381.001756310674, 20490.44763928028, -0.154, 0.968, -0.116, 192.0, 0.0, 0.0, 0.0, 0.0, 0.0, 0.0, 0.0, 0.0, 0.0, 1.74174631338666E9, 0.0, 2025-03-11 21:25:13.386
45.0, 8834.45994072675, -22912.259151012797, -25410.446573549103, 8180.537304942287, -887.3642548756903, 5691.670559843846, -18378.5877679095, 20494.269787582136, -0.154, 0.968, -0.116, 192.0, 0.0, 0.0, 0.0, 0.0, 0.0, 0.0, 0.0, 0.0, 0.0, 1.741746313386693E9, 0.0, 2025-03-11 21:25:13.386
46.0, 8826.882699356402, -22914.8072498807, -25418.18027713064, 8170.970758315416, -896.1708421910814, 5687.267266186151, -18388.243721514194, 20483.71976419923, -0.154, 0.968, -0.116, 192.0, 0.0, 0.0, 0.0, 0.0, 0.0, 0.0, 0.0, 0.0, 0.0, 1.74174631338672E9, 0.0, 2025-03-11 21:25:13.386
47.0, 8827.597955178971, -22904.59250266463, -25413.397003817205, 8174.837610106184, -889.89000199914, 5693.190478466807, -18382.901654589376, 20488.413630534844, -0.154, 0.968, -0.116, 192.0, 0.0, 0.0, 0.0, 0.0, 0.0, 0.0, 0.0, 0.0, 0.0, 1.741746313446419E9, 0.0, 2025-03-11 21:25:13.446
48.0, 8829.69901915777, -22907.05119455471, -25416.526248040947, 8162.611205889131, -890.3370368882462, 5689.837716798511, -18382.029936555617, 20491.43111603631, -0.16, 0.964, -0.112, 192.0, 251.0, 0.0, 30.0, 32.0, 252.0, 128.0, 0.0, 0.0, 0.0, 1.741746313446477E9, 0.0, 2025-03-11 21:25:13.446
49.0, 8835.13049306041, -22906.112421287587, -25418.22498061955, 8169.13791527008, -893.2651154118914, 5684.987388251709, -18382.54402667809, 20485.016165377638, -0.16, 0.964, -0.112, 192.0, 0.0, 0.0, 0.0, 0.0, 0.0, 0.0, 0.0, 0.0, 0.0, 1.741746313446507E9, 0.0, 2025-03-11 21:25:13.446
50.0, 8829.766074391136, -22901.642072396528, -25418.336739341827, 8174.211761261436, -892.6392665671428, 5687.066100486052, -18385.717974390744, 20482.043383365082, -0.16, 0.964, -0.112, 192.0, 0.0, 0.0, 0.0, 0.0, 0.0, 0.0, 0.0, 0.0, 0.0, 1.741746313446533E9, 0.0, 2025-03-11 21:25:13.446
51.0, 8830.526033702616, -22895.271825226766, -25415.587474773823, 8170.5237234263095, -888.7500630319195, 5690.575324365535, -18379.772410365633, 20490.715860213742, -0.16, 0.964, -0.112, 192.0, 0.0, 0.0, 0.0, 0.0, 0.0, 0.0, 0.0, 0.0, 0.0, 1.74174631344656E9, 0.0, 2025-03-11 21:25:13.446
52.0, 8841.858368141457, -22896.992909549823, -25410.6477392492, 8176.648101407064, -888.0348072093497, 5692.117594732952, -18376.531407419614, 20497.86841843944, -0.16, 0.964, -0.112, 192.0, 0.0, 0.0, 0.0, 0.0, 0.0, 0.0, 0.0, 0.0, 0.0, 1.741746313446586E9, 0.0, 2025-03-11 21:25:13.446
53.0, 8839.377324506919, -22899.496304928816, -25410.98301541603, 8182.19133403198, -889.7558915324082, 5690.88824878791, -18378.5877679095, 20491.520523014133, -0.16, 0.964, -0.112, 192.0, 0.0, 0.0, 0.0, 0.0, 0.0, 0.0, 0.0, 0.0, 0.0, 1.741746313446612E9, 0.0, 2025-03-11 21:25:13.446
54.0, 8840.9866501077, -22901.23974099633, -25410.379518315738, 8177.005729318349, -888.7500630319195, 5689.256571442673, -18380.152390021372, 20480.232892064203, -0.16, 0.964, -0.112, 192.0, 0.0, 0.0, 0.0, 0.0, 0.0, 0.0, 0.0, 0.0, 0.0, 1.741746313446638E9, 0.0, 2025-03-11 21:25:13.446
55.0, 8835.398713993873, -22905.15129627601, -25414.536942784423, 8183.0854038101925, -892.6169148226876, 5693.615161611458, -18381.694660388788, 20490.268825324634, -0.16, 0.964, -0.112, 192.0, 0.0, 0.0, 0.0, 0.0, 0.0, 0.0, 0.0, 0.0, 0.0, 1.741746313446673E9, 0.0, 2025-03-11 21:25:13.446
56.0, 8831.621269180927, -22905.061889298187, -25414.760460228976, 8183.890066610583, -893.1086532007043, 5689.591847609502, -18380.822942355033, 20495.00739514916, -0.16, 0.964, -0.112, 192.0, 0.0, 0.0, 0.0, 0.0, 0.0, 0.0, 0.0, 0.0, 0.0, 1.7417463134467E9, 0.0, 2025-03-11 21:25:13.446
57.0, 8835.331658760508, -22904.637206153537, -25412.055899149884, 8183.443031721477, -892.3039904003133, 5689.927123776331, -18377.894863831385, 20493.398069548377, -0.16, 0.964, -0.112, 192.0, 0.0, 0.0, 0.0, 0.0, 0.0, 0.0, 0.0, 0.0, 0.0, 1.74174631344673E9, 0.0, 2025-03-11 21:25:13.446
58.0, 8829.766074391136, -22910.29219750073, -25419.543733542414, 8175.552865928754, -895.6567520686093, 5686.440251641304, -18378.766581865144, 20491.140543358393, -0.156, 0.96, -0.11, 192.0, 251.0, 32.0, 30.0, 0.0, 252.0, 144.0, 0.0, 0.0, 0.0, 1.741746313446767E9, 0.0, 2025-03-11 21:25:13.446
59.0, 8824.200490021765, -22907.542932932727, -25424.5505243004, 8173.652967650052, -900.7753015488746, 5684.853277784977, -18388.154314536372, 20479.361174030444, -0.156, 0.96, -0.11, 192.0, 0.0, 0.0, 0.0, 0.0, 0.0, 0.0, 0.0, 0.0, 0.0, 1.741746313446796E9, 0.0, 2025-03-11 21:25:13.446
60.0, 8823.015847565634, -22902.938473574934, -25424.483469067036, 8173.675319394508, -897.6460573251317, 5689.703606331779, -18381.627605155423, 20490.42528753582, -0.156, 0.96, -0.11, 192.0, 0.0, 0.0, 0.0, 0.0, 0.0, 0.0, 0.0, 0.0, 0.0, 1.741746313446825E9, 0.0, 2025-03-11 21:25:13.446
61.0, 8824.491062699684, -22898.37871770605, -25423.678806266646, 8176.5139909403315, -893.6450950676317, 5692.36346392196, -18374.25152948517, 20500.885903940907, -0.156, 0.96, -0.11, 192.0, 0.0, 0.0, 0.0, 0.0, 0.0, 0.0, 0.0, 0.0, 0.0, 1.741746313446857E9, 0.0, 2025-03-11 21:25:13.446
62.0, 8820.22187950872, -22897.976386305858, -25429.534963313934, 8167.7074036249405, -898.4060166366121, 5693.279885444628, -18379.392430709893, 20495.186209104802, -0.156, 0.96, -0.11, 192.0, 0.0, 0.0, 0.0, 0.0, 0.0, 0.0, 0.0, 0.0, 0.0, 1.741746313506725E9, 0.0, 2025-03-11 21:25:13.506
63.0, 8813.829280594502, -22905.933607331946, -25434.720568027566, 8162.52179891131, -900.9094120156064, 5691.737615077212, -18382.20875051126, 20489.486514268698, -0.156, 0.96, -0.11, 192.0, 0.0, 0.0, 0.0, 0.0, 0.0, 0.0, 0.0, 0.0, 0.0, 1.74174631350678E9, 0.0, 2025-03-11 21:25:13.506
64.0, 8818.903126585858, -22911.812116123692, -25437.425129106658, 8154.586929629676, -901.89288877164, 5689.144812720396, -18384.935663334807, 20483.540950243587, -0.156, 0.96, -0.11, 192.0, 0.0, 0.0, 0.0, 0.0, 0.0, 0.0, 0.0, 0.0, 0.0, 1.741746313506827E9, 0.0, 2025-03-11 21:25:13.506
65.0, 8820.445396953273, -22914.20375278041, -25435.346416872315, 8169.85317109265, -902.764606805397, 5683.243952184195, -18388.02020406964, 20480.992851375682, -0.156, 0.96, -0.11, 192.0, 0.0, 0.0, 0.0, 0.0, 0.0, 0.0, 0.0, 0.0, 0.0, 1.741746313506854E9, 0.0, 2025-03-11 21:25:13.506
66.0, 8822.501757443162, -22921.06573832819, -25431.27839938145, 8164.935787312483, -900.5517841043215, 5681.679330072324, -18388.199018025283, 20485.91023515585, -0.156, 0.96, -0.11, 192.0, 0.0, 0.0, 0.0, 0.0, 0.0, 0.0, 0.0, 0.0, 0.0, 1.741746313506881E9, 0.0, 2025-03-11 21:25:13.506
67.0, 8818.433739952296, -22925.53608721925, -25436.374597117258, 8166.723926868907, -904.6198015951875, 5683.243952184195, -18391.77529713813, 20483.63035722141, -0.156, 0.96, -0.11, 192.0, 0.0, 0.0, 0.0, 0.0, 0.0, 0.0, 0.0, 0.0, 0.0, 1.741746313506908E9, 0.0, 2025-03-11 21:25:13.506
68.0, 8819.797196364068, -22915.81307838119, -25435.23465815004, 8166.276891979801, -904.3068771728132, 5681.656978327868, -18391.41766922685, 20484.01033687715, -0.154, 0.96, -0.11, 192.0, 251.0, 48.0, 30.0, 0.0, 252.0, 144.0, 0.0, 0.0, 0.0, 1.741746313506934E9, 0.0, 2025-03-11 21:25:13.506
69.0, 8811.21412649323, -22916.885962115048, -25440.3532076303, 8157.939691297972, -904.7539120619193, 5675.040861969097, -18394.859837872966, 20468.542929714076, -0.154, 0.96, -0.11, 192.0, 0.0, 0.0, 0.0, 0.0, 0.0, 0.0, 0.0, 0.0, 0.0, 1.741746313506963E9, 0.0, 2025-03-11 21:25:13.506
70.0, 8812.130548015899, -22918.09295631563, -25442.051940208905, 8164.019365789815, -905.3127056733019, 5678.080699215019, -18393.183457038816, 20475.449618750765, -0.154, 0.96, -0.11, 192.0, 0.0, 0.0, 0.0, 0.0, 0.0, 0.0, 0.0, 0.0, 0.0, 1.741746313506989E9, 0.0, 2025-03-11 21:25:13.506
71.0, 8811.102367770955, -22914.91900860298, -25438.408605862693, 8163.818200089718, -903.5469178613326, 5681.254646927673, -18390.7918203821, 20480.367002530933, -0.154, 0.96, -0.11, 192.0, 0.0, 0.0, 0.0, 0.0, 0.0, 0.0, 0.0, 0.0, 0.0, 1.741746313507024E9, 0.0, 2025-03-11 21:25:13.507
72.0, 8802.809870578036, -22919.188191793943, -25440.889649497232, 8160.331327954689, -904.2845254283578, 5676.784298036611, -18393.63049192792, 20475.226101306213, -0.154, 0.96, -0.11, 192.0, 0.0, 0.0, 0.0, 0.0, 0.0, 0.0, 0.0, 0.0, 0.0, 1.741746313507049E9, 0.0, 2025-03-11 21:25:13.507
73.0, 8827.396789478873, -22906.20182826541, -25432.239524393026, 8167.081554780192, -896.9978567359277, 5682.4616411282595, -18385.740326135197, 20483.85387466596, -0.154, 0.96, -0.11, 192.0, 0.0, 0.0, 0.0, 0.0, 0.0, 0.0, 0.0, 0.0, 0.0, 1.741746313507082E9, 0.0, 2025-03-11 21:25:13.507
74.0, 8833.32000175953, -22904.659557897994, -25424.483469067036, 8168.668528636519, -893.5780398342657, 5688.876591786932, -18384.309814490058, 20483.76446768814, -0.154, 0.96, -0.11, 192.0, 0.0, 0.0, 0.0, 0.0, 0.0, 0.0, 0.0, 0.0, 0.0, 1.741746313507117E9, 0.0, 2025-03-11 21:25:13.507
75.0, 8828.60378367946, -22903.76548811978, -25424.863448722776, 8168.824990847706, -895.2991241573244, 5688.31779817555, -18384.309814490058, 20490.335880558003, -0.154, 0.96, -0.11, 192.0, 0.0, 0.0, 0.0, 0.0, 0.0, 0.0, 0.0, 0.0, 0.0, 1.741746313507147E9, 0.0, 2025-03-11 21:25:13.507
76.0, 8824.714580144237, -22911.879171357057, -25427.478602824045, 8164.600511145653, -895.5002898574221, 5691.894077288399, -18383.16987552284, 20489.82179043553, -0.154, 0.96, -0.11, 192.0, 0.0, 0.0, 0.0, 0.0, 0.0, 0.0, 0.0, 0.0, 0.0, 1.741746313507179E9, 0.0, 2025-03-11 21:25:13.507
77.0, 8821.473577198218, -22926.944247119936, -25428.59619004681, 8167.573293158209, -895.992028235439, 5683.623931839935, -18386.410878468858, 20481.14931358687, -0.154, 0.96, -0.11, 192.0, 0.0, 0.0, 0.0, 0.0, 0.0, 0.0, 0.0, 0.0, 0.0, 1.741746313566243E9, 0.0, 2025-03-11 21:25:13.566
78.0, 8822.881737098902, -22926.139584319542, -25428.104451668794, 8172.602435660653, -896.7743392913746, 5687.066100486052, -18385.561512179556, 20480.702278697765, -0.156, 0.962, -0.108, 192.0, 251.0, 32.0, 30.0, 16.0, 252.0, 160.0, 0.0, 0.0, 0.0, 1.741746313566302E9, 0.0, 2025-03-11 21:25:13.566
79.0, 8826.525071445116, -22916.39422373703, -25424.88580046723, 8175.731679884396, -893.9356677455506, 5687.535487119614, -18380.420610954836, 20494.850932937974, -0.156, 0.962, -0.108, 192.0, 0.0, 0.0, 0.0, 0.0, 0.0, 0.0, 0.0, 0.0, 0.0, 1.741746313566333E9, 0.0, 2025-03-11 21:25:13.566
80.0, 8824.26754525513, -22918.11530806009, -25429.289094124928, 8173.720022883418, -900.3059149153132, 5679.667673071346, -18391.283558760115, 20485.507903755653, -0.156, 0.962, -0.108, 192.0, 0.0, 0.0, 0.0, 0.0, 0.0, 0.0, 0.0, 0.0, 0.0, 1.741746313566381E9, 0.0, 2025-03-11 21:25:13.566
81.0, 8823.306420243553, -22918.58469469365, -25431.725434270556, 8168.489714680877, -904.5080428729109, 5680.517039360648, -18394.83748612851, 20480.72463044222, -0.156, 0.962, -0.108, 192.0, 0.0, 0.0, 0.0, 0.0, 0.0, 0.0, 0.0, 0.0, 0.0, 1.741746313566408E9, 0.0, 2025-03-11 21:25:13.566
82.0, 8819.908955086346, -22921.356311006108, -25435.83815525033, 8162.477095422399, -908.2631359414025, 5678.214809681751, -18395.373927995435, 20479.405877519355, -0.156, 0.962, -0.108, 192.0, 0.0, 0.0, 0.0, 0.0, 0.0, 0.0, 0.0, 0.0, 0.0, 1.741746313566434E9, 0.0, 2025-03-11 21:25:13.566
83.0, 8819.014885308134, -22915.969540592378, -25429.93729471413, 8171.484848437888, -905.0668364842936, 5678.728899804223, -18392.78112563862, 20477.10364784046, -0.156, 0.962, -0.108, 192.0, 0.0, 0.0, 0.0, 0.0, 0.0, 0.0, 0.0, 0.0, 0.0, 1.741746313566461E9, 0.0, 2025-03-11 21:25:13.566
84.0, 8824.960449333244, -22906.648863154514, -25427.65741677969, 8167.573293158209, -904.3068771728132, 5684.383891151416, -18393.339919250004, 20479.696450197276, -0.156, 0.962, -0.108, 192.0, 0.0, 0.0, 0.0, 0.0, 0.0, 0.0, 0.0, 0.0, 0.0, 1.741746313566491E9, 0.0, 2025-03-11 21:25:13.566
85.0, 8828.089693556987, -22912.616778924083, -25427.83623073533, 8167.841514091673, -904.5750981062769, 5680.69585331629, -18392.043518071594, 20481.216368820234, -0.156, 0.962, -0.108, 192.0, 0.0, 0.0, 0.0, 0.0, 0.0, 0.0, 0.0, 0.0, 0.0, 1.741746313566517E9, 0.0, 2025-03-11 21:25:13.566
86.0, 8826.435664467295, -22920.73046216136, -25426.472774323556, 8168.601473403153, -901.4682056269892, 5683.4004143953825, -18389.763640137153, 20482.490418254187, -0.156, 0.962, -0.108, 192.0, 0.0, 0.0, 0.0, 0.0, 0.0, 0.0, 0.0, 0.0, 0.0, 1.741746313566548E9, 0.0, 2025-03-11 21:25:13.566
87.0, 8825.65335341136, -22918.383528993552, -25427.83623073533, 8163.28175822279, -902.6751998275757, 5684.36153940696, -18392.87053261644, 20479.51763624163, -0.156, 0.962, -0.108, 192.0, 0.0, 0.0, 0.0, 0.0, 0.0, 0.0, 0.0, 0.0, 0.0, 1.741746313566574E9, 0.0, 2025-03-11 21:25:13.566
88.0, 8831.934193603302, -22912.035633568245, -25416.570951529855, 8171.775421115807, -894.3603508902015, 5690.12828947643, -18385.561512179556, 20488.927720657317, -0.148, 0.9580000000000001, -0.112, 192.0, 251.0, 96.0, 29.0, 240.0, 252.0, 128.0, 0.0, 0.0, 0.0, 1.741746313566606E9, 0.0, 2025-03-11 21:25:13.566
89.0, 8830.235461024698, -22917.221238281876, -25420.281341109436, 8170.367261215122, -897.8472230252294, 5678.840658526499, -18390.72476514873, 20481.261072309146, -0.148, 0.9580000000000001, -0.112, 192.0, 0.0, 0.0, 0.0, 0.0, 0.0, 0.0, 0.0, 0.0, 0.0, 1.741746313566646E9, 0.0, 2025-03-11 21:25:13.566
90.0, 8828.69319065728, -22919.09878481612, -25425.6010562898, 8166.992147802371, -905.0444847398383, 5676.69489105879, -18394.54691345059, 20474.734362928197, -0.148, 0.9580000000000001, -0.112, 192.0, 0.0, 0.0, 0.0, 0.0, 0.0, 0.0, 0.0, 0.0, 0.0, 1.741746313566672E9, 0.0, 2025-03-11 21:25:13.566
91.0, 8831.12953080291, -22915.366043492086, -25425.578704545343, 8159.638423876575, -905.5585748623104, 5680.427632382826, -18395.195114039794, 20468.744095414175, -0.148, 0.9580000000000001, -0.112, 192.0, 0.0, 0.0, 0.0, 0.0, 0.0, 0.0, 0.0, 0.0, 0.0, 1.741746313566703E9, 0.0, 2025-03-11 21:25:13.566
92.0, 8829.855481368957, -22913.712014402394, -25426.383367345737, 8166.433354190988, -906.6314585961651, 5678.572437593036, -18395.217465784248, 20475.494322239676, -0.148, 0.9580000000000001, -0.112, 192.0, 0.0, 0.0, 0.0, 0.0, 0.0, 0.0, 0.0, 0.0, 0.0, 1.741746313627291E9, 0.0, 2025-03-11 21:25:13.627
93.0, 8821.31711498703, -22915.38839523654, -25428.551486557903, 8170.166095515025, -908.6431155971427, 5678.483030615214, -18397.653805929876, 20475.04728735057, -0.148, 0.9580000000000001, -0.112, 192.0, 0.0, 0.0, 0.0, 0.0, 0.0, 0.0, 0.0, 0.0, 0.0, 1.741746313627329E9, 0.0, 2025-03-11 21:25:13.627
94.0, 8824.26754525513, -22908.079374799654, -25427.322140612858, 8172.75889787184, -905.536223117855, 5679.824135282533, -18393.518733205645, 20477.86360715194, -0.148, 0.9580000000000001, -0.112, 192.0, 0.0, 0.0, 0.0, 0.0, 0.0, 0.0, 0.0, 0.0, 0.0, 1.741746313627357E9, 0.0, 2025-03-11 21:25:13.627
95.0, 8830.861309869446, -22908.548761433216, -25429.44555633611, 8167.28272048029, -907.4584731410114, 5680.271170171639, -18396.87149487394, 20477.774200174117, -0.148, 0.9580000000000001, -0.112, 192.0, 0.0, 0.0, 0.0, 0.0, 0.0, 0.0, 0.0, 0.0, 0.0, 1.741746313627406E9, 0.0, 2025-03-11 21:25:13.627
96.0, 8842.327754775019, -22898.78104910625, -25420.393099831716, 8174.14470602807, -901.1329294601595, 5684.070966729041, -18390.92593084883, 20483.20567407676, -0.148, 0.9580000000000001, -0.112, 192.0, 0.0, 0.0, 0.0, 0.0, 0.0, 0.0, 0.0, 0.0, 0.0, 1.741746313627437E9, 0.0, 2025-03-11 21:25:13.627
97.0, 8839.399676251374, -22902.357328219096, -25418.292035852915, 8174.882313595094, -898.5624788477992, 5681.925199261332, -18393.40697448337, 20478.847083907975, -0.148, 0.9580000000000001, -0.112, 192.0, 0.0, 0.0, 0.0, 0.0, 0.0, 0.0, 0.0, 0.0, 0.0, 1.741746313627464E9, 0.0, 2025-03-11 21:25:13.627
98.0, 8831.531862203105, -22907.699395143914, -25424.483469067036, 8171.998938560359, -903.0328277388606, 5680.0029492381755, -18394.569265195045, 20476.947185629273, -0.148, 0.96, -0.11800000000000001, 192.0, 251.0, 96.0, 30.0, 0.0, 252.0, 80.0, 0.0, 0.0, 0.0, 1.74174631362749E9, 0.0, 2025-03-11 21:25:13.627
99.0, 8829.184929035298, -22902.983177063845, -25427.65741677969, 8170.434316448488, -903.4798626279668, 5684.965036507254, -18391.104744804474, 20477.550682729565, -0.148, 0.96, -0.11800000000000001, 192.0, 0.0, 0.0, 0.0, 0.0, 0.0, 0.0, 0.0, 0.0, 0.0, 1.74174631362752E9, 0.0, 2025-03-11 21:25:13.627
100.0, 8833.141187803887, -22900.412726451486, -25424.483469067036, 8170.970758315416, -903.6139730946986, 5687.244914441695, -18396.35740475147, 20479.71880194173, -0.148, 0.96, -0.11800000000000001, 192.0, 0.0, 0.0, 0.0, 0.0, 0.0, 0.0, 0.0, 0.0, 0.0, 1.741746313627546E9, 0.0, 2025-03-11 21:25:13.627
101.0, 8843.735914675703, -22897.462296183385, -25416.7497654855, 8172.3789182161, -899.1659759480925, 5688.1613359643625, -18398.570227452547, 20474.488493739187, -0.148, 0.96, -0.11800000000000001, 192.0, 0.0, 0.0, 0.0, 0.0, 0.0, 0.0, 0.0, 0.0, 0.0, 1.741746313627573E9, 0.0, 2025-03-11 21:25:13.627
102.0, 8840.137283818398, -22899.988043306836, -25419.767250986966, 8170.747240870863, -899.1212724591819, 5685.859106285466, -18393.40697448337, 20476.209578062248, -0.148, 0.96, -0.11800000000000001, 192.0, 0.0, 0.0, 0.0, 0.0, 0.0, 0.0, 0.0, 0.0, 0.0, 1.741746313627606E9, 0.0, 2025-03-11 21:25:13.627
103.0, 8826.703885400759, -22900.569188662674, -25429.333797613835, 8167.819162347218, -909.537185375355, 5679.801783538078, -18405.78984091161, 20469.951089614762, -0.148, 0.96, -0.11800000000000001, 192.0, 0.0, 0.0, 0.0, 0.0, 0.0, 0.0, 0.0, 0.0, 0.0, 1.741746313627633E9, 0.0, 2025-03-11 21:25:13.627
104.0, 8833.69998141527, -22905.218351509375, -25426.875105723753, 8164.578159401198, -903.8374905392517, 5676.963111992253, -18403.018224599153, 20474.332031528, -0.148, 0.96, -0.11800000000000001, 192.0, 0.0, 0.0, 0.0, 0.0, 0.0, 0.0, 0.0, 0.0, 0.0, 1.741746313627663E9, 0.0, 2025-03-11 21:25:13.627
105.0, 8838.617365195438, -22908.928741088956, -25420.571913787357, 8171.127220526603, -895.6344003241541, 5686.239085941206, -18391.037689571105, 20484.211502577247, -0.148, 0.96, -0.11800000000000001, 192.0, 0.0, 0.0, 0.0, 0.0, 0.0, 0.0, 0.0, 0.0, 0.0, 1.7417463136277E9, 0.0, 2025-03-11 21:25:13.627
106.0, 8838.572661706527, -22908.72757538886, -25423.74586150001, 8170.099040281659, -899.4118451371008, 5685.926161518832, -18394.45750647277, 20474.712011183743, -0.148, 0.96, -0.11800000000000001, 192.0, 0.0, 0.0, 0.0, 0.0, 0.0, 0.0, 0.0, 0.0, 0.0, 1.741746313627726E9, 0.0, 2025-03-11 21:25:13.627
107.0, 8838.550309962071, -22896.881150827547, -25425.154021400693, 8166.075726279703, -900.5294323598663, 5681.567571350047, -18398.77139315264, 20465.503092468156, -0.148, 0.96, -0.11800000000000001, 192.0, 0.0, 0.0, 0.0, 0.0, 0.0, 0.0, 0.0, 0.0, 0.0, 1.74174631368613E9, 0.0, 2025-03-11 21:25:13.686
108.0, 8839.690248929292, -22897.261130483286, -25422.851791721798, 8167.752107113852, -897.8248712807741, 5684.562705107058, -18395.530390206623, 20479.987022875193, -0.148, 0.966, -0.114, 192.0, 251.0, 96.0, 30.0, 48.0, 252.0, 112.0, 0.0, 0.0, 0.0, 1.741746313686192E9, 0.0, 2025-03-11 21:25:13.686
109.0, 8834.705809915758, -22909.66634865598, -25424.37171034476, 8176.558694429243, -897.4672433694892, 5680.651149827379, -18396.53621870711, 20480.165836830838, -0.148, 0.966, -0.114, 192.0, 0.0, 0.0, 0.0, 0.0, 0.0, 0.0, 0.0, 0.0, 0.0, 1.741746313686227E9, 0.0, 2025-03-11 21:25:13.686
110.0, 8830.548385447071, -22911.275674256765, -25423.45528882209, 8174.703499639452, -894.9414962460395, 5681.455812627771, -18391.887055860407, 20485.19497933328, -0.148, 0.966, -0.114, 192.0, 0.0, 0.0, 0.0, 0.0, 0.0, 0.0, 0.0, 0.0, 0.0, 1.741746313686253E9, 0.0, 2025-03-11 21:25:13.686
111.0, 8833.476463970717, -22910.359252734095, -25423.969378944563, 8173.652967650052, -897.1096154582043, 5683.623931839935, -18391.73059364922, 20485.91023515585, -0.148, 0.966, -0.114, 192.0, 0.0, 0.0, 0.0, 0.0, 0.0, 0.0, 0.0, 0.0, 0.0, 1.741746313686283E9, 0.0, 2025-03-11 21:25:13.686
112.0, 8829.967240091233, -22912.661482412994, -25430.183163903137, 8167.461534435933, -900.0823974707602, 5682.55104810608, -18393.384622738915, 20481.931624642806, -0.148, 0.966, -0.114, 192.0, 0.0, 0.0, 0.0, 0.0, 0.0, 0.0, 0.0, 0.0, 0.0, 1.741746313686309E9, 0.0, 2025-03-11 21:25:13.686
113.0, 8820.087769041987, -22915.567209192184, -25434.094719182816, 8164.444048934466, -903.7704353058858, 5682.774565550633, -18397.474991974235, 20477.72949668521, -0.148, 0.966, -0.114, 192.0, 0.0, 0.0, 0.0, 0.0, 0.0, 0.0, 0.0, 0.0, 0.0, 1.741746313686335E9, 0.0, 2025-03-11 21:25:13.686
114.0, 8817.897298085369, -22917.802383637714, -25434.385291860737, 8162.968833800416, -902.3622754052014, 5683.176896950829, -18396.960901851762, 20479.696450197276, -0.148, 0.966, -0.114, 192.0, 0.0, 0.0, 0.0, 0.0, 0.0, 0.0, 0.0, 0.0, 0.0, 1.741746313686362E9, 0.0, 2025-03-11 21:25:13.686
115.0, 8828.581431935005, -22917.265941770787, -25433.066538937874, 8166.52276116881, -899.8141765372965, 5681.165239949852, -18396.6926809183, 20474.15321757236, -0.148, 0.966, -0.114, 192.0, 0.0, 0.0, 0.0, 0.0, 0.0, 0.0, 0.0, 0.0, 0.0, 1.741746313686391E9, 0.0, 2025-03-11 21:25:13.686
116.0, 8831.241289525185, -22915.477802214362, -25428.28326562444, 8171.842476349173, -896.4390631245451, 5691.514097632658, -18390.031861070616, 20488.503037512666, -0.148, 0.966, -0.114, 192.0, 0.0, 0.0, 0.0, 0.0, 0.0, 0.0, 0.0, 0.0, 0.0, 1.741746313686418E9, 0.0, 2025-03-11 21:25:13.686
117.0, 8824.200490021765, -22916.975369092866, -25428.775004002455, 8170.970758315416, -897.6907608140423, 5693.9727895227425, -18392.35644249397, 20487.787781690095, -0.148, 0.966, -0.114, 192.0, 0.0, 0.0, 0.0, 0.0, 0.0, 0.0, 0.0, 0.0, 0.0, 1.741746313686445E9, 0.0, 2025-03-11 21:25:13.686
118.0, 8815.03627479509, -22923.613837196095, -25436.151079672705, 8168.154438514047, -901.4682056269892, 5680.852315527477, -18392.289387260604, 20477.66244145184, -0.152, 0.962, -0.11, 192.0, 251.0, 64.0, 30.0, 16.0, 252.0, 144.0, 0.0, 0.0, 0.0, 1.741746313686474E9, 0.0, 2025-03-11 21:25:13.686
119.0, 8817.159690518343, -22916.595389437127, -25431.94895171511, 8171.484848437888, -895.5226416018775, 5679.511210860159, -18385.24858775718, 20473.080333838505, -0.152, 0.962, -0.11, 192.0, 0.0, 0.0, 0.0, 0.0, 0.0, 0.0, 0.0, 0.0, 0.0, 1.741746313686503E9, 0.0, 2025-03-11 21:25:13.686
120.0, 8808.777786347602, -22916.953017348413, -25434.40764360519, 8165.606339646142, -899.0095137369053, 5681.947551005787, -18388.243721514194, 20477.327165285013, -0.152, 0.962, -0.11, 192.0, 0.0, 0.0, 0.0, 0.0, 0.0, 0.0, 0.0, 0.0, 0.0, 1.741746313686535E9, 0.0, 2025-03-11 21:25:13.686
121.0, 8810.342408459474, -22923.88205812956, -25434.139422671728, 8169.875522837106, -901.9152405160953, 5687.557838864069, -18390.322433748537, 20486.401973533866, -0.152, 0.962, -0.11, 192.0, 0.0, 0.0, 0.0, 0.0, 0.0, 0.0, 0.0, 0.0, 0.0, 1.741746313686568E9, 0.0, 2025-03-11 21:25:13.686
122.0, 8820.735969631192, -22925.71490117489, -25429.780832502944, 8177.072784551715, -902.764606805397, 5688.541315620103, -18392.624663427432, 20486.893711911885, -0.152, 0.962, -0.11, 192.0, 0.0, 0.0, 0.0, 0.0, 0.0, 0.0, 0.0, 0.0, 0.0, 1.74174631374651E9, 0.0, 2025-03-11 21:25:13.746
123.0, 8813.739873616682, -22931.369892522085, -25435.011140705486, 8164.779325101295, -907.570231863288, 5677.432498625815, -18395.50803846217, 20481.86456940944, -0.152, 0.962, -0.11, 192.0, 0.0, 0.0, 0.0, 0.0, 0.0, 0.0, 0.0, 0.0, 0.0, 1.741746313746573E9, 0.0, 2025-03-11 21:25:13.746
124.0, 8816.824414351513, -22921.602180195117, -25428.50678306899, 8171.28368273779, -901.021170737883, 5682.282827172617, -18390.434192470813, 20487.67602296782, -0.152, 0.962, -0.11, 192.0, 0.0, 0.0, 0.0, 0.0, 0.0, 0.0, 0.0, 0.0, 0.0, 1.741746313746605E9, 0.0, 2025-03-11 21:25:13.746
125.0, 8816.578545162505, -22909.956921333902, -25427.724472013055, 8171.373089715611, -899.7694730483859, 5684.6968155737895, -18388.93662559231, 20486.401973533866, -0.152, 0.962, -0.11, 192.0, 0.0, 0.0, 0.0, 0.0, 0.0, 0.0, 0.0, 0.0, 0.0, 1.741746313746632E9, 0.0, 2025-03-11 21:25:13.746
126.0, 8817.450263196262, -22918.227066782365, -25430.049053436407, 8164.3769937011, -905.8044440513187, 5682.50634461717, -18397.095012318496, 20474.15321757236, -0.152, 0.962, -0.11, 192.0, 0.0, 0.0, 0.0, 0.0, 0.0, 0.0, 0.0, 0.0, 0.0, 1.741746313746659E9, 0.0, 2025-03-11 21:25:13.746
127.0, 8814.969219561723, -22923.323264518174, -25427.433899335134, 8166.500409424354, -909.6265923531762, 5676.091393958497, -18399.665462930854, 20473.706182683254, -0.154, 0.966, -0.10400000000000001, 192.0, 251.0, 48.0, 30.0, 48.0, 252.0, 192.0, 0.0, 0.0, 0.0, 1.741746313746689E9, 0.0, 2025-03-11 21:25:13.746
128.0, 8823.12760628791, -22911.901523101515, -25418.694367253112, 8180.134973542092, -899.8812317706623, 5688.31779817555, -18384.242759256693, 20491.654633480863, -0.154, 0.966, -0.10400000000000001, 192.0, 0.0, 0.0, 0.0, 0.0, 0.0, 0.0, 0.0, 0.0, 0.0, 1.74174631374672E9, 0.0, 2025-03-11 21:25:13.746
129.0, 8827.217975523232, -22909.219313766876, -25417.21915211906, 8178.592703174675, -900.3506184042238, 5691.402338910382, -18386.20971276876, 20491.29700556958, -0.154, 0.966, -0.10400000000000001, 192.0, 0.0, 0.0, 0.0, 0.0, 0.0, 0.0, 0.0, 0.0, 0.0, 1.741746313746746E9, 0.0, 2025-03-11 21:25:13.746
130.0, 8827.150920289865, -22909.979273078356, -25411.631216005233, 8182.168982287524, -896.9978567359277, 5693.056368000075, -18384.421573212334, 20488.637147979396, -0.154, 0.966, -0.10400000000000001, 192.0, 0.0, 0.0, 0.0, 0.0, 0.0, 0.0, 0.0, 0.0, 0.0, 1.741746313746772E9, 0.0, 2025-03-11 21:25:13.746
131.0, 8828.804949379557, -22903.027880552756, -25411.452402049592, 8181.4984299538655, -893.5556880898105, 5695.425652912338, -18381.78406736661, 20491.67698522532, -0.154, 0.966, -0.10400000000000001, 192.0, 0.0, 0.0, 0.0, 0.0, 0.0, 0.0, 0.0, 0.0, 0.0, 1.741746313746799E9, 0.0, 2025-03-11 21:25:13.746
132.0, 8823.50758594365, -22894.19894149291, -25415.207495118084, 8174.390575217078, -895.9696764909836, 5694.352769178483, -18385.315642990547, 20489.262996824145, -0.154, 0.966, -0.10400000000000001, 192.0, 0.0, 0.0, 0.0, 0.0, 0.0, 0.0, 0.0, 0.0, 0.0, 1.741746313746826E9, 0.0, 2025-03-11 21:25:13.746
133.0, 8829.296687757575, -22891.494380413817, -25414.045204406408, 8178.972682830416, -895.5673450907881, 5696.364426179461, -18382.633433655912, 20491.654633480863, -0.154, 0.966, -0.10400000000000001, 192.0, 0.0, 0.0, 0.0, 0.0, 0.0, 0.0, 0.0, 0.0, 0.0, 1.741746313746855E9, 0.0, 2025-03-11 21:25:13.746
134.0, 8841.36662976344, -22893.215464736877, -25409.105468881782, 8184.4935637108765, -892.1251764446708, 5693.391644166904, -18379.660651643357, 20495.54383701609, -0.154, 0.966, -0.10400000000000001, 192.0, 0.0, 0.0, 0.0, 0.0, 0.0, 0.0, 0.0, 0.0, 0.0, 1.741746313746881E9, 0.0, 2025-03-11 21:25:13.746
135.0, 8836.404542494362, -22895.607101393594, -25412.681747994633, 8178.592703174675, -896.729635802464, 5690.530620876625, -18384.60038716798, 20489.687679968796, -0.154, 0.966, -0.10400000000000001, 192.0, 0.0, 0.0, 0.0, 0.0, 0.0, 0.0, 0.0, 0.0, 0.0, 1.74174631374691E9, 0.0, 2025-03-11 21:25:13.746
136.0, 8824.155786532854, -22896.00943279379, -25419.722547498055, 8163.415868689522, -901.3340951602573, 5686.306141174572, -18391.887055860407, 20480.47876125321, -0.154, 0.966, -0.10400000000000001, 192.0, 0.0, 0.0, 0.0, 0.0, 0.0, 0.0, 0.0, 0.0, 0.0, 1.741746313746946E9, 0.0, 2025-03-11 21:25:13.746
137.0, 8821.630039409405, -22909.353424233606, -25423.768213244464, 8168.3556042141445, -903.6586765836092, 5682.685158572813, -18393.02699482763, 20481.57399673152, -0.152, 0.966, -0.10400000000000001, 192.0, 251.0, 64.0, 30.0, 48.0, 252.0, 192.0, 0.0, 0.0, 0.0, 1.741746313806772E9, 0.0, 2025-03-11 21:25:13.806
138.0, 8836.851577383468, -22906.67121489897, -25413.88874219522, 8177.922150841016, -893.8015572788188, 5688.183687708818, -18381.985233066705, 20484.613833977444, -0.152, 0.966, -0.10400000000000001, 192.0, 0.0, 0.0, 0.0, 0.0, 0.0, 0.0, 0.0, 0.0, 0.0, 1.741746313806828E9, 0.0, 2025-03-11 21:25:13.806
139.0, 8828.380266234906, -22907.162953276988, -25417.97911143054, 8167.573293158209, -897.377836391668, 5688.049577242086, -18389.45071571478, 20480.34465078648, -0.152, 0.966, -0.10400000000000001, 192.0, 0.0, 0.0, 0.0, 0.0, 0.0, 0.0, 0.0, 0.0, 0.0, 1.741746313806863E9, 0.0, 2025-03-11 21:25:13.806
140.0, 8829.073170313022, -22906.894732343524, -25420.571913787357, 8161.717136110919, -900.149452704126, 5681.2322951832175, -18392.557608194067, 20472.365078015933, -0.152, 0.966, -0.10400000000000001, 192.0, 0.0, 0.0, 0.0, 0.0, 0.0, 0.0, 0.0, 0.0, 0.0, 1.741746313806889E9, 0.0, 2025-03-11 21:25:13.806
141.0, 8826.905051100857, -22900.81505785168, -25420.393099831716, 8165.494580923865, -897.1766706915702, 5686.909638274866, -18385.002718568172, 20491.162895102847, -0.152, 0.966, -0.10400000000000001, 192.0, 0.0, 0.0, 0.0, 0.0, 0.0, 0.0, 0.0, 0.0, 0.0, 1.741746313806915E9, 0.0, 2025-03-11 21:25:13.806
142.0, 8831.196586036276, -22903.877246842058, -25422.27064636596, 8167.036851291282, -901.4235021380786, 5684.026263240131, -18392.22233202724, 20484.211502577247, -0.152, 0.966, -0.10400000000000001, 192.0, 0.0, 0.0, 0.0, 0.0, 0.0, 0.0, 0.0, 0.0, 0.0, 1.741746313806945E9, 0.0, 2025-03-11 21:25:13.806
143.0, 8833.387056992897, -22912.661482412994, -25425.35518710079, 8152.865845306617, -903.0328277388606, 5680.271170171639, -18395.798611140086, 20476.902482140362, -0.152, 0.966, -0.10400000000000001, 192.0, 0.0, 0.0, 0.0, 0.0, 0.0, 0.0, 0.0, 0.0, 0.0, 1.741746313806971E9, 0.0, 2025-03-11 21:25:13.806
144.0, 8826.949754589767, -22916.48363071485, -25432.32893137085, 8149.378973171589, -908.5313568748662, 5674.616178824446, -18399.933683864318, 20469.973441359216, -0.152, 0.966, -0.10400000000000001, 192.0, 0.0, 0.0, 0.0, 0.0, 0.0, 0.0, 0.0, 0.0, 0.0, 1.741746313806997E9, 0.0, 2025-03-11 21:25:13.806
145.0, 8830.41427498034, -22911.655653912505, -25424.08113766684, 8160.241920976869, -900.1271009596708, 5680.0029492381755, -18392.423497727337, 20474.80141816156, -0.152, 0.966, -0.10400000000000001, 192.0, 0.0, 0.0, 0.0, 0.0, 0.0, 0.0, 0.0, 0.0, 0.0, 1.741746313807023E9, 0.0, 2025-03-11 21:25:13.807
146.0, 8828.290859257086, -22912.259151012797, -25427.99269294652, 8161.761839599829, -901.2446881824361, 5675.174972435829, -18394.70337566178, 20469.571109959023, -0.152, 0.966, -0.10400000000000001, 192.0, 0.0, 0.0, 0.0, 0.0, 0.0, 0.0, 0.0, 0.0, 0.0, 1.741746313807048E9, 0.0, 2025-03-11 21:25:13.807
147.0, 8820.914783586835, -22920.52929646126, -25431.904248226198, 8156.330365697189, -906.0056097514165, 5675.800821280578, -18394.792782639597, 20477.573034474022, -0.158, 0.964, -0.106, 192.0, 251.0, 16.0, 30.0, 32.0, 252.0, 176.0, 0.0, 0.0, 0.0, 1.741746313807075E9, 0.0, 2025-03-11 21:25:13.807
148.0, 8821.831205109502, -22914.851953369613, -25429.400852847204, 8153.424638918, -904.2621736839026, 5676.918408503343, -18390.434192470813, 20488.81596193504, -0.158, 0.964, -0.106, 192.0, 0.0, 0.0, 0.0, 0.0, 0.0, 0.0, 0.0, 0.0, 0.0, 1.741746313807104E9, 0.0, 2025-03-11 21:25:13.807
149.0, 8821.160652775843, -22914.896656858524, -25427.21038189058, 8154.229301718391, -900.9988189934277, 5679.153582948874, -18389.16014303686, 20487.787781690095, -0.158, 0.964, -0.106, 192.0, 0.0, 0.0, 0.0, 0.0, 0.0, 0.0, 0.0, 0.0, 0.0, 1.741746313807133E9, 0.0, 2025-03-11 21:25:13.807
150.0, 8815.21508875073, -22931.92868613347, -25433.692387782623, 8142.651098090541, -907.3914179076455, 5673.006853223665, -18393.00464308317, 20481.350479286968, -0.158, 0.964, -0.106, 192.0, 0.0, 0.0, 0.0, 0.0, 0.0, 0.0, 0.0, 0.0, 0.0, 1.741746313807159E9, 0.0, 2025-03-11 21:25:13.807
151.0, 8823.596992921472, -22920.864572628092, -25425.265780122973, 8163.326461711701, -902.6528480831204, 5679.98059749372, -18391.82000062704, 20485.06086886655, -0.158, 0.964, -0.106, 192.0, 0.0, 0.0, 0.0, 0.0, 0.0, 0.0, 0.0, 0.0, 0.0, 1.741746313807194E9, 0.0, 2025-03-11 21:25:13.807
152.0, 8812.242306738175, -22929.849973899123, -25432.038358692927, 8153.156417984536, -909.8501097977293, 5674.236199168707, -18399.6431111864, 20478.265938552137, -0.158, 0.964, -0.106, 192.0, 0.0, 0.0, 0.0, 0.0, 0.0, 0.0, 0.0, 0.0, 0.0, 1.741746313867013E9, 0.0, 2025-03-11 21:25:13.867
153.0, 8807.168460746821, -22934.074453601177, -25437.26866689547, 8151.412981917022, -914.3204586887907, 5672.828039268022, -18402.817058899054, 20476.075467595514, -0.158, 0.964, -0.106, 192.0, 0.0, 0.0, 0.0, 0.0, 0.0, 0.0, 0.0, 0.0, 0.0, 1.74174631386707E9, 0.0, 2025-03-11 21:25:13.867
154.0, 8827.352085989964, -22928.508869231806, -25428.350320857804, 8159.660775621031, -903.278696927869, 5681.4111091388595, -18392.334090749515, 20483.987985132695, -0.158, 0.964, -0.106, 192.0, 0.0, 0.0, 0.0, 0.0, 0.0, 0.0, 0.0, 0.0, 0.0, 1.741746313867104E9, 0.0, 2025-03-11 21:25:13.867
155.0, 8830.324868002519, -22923.591485451638, -25423.92467545565, 8158.18556048698, -895.7908625353411, 5686.3955481523935, -18388.333128492013, 20483.742115943685, -0.158, 0.964, -0.106, 192.0, 0.0, 0.0, 0.0, 0.0, 0.0, 0.0, 0.0, 0.0, 0.0, 1.741746313867135E9, 0.0, 2025-03-11 21:25:13.867
156.0, 8821.250059753664, -22928.084186087155, -25426.78569874593, 8156.777400586296, -898.696589314531, 5683.333359162016, -18391.440020971302, 20474.712011183743, -0.158, 0.964, -0.106, 192.0, 0.0, 0.0, 0.0, 0.0, 0.0, 0.0, 0.0, 0.0, 0.0, 1.741746313867161E9, 0.0, 2025-03-11 21:25:13.867
157.0, 8817.003228307156, -22930.811098910704, -25428.08209992434, 8153.983432529382, -897.6684090695869, 5686.842583041499, -18386.813209869055, 20482.423363020822, -0.156, 0.964, -0.116, 192.0, 251.0, 32.0, 30.0, 32.0, 252.0, 96.0, 0.0, 0.0, 0.0, 1.741746313867188E9, 0.0, 2025-03-11 21:25:13.867
158.0, 8817.249097496164, -22927.927723875968, -25427.098623168305, 8158.029098275793, -896.4390631245451, 5691.201173210285, -18387.26024475816, 20489.128886357415, -0.156, 0.964, -0.116, 192.0, 0.0, 0.0, 0.0, 0.0, 0.0, 0.0, 0.0, 0.0, 0.0, 1.741746313867222E9, 0.0, 2025-03-11 21:25:13.867
159.0, 8817.830242852002, -22924.396148252028, -25430.02670169195, 8161.650080877553, -902.2058131940142, 5687.244914441695, -18394.345747750493, 20479.04824960807, -0.156, 0.964, -0.116, 192.0, 0.0, 0.0, 0.0, 0.0, 0.0, 0.0, 0.0, 0.0, 0.0, 1.741746313867248E9, 0.0, 2025-03-11 21:25:13.867
160.0, 8810.431815437296, -22929.514697732295, -25434.072367438363, 8160.756011099341, -910.0289237533717, 5681.724033561234, -18402.50413447668, 20468.67704018081, -0.156, 0.964, -0.116, 192.0, 0.0, 0.0, 0.0, 0.0, 0.0, 0.0, 0.0, 0.0, 0.0, 1.741746313867274E9, 0.0, 2025-03-11 21:25:13.867
161.0, 8825.072208055522, -22929.40293901002, -25423.12001265526, 8164.287586723279, -898.7859962923523, 5688.295446431094, -18387.528465691623, 20483.3844880324, -0.156, 0.964, -0.116, 192.0, 0.0, 0.0, 0.0, 0.0, 0.0, 0.0, 0.0, 0.0, 0.0, 1.7417463138673E9, 0.0, 2025-03-11 21:25:13.867
162.0, 8823.596992921472, -22926.519563975286, -25420.728375998544, 8164.756973356841, -894.6285718236652, 5690.798841810089, -18381.7393638777, 20496.303796327567, -0.156, 0.964, -0.116, 192.0, 0.0, 0.0, 0.0, 0.0, 0.0, 0.0, 0.0, 0.0, 0.0, 1.741746313867326E9, 0.0, 2025-03-11 21:25:13.867
163.0, 8818.83607135249, -22923.792651151736, -25426.338663856826, 8162.275929722301, -903.0328277388606, 5684.808574296067, -18392.26703551615, 20486.58078748951, -0.156, 0.964, -0.116, 192.0, 0.0, 0.0, 0.0, 0.0, 0.0, 0.0, 0.0, 0.0, 0.0, 1.741746313867352E9, 0.0, 2025-03-11 21:25:13.867
164.0, 8820.713617886737, -22921.848049384123, -25425.690463267623, 8158.453781420444, -907.1902522075477, 5685.009739996164, -18399.665462930854, 20479.405877519355, -0.156, 0.964, -0.116, 192.0, 0.0, 0.0, 0.0, 0.0, 0.0, 0.0, 0.0, 0.0, 0.0, 1.741746313867388E9, 0.0, 2025-03-11 21:25:13.867
165.0, 8819.528975430605, -22923.189154051444, -25425.154021400693, 8167.193313502469, -905.2232986954807, 5693.861030800465, -18395.798611140086, 20485.66436596684, -0.156, 0.964, -0.116, 192.0, 0.0, 0.0, 0.0, 0.0, 0.0, 0.0, 0.0, 0.0, 0.0, 1.741746313867414E9, 0.0, 2025-03-11 21:25:13.867
166.0, 8823.50758594365, -22911.029805067756, -25421.443631821112, 8174.345871728167, -897.958981747506, 5696.1409087349075, -18387.528465691623, 20491.922854414326, -0.156, 0.964, -0.116, 192.0, 0.0, 0.0, 0.0, 0.0, 0.0, 0.0, 0.0, 0.0, 0.0, 1.741746313867445E9, 0.0, 2025-03-11 21:25:13.867
167.0, 8824.93809758879, -22907.408822465997, -25421.533038798934, 8175.061127550737, -900.1271009596708, 5694.978618023231, -18386.522637191134, 20491.47581952522, -0.156, 0.964, -0.11800000000000001, 192.0, 251.0, 32.0, 30.0, 32.0, 252.0, 80.0, 0.0, 0.0, 0.0, 1.741746313926561E9, 0.0, 2025-03-11 21:25:13.926
168.0, 8825.809815622546, -22911.119212045578, -25419.16375388667, 8174.614092661631, -899.1436242036372, 5693.726920333734, -18386.902616846874, 20493.375717803923, -0.156, 0.964, -0.11800000000000001, 192.0, 0.0, 0.0, 0.0, 0.0, 0.0, 0.0, 0.0, 0.0, 0.0, 1.741746313926615E9, 0.0, 2025-03-11 21:25:13.926
169.0, 8825.899222600368, -22908.63816841104, -25418.22498061955, 8175.128182784103, -900.3059149153132, 5700.723016348245, -18389.29425350359, 20491.565226503044, -0.156, 0.964, -0.11800000000000001, 192.0, 0.0, 0.0, 0.0, 0.0, 0.0, 0.0, 0.0, 0.0, 0.0, 1.741746313926661E9, 0.0, 2025-03-11 21:25:13.926
170.0, 8827.17327203432, -22909.15225853351, -25419.677844009144, 8174.837610106184, -902.0940544717378, 5701.952362293287, -18389.87539885943, 20490.984081147206, -0.156, 0.964, -0.11800000000000001, 192.0, 0.0, 0.0, 0.0, 0.0, 0.0, 0.0, 0.0, 0.0, 0.0, 1.741746313926695E9, 0.0, 2025-03-11 21:25:13.926
171.0, 8829.386094735395, -22912.14739229052, -25419.74489924251, 8174.90466533955, -900.0376939818495, 5697.750234335689, -18386.67909940232, 20492.414592792346, -0.156, 0.964, -0.11800000000000001, 192.0, 0.0, 0.0, 0.0, 0.0, 0.0, 0.0, 0.0, 0.0, 0.0, 1.741746313926722E9, 0.0, 2025-03-11 21:25:13.926
172.0, 8826.078036556011, -22913.086165557645, -25420.16958238716, 8174.569389172721, -900.3953218931345, 5693.07871974453, -18387.01437556915, 20492.66046198135, -0.156, 0.964, -0.11800000000000001, 192.0, 0.0, 0.0, 0.0, 0.0, 0.0, 0.0, 0.0, 0.0, 0.0, 1.741746313926748E9, 0.0, 2025-03-11 21:25:13.926
173.0, 8823.485234199195, -22911.96857833488, -25423.03060567744, 8175.418755462022, -903.278696927869, 5692.877554044432, -18389.629529670423, 20490.112363113447, -0.156, 0.964, -0.11800000000000001, 192.0, 0.0, 0.0, 0.0, 0.0, 0.0, 0.0, 0.0, 0.0, 0.0, 1.74174631392678E9, 0.0, 2025-03-11 21:25:13.926
174.0, 8823.440530710284, -22905.82184860967, -25418.493201553014, 8179.710290397441, -898.0483887253272, 5698.577248880536, -18385.136829034906, 20492.01226139215, -0.156, 0.964, -0.11800000000000001, 192.0, 0.0, 0.0, 0.0, 0.0, 0.0, 0.0, 0.0, 0.0, 0.0, 1.741746313926806E9, 0.0, 2025-03-11 21:25:13.926
175.0, 8818.612553907938, -22909.1075550446, -25419.297864353404, 8172.602435660653, -898.9648102479947, 5688.541315620103, -18391.931759349318, 20479.204711819257, -0.156, 0.964, -0.11800000000000001, 192.0, 0.0, 0.0, 0.0, 0.0, 0.0, 0.0, 0.0, 0.0, 0.0, 1.741746313926832E9, 0.0, 2025-03-11 21:25:13.926
176.0, 8819.283106241597, -22919.456412727406, -25428.484431324534, 8155.27983370779, -903.8821940281623, 5685.836754541011, -18395.12805880643, 20480.881092653406, -0.156, 0.964, -0.11800000000000001, 192.0, 0.0, 0.0, 0.0, 0.0, 0.0, 0.0, 0.0, 0.0, 0.0, 1.741746313926858E9, 0.0, 2025-03-11 21:25:13.926
177.0, 8828.000286579167, -22921.02103483928, -25423.499992311, 8164.108772767637, -899.5906590927433, 5690.552972621081, -18389.5401226926, 20491.095839869482, -0.154, 0.964, -0.116, 192.0, 251.0, 48.0, 30.0, 32.0, 252.0, 96.0, 0.0, 0.0, 0.0, 1.741746313926884E9, 0.0, 2025-03-11 21:25:13.926
178.0, 8837.343315761485, -22903.944302075422, -25409.55250377089, 8185.834668378195, -889.5100223433999, 5696.02915001263, -18383.21457901175, 20494.448601537777, -0.154, 0.964, -0.116, 192.0, 0.0, 0.0, 0.0, 0.0, 0.0, 0.0, 0.0, 0.0, 0.0, 1.741746313926914E9, 0.0, 2025-03-11 21:25:13.926
179.0, 8835.354010504963, -22900.63624389604, -25411.050070649395, 8180.067918308726, -890.9181822440842, 5689.658902842868, -18389.98715758171, 20483.42919152131, -0.154, 0.964, -0.116, 192.0, 0.0, 0.0, 0.0, 0.0, 0.0, 0.0, 0.0, 0.0, 0.0, 1.74174631392694E9, 0.0, 2025-03-11 21:25:13.926
180.0, 8825.586298177994, -22907.408822465997, -25420.706024254087, 8165.114601268126, -900.6635428265981, 5679.645321326891, -18403.018224599153, 20472.610947204943, -0.154, 0.964, -0.116, 192.0, 0.0, 0.0, 0.0, 0.0, 0.0, 0.0, 0.0, 0.0, 0.0, 1.741746313926976E9, 0.0, 2025-03-11 21:25:13.926
181.0, 8824.915745844335, -22910.29219750073, -25420.348396342804, 8164.846380334661, -899.344789903735, 5682.729862061723, -18397.095012318496, 20483.228025821212, -0.154, 0.964, -0.116, 192.0, 0.0, 0.0, 0.0, 0.0, 0.0, 0.0, 0.0, 0.0, 0.0, 1.741746313927002E9, 0.0, 2025-03-11 21:25:13.927
182.0, 8832.18006279231, -22907.788802121737, -25415.207495118084, 8180.04556656427, -896.3496561467239, 5690.150641220885, -18391.685890160312, 20489.508866013155, -0.154, 0.964, -0.116, 192.0, 0.0, 0.0, 0.0, 0.0, 0.0, 0.0, 0.0, 0.0, 0.0, 1.741746313986276E9, 0.0, 2025-03-11 21:25:13.986
183.0, 8835.577527949516, -22912.10268880161, -25415.87804745174, 8174.681147894997, -898.696589314531, 5683.445117884293, -18394.12223030594, 20479.450581008266, -0.154, 0.964, -0.116, 192.0, 0.0, 0.0, 0.0, 0.0, 0.0, 0.0, 0.0, 0.0, 0.0, 1.741746313986344E9, 0.0, 2025-03-11 21:25:13.986
184.0, 8835.644583182882, -22912.505020201806, -25414.06755615086, 8174.435278705988, -896.9978567359277, 5684.138021962407, -18395.753907651175, 20474.712011183743, -0.154, 0.964, -0.116, 192.0, 0.0, 0.0, 0.0, 0.0, 0.0, 0.0, 0.0, 0.0, 0.0, 1.741746313986378E9, 0.0, 2025-03-11 21:25:13.986
185.0, 8838.595013450982, -22908.68287189995, -25409.12782062624, 8177.5645229297315, -892.1475281891261, 5688.809536553566, -18387.6402244139, 20487.832485179006, -0.154, 0.964, -0.116, 192.0, 0.0, 0.0, 0.0, 0.0, 0.0, 0.0, 0.0, 0.0, 0.0, 1.741746313986404E9, 0.0, 2025-03-11 21:25:13.986
186.0, 8836.136321560898, -22907.63233991055, -25410.625387504744, 8175.28464499529, -894.3156474012909, 5684.339187662505, -18389.562474437058, 20490.604101491466, -0.154, 0.964, -0.116, 192.0, 0.0, 0.0, 0.0, 0.0, 0.0, 0.0, 0.0, 0.0, 0.0, 1.741746313986437E9, 0.0, 2025-03-11 21:25:13.986
187.0, 8834.41523723784, -22902.178514263454, -25412.45823055008, 8174.435278705988, -895.2320689239584, 5691.379987165927, -18391.77529713813, 20492.839275936996, -0.15, 0.964, -0.114, 192.0, 251.0, 80.0, 30.0, 32.0, 252.0, 112.0, 0.0, 0.0, 0.0, 1.741746313986463E9, 0.0, 2025-03-11 21:25:13.986
188.0, 8828.804949379557, -22903.25139799731, -25417.8002974749, 8169.1155635256255, -901.2223364379807, 5687.177859208329, -18401.163029809362, 20483.29508105458, -0.15, 0.964, -0.114, 192.0, 0.0, 0.0, 0.0, 0.0, 0.0, 0.0, 0.0, 0.0, 0.0, 1.741746313986493E9, 0.0, 2025-03-11 21:25:13.986
189.0, 8828.447321468273, -22903.58667416414, -25417.5991317748, 8174.4576304504435, -903.1892899500477, 5683.869801028944, -18401.20773329827, 20481.596348475978, -0.15, 0.964, -0.114, 192.0, 0.0, 0.0, 0.0, 0.0, 0.0, 0.0, 0.0, 0.0, 0.0, 1.741746313986523E9, 0.0, 2025-03-11 21:25:13.986
190.0, 8830.0342953246, -22895.808267093693, -25409.351338070792, 8184.515915455332, -894.4944613569334, 5692.654036599879, -18388.35548023647, 20490.134714857904, -0.15, 0.964, -0.114, 192.0, 0.0, 0.0, 0.0, 0.0, 0.0, 0.0, 0.0, 0.0, 0.0, 1.741746313986549E9, 0.0, 2025-03-11 21:25:13.986
191.0, 8825.228670266708, -22894.020127537267, -25413.397003817205, 8181.364319487134, -897.5566503473104, 5685.702644074278, -18391.663538415854, 20485.127924099914, -0.15, 0.964, -0.114, 192.0, 0.0, 0.0, 0.0, 0.0, 0.0, 0.0, 0.0, 0.0, 0.0, 1.741746313986575E9, 0.0, 2025-03-11 21:25:13.986
192.0, 8828.961411590744, -22891.136752502534, -25416.034509662928, 8175.038775806282, -900.3059149153132, 5693.011664511164, -18396.91619836285, 20484.971461888726, -0.15, 0.964, -0.114, 192.0, 0.0, 0.0, 0.0, 0.0, 0.0, 0.0, 0.0, 0.0, 0.0, 1.7417463139866E9, 0.0, 2025-03-11 21:25:13.986
193.0, 8819.797196364068, -22899.608063651092, -25423.87997196674, 8174.4576304504435, -902.6081445942098, 5684.562705107058, -18401.185381553816, 20479.830560664006, -0.15, 0.964, -0.114, 192.0, 0.0, 0.0, 0.0, 0.0, 0.0, 0.0, 0.0, 0.0, 0.0, 1.741746313986627E9, 0.0, 2025-03-11 21:25:13.986
194.0, 8821.205356264754, -22909.018148066778, -25428.46207958008, 8170.479019937399, -908.0619702413047, 5684.339187662505, -18400.35836700897, 20480.52346474212, -0.15, 0.964, -0.114, 192.0, 0.0, 0.0, 0.0, 0.0, 0.0, 0.0, 0.0, 0.0, 0.0, 1.741746313986655E9, 0.0, 2025-03-11 21:25:13.986
195.0, 8829.922536602324, -22903.184342763943, -25416.146268385204, 8181.274912509312, -902.2505166829249, 5692.899905788888, -18393.675195416832, 20488.033650879104, -0.15, 0.964, -0.114, 192.0, 0.0, 0.0, 0.0, 0.0, 0.0, 0.0, 0.0, 0.0, 0.0, 1.741746313986682E9, 0.0, 2025-03-11 21:25:13.986
196.0, 8824.312248744041, -22905.35246197611, -25415.02868116244, 8182.638368921086, -897.6684090695869, 5700.164222736862, -18386.63439591341, 20493.73334571521, -0.15, 0.964, -0.114, 192.0, 0.0, 0.0, 0.0, 0.0, 0.0, 0.0, 0.0, 0.0, 0.0, 1.741746313986712E9, 0.0, 2025-03-11 21:25:13.986
197.0, 8824.625173166416, -22909.934569589444, -25418.80612597539, 8177.877447352105, -900.0823974707602, 5690.2176964542505, -18392.132925049416, 20485.753772944663, -0.148, 0.962, -0.108, 192.0, 251.0, 96.0, 30.0, 16.0, 252.0, 160.0, 0.0, 0.0, 0.0, 1.741746314046561E9, 0.0, 2025-03-11 21:25:14.046
198.0, 8825.295725500075, -22907.25236025481, -25418.493201553014, 8173.004767060848, -897.6237055806763, 5690.396510409893, -18390.054212815074, 20486.312566556047, -0.148, 0.962, -0.108, 192.0, 0.0, 0.0, 0.0, 0.0, 0.0, 0.0, 0.0, 0.0, 0.0, 1.741746314046646E9, 0.0, 2025-03-11 21:25:14.046
199.0, 8822.859385354446, -22901.396203207518, -25418.202628875093, 8172.937711827482, -897.7354643029529, 5695.492708145704, -18390.143619792892, 20483.540950243587, -0.148, 0.962, -0.108, 192.0, 0.0, 0.0, 0.0, 0.0, 0.0, 0.0, 0.0, 0.0, 0.0, 1.741746314046676E9, 0.0, 2025-03-11 21:25:14.046
200.0, 8818.724312630215, -22911.901523101515, -25422.404756832693, 8167.5285896692985, -899.3224381592796, 5694.576286623035, -18389.87539885943, 20491.43111603631, -0.148, 0.962, -0.108, 192.0, 0.0, 0.0, 0.0, 0.0, 0.0, 0.0, 0.0, 0.0, 0.0, 1.741746314046707E9, 0.0, 2025-03-11 21:25:14.046
201.0, 8812.354065460451, -22917.712976659892, -25428.909114469185, 8161.001880288349, -905.1785952065701, 5685.926161518832, -18395.619797184445, 20483.451543265768, -0.148, 0.962, -0.108, 192.0, 0.0, 0.0, 0.0, 0.0, 0.0, 0.0, 0.0, 0.0, 0.0, 1.741746314046748E9, 0.0, 2025-03-11 21:25:14.046
202.0, 8826.45801621175, -22912.683834157448, -25420.929541698642, 8173.3400432276785, -900.1271009596708, 5692.452870899781, -18391.037689571105, 20486.62549097842, -0.148, 0.962, -0.108, 192.0, 0.0, 0.0, 0.0, 0.0, 0.0, 0.0, 0.0, 0.0, 0.0, 1.741746314046774E9, 0.0, 2025-03-11 21:25:14.046
203.0, 8817.98670506319, -22917.35534874861, -25425.824573734353, 8176.603397918153, -902.6528480831204, 5694.8445075565, -18394.189285539305, 20494.381546304412, -0.148, 0.962, -0.108, 192.0, 0.0, 0.0, 0.0, 0.0, 0.0, 0.0, 0.0, 0.0, 0.0, 1.7417463140468E9, 0.0, 2025-03-11 21:25:14.046
204.0, 8820.624210908916, -22915.611912681095, -25422.248294621506, 8176.670453151519, -898.0260369808718, 5700.790071581611, -18392.423497727337, 20492.951034659272, -0.148, 0.962, -0.108, 192.0, 0.0, 0.0, 0.0, 0.0, 0.0, 0.0, 0.0, 0.0, 0.0, 1.741746314046831E9, 0.0, 2025-03-11 21:25:14.046
205.0, 8822.0323708096, -22916.34952024812, -25419.074346908852, 8176.178714773502, -898.0483887253272, 5702.645266371402, -18389.428363970324, 20492.48164802571, -0.148, 0.962, -0.108, 192.0, 0.0, 0.0, 0.0, 0.0, 0.0, 0.0, 0.0, 0.0, 0.0, 1.741746314046857E9, 0.0, 2025-03-11 21:25:14.046
206.0, 8824.155786532854, -22909.68870040044, -25413.64287300621, 8177.989206074382, -887.9230484870731, 5709.976638552742, -18378.766581865144, 20503.501058042177, -0.148, 0.962, -0.108, 192.0, 0.0, 0.0, 0.0, 0.0, 0.0, 0.0, 0.0, 0.0, 0.0, 1.741746314046883E9, 0.0, 2025-03-11 21:25:14.046
207.0, 8833.051780826067, -22899.496304928816, -25407.27262583645, 8181.319615998223, -887.1407374311373, 5723.208871270284, -18381.35938422196, 20507.189095877304, -0.154, 0.964, -0.106, 192.0, 251.0, 48.0, 30.0, 32.0, 252.0, 176.0, 0.0, 0.0, 0.0, 1.741746314046909E9, 0.0, 2025-03-11 21:25:14.046
208.0, 8834.594051193482, -22898.78104910625, -25411.072422393852, 8192.853116137161, -898.5624788477992, 5714.290525232616, -18401.364195509457, 20485.61966247793, -0.154, 0.964, -0.106, 192.0, 0.0, 0.0, 0.0, 0.0, 0.0, 0.0, 0.0, 0.0, 0.0, 1.741746314046939E9, 0.0, 2025-03-11 21:25:14.046
209.0, 8828.044990068078, -22905.553627676207, -25420.706024254087, 8181.4984299538655, -910.0289237533717, 5700.521850648147, -18417.63626547292, 20469.2805372811, -0.154, 0.964, -0.106, 192.0, 0.0, 0.0, 0.0, 0.0, 0.0, 0.0, 0.0, 0.0, 0.0, 1.741746314046965E9, 0.0, 2025-03-11 21:25:14.046
210.0, 8820.22187950872, -22914.650787669514, -25429.55731505839, 8167.081554780192, -916.2874122008577, 5685.724995818734, -18420.899620163396, 20461.01039183264, -0.154, 0.964, -0.106, 192.0, 0.0, 0.0, 0.0, 0.0, 0.0, 0.0, 0.0, 0.0, 0.0, 1.741746314046991E9, 0.0, 2025-03-11 21:25:14.046
211.0, 8818.679609141303, -22914.427270224962, -25429.333797613835, 8169.249673992357, -912.666429599098, 5684.473298129237, -18418.68679746232, 20460.60806043244, -0.154, 0.964, -0.106, 192.0, 0.0, 0.0, 0.0, 0.0, 0.0, 0.0, 0.0, 0.0, 0.0, 1.741746314047021E9, 0.0, 2025-03-11 21:25:14.047
212.0, 8815.416254450829, -22914.82960162516, -25433.200649404604, 8167.305072224745, -915.6615633561091, 5682.55104810608, -18422.26307657517, 20464.027877334105, -0.154, 0.964, -0.106, 192.0, 0.0, 0.0, 0.0, 0.0, 0.0, 0.0, 0.0, 0.0, 0.0, 1.741746314106763E9, 0.0, 2025-03-11 21:25:14.106
213.0, 8818.299629485564, -22916.796555137225, -25434.83232674984, 8163.795848345262, -917.2261854679806, 5682.238123683706, -18425.70524522129, 20461.211557532737, -0.154, 0.964, -0.106, 192.0, 0.0, 0.0, 0.0, 0.0, 0.0, 0.0, 0.0, 0.0, 0.0, 1.741746314106815E9, 0.0, 2025-03-11 21:25:14.106
214.0, 8815.259792239642, -22923.591485451638, -25435.301713383404, 8158.789057587273, -913.7169615884974, 5681.545219605591, -18420.54199225211, 20461.211557532737, -0.154, 0.964, -0.106, 192.0, 0.0, 0.0, 0.0, 0.0, 0.0, 0.0, 0.0, 0.0, 0.0, 1.741746314106852E9, 0.0, 2025-03-11 21:25:14.106
215.0, 8815.103330028454, -22925.71490117489, -25434.720568027566, 8159.504313409843, -910.9006417871287, 5679.868838771444, -18412.98710262622, 20465.614851190432, -0.154, 0.964, -0.106, 192.0, 0.0, 0.0, 0.0, 0.0, 0.0, 0.0, 0.0, 0.0, 0.0, 1.741746314106877E9, 0.0, 2025-03-11 21:25:14.106
216.0, 8812.577582905005, -22918.67410167147, -25431.74778601501, 8169.182618758991, -906.2961824293354, 5681.880495772421, -18406.63920720091, 20475.1813978173, -0.154, 0.964, -0.106, 192.0, 0.0, 0.0, 0.0, 0.0, 0.0, 0.0, 0.0, 0.0, 0.0, 1.741746314106909E9, 0.0, 2025-03-11 21:25:14.106
217.0, 8824.669876655325, -22914.96371209189, -25420.996596932007, 8172.043642049271, -897.1319672026596, 5692.3858156664155, -18396.6926809183, 20487.452505523266, -0.158, 0.96, -0.108, 192.0, 251.0, 16.0, 30.0, 0.0, 252.0, 160.0, 0.0, 0.0, 0.0, 1.741746314106942E9, 0.0, 2025-03-11 21:25:14.106
218.0, 8815.192737006277, -22929.469994243384, -25426.539829556925, 8165.606339646142, -901.2446881824361, 5691.379987165927, -18398.749041408188, 20482.915101398838, -0.158, 0.96, -0.108, 192.0, 0.0, 0.0, 0.0, 0.0, 0.0, 0.0, 0.0, 0.0, 0.0, 1.741746314106972E9, 0.0, 2025-03-11 21:25:14.106
219.0, 8821.585335920494, -22926.005473852812, -25417.040338163417, 8172.1106972826365, -895.1873654350478, 5695.716225590257, -18393.20580878327, 20486.11140085595, -0.158, 0.96, -0.108, 192.0, 0.0, 0.0, 0.0, 0.0, 0.0, 0.0, 0.0, 0.0, 0.0, 1.741746314106998E9, 0.0, 2025-03-11 21:25:14.106
220.0, 8829.341391246486, -22920.73046216136, -25412.525285783446, 8176.692804895974, -892.8404322672407, 5698.152565735885, -18395.06100357306, 20484.770296188628, -0.158, 0.96, -0.108, 192.0, 0.0, 0.0, 0.0, 0.0, 0.0, 0.0, 0.0, 0.0, 0.0, 1.741746314107028E9, 0.0, 2025-03-11 21:25:14.107
221.0, 8829.676667413314, -22918.607046438105, -25411.40769856068, 8176.916322340528, -891.924010744573, 5703.31581870506, -18389.897750603886, 20491.185246847304, -0.158, 0.96, -0.108, 192.0, 0.0, 0.0, 0.0, 0.0, 0.0, 0.0, 0.0, 0.0, 0.0, 1.741746314107054E9, 0.0, 2025-03-11 21:25:14.107
222.0, 8825.765112133637, -22916.550685948216, -25413.754631728487, 8164.667566379019, -891.7451967889306, 5694.956266278776, -18389.07073605904, 20485.351441544466, -0.158, 0.96, -0.108, 192.0, 0.0, 0.0, 0.0, 0.0, 0.0, 0.0, 0.0, 0.0, 0.0, 1.741746314107085E9, 0.0, 2025-03-11 21:25:14.107
223.0, 8825.429835966806, -22914.047290569222, -25413.709928239576, 8175.66462465103, -892.8627840116959, 5694.196306967296, -18391.8423523715, 20483.25037756567, -0.158, 0.96, -0.108, 192.0, 0.0, 0.0, 0.0, 0.0, 0.0, 0.0, 0.0, 0.0, 0.0, 1.741746314107111E9, 0.0, 2025-03-11 21:25:14.107
224.0, 8829.117873801932, -22913.354386491108, -25411.273588093947, 8178.324482241212, -888.571249076277, 5698.264324458161, -18386.992023824696, 20488.01129913465, -0.158, 0.96, -0.108, 192.0, 0.0, 0.0, 0.0, 0.0, 0.0, 0.0, 0.0, 0.0, 0.0, 1.741746314107138E9, 0.0, 2025-03-11 21:25:14.107
225.0, 8827.687362156792, -22909.979273078356, -25414.08990789532, 8171.864828093628, -892.7063218005088, 5695.716225590257, -18392.512904705156, 20490.80526719156, -0.158, 0.96, -0.108, 192.0, 0.0, 0.0, 0.0, 0.0, 0.0, 0.0, 0.0, 0.0, 0.0, 1.741746314107164E9, 0.0, 2025-03-11 21:25:14.107
226.0, 8822.948792332267, -22914.539028947238, -25416.5485997854, 8171.417793204522, -896.215545679992, 5690.754138321178, -18395.955073351273, 20484.747944444174, -0.158, 0.96, -0.108, 192.0, 0.0, 0.0, 0.0, 0.0, 0.0, 0.0, 0.0, 0.0, 0.0, 1.741746314107191E9, 0.0, 2025-03-11 21:25:14.107
227.0, 8824.803987122057, -22917.176534792965, -25411.564160771868, 8172.848304849662, -888.3030281428133, 5694.822155812044, -18386.477933702223, 20491.520523014133, -0.154, 0.962, -0.108, 192.0, 251.0, 48.0, 30.0, 16.0, 252.0, 160.0, 0.0, 0.0, 0.0, 1.741746314167043E9, 0.0, 2025-03-11 21:25:14.167
228.0, 8825.027504566611, -22908.951092833413, -25411.74297472751, 8172.1106972826365, -888.280676398358, 5701.125347748441, -18385.69562264629, 20496.750831216676, -0.154, 0.962, -0.108, 192.0, 0.0, 0.0, 0.0, 0.0, 0.0, 0.0, 0.0, 0.0, 0.0, 1.741746314167083E9, 0.0, 2025-03-11 21:25:14.167
229.0, 8823.88756559939, -22909.465182955886, -25414.02285266195, 8172.311862982734, -891.0969961997266, 5701.08064425953, -18392.87053261644, 20492.191075347793, -0.154, 0.962, -0.108, 192.0, 0.0, 0.0, 0.0, 0.0, 0.0, 0.0, 0.0, 0.0, 0.0, 1.741746314167134E9, 0.0, 2025-03-11 21:25:14.167
230.0, 8822.32294348752, -22919.63522668305, -25413.240541606017, 8179.375014230611, -889.1300426876596, 5694.397472667393, -18390.009509326163, 20488.34657530148, -0.154, 0.962, -0.108, 192.0, 0.0, 0.0, 0.0, 0.0, 0.0, 0.0, 0.0, 0.0, 0.0, 1.741746314167173E9, 0.0, 2025-03-11 21:25:14.167
231.0, 8818.232574252197, -22924.68672092995, -25417.107393396785, 8172.915360083028, -890.2923333993356, 5689.189516209307, -18387.707279647264, 20490.42528753582, -0.154, 0.962, -0.108, 192.0, 0.0, 0.0, 0.0, 0.0, 0.0, 0.0, 0.0, 0.0, 0.0, 1.741746314167203E9, 0.0, 2025-03-11 21:25:14.167
232.0, 8819.618382408427, -22918.808212138203, -25413.307596839382, 8175.843438606673, -887.2971996423245, 5699.068987258553, -18387.05907905806, 20494.11332537095, -0.154, 0.962, -0.108, 192.0, 0.0, 0.0, 0.0, 0.0, 0.0, 0.0, 0.0, 0.0, 0.0, 1.741746314167236E9, 0.0, 2025-03-11 21:25:14.167
233.0, 8815.9303445733, -22924.9102383745, -25419.387271331227, 8170.724889126407, -893.0192462228831, 5688.764833064656, -18395.709204162267, 20485.798476433574, -0.154, 0.962, -0.108, 192.0, 0.0, 0.0, 0.0, 0.0, 0.0, 0.0, 0.0, 0.0, 0.0, 1.741746314167262E9, 0.0, 2025-03-11 21:25:14.167
234.0, 8818.74666437467, -22919.948151105422, -25417.97911143054, 8174.971720572916, -890.8064235218077, 5695.537411634614, -18393.87636111693, 20486.871360167428, -0.154, 0.962, -0.108, 192.0, 0.0, 0.0, 0.0, 0.0, 0.0, 0.0, 0.0, 0.0, 0.0, 1.741746314167288E9, 0.0, 2025-03-11 21:25:14.167
235.0, 8823.798158621568, -22905.53127593175, -25416.347434085303, 8173.407098461044, -887.7889380203412, 5703.472280916248, -18390.613006426454, 20489.57592124652, -0.154, 0.962, -0.108, 192.0, 0.0, 0.0, 0.0, 0.0, 0.0, 0.0, 0.0, 0.0, 0.0, 1.741746314167314E9, 0.0, 2025-03-11 21:25:14.167
236.0, 8823.12760628791, -22904.927778831458, -25409.641910748713, 8190.439127735988, -882.9386094735396, 5704.276943716639, -18385.40504996837, 20496.05792713856, -0.154, 0.962, -0.108, 192.0, 0.0, 0.0, 0.0, 0.0, 0.0, 0.0, 0.0, 0.0, 0.0, 1.741746314167345E9, 0.0, 2025-03-11 21:25:14.167
237.0, 8823.820510366024, -22912.01328182379, -25409.820724704354, 8190.4838312248985, -883.7209205294754, 5702.332341949027, -18384.667442401344, 20496.81788645004, -0.154, 0.964, -0.10400000000000001, 192.0, 251.0, 48.0, 30.0, 32.0, 252.0, 192.0, 0.0, 0.0, 0.0, 1.74174631416737E9, 0.0, 2025-03-11 21:25:14.167
238.0, 8826.0333330671, -22911.320377745677, -25413.866390450763, 8184.270046266323, -887.9454002315284, 5696.02915001263, -18391.6411866714, 20485.932586900304, -0.154, 0.964, -0.10400000000000001, 192.0, 0.0, 0.0, 0.0, 0.0, 0.0, 0.0, 0.0, 0.0, 0.0, 1.741746314167404E9, 0.0, 2025-03-11 21:25:14.167
239.0, 8828.581431935005, -22908.459354455397, -25410.93831192712, 8180.693767153474, -888.9512287320172, 5693.659865100368, -18397.318529763048, 20482.691583954285, -0.154, 0.964, -0.10400000000000001, 192.0, 0.0, 0.0, 0.0, 0.0, 0.0, 0.0, 0.0, 0.0, 0.0, 1.74174631416743E9, 0.0, 2025-03-11 21:25:14.167
240.0, 8826.927402845313, -22896.76939210527, -25411.698271238598, 8181.051395064759, -890.6946647995311, 5693.525754633636, -18402.07945133203, 20477.52833098511, -0.154, 0.964, -0.10400000000000001, 192.0, 0.0, 0.0, 0.0, 0.0, 0.0, 0.0, 0.0, 0.0, 0.0, 1.741746314167456E9, 0.0, 2025-03-11 21:25:14.167
241.0, 8821.674742898314, -22904.212523008886, -25414.08990789532, 8178.860924108139, -889.8676502546848, 5693.011664511164, -18402.235913543216, 20464.229043034204, -0.154, 0.964, -0.10400000000000001, 192.0, 0.0, 0.0, 0.0, 0.0, 0.0, 0.0, 0.0, 0.0, 0.0, 1.741746314167482E9, 0.0, 2025-03-11 21:25:14.167
242.0, 8824.93809758879, -22910.180438778454, -25410.13364912673, 8184.225342777413, -882.5586298177993, 5702.108824504474, -18392.177628538328, 20483.540950243587, -0.154, 0.964, -0.10400000000000001, 192.0, 0.0, 0.0, 0.0, 0.0, 0.0, 0.0, 0.0, 0.0, 0.0, 1.741746314227291E9, 0.0, 2025-03-11 21:25:14.227
243.0, 8832.381228492408, -22908.23583701084, -25406.26679733596, 8187.9580841014495, -883.3856443626457, 5705.1263100059405, -18390.009509326163, 20502.606988263964, -0.154, 0.964, -0.10400000000000001, 192.0, 0.0, 0.0, 0.0, 0.0, 0.0, 0.0, 0.0, 0.0, 0.0, 1.741746314227326E9, 0.0, 2025-03-11 21:25:14.227
244.0, 8828.55908019055, -22913.130869046556, -25410.893608438208, 8182.034871820792, -888.4147868650898, 5694.978618023231, -18397.050308829585, 20489.95590090226, -0.154, 0.964, -0.10400000000000001, 192.0, 0.0, 0.0, 0.0, 0.0, 0.0, 0.0, 0.0, 0.0, 0.0, 1.74174631422737E9, 0.0, 2025-03-11 21:25:14.227
245.0, 8822.74762663217, -22907.58763642164, -25411.65356774969, 8185.544095700276, -887.2971996423245, 5693.145774977896, -18395.955073351273, 20495.09680212698, -0.154, 0.964, -0.10400000000000001, 192.0, 0.0, 0.0, 0.0, 0.0, 0.0, 0.0, 0.0, 0.0, 0.0, 1.741746314227414E9, 0.0, 2025-03-11 21:25:14.227
246.0, 8830.391923235884, -22904.01135730879, -25410.491277038014, 8184.739432899885, -885.5537635748105, 5697.347902935494, -18393.988119839207, 20492.369889303434, -0.154, 0.964, -0.10400000000000001, 192.0, 0.0, 0.0, 0.0, 0.0, 0.0, 0.0, 0.0, 0.0, 0.0, 1.74174631422744E9, 0.0, 2025-03-11 21:25:14.227
247.0, 8830.816606380535, -22901.127982274054, -25411.005367160484, 8184.918246855527, -885.7102257859976, 5694.93391453432, -18394.099878561483, 20496.728479472218, -0.148, 0.964, -0.10400000000000001, 192.0, 251.0, 96.0, 30.0, 32.0, 252.0, 192.0, 0.0, 0.0, 0.0, 1.74174631422747E9, 0.0, 2025-03-11 21:25:14.227
248.0, 8832.001248836666, -22905.35246197611, -25411.921788683154, 8179.1514967860585, -883.2738856403691, 5686.909638274866, -18392.959939594264, 20483.540950243587, -0.148, 0.964, -0.10400000000000001, 192.0, 0.0, 0.0, 0.0, 0.0, 0.0, 0.0, 0.0, 0.0, 0.0, 1.741746314227507E9, 0.0, 2025-03-11 21:25:14.227
249.0, 8828.357914490452, -22911.074508556667, -25413.01702416146, 8174.748203128363, -882.6033333067099, 5692.676388344335, -18391.887055860407, 20489.39710729088, -0.148, 0.964, -0.10400000000000001, 192.0, 0.0, 0.0, 0.0, 0.0, 0.0, 0.0, 0.0, 0.0, 0.0, 1.741746314227533E9, 0.0, 2025-03-11 21:25:14.227
250.0, 8825.765112133637, -22913.890828358035, -25416.92857944114, 8182.794831132273, -887.2301444089585, 5692.519926133147, -18399.77722165313, 20485.552607244565, -0.148, 0.964, -0.10400000000000001, 192.0, 0.0, 0.0, 0.0, 0.0, 0.0, 0.0, 0.0, 0.0, 0.0, 1.741746314227559E9, 0.0, 2025-03-11 21:25:14.227
251.0, 8830.302516258063, -22908.526409688762, -25418.292035852915, 8180.76082238684, -887.118385686682, 5690.374158665438, -18398.145544307896, 20487.072525867527, -0.148, 0.964, -0.10400000000000001, 192.0, 0.0, 0.0, 0.0, 0.0, 0.0, 0.0, 0.0, 0.0, 0.0, 1.741746314227589E9, 0.0, 2025-03-11 21:25:14.227
252.0, 8829.073170313022, -22904.413688708984, -25415.140439884715, 8183.3312729992, -886.0678536972825, 5692.832850555522, -18398.145544307896, 20495.655595738364, -0.148, 0.964, -0.10400000000000001, 192.0, 0.0, 0.0, 0.0, 0.0, 0.0, 0.0, 0.0, 0.0, 0.0, 1.741746314227615E9, 0.0, 2025-03-11 21:25:14.227
253.0, 8834.437588982295, -22897.059964783188, -25410.200704360093, 8189.85798238015, -879.0270541938609, 5698.107862246974, -18390.747116893188, 20502.227008608224, -0.148, 0.964, -0.10400000000000001, 192.0, 0.0, 0.0, 0.0, 0.0, 0.0, 0.0, 0.0, 0.0, 0.0, 1.741746314227641E9, 0.0, 2025-03-11 21:25:14.227
254.0, 8842.864196641945, -22891.270862969264, -25406.26679733596, 8188.919209113027, -877.4624320819894, 5702.488804160214, -18388.86957035894, 20502.76345047515, -0.148, 0.964, -0.10400000000000001, 192.0, 0.0, 0.0, 0.0, 0.0, 0.0, 0.0, 0.0, 0.0, 0.0, 1.741746314227667E9, 0.0, 2025-03-11 21:25:14.227
255.0, 8842.663030941849, -22893.640147881528, -25408.904303181687, 8183.5547904437535, -878.1106326711932, 5706.042731528608, -18389.204846525772, 20499.701261484774, -0.148, 0.964, -0.10400000000000001, 192.0, 0.0, 0.0, 0.0, 0.0, 0.0, 0.0, 0.0, 0.0, 0.0, 1.741746314227693E9, 0.0, 2025-03-11 21:25:14.227
0.0, 8837.74564716168, -22889.9521100464, -25412.994672417008, 8185.678206167007, -876.7248245149642, 5702.399397182393, -18388.243721514194, 20496.259092838656, -0.148, 0.964, -0.10400000000000001, 192.0, 0.0, 0.0, 0.0, 0.0, 0.0, 0.0, 0.0, 0.0, 0.0, 1.741746314227719E9, 0.0, 2025-03-11 21:25:14.227
1.0, 8837.119798316931, -22886.44288616692, -25416.258027107484, 8188.628636435108, -879.407033849601, 5700.588905881514, -18388.02020406964, 20499.09776438448, -0.15, 0.968, -0.108, 192.0, 251.0, 80.0, 30.0, 64.0, 252.0, 160.0, 0.0, 0.0, 0.0, 1.741746314286711E9, 0.0, 2025-03-11 21:25:14.286
2.0, 8829.967240091233, -22884.56533963267, -25431.345454614813, 8172.602435660653, -890.5829060772546, 5690.821193554544, -18402.705300176778, 20481.61870022043, -0.15, 0.968, -0.108, 192.0, 0.0, 0.0, 0.0, 0.0, 0.0, 0.0, 0.0, 0.0, 0.0, 1.741746314286768E9, 0.0, 2025-03-11 21:25:14.286
3.0, 8827.46384471224, -22888.163970489975, -25431.45721333709, 8168.020328047315, -893.8239090232742, 5690.664731343357, -18409.097899090993, 20475.04728735057, -0.15, 0.968, -0.108, 192.0, 0.0, 0.0, 0.0, 0.0, 0.0, 0.0, 0.0, 0.0, 0.0, 1.741746314286795E9, 0.0, 2025-03-11 21:25:14.286
4.0, 8834.594051193482, -22892.701374614404, -25414.26872185096, 8185.544095700276, -879.7870135053413, 5707.316780962561, -18390.72476514873, 20492.839275936996, -0.15, 0.968, -0.108, 192.0, 0.0, 0.0, 0.0, 0.0, 0.0, 0.0, 0.0, 0.0, 0.0, 1.741746314286827E9, 0.0, 2025-03-11 21:25:14.286
5.0, 8840.919594874335, -22892.72372635886, -25403.718698468056, 8191.489659725387, -870.0640046672827, 5717.263307245173, -18378.5877679095, 20504.752755731675, -0.15, 0.968, -0.108, 192.0, 0.0, 0.0, 0.0, 0.0, 0.0, 0.0, 0.0, 0.0, 0.0, 1.741746314286861E9, 0.0, 2025-03-11 21:25:14.286
6.0, 8830.74955114717, -22887.225197222855, -25411.944140427608, 8190.372072502622, -877.7977082488189, 5714.670504888357, -18385.606215668467, 20500.93060742982, -0.15, 0.968, -0.108, 192.0, 0.0, 0.0, 0.0, 0.0, 0.0, 0.0, 0.0, 0.0, 0.0, 1.74174631428689E9, 0.0, 2025-03-11 21:25:14.286
7.0, 8829.69901915777, -22881.838426809125, -25415.587474773823, 8187.1981247899685, -882.6927402845312, 5712.3459234650045, -18390.747116893188, 20498.270749839634, -0.15, 0.968, -0.108, 192.0, 0.0, 0.0, 0.0, 0.0, 0.0, 0.0, 0.0, 0.0, 0.0, 1.74174631428692E9, 0.0, 2025-03-11 21:25:14.286
8.0, 8836.046914583078, -22883.13482798753, -25410.13364912673, 8185.879371867106, -880.3011036278134, 5714.134063021429, -18384.39922146788, 20504.685700498307, -0.15, 0.968, -0.108, 192.0, 0.0, 0.0, 0.0, 0.0, 0.0, 0.0, 0.0, 0.0, 0.0, 1.74174631428695E9, 0.0, 2025-03-11 21:25:14.286
9.0, 8840.897243129879, -22879.603252363595, -25408.5466752704, 8183.018348576827, -877.5741908042659, 5714.379932210438, -18383.751020878677, 20503.076374897526, -0.15, 0.968, -0.108, 192.0, 0.0, 0.0, 0.0, 0.0, 0.0, 0.0, 0.0, 0.0, 0.0, 1.741746314286975E9, 0.0, 2025-03-11 21:25:14.286
10.0, 8840.047876840577, -22881.234929708833, -25410.93831192712, 8193.47896498191, -879.1164611716821, 5708.501423418692, -18383.30398598957, 20496.504962027666, -0.15, 0.968, -0.108, 192.0, 0.0, 0.0, 0.0, 0.0, 0.0, 0.0, 0.0, 0.0, 0.0, 1.741746314287001E9, 0.0, 2025-03-11 21:25:14.287
11.0, 8843.266528042142, -22878.083333740633, -25402.623462989744, 8191.444956236477, -872.3438826017241, 5711.27303973115, -18376.39729695288, 20500.10359288497, -0.146, 0.968, -0.112, 192.0, 251.0, 112.0, 30.0, 64.0, 252.0, 128.0, 0.0, 0.0, 0.0, 1.741746314287031E9, 0.0, 2025-03-11 21:25:14.287
12.0, 8835.488120971695, -22869.61202259207, -25402.869332178754, 8184.895895111072, -872.1650686460816, 5708.210850740773, -18378.07367778703, 20498.538970773097, -0.146, 0.968, -0.112, 192.0, 0.0, 0.0, 0.0, 0.0, 0.0, 0.0, 0.0, 0.0, 0.0, 1.74174631428706E9, 0.0, 2025-03-11 21:25:14.287
13.0, 8835.778693649614, -22880.832598308636, -25404.880989179732, 8187.24282827888, -875.9201617145732, 5707.361484451471, -18384.421573212334, 20492.749868959174, -0.146, 0.968, -0.112, 192.0, 0.0, 0.0, 0.0, 0.0, 0.0, 0.0, 0.0, 0.0, 0.0, 1.741746314287086E9, 0.0, 2025-03-11 21:25:14.287
14.0, 8843.445341997784, -22889.39331643502, -25403.070497878853, 8193.546020215275, -876.1436791591262, 5705.662751872868, -18384.35451797897, 20482.490418254187, -0.146, 0.968, -0.112, 192.0, 0.0, 0.0, 0.0, 0.0, 0.0, 0.0, 0.0, 0.0, 0.0, 1.741746314287116E9, 0.0, 2025-03-11 21:25:14.287
15.0, 8836.896280872379, -22898.512828172785, -25409.284282837427, 8186.415813734033, -884.8385077522407, 5706.690932117812, -18391.440020971302, 20491.095839869482, -0.146, 0.968, -0.112, 192.0, 0.0, 0.0, 0.0, 0.0, 0.0, 0.0, 0.0, 0.0, 0.0, 1.741746314287142E9, 0.0, 2025-03-11 21:25:14.287
16.0, 8839.198510551276, -22896.14354326052, -25404.903340924186, 8186.996959089871, -877.6859495265425, 5707.585001896025, -18383.125172033928, 20484.770296188628, -0.146, 0.968, -0.112, 192.0, 0.0, 0.0, 0.0, 0.0, 0.0, 0.0, 0.0, 0.0, 0.0, 1.741746314347154E9, 0.0, 2025-03-11 21:25:14.347
17.0, 8838.952641362268, -22892.63431938104, -25404.299843823894, 8187.622807934619, -878.021225693372, 5712.524737420647, -18376.754924864166, 20494.91798817134, -0.146, 0.968, -0.112, 192.0, 0.0, 0.0, 0.0, 0.0, 0.0, 0.0, 0.0, 0.0, 0.0, 1.741746314347209E9, 0.0, 2025-03-11 21:25:14.347
18.0, 8839.310269273552, -22882.464275653874, -25403.584588001322, 8189.634464935597, -880.1446414166262, 5712.904717076388, -18380.085334788007, 20504.596293520488, -0.146, 0.968, -0.112, 192.0, 0.0, 0.0, 0.0, 0.0, 0.0, 0.0, 0.0, 0.0, 0.0, 1.741746314347257E9, 0.0, 2025-03-11 21:25:14.347
19.0, 8841.098408829977, -22878.19509246291, -25399.762439699465, 8190.059148080248, -875.3837198476458, 5715.6986851333, -18374.475046929725, 20511.234761623713, -0.146, 0.968, -0.112, 192.0, 0.0, 0.0, 0.0, 0.0, 0.0, 0.0, 0.0, 0.0, 0.0, 1.741746314347284E9, 0.0, 2025-03-11 21:25:14.347
20.0, 8836.449245983273, -22884.475932654852, -25403.092849623306, 8190.4838312248985, -879.6976065275201, 5712.971772309754, -18377.760753364655, 20508.574904033532, -0.146, 0.968, -0.112, 192.0, 0.0, 0.0, 0.0, 0.0, 0.0, 0.0, 0.0, 0.0, 0.0, 1.74174631434732E9, 0.0, 2025-03-11 21:25:14.347
21.0, 8837.432722739306, -22878.262147696274, -25403.763401956967, 8186.236999778391, -876.6130657926877, 5712.860013587477, -18375.458523685757, 20504.909217942863, -0.152, 0.964, -0.11, 192.0, 251.0, 64.0, 30.0, 32.0, 252.0, 144.0, 0.0, 0.0, 0.0, 1.741746314347355E9, 0.0, 2025-03-11 21:25:14.347
22.0, 8840.204339051765, -22875.021144750255, -25403.15990485667, 8195.62473244962, -877.440080337534, 5713.172938009851, -18377.291366731093, 20503.00931966416, -0.152, 0.964, -0.11, 192.0, 0.0, 0.0, 0.0, 0.0, 0.0, 0.0, 0.0, 0.0, 0.0, 1.741746314347391E9, 0.0, 2025-03-11 21:25:14.347
23.0, 8840.427856496317, -22884.095952999112, -25403.02579438994, 8196.071767338726, -879.6529030386095, 5715.3410572220155, -18378.788933609598, 20501.77997371912, -0.152, 0.964, -0.11, 192.0, 0.0, 0.0, 0.0, 0.0, 0.0, 0.0, 0.0, 0.0, 0.0, 1.741746314347424E9, 0.0, 2025-03-11 21:25:14.347
24.0, 8838.572661706527, -22886.375830933554, -25407.138515369716, 8194.462441737944, -882.4915745844335, 5717.308010734083, -18379.548892921077, 20502.003491163672, -0.152, 0.964, -0.11, 192.0, 0.0, 0.0, 0.0, 0.0, 0.0, 0.0, 0.0, 0.0, 0.0, 1.741746314347451E9, 0.0, 2025-03-11 21:25:14.347
25.0, 8836.493949472184, -22885.280595455242, -25411.497105538503, 8183.510086954843, -883.4526995960116, 5719.632592157435, -18379.973576065728, 20499.187171362304, -0.152, 0.964, -0.11, 192.0, 0.0, 0.0, 0.0, 0.0, 0.0, 0.0, 0.0, 0.0, 0.0, 1.741746314347477E9, 0.0, 2025-03-11 21:25:14.347
26.0, 8833.096484314978, -22886.845217567115, -25412.16765787216, 8189.522706213321, -886.6713507975759, 5713.754083365689, -18382.991061567194, 20498.784839962107, -0.152, 0.964, -0.11, 192.0, 0.0, 0.0, 0.0, 0.0, 0.0, 0.0, 0.0, 0.0, 0.0, 1.741746314347503E9, 0.0, 2025-03-11 21:25:14.347
27.0, 8835.845748882979, -22888.186322234433, -25409.30663458188, 8197.792851661785, -886.9395717310396, 5716.36923746696, -18383.706317389766, 20500.260055096158, -0.152, 0.964, -0.11, 192.0, 0.0, 0.0, 0.0, 0.0, 0.0, 0.0, 0.0, 0.0, 0.0, 1.741746314347535E9, 0.0, 2025-03-11 21:25:14.347
28.0, 8829.810777880046, -22888.946281545912, -25413.799335217398, 8188.092194568181, -890.5605543327993, 5711.27303973115, -18389.07073605904, 20489.553569502066, -0.152, 0.964, -0.11, 192.0, 0.0, 0.0, 0.0, 0.0, 0.0, 0.0, 0.0, 0.0, 0.0, 1.741746314347562E9, 0.0, 2025-03-11 21:25:14.347
29.0, 8827.441492967784, -22885.727630344347, -25416.034509662928, 8190.57323820272, -887.7218827869754, 5716.704513633789, -18385.673270901832, 20497.689604483796, -0.152, 0.964, -0.11, 192.0, 0.0, 0.0, 0.0, 0.0, 0.0, 0.0, 0.0, 0.0, 0.0, 1.741746314347588E9, 0.0, 2025-03-11 21:25:14.347
30.0, 8837.94681286178, -22877.546891873706, -25412.949968928096, 8188.628636435108, -884.4138246075898, 5717.263307245173, -18384.01924181214, 20501.71291848575, -0.152, 0.964, -0.11, 192.0, 0.0, 0.0, 0.0, 0.0, 0.0, 0.0, 0.0, 0.0, 0.0, 1.741746314347614E9, 0.0, 2025-03-11 21:25:14.347
31.0, 8832.917670359335, -22879.402086663496, -25414.246370106506, 8185.6111509336415, -886.3807781196568, 5715.4528159442925, -18382.096991788985, 20496.77318296113, -0.156, 0.966, -0.112, 192.0, 251.0, 32.0, 30.0, 48.0, 252.0, 128.0, 0.0, 0.0, 0.0, 1.741746314406761E9, 0.0, 2025-03-11 21:25:14.406
32.0, 8842.37245826393, -22871.444865637408, -25413.41935556166, 8183.443031721477, -886.9172199865842, 5711.60831589798, -18387.372003480436, 20489.464162524244, -0.156, 0.966, -0.112, 192.0, 0.0, 0.0, 0.0, 0.0, 0.0, 0.0, 0.0, 0.0, 0.0, 1.741746314406802E9, 0.0, 2025-03-11 21:25:14.406
33.0, 8837.589184950493, -22879.8491215526, -25415.74393698501, 8183.510086954843, -888.3924351206346, 5711.362446708971, -18386.746154635686, 20493.085145126002, -0.156, 0.966, -0.112, 192.0, 0.0, 0.0, 0.0, 0.0, 0.0, 0.0, 0.0, 0.0, 0.0, 1.74174631440685E9, 0.0, 2025-03-11 21:25:14.406
34.0, 8834.258775026652, -22882.307813442687, -25413.799335217398, 8187.645159679075, -886.8054612643077, 5714.625801399446, -18384.332166234515, 20492.839275936996, -0.156, 0.966, -0.112, 192.0, 0.0, 0.0, 0.0, 0.0, 0.0, 0.0, 0.0, 0.0, 0.0, 1.741746314406876E9, 0.0, 2025-03-11 21:25:14.406
35.0, 8841.992478608188, -22878.150388973998, -25410.17835261564, 8187.3322352567, -882.6927402845312, 5712.122406020451, -18378.543064420588, 20497.62254925043, -0.156, 0.966, -0.112, 192.0, 0.0, 0.0, 0.0, 0.0, 0.0, 0.0, 0.0, 0.0, 0.0, 1.741746314406907E9, 0.0, 2025-03-11 21:25:14.406
36.0, 8848.116856588944, -22873.411819149474, -25408.658433992678, 8186.728738156407, -879.0717576827715, 5707.27207747365, -18370.652898627868, 20503.21048536426, -0.156, 0.966, -0.112, 192.0, 0.0, 0.0, 0.0, 0.0, 0.0, 0.0, 0.0, 0.0, 0.0, 1.741746314406946E9, 0.0, 2025-03-11 21:25:14.406
37.0, 8832.314173259041, -22888.231025723344, -25423.7011580111, 8170.657833893041, -897.4448916250338, 5695.827984312533, -18392.669366916343, 20483.00450837666, -0.156, 0.966, -0.112, 192.0, 0.0, 0.0, 0.0, 0.0, 0.0, 0.0, 0.0, 0.0, 0.0, 1.741746314406973E9, 0.0, 2025-03-11 21:25:14.406
38.0, 8841.053705341066, -22885.1017814996, -25414.760460228976, 8176.469287451421, -890.4040921216122, 5703.002894282687, -18384.77920112362, 20491.654633480863, -0.156, 0.966, -0.112, 192.0, 0.0, 0.0, 0.0, 0.0, 0.0, 0.0, 0.0, 0.0, 0.0, 1.741746314407003E9, 0.0, 2025-03-11 21:25:14.407
39.0, 8839.26556578464, -22881.34668843111, -25415.475716051547, 8189.299188768768, -890.247629910425, 5702.779376838133, -18384.57803542352, 20488.972424146228, -0.156, 0.966, -0.112, 192.0, 0.0, 0.0, 0.0, 0.0, 0.0, 0.0, 0.0, 0.0, 0.0, 1.741746314407039E9, 0.0, 2025-03-11 21:25:14.407
40.0, 8843.355935019963, -22872.897729027, -25410.11129738227, 8183.688900910485, -885.442004852534, 5708.479071674236, -18379.101858031972, 20493.420421292834, -0.156, 0.966, -0.112, 192.0, 0.0, 0.0, 0.0, 0.0, 0.0, 0.0, 0.0, 0.0, 0.0, 1.741746314407065E9, 0.0, 2025-03-11 21:25:14.407
41.0, 8848.720353689236, -22879.133865730033, -25404.143381612706, 8184.270046266323, -883.2738856403691, 5709.820176341555, -18381.024108055128, 20498.851895195472, -0.154, 0.966, -0.112, 192.0, 251.0, 48.0, 30.0, 48.0, 252.0, 128.0, 0.0, 0.0, 0.0, 1.741746314407091E9, 0.0, 2025-03-11 21:25:14.407
42.0, 8844.093542586988, -22888.029860023245, -25408.613730503766, 8183.353624743656, -886.0902054417379, 5699.761891336667, -18385.963843579753, 20492.593406747987, -0.154, 0.966, -0.112, 192.0, 0.0, 0.0, 0.0, 0.0, 0.0, 0.0, 0.0, 0.0, 0.0, 1.741746314407124E9, 0.0, 2025-03-11 21:25:14.407
43.0, 8840.651373940871, -22892.120229258566, -25412.055899149884, 8183.040700321281, -886.9395717310396, 5700.924182048343, -18386.522637191134, 20497.756659717164, -0.154, 0.966, -0.112, 192.0, 0.0, 0.0, 0.0, 0.0, 0.0, 0.0, 0.0, 0.0, 0.0, 1.741746314407151E9, 0.0, 2025-03-11 21:25:14.407
44.0, 8841.590147207993, -22893.975424048356, -25414.536942784423, 8176.6257496626085, -883.5421065738328, 5697.839641313511, -18382.49932318918, 20495.901464927374, -0.154, 0.966, -0.112, 192.0, 0.0, 0.0, 0.0, 0.0, 0.0, 0.0, 0.0, 0.0, 0.0, 1.741746314407177E9, 0.0, 2025-03-11 21:25:14.407
45.0, 8843.490045486695, -22893.01429903678, -25413.911093939674, 8174.971720572916, -880.3011036278134, 5703.181708238329, -18380.085334788007, 20498.42721205082, -0.154, 0.966, -0.112, 192.0, 0.0, 0.0, 0.0, 0.0, 0.0, 0.0, 0.0, 0.0, 0.0, 1.741746314407203E9, 0.0, 2025-03-11 21:25:14.407
46.0, 8851.313156046052, -22882.084295998135, -25403.673994979144, 8185.1417643000805, -870.1534116451039, 5711.2283362422395, -18371.68107887281, 20512.709976757764, -0.154, 0.966, -0.112, 192.0, 0.0, 0.0, 0.0, 0.0, 0.0, 0.0, 0.0, 0.0, 0.0, 1.741746314467129E9, 0.0, 2025-03-11 21:25:14.467
47.0, 8839.198510551276, -22881.190226219922, -25411.698271238598, 8180.313787497734, -876.2330861369475, 5702.824080327044, -18376.620814397433, 20505.19979062078, -0.154, 0.966, -0.112, 192.0, 0.0, 0.0, 0.0, 0.0, 0.0, 0.0, 0.0, 0.0, 0.0, 1.741746314467164E9, 0.0, 2025-03-11 21:25:14.467
48.0, 8830.727199402714, -22898.40106945051, -25420.929541698642, 8170.031985048293, -884.927914730062, 5694.8445075565, -18384.466276701245, 20492.392241047888, -0.154, 0.966, -0.112, 192.0, 0.0, 0.0, 0.0, 0.0, 0.0, 0.0, 0.0, 0.0, 0.0, 1.741746314467192E9, 0.0, 2025-03-11 21:25:14.467
49.0, 8832.403580236862, -22908.705223644403, -25423.45528882209, 8165.382822201589, -886.2243159084697, 5697.169088979851, -18386.67909940232, 20492.168723603336, -0.154, 0.966, -0.112, 192.0, 0.0, 0.0, 0.0, 0.0, 0.0, 0.0, 0.0, 0.0, 0.0, 1.741746314467236E9, 0.0, 2025-03-11 21:25:14.467
50.0, 8826.502719700662, -22909.465182955886, -25425.578704545343, 8162.387688444578, -890.5158508438886, 5698.264324458161, -18393.183457038816, 20485.23968282219, -0.154, 0.966, -0.112, 192.0, 0.0, 0.0, 0.0, 0.0, 0.0, 0.0, 0.0, 0.0, 0.0, 1.741746314467262E9, 0.0, 2025-03-11 21:25:14.467
51.0, 8828.067341812533, -22899.026918295254, -25425.51164931198, 8154.966909285416, -887.5654205757882, 5690.642379598901, -18391.21650352675, 20477.014240862638, -0.148, 0.966, -0.116, 192.0, 251.0, 96.0, 30.0, 48.0, 252.0, 96.0, 0.0, 0.0, 0.0, 1.741746314467295E9, 0.0, 2025-03-11 21:25:14.467
52.0, 8834.236423282198, -22898.669290383972, -25420.84013472082, 8168.400307703056, -883.5868100627434, 5692.8552022999775, -18386.00854706866, 20487.67602296782, -0.148, 0.966, -0.116, 192.0, 0.0, 0.0, 0.0, 0.0, 0.0, 0.0, 0.0, 0.0, 0.0, 1.741746314467333E9, 0.0, 2025-03-11 21:25:14.467
53.0, 8833.364705248441, -22906.112421287587, -25425.064614422874, 8158.498484909354, -886.4478333530228, 5694.978618023231, -18385.673270901832, 20491.542874758587, -0.148, 0.966, -0.116, 192.0, 0.0, 0.0, 0.0, 0.0, 0.0, 0.0, 0.0, 0.0, 0.0, 1.741746314467362E9, 0.0, 2025-03-11 21:25:14.467
54.0, 8833.94585060428, -22911.96857833488, -25423.74586150001, 8163.326461711701, -886.7160542864865, 5691.335283677016, -18385.40504996837, 20485.843179922485, -0.148, 0.966, -0.116, 192.0, 0.0, 0.0, 0.0, 0.0, 0.0, 0.0, 0.0, 0.0, 0.0, 1.7417463144674E9, 0.0, 2025-03-11 21:25:14.467
55.0, 8832.001248836666, -22908.86168585559, -25419.208457375582, 8170.2331507483905, -884.4361763520452, 5695.738577334711, -18380.44296269929, 20492.66046198135, -0.148, 0.966, -0.116, 192.0, 0.0, 0.0, 0.0, 0.0, 0.0, 0.0, 0.0, 0.0, 0.0, 1.741746314467426E9, 0.0, 2025-03-11 21:25:14.467
56.0, 8830.190757535787, -22905.464220698384, -25420.102527153795, 8166.858037335639, -887.408958364601, 5699.091339003007, -18384.57803542352, 20493.73334571521, -0.148, 0.966, -0.116, 192.0, 0.0, 0.0, 0.0, 0.0, 0.0, 0.0, 0.0, 0.0, 0.0, 1.741746314467452E9, 0.0, 2025-03-11 21:25:14.467
57.0, 8822.814681865535, -22905.665386398483, -25422.74003299952, 8164.734621612385, -887.5207170868775, 5706.802690840089, -18384.868608101442, 20493.2863108261, -0.148, 0.966, -0.116, 192.0, 0.0, 0.0, 0.0, 0.0, 0.0, 0.0, 0.0, 0.0, 0.0, 1.741746314467477E9, 0.0, 2025-03-11 21:25:14.467
58.0, 8824.915745844335, -22903.631377653048, -25423.544695799912, 8164.980490801394, -888.0795106982603, 5699.22544946974, -18386.165009279848, 20489.486514268698, -0.148, 0.966, -0.116, 192.0, 0.0, 0.0, 0.0, 0.0, 0.0, 0.0, 0.0, 0.0, 0.0, 1.741746314467507E9, 0.0, 2025-03-11 21:25:14.467
59.0, 8830.213109280243, -22903.854895097604, -25424.192896389115, 8167.550941413754, -891.8569555112072, 5690.262399943162, -18389.249550014683, 20485.574958989022, -0.148, 0.966, -0.116, 192.0, 0.0, 0.0, 0.0, 0.0, 0.0, 0.0, 0.0, 0.0, 0.0, 1.741746314467532E9, 0.0, 2025-03-11 21:25:14.467
60.0, 8826.547423189571, -22906.02301430977, -25424.70698651159, 8168.3556042141445, -894.4497578680227, 5694.12925173393, -18396.133887306918, 20479.29411879708, -0.148, 0.966, -0.116, 192.0, 0.0, 0.0, 0.0, 0.0, 0.0, 0.0, 0.0, 0.0, 0.0, 1.741746314467559E9, 0.0, 2025-03-11 21:25:14.467
61.0, 8834.258775026652, -22896.81409559418, -25414.536942784423, 8175.172886273013, -886.827813008763, 5693.861030800465, -18386.857913357962, 20486.379621789412, -0.156, 0.968, -0.116, 192.0, 251.0, 32.0, 30.0, 64.0, 252.0, 96.0, 0.0, 0.0, 0.0, 1.741746314527338E9, 0.0, 2025-03-11 21:25:14.527
62.0, 8829.564908691038, -22895.54004616023, -25413.46405905057, 8174.681147894997, -888.1465659316261, 5697.0796820020305, -18389.093087803496, 20489.262996824145, -0.156, 0.968, -0.116, 192.0, 0.0, 0.0, 0.0, 0.0, 0.0, 0.0, 0.0, 0.0, 0.0, 1.741746314527392E9, 0.0, 2025-03-11 21:25:14.527
63.0, 8830.973068591722, -22892.567264147674, -25414.738108484522, 8173.876485094605, -889.3312083877574, 5697.392606424404, -18388.601349425477, 20489.330052057514, -0.156, 0.968, -0.116, 192.0, 0.0, 0.0, 0.0, 0.0, 0.0, 0.0, 0.0, 0.0, 0.0, 1.741746314527418E9, 0.0, 2025-03-11 21:25:14.527
64.0, 8830.235461024698, -22896.992909549823, -25418.60496027529, 8170.9931100598715, -894.8073857793077, 5700.968885537253, -18390.478895959724, 20484.39031653289, -0.156, 0.968, -0.116, 192.0, 0.0, 0.0, 0.0, 0.0, 0.0, 0.0, 0.0, 0.0, 0.0, 1.741746314527463E9, 0.0, 2025-03-11 21:25:14.527
65.0, 8838.617365195438, -22896.232950238344, -25410.11129738227, 8182.213685776435, -892.3039904003133, 5706.981504795731, -18389.093087803496, 20492.68281372581, -0.156, 0.968, -0.116, 192.0, 0.0, 0.0, 0.0, 0.0, 0.0, 0.0, 0.0, 0.0, 0.0, 1.74174631452749E9, 0.0, 2025-03-11 21:25:14.527
66.0, 8840.69607742978, -22887.314604200674, -25409.440745048614, 8184.851191622161, -890.247629910425, 5707.719112362756, -18386.522637191134, 20491.699336969774, -0.156, 0.968, -0.116, 192.0, 0.0, 0.0, 0.0, 0.0, 0.0, 0.0, 0.0, 0.0, 0.0, 1.741746314527517E9, 0.0, 2025-03-11 21:25:14.527
67.0, 8835.823397138523, -22884.520636143763, -25415.229846862538, 8179.911456097539, -892.8851357561513, 5705.4168826838595, -18392.73642214971, 20485.552607244565, -0.156, 0.968, -0.116, 192.0, 0.0, 0.0, 0.0, 0.0, 0.0, 0.0, 0.0, 0.0, 0.0, 1.741746314527559E9, 0.0, 2025-03-11 21:25:14.527
68.0, 8830.056647069056, -22892.701374614404, -25421.242466121017, 8169.428487947999, -896.9531532470171, 5698.6666558583565, -18399.061965830562, 20465.011354090137, -0.156, 0.968, -0.116, 192.0, 0.0, 0.0, 0.0, 0.0, 0.0, 0.0, 0.0, 0.0, 0.0, 1.74174631452759E9, 0.0, 2025-03-11 21:25:14.527
69.0, 8840.338449518496, -22880.96670877537, -25411.720622983055, 8176.089307795681, -890.5158508438886, 5708.076740274041, -18391.328262249026, 20490.648804980374, -0.156, 0.968, -0.116, 192.0, 0.0, 0.0, 0.0, 0.0, 0.0, 0.0, 0.0, 0.0, 0.0, 1.741746314527619E9, 0.0, 2025-03-11 21:25:14.527
70.0, 8845.099371087477, -22880.944357030912, -25408.12199212575, 8185.007653833349, -891.1864031775478, 5711.496557175703, -18388.91427384785, 20504.931569687316, -0.156, 0.968, -0.116, 192.0, 0.0, 0.0, 0.0, 0.0, 0.0, 0.0, 0.0, 0.0, 0.0, 1.741746314527651E9, 0.0, 2025-03-11 21:25:14.527
71.0, 8836.9856878502, -22888.789819334725, -25415.855695707287, 8172.960063571938, -892.6616183115982, 5702.399397182393, -18388.377831980924, 20490.402935791368, -0.154, 0.966, -0.116, 192.0, 251.0, 48.0, 30.0, 48.0, 252.0, 96.0, 0.0, 0.0, 0.0, 1.741746314527677E9, 0.0, 2025-03-11 21:25:14.527
72.0, 8838.08092332851, -22880.653784352995, -25418.515553297468, 8179.799697375262, -892.3710456336792, 5696.7444058352, -18392.73642214971, 20478.981194374705, -0.154, 0.966, -0.116, 192.0, 0.0, 0.0, 0.0, 0.0, 0.0, 0.0, 0.0, 0.0, 0.0, 1.741746314527706E9, 0.0, 2025-03-11 21:25:14.527
73.0, 8843.244176297687, -22873.188301704922, -25416.50389629649, 8182.794831132273, -894.0921299567378, 5703.516984405159, -18393.339919250004, 20486.647842722876, -0.154, 0.966, -0.116, 192.0, 0.0, 0.0, 0.0, 0.0, 0.0, 0.0, 0.0, 0.0, 0.0, 1.741746314527736E9, 0.0, 2025-03-11 21:25:14.527
74.0, 8842.148940819376, -22880.76554307527, -25409.17252411515, 8186.393461989577, -886.5595920752993, 5706.132138506429, -18384.466276701245, 20495.230912593714, -0.154, 0.966, -0.116, 192.0, 0.0, 0.0, 0.0, 0.0, 0.0, 0.0, 0.0, 0.0, 0.0, 1.741746314527762E9, 0.0, 2025-03-11 21:25:14.527
75.0, 8838.639716939893, -22885.57116813316, -25410.26775959346, 8179.464421208432, -885.5090600858999, 5708.2332024852285, -18386.097954046483, 20492.593406747987, -0.154, 0.966, -0.116, 192.0, 0.0, 0.0, 0.0, 0.0, 0.0, 0.0, 0.0, 0.0, 0.0, 1.741746314527789E9, 0.0, 2025-03-11 21:25:14.527
76.0, 8829.40844647985, -22893.796610092715, -25419.208457375582, 8176.134011284592, -893.9356677455506, 5703.181708238329, -18392.110573304963, 20491.47581952522, -0.154, 0.966, -0.116, 192.0, 0.0, 0.0, 0.0, 0.0, 0.0, 0.0, 0.0, 0.0, 0.0, 1.741746314587703E9, 0.0, 2025-03-11 21:25:14.587
77.0, 8834.884623871401, -22888.208673978887, -25417.17444863015, 8185.678206167007, -892.2369351669473, 5706.243897228706, -18389.093087803496, 20494.828581193517, -0.154, 0.966, -0.116, 192.0, 0.0, 0.0, 0.0, 0.0, 0.0, 0.0, 0.0, 0.0, 0.0, 1.741746314587774E9, 0.0, 2025-03-11 21:25:14.587
78.0, 8832.738856403692, -22889.661537368484, -25417.152096885693, 8179.754993886351, -890.1135194436931, 5705.640400128413, -18386.992023824696, 20498.740136473196, -0.154, 0.966, -0.116, 192.0, 0.0, 0.0, 0.0, 0.0, 0.0, 0.0, 0.0, 0.0, 0.0, 1.741746314587801E9, 0.0, 2025-03-11 21:25:14.587
79.0, 8829.475501713217, -22888.76746759027, -25417.867352708265, 8178.659758408041, -892.6839700560535, 5707.361484451471, -18389.271901759137, 20495.230912593714, -0.154, 0.966, -0.116, 192.0, 0.0, 0.0, 0.0, 0.0, 0.0, 0.0, 0.0, 0.0, 0.0, 1.741746314587827E9, 0.0, 2025-03-11 21:25:14.587
80.0, 8838.259737284152, -22887.940453045423, -25416.414489318668, 8180.179677031002, -890.5158508438886, 5709.395493196905, -18385.02507031263, 20495.856761438463, -0.154, 0.966, -0.116, 192.0, 0.0, 0.0, 0.0, 0.0, 0.0, 0.0, 0.0, 0.0, 0.0, 1.741746314587881E9, 0.0, 2025-03-11 21:25:14.587
81.0, 8835.286955271597, -22894.467162426372, -25422.02477717695, 8169.160267014536, -893.3321706452574, 5706.5344699066245, -18386.92496859133, 20491.140543358393, -0.148, 0.964, -0.114, 192.0, 251.0, 96.0, 30.0, 32.0, 252.0, 112.0, 0.0, 0.0, 0.0, 1.741746314587907E9, 0.0, 2025-03-11 21:25:14.587
82.0, 8826.770940634126, -22905.732441631848, -25429.669073780668, 8157.112676753125, -896.1708421910814, 5702.466452415759, -18388.243721514194, 20489.262996824145, -0.148, 0.964, -0.114, 192.0, 0.0, 0.0, 0.0, 0.0, 0.0, 0.0, 0.0, 0.0, 0.0, 1.74174631458794E9, 0.0, 2025-03-11 21:25:14.587
83.0, 8826.547423189571, -22913.063813813187, -25422.31534985487, 8173.742374627874, -889.5323740878551, 5700.901830303887, -18382.320509233537, 20495.29796782708, -0.148, 0.964, -0.114, 192.0, 0.0, 0.0, 0.0, 0.0, 0.0, 0.0, 0.0, 0.0, 0.0, 1.741746314587977E9, 0.0, 2025-03-11 21:25:14.587
84.0, 8823.932269088302, -22915.142526047533, -25422.583570788334, 8173.496505438866, -893.9133160010954, 5693.41399591136, -18389.003680825674, 20490.402935791368, -0.148, 0.964, -0.114, 192.0, 0.0, 0.0, 0.0, 0.0, 0.0, 0.0, 0.0, 0.0, 0.0, 1.741746314588004E9, 0.0, 2025-03-11 21:25:14.588
85.0, 8828.335562745997, -22908.995796322324, -25423.231771377537, 8169.4061362035445, -895.5673450907881, 5699.001932025187, -18390.83652387101, 20484.747944444174, -0.148, 0.964, -0.114, 192.0, 0.0, 0.0, 0.0, 0.0, 0.0, 0.0, 0.0, 0.0, 0.0, 1.741746314588034E9, 0.0, 2025-03-11 21:25:14.588
86.0, 8823.596992921472, -22910.96274983439, -25421.868314965763, 8169.741412370374, -890.6499613106205, 5705.327475706038, -18388.35548023647, 20487.29604331208, -0.148, 0.964, -0.114, 192.0, 0.0, 0.0, 0.0, 0.0, 0.0, 0.0, 0.0, 0.0, 0.0, 1.741746314588067E9, 0.0, 2025-03-11 21:25:14.588
87.0, 8829.74372264668, -22916.617741181584, -25417.420317819156, 8174.435278705988, -887.1854409200479, 5699.650132614391, -18384.98036682372, 20493.77804920412, -0.148, 0.964, -0.114, 192.0, 0.0, 0.0, 0.0, 0.0, 0.0, 0.0, 0.0, 0.0, 0.0, 1.741746314588094E9, 0.0, 2025-03-11 21:25:14.588
88.0, 8827.508548201151, -22923.43502324045, -25422.203591132595, 8164.734621612385, -897.0425602248383, 5690.620027854447, -18394.68102391732, 20478.15417982986, -0.148, 0.964, -0.114, 192.0, 0.0, 0.0, 0.0, 0.0, 0.0, 0.0, 0.0, 0.0, 0.0, 1.74174631458812E9, 0.0, 2025-03-11 21:25:14.588
89.0, 8830.257812769152, -22914.494325458327, -25416.190971874115, 8174.23411300589, -892.2369351669473, 5700.678312859334, -18389.383660481413, 20492.034613136606, -0.148, 0.964, -0.114, 192.0, 0.0, 0.0, 0.0, 0.0, 0.0, 0.0, 0.0, 0.0, 0.0, 1.74174631458815E9, 0.0, 2025-03-11 21:25:14.588
90.0, 8829.631963924405, -22914.270808013775, -25417.75559398599, 8168.914397825528, -892.4381008670451, 5701.728844848734, -18394.569265195045, 20486.513732256142, -0.148, 0.964, -0.114, 192.0, 0.0, 0.0, 0.0, 0.0, 0.0, 0.0, 0.0, 0.0, 0.0, 1.741746314588177E9, 0.0, 2025-03-11 21:25:14.588
91.0, 8820.579507420005, -22922.362139506597, -25423.567047544366, 8163.706441367441, -897.2660776693914, 5696.900868046388, -18397.005605340673, 20483.76446768814, -0.14400000000000002, 0.96, -0.116, 192.0, 251.0, 128.0, 30.0, 0.0, 252.0, 96.0, 0.0, 0.0, 0.0, 1.741746314647074E9, 0.0, 2025-03-11 21:25:14.647
92.0, 8818.679609141303, -22922.38449125105, -25424.215248133572, 8161.203045988446, -897.6907608140423, 5692.944609277798, -18395.396279739893, 20483.898578154873, -0.14400000000000002, 0.96, -0.116, 192.0, 0.0, 0.0, 0.0, 0.0, 0.0, 0.0, 0.0, 0.0, 0.0, 1.741746314647122E9, 0.0, 2025-03-11 21:25:14.647
93.0, 8826.659181911848, -22917.1094795596, -25422.4494603216, 8162.119467511114, -894.539164845844, 5692.944609277798, -18390.92593084883, 20492.883979425907, -0.14400000000000002, 0.96, -0.116, 192.0, 0.0, 0.0, 0.0, 0.0, 0.0, 0.0, 0.0, 0.0, 0.0, 1.741746314647149E9, 0.0, 2025-03-11 21:25:14.647
94.0, 8831.151882547365, -22914.091994058133, -25423.499992311, 8160.04075527677, -895.4332346240562, 5700.767719837156, -18391.59648318249, 20492.30283407007, -0.14400000000000002, 0.96, -0.116, 192.0, 0.0, 0.0, 0.0, 0.0, 0.0, 0.0, 0.0, 0.0, 0.0, 1.741746314647176E9, 0.0, 2025-03-11 21:25:14.647
95.0, 8832.582394192505, -22920.484592972352, -25422.427108577147, 8155.771572085807, -897.2213741804808, 5698.867821558455, -18395.88801811791, 20485.10557235546, -0.14400000000000002, 0.96, -0.116, 192.0, 0.0, 0.0, 0.0, 0.0, 0.0, 0.0, 0.0, 0.0, 0.0, 1.741746314647202E9, 0.0, 2025-03-11 21:25:14.647
96.0, 8833.498815715173, -22916.595389437127, -25415.341605584814, 8176.670453151519, -891.2534584109138, 5695.135080234419, -18388.93662559231, 20483.898578154873, -0.14400000000000002, 0.96, -0.116, 192.0, 0.0, 0.0, 0.0, 0.0, 0.0, 0.0, 0.0, 0.0, 0.0, 1.741746314647252E9, 0.0, 2025-03-11 21:25:14.647
97.0, 8835.733990160703, -22908.705223644403, -25413.195838117106, 8182.124278798614, -889.957057232506, 5695.559763379069, -18387.394355224893, 20486.849008422974, -0.14400000000000002, 0.96, -0.116, 192.0, 0.0, 0.0, 0.0, 0.0, 0.0, 0.0, 0.0, 0.0, 0.0, 1.741746314647279E9, 0.0, 2025-03-11 21:25:14.647
98.0, 8835.97985934971, -22908.191133521934, -25411.631216005233, 8183.130107299103, -888.9512287320172, 5699.22544946974, -18388.4895907032, 20488.793610190583, -0.14400000000000002, 0.96, -0.116, 192.0, 0.0, 0.0, 0.0, 0.0, 0.0, 0.0, 0.0, 0.0, 0.0, 1.741746314647314E9, 0.0, 2025-03-11 21:25:14.647
99.0, 8836.51630121664, -22904.30192998671, -25411.698271238598, 8178.3915374745775, -890.2029264215143, 5701.237106470717, -18394.971596595242, 20485.686717711298, -0.14400000000000002, 0.96, -0.116, 192.0, 0.0, 0.0, 0.0, 0.0, 0.0, 0.0, 0.0, 0.0, 0.0, 1.741746314647349E9, 0.0, 2025-03-11 21:25:14.647
100.0, 8836.717466916736, -22900.926816573956, -25411.340643327316, 8176.5139909403315, -894.6732753125758, 5697.41495816886, -18396.133887306918, 20489.553569502066, -0.14400000000000002, 0.96, -0.116, 192.0, 0.0, 0.0, 0.0, 0.0, 0.0, 0.0, 0.0, 0.0, 0.0, 1.741746314647383E9, 0.0, 2025-03-11 21:25:14.647
101.0, 8838.37149600643, -22899.742174117826, -25407.920826425652, 8176.3351769846895, -891.0969961997266, 5696.766757579656, -18390.613006426454, 20489.24064507969, -0.148, 0.962, -0.112, 192.0, 251.0, 96.0, 30.0, 16.0, 252.0, 128.0, 0.0, 0.0, 0.0, 1.741746314647418E9, 0.0, 2025-03-11 21:25:14.647
102.0, 8839.757304162658, -22900.211560751388, -25406.669128736154, 8181.6772439095075, -888.8394700097407, 5697.45966165777, -18391.060041315563, 20483.608005476955, -0.148, 0.962, -0.112, 192.0, 0.0, 0.0, 0.0, 0.0, 0.0, 0.0, 0.0, 0.0, 0.0, 1.741746314647447E9, 0.0, 2025-03-11 21:25:14.647
103.0, 8840.651373940871, -22899.272787484264, -25407.02675664744, 8181.967816587427, -887.408958364601, 5699.3148564475605, -18386.902616846874, 20490.514694513644, -0.148, 0.962, -0.112, 192.0, 0.0, 0.0, 0.0, 0.0, 0.0, 0.0, 0.0, 0.0, 0.0, 1.741746314647475E9, 0.0, 2025-03-11 21:25:14.647
104.0, 8828.737894146192, -22900.85976134059, -25415.542771284912, 8174.1670577725245, -896.1037869577154, 5693.123423233441, -18397.40793674087, 20489.128886357415, -0.148, 0.962, -0.112, 192.0, 0.0, 0.0, 0.0, 0.0, 0.0, 0.0, 0.0, 0.0, 0.0, 1.741746314647501E9, 0.0, 2025-03-11 21:25:14.647
105.0, 8823.373475476918, -22904.01135730879, -25417.286207352427, 8170.9931100598715, -896.9308015025618, 5691.55880112157, -18402.07945133203, 20482.333956043, -0.148, 0.962, -0.112, 192.0, 0.0, 0.0, 0.0, 0.0, 0.0, 0.0, 0.0, 0.0, 0.0, 1.741746314647531E9, 0.0, 2025-03-11 21:25:14.647
106.0, 8837.589184950493, -22901.06092704069, -25416.526248040947, 8163.728793111896, -898.9201067590841, 5689.055405742575, -18401.319492020546, 20478.91413914134, -0.148, 0.962, -0.112, 192.0, 0.0, 0.0, 0.0, 0.0, 0.0, 0.0, 0.0, 0.0, 0.0, 1.741746314647559E9, 0.0, 2025-03-11 21:25:14.647
107.0, 8844.115894331444, -22896.54587466072, -25414.425184062147, 8171.6413106490745, -899.8812317706623, 5692.296408688594, -18401.677119931832, 20478.824732163517, -0.148, 0.962, -0.112, 192.0, 0.0, 0.0, 0.0, 0.0, 0.0, 0.0, 0.0, 0.0, 0.0, 1.741746314707708E9, 0.0, 2025-03-11 21:25:14.707
108.0, 8841.880719885912, -22893.05900252569, -25414.782811973433, 8179.307958997245, -900.5741358487769, 5694.241010456206, -18401.11832632045, 20479.204711819257, -0.148, 0.962, -0.112, 192.0, 0.0, 0.0, 0.0, 0.0, 0.0, 0.0, 0.0, 0.0, 0.0, 1.741746314707743E9, 0.0, 2025-03-11 21:25:14.707
109.0, 8838.013868095144, -22893.304871714696, -25417.487373052525, 8168.221493747413, -902.0046474939165, 5692.117594732952, -18401.587712954013, 20475.449618750765, -0.148, 0.962, -0.112, 192.0, 0.0, 0.0, 0.0, 0.0, 0.0, 0.0, 0.0, 0.0, 0.0, 1.741746314707771E9, 0.0, 2025-03-11 21:25:14.707
110.0, 8827.441492967784, -22893.304871714696, -25422.494163810512, 8156.687993608474, -906.2514789404248, 5689.591847609502, -18405.92395137834, 20481.596348475978, -0.148, 0.962, -0.112, 192.0, 0.0, 0.0, 0.0, 0.0, 0.0, 0.0, 0.0, 0.0, 0.0, 1.741746314707797E9, 0.0, 2025-03-11 21:25:14.707
111.0, 8832.917670359335, -22890.77912459125, -25418.94023644212, 8177.676281652008, -904.8209672952852, 5691.536449377114, -18403.68877693281, 20485.574958989022, -0.15, 0.966, -0.108, 192.0, 251.0, 80.0, 30.0, 48.0, 252.0, 160.0, 0.0, 0.0, 0.0, 1.741746314707844E9, 0.0, 2025-03-11 21:25:14.707
112.0, 8840.092580329489, -22890.443848424417, -25416.92857944114, 8176.178714773502, -898.4507201255227, 5688.965998764754, -18397.206771040772, 20477.975365874216, -0.15, 0.966, -0.108, 192.0, 0.0, 0.0, 0.0, 0.0, 0.0, 0.0, 0.0, 0.0, 0.0, 1.741746314707873E9, 0.0, 2025-03-11 21:25:14.707
113.0, 8834.102312815467, -22895.71886011587, -25418.046166663906, 8170.322557726212, -899.9035835151177, 5688.36250166446, -18397.87732337443, 20479.070601352527, -0.15, 0.966, -0.108, 192.0, 0.0, 0.0, 0.0, 0.0, 0.0, 0.0, 0.0, 0.0, 0.0, 1.741746314707908E9, 0.0, 2025-03-11 21:25:14.707
114.0, 8838.438551239795, -22893.729554859347, -25409.328986326338, 8166.545112913265, -895.2097171795032, 5689.323626676039, -18395.239817528705, 20478.020069363127, -0.15, 0.966, -0.108, 192.0, 0.0, 0.0, 0.0, 0.0, 0.0, 0.0, 0.0, 0.0, 0.0, 1.741746314707945E9, 0.0, 2025-03-11 21:25:14.707
115.0, 8834.817568638036, -22886.800514078204, -25410.625387504744, 8164.734621612385, -892.4157491225898, 5692.184649966318, -18390.389488981902, 20479.271767052625, -0.15, 0.966, -0.108, 192.0, 0.0, 0.0, 0.0, 0.0, 0.0, 0.0, 0.0, 0.0, 0.0, 1.741746314707971E9, 0.0, 2025-03-11 21:25:14.707
116.0, 8826.547423189571, -22896.612929894083, -25419.767250986966, 8166.545112913265, -899.1212724591819, 5685.277960929628, -18396.178590795826, 20467.693563424775, -0.15, 0.966, -0.108, 192.0, 0.0, 0.0, 0.0, 0.0, 0.0, 0.0, 0.0, 0.0, 0.0, 1.741746314708001E9, 0.0, 2025-03-11 21:25:14.708
117.0, 8819.081940541499, -22906.82767711016, -25426.964512701576, 8163.393516945067, -902.6751998275757, 5689.591847609502, -18395.239817528705, 20479.3835257749, -0.15, 0.966, -0.108, 192.0, 0.0, 0.0, 0.0, 0.0, 0.0, 0.0, 0.0, 0.0, 0.0, 1.741746314708034E9, 0.0, 2025-03-11 21:25:14.708
118.0, 8831.598917436471, -22902.089107285632, -25421.13070739874, 8168.869694336617, -897.8695747696847, 5686.037920241109, -18390.434192470813, 20488.368927045933, -0.15, 0.966, -0.108, 192.0, 0.0, 0.0, 0.0, 0.0, 0.0, 0.0, 0.0, 0.0, 0.0, 1.74174631470806E9, 0.0, 2025-03-11 21:25:14.708
119.0, 8834.147016304376, -22899.563360162185, -25419.297864353404, 8172.71419438293, -896.3273044022685, 5698.420786669349, -18390.613006426454, 20489.665328224342, -0.15, 0.966, -0.108, 192.0, 0.0, 0.0, 0.0, 0.0, 0.0, 0.0, 0.0, 0.0, 0.0, 1.741746314708086E9, 0.0, 2025-03-11 21:25:14.708
120.0, 8831.80008313657, -22899.83158109565, -25423.03060567744, 8167.61799664712, -896.3943596356345, 5693.682216844823, -18390.255378515172, 20490.358232302457, -0.15, 0.966, -0.108, 192.0, 0.0, 0.0, 0.0, 0.0, 0.0, 0.0, 0.0, 0.0, 0.0, 1.741746314708115E9, 0.0, 2025-03-11 21:25:14.708
121.0, 8828.69319065728, -22897.1046682721, -25423.52234405546, 8177.631578163097, -895.6567520686093, 5699.448966914292, -18387.461410458258, 20499.47774404022, -0.152, 0.966, -0.108, 192.0, 251.0, 64.0, 30.0, 48.0, 252.0, 160.0, 0.0, 0.0, 0.0, 1.741746314708142E9, 0.0, 2025-03-11 21:25:14.708
122.0, 8820.713617886737, -22905.15129627601, -25429.51261156948, 8170.970758315416, -901.1999846935255, 5694.553934878581, -18389.338956992502, 20493.845104437485, -0.152, 0.966, -0.108, 192.0, 0.0, 0.0, 0.0, 0.0, 0.0, 0.0, 0.0, 0.0, 0.0, 1.741746314769442E9, 0.0, 2025-03-11 21:25:14.769
123.0, 8826.770940634126, -22906.291235243232, -25424.41641383367, 8168.199142002958, -891.2534584109138, 5700.343036692505, -18384.421573212334, 20490.984081147206, -0.152, 0.966, -0.108, 192.0, 0.0, 0.0, 0.0, 0.0, 0.0, 0.0, 0.0, 0.0, 0.0, 1.741746314769478E9, 0.0, 2025-03-11 21:25:14.769
124.0, 8816.55619341805, -22922.026863339768, -25437.93921922913, 8146.9873365148715, -900.2388596819472, 5690.0388824986085, -18397.139715807407, 20476.947185629273, -0.152, 0.966, -0.108, 192.0, 0.0, 0.0, 0.0, 0.0, 0.0, 0.0, 0.0, 0.0, 0.0, 1.741746314769505E9, 0.0, 2025-03-11 21:25:14.769
125.0, 8809.26952472562, -22923.099747073622, -25444.08594895434, 8143.589871357664, -905.7597405624081, 5688.4519086422815, -18402.235913543216, 20478.556511230054, -0.152, 0.966, -0.108, 192.0, 0.0, 0.0, 0.0, 0.0, 0.0, 0.0, 0.0, 0.0, 0.0, 1.741746314769532E9, 0.0, 2025-03-11 21:25:14.769
126.0, 8811.728216615704, -22913.712014402394, -25438.721530285067, 8165.405173946045, -901.4905573714444, 5690.9776557657315, -18397.318529763048, 20479.96467113074, -0.152, 0.966, -0.108, 192.0, 0.0, 0.0, 0.0, 0.0, 0.0, 0.0, 0.0, 0.0, 0.0, 1.741746314769558E9, 0.0, 2025-03-11 21:25:14.769
127.0, 8808.26369622513, -22913.510848702295, -25439.012102962984, 8157.291490708768, -899.0542172258159, 5690.12828947643, -18395.26216927316, 20481.059906609047, -0.152, 0.966, -0.108, 192.0, 0.0, 0.0, 0.0, 0.0, 0.0, 0.0, 0.0, 0.0, 0.0, 1.741746314769599E9, 0.0, 2025-03-11 21:25:14.769
128.0, 8819.484271941696, -22909.331072489153, -25429.93729471413, 8157.984394786882, -891.3205136442797, 5694.576286623035, -18388.44488721429, 20486.469028767235, -0.152, 0.966, -0.108, 192.0, 0.0, 0.0, 0.0, 0.0, 0.0, 0.0, 0.0, 0.0, 0.0, 1.741746314769625E9, 0.0, 2025-03-11 21:25:14.769
129.0, 8817.114987029432, -22911.96857833488, -25432.32893137085, 8161.627729133097, -896.2378974244473, 5697.325551191038, -18392.78112563862, 20491.34170905849, -0.152, 0.966, -0.108, 192.0, 0.0, 0.0, 0.0, 0.0, 0.0, 0.0, 0.0, 0.0, 0.0, 1.741746314769659E9, 0.0, 2025-03-11 21:25:14.769
130.0, 8822.367646976429, -22908.347595733117, -25428.998521447007, 8165.673394879508, -894.0250747233719, 5694.397472667393, -18392.22233202724, 20492.72751721472, -0.152, 0.966, -0.108, 192.0, 0.0, 0.0, 0.0, 0.0, 0.0, 0.0, 0.0, 0.0, 0.0, 1.741746314769694E9, 0.0, 2025-03-11 21:25:14.769
131.0, 8825.988629578189, -22907.364118977086, -25428.484431324534, 8165.583987901687, -892.7733770338747, 5700.812423326066, -18391.663538415854, 20487.787781690095, -0.152, 0.964, -0.106, 192.0, 251.0, 64.0, 30.0, 32.0, 252.0, 176.0, 0.0, 0.0, 0.0, 1.741746314769727E9, 0.0, 2025-03-11 21:25:14.769
132.0, 8827.12856854541, -22909.24166551133, -25425.019910933963, 8169.249673992357, -888.2359729094474, 5700.164222736862, -18387.86374185845, 20495.789706205094, -0.152, 0.964, -0.106, 192.0, 0.0, 0.0, 0.0, 0.0, 0.0, 0.0, 0.0, 0.0, 0.0, 1.74174631476976E9, 0.0, 2025-03-11 21:25:14.769
133.0, 8822.859385354446, -22917.265941770787, -25426.048091178905, 8167.4168309470215, -889.9347054880507, 5697.705530846779, -18391.127096548928, 20496.86258993895, -0.152, 0.964, -0.106, 192.0, 0.0, 0.0, 0.0, 0.0, 0.0, 0.0, 0.0, 0.0, 0.0, 1.741746314769789E9, 0.0, 2025-03-11 21:25:14.769
