%OpenBCI Raw EXG Data
%Number of channels = 16
%Sample Rate = 125 Hz
%Board = OpenBCI_GUI$BoardCytonSerialDaisy
Sample Index, EXG Channel 0, EXG Channel 1, EXG Channel 2, EXG Channel 3, EXG Channel 4, EXG Channel 5, EXG Channel 6, EXG Channel 7, EXG Channel 8, EXG Channel 9, EXG Channel 10, EXG Channel 11, EXG Channel 12, EXG Channel 13, EXG Channel 14, EXG Channel 15, Accel Channel 0, Accel Channel 1, Accel Channel 2, Not Used, Digital Channel 0 (D11), Digital Channel 1 (D12), Digital Channel 2 (D13), Digital Channel 3 (D17), Not Used, Digital Channel 4 (D18), Analog Channel 0, Analog Channel 1, Analog Channel 2, Timestamp, Marker Channel, Timestamp (Formatted)
88.0, -25018.28521708074, -22859.28551665372, -25034.110252155097, -18449.822777488564, -25085.16163649102, -25098.416220953015, -25108.318043746716, -16015.159012694243, -24989.205597544384, -25002.013147117275, -25073.24815669634, -23016.708852852447, -25086.63685162507, -25074.566909619203, -25117.035224084288, -17202.327215948968, 0.0, 0.0, 0.0, 192.0, 0.0, 0.0, 0.0, 0.0, 0.0, 0.0, 0.0, 0.0, 0.0, 1.741902153748352E9, 0.0, 2025-03-13 16:42:33.748
90.0, -25018.352272314107, -22862.9959062333, -25034.132603899554, -18424.74412020971, -25085.16163649102, -25098.52797967529, -25108.25098851335, -16014.823736527413, -24989.0491353332, -25001.811981417177, -25073.136397974064, -23018.429937175508, -25086.43568592497, -25074.611613108114, -25115.761174650335, -17189.005576253603, -0.054, 0.453, -0.179, 192.0, 126.0, 80.0, 14.0, 40.0, 122.0, 104.0, 0.0, 0.0, 0.0, 1.741902153751501E9, 0.0, 2025-03-13 16:42:33.751
92.0, -25018.061699636186, -22858.436150364418, -25033.886734710544, -18437.59637327151, -25084.893415557555, -25098.259758741828, -25107.938064090977, -16014.421405127217, -24989.116190566565, -25001.811981417177, -25073.024639251787, -23009.22101845992, -25086.43568592497, -25074.54455787475, -25114.844753127665, -17209.50212591912, -0.054, 0.453, -0.179, 192.0, 0.0, 0.0, 0.0, 0.0, 0.0, 0.0, 0.0, 0.0, 0.0, 1.741902153754279E9, 0.0, 2025-03-13 16:42:33.754
94.0, -25016.117097868577, -22872.92008077146, -25031.94213294293, -18422.106614363984, -25082.948813789943, -25096.29280522976, -25106.038165812275, -16012.990893482078, -24988.33387951063, -25001.119077339063, -25072.599956107137, -23016.150059241067, -25085.76513359131, -25073.762246818813, -25117.81753514022, -17303.46885960923, -0.054, 0.453, -0.179, 192.0, 0.0, 0.0, 0.0, 0.0, 0.0, 0.0, 0.0, 0.0, 0.0, 1.74190215375642E9, 0.0, 2025-03-13 16:42:33.756
96.0, -25016.541781013228, -22877.926871529446, -25032.43387132095, -18444.324248352557, -25083.462903912416, -25096.851598841145, -25106.574607679202, -16014.153184193754, -24986.590443443114, -24999.353289527095, -25070.63300259507, -23022.833230833203, -25084.044049268254, -25071.974107262387, -25115.02356708331, -17216.78879461155, -0.054, 0.453, -0.179, 192.0, 0.0, 0.0, 0.0, 0.0, 0.0, 0.0, 0.0, 0.0, 0.0, 1.741902153758624E9, 0.0, 2025-03-13 16:42:33.758
98.0, -25017.681719980446, -22905.15129627601, -25033.52910679926, -18438.333980838535, -25084.513435901816, -25097.96918606391, -25107.647491413056, -16013.527335349005, -24988.33387951063, -25001.208484316885, -25072.421142151492, -23033.316198982742, -25085.742781846857, -25073.762246818813, -25116.54348570627, -17213.234867243154, -0.054, 0.453, -0.179, 192.0, 0.0, 0.0, 0.0, 0.0, 0.0, 0.0, 0.0, 0.0, 0.0, 1.741902153760776E9, 0.0, 2025-03-13 16:42:33.760
100.0, -25019.134583370043, -22919.322302260676, -25034.914914955487, -18462.004478216706, -25085.988651035866, -25099.332642475685, -25109.078003058195, -16013.9296667492, -24988.892673122013, -25001.744926183812, -25072.644659596048, -23040.714626397446, -25086.18981673596, -25074.276336941282, -25110.284997258783, -17132.478014526132, -0.079, 0.6835, -0.26649999999999996, 192.0, 126.0, 96.0, 14.0, 72.0, 122.0, 120.0, 0.0, 0.0, 0.0, 1.741902153762891E9, 0.0, 2025-03-13 16:42:33.762
102.0, -25019.6039700036, -22934.655598957015, -25035.29489461123, -18454.382533357446, -25086.368630691606, -25099.757325620336, -25109.480334458392, -16006.21831491212, -24991.105495823085, -25003.935397140434, -25074.879834041578, -23053.008085847865, -25088.44734292595, -25076.48915964236, -25112.855447871145, -17134.4449680382, -0.079, 0.6835, -0.26649999999999996, 192.0, 0.0, 0.0, 0.0, 0.0, 0.0, 0.0, 0.0, 0.0, 0.0, 1.741902153765122E9, 0.0, 2025-03-13 16:42:33.765
104.0, -25018.508734525294, -22930.25230529932, -25034.17730738846, -18449.21928038827, -25085.20633997993, -25098.48327618638, -25108.429802468992, -16006.173611423208, -24989.56322545567, -25002.37077502856, -25073.762246818813, -23046.54843170028, -25086.927424302987, -25074.9692410194, -25117.59401769567, -17239.92285012279, -0.079, 0.6835, -0.26649999999999996, 192.0, 0.0, 0.0, 0.0, 0.0, 0.0, 0.0, 0.0, 0.0, 0.0, 1.741902153767229E9, 0.0, 2025-03-13 16:42:33.767
0.0, -11917.480756936164, -11411.772538634843, -11924.566259928497, -8915.976752755256, -11950.069600352002, -11956.79747543305, -11961.357231301932, -7871.546789592122, -12494.37928132764, -12500.749528497403, -12536.489967881438, -11524.984124300972, -12543.039029006843, -12537.026409748365, -12559.087581525753, -8635.484711585606, -0.098, 0.918, -0.34400000000000003, 192.0, 126.0, 120.0, 14.0, 88.0, 122.5, 32.0, 0.0, 0.0, 0.0, 1.741902153865704E9, 0.0, 2025-03-13 16:42:33.865
2.0, -23835.944990628363, -22821.0863853796, -23850.160700101937, -17832.73581656645, -23901.167380948948, -23914.556075877677, -23923.899105059994, -15736.20924189201, -23805.03252804667, -23818.220057275303, -23889.946805232383, -22944.736235706358, -23901.659119326963, -23889.5891773211, -23932.45982318638, -16034.783844326003, -0.098, 0.918, -0.34400000000000003, 192.0, 0.0, 0.0, 0.0, 0.0, 0.0, 0.0, 0.0, 0.0, 0.0, 1.741902153869227E9, 0.0, 2025-03-13 16:42:33.869
4.0, -23836.414377261925, -22821.2875510797, -23850.652438479956, -17835.23921194544, -23901.63676758251, -23914.958407277874, -23924.25673297128, -15741.618364050195, -23806.217170502805, -23819.494106709255, -23890.997337221783, -22934.25326755682, -23903.000223994284, -23890.885578499507, -23929.934076062927, -15970.477875528084, -0.098, 0.918, -0.34400000000000003, 192.0, 0.0, 0.0, 0.0, 0.0, 0.0, 0.0, 0.0, 0.0, 0.0, 1.741902153872296E9, 0.0, 2025-03-13 16:42:33.872
6.0, -23835.967342372816, -22830.31765583964, -23850.205403590848, -17828.01959848638, -23901.122677460036, -23914.489020644312, -23923.83204982663, -15736.142186658644, -23807.08888853656, -23820.343472998557, -23891.891406999996, -22948.088997374656, -23903.87194202804, -23891.690241299897, -23930.78344235223, -15994.014262439521, -0.098, 0.918, -0.34400000000000003, 192.0, 0.0, 0.0, 0.0, 0.0, 0.0, 0.0, 0.0, 0.0, 0.0, 1.741902153875401E9, 0.0, 2025-03-13 16:42:33.875
8.0, -23836.324970284102, -22830.31765583964, -23850.4289210354, -17837.317924179784, -23901.480305371322, -23914.846648555595, -23923.988512037817, -15743.45120709553, -23805.166638513405, -23818.354167742036, -23890.192674421392, -22943.14926185003, -23901.949692004884, -23889.76799127674, -23933.577410409143, -16073.89939712279, -0.088, 0.92, -0.34600000000000003, 192.0, 126.5, 32.0, 14.0, 96.0, 122.5, 24.0, 0.0, 0.0, 0.0, 1.741902153878522E9, 0.0, 2025-03-13 16:42:33.878
10.0, -23835.632066205988, -22838.252525121276, -23849.825423935108, -17841.073017248276, -23900.988566993306, -23914.35491017758, -23923.317959704156, -15746.11106468571, -23806.28422573617, -23819.4717549648, -23891.243206410792, -22960.65067775854, -23903.134334461014, -23890.930281988418, -23933.085672031128, -16017.796518539968, -0.088, 0.92, -0.34600000000000003, 192.0, 0.0, 0.0, 0.0, 0.0, 0.0, 0.0, 0.0, 0.0, 0.0, 1.741902153881859E9, 0.0, 2025-03-13 16:42:33.881
12.0, -23834.335665027582, -22827.47898429382, -23848.57372624561, -17845.208089972508, -23899.64746232599, -23912.96910202135, -23922.088613759115, -15738.31030587081, -23805.546618169144, -23818.644740419953, -23890.14797093248, -22947.12787236308, -23902.217912938348, -23890.05856395466, -23927.16245975047, -15951.098913085332, -0.088, 0.92, -0.34600000000000003, 192.0, 0.0, 0.0, 0.0, 0.0, 0.0, 0.0, 0.0, 0.0, 0.0, 1.741902153885101E9, 0.0, 2025-03-13 16:42:33.885
14.0, -23833.843926649562, -22837.42551057643, -23847.970229145318, -17839.0613602473, -23899.02161348124, -23912.387956665512, -23921.440413169912, -15743.495910584441, -23803.42320244589, -23816.655435163433, -23888.449238353878, -22946.189099095955, -23900.139200704005, -23888.024555209227, -23930.58227665213, -16050.139492766797, -0.088, 0.92, -0.34600000000000003, 192.0, 0.0, 0.0, 0.0, 0.0, 0.0, 0.0, 0.0, 0.0, 0.0, 1.741902153888185E9, 0.0, 2025-03-13 16:42:33.888
16.0, -23834.38036851649, -22830.205897117365, -23848.5290227567, -17844.470482405482, -23899.558055348167, -23912.96910202135, -23922.110965503573, -15743.674724540082, -23804.09375477955, -23817.23658051927, -23888.91862498744, -22938.00836062531, -23900.787401293208, -23888.650404053977, -23930.4481661854, -16001.88207648779, -0.088, 0.92, -0.34600000000000003, 192.0, 0.0, 0.0, 0.0, 0.0, 0.0, 0.0, 0.0, 0.0, 0.0, 1.741902153925449E9, 0.0, 2025-03-13 16:42:33.925
18.0, -23832.77104291571, -22835.07857740862, -23847.00910413374, -17838.793139313835, -23897.948729747382, -23911.382128165023, -23920.389881180512, -15743.719428028993, -23804.071403035094, -23817.32598749709, -23888.806866265164, -22949.743026464348, -23900.943863504395, -23888.695107542888, -23926.201334738893, -15954.004639864523, -0.08600000000000001, 0.926, -0.336, 192.0, 126.5, 40.0, 14.0, 120.0, 122.5, 64.0, 0.0, 0.0, 0.0, 1.741902153927988E9, 0.0, 2025-03-13 16:42:33.927
20.0, -23832.547525471156, -22828.95419942787, -23846.740883200277, -17843.710523094003, -23897.747564047288, -23911.11390723156, -23920.501639902788, -15732.185927890056, -23801.7691733562, -23815.023757818195, -23886.750505775275, -22939.461224014907, -23898.552226847678, -23886.325822630624, -23929.509392918277, -16064.310498751462, -0.08600000000000001, 0.926, -0.336, 192.0, 0.0, 0.0, 0.0, 0.0, 0.0, 0.0, 0.0, 0.0, 0.0, 1.741902153930274E9, 0.0, 2025-03-13 16:42:33.930
22.0, -23833.173374315906, -22839.548926299685, -23847.366732045026, -17842.682342849057, -23898.30635765867, -23911.695052587398, -23920.680453858433, -15747.49687284194, -23803.512609423713, -23816.834249119074, -23888.5386453317, -22948.82660494168, -23900.25095942628, -23888.091610442592, -23931.297532474702, -16035.02971351501, -0.08600000000000001, 0.926, -0.336, 192.0, 0.0, 0.0, 0.0, 0.0, 0.0, 0.0, 0.0, 0.0, 0.0, 1.741902153932357E9, 0.0, 2025-03-13 16:42:33.932
24.0, -23832.301656282147, -22820.75110921277, -23846.539717500178, -17838.6590288471, -23897.52404660273, -23911.002148509284, -23920.16636373596, -15736.812738992303, -23802.6185396455, -23815.89547585195, -23887.421058108936, -22937.427215269472, -23899.35688964807, -23887.219892408837, -23926.29074171671, -15965.716953959103, -0.08600000000000001, 0.926, -0.336, 192.0, 0.0, 0.0, 0.0, 0.0, 0.0, 0.0, 0.0, 0.0, 0.0, 1.741902153934444E9, 0.0, 2025-03-13 16:42:33.934
26.0, -23833.79922316065, -22829.9376761839, -23847.970229145318, -17834.993342756432, -23898.97690999233, -23912.455011898877, -23921.082785258626, -15755.990535734956, -23802.260911734214, -23815.537847940668, -23887.01872670874, -22931.0122646108, -23898.97690999233, -23886.86226449755, -23925.575485894144, -15989.029823425988, -0.08600000000000001, 0.926, -0.336, 192.0, 0.0, 0.0, 0.0, 0.0, 0.0, 0.0, 0.0, 0.0, 0.0, 1.74190215393653E9, 0.0, 2025-03-13 16:42:33.936
28.0, -23833.553353971645, -22814.447917276375, -23847.836118678584, -17828.57839209776, -23898.865151270053, -23912.231494454325, -23921.462764914366, -15738.578526804273, -23804.294920479646, -23817.504801452735, -23889.320956387637, -22926.698377930927, -23900.988566993306, -23888.91862498744, -23932.05749178618, -16036.728446093613, -0.084, 0.928, -0.334, 192.0, 126.5, 48.0, 14.5, 0.0, 122.5, 72.0, 0.0, 0.0, 0.0, 1.74190215393863E9, 0.0, 2025-03-13 16:42:33.938
30.0, -23832.01108360423, -22834.162155885955, -23846.249144822257, -17834.546307867327, -23897.278177413726, -23910.622168853544, -23919.58521838012, -15748.860329253714, -23803.065574534605, -23816.3201589966, -23887.91279648695, -22920.372834250073, -23899.82627628163, -23887.62222380903, -23927.453032428388, -15974.456486041128, -0.084, 0.928, -0.334, 192.0, 0.0, 0.0, 0.0, 0.0, 0.0, 0.0, 0.0, 0.0, 0.0, 1.741902153985792E9, 0.0, 2025-03-13 16:42:33.985
32.0, -23829.440632991867, -22823.008635402755, -23843.6786942099, -17827.885488019645, -23894.68537505691, -23908.096421730093, -23917.30534044568, -15735.136358158155, -23800.606882644523, -23813.727356639785, -23885.364697619047, -22923.72559591837, -23897.322880902637, -23885.20823540786, -23924.88258181603, -16002.709091032637, -0.084, 0.928, -0.334, 192.0, 0.0, 0.0, 0.0, 0.0, 0.0, 0.0, 0.0, 0.0, 0.0, 1.741902153988737E9, 0.0, 2025-03-13 16:42:33.988
34.0, -23829.597095203055, -22834.117452397044, -23843.81280467663, -17826.186755441042, -23894.81948552364, -23908.185828707916, -23916.970064278852, -15750.693172299048, -23799.243426232748, -23812.498010694744, -23884.291813885193, -22919.657578427505, -23896.048831468685, -23883.889482484996, -23927.72125336185, -16064.17638828473, -0.084, 0.928, -0.334, 192.0, 0.0, 0.0, 0.0, 0.0, 0.0, 0.0, 0.0, 0.0, 0.0, 1.741902153990983E9, 0.0, 2025-03-13 16:42:33.990
36.0, -23830.33470277008, -22819.141783611987, -23844.57276398811, -17823.61630482868, -23895.579444835123, -23908.990491508306, -23918.087651501617, -15737.59505004824, -23800.115144266507, -23813.347376984046, -23884.984717963307, -22917.44475572643, -23896.92054950244, -23884.78355226321, -23926.335445205623, -15995.847105484858, -0.084, 0.928, -0.334, 192.0, 0.0, 0.0, 0.0, 0.0, 0.0, 0.0, 0.0, 0.0, 0.0, 1.741902153993029E9, 0.0, 2025-03-13 16:42:33.993
38.0, -23829.842964392064, -22835.726777997825, -23843.946915143362, -17827.125528708166, -23894.975947734827, -23908.342290919103, -23917.104174745582, -15749.217957165, -23799.71281286631, -23812.967397328306, -23884.291813885193, -22913.130869046556, -23896.384107635513, -23884.314165629647, -23921.55217189219, -15944.996886849034, -0.082, 0.93, -0.332, 192.0, 126.5, 56.0, 14.5, 8.0, 122.5, 80.0, 0.0, 0.0, 0.0, 1.741902153995062E9, 0.0, 2025-03-13 16:42:33.995
40.0, -23829.373577758503, -22831.301132595676, -23843.455176765347, -17821.448185616515, -23894.551264590176, -23907.939959518906, -23917.171229978947, -15731.20245113402, -23799.802219844132, -23812.967397328306, -23884.58238656311, -22922.272732528774, -23896.5405698467, -23884.358869118558, -23926.201334738893, -16027.564230866938, -0.082, 0.93, -0.332, 192.0, 0.0, 0.0, 0.0, 0.0, 0.0, 0.0, 0.0, 0.0, 0.0, 1.741902153997321E9, 0.0, 2025-03-13 16:42:33.997
42.0, -23829.932371369883, -22842.02996993422, -23844.036322121185, -17829.450110131518, -23895.15476169047, -23908.565808363655, -23917.148878234493, -15750.760227532415, -23799.824571588586, -23812.967397328306, -23884.694145285386, -22913.712014402394, -23896.607625080065, -23884.38122086301, -23927.251866728293, -16021.12692846381, -0.082, 0.93, -0.332, 192.0, 0.0, 0.0, 0.0, 0.0, 0.0, 0.0, 0.0, 0.0, 0.0, 1.741902153999416E9, 0.0, 2025-03-13 16:42:33.999
44.0, -23828.881839380487, -22831.904629695968, -23843.119900598515, -17832.28878167734, -23894.148933189983, -23907.559979863167, -23916.478325900833, -15740.076093682777, -23799.601054144034, -23812.833286861576, -23884.269462140735, -22929.469994243384, -23896.406459379967, -23884.15770341846, -23922.110965503573, -15953.155273575221, -0.082, 0.93, -0.332, 192.0, 0.0, 0.0, 0.0, 0.0, 0.0, 0.0, 0.0, 0.0, 0.0, 1.741902154001548E9, 0.0, 2025-03-13 16:42:34.001
46.0, -23829.775909158696, -22838.36428384355, -23843.991618632273, -17834.59101135624, -23895.132409946014, -23908.409346152468, -23917.104174745582, -15750.000268220934, -23798.796391343643, -23812.09567929455, -23883.688316784897, -22912.43796496844, -23895.53474134621, -23883.44244759589, -23924.614360882566, -16031.520489635526, -0.082, 0.93, -0.332, 192.0, 0.0, 0.0, 0.0, 0.0, 0.0, 0.0, 0.0, 0.0, 0.0, 1.741902154046177E9, 0.0, 2025-03-13 16:42:34.046
48.0, -23829.820612647607, -22831.010559917755, -23843.946915143362, -17835.976819512467, -23895.043002968196, -23908.364642663557, -23917.126526490036, -15749.173253676088, -23800.495123922246, -23813.682653150878, -23885.3870493635, -22929.984084365857, -23897.21112218036, -23885.141180174494, -23928.324750462147, -16041.332905451407, -0.09, 0.928, -0.334, 192.0, 126.5, 24.0, 14.5, 0.0, 122.5, 72.0, 0.0, 0.0, 0.0, 1.741902154048359E9, 0.0, 2025-03-13 16:42:34.048
50.0, -23828.613618447023, -22832.19520237389, -23842.829327920597, -17830.344179909727, -23893.858360512062, -23907.224703696338, -23915.897180544995, -15752.458960111018, -23798.10348726553, -23811.358071727525, -23882.928357473418, -22908.325243988664, -23894.931244245916, -23882.794247006685, -23922.937980048417, -15974.478837785584, -0.09, 0.928, -0.334, 192.0, 0.0, 0.0, 0.0, 0.0, 0.0, 0.0, 0.0, 0.0, 0.0, 1.741902154050626E9, 0.0, 2025-03-13 16:42:34.050
52.0, -23828.47950798029, -22834.47508030833, -23842.561106987134, -17825.650313574115, -23893.657194811964, -23907.06824148515, -23915.87482880054, -15746.423989108085, -23799.6681093774, -23812.945045583852, -23884.560034818656, -22922.138622062044, -23896.5405698467, -23884.3365173741, -23923.11679400406, -15973.897692429746, -0.09, 0.928, -0.334, 192.0, 0.0, 0.0, 0.0, 0.0, 0.0, 0.0, 0.0, 0.0, 0.0, 1.741902154052722E9, 0.0, 2025-03-13 16:42:34.052
54.0, -23828.077176580093, -22835.302094853174, -23842.2258308203, -17834.233383444953, -23893.25486341177, -23906.688261829408, -23915.24897995579, -15752.078980455279, -23797.27647272068, -23810.441650204855, -23882.213101650847, -22911.946226590422, -23894.01482272325, -23881.877825484018, -23925.374320194045, -16045.020943286532, -0.09, 0.928, -0.334, 192.0, 0.0, 0.0, 0.0, 0.0, 0.0, 0.0, 0.0, 0.0, 0.0, 1.741902154054933E9, 0.0, 2025-03-13 16:42:34.054
56.0, -23826.691368423864, -22841.270010622742, -23840.884726152985, -17831.171194454575, -23892.00316572227, -23905.391860651, -23913.907875288474, -15751.944869988547, -23797.835266332062, -23811.067499049605, -23882.704840028866, -22925.826659897168, -23894.640671568, -23882.48132258431, -23922.625055626042, -15976.691660486658, -0.08499999999999999, 0.926, -0.337, 192.0, 126.5, 64.0, 14.0, 112.0, 122.5, 48.0, 0.0, 0.0, 0.0, 1.741902154057014E9, 0.0, 2025-03-13 16:42:34.057
58.0, -23825.99846434575, -22832.731644240816, -23840.258877308235, -17828.779557797858, -23891.243206410792, -23904.698956572887, -23913.416136910455, -15747.78744551986, -23796.24829247574, -23809.413469959913, -23880.894348727983, -22905.687738142937, -23893.076049456125, -23880.894348727983, -23920.434584669423, -15999.490439831072, -0.08499999999999999, 0.926, -0.337, 192.0, 0.0, 0.0, 0.0, 0.0, 0.0, 0.0, 0.0, 0.0, 0.0, 1.74190215405928E9, 0.0, 2025-03-13 16:42:34.059
60.0, -23826.780775401687, -22842.633467034517, -23840.929429641896, -17831.506470621403, -23892.047869211183, -23905.436564139913, -23913.997282266293, -15754.090637456256, -23796.315347709104, -23809.52522868219, -23881.29668012818, -22922.38449125105, -23893.120752945037, -23880.96140396135, -23924.45789867138, -16051.860577089856, -0.08499999999999999, 0.926, -0.337, 192.0, 0.0, 0.0, 0.0, 0.0, 0.0, 0.0, 0.0, 0.0, 0.0, 1.74190215410651E9, 0.0, 2025-03-13 16:42:34.106
62.0, -23827.540734713166, -22837.17964138742, -23841.689388953375, -17834.211031700495, -23892.763125033754, -23906.084764729116, -23914.623131111042, -15754.492968856452, -23797.321176209593, -23810.57576067159, -23882.190749906393, -22911.16391553449, -23894.171284934437, -23881.944880717383, -23922.893276559505, -15982.9725006786, -0.08499999999999999, 0.926, -0.337, 192.0, 0.0, 0.0, 0.0, 0.0, 0.0, 0.0, 0.0, 0.0, 0.0, 1.741902154108814E9, 0.0, 2025-03-13 16:42:34.108
64.0, -23826.19963004585, -22840.152423399977, -23840.37063603051, -17823.52689785086, -23891.332613388615, -23904.7436600618, -23913.34908167709, -15752.816588022304, -23797.05295527613, -23810.24048450476, -23881.67665978392, -22923.05504358471, -23893.83600876761, -23881.67665978392, -23919.31699744666, -15952.507072986016, -0.08499999999999999, 0.926, -0.337, 192.0, 0.0, 0.0, 0.0, 0.0, 0.0, 0.0, 0.0, 0.0, 0.0, 1.741902154110945E9, 0.0, 2025-03-13 16:42:34.110
66.0, -23825.059691078626, -22832.776347729727, -23839.230697063293, -17828.488985119937, -23890.326784888126, -23903.715479816852, -23912.656177598976, -15741.663067539104, -23795.309519208615, -23808.497048437246, -23880.31320337215, -22907.76645037728, -23892.20433142237, -23880.11203767205, -23923.563828893166, -16072.42418198874, -0.08549999999999999, 0.926, -0.3365, 192.0, 126.5, 40.0, 14.0, 120.0, 122.5, 64.0, 0.0, 0.0, 0.0, 1.741902154113035E9, 0.0, 2025-03-13 16:42:34.113
68.0, -23825.730243412287, -22842.588763545606, -23839.923601141407, -17833.831052044756, -23890.97498547733, -23904.386032150513, -23912.946750276897, -15751.944869988547, -23795.063650019605, -23808.3182344816, -23879.955575460863, -22914.82960162516, -23891.891406999996, -23879.799113249675, -23922.60270388159, -16023.719730820625, -0.08549999999999999, 0.926, -0.3365, 192.0, 0.0, 0.0, 0.0, 0.0, 0.0, 0.0, 0.0, 0.0, 0.0, 1.741902154115336E9, 0.0, 2025-03-13 16:42:34.115
70.0, -23826.467850979312, -22834.117452397044, -23840.705912197343, -17835.798005556822, -23891.667889555443, -23905.10128797308, -23914.109040988573, -15737.840919237247, -23796.09183026455, -23809.212304259814, -23880.693183027888, -22910.29219750073, -23892.897235500484, -23880.715534772342, -23918.825259068642, -15950.763636918502, -0.08549999999999999, 0.926, -0.3365, 192.0, 0.0, 0.0, 0.0, 0.0, 0.0, 0.0, 0.0, 0.0, 0.0, 1.741902154117427E9, 0.0, 2025-03-13 16:42:34.117
72.0, -23826.80312714614, -22842.566411801152, -23841.085891853083, -17828.176060697562, -23892.092572700094, -23905.458915884366, -23914.265503199756, -15748.636811809161, -23797.142362253948, -23810.396946715948, -23881.855473739564, -22916.170706292476, -23893.992470978796, -23881.810770250653, -23919.36170093557, -15962.63241322427, -0.08549999999999999, 0.926, -0.3365, 192.0, 0.0, 0.0, 0.0, 0.0, 0.0, 0.0, 0.0, 0.0, 0.0, 1.741902154119534E9, 0.0, 2025-03-13 16:42:34.119
74.0, -23827.697196924353, -22832.17285062943, -23841.935258142385, -17836.82618580177, -23892.986642478307, -23906.330633918125, -23915.226628211338, -15746.11106468571, -23797.27647272068, -23810.396946715948, -23882.280156884215, -22912.549723690718, -23894.171284934437, -23881.877825484018, -23925.329616705134, -16035.32028619293, -0.08549999999999999, 0.926, -0.3365, 192.0, 0.0, 0.0, 0.0, 0.0, 0.0, 0.0, 0.0, 0.0, 0.0, 1.741902154121657E9, 0.0, 2025-03-13 16:42:34.121
76.0, -23827.22781029079, -22845.829766491624, -23841.28705755318, -17837.161461968597, -23892.517255844745, -23905.883599029017, -23913.527895632735, -15768.64162309666, -23796.829437831573, -23809.99461531575, -23881.788418506196, -22915.522505703273, -23893.63484306751, -23881.47549408382, -23922.937980048417, -15989.052175170444, -0.08374999999999999, 0.926, -0.33625000000000005, 192.0, 126.5, 56.0, 14.0, 120.0, 122.5, 64.0, 0.0, 0.0, 0.0, 1.741902154166819E9, 0.0, 2025-03-13 16:42:34.166
78.0, -23826.4231474904, -22832.0387401627, -23840.5270982417, -17827.930191508556, -23891.645537810986, -23904.989529250804, -23913.706709588376, -15748.1674251756, -23797.924673309884, -23811.17925777188, -23882.54837781768, -22919.277598771765, -23894.73007854582, -23882.52602607322, -23918.557038135175, -15935.698561155627, -0.08374999999999999, 0.926, -0.33625000000000005, 192.0, 0.0, 0.0, 0.0, 0.0, 0.0, 0.0, 0.0, 0.0, 0.0, 1.741902154169212E9, 0.0, 2025-03-13 16:42:34.169
80.0, -23822.690406166366, -22844.019275190745, -23836.77200517321, -17833.026389244365, -23887.91279648695, -23901.234436182312, -23908.990491508306, -15761.399657893142, -23794.12487675248, -23807.401812958935, -23879.217967893837, -22923.703244173914, -23890.97498547733, -23878.81563649364, -23921.887448059017, -16057.359106225862, -0.08374999999999999, 0.926, -0.33625000000000005, 192.0, 0.0, 0.0, 0.0, 0.0, 0.0, 0.0, 0.0, 0.0, 0.0, 1.741902154171312E9, 0.0, 2025-03-13 16:42:34.171
82.0, -23820.946970098852, -22831.256429106765, -23835.162679572426, -17840.33540968125, -23886.19171216389, -23899.58040709262, -23908.051718241182, -15747.228651908477, -23791.50972265121, -23804.764307113208, -23876.40164809247, -22929.671159943482, -23888.29277614269, -23876.15577890346, -23918.758203835274, -16007.492364346072, -0.08374999999999999, 0.926, -0.33625000000000005, 192.0, 0.0, 0.0, 0.0, 0.0, 0.0, 0.0, 0.0, 0.0, 0.0, 1.741902154173381E9, 0.0, 2025-03-13 16:42:34.173
84.0, -23822.28807476617, -22839.124243155034, -23836.5261359842, -17843.844633560733, -23887.62222380903, -23900.943863504395, -23908.58816010811, -15765.400620150642, -23791.174446484383, -23804.540789668656, -23875.97696494782, -22929.715863432393, -23888.002203464774, -23875.865206225542, -23914.891352044506, -15953.870529397791, -0.08374999999999999, 0.926, -0.33625000000000005, 192.0, 0.0, 0.0, 0.0, 0.0, 0.0, 0.0, 0.0, 0.0, 0.0, 1.741902154175514E9, 0.0, 2025-03-13 16:42:34.175
86.0, -23821.03637707667, -22820.549943512673, -23835.185031316883, -17827.61726708618, -23886.348174375078, -23899.64746232599, -23908.16347696346, -15747.854500753225, -23792.7167168518, -23805.971301313795, -23877.519235315234, -22931.191078566444, -23889.54447383219, -23877.3851248485, -23917.461802656868, -16007.849992257357, -0.083875, 0.926, -0.337125, 192.0, 126.5, 48.0, 14.0, 120.0, 122.5, 56.0, 0.0, 0.0, 0.0, 1.741902154177638E9, 0.0, 2025-03-13 16:42:34.177
88.0, -23821.259894521227, -22836.12910939802, -23835.319141783613, -17834.43454914505, -23886.571691819634, -23899.848628026084, -23906.95648276287, -15771.614405109216, -23789.788638328155, -23803.04322279015, -23874.97113644733, -22927.59244770914, -23886.61639530854, -23874.47939806931, -23918.333520690623, -16066.724487152636, -0.083875, 0.926, -0.337125, 192.0, 0.0, 0.0, 0.0, 0.0, 0.0, 0.0, 0.0, 0.0, 0.0, 1.741902154179896E9, 0.0, 2025-03-13 16:42:34.179
90.0, -23824.478545722788, -22829.065958150146, -23838.58249647409, -17842.548232382327, -23889.76799127674, -23903.089630972103, -23910.845686298097, -15765.847655039748, -23793.27551046318, -23806.46303969181, -23878.234491137802, -22951.330000320675, -23890.10326744357, -23877.87686322652, -23920.076956758137, -16002.351463121351, -0.083875, 0.926, -0.337125, 192.0, 0.0, 0.0, 0.0, 0.0, 0.0, 0.0, 0.0, 0.0, 0.0, 1.741902154226086E9, 0.0, 2025-03-13 16:42:34.226
92.0, -23823.830345133585, -22835.927943697923, -23837.934295884883, -17840.49187189244, -23889.09743894308, -23902.50848561627, -23909.750450819785, -15770.854445797737, -23794.504856408224, -23807.781792614674, -23879.39678184948, -22947.798424696735, -23891.35496513307, -23879.10620917156, -23917.327692190134, -15948.215538050597, -0.083875, 0.926, -0.337125, 192.0, 0.0, 0.0, 0.0, 0.0, 0.0, 0.0, 0.0, 0.0, 0.0, 1.741902154228252E9, 0.0, 2025-03-13 16:42:34.228
94.0, -23823.38331024448, -22822.449841791375, -23837.48726099578, -17822.47636586146, -23888.62805230952, -23901.949692004884, -23910.242189197805, -15753.621250822694, -23793.32021395209, -23806.440687947357, -23878.05567718216, -22948.40192179703, -23890.036212210205, -23877.83215973761, -23917.819430568154, -16004.273713144508, -0.083875, 0.926, -0.337125, 192.0, 0.0, 0.0, 0.0, 0.0, 0.0, 0.0, 0.0, 0.0, 0.0, 1.741902154230358E9, 0.0, 2025-03-13 16:42:34.230
96.0, -23823.360958500023, -22828.95419942787, -23837.464909251325, -17827.930191508556, -23888.7398110318, -23901.972043749338, -23909.526933375233, -15764.037163738867, -23793.431972674367, -23806.597150158545, -23878.4356568379, -22939.237706570355, -23890.192674421392, -23877.988621948796, -23921.909799803474, -16064.668126662747, -0.0839375, 0.924, -0.3375625, 192.0, 126.5, 48.0, 14.0, 104.0, 122.5, 56.0, 0.0, 0.0, 0.0, 1.741902154232473E9, 0.0, 2025-03-13 16:42:34.232
98.0, -23822.75746139973, -22833.37984483002, -23836.86141215103, -17829.85244153171, -23888.06925869814, -23901.323843160135, -23908.96813976385, -15763.768942805404, -23793.431972674367, -23806.552446669633, -23878.30154637117, -22959.39898006904, -23890.215026165846, -23877.988621948796, -23920.054605013684, -15999.468088086616, -0.0839375, 0.924, -0.3375625, 192.0, 0.0, 0.0, 0.0, 0.0, 0.0, 0.0, 0.0, 0.0, 0.0, 1.741902154234794E9, 0.0, 2025-03-13 16:42:34.234
100.0, -23822.064557321617, -22828.395405816485, -23836.213211561826, -17826.298514163318, -23887.398706364478, -23900.742697804297, -23908.275235685735, -15764.93123351708, -23791.822647073586, -23805.010176302218, -23876.379296348012, -22943.417482783498, -23888.695107542888, -23876.40164809247, -23912.96910202135, -15931.183508775654, -0.0839375, 0.924, -0.3375625, 192.0, 0.0, 0.0, 0.0, 0.0, 0.0, 0.0, 0.0, 0.0, 0.0, 1.741902154236869E9, 0.0, 2025-03-13 16:42:34.236
102.0, -23821.639874176966, -22828.08248139411, -23835.72147318381, -17819.056548959798, -23886.88461624201, -23900.273311170735, -23908.342290919103, -15755.834073523769, -23792.403792429424, -23805.65837689142, -23877.295717870682, -22949.16188110851, -23889.276252898726, -23877.049848681672, -23918.221761968347, -16010.509849847538, -0.0839375, 0.924, -0.3375625, 192.0, 0.0, 0.0, 0.0, 0.0, 0.0, 0.0, 0.0, 0.0, 0.0, 1.741902154238951E9, 0.0, 2025-03-13 16:42:34.238
104.0, -23821.14813579895, -22823.030987147213, -23835.363845272524, -17821.20231642751, -23886.549340075177, -23899.893331514995, -23907.850552541084, -15755.45409386803, -23790.526245895177, -23803.75847861272, -23875.507578314257, -22933.761529178802, -23887.398706364478, -23875.10524691406, -23918.244113712804, -16014.510812105038, -0.0839375, 0.924, -0.3375625, 192.0, 0.0, 0.0, 0.0, 0.0, 0.0, 0.0, 0.0, 0.0, 0.0, 1.741902154241021E9, 0.0, 2025-03-13 16:42:34.241
106.0, -23821.930446854883, -22829.46828955034, -23835.989694117274, -17824.24215367343, -23887.286947642202, -23900.67564257093, -23908.02936649673, -15766.384096906675, -23791.979109284774, -23805.27839723568, -23876.75927600375, -22948.267811330297, -23888.71745928734, -23876.62516553702, -23916.031291011728, -15960.240776567553, -0.08496875000000001, 0.923, -0.33678125000000003, 192.0, 126.5, 40.0, 14.0, 104.0, 122.5, 64.0, 0.0, 0.0, 0.0, 1.741902154285941E9, 0.0, 2025-03-13 16:42:34.285
108.0, -23819.270589264703, -22822.76276621375, -23833.463946993823, -17828.399578142118, -23884.716497029844, -23898.01578498075, -23905.704785073376, -15760.639698581661, -23790.66035636191, -23803.981996057275, -23875.239357380793, -22940.28823855975, -23887.44340985339, -23875.32876435861, -23910.93509327592, -15930.423549464173, -0.08496875000000001, 0.923, -0.33678125000000003, 192.0, 0.0, 0.0, 0.0, 0.0, 0.0, 0.0, 0.0, 0.0, 0.0, 1.741902154288311E9, 0.0, 2025-03-13 16:42:34.288
110.0, -23820.343472998557, -22828.50716453876, -23834.402720260947, -17816.70961579199, -23885.63291855251, -23899.088668714605, -23906.844724040595, -15757.845730524747, -23789.922748794885, -23803.24438849025, -23874.948784702872, -22937.00253212482, -23886.72815403082, -23874.591156791586, -23917.998244523795, -16046.362047953851, -0.08496875000000001, 0.923, -0.33678125000000003, 192.0, 0.0, 0.0, 0.0, 0.0, 0.0, 0.0, 0.0, 0.0, 0.0, 1.741902154290464E9, 0.0, 2025-03-13 16:42:34.290
112.0, -23819.516458453712, -22817.17483009992, -23833.709816182833, -17814.80971751329, -23884.87295924103, -23898.284005914215, -23906.554151362678, -15748.390942620152, -23789.922748794885, -23803.19968500134, -23874.837025980596, -22926.318398275187, -23886.661098797453, -23874.568805047133, -23916.29951194519, -15986.168800135709, -0.08496875000000001, 0.923, -0.33678125000000003, 192.0, 0.0, 0.0, 0.0, 0.0, 0.0, 0.0, 0.0, 0.0, 0.0, 1.741902154292536E9, 0.0, 2025-03-13 16:42:34.292
114.0, -23819.22588577579, -22822.114565624546, -23833.329836527093, -17813.401557612608, -23884.5376830742, -23897.904026258475, -23905.816543795652, -15754.336506645264, -23789.878045305974, -23803.087926279062, -23874.434694580403, -22938.835375170158, -23886.504636586265, -23874.47939806931, -23911.896218287497, -15938.246660023531, -0.08496875000000001, 0.923, -0.33678125000000003, 192.0, 0.0, 0.0, 0.0, 0.0, 0.0, 0.0, 0.0, 0.0, 0.0, 1.74190215429465E9, 0.0, 2025-03-13 16:42:34.294
116.0, -23818.778850886687, -22814.157344598454, -23832.927505126896, -17814.25092390191, -23884.112999929548, -23897.456991369367, -23905.92830251793, -15742.557137317317, -23788.291071449647, -23801.545655911646, -23873.160645146447, -22928.330055276165, -23885.00706970776, -23872.892424212983, -23915.696014844896, -16047.814911343447, -0.087484375, 0.9245000000000001, -0.33839062500000006, 192.0, 126.5, 24.0, 14.0, 120.0, 122.5, 48.0, 0.0, 0.0, 0.0, 1.741902154296726E9, 0.0, 2025-03-13 16:42:34.296
118.0, -23820.455231720833, -22828.08248139411, -23834.536830727677, -17817.46957510347, -23885.655270296964, -23899.178075692427, -23906.934131018417, -15753.867120011702, -23790.03450751716, -23803.19968500134, -23874.97113644733, -22942.702226960926, -23886.750505775275, -23874.54645330268, -23918.042948012706, -16034.31445769244, -0.087484375, 0.9245000000000001, -0.33839062500000006, 192.0, 0.0, 0.0, 0.0, 0.0, 0.0, 0.0, 0.0, 0.0, 0.0, 1.741902154299042E9, 0.0, 2025-03-13 16:42:34.299
120.0, -23820.321121254103, -22815.431394032406, -23834.581534216588, -17822.878697261654, -23885.722325530332, -23899.06631697015, -23907.87290428554, -15734.510509313406, -23790.146266239437, -23803.37849895698, -23874.97113644733, -22935.259096057307, -23886.88461624201, -23874.747619002774, -23915.003110766782, -15965.82871268138, -0.087484375, 0.9245000000000001, -0.33839062500000006, 192.0, 0.0, 0.0, 0.0, 0.0, 0.0, 0.0, 0.0, 0.0, 0.0, 1.741902154346192E9, 0.0, 2025-03-13 16:42:34.346
122.0, -23820.410528231925, -22829.356530828063, -23834.6262377055, -17822.8563455172, -23885.699973785875, -23899.088668714605, -23907.671738585443, -15744.188814662555, -23790.66035636191, -23803.981996057275, -23875.35111610307, -22937.136642591555, -23887.465761597847, -23875.306412614158, -23912.075032243138, -15938.358418745807, -0.087484375, 0.9245000000000001, -0.33839062500000006, 192.0, 0.0, 0.0, 0.0, 0.0, 0.0, 0.0, 0.0, 0.0, 0.0, 1.741902154348373E9, 0.0, 2025-03-13 16:42:34.348
124.0, -23821.394004987957, -22816.79485044418, -23835.699121439353, -17827.304342663807, -23886.705802286364, -23900.116848959547, -23909.169305463947, -15730.420140078086, -23790.570949384088, -23803.84788559054, -23875.641688780986, -22938.522450747783, -23887.30929938666, -23875.194653891882, -23918.624093368544, -16040.014152528543, -0.087484375, 0.9245000000000001, -0.33839062500000006, 192.0, 0.0, 0.0, 0.0, 0.0, 0.0, 0.0, 0.0, 0.0, 0.0, 1.741902154350488E9, 0.0, 2025-03-13 16:42:34.350
126.0, -23822.176316043893, -22824.595609259082, -23836.28026679519, -17827.706674064004, -23887.421058108936, -23900.83210478212, -23909.415174652957, -15745.105236185222, -23792.157923240415, -23805.501914680233, -23877.228662637313, -22938.790671681247, -23888.96332847635, -23876.78162774821, -23919.138183491013, -15998.26109388603, -0.0877421875, 0.9272500000000001, -0.3381953125, 192.0, 126.5, 32.0, 14.5, 8.0, 122.5, 56.0, 0.0, 0.0, 0.0, 1.741902154352608E9, 0.0, 2025-03-13 16:42:34.352
128.0, -23819.583513687077, -22818.828859189613, -23833.82157490511, -17830.210069442997, -23884.82825575212, -23898.239302425303, -23907.291758929703, -15729.861346466703, -23790.548597639634, -23803.713775123808, -23875.39581959198, -22937.941305391945, -23887.286947642202, -23875.194653891882, -23912.767936321252, -15940.325372257874, -0.0877421875, 0.9272500000000001, -0.3381953125, 192.0, 0.0, 0.0, 0.0, 0.0, 0.0, 0.0, 0.0, 0.0, 0.0, 1.741902154354871E9, 0.0, 2025-03-13 16:42:34.354
130.0, -23819.114127053515, -22821.84634469108, -23833.374540016, -17821.112909449686, -23884.358869118558, -23897.76991579174, -23906.554151362678, -15736.924497714579, -23789.699231350332, -23802.886760578964, -23874.54645330268, -22938.611857725606, -23886.549340075177, -23874.322935858123, -23912.522067132246, -15971.528407517482, -0.0877421875, 0.9272500000000001, -0.3381953125, 192.0, 0.0, 0.0, 0.0, 0.0, 0.0, 0.0, 0.0, 0.0, 0.0, 1.741902154356966E9, 0.0, 2025-03-13 16:42:34.356
132.0, -23818.17535378639, -22813.620902731527, -23832.36871151551, -17812.70865353449, -23883.375392362523, -23896.808790780164, -23906.10711647357, -15716.83027944926, -23788.402830171923, -23801.61271114501, -23873.518273057733, -22927.52539247577, -23885.230587152313, -23872.937127701894, -23916.657139856477, -16045.669143875737, -0.0877421875, 0.9272500000000001, -0.3381953125, 192.0, 0.0, 0.0, 0.0, 0.0, 0.0, 0.0, 0.0, 0.0, 0.0, 1.741902154359069E9, 0.0, 2025-03-13 16:42:34.359
134.0, -23819.6729206649, -22823.925056925425, -23833.86627839402, -17814.541496579826, -23884.984717963307, -23898.39576463649, -23907.15764846297, -15738.243250637443, -23788.872216805485, -23802.082097778573, -23873.853549224565, -22920.752813905816, -23885.610566808056, -23873.451217824368, -23915.58425612262, -15993.947207206156, -0.0877421875, 0.9272500000000001, -0.3381953125, 192.0, 0.0, 0.0, 0.0, 0.0, 0.0, 0.0, 0.0, 0.0, 0.0, 1.741902154361128E9, 0.0, 2025-03-13 16:42:34.361
136.0, -23818.085946808573, -22811.251617819264, -23832.279304537693, -17802.158630151585, -23883.35304061807, -23896.71938380234, -23906.129468218027, -15716.047968393323, -23789.60982437251, -23802.685594878865, -23874.144121902482, -22917.44475572643, -23886.19171216389, -23874.05471492466, -23910.93509327592, -15938.045494323433, -0.08587109375, 0.924625, -0.33609765625, 192.0, 126.5, 48.0, 14.0, 104.0, 122.5, 72.0, 0.0, 0.0, 0.0, 1.741902154406506E9, 0.0, 2025-03-13 16:42:34.406
138.0, -23815.694310151855, -22821.0863853796, -23829.932371369883, -17799.588179539227, -23880.939052216894, -23894.4395058679, -23903.648424583487, -15719.803061461815, -23786.36882142649, -23799.489295421758, -23871.327802101114, -22904.413688708984, -23883.062467940148, -23870.947822445374, -23914.22079971085, -16046.60791714286, -0.08587109375, 0.924625, -0.33609765625, 192.0, 0.0, 0.0, 0.0, 0.0, 0.0, 0.0, 0.0, 0.0, 0.0, 1.741902154408899E9, 0.0, 2025-03-13 16:42:34.408
140.0, -23819.38234798698, -22813.777364942714, -23833.531002227188, -17793.061470158278, -23884.604738307567, -23897.993433236294, -23907.470572885344, -15706.906104911102, -23787.240539460247, -23800.38336519997, -23872.087761412593, -22907.520581188273, -23883.934185973907, -23871.752485245765, -23913.30437818818, -15986.124096646798, -0.08587109375, 0.924625, -0.33609765625, 192.0, 0.0, 0.0, 0.0, 0.0, 0.0, 0.0, 0.0, 0.0, 0.0, 1.741902154411128E9, 0.0, 2025-03-13 16:42:34.411
142.0, -23818.488278208766, -22821.555772013162, -23832.681635937886, -17786.42300205505, -23883.755372018262, -23897.16641869145, -23906.554151362678, -15715.086843381745, -23789.833341817062, -23803.020871045694, -23874.38999109149, -22888.700412356906, -23886.549340075177, -23874.38999109149, -23910.555113620176, -15926.444938951128, -0.08587109375, 0.924625, -0.33609765625, 192.0, 0.0, 0.0, 0.0, 0.0, 0.0, 0.0, 0.0, 0.0, 0.0, 1.741902154413212E9, 0.0, 2025-03-13 16:42:34.413
144.0, -23816.633083418976, -22813.017405631235, -23830.737034170277, -17779.29279557381, -23881.855473739564, -23895.31122390166, -23904.810715295163, -15696.400785017107, -23786.94996678233, -23800.09279252205, -23871.797188734676, -22890.868531569067, -23883.73302027381, -23871.596023034577, -23912.477363643335, -15998.372852608307, -0.08587109375, 0.924625, -0.33609765625, 192.0, 0.0, 0.0, 0.0, 0.0, 0.0, 0.0, 0.0, 0.0, 0.0, 1.741902154415317E9, 0.0, 2025-03-13 16:42:34.415
146.0, -23816.700138652344, -22820.46053653485, -23830.871144637007, -17781.975004908443, -23882.01193595075, -23895.422982623935, -23904.810715295163, -15706.101442110712, -23786.70409759332, -23799.95868205532, -23871.663078267942, -22874.216481949865, -23883.57655806262, -23871.327802101114, -23914.310206688668, -16011.06864345892, -0.084935546875, 0.9233125, -0.33404882812500003, 192.0, 126.5, 48.0, 14.0, 104.0, 122.5, 80.0, 0.0, 0.0, 0.0, 1.74190215441739E9, 0.0, 2025-03-13 16:42:34.417
148.0, -23817.057766563627, -22818.18065860041, -23831.228772548293, -17775.76121994987, -23882.30250862867, -23895.758258790764, -23905.16834320645, -15695.14908732761, -23787.262891204704, -23800.450420433335, -23871.86424396804, -22888.96863329037, -23883.934185973907, -23871.841892223587, -23910.085726986617, -15945.421569993685, -0.084935546875, 0.9233125, -0.33404882812500003, 192.0, 0.0, 0.0, 0.0, 0.0, 0.0, 0.0, 0.0, 0.0, 0.0, 1.741902154419639E9, 0.0, 2025-03-13 16:42:34.419
150.0, -23816.94600784135, -22806.46834450583, -23831.04995859265, -17775.42594378304, -23882.14604641748, -23895.579444835123, -23905.078936228627, -15696.646654206117, -23786.52528363768, -23799.869275077497, -23871.283098612203, -22868.360324902576, -23883.285985384704, -23871.171339889926, -23911.44918339839, -16000.205695653642, -0.084935546875, 0.9233125, -0.33404882812500003, 192.0, 0.0, 0.0, 0.0, 0.0, 0.0, 0.0, 0.0, 0.0, 0.0, 1.741902154466799E9, 0.0, 2025-03-13 16:42:34.466
152.0, -23816.655435163433, -22809.12820209601, -23830.71468242582, -17777.527007761837, -23881.900177228472, -23895.2888721572, -23904.698956572887, -15699.86530540768, -23787.821684816085, -23801.120972766992, -23872.803017235165, -22877.05515349569, -23884.716497029844, -23872.44538932388, -23915.383090422525, -16017.394187139773, -0.084935546875, 0.9233125, -0.33404882812500003, 192.0, 0.0, 0.0, 0.0, 0.0, 0.0, 0.0, 0.0, 0.0, 0.0, 1.74190215446901E9, 0.0, 2025-03-13 16:42:34.469
154.0, -23815.96253108532, -22808.681167206905, -23830.08883358107, -17784.79132470981, -23881.29668012818, -23894.68537505691, -23903.91664551695, -15698.546552484817, -23785.69826909283, -23798.90815006592, -23870.478435811812, -22864.985211489824, -23882.503674328767, -23870.38902883399, -23909.07989848613, -15947.165006061197, -0.084935546875, 0.9233125, -0.33404882812500003, 192.0, 0.0, 0.0, 0.0, 0.0, 0.0, 0.0, 0.0, 0.0, 0.0, 1.741902154471121E9, 0.0, 2025-03-13 16:42:34.471
156.0, -23815.157868284925, -22809.59758872957, -23829.23946729177, -17781.013879896866, -23880.469665583332, -23893.858360512062, -23903.11198271656, -15694.500886738408, -23786.234710959758, -23799.243426232748, -23870.81371197864, -22880.027935508246, -23882.928357473418, -23870.81371197864, -23908.990491508306, -15955.748075932037, -0.0844677734375, 0.92265625, -0.33202441406250005, 192.0, 126.5, 48.0, 14.0, 104.0, 122.5, 88.0, 0.0, 0.0, 0.0, 1.741902154473234E9, 0.0, 2025-03-13 16:42:34.473
158.0, -23816.454269463335, -22806.736565439292, -23830.58057195909, -17792.99441492491, -23881.766066761742, -23895.24416866829, -23904.475439128335, -15698.077165851257, -23785.452399903825, -23798.617577388, -23870.38902883399, -22865.47694986784, -23882.235453395304, -23870.143159644984, -23913.483192143824, -16030.648771601771, -0.0844677734375, 0.92265625, -0.33202441406250005, 192.0, 0.0, 0.0, 0.0, 0.0, 0.0, 0.0, 0.0, 0.0, 0.0, 1.741902154475485E9, 0.0, 2025-03-13 16:42:34.475
160.0, -23814.174391528893, -22815.1855248434, -23828.323045769102, -17786.825333455246, -23879.463837082843, -23892.852532011573, -23902.217912938348, -15695.462011749985, -23785.206530714815, -23798.28230122117, -23870.00904917825, -22880.787894819725, -23881.855473739564, -23869.83023522261, -23910.68922408691, -15973.048326140444, -0.0844677734375, 0.92265625, -0.33202441406250005, 192.0, 0.0, 0.0, 0.0, 0.0, 0.0, 0.0, 0.0, 0.0, 0.0, 1.741902154477607E9, 0.0, 2025-03-13 16:42:34.477
162.0, -23815.80606887413, -22804.635501460496, -23829.91001962543, -17779.47160952945, -23881.05081093917, -23894.506561101265, -23903.849590283586, -15685.828409889747, -23785.65356560392, -23798.84109483255, -23870.232566622803, -22868.0474004802, -23882.34721211758, -23870.321973600625, -23908.00701475227, -15954.943413131645, -0.0844677734375, 0.92265625, -0.33202441406250005, 192.0, 0.0, 0.0, 0.0, 0.0, 0.0, 0.0, 0.0, 0.0, 0.0, 1.741902154479785E9, 0.0, 2025-03-13 16:42:34.479
164.0, -23815.671958407398, -22821.645178990984, -23829.753557414242, -17789.61930151216, -23880.91670047244, -23894.26069191226, -23903.715479816852, -15699.820601918771, -23785.742972581742, -23798.90815006592, -23870.67960151191, -22883.224234965353, -23882.436619095402, -23870.4337323229, -23913.97493052184, -16052.285260234506, -0.0844677734375, 0.92265625, -0.33202441406250005, 192.0, 0.0, 0.0, 0.0, 0.0, 0.0, 0.0, 0.0, 0.0, 0.0, 1.741902154481901E9, 0.0, 2025-03-13 16:42:34.481
166.0, -23816.789545630163, -22810.22343757432, -23830.848792892553, -17792.48032480244, -23882.034287695205, -23895.44533436839, -23904.87777052853, -15691.05871809229, -23786.078248748574, -23799.154019254926, -23870.925470700917, -22877.14456047351, -23882.77189526223, -23870.612546278542, -23912.3432531766, -15983.665404756715, -0.08423388671875001, 0.924328125, -0.33201220703125, 192.0, 126.5, 48.0, 14.0, 120.0, 122.5, 80.0, 0.0, 0.0, 0.0, 1.741902154527088E9, 0.0, 2025-03-13 16:42:34.527
168.0, -23815.850772363043, -22817.398347544473, -23829.887667880976, -17792.167400380065, -23881.09551442808, -23894.528912845723, -23903.73783156131, -15707.956636900502, -23786.502931893225, -23799.53399891067, -23871.05958116765, -22884.274766954753, -23883.19657840688, -23870.947822445374, -23908.49875313029, -15934.268049510487, -0.08423388671875001, 0.924328125, -0.33201220703125, 192.0, 0.0, 0.0, 0.0, 0.0, 0.0, 0.0, 0.0, 0.0, 0.0, 1.741902154529437E9, 0.0, 2025-03-13 16:42:34.529
170.0, -23816.00723457423, -22799.472248491318, -23830.13353706998, -17785.752449721393, -23881.207273150358, -23894.68537505691, -23904.09545947259, -15689.874075636159, -23785.362992926002, -23798.572873899087, -23870.277270111714, -22874.864682539068, -23882.213101650847, -23870.00904917825, -23912.36560492106, -16030.246440201574, -0.08423388671875001, 0.924328125, -0.33201220703125, 192.0, 0.0, 0.0, 0.0, 0.0, 0.0, 0.0, 0.0, 0.0, 0.0, 1.741902154531532E9, 0.0, 2025-03-13 16:42:34.531
172.0, -23815.671958407398, -22822.583952258105, -23829.775909158696, -17793.91083644758, -23880.827293494618, -23894.350098890078, -23903.603721094576, -15713.54457301433, -23785.966490026294, -23799.198722743837, -23870.858415467552, -22881.033764008735, -23882.749543517773, -23870.545491045177, -23913.818468310652, -16020.970466252622, -0.08423388671875001, 0.924328125, -0.33201220703125, 192.0, 0.0, 0.0, 0.0, 0.0, 0.0, 0.0, 0.0, 0.0, 0.0, 1.741902154533627E9, 0.0, 2025-03-13 16:42:34.533
174.0, -23815.04610956265, -22807.31771079513, -23829.194763802858, -17790.356909079186, -23880.31320337215, -23893.791305278697, -23903.24609318329, -15698.166572829077, -23785.720620837288, -23798.99755704374, -23870.411380578447, -22883.96184253238, -23882.59308130659, -23870.321973600625, -23910.06337524216, -15957.223291066086, -0.08423388671875001, 0.924328125, -0.33201220703125, 192.0, 0.0, 0.0, 0.0, 0.0, 0.0, 0.0, 0.0, 0.0, 0.0, 1.741902154535725E9, 0.0, 2025-03-13 16:42:34.535
176.0, -23815.04610956265, -22814.69378646538, -23829.08300508058, -17782.667908986557, -23880.179092905415, -23893.67954655642, -23902.93316876092, -15715.48917478194, -23785.206530714815, -23798.46111517681, -23869.5843660336, -22874.81997905016, -23881.96723246184, -23869.673773011422, -23905.257750184268, -15918.24184873603, -0.085116943359375, 0.9261640625, -0.333006103515625, 192.0, 126.5, 40.0, 14.5, 0.0, 122.5, 72.0, 0.0, 0.0, 0.0, 1.741902154537832E9, 0.0, 2025-03-13 16:42:34.537
178.0, -23812.453307205833, -22799.31578628013, -23826.57960970159, -17785.528932276837, -23877.653345781964, -23891.10909594406, -23900.45212512638, -15700.222933318966, -23783.597205114034, -23796.85178957603, -23868.422075321923, -22872.0483627377, -23880.380258605514, -23868.131502644006, -23911.002148509284, -16024.904373276757, -0.085116943359375, 0.9261640625, -0.333006103515625, 192.0, 0.0, 0.0, 0.0, 0.0, 0.0, 0.0, 0.0, 0.0, 0.0, 1.741902154540116E9, 0.0, 2025-03-13 16:42:34.540
180.0, -23813.816763617608, -22818.270065578232, -23828.010121346728, -17796.414231826573, -23879.083857427104, -23892.517255844745, -23901.547360604687, -15722.597029518729, -23783.150170224926, -23796.47180992029, -23867.95268868836, -22873.747095316303, -23879.933223716405, -23867.706819499355, -23909.906913030973, -15990.370928093307, -0.085116943359375, 0.9261640625, -0.333006103515625, 192.0, 0.0, 0.0, 0.0, 0.0, 0.0, 0.0, 0.0, 0.0, 0.0, 1.741902154586553E9, 0.0, 2025-03-13 16:42:34.586
182.0, -23813.347376984046, -22806.222475316823, -23827.540734713166, -17796.57069403776, -23878.569767304634, -23892.070220955637, -23901.279139671224, -15705.028558376856, -23783.79837081413, -23797.164713998405, -23868.466778810835, -22887.783990834236, -23880.581424305612, -23868.377371833012, -23904.78836355071, -15925.595572661827, -0.085116943359375, 0.9261640625, -0.333006103515625, 192.0, 0.0, 0.0, 0.0, 0.0, 0.0, 0.0, 0.0, 0.0, 0.0, 1.741902154588835E9, 0.0, 2025-03-13 16:42:34.588
184.0, -23814.28615025117, -22812.682129464403, -23828.345397513556, -17791.787420724326, -23879.44148533839, -23892.87488375603, -23902.26261642726, -15708.470727022974, -23783.32898418057, -23796.56121689811, -23868.377371833012, -22866.795702790703, -23880.04498243868, -23867.95268868836, -23910.845686298097, -16050.564175911448, -0.085116943359375, 0.9261640625, -0.333006103515625, 192.0, 0.0, 0.0, 0.0, 0.0, 0.0, 0.0, 0.0, 0.0, 0.0, 1.741902154590976E9, 0.0, 2025-03-13 16:42:34.590
186.0, -23815.560199685122, -22808.167077084432, -23829.597095203055, -17794.71549924797, -23880.715534772342, -23894.193636678894, -23903.648424583487, -15692.1539535706, -23784.915958036898, -23798.125839009983, -23869.80788347815, -22882.643089609515, -23881.654308039466, -23869.5843660336, -23912.320901432147, -16008.185268424186, -0.0825584716796875, 0.92608203125, -0.3325030517578125, 192.0, 126.5, 64.0, 14.0, 120.0, 122.5, 80.0, 0.0, 0.0, 0.0, 1.741902154593061E9, 0.0, 2025-03-13 16:42:34.593
188.0, -23816.074289807595, -22821.689882479895, -23830.111185325528, -17790.33455733473, -23881.09551442808, -23894.640671568, -23903.983700750316, -15706.704939211004, -23786.011193515205, -23799.176370999383, -23870.746656745276, -22874.77527556125, -23882.838950495596, -23870.67960151191, -23910.39865140899, -15956.284517798964, -0.0825584716796875, 0.92608203125, -0.3325030517578125, 192.0, 0.0, 0.0, 0.0, 0.0, 0.0, 0.0, 0.0, 0.0, 0.0, 1.741902154595332E9, 0.0, 2025-03-13 16:42:34.595
190.0, -23814.599074673544, -22806.401289272464, -23828.7253771693, -17778.108153117675, -23879.754409760764, -23893.277215156224, -23902.709651316363, -15686.72247966796, -23785.877083048475, -23798.99755704374, -23870.545491045177, -22884.721801843858, -23882.615433051044, -23870.4337323229, -23909.21400895286, -15966.946299904144, -0.0825584716796875, 0.92608203125, -0.3325030517578125, 192.0, 0.0, 0.0, 0.0, 0.0, 0.0, 0.0, 0.0, 0.0, 0.0, 1.741902154597466E9, 0.0, 2025-03-13 16:42:34.597
192.0, -23814.66612990691, -22815.297283565676, -23828.747728913753, -17780.812714196767, -23879.86616848304, -23893.366622134046, -23902.642596083, -15701.094651352723, -23784.245405703237, -23797.343527954046, -23869.15968288895, -22865.633412079027, -23880.983755705805, -23868.77970323321, -23912.49971538779, -16052.218205001142, -0.0825584716796875, 0.92608203125, -0.3325030517578125, 192.0, 0.0, 0.0, 0.0, 0.0, 0.0, 0.0, 0.0, 0.0, 0.0, 1.741902154599589E9, 0.0, 2025-03-13 16:42:34.599
194.0, -23813.727356639785, -22814.246751576276, -23827.80895564663, -17786.355946821684, -23878.81563649364, -23892.40549712247, -23901.703822815874, -15696.937226884036, -23784.535978381155, -23797.723507609786, -23869.29379335568, -22884.118304743566, -23881.274328383726, -23869.114979400038, -23910.756279320274, -15985.833523968879, -0.0825584716796875, 0.92608203125, -0.3325030517578125, 192.0, 0.0, 0.0, 0.0, 0.0, 0.0, 0.0, 0.0, 0.0, 0.0, 1.741902154601702E9, 0.0, 2025-03-13 16:42:34.601
196.0, -23812.587417672567, -22810.60341723006, -23826.71372016832, -17779.65042348509, -23877.76510450424, -23891.243206410792, -23900.63093908202, -15695.372604772165, -23782.591376613545, -23795.734202353266, -23867.036267165695, -22862.61592657756, -23879.352078360567, -23867.237432865793, -23904.72130831734, -15936.704389656114, -0.08027923583984375, 0.9240410156250001, -0.3322515258789063, 192.0, 126.5, 72.0, 14.0, 104.0, 122.5, 80.0, 0.0, 0.0, 0.0, 1.741902154646282E9, 0.0, 2025-03-13 16:42:34.646
198.0, -23814.04028106216, -22813.66560622044, -23828.18893530237, -17780.633900241126, -23879.173264404926, -23892.606662822567, -23902.128505960525, -15694.657348949595, -23783.396039413936, -23796.47180992029, -23868.15385438846, -22872.651859837995, -23880.11203767205, -23867.930336943908, -23911.180962464925, -16039.522414150528, -0.08027923583984375, 0.9240410156250001, -0.3322515258789063, 192.0, 0.0, 0.0, 0.0, 0.0, 0.0, 0.0, 0.0, 0.0, 0.0, 1.741902154648622E9, 0.0, 2025-03-13 16:42:34.648
200.0, -23811.156906027427, -22811.02810037471, -23825.23850503427, -17787.406478811085, -23876.356944603558, -23889.812694765653, -23899.15572394797, -15702.569866486772, -23782.949004524828, -23796.114182009005, -23867.796226477174, -22861.453635865884, -23879.776761505218, -23867.617412521533, -23909.415174652957, -15981.676099500191, -0.08027923583984375, 0.9240410156250001, -0.3322515258789063, 192.0, 0.0, 0.0, 0.0, 0.0, 0.0, 0.0, 0.0, 0.0, 0.0, 1.741902154650728E9, 0.0, 2025-03-13 16:42:34.650
202.0, -23811.782754872176, -22813.687957964892, -23825.86435387902, -17782.109115375177, -23876.982793448307, -23890.39384012149, -23899.759221048265, -15704.469764765474, -23781.026754501672, -23794.169580241392, -23865.650459009466, -22878.932700029934, -23877.87686322652, -23865.62810726501, -23903.849590283586, -15940.995924591534, -0.08027923583984375, 0.9240410156250001, -0.3322515258789063, 192.0, 0.0, 0.0, 0.0, 0.0, 0.0, 0.0, 0.0, 0.0, 0.0, 1.741902154652804E9, 0.0, 2025-03-13 16:42:34.652
204.0, -23810.687519393865, -22805.32840553861, -23824.90322886744, -17784.79132470981, -23875.999316692272, -23889.388011621002, -23898.753392547776, -15698.971235629468, -23781.13851322395, -23794.415449430402, -23866.142197387482, -22866.058095223678, -23878.05567718216, -23865.829272965108, -23909.281064186223, -16046.250289231575, -0.08027923583984375, 0.9240410156250001, -0.3322515258789063, 192.0, 0.0, 0.0, 0.0, 0.0, 0.0, 0.0, 0.0, 0.0, 0.0, 1.74190215465498E9, 0.0, 2025-03-13 16:42:34.654
206.0, -23811.492182194255, -22814.31380680964, -23825.707891667833, -17786.75827822188, -23876.669869025933, -23890.080915699116, -23899.423944881433, -15708.448375278518, -23781.13851322395, -23794.393097685945, -23865.985735176295, -22880.631432608538, -23877.921566715428, -23865.784569476196, -23907.939959518906, -15991.801439738447, -0.08113961791992189, 0.9260205078125001, -0.3331257629394532, 192.0, 126.5, 56.0, 14.5, 0.0, 122.5, 72.0, 0.0, 0.0, 0.0, 1.741902154657054E9, 0.0, 2025-03-13 16:42:34.657
208.0, -23811.38042347198, -22804.83666716059, -23825.5737812011, -17792.837952713722, -23876.513406814745, -23889.991508721294, -23899.312186159157, -15708.314264811786, -23781.742010324244, -23794.95189129733, -23866.34336308758, -22873.076542982646, -23878.502712071266, -23866.365714832034, -23902.82141003864, -15921.706369126603, -0.08113961791992189, 0.9260205078125001, -0.3331257629394532, 192.0, 0.0, 0.0, 0.0, 0.0, 0.0, 0.0, 0.0, 0.0, 0.0, 1.741902154659245E9, 0.0, 2025-03-13 16:42:34.659
210.0, -23810.75457462723, -22813.687957964892, -23824.90322886744, -17794.961368436976, -23875.95461320336, -23889.365659876545, -23898.708689058865, -15705.050910121312, -23780.93734752385, -23794.23663547476, -23865.87397645402, -22885.23589196633, -23877.76510450424, -23865.67281075392, -23907.761145563265, -16021.350445908362, -0.08113961791992189, 0.9260205078125001, -0.3331257629394532, 192.0, 0.0, 0.0, 0.0, 0.0, 0.0, 0.0, 0.0, 0.0, 0.0, 1.741902154706571E9, 0.0, 2025-03-13 16:42:34.706
212.0, -23809.659339148922, -22795.136010066988, -23823.830345133585, -17795.52016204836, -23874.859377725053, -23888.359831376056, -23897.658157069465, -15701.608741475195, -23780.266795190193, -23793.588434885554, -23865.158720631447, -22875.222310450354, -23877.094552170583, -23864.890499697984, -23907.336462418614, -15988.716899003613, -0.08113961791992189, 0.9260205078125001, -0.3331257629394532, 192.0, 0.0, 0.0, 0.0, 0.0, 0.0, 0.0, 0.0, 0.0, 0.0, 1.741902154708758E9, 0.0, 2025-03-13 16:42:34.708
214.0, -23809.257007748725, -22806.55775148365, -23823.495068966757, -17796.99537718241, -23874.54645330268, -23887.91279648695, -23896.831142524617, -15718.77488121687, -23779.484484134256, -23792.7167168518, -23864.175243875416, -22886.711107100382, -23876.178130647913, -23864.10818864205, -23902.530837360722, -15935.653857666715, -0.08113961791992189, 0.9260205078125001, -0.3331257629394532, 192.0, 0.0, 0.0, 0.0, 0.0, 0.0, 0.0, 0.0, 0.0, 0.0, 1.741902154710882E9, 0.0, 2025-03-13 16:42:34.710
216.0, -23810.128725782484, -22779.154512781446, -23824.366787000512, -17787.42883055554, -23875.39581959198, -23888.762162776253, -23898.14989544748, -15701.005244374901, -23779.79740855663, -23793.051993018627, -23864.599927020066, -22865.566356845662, -23876.602813792564, -23864.398761319968, -23906.263578684757, -16015.31547490543, -0.08056980895996094, 0.92801025390625, -0.33456288146972657, 192.0, 126.5, 64.0, 14.5, 8.0, 122.5, 64.0, 0.0, 0.0, 0.0, 1.741902154712995E9, 0.0, 2025-03-13 16:42:34.712
218.0, -23808.787621115163, -22798.801696157658, -23822.846868377554, -17793.32969109174, -23873.987659691295, -23887.398706364478, -23896.473514613335, -15718.283142838854, -23779.640946345444, -23792.962586040805, -23864.555223531155, -22876.026973250744, -23876.558110303657, -23864.376409575514, -23907.559979863167, -16012.432099870695, -0.08056980895996094, 0.92801025390625, -0.33456288146972657, 192.0, 0.0, 0.0, 0.0, 0.0, 0.0, 0.0, 0.0, 0.0, 0.0, 1.741902154715266E9, 0.0, 2025-03-13 16:42:34.715
220.0, -23806.798315858643, -22788.85516987505, -23820.879914865487, -17788.412307311573, -23871.998354434774, -23885.45410459687, -23894.551264590176, -15710.661197979594, -23777.51753062219, -23790.794466828644, -23862.118883385527, -22878.776237818747, -23874.34528760258, -23862.25299385226, -23901.07797397113, -15939.408950735207, -0.08056980895996094, 0.92801025390625, -0.33456288146972657, 192.0, 0.0, 0.0, 0.0, 0.0, 0.0, 0.0, 0.0, 0.0, 0.0, 1.741902154717351E9, 0.0, 2025-03-13 16:42:34.717
222.0, -23807.51357168121, -22803.160286326445, -23821.595170688055, -17788.47936254494, -23872.735962001796, -23886.124656930526, -23895.043002968196, -15722.619381263183, -23776.578757355066, -23789.788638328155, -23861.113054885038, -22891.270862969264, -23873.406514335456, -23861.20246186286, -23898.216950680846, -15933.888069854745, -0.08056980895996094, 0.92801025390625, -0.33456288146972657, 192.0, 0.0, 0.0, 0.0, 0.0, 0.0, 0.0, 0.0, 0.0, 0.0, 1.741902154719429E9, 0.0, 2025-03-13 16:42:34.719
224.0, -23806.999481558738, -22782.753143638747, -23821.170487543404, -17779.069278129253, -23872.28892711269, -23885.67762204142, -23894.975947734827, -15705.453241521507, -23777.539882366644, -23790.794466828644, -23862.4318078079, -22886.53229314474, -23874.34528760258, -23862.096531641073, -23905.704785073376, -16024.770262810025, -0.08056980895996094, 0.92801025390625, -0.33456288146972657, 192.0, 0.0, 0.0, 0.0, 0.0, 0.0, 0.0, 0.0, 0.0, 0.0, 1.741902154721538E9, 0.0, 2025-03-13 16:42:34.721
226.0, -23808.09471703705, -22801.79682991467, -23822.265723021716, -17784.590159009716, -23873.361810846545, -23886.77285751973, -23895.422982623935, -15729.570773788784, -23777.13755096645, -23790.32508019508, -23861.984772918793, -22886.48758965583, -23873.987659691295, -23861.71655198533, -23903.715479816852, -15977.921006431701, -0.07828490447998046, 0.9300051269531251, -0.3342814407348633, 192.0, 126.5, 80.0, 14.5, 16.0, 122.5, 72.0, 0.0, 0.0, 0.0, 1.741902154766592E9, 0.0, 2025-03-13 16:42:34.766
228.0, -23807.826496103586, -22790.75506815375, -23822.04220557716, -17778.778705451336, -23873.205348635358, -23886.549340075177, -23895.713555301852, -15712.337578813742, -23778.6127661005, -23791.84499881804, -23863.169415374927, -22897.39524095002, -23875.373467847523, -23863.169415374927, -23899.35688964807, -15915.20201149011, -0.07828490447998046, 0.9300051269531251, -0.3342814407348633, 192.0, 0.0, 0.0, 0.0, 0.0, 0.0, 0.0, 0.0, 0.0, 0.0, 1.741902154768954E9, 0.0, 2025-03-13 16:42:34.768
230.0, -23807.51357168121, -22799.628710702505, -23821.61752243251, -17779.583368251726, -23872.803017235165, -23886.124656930526, -23894.998299479284, -15724.1616516306, -23777.919862022383, -23791.129742995472, -23862.878842697006, -22890.309737957687, -23874.68056376941, -23862.521214785724, -23904.944825761897, -16022.043349986478, -0.07828490447998046, 0.9300051269531251, -0.3342814407348633, 192.0, 0.0, 0.0, 0.0, 0.0, 0.0, 0.0, 0.0, 0.0, 0.0, 1.741902154771076E9, 0.0, 2025-03-13 16:42:34.771
232.0, -23805.412507702415, -22782.21670177182, -23819.494106709255, -17779.42690604054, -23870.612546278542, -23883.97888946282, -23893.344270389593, -15704.53681999884, -23776.33288816606, -23789.520417394688, -23861.24716535177, -22897.35053746111, -23873.160645146447, -23860.934240929397, -23903.44725888339, -15989.87918971529, -0.07828490447998046, 0.9300051269531251, -0.3342814407348633, 192.0, 0.0, 0.0, 0.0, 0.0, 0.0, 0.0, 0.0, 0.0, 0.0, 1.741902154773159E9, 0.0, 2025-03-13 16:42:34.773
234.0, -23805.47956293578, -22795.717155422826, -23819.583513687077, -17776.588234494717, -23870.72430500082, -23884.224758651824, -23892.919587244938, -15723.06641615229, -23774.99178349874, -23788.246367960735, -23859.615488006533, -22882.91131054298, -23871.707781756853, -23859.593136262076, -23897.859322769564, -15929.797700619425, -0.07828490447998046, 0.9300051269531251, -0.3342814407348633, 192.0, 0.0, 0.0, 0.0, 0.0, 0.0, 0.0, 0.0, 0.0, 0.0, 1.741902154775258E9, 0.0, 2025-03-13 16:42:34.775
236.0, -23806.574798414087, -22785.94944309586, -23820.67874916539, -17773.90602516008, -23871.77483699022, -23885.230587152313, -23894.39480237899, -15707.844878178226, -23776.377591654968, -23789.587472628056, -23861.113054885038, -22896.188246749432, -23873.138293401993, -23860.95659267385, -23901.659119326963, -15984.06773615691, -0.07814245223999022, 0.9320025634765625, -0.3351407203674317, 192.0, 126.5, 72.0, 14.5, 24.0, 122.5, 64.0, 0.0, 0.0, 0.0, 1.741902154777359E9, 0.0, 2025-03-13 16:42:34.777
238.0, -23806.28422573617, -22801.0815740921, -23820.321121254103, -17783.539627020316, -23871.4842643123, -23884.91766272994, -23893.545436089687, -15725.860384209203, -23776.04231548814, -23789.22984471677, -23860.978944418308, -22888.611005379084, -23872.91477595744, -23860.57661301811, -23904.050755983684, -16013.013245226533, -0.07814245223999022, 0.9320025634765625, -0.3351407203674317, 192.0, 0.0, 0.0, 0.0, 0.0, 0.0, 0.0, 0.0, 0.0, 0.0, 1.741902154779572E9, 0.0, 2025-03-13 16:42:34.779
240.0, -23804.38432745747, -22795.1807135559, -23818.510629953224, -17788.99345266741, -23869.651421266964, -23883.062467940148, -23892.15962793346, -15712.024654391367, -23776.64581258843, -23789.85569356152, -23861.29186884068, -22903.407860208496, -23873.33945910209, -23861.20246186286, -23900.45212512638, -15944.460444982105, -0.07814245223999022, 0.9320025634765625, -0.3351407203674317, 192.0, 0.0, 0.0, 0.0, 0.0, 0.0, 0.0, 0.0, 0.0, 0.0, 1.741902154826351E9, 0.0, 2025-03-13 16:42:34.826
242.0, -23806.28422573617, -22795.85126588956, -23820.43287997638, -17787.09355438871, -23871.596023034577, -23884.91766272994, -23894.081877956614, -15715.332712570753, -23773.695382320333, -23786.860559804507, -23858.162624616936, -22889.236854223833, -23870.38902883399, -23858.140272872482, -23896.473514613335, -15949.601346206826, -0.07814245223999022, 0.9320025634765625, -0.3351407203674317, 192.0, 0.0, 0.0, 0.0, 0.0, 0.0, 0.0, 0.0, 0.0, 0.0, 1.741902154828559E9, 0.0, 2025-03-13 16:42:34.828
244.0, -23806.932426325373, -22799.293434535677, -23821.125784054493, -17788.0993828892, -23872.154816645958, -23885.521159830234, -23894.774782034732, -15710.527087512863, -23777.115199221993, -23790.392135428447, -23862.118883385527, -22897.976386305858, -23874.010011435752, -23861.694200240876, -23905.235398439814, -16027.899507033768, -0.07814245223999022, 0.9320025634765625, -0.3351407203674317, 192.0, 0.0, 0.0, 0.0, 0.0, 0.0, 0.0, 0.0, 0.0, 0.0, 1.741902154830669E9, 0.0, 2025-03-13 16:42:34.830
246.0, -23805.121935024494, -22806.490696250286, -23819.203534031338, -17792.346214335706, -23870.25491836726, -23883.643613295986, -23892.83018026712, -15714.259828836899, -23775.90820502141, -23789.140437738948, -23860.82248220712, -22886.331127444642, -23872.713610257342, -23860.48720604029, -23902.48613387181, -15974.188265107665, -0.07707122611999512, 0.9310012817382813, -0.3345703601837159, 192.0, 126.5, 80.0, 14.5, 8.0, 122.5, 72.0, 0.0, 0.0, 0.0, 1.741902154832873E9, 0.0, 2025-03-13 16:42:34.832
248.0, -23808.3182344816, -22804.389632271486, -23822.399833488445, -17784.165475865066, -23873.49592131328, -23886.951671475374, -23896.182941935414, -15704.000378131912, -23777.07049573308, -23790.32508019508, -23861.82831070761, -22903.09493578612, -23873.87590096902, -23861.62714500751, -23899.982738492818, -15934.424511721672, -0.07707122611999512, 0.9310012817382813, -0.3345703601837159, 192.0, 0.0, 0.0, 0.0, 0.0, 0.0, 0.0, 0.0, 0.0, 0.0, 1.741902154835131E9, 0.0, 2025-03-13 16:42:34.835
250.0, -23806.261873991716, -22798.04173684618, -23820.388176487468, -17781.438563041516, -23871.528967801212, -23884.96236621885, -23894.01482272325, -15709.096575867723, -23777.47282713328, -23790.816818573097, -23862.38710431899, -22875.1999587059, -23874.278232369215, -23862.05182815216, -23905.257750184268, -16058.141417281799, -0.07707122611999512, 0.9310012817382813, -0.3345703601837159, 192.0, 0.0, 0.0, 0.0, 0.0, 0.0, 0.0, 0.0, 0.0, 0.0, 1.741902154837224E9, 0.0, 2025-03-13 16:42:34.837
252.0, -23808.050013548138, -22800.388670013985, -23822.243371277258, -17783.338461320218, -23873.317107357634, -23886.839912753097, -23895.758258790764, -15714.72921547046, -23776.33288816606, -23789.65452786142, -23861.314220585136, -22887.24754896731, -23873.205348635358, -23861.045999651673, -23904.78836355071, -16042.875175818823, -0.07707122611999512, 0.9310012817382813, -0.3345703601837159, 192.0, 0.0, 0.0, 0.0, 0.0, 0.0, 0.0, 0.0, 0.0, 0.0, 1.741902154839213E9, 0.0, 2025-03-13 16:42:34.839
254.0, -23806.172467013894, -22796.924149623414, -23820.29876950965, -17792.145048635608, -23871.350153845568, -23884.96236621885, -23893.746601789786, -15719.288971339343, -23777.986917255752, -23791.263853462202, -23862.856490952552, -22874.864682539068, -23874.76997074723, -23862.610621763542, -23905.77184030674, -16001.83737299888, -0.07707122611999512, 0.9310012817382813, -0.3345703601837159, 192.0, 0.0, 0.0, 0.0, 0.0, 0.0, 0.0, 0.0, 0.0, 0.0, 1.741902154841297E9, 0.0, 2025-03-13 16:42:34.841
0.0, -23805.94894956934, -22810.245789318775, -23820.18701078737, -17797.19654288251, -23871.26074686775, -23884.805904007662, -23893.545436089687, -15720.607724262205, -23775.6623358324, -23788.961623783307, -23860.554261273654, -22893.170761247966, -23872.44538932388, -23860.3307438291, -23901.547360604687, -15965.068753369898, -0.08053561305999757, 0.9285006408691407, -0.3322851800918579, 192.0, 126.5, 48.0, 14.0, 120.0, 122.5, 88.0, 0.0, 0.0, 0.0, 1.741902154886634E9, 0.0, 2025-03-13 16:42:34.886
2.0, -23805.323100724592, -22793.526684466207, -23819.561161942624, -17793.03911841382, -23870.634898023, -23884.045944696183, -23893.321918645135, -15703.307474053798, -23776.198777699326, -23789.520417394688, -23860.77777871821, -22880.631432608538, -23873.004182935263, -23860.82248220712, -23897.479343113824, -15918.130090013754, -0.08053561305999757, 0.9285006408691407, -0.3322851800918579, 192.0, 0.0, 0.0, 0.0, 0.0, 0.0, 0.0, 0.0, 0.0, 0.0, 1.741902154888966E9, 0.0, 2025-03-13 16:42:34.888
4.0, -23806.507743180722, -22797.21472230133, -23820.745804398754, -17777.951690906488, -23871.663078267942, -23885.20823540786, -23894.595968079087, -15698.211276317988, -23775.639984087942, -23788.827513316573, -23860.464854295835, -22873.0988947271, -23872.467741068333, -23860.28604034019, -23902.977872249827, -16037.868385060834, -0.08053561305999757, 0.9285006408691407, -0.3322851800918579, 192.0, 0.0, 0.0, 0.0, 0.0, 0.0, 0.0, 0.0, 0.0, 0.0, 1.741902154891039E9, 0.0, 2025-03-13 16:42:34.891
6.0, -23804.719603624297, -22786.441181473874, -23818.890609608963, -17776.297661816796, -23869.919642200428, -23883.39774410698, -23892.852532011573, -15692.623340204162, -23775.483521876755, -23788.76045808321, -23860.420150806924, -22856.33508638562, -23872.333630601603, -23860.129578129003, -23903.603721094576, -16013.706149304648, -0.08053561305999757, 0.9285006408691407, -0.3322851800918579, 192.0, 0.0, 0.0, 0.0, 0.0, 0.0, 0.0, 0.0, 0.0, 0.0, 1.741902154893126E9, 0.0, 2025-03-13 16:42:34.893
8.0, -23805.256045491227, -22799.673414191417, -23819.4717549648, -17776.454124027983, -23870.500787556266, -23883.95653771836, -23893.21015992286, -15707.509602011396, -23774.947080009828, -23788.201664471828, -23859.86135719554, -22861.364228888062, -23871.886595712494, -23859.570784517622, -23901.525008860233, -15973.294195329452, -0.08053561305999757, 0.9285006408691407, -0.3322851800918579, 192.0, 0.0, 0.0, 0.0, 0.0, 0.0, 0.0, 0.0, 0.0, 0.0, 1.741902154895215E9, 0.0, 2025-03-13 16:42:34.895
10.0, -23806.150115269436, -22790.688012920382, -23820.343472998557, -17773.458990270974, -23871.43956082339, -23884.895310985485, -23894.148933189983, -15695.506715238897, -23776.08701897705, -23789.22984471677, -23860.598964762565, -22853.675228795437, -23872.847720724076, -23860.666019995933, -23898.17224719194, -15924.142709272232, -0.0822678065299988, 0.9302503204345705, -0.33314259004592894, 192.0, 126.5, 48.0, 14.5, 16.0, 122.5, 72.0, 0.0, 0.0, 0.0, 1.74190215489726E9, 0.0, 2025-03-13 16:42:34.897
12.0, -23804.67490013539, -22801.886236892493, -23818.823554375598, -17770.642670469602, -23870.00904917825, -23883.44244759589, -23892.494904100287, -15706.414366533087, -23775.572928854577, -23788.76045808321, -23860.129578129003, -22858.458502108875, -23872.44538932388, -23860.263688595736, -23896.451162868878, -15922.019293548978, -0.0822678065299988, 0.9302503204345705, -0.33314259004592894, 192.0, 0.0, 0.0, 0.0, 0.0, 0.0, 0.0, 0.0, 0.0, 0.0, 1.741902154899558E9, 0.0, 2025-03-13 16:42:34.899
14.0, -23806.574798414087, -22786.463533218328, -23820.589342187566, -17763.780684921825, -23871.730133501307, -23885.185883663402, -23894.506561101265, -15690.254055291898, -23774.678859076364, -23787.844036560542, -23859.593136262076, -22849.786025260215, -23871.573671290123, -23859.2802118397, -23902.955520505373, -16040.751760095569, -0.0822678065299988, 0.9302503204345705, -0.33314259004592894, 192.0, 0.0, 0.0, 0.0, 0.0, 0.0, 0.0, 0.0, 0.0, 0.0, 1.741902154946884E9, 0.0, 2025-03-13 16:42:34.946
16.0, -23808.027661803684, -22806.155420083454, -23822.064557321617, -17772.408458281574, -23873.138293401993, -23886.594043564088, -23895.713555301852, -15707.353139800209, -23778.299841678127, -23791.554426140123, -23863.19176711938, -22855.1951474184, -23875.172302147424, -23862.945897930374, -23905.995357751293, -16004.40782361124, -0.0822678065299988, 0.9302503204345705, -0.33314259004592894, 192.0, 0.0, 0.0, 0.0, 0.0, 0.0, 0.0, 0.0, 0.0, 0.0, 1.741902154949104E9, 0.0, 2025-03-13 16:42:34.949
18.0, -23805.61367340251, -22801.84153340358, -23819.71762415381, -17771.626147225637, -23870.76900848973, -23884.24711039628, -23893.478380856322, -15693.070375093268, -23776.534053866155, -23789.766286583697, -23861.180110118403, -22861.878319010535, -23873.361810846545, -23861.20246186286, -23899.759221048265, -15935.832671622358, -0.0822678065299988, 0.9302503204345705, -0.33314259004592894, 192.0, 0.0, 0.0, 0.0, 0.0, 0.0, 0.0, 0.0, 0.0, 0.0, 1.741902154951197E9, 0.0, 2025-03-13 16:42:34.951
20.0, -23805.52426642469, -22809.396423029473, -23819.583513687077, -17767.75929543487, -23870.701953256365, -23884.135351674006, -23893.232511667313, -15710.415328790586, -23774.768266054187, -23788.022850516183, -23859.369618817524, -22864.135845200522, -23871.596023034577, -23859.43667405089, -23898.35106114758, -15964.331145802875, -0.08213390326499939, 0.9301251602172853, -0.32957129502296445, 192.0, 126.5, 56.0, 14.5, 8.0, 122.5, 104.0, 0.0, 0.0, 0.0, 1.741902154953325E9, 0.0, 2025-03-13 16:42:34.953
22.0, -23806.150115269436, -22802.914417137436, -23820.321121254103, -17777.214083339462, -23871.43956082339, -23884.82825575212, -23894.081877956614, -15700.669968208073, -23776.444646888336, -23789.699231350332, -23861.269517096225, -22873.188301704922, -23873.182996890904, -23861.045999651673, -23904.430735639424, -16018.042387728978, -0.08213390326499939, 0.9301251602172853, -0.32957129502296445, 192.0, 0.0, 0.0, 0.0, 0.0, 0.0, 0.0, 0.0, 0.0, 0.0, 1.741902154955566E9, 0.0, 2025-03-13 16:42:34.955
24.0, -23806.150115269436, -22814.827896932115, -23820.14230729846, -17781.729135719437, -23871.327802101114, -23884.738848774297, -23893.523084345234, -15721.412387062597, -23776.019963743685, -23789.27454820568, -23860.7330752293, -22866.23690917932, -23872.847720724076, -23860.666019995933, -23901.413250137957, -15959.480817256072, -0.08213390326499939, 0.9301251602172853, -0.32957129502296445, 192.0, 0.0, 0.0, 0.0, 0.0, 0.0, 0.0, 0.0, 0.0, 0.0, 1.741902154957662E9, 0.0, 2025-03-13 16:42:34.957
26.0, -23804.294920479646, -22803.85319040456, -23818.354167742036, -17779.09162987371, -23869.450255566866, -23882.838950495596, -23892.070220955637, -15702.033424619845, -23775.4611701323, -23788.738106338755, -23860.218985106825, -22873.590633105116, -23872.311278857145, -23860.017819406727, -23899.423944881433, -15966.946299904144, -0.08213390326499939, 0.9301251602172853, -0.32957129502296445, 192.0, 0.0, 0.0, 0.0, 0.0, 0.0, 0.0, 0.0, 0.0, 0.0, 1.741902154959734E9, 0.0, 2025-03-13 16:42:34.959
28.0, -23804.56314141311, -22815.476097521318, -23818.711795653322, -17775.56005424977, -23869.785531733698, -23883.241281895793, -23892.24903491128, -15711.018825890878, -23773.94125150934, -23787.262891204704, -23858.877880439508, -22860.738380043316, -23870.81371197864, -23858.564956017133, -23902.39672689399, -16042.070513018432, -0.08213390326499939, 0.9301251602172853, -0.32957129502296445, 192.0, 0.0, 0.0, 0.0, 0.0, 0.0, 0.0, 0.0, 0.0, 0.0, 1.741902154961881E9, 0.0, 2025-03-13 16:42:34.961
30.0, -23804.317272224103, -22811.095155608076, -23818.465926464312, -17778.197560095497, -23869.53966254469, -23883.040116195694, -23892.24903491128, -15701.273465308364, -23774.947080009828, -23788.156960982917, -23859.6825432399, -22871.646031337506, -23871.752485245765, -23859.4813775398, -23900.787401293208, -15969.092067371854, -0.08006695163249969, 0.9320625801086426, -0.3267856475114822, 192.0, 126.5, 72.0, 14.5, 24.0, 122.5, 112.0, 0.0, 0.0, 0.0, 1.74190215500714E9, 0.0, 2025-03-13 16:42:35.007
32.0, -23803.445554190344, -22810.826934674613, -23817.594208430553, -17770.977946636434, -23868.623241022022, -23882.16839816194, -23891.220854666335, -15704.872096165669, -23773.51656836469, -23786.74880108223, -23858.09556938357, -22858.32439164214, -23870.321973600625, -23858.117921128025, -23895.937072746405, -15933.195165776631, -0.08006695163249969, 0.9320625801086426, -0.3267856475114822, 192.0, 0.0, 0.0, 0.0, 0.0, 0.0, 0.0, 0.0, 0.0, 0.0, 1.741902155009457E9, 0.0, 2025-03-13 16:42:35.009
34.0, -23803.33379546807, -22809.12820209601, -23817.504801452735, -17772.386106537117, -23868.5338340442, -23882.034287695205, -23891.310261644157, -15696.780764672849, -23773.695382320333, -23786.927615037876, -23858.520252528222, -22864.80639753418, -23870.4337323229, -23858.25203159476, -23901.63676758251, -16026.893678533279, -0.08006695163249969, 0.9320625801086426, -0.3267856475114822, 192.0, 0.0, 0.0, 0.0, 0.0, 0.0, 0.0, 0.0, 0.0, 0.0, 1.741902155011657E9, 0.0, 2025-03-13 16:42:35.011
36.0, -23803.356147212526, -22819.007673145257, -23817.482449708277, -17788.18878986702, -23868.48913055529, -23881.944880717383, -23890.95263373287, -15709.834183434748, -23772.75660905321, -23785.921786537387, -23857.559127516644, -22859.061999209167, -23869.53966254469, -23857.313258327635, -23899.334537903615, -15972.914215673713, -0.08006695163249969, 0.9320625801086426, -0.3267856475114822, 192.0, 0.0, 0.0, 0.0, 0.0, 0.0, 0.0, 0.0, 0.0, 0.0, 1.74190215501376E9, 0.0, 2025-03-13 16:42:35.013
38.0, -23801.94798731184, -22808.301187551166, -23816.029586318684, -17771.067353614253, -23867.080970654606, -23880.49201732779, -23889.790343021195, -15691.34929077021, -23773.293050920136, -23786.502931893225, -23857.84970019456, -22874.10472322759, -23869.986697433797, -23857.87205193902, -23895.758258790764, -15929.261258752496, -0.08006695163249969, 0.9320625801086426, -0.3267856475114822, 192.0, 0.0, 0.0, 0.0, 0.0, 0.0, 0.0, 0.0, 0.0, 0.0, 1.741902155015804E9, 0.0, 2025-03-13 16:42:35.015
40.0, -23801.5680076561, -22807.98826312879, -23815.71666189631, -17777.147028106097, -23866.700990998866, -23880.20144464987, -23889.320956387637, -15704.447413021018, -23771.37080089698, -23784.5136266367, -23856.329781571603, -22859.441978864907, -23868.176206132914, -23856.01685714923, -23899.245130925792, -16042.539899651993, -0.07703347581624984, 0.9310312900543214, -0.3293928237557411, 192.0, 126.5, 88.0, 14.5, 8.0, 122.5, 80.0, 0.0, 0.0, 0.0, 1.741902155017878E9, 0.0, 2025-03-13 16:42:35.017
42.0, -23801.70211812283, -22805.864847405537, -23815.873124107497, -17784.61251075417, -23866.85745321005, -23880.357906861056, -23889.49977034328, -15700.982892630445, -23771.482559619257, -23784.625385358977, -23856.39683680497, -22882.665441353973, -23868.28796485519, -23856.15096761596, -23898.77574429223, -15993.231951383586, -0.07703347581624984, 0.9310312900543214, -0.3293928237557411, 192.0, 0.0, 0.0, 0.0, 0.0, 0.0, 0.0, 0.0, 0.0, 0.0, 1.741902155020105E9, 0.0, 2025-03-13 16:42:35.020
44.0, -23800.94215881135, -22795.78421065619, -23815.04610956265, -17783.293757831307, -23866.075142154117, -23879.530892316212, -23888.695107542888, -15705.766165943882, -23771.191986941336, -23784.42421965888, -23855.81569144913, -22866.415723134964, -23868.10915089955, -23855.972153660317, -23893.232511667313, -15918.621828391771, -0.07703347581624984, 0.9310312900543214, -0.3293928237557411, 192.0, 0.0, 0.0, 0.0, 0.0, 0.0, 0.0, 0.0, 0.0, 0.0, 1.741902155067557E9, 0.0, 2025-03-13 16:42:35.067
46.0, -23801.70211812283, -22797.058260090147, -23815.89547585195, -17780.812714196767, -23866.879804954508, -23880.29085162769, -23889.432715109913, -15706.2579043219, -23771.817835786085, -23785.072420248085, -23856.598002505067, -22881.793723320214, -23868.645592766476, -23856.5309472717, -23896.361755891056, -15969.561454005416, -0.07703347581624984, 0.9310312900543214, -0.3293928237557411, 192.0, 0.0, 0.0, 0.0, 0.0, 0.0, 0.0, 0.0, 0.0, 0.0, 1.741902155069771E9, 0.0, 2025-03-13 16:42:35.069
48.0, -23799.824571588586, -22787.670527418915, -23813.95087408434, -17786.75827822188, -23865.024610164717, -23878.525063815723, -23887.4881133423, -15703.285122309342, -23770.23086192976, -23783.507798136212, -23855.122787371016, -22874.305888927687, -23867.05861891015, -23854.876918182006, -23897.948729747382, -15997.098803174355, -0.07703347581624984, 0.9310312900543214, -0.3293928237557411, 192.0, 0.0, 0.0, 0.0, 0.0, 0.0, 0.0, 0.0, 0.0, 0.0, 1.741902155071812E9, 0.0, 2025-03-13 16:42:35.071
50.0, -23801.500952422735, -22800.433373502896, -23815.560199685122, -17790.200446868, -23866.656287509955, -23880.179092905415, -23889.09743894308, -15710.43768053504, -23771.14728345243, -23784.401867914425, -23855.927450171406, -22894.355403704096, -23868.10915089955, -23855.86039493804, -23895.512389601754, -15943.789892648447, -0.07851673790812491, 0.9285156450271608, -0.3276964118778706, 192.0, 126.5, 64.0, 14.0, 120.0, 122.5, 104.0, 0.0, 0.0, 0.0, 1.741902155073888E9, 0.0, 2025-03-13 16:42:35.073
52.0, -23799.198722743837, -22787.80463788565, -23813.302673495135, -17786.579464266237, -23864.376409575514, -23877.83215973761, -23886.974023219827, -15697.853648406703, -23770.32026890758, -23783.507798136212, -23854.787511204187, -22890.421496679963, -23867.192729376882, -23854.96632515983, -23890.34913663258, -15904.607284618294, -0.07851673790812491, 0.9285156450271608, -0.3276964118778706, 192.0, 0.0, 0.0, 0.0, 0.0, 0.0, 0.0, 0.0, 0.0, 0.0, 1.741902155076131E9, 0.0, 2025-03-13 16:42:35.076
54.0, -23800.56217915561, -22799.360489769042, -23814.57672292909, -17781.885597930624, -23865.67281075392, -23879.10620917156, -23887.957499975862, -15708.962465400991, -23769.493254362733, -23782.725487080275, -23854.474586781813, -22896.702336871906, -23866.365714832034, -23854.13931061498, -23897.34523264709, -16033.845071058879, -0.07851673790812491, 0.9285156450271608, -0.3276964118778706, 192.0, 0.0, 0.0, 0.0, 0.0, 0.0, 0.0, 0.0, 0.0, 0.0, 1.741902155078314E9, 0.0, 2025-03-13 16:42:35.078
56.0, -23801.5680076561, -22790.93388210939, -23815.71666189631, -17779.359850807174, -23866.76804623223, -23880.24614813878, -23889.410363365456, -15700.82643041926, -23770.633193329955, -23783.91012953641, -23855.61452574903, -22893.05900252569, -23867.550357288168, -23855.368656560026, -23897.904026258475, -15984.380660579285, -0.07851673790812491, 0.9285156450271608, -0.3276964118778706, 192.0, 0.0, 0.0, 0.0, 0.0, 0.0, 0.0, 0.0, 0.0, 0.0, 1.741902155080363E9, 0.0, 2025-03-13 16:42:35.080
58.0, -23800.830400089075, -22801.483905492296, -23814.88964735146, -17773.861321671167, -23865.91867994293, -23879.530892316212, -23888.11396218705, -15720.719482984483, -23771.840187530543, -23785.117123736993, -23856.5309472717, -22904.927778831458, -23868.734999744298, -23856.44154029388, -23894.461857612358, -15924.120357527776, -0.07851673790812491, 0.9285156450271608, -0.3276964118778706, 192.0, 0.0, 0.0, 0.0, 0.0, 0.0, 0.0, 0.0, 0.0, 0.0, 1.741902155082473E9, 0.0, 2025-03-13 16:42:35.082
60.0, -23799.109315766018, -22786.485884962785, -23813.19091477286, -17771.827312925736, -23864.24229910878, -23877.76510450424, -23886.750505775275, -15707.353139800209, -23769.89558576293, -23783.150170224926, -23854.787511204187, -22887.202845478398, -23866.745694487774, -23854.519290270724, -23896.96525299135, -16003.223181155108, -0.08125836895406247, 0.9262578225135805, -0.32784820593893527, 192.0, 126.5, 48.0, 14.0, 112.0, 122.5, 96.0, 0.0, 0.0, 0.0, 1.741902155126809E9, 0.0, 2025-03-13 16:42:35.126
62.0, -23797.768211098697, -22803.42850725991, -23811.939217083363, -17779.605719996183, -23862.990601419282, -23876.468703325834, -23885.074124941126, -15720.250096350921, -23767.8615770175, -23781.116161479495, -23852.820557692117, -22896.52352291626, -23864.66698225343, -23852.48528152529, -23894.171284934437, -15966.901596415235, -0.08125836895406247, 0.9262578225135805, -0.32784820593893527, 192.0, 0.0, 0.0, 0.0, 0.0, 0.0, 0.0, 0.0, 0.0, 0.0, 1.741902155129128E9, 0.0, 2025-03-13 16:42:35.129
64.0, -23799.154019254926, -22786.910568107436, -23813.302673495135, -17774.062487371266, -23864.42111306442, -23877.854511482063, -23886.88461624201, -15702.2569420644, -23768.66623981789, -23781.89847253543, -23853.3793513035, -22893.215464736877, -23865.561052031644, -23853.312296070137, -23890.706764543866, -15929.417720963684, -0.08125836895406247, 0.9262578225135805, -0.32784820593893527, 192.0, 0.0, 0.0, 0.0, 0.0, 0.0, 0.0, 0.0, 0.0, 0.0, 1.741902155131281E9, 0.0, 2025-03-13 16:42:35.131
66.0, -23798.148190754437, -22804.83666716059, -23812.18508627237, -17784.81367645427, -23863.325877586114, -23876.87103472603, -23885.25293889677, -15721.054759151311, -23768.46507411779, -23781.764362068698, -23853.491110025778, -22895.875322327058, -23865.359886331546, -23853.133482114492, -23896.697032057888, -16023.205640698152, -0.08125836895406247, 0.9262578225135805, -0.32784820593893527, 192.0, 0.0, 0.0, 0.0, 0.0, 0.0, 0.0, 0.0, 0.0, 0.0, 1.741902155133385E9, 0.0, 2025-03-13 16:42:35.133
68.0, -23799.064612277107, -22794.867789133525, -23813.325025239592, -17787.495885788907, -23864.309354342146, -23877.787456248698, -23886.86226449755, -15704.760337443393, -23768.88975726244, -23782.05493474662, -23853.692275725876, -22899.161028761988, -23865.62810726501, -23853.491110025778, -23894.10422970107, -15951.210671807608, -0.08125836895406247, 0.9262578225135805, -0.32784820593893527, 192.0, 0.0, 0.0, 0.0, 0.0, 0.0, 0.0, 0.0, 0.0, 0.0, 1.741902155135464E9, 0.0, 2025-03-13 16:42:35.135
70.0, -23800.249254733237, -22797.371184512518, -23814.554371184633, -17779.85158918519, -23865.53870028719, -23878.972098704828, -23887.6892790424, -15719.132509128156, -23769.47090261828, -23782.569024869088, -23854.094607126073, -22885.168836732966, -23866.186900876393, -23853.938144914886, -23892.763125033754, -15945.063942082399, -0.07962918447703124, 0.9271289112567902, -0.3299241029694676, 192.0, 126.5, 72.0, 14.5, 0.0, 122.5, 80.0, 0.0, 0.0, 0.0, 1.7419021551375E9, 0.0, 2025-03-13 16:42:35.137
72.0, -23799.51164716621, -22783.177826783398, -23813.749708384243, -17777.683469973024, -23864.756389231254, -23878.145084159984, -23887.398706364478, -15698.01011061789, -23769.94028925184, -23783.060763247107, -23854.899269926464, -22885.727630344347, -23866.76804623223, -23854.541642015178, -23897.434639624913, -15991.890846716267, -0.07962918447703124, 0.9271289112567902, -0.3299241029694676, 192.0, 0.0, 0.0, 0.0, 0.0, 0.0, 0.0, 0.0, 0.0, 0.0, 1.74190215513982E9, 0.0, 2025-03-13 16:42:35.139
74.0, -23800.249254733237, -22797.393536256975, -23814.375557228992, -17776.14119960561, -23865.404589820457, -23878.837988238098, -23887.577520320123, -15714.68451198155, -23770.856710774508, -23784.021888258685, -23855.659229237943, -22879.804418063693, -23867.72917124381, -23855.547470515667, -23894.148933189983, -15931.183508775654, -0.07962918447703124, 0.9271289112567902, -0.3299241029694676, 192.0, 0.0, 0.0, 0.0, 0.0, 0.0, 0.0, 0.0, 0.0, 0.0, 1.741902155186609E9, 0.0, 2025-03-13 16:42:35.186
76.0, -23798.572873899087, -22790.129219309, -23812.833286861576, -17778.912815918065, -23863.81761596413, -23877.273366126225, -23886.25876739726, -15701.809907175293, -23768.64388807343, -23781.80906555761, -23853.356999559048, -22893.126057759055, -23865.42694156491, -23853.222889092314, -23893.43367736741, -15974.747058719047, -0.07962918447703124, 0.9271289112567902, -0.3299241029694676, 192.0, 0.0, 0.0, 0.0, 0.0, 0.0, 0.0, 0.0, 0.0, 0.0, 1.74190215518887E9, 0.0, 2025-03-13 16:42:35.188
78.0, -23798.03643203216, -22793.41492574393, -23812.274493250192, -17783.09259213121, -23863.25882235275, -23876.692220770386, -23885.29764238568, -15716.003264904413, -23768.80035028462, -23781.920824279885, -23853.692275725876, -22883.470104154363, -23865.49399679828, -23853.356999559048, -23896.898197757986, -16016.768338295024, -0.07962918447703124, 0.9271289112567902, -0.3299241029694676, 192.0, 0.0, 0.0, 0.0, 0.0, 0.0, 0.0, 0.0, 0.0, 0.0, 1.741902155190958E9, 0.0, 2025-03-13 16:42:35.190
80.0, -23797.85761807652, -22787.98345184129, -23812.118031039005, -17784.210179353973, -23863.10236014156, -23876.558110303657, -23885.610566808056, -15699.462974007485, -23767.4592456173, -23780.62442310148, -23852.239412336283, -22896.791743849724, -23864.264650853238, -23852.038246636184, -23892.472552355834, -15948.148482817232, -0.07681459223851561, 0.9265644556283952, -0.3289620514847338, 192.0, 126.5, 88.0, 14.0, 120.0, 122.5, 96.0, 0.0, 0.0, 0.0, 1.741902155193033E9, 0.0, 2025-03-13 16:42:35.193
82.0, -23798.550522154634, -22792.297338521166, -23812.90034209494, -17777.102324617186, -23863.86231945304, -23877.318069615136, -23886.05760169716, -15710.795308446326, -23768.867405517987, -23781.98787951325, -23853.3793513035, -22885.05707801069, -23865.583403776098, -23853.446406536867, -23890.259729654757, -15919.158270258698, -0.07681459223851561, 0.9265644556283952, -0.3289620514847338, 192.0, 0.0, 0.0, 0.0, 0.0, 0.0, 0.0, 0.0, 0.0, 0.0, 1.741902155195259E9, 0.0, 2025-03-13 16:42:35.195
84.0, -23796.829437831573, -22784.36246923953, -23811.022795560693, -17775.403592038583, -23862.00712466325, -23875.507578314257, -23884.425924351923, -15702.547514742319, -23767.258079917203, -23780.46796089029, -23852.239412336283, -22897.372889205562, -23864.01878166423, -23851.837080936086, -23895.333575646113, -16028.704169834158, -0.07681459223851561, 0.9265644556283952, -0.3289620514847338, 192.0, 0.0, 0.0, 0.0, 0.0, 0.0, 0.0, 0.0, 0.0, 0.0, 1.74190215519736E9, 0.0, 2025-03-13 16:42:35.197
86.0, -23798.95285355483, -22791.425620487407, -23813.05680430613, -17782.489095030916, -23864.041133408682, -23877.496883570777, -23886.415229608447, -15709.72242471247, -23767.8615770175, -23781.093809735037, -23852.753502458752, -22883.648918110004, -23864.644630508978, -23852.373522803013, -23895.2888721572, -15986.369965835807, -0.07681459223851561, 0.9265644556283952, -0.3289620514847338, 192.0, 0.0, 0.0, 0.0, 0.0, 0.0, 0.0, 0.0, 0.0, 0.0, 1.741902155199448E9, 0.0, 2025-03-13 16:42:35.199
88.0, -23796.89649306494, -22793.32551876611, -23811.04514730515, -17788.836990456224, -23862.074179896616, -23875.507578314257, -23884.560034818656, -15701.29581705282, -23769.001515984717, -23782.211396957806, -23853.75933095924, -22900.77035436277, -23865.695162498378, -23853.602868748054, -23892.740773289297, -15933.910421599201, -0.07681459223851561, 0.9265644556283952, -0.3289620514847338, 192.0, 0.0, 0.0, 0.0, 0.0, 0.0, 0.0, 0.0, 0.0, 0.0, 1.74190215520155E9, 0.0, 2025-03-13 16:42:35.201
90.0, -23797.343527954046, -22788.966928597325, -23811.581589172078, -17785.819504954758, -23862.655325252454, -23876.088723670095, -23885.051773196672, -15703.285122309342, -23766.31930665008, -23779.596242856533, -23850.898307668962, -22881.48079889784, -23862.990601419282, -23850.943011157873, -23887.01872670874, -15906.9542177861, -0.08040729611925782, 0.9272822278141977, -0.33148102574236693, 192.0, 126.5, 48.0, 14.5, 0.0, 122.5, 72.0, 0.0, 0.0, 0.0, 1.741902155247012E9, 0.0, 2025-03-13 16:42:35.247
92.0, -23796.292995964646, -22794.644271688972, -23810.396946715948, -17781.28210083033, -23861.470682796324, -23874.993488191783, -23883.95653771836, -15698.501848995907, -23766.676934561365, -23779.864463789996, -23851.6806187249, -22890.734421102337, -23863.348229330568, -23851.2782873247, -23894.640671568, -16032.995704769577, -0.08040729611925782, 0.9272822278141977, -0.33148102574236693, 192.0, 0.0, 0.0, 0.0, 0.0, 0.0, 0.0, 0.0, 0.0, 0.0, 1.741902155249299E9, 0.0, 2025-03-13 16:42:35.249
94.0, -23797.008251787218, -22791.1797512984, -23811.201609516338, -17782.243225841907, -23862.18593861889, -23875.686392269898, -23884.716497029844, -15695.372604772165, -23766.453417116812, -23779.57389111208, -23851.412397791435, -22873.970612760855, -23863.19176711938, -23850.987714646784, -23894.2383401678, -15996.07062292941, -0.08040729611925782, 0.9272822278141977, -0.33148102574236693, 192.0, 0.0, 0.0, 0.0, 0.0, 0.0, 0.0, 0.0, 0.0, 0.0, 1.741902155251371E9, 0.0, 2025-03-13 16:42:35.251
96.0, -23799.75751635522, -22794.778382155702, -23813.973225828795, -17779.158685107075, -23865.00225842026, -23878.458008582355, -23887.644575553488, -15691.975139614957, -23768.912109006895, -23782.099638235526, -23853.826386192606, -22887.49341815632, -23865.71751424283, -23853.53581351469, -23894.461857612358, -15954.339916031351, -0.08040729611925782, 0.9272822278141977, -0.33148102574236693, 192.0, 0.0, 0.0, 0.0, 0.0, 0.0, 0.0, 0.0, 0.0, 0.0, 1.741902155253443E9, 0.0, 2025-03-13 16:42:35.253
98.0, -23799.444591932846, -22790.46449547583, -23813.682653150878, -17782.310281075275, -23864.68933399789, -23878.145084159984, -23887.421058108936, -15685.62724418965, -23768.956812495806, -23782.121989979983, -23853.5805170036, -22874.596461605604, -23865.806921220654, -23853.513461770235, -23890.416191865945, -15910.843421321324, -0.08040729611925782, 0.9272822278141977, -0.33148102574236693, 192.0, 0.0, 0.0, 0.0, 0.0, 0.0, 0.0, 0.0, 0.0, 0.0, 1.741902155255616E9, 0.0, 2025-03-13 16:42:35.255
100.0, -23798.52817041018, -22798.064088590632, -23812.721528139296, -17774.777743193834, -23863.81761596413, -23877.25101438177, -23886.48228484181, -15686.38720350113, -23769.828530529565, -23783.08311499156, -23854.452235037355, -22881.05611575319, -23866.67863925441, -23854.452235037355, -23891.220854666335, -15924.0085988055, -0.0812036480596289, 0.9296411139070988, -0.33474051287118345, 192.0, 126.5, 56.0, 14.5, 16.0, 122.5, 56.0, 0.0, 0.0, 0.0, 1.741902155257717E9, 0.0, 2025-03-13 16:42:35.257
102.0, -23796.89649306494, -22785.882387862493, -23811.112202538516, -17768.653365213082, -23862.074179896616, -23875.596985292075, -23884.82825575212, -15678.787610386325, -23767.436893872848, -23780.60207135702, -23852.440578036378, -22866.080446968135, -23864.264650853238, -23852.038246636184, -23895.82531402413, -16031.676951846714, -0.0812036480596289, 0.9296411139070988, -0.33474051287118345, 192.0, 0.0, 0.0, 0.0, 0.0, 0.0, 0.0, 0.0, 0.0, 0.0, 1.741902155259886E9, 0.0, 2025-03-13 16:42:35.259
104.0, -23796.38240294247, -22803.696728193372, -23810.57576067159, -17765.1441413336, -23861.604793263054, -23875.038191680695, -23884.15770341846, -15698.591255973728, -23766.36401013899, -23779.596242856533, -23851.255935580248, -22870.28257492573, -23863.25882235275, -23851.010066391238, -23893.43367736741, -15979.865608199312, -0.0812036480596289, 0.9296411139070988, -0.33474051287118345, 192.0, 0.0, 0.0, 0.0, 0.0, 0.0, 0.0, 0.0, 0.0, 0.0, 1.741902155307108E9, 0.0, 2025-03-13 16:42:35.307
106.0, -23795.75655409772, -22793.32551876611, -23810.084022293573, -17759.690315686505, -23861.068351396127, -23874.54645330268, -23883.755372018262, -15680.978081342946, -23766.498120605724, -23779.663298089898, -23851.121825113514, -22866.169853945954, -23863.370581075025, -23851.05476988015, -23888.337479631602, -15912.855078322302, -0.0812036480596289, 0.9296411139070988, -0.33474051287118345, 192.0, 0.0, 0.0, 0.0, 0.0, 0.0, 0.0, 0.0, 0.0, 0.0, 1.741902155309319E9, 0.0, 2025-03-13 16:42:35.309
108.0, -23795.84596107554, -22800.56748396963, -23809.99461531575, -17765.23354831142, -23861.00129616276, -23874.47939806931, -23883.665965040444, -15690.030537847346, -23765.112312449495, -23778.255138189215, -23849.959534401838, -22862.39240913301, -23861.940069429886, -23849.713665212832, -23892.38314537801, -16013.50498360455, -0.0812036480596289, 0.9296411139070988, -0.33474051287118345, 192.0, 0.0, 0.0, 0.0, 0.0, 0.0, 0.0, 0.0, 0.0, 0.0, 1.741902155311444E9, 0.0, 2025-03-13 16:42:35.311
110.0, -23797.768211098697, -22791.06799257612, -23811.961568827817, -17770.061525113764, -23862.990601419282, -23876.423999836923, -23885.722325530332, -15681.358060998686, -23767.28043166166, -23780.37855391247, -23852.19470884737, -22861.47598761034, -23864.10818864205, -23851.85943268054, -23894.327747145624, -15976.021108153, -0.07760182402981444, 0.9288205569535495, -0.3373702564355917, 192.0, 126.5, 88.0, 14.5, 0.0, 122.5, 48.0, 0.0, 0.0, 0.0, 1.74190215531349E9, 0.0, 2025-03-13 16:42:35.313
112.0, -23797.924673309884, -22808.70351895136, -23812.118031039005, -17766.664059956558, -23863.124711886016, -23876.62516553702, -23885.67762204142, -15702.078128108757, -23767.906280506406, -23781.04910624613, -23852.70879896984, -22867.13097895753, -23864.801092720165, -23852.664095480934, -23891.77964827772, -15931.317619242385, -0.07760182402981444, 0.9288205569535495, -0.3373702564355917, 192.0, 0.0, 0.0, 0.0, 0.0, 0.0, 0.0, 0.0, 0.0, 0.0, 1.741902155315658E9, 0.0, 2025-03-13 16:42:35.315
114.0, -23797.924673309884, -22791.917358865423, -23812.073327550093, -17761.36669652065, -23863.10236014156, -23876.58046204811, -23885.923491230427, -15682.29683426581, -23767.8615770175, -23781.04910624613, -23852.619391992022, -22866.3486679016, -23864.66698225343, -23852.462929780835, -23892.561959333656, -15980.871436699801, -0.07760182402981444, 0.9288205569535495, -0.3373702564355917, 192.0, 0.0, 0.0, 0.0, 0.0, 0.0, 0.0, 0.0, 0.0, 0.0, 1.741902155317762E9, 0.0, 2025-03-13 16:42:35.317
116.0, -23797.23176923177, -22815.36433879904, -23811.402775216437, -17770.46385651396, -23862.364752574536, -23875.865206225542, -23884.850607496574, -15704.737985698937, -23767.74981829522, -23780.93734752385, -23852.77585420321, -22869.18733944742, -23864.66698225343, -23852.418226291924, -23896.16059019096, -16033.353332680863, -0.07760182402981444, 0.9288205569535495, -0.3373702564355917, 192.0, 0.0, 0.0, 0.0, 0.0, 0.0, 0.0, 0.0, 0.0, 0.0, 1.741902155319822E9, 0.0, 2025-03-13 16:42:35.319
118.0, -23798.192894243348, -22795.04660308917, -23812.408603716925, -17771.000298380888, -23863.39293281948, -23876.803979492663, -23886.169360419437, -15689.225875046955, -23767.526300850666, -23780.736181823755, -23852.462929780835, -22875.870511039557, -23864.398761319968, -23852.19470884737, -23893.3889738785, -15959.011430622511, -0.07760182402981444, 0.9288205569535495, -0.3373702564355917, 192.0, 0.0, 0.0, 0.0, 0.0, 0.0, 0.0, 0.0, 0.0, 0.0, 1.741902155321949E9, 0.0, 2025-03-13 16:42:35.321
120.0, -23795.957719797818, -22804.32257703812, -23810.24048450476, -17761.523158731838, -23861.13540662949, -23874.635860280498, -23883.554206318167, -15707.174325844566, -23767.481597361755, -23780.646774845933, -23851.993543147273, -22867.62271733555, -23864.264650853238, -23852.082950125096, -23888.516293587243, -15905.479002652051, -0.07780091201490721, 0.9264102784767747, -0.33968512821779584, 192.0, 126.5, 72.0, 14.0, 112.0, 122.5, 40.0, 0.0, 0.0, 0.0, 1.741902155367507E9, 0.0, 2025-03-13 16:42:35.367
122.0, -23795.086001764063, -22787.379954740998, -23809.279359493183, -17757.835120896714, -23860.19663336237, -23873.764142246742, -23882.883653984507, -15692.757450670893, -23765.335829894047, -23778.52335912268, -23850.205403590848, -22869.723781314347, -23862.118883385527, -23849.87012742402, -23892.919587244938, -16019.294085418474, -0.07780091201490721, 0.9264102784767747, -0.33968512821779584, 192.0, 0.0, 0.0, 0.0, 0.0, 0.0, 0.0, 0.0, 0.0, 0.0, 1.741902155369879E9, 0.0, 2025-03-13 16:42:35.369
124.0, -23795.75655409772, -22803.56261772664, -23810.016967060204, -17771.760257692367, -23860.934240929397, -23874.457046324856, -23883.285985384704, -15710.460032279496, -23764.821739771574, -23778.009269000206, -23849.803072190654, -22870.684906325925, -23861.604793263054, -23849.467796023822, -23892.673718055932, -15995.221256640109, -0.07780091201490721, 0.9264102784767747, -0.33968512821779584, 192.0, 0.0, 0.0, 0.0, 0.0, 0.0, 0.0, 0.0, 0.0, 0.0, 1.741902155371939E9, 0.0, 2025-03-13 16:42:35.371
126.0, -23795.13070525297, -22794.93484436689, -23809.301711237636, -17779.113981618164, -23860.263688595736, -23873.764142246742, -23882.861302240053, -15700.088822852234, -23766.073437461073, -23779.104504478517, -23850.741845457775, -22888.454543167896, -23862.76708397473, -23850.49597626877, -23889.879749999018, -15933.284572754452, -0.07780091201490721, 0.9264102784767747, -0.33968512821779584, 192.0, 0.0, 0.0, 0.0, 0.0, 0.0, 0.0, 0.0, 0.0, 0.0, 1.741902155374038E9, 0.0, 2025-03-13 16:42:35.374
128.0, -23797.388231442957, -22797.572350212617, -23811.536885683166, -17781.639728741615, -23862.610621763542, -23876.133427159006, -23884.604738307567, -15718.819584705781, -23766.207547927803, -23779.350373667523, -23850.67479022441, -22880.09499074161, -23863.05765665265, -23850.71949371332, -23886.30347088617, -15900.069880493866, -0.07780091201490721, 0.9264102784767747, -0.33968512821779584, 192.0, 0.0, 0.0, 0.0, 0.0, 0.0, 0.0, 0.0, 0.0, 0.0, 1.741902155376066E9, 0.0, 2025-03-13 16:42:35.376
130.0, -23794.817780830595, -22790.08451582009, -23809.100545537538, -17781.930301419532, -23860.062522895638, -23873.585328291098, -23882.503674328767, -15705.54264849933, -23766.967507239286, -23780.17738821237, -23851.85943268054, -22891.181455991442, -23863.750560730765, -23851.52415651371, -23894.506561101265, -16016.298951661463, -0.0799004560074536, 0.9272051392383873, -0.3408425641088979, 192.0, 126.5, 56.0, 14.5, 0.0, 122.5, 40.0, 0.0, 0.0, 0.0, 1.741902155378171E9, 0.0, 2025-03-13 16:42:35.378
132.0, -23793.387269185456, -22798.622882202017, -23807.602978659033, -17788.591121267214, -23858.587307761587, -23872.06540966814, -23880.514369072243, -15717.925514927569, -23762.69832404832, -23775.84114978804, -23847.63495297849, -22886.599348378106, -23859.369618817524, -23847.18791808938, -23890.48324709931, -15990.795611237958, -0.0799004560074536, 0.9272051392383873, -0.3408425641088979, 192.0, 0.0, 0.0, 0.0, 0.0, 0.0, 0.0, 0.0, 0.0, 0.0, 1.741902155380385E9, 0.0, 2025-03-13 16:42:35.380
134.0, -23796.158885497916, -22799.472248491318, -23810.441650204855, -17788.836990456224, -23861.40362756296, -23874.92643295842, -23883.643613295986, -15716.092671882234, -23764.911146749397, -23778.165731211393, -23849.825423935108, -22908.39229922203, -23861.649496751965, -23849.42309253491, -23888.985680220805, -15933.82101462138, -0.0799004560074536, 0.9272051392383873, -0.3408425641088979, 192.0, 0.0, 0.0, 0.0, 0.0, 0.0, 0.0, 0.0, 0.0, 0.0, 1.741902155427704E9, 0.0, 2025-03-13 16:42:35.427
136.0, -23795.711850608808, -22792.252635032255, -23809.882856593475, -17775.403592038583, -23860.889537440486, -23874.38999109149, -23883.241281895793, -15711.44350903553, -23766.36401013899, -23779.41742890089, -23850.898307668962, -22895.137714760032, -23863.05765665265, -23850.831252435597, -23887.73398253131, -15919.314732469886, -0.0799004560074536, 0.9272051392383873, -0.3408425641088979, 192.0, 0.0, 0.0, 0.0, 0.0, 0.0, 0.0, 0.0, 0.0, 0.0, 1.741902155429903E9, 0.0, 2025-03-13 16:42:35.429
138.0, -23797.589397143056, -22804.0320043602, -23811.80510661663, -17774.95655714948, -23862.8341392081, -23876.178130647913, -23885.163531918948, -15710.2588665794, -23766.878100261463, -23780.020926001183, -23851.792377447175, -22907.788802121737, -23863.527043286213, -23851.390046046978, -23894.841837268097, -16015.60604758335, -0.0799004560074536, 0.9272051392383873, -0.3408425641088979, 192.0, 0.0, 0.0, 0.0, 0.0, 0.0, 0.0, 0.0, 0.0, 0.0, 1.741902155432012E9, 0.0, 2025-03-13 16:42:35.432
140.0, -23797.969376798796, -22810.42460327442, -23812.073327550093, -17784.299586331796, -23863.10236014156, -23876.602813792564, -23885.230587152313, -15716.20443060451, -23767.638059572942, -23780.80323705712, -23852.373522803013, -22905.263054998286, -23864.331706086603, -23852.127653614003, -23893.120752945037, -15952.663535197204, -0.08095022800372681, 0.9286025696191937, -0.340421282054449, 192.0, 126.5, 56.0, 14.5, 8.0, 122.5, 48.0, 0.0, 0.0, 0.0, 1.741902155434191E9, 0.0, 2025-03-13 16:42:35.434
142.0, -23794.57191164159, -22817.66656847794, -23808.653510648433, -17775.023612382844, -23859.660191495444, -23873.071238168628, -23881.72136327283, -15715.019788148378, -23766.43106537236, -23779.663298089898, -23851.05476988015, -22923.993816851835, -23863.169415374927, -23851.010066391238, -23888.896273242986, -15931.25056400902, -0.08095022800372681, 0.9286025696191937, -0.340421282054449, 192.0, 0.0, 0.0, 0.0, 0.0, 0.0, 0.0, 0.0, 0.0, 0.0, 1.741902155436397E9, 0.0, 2025-03-13 16:42:35.436
144.0, -23794.99659478624, -22813.911475409448, -23809.055842048627, -17778.935167662523, -23860.062522895638, -23873.562976546644, -23882.01193595075, -15718.864288194693, -23764.352353138012, -23777.428123644368, -23849.28898206818, -22911.432136467953, -23861.023647907215, -23848.86429892353, -23892.606662822567, -16040.952925795667, -0.08095022800372681, 0.9286025696191937, -0.340421282054449, 192.0, 0.0, 0.0, 0.0, 0.0, 0.0, 0.0, 0.0, 0.0, 0.0, 1.741902155438478E9, 0.0, 2025-03-13 16:42:35.438
146.0, -23795.890664564453, -22825.936713926403, -23809.94991182684, -17775.023612382844, -23860.978944418308, -23874.501749813768, -23882.749543517773, -15724.474576052973, -23765.067608960584, -23778.210434700304, -23849.937182657384, -22921.982159850857, -23861.7836072187, -23849.62425823501, -23891.913758744453, -15976.669308742203, -0.08095022800372681, 0.9286025696191937, -0.340421282054449, 192.0, 0.0, 0.0, 0.0, 0.0, 0.0, 0.0, 0.0, 0.0, 0.0, 1.741902155440548E9, 0.0, 2025-03-13 16:42:35.440
148.0, -23794.929539552875, -22818.47123127833, -23809.078193793084, -17778.75635370688, -23860.218985106825, -23873.607680035555, -23882.05663943966, -15719.333674828253, -23766.31930665008, -23779.41742890089, -23850.786548946686, -22917.221238281876, -23862.96824967483, -23850.764197202232, -23887.510465086754, -15907.24479046402, -0.08095022800372681, 0.9286025696191937, -0.340421282054449, 192.0, 0.0, 0.0, 0.0, 0.0, 0.0, 0.0, 0.0, 0.0, 0.0, 1.741902155442651E9, 0.0, 2025-03-13 16:42:35.442
150.0, -23794.013118030205, -22825.534382526206, -23808.072365292595, -17775.47064727195, -23859.14610137297, -23872.66890676843, -23880.648479538977, -15728.833166221759, -23763.860614759997, -23777.115199221993, -23848.81959543462, -22926.34075001964, -23860.598964762565, -23848.461967523333, -23890.95263373287, -16006.955922479145, -0.08247511400186341, 0.9303012848095968, -0.34221064102722454, 192.0, 126.5, 48.0, 14.5, 16.0, 122.5, 32.0, 0.0, 0.0, 0.0, 1.74190215548815E9, 0.0, 2025-03-13 16:42:35.488
152.0, -23793.208455229815, -22808.971739884822, -23807.401812958935, -17778.555188006783, -23858.4308455504, -23871.908947456952, -23880.29085162769, -15719.803061461815, -23763.4582833598, -23776.735219566253, -23848.43961577888, -22913.19792427992, -23860.218985106825, -23847.947877400864, -23889.857398254564, -15962.811227179913, -0.08247511400186341, 0.9303012848095968, -0.34221064102722454, 192.0, 0.0, 0.0, 0.0, 0.0, 0.0, 0.0, 0.0, 0.0, 0.0, 1.741902155490508E9, 0.0, 2025-03-13 16:42:35.490
154.0, -23792.426144173878, -22815.56550449914, -23806.619501903, -17776.56588275026, -23857.648534494467, -23871.05958116765, -23879.01680219374, -15728.475538310473, -23763.726504293267, -23776.914033521898, -23848.350208801057, -22916.43892722594, -23860.420150806924, -23848.216098334327, -23885.67762204142, -15916.09608126832, -0.08247511400186341, 0.9303012848095968, -0.34221064102722454, 192.0, 0.0, 0.0, 0.0, 0.0, 0.0, 0.0, 0.0, 0.0, 0.0, 1.741902155492591E9, 0.0, 2025-03-13 16:42:35.492
156.0, -23792.224978473783, -22796.678280434404, -23806.395984458446, -17771.8943681591, -23857.402665305457, -23870.903118956463, -23879.508540571755, -15713.566924758785, -23761.401922869914, -23774.544748609635, -23846.316200055626, -22902.33497647464, -23858.05086589466, -23845.802109933153, -23889.209197665357, -16017.617704584325, -0.08247511400186341, 0.9303012848095968, -0.34221064102722454, 192.0, 0.0, 0.0, 0.0, 0.0, 0.0, 0.0, 0.0, 0.0, 0.0, 1.741902155494647E9, 0.0, 2025-03-13 16:42:35.494
158.0, -23790.392135428447, -22808.211780573343, -23804.56314141311, -17777.43760078402, -23855.659229237943, -23869.092627655584, -23877.139255659495, -15722.418215563086, -23761.536033336644, -23774.634155587453, -23846.427958777902, -22909.711052144892, -23858.229679850305, -23845.936220399886, -23888.605700565065, -15975.484666286073, -0.08247511400186341, 0.9303012848095968, -0.34221064102722454, 192.0, 0.0, 0.0, 0.0, 0.0, 0.0, 0.0, 0.0, 0.0, 0.0, 1.741902155496718E9, 0.0, 2025-03-13 16:42:35.496
160.0, -23791.263853462202, -22792.409097243442, -23805.390155957957, -17774.241301326907, -23856.419188549422, -23869.941993944885, -23878.703877771364, -15705.54264849933, -23760.910184491895, -23774.053010231615, -23845.422130277413, -22900.546836918216, -23857.648534494467, -23845.33272329959, -23882.30250862867, -15904.182601473643, -0.08223755700093172, 0.9291506424047984, -0.3441053205136123, 192.0, 126.5, 56.0, 14.5, 0.0, 122.5, 24.0, 0.0, 0.0, 0.0, 1.741902155498825E9, 0.0, 2025-03-13 16:42:35.498
162.0, -23791.017984273196, -22805.306053794153, -23805.256045491227, -17768.18397857952, -23856.128615871505, -23869.673773011422, -23878.234491137802, -15714.081014881256, -23761.536033336644, -23774.745914309733, -23846.29384831117, -22899.228083995353, -23858.25203159476, -23845.95857214434, -23887.4881133423, -15994.438945584172, -0.08223755700093172, 0.9291506424047984, -0.3441053205136123, 192.0, 0.0, 0.0, 0.0, 0.0, 0.0, 0.0, 0.0, 0.0, 0.0, 1.741902155501121E9, 0.0, 2025-03-13 16:42:35.501
164.0, -23790.816818573097, -22792.476152476807, -23805.03252804667, -17767.871054157145, -23855.972153660317, -23869.562014289146, -23878.368601604536, -15701.899314153114, -23760.820777514076, -23774.008306742708, -23845.735054699788, -22898.892807828524, -23857.559127516644, -23845.265668066226, -23888.270424398237, -15986.414669324717, -0.08223755700093172, 0.9291506424047984, -0.3441053205136123, 192.0, 0.0, 0.0, 0.0, 0.0, 0.0, 0.0, 0.0, 0.0, 0.0, 1.741902155547204E9, 0.0, 2025-03-13 16:42:35.547
166.0, -23791.08503950656, -22810.37989978551, -23805.144286768947, -17768.899234402088, -23856.218022849327, -23869.71847650033, -23877.83215973761, -15721.479442295962, -23760.865481002988, -23774.120065464984, -23845.600944233054, -22898.691642128426, -23857.53677577219, -23845.310371555137, -23884.96236621885, -15928.76952037448, -0.08223755700093172, 0.9291506424047984, -0.3441053205136123, 192.0, 0.0, 0.0, 0.0, 0.0, 0.0, 0.0, 0.0, 0.0, 0.0, 1.74190215554945E9, 0.0, 2025-03-13 16:42:35.549
168.0, -23788.00049877173, -22796.47711473431, -23802.037394289662, -17763.22189131044, -23853.15583385895, -23866.67863925441, -23875.462874825345, -15701.519334497374, -23759.23380365775, -23772.488388119746, -23843.969266887816, -22902.20086600791, -23855.838043193584, -23843.701045954353, -23883.91183422945, -15966.186340592665, -0.08223755700093172, 0.9291506424047984, -0.3441053205136123, 192.0, 0.0, 0.0, 0.0, 0.0, 0.0, 0.0, 0.0, 0.0, 0.0, 1.74190215555158E9, 0.0, 2025-03-13 16:42:35.551
170.0, -23789.632176116967, -22809.97756838531, -23803.75847861272, -17761.41140000956, -23854.80986294864, -23868.377371833012, -23876.58046204811, -15717.992570160935, -23759.054989702105, -23772.264870675193, -23844.013970376727, -22894.444810681918, -23855.63687749349, -23843.589287232076, -23887.175188919926, -16007.402957368251, -0.08211877850046587, 0.9295753212023992, -0.34305266025680614, 192.0, 126.5, 56.0, 14.5, 8.0, 122.5, 40.0, 0.0, 0.0, 0.0, 1.741902155553644E9, 0.0, 2025-03-13 16:42:35.553
172.0, -23789.22984471677, -22800.098097336067, -23803.356147212526, -17759.735019175412, -23854.318124570626, -23867.885633454996, -23876.669869025933, -15703.888619409636, -23759.122044935473, -23772.242518930736, -23843.879859909997, -22901.217389251877, -23855.726284471308, -23843.611638976534, -23883.57655806262, -15933.351627987819, -0.08211877850046587, 0.9295753212023992, -0.34305266025680614, 192.0, 0.0, 0.0, 0.0, 0.0, 0.0, 0.0, 0.0, 0.0, 0.0, 1.741902155555905E9, 0.0, 2025-03-13 16:42:35.555
174.0, -23787.08407724906, -22806.423641016918, -23801.210379744814, -17749.45321672597, -23852.19470884737, -23865.695162498378, -23874.09941841357, -15712.963427658491, -23758.295030390625, -23771.482559619257, -23842.829327920597, -22888.0522117677, -23855.033380393194, -23842.85167966505, -23880.469665583332, -15921.77342435997, -0.08211877850046587, 0.9295753212023992, -0.34305266025680614, 192.0, 0.0, 0.0, 0.0, 0.0, 0.0, 0.0, 0.0, 0.0, 0.0, 1.741902155557955E9, 0.0, 2025-03-13 16:42:35.557
176.0, -23787.307594693615, -22800.478076991807, -23801.478600678278, -17756.382257507117, -23852.395874547467, -23865.87397645402, -23874.792322491685, -15702.100479853212, -23757.22214665677, -23770.409675885403, -23842.136423842483, -22896.657633382994, -23853.91579317043, -23841.734092442286, -23885.29764238568, -16003.603160810848, -0.08211877850046587, 0.9295753212023992, -0.34305266025680614, 192.0, 0.0, 0.0, 0.0, 0.0, 0.0, 0.0, 0.0, 0.0, 0.0, 1.741902155560034E9, 0.0, 2025-03-13 16:42:35.560
178.0, -23788.268719705193, -22810.17873408541, -23802.484429178767, -17764.205368066476, -23853.424054792413, -23866.92450844342, -23874.837025980596, -15722.418215563086, -23756.7080565343, -23769.962640996295, -23841.42116801991, -22888.454543167896, -23853.446406536867, -23841.264705808724, -23882.01193595075, -15937.844328623336, -0.08211877850046587, 0.9295753212023992, -0.34305266025680614, 192.0, 0.0, 0.0, 0.0, 0.0, 0.0, 0.0, 0.0, 0.0, 0.0, 1.741902155562067E9, 0.0, 2025-03-13 16:42:35.562
180.0, -23790.772115084186, -22802.9814723708, -23804.965472813306, -17763.51246398836, -23855.99450540477, -23869.450255566866, -23877.854511482063, -15717.657293994105, -23760.105521691505, -23773.337754409047, -23844.818633177118, -22899.58571190664, -23856.799168205165, -23844.617467477023, -23884.940014474396, -15959.726686445081, -0.08005938925023293, 0.9317876606011997, -0.34152633012840306, 192.0, 126.5, 72.0, 14.5, 24.0, 122.5, 48.0, 0.0, 0.0, 0.0, 1.741902155607251E9, 0.0, 2025-03-13 16:42:35.607
182.0, -23790.973280784285, -22821.95810341336, -23805.09958328004, -17779.181036851533, -23856.15096761596, -23869.651421266964, -23877.027496937215, -15732.700018012527, -23761.446626358826, -23774.701210820822, -23846.427958777902, -22885.01237452178, -23858.162624616936, -23846.00327563325, -23889.566825576643, -16001.435041598683, -0.08005938925023293, 0.9317876606011997, -0.34152633012840306, 192.0, 0.0, 0.0, 0.0, 0.0, 0.0, 0.0, 0.0, 0.0, 0.0, 1.741902155609698E9, 0.0, 2025-03-13 16:42:35.609
184.0, -23788.358126683015, -22817.912437666946, -23802.596187901043, -17771.64849897009, -23853.558165259143, -23866.991563676784, -23875.596985292075, -15704.782689187849, -23759.300858891114, -23772.443684630834, -23843.991618632273, -22907.0064910658, -23856.01685714923, -23843.81280467663, -23883.218930151335, -15929.283610496952, -0.08005938925023293, 0.9317876606011997, -0.34152633012840306, 192.0, 0.0, 0.0, 0.0, 0.0, 0.0, 0.0, 0.0, 0.0, 0.0, 1.741902155611817E9, 0.0, 2025-03-13 16:42:35.611
186.0, -23787.70992609381, -22816.41487078844, -23801.858580334017, -17765.07708610023, -23852.887612925486, -23866.455121809857, -23875.194653891882, -15699.977064129956, -23757.73623677924, -23771.013172985695, -23842.49405175377, -22883.850083810103, -23854.519290270724, -23842.359941287035, -23881.073162683628, -15942.694657170137, -0.08005938925023293, 0.9317876606011997, -0.34152633012840306, 192.0, 0.0, 0.0, 0.0, 0.0, 0.0, 0.0, 0.0, 0.0, 0.0, 1.7419021556139E9, 0.0, 2025-03-13 16:42:35.613
188.0, -23787.464056904802, -22822.27102783573, -23801.545655911646, -17771.983775136923, -23852.507633269746, -23866.142197387482, -23874.792322491685, -15701.742851941926, -23758.116216434984, -23771.393152641434, -23843.119900598515, -22901.507961929794, -23854.854566437552, -23842.71756919832, -23886.325822630624, -16008.11821319082, -0.08005938925023293, 0.9317876606011997, -0.34152633012840306, 192.0, 0.0, 0.0, 0.0, 0.0, 0.0, 0.0, 0.0, 0.0, 0.0, 1.741902155615976E9, 0.0, 2025-03-13 16:42:35.615
190.0, -23785.7653243262, -22813.33033005361, -23800.070440777596, -17771.357926292174, -23850.987714646784, -23864.44346480888, -23873.33945910209, -15694.232665804944, -23756.193966411825, -23769.426199129368, -23841.130595341994, -22882.95601403189, -23852.887612925486, -23840.683560452886, -23882.54837781768, -15950.830692151869, -0.07902969462511647, 0.9298938303005999, -0.33976316506420157, 192.0, 126.5, 72.0, 14.5, 0.0, 122.5, 56.0, 0.0, 0.0, 0.0, 1.741902155617999E9, 0.0, 2025-03-13 16:42:35.617
192.0, -23786.36882142649, -22813.598550987073, -23800.606882644523, -17762.730152932425, -23851.591211747076, -23865.04696190917, -23873.987659691295, -15695.841991405725, -23756.283373389648, -23769.51560610719, -23841.041188364172, -22889.996813535312, -23852.999371647762, -23840.81767091962, -23878.592119049088, -15908.585895131338, -0.07902969462511647, 0.9298938303005999, -0.33976316506420157, 192.0, 0.0, 0.0, 0.0, 0.0, 0.0, 0.0, 0.0, 0.0, 0.0, 1.74190215562021E9, 0.0, 2025-03-13 16:42:35.620
194.0, -23785.161827225904, -22804.47903924931, -23799.37753669948, -17765.769990178345, -23850.38421754649, -23863.86231945304, -23872.66890676843, -15695.082032094246, -23755.724579778263, -23768.956812495806, -23840.61650521952, -22868.33797315812, -23852.418226291924, -23840.258877308235, -23883.35304061807, -16025.194945954676, -0.07902969462511647, 0.9298938303005999, -0.33976316506420157, 192.0, 0.0, 0.0, 0.0, 0.0, 0.0, 0.0, 0.0, 0.0, 0.0, 1.741902155667502E9, 0.0, 2025-03-13 16:42:35.667
196.0, -23786.14530398194, -22815.14082135449, -23800.293958222148, -17772.27434781484, -23851.322990813613, -23864.756389231254, -23873.562976546644, -15699.306511796298, -23755.389303611435, -23768.66623981789, -23840.348284286058, -22884.095952999112, -23852.060598380638, -23839.99065637477, -23883.554206318167, -16005.391300367273, -0.07902969462511647, 0.9298938303005999, -0.33976316506420157, 192.0, 0.0, 0.0, 0.0, 0.0, 0.0, 0.0, 0.0, 0.0, 0.0, 1.741902155669699E9, 0.0, 2025-03-13 16:42:35.669
198.0, -23787.665222604897, -22804.568446227127, -23801.925635567386, -17775.56005424977, -23852.90996466994, -23866.410418320946, -23875.373467847523, -15696.937226884036, -23756.79746351212, -23770.119103207482, -23841.82349942011, -22874.060019738678, -23853.53581351469, -23841.398816275458, -23883.308337129158, -15953.468197997594, -0.07902969462511647, 0.9298938303005999, -0.33976316506420157, 192.0, 0.0, 0.0, 0.0, 0.0, 0.0, 0.0, 0.0, 0.0, 0.0, 1.741902155671804E9, 0.0, 2025-03-13 16:42:35.671
200.0, -23787.12878073797, -22812.749184697772, -23801.32213846709, -17772.184940837018, -23852.306467569648, -23865.784569476196, -23874.658212024955, -15699.77589842986, -23757.959754223797, -23771.348449152523, -23842.695217453864, -22882.352516931598, -23854.742807715276, -23842.6281622205, -23880.62612779452, -15909.323502698364, -0.078, 0.932, -0.336, 192.0, 126.5, 72.0, 14.5, 16.0, 122.5, 64.0, 0.0, 0.0, 0.0, 1.741902155673923E9, 0.0, 2025-03-13 16:42:35.673
202.0, -23786.77115282669, -22800.99216711428, -23800.986862300262, -17771.80496118128, -23852.060598380638, -23865.382238076003, -23874.501749813768, -15688.644729691117, -23756.261021645194, -23769.605013085013, -23841.19765057536, -22869.746133058805, -23853.088778625584, -23840.907077897442, -23882.72719177332, -16002.954960221645, -0.078, 0.932, -0.336, 192.0, 0.0, 0.0, 0.0, 0.0, 0.0, 0.0, 0.0, 0.0, 0.0, 1.741902155676141E9, 0.0, 2025-03-13 16:42:35.676
204.0, -23787.106428993517, -22810.201085829867, -23801.232731489272, -17766.306432045276, -23852.35117105856, -23865.695162498378, -23874.457046324856, -15705.766165943882, -23756.75276002321, -23770.07439971857, -23841.86820290902, -22876.742229073316, -23853.62522049251, -23841.510574997734, -23885.20823540786, -16013.035596970987, -0.078, 0.932, -0.336, 192.0, 0.0, 0.0, 0.0, 0.0, 0.0, 0.0, 0.0, 0.0, 0.0, 1.741902155678335E9, 0.0, 2025-03-13 16:42:35.678
206.0, -23786.27941444867, -22794.93484436689, -23800.405716944424, -17762.931318632523, -23851.501804769257, -23864.82344446462, -23874.010011435752, -15685.984872100935, -23757.020980956673, -23770.23086192976, -23841.91290639793, -22865.119321956554, -23853.804034448152, -23841.756444186743, -23883.53185457371, -15953.155273575221, -0.078, 0.932, -0.336, 192.0, 0.0, 0.0, 0.0, 0.0, 0.0, 0.0, 0.0, 0.0, 0.0, 1.741902155680459E9, 0.0, 2025-03-13 16:42:35.680
208.0, -23786.972318526783, -22809.061146862645, -23801.09862102254, -17766.261728556365, -23852.217060591825, -23865.47164505382, -23874.322935858123, -15702.882790909147, -23756.596297812022, -23769.71677180729, -23841.220002319813, -22864.00173473379, -23853.401703047955, -23841.130595341994, -23879.799113249675, -15914.330293456353, -0.078, 0.932, -0.336, 192.0, 0.0, 0.0, 0.0, 0.0, 0.0, 0.0, 0.0, 0.0, 0.0, 1.741902155682526E9, 0.0, 2025-03-13 16:42:35.682
