%OpenBCI Raw EXG Data
%Number of channels = 16
%Sample Rate = 125 Hz
%Board = OpenBCI_GUI$BoardCytonSerialDaisy
Sample Index, EXG Channel 0, EXG Channel 1, EXG Channel 2, EXG Channel 3, EXG Channel 4, EXG Channel 5, EXG Channel 6, EXG Channel 7, EXG Channel 8, EXG Channel 9, EXG Channel 10, EXG Channel 11, EXG Channel 12, EXG Channel 13, EXG Channel 14, EXG Channel 15, Accel Channel 0, Accel Channel 1, Accel Channel 2, Not Used, Digital Channel 0 (D11), Digital Channel 1 (D12), Digital Channel 2 (D13), Digital Channel 3 (D17), Not Used, Digital Channel 4 (D18), Analog Channel 0, Analog Channel 1, Analog Channel 2, Timestamp, Marker Channel, Timestamp (Formatted)
16.0, -17325.462976153252, -40846.69540485089, -44233.252910763375, -10762.052030807976, -19769.425066640983, -13204.181278250371, -26669.073303827445, -35274.0255324871, -10764.823647120435, -17424.50355583472, -15833.685199461604, -4644.245462923702, -27441.683702669587, -20608.375443026478, -187500.02235174447, -38019.512655676925, 0.0, 0.0, 0.0, 192.0, 0.0, 0.0, 0.0, 0.0, 0.0, 0.0, 0.0, 0.0, 0.0, 1.742502525729971E9, 0.0, 2025-03-20 15:28:45.729
18.0, -17343.210261250766, -40845.01902401674, -44215.907957066054, -10751.524359169527, -19763.6136130826, -13190.099679243527, -26653.337675730905, -35258.155793923834, -10764.84599886489, -17409.326721349564, -15821.995237111478, -4639.10456169898, -27425.5233914284, -20601.245236545234, -187500.02235174447, -38005.34164969226, 0.0, 0.0, 0.0, 192.0, 0.0, 0.0, 0.0, 0.0, 0.0, 0.0, 0.0, 0.0, 0.0, 1.742502525730112E9, 0.0, 2025-03-20 15:28:45.730
20.0, -17313.10246146947, -40833.50787562226, -44219.50658792336, -10753.290146981495, -19751.43191235446, -13190.792583321641, -26652.533012930515, -35256.211192156225, -10748.8868533238, -17409.192610882834, -15814.12742306321, -4630.879119739428, -27424.025824549895, -20593.77975389716, -187500.02235174447, -37998.256146699925, 0.003, 0.488, -0.07, 192.0, 0.0, 24.0, 15.0, 64.0, 125.5, 80.0, 0.0, 0.0, 0.0, 1.742502525730207E9, 0.0, 2025-03-20 15:28:45.730
22.0, -17353.96145033377, -40849.6905386079, -44231.82239911824, -10764.063687808954, -19767.94985150693, -13188.758574576208, -26662.546594446492, -35260.77094802511, -10759.548635428982, -17408.186782382345, -15816.27319053092, -4636.779980275629, -27423.377623960692, -20599.36769001099, -187500.02235174447, -38001.76537057941, 0.003, 0.488, -0.07, 192.0, 0.0, 0.0, 0.0, 0.0, 0.0, 0.0, 0.0, 0.0, 0.0, 1.74250252573031E9, 0.0, 2025-03-20 15:28:45.730
24.0, -17322.51254588515, -40842.62738736003, -44250.97784411643, -10777.452382737683, -19773.87306378759, -13204.337740461558, -26679.04218185451, -35276.73009356619, -10761.113257540854, -17423.25185814522, -15829.080740103811, -4646.391230391411, -27440.38730149118, -20606.69906219233, -187500.02235174447, -38023.33480397878, 0.003, 0.488, -0.07, 192.0, 0.0, 0.0, 0.0, 0.0, 0.0, 0.0, 0.0, 0.0, 0.0, 1.742502525730415E9, 0.0, 2025-03-20 15:28:45.730
26.0, -17365.0479155836, -40855.97137879984, -44256.27520755234, -10776.22303679264, -19785.76419183781, -13205.23181023977, -26684.31719354596, -35282.8768232914, -10769.27164426704, -17421.68723603335, -15836.814443685347, -4652.202683949791, -27447.852784139253, -20613.35988204001, -187500.02235174447, -38035.06946981782, 0.003, 0.488, -0.07, 192.0, 0.0, 0.0, 0.0, 0.0, 0.0, 0.0, 0.0, 0.0, 0.0, 1.742502525730528E9, 0.0, 2025-03-20 15:28:45.730
28.0, -17326.4911563982, -40847.23184671782, -44260.05265236529, -10783.710871185169, -19783.640776114557, -13219.38046447998, -26688.09463835891, -35291.996335029165, -10768.735202400114, -17423.564782567595, -15839.206080342065, -4651.196855449302, -27448.702150428555, -20606.74376568124, -187500.02235174447, -38039.18219079759, 0.003, 0.488, -0.07, 192.0, 0.0, 0.0, 0.0, 0.0, 0.0, 0.0, 0.0, 0.0, 0.0, 1.742502525730655E9, 0.0, 2025-03-20 15:28:45.730
30.0, -17366.54548246211, -40860.218210246356, -44252.676576695034, -10775.127801314331, -19791.240369229363, -13208.204592252327, -26677.410504509273, -35282.27332619111, -10777.027699593033, -17433.444253616843, -15844.481092033517, -4662.2833206991345, -27451.786691163386, -20618.187858842357, -187500.02235174447, -38048.659330446644, 0.006500000000000001, 0.73, -0.10400000000000001, 192.0, 0.0, 40.0, 15.0, 48.0, 125.5, 88.0, 0.0, 0.0, 0.0, 1.742502525730735E9, 0.0, 2025-03-20 15:28:45.730
32.0, -17312.65542658036, -40837.26296869075, -44244.36172775766, -10765.56125468746, -19774.633023099068, -13204.628313139478, -26673.543652718505, -35273.26557317562, -10762.253196508074, -17415.54050630814, -15827.627876714216, -4646.1453612024025, -27435.849897366752, -20603.65922494641, -187500.02235174447, -38033.974234339505, 0.006500000000000001, 0.73, -0.10400000000000001, 192.0, 0.0, 0.0, 0.0, 0.0, 0.0, 0.0, 0.0, 0.0, 0.0, 1.742502525730824E9, 0.0, 2025-03-20 15:28:45.730
0.0, -8673.080345759434, -20405.578065583475, -22101.963711019005, -5384.06585264991, -9891.205715084758, -6621.033742551058, -13294.594084572087, -17601.05998528719, -5375.72865196808, -8708.48550897664, -7912.361074967513, -2320.0440192275073, -13717.37733094422, -10299.125051394112, -93750.01117587223, -19013.176144740122, 0.024, 0.974, -0.158, 192.0, 0.0, 96.0, 15.0, 56.0, 125.5, 8.0, 0.0, 0.0, 0.0, 1.742502525886361E9, 0.0, 2025-03-20 15:28:45.886
2.0, -17307.223952677723, -40795.91224144844, -44199.54648012477, -10762.074382552431, -19768.687459073957, -13237.932412377884, -26584.62841327529, -35197.64962168332, -10756.531149927516, -17470.905777323936, -15864.865882976757, -4673.280378971145, -27402.47874289498, -20425.314655937513, -187500.02235174447, -37968.57303006328, 0.024, 0.974, -0.158, 192.0, 0.0, 0.0, 0.0, 0.0, 0.0, 0.0, 0.0, 0.0, 0.0, 1.74250252588647E9, 0.0, 2025-03-20 15:28:45.886
4.0, -17320.634999350907, -40800.6284595285, -44212.286974464296, -10762.9908040751, -19774.700078332437, -13244.414418269924, -26596.094858180866, -35206.18798806524, -10743.03069627651, -17465.071972021102, -15858.003897428978, -4664.362032933478, -27390.699373567033, -20416.59747559994, -187500.02235174447, -37966.293152128834, 0.024, 0.974, -0.158, 192.0, 0.0, 0.0, 0.0, 0.0, 0.0, 0.0, 0.0, 0.0, 0.0, 1.742502525886547E9, 0.0, 2025-03-20 15:28:45.886
6.0, -17322.065510996046, -40803.66829677443, -44219.640698390096, -10765.27068200954, -19775.05770624372, -13246.403723526446, -26592.138599412276, -35207.193816565734, -10757.55933017246, -17478.639480905473, -15870.990260957511, -4675.135573760936, -27392.353402656725, -20435.171775242303, -187500.02235174447, -37967.075463184774, 0.024, 0.974, -0.158, 192.0, 0.0, 0.0, 0.0, 0.0, 0.0, 0.0, 0.0, 0.0, 0.0, 1.742502525886623E9, 0.0, 2025-03-20 15:28:45.886
8.0, -17314.71178707025, -40801.12019790652, -44212.219919230934, -10760.286242996008, -19766.519339861792, -13246.00139212625, -26587.042401676466, -35198.23076703915, -10739.610879374848, -17489.524780455205, -15865.111752165765, -4674.509724916187, -27388.732420054963, -20430.880240306884, -187500.02235174447, -37967.52249807388, 0.026000000000000002, 0.972, -0.162, 192.0, 0.0, 104.0, 15.0, 48.0, 125.0, 120.0, 0.0, 0.0, 0.0, 1.742502525886692E9, 0.0, 2025-03-20 15:28:45.886
10.0, -17318.779804561116, -40796.00164842625, -44199.94881152497, -10749.020963790532, -19758.115083946595, -13221.749749392242, -26570.524462523994, -35178.51652842957, -10748.573928901425, -17464.490826665264, -15864.262385876464, -4669.100602758003, -27383.36800138569, -20420.50903087962, -187500.02235174447, -37947.13770713064, 0.026000000000000002, 0.972, -0.162, 192.0, 0.0, 0.0, 0.0, 0.0, 0.0, 0.0, 0.0, 0.0, 0.0, 1.742502525886764E9, 0.0, 2025-03-20 15:28:45.886
12.0, -17316.455223137764, -40800.717866506326, -44210.36472444114, -10748.752742857068, -19763.34539214914, -13223.828461626586, -26581.87914870729, -35184.14916803231, -10745.087056766399, -17455.438370160864, -15858.003897428978, -4653.499085128198, -27376.6624780491, -20409.310806907513, -187500.02235174447, -37933.3019773128, 0.026000000000000002, 0.972, -0.162, 192.0, 0.0, 0.0, 0.0, 0.0, 0.0, 0.0, 0.0, 0.0, 0.0, 1.742502525886827E9, 0.0, 2025-03-20 15:28:45.886
14.0, -17339.67868562683, -40814.30772713515, -44218.6348698896, -10762.946100586189, -19771.593185853148, -13219.916906346907, -26580.225119617597, -35180.19290926372, -10764.667184909247, -17473.58798665857, -15872.443124347106, -4674.085041771536, -27379.70231529502, -20427.125147238392, -187500.02235174447, -37936.99001514793, 0.026000000000000002, 0.972, -0.162, 192.0, 0.0, 0.0, 0.0, 0.0, 0.0, 0.0, 0.0, 0.0, 0.0, 1.742502525886905E9, 0.0, 2025-03-20 15:28:45.886
16.0, -17325.217106964243, -40811.17848291141, -44230.50364619537, -10781.36393801736, -19772.44255214245, -13233.886746631473, -26591.22217788961, -35186.63021166685, -10765.963586087655, -17494.55392295765, -15881.182656429131, -4682.824573853562, -27383.479760107966, -20430.589667628967, -187500.02235174447, -37949.261122853895, 0.026000000000000002, 0.972, -0.162, 192.0, 0.0, 0.0, 0.0, 0.0, 0.0, 0.0, 0.0, 0.0, 0.0, 1.742502525945974E9, 0.0, 2025-03-20 15:28:45.945
18.0, -17336.750607103182, -40807.06576193163, -44224.78159961481, -10775.574836203437, -19778.276357445284, -13222.979095337283, -26589.34463135536, -35175.2531737391, -10751.613766147348, -17470.54814941265, -15877.181694171632, -4683.875105842961, -27383.79268453034, -20429.38267342838, -187500.02235174447, -37960.97343694847, 0.03, 0.974, -0.164, 192.0, 0.0, 120.0, 15.0, 56.0, 125.0, 112.0, 0.0, 0.0, 0.0, 1.742502525946058E9, 0.0, 2025-03-20 15:28:45.946
20.0, -17320.970275517735, -40815.73823878029, -44234.437553219504, -10789.343510787907, -19777.851674300633, -13240.5252147347, -26608.298910653462, -35190.16178729079, -10742.293088709484, -17468.8717685785, -15876.265272648965, -4676.566085406075, -27397.337841670258, -20418.586780856465, -187500.02235174447, -37969.48945158595, 0.03, 0.974, -0.164, 192.0, 0.0, 0.0, 0.0, 0.0, 0.0, 0.0, 0.0, 0.0, 0.0, 1.742502525946147E9, 0.0, 2025-03-20 15:28:45.946
22.0, -17355.704886401283, -40817.839302759094, -44225.11687578164, -10778.838190893912, -19783.126685992087, -13227.896479117451, -26595.98309945859, -35173.55444116049, -10774.881932125323, -17478.103039038546, -15895.1524967137, -4697.084986816048, -27410.368908687702, -20427.99686527215, -187500.02235174447, -37981.00059998043, 0.03, 0.974, -0.164, 192.0, 0.0, 0.0, 0.0, 0.0, 0.0, 0.0, 0.0, 0.0, 0.0, 1.742502525946209E9, 0.0, 2025-03-20 15:28:45.946
24.0, -17302.261865408644, -40789.36318032303, -44218.500759422874, -10771.126839056831, -19759.90322350302, -13226.644781427955, -26589.679907522193, -35170.58165914794, -10745.690553866692, -17453.717285837804, -15871.95138596909, -4671.0899080145255, -27391.638146834153, -20415.502240121634, -187500.02235174447, -37960.48169857046, 0.03, 0.974, -0.164, 192.0, 0.0, 0.0, 0.0, 0.0, 0.0, 0.0, 0.0, 0.0, 0.0, 1.742502525946284E9, 0.0, 2025-03-20 15:28:45.946
26.0, -17342.76322636166, -40804.56236655264, -44217.27141347783, -10764.264853509052, -19764.284165416262, -13223.247316270748, -26593.725573268603, -35163.786728833526, -10745.22116723313, -17448.17405321289, -15866.89989172219, -4671.492239414721, -27391.6157950897, -20407.455612117723, -187500.02235174447, -37947.920018186574, 0.03, 0.974, -0.164, 192.0, 0.0, 0.0, 0.0, 0.0, 0.0, 0.0, 0.0, 0.0, 0.0, 1.742502525946364E9, 0.0, 2025-03-20 15:28:45.946
28.0, -17296.04808045007, -40792.76064548024, -44221.294727479784, -10766.723545399136, -19751.074284443177, -13231.919793119407, -26593.166779657222, -35169.77699634755, -10759.839208106901, -17461.987431286267, -15875.170037170654, -4678.957722062793, -27398.120152726195, -20418.45267038973, -187500.02235174447, -37948.14353563113, 0.03, 0.97, -0.17200000000000001, 192.0, 0.0, 120.0, 15.0, 40.0, 125.0, 80.0, 0.0, 0.0, 0.0, 1.742502525946433E9, 0.0, 2025-03-20 15:28:45.946
30.0, -17330.268601211144, -40800.67316301741, -44212.37638144212, -10759.88391159581, -19758.696229302433, -13225.23662152727, -26582.437942318673, -35157.95292353069, -10755.525321427027, -17488.2283792768, -15866.251691132986, -4684.88093434345, -27394.47681837998, -20415.502240121634, -187500.02235174447, -37942.689709984035, 0.03, 0.97, -0.17200000000000001, 192.0, 0.0, 0.0, 0.0, 0.0, 0.0, 0.0, 0.0, 0.0, 0.0, 1.742502526006233E9, 0.0, 2025-03-20 15:28:46.006
32.0, -17272.489341794175, -40776.086244116574, -44203.815663315734, -10755.502969682571, -19743.85467098411, -13234.087912331572, -26581.655631262736, -35162.78090033304, -10737.17453922922, -17433.53366059466, -15848.526757779928, -4661.478657898743, -27394.02978349087, -20407.030928973072, -187500.02235174447, -37936.40886979209, 0.03, 0.97, -0.17200000000000001, 192.0, 0.0, 0.0, 0.0, 0.0, 0.0, 0.0, 0.0, 0.0, 0.0, 1.742502526006343E9, 0.0, 2025-03-20 15:28:46.006
34.0, -17315.56115335955, -40794.19115712537, -44205.3355819387, -10757.9393098282, -19757.57864207967, -13233.752636164741, -26584.918985953213, -35159.42813866474, -10725.909260023745, -17450.431579402873, -15846.179824612122, -4669.704099858296, -27390.051172977826, -20413.13295520937, -187500.02235174447, -37942.15326811711, 0.03, 0.97, -0.17200000000000001, 192.0, 0.0, 0.0, 0.0, 0.0, 0.0, 0.0, 0.0, 0.0, 0.0, 1.742502526006419E9, 0.0, 2025-03-20 15:28:46.006
36.0, -17280.915949453825, -40789.251421600755, -44216.936137311, -10766.880007610323, -19754.20352866692, -13244.995563625762, -26591.713916267625, -35173.46503418267, -10747.70221086767, -17449.716323580305, -15852.170092126144, -4680.589399408031, -27389.85000727773, -20408.819068529498, -187500.02235174447, -37937.928788415054, 0.03, 0.97, -0.17200000000000001, 192.0, 0.0, 0.0, 0.0, 0.0, 0.0, 0.0, 0.0, 0.0, 0.0, 1.742502526006495E9, 0.0, 2025-03-20 15:28:46.006
38.0, -17314.778842303615, -40798.90737520545, -44215.21505298794, -10770.36687974535, -19774.409505654516, -13241.5757467241, -26595.31254712493, -35177.01896155107, -10744.79648408848, -17472.202178502343, -15859.90379570768, -4690.133594290447, -27401.741135327953, -20423.928847781284, -187500.02235174447, -37962.828631738266, 0.03, 0.966, -0.17200000000000001, 192.0, 0.0, 120.0, 15.0, 24.0, 125.0, 80.0, 0.0, 0.0, 0.0, 1.74250252600657E9, 0.0, 2025-03-20 15:28:46.006
40.0, -17263.79451320106, -40773.42638652639, -44212.51049190885, -10768.869312866846, -19759.612650825104, -13242.939203135873, -26601.280462894498, -35180.90816508629, -10715.538050596482, -17454.49959689374, -15836.903850663168, -4677.795431351117, -27390.967594500496, -20408.66260631831, -187500.02235174447, -37963.163907905095, 0.03, 0.966, -0.17200000000000001, 192.0, 0.0, 0.0, 0.0, 0.0, 0.0, 0.0, 0.0, 0.0, 0.0, 1.742502526006644E9, 0.0, 2025-03-20 15:28:46.006
42.0, -17302.977121231215, -40786.993895410764, -44216.265584977344, -10771.015080334555, -19775.8176655552, -13252.103418362549, -26611.36109964384, -35188.73127564565, -10718.734350053592, -17430.896154748938, -15836.926202407623, -4665.814896323072, -27393.761562557407, -20415.81516454401, -187500.02235174447, -37969.35534111921, 0.03, 0.966, -0.17200000000000001, 192.0, 0.0, 0.0, 0.0, 0.0, 0.0, 0.0, 0.0, 0.0, 0.0, 1.742502526006719E9, 0.0, 2025-03-20 15:28:46.006
44.0, -17267.08021963599, -40772.97935163729, -44214.36568669864, -10770.009251834066, -19760.372610136583, -13246.023743870706, -26599.089991937875, -35181.93634533123, -10734.022943261021, -17442.519061865696, -15843.028228643923, -4673.59330339352, -27392.398106145636, -20416.17279245529, -187500.02235174447, -37972.953971976516, 0.03, 0.966, -0.17200000000000001, 192.0, 0.0, 0.0, 0.0, 0.0, 0.0, 0.0, 0.0, 0.0, 0.0, 1.742502526006783E9, 0.0, 2025-03-20 15:28:46.006
46.0, -17296.47276359472, -40786.01041865473, -44220.84769259068, -10773.429068735728, -19767.614575340103, -13242.961554880329, -26599.8275995049, -35180.23761275263, -10718.9802192426, -17454.656059104927, -15844.481092033517, -4678.577742407053, -27400.578844616277, -20416.105737221926, -187500.02235174447, -37966.85194574022, 0.03, 0.966, -0.17200000000000001, 192.0, 0.0, 0.0, 0.0, 0.0, 0.0, 0.0, 0.0, 0.0, 0.0, 1.742502526066448E9, 0.0, 2025-03-20 15:28:46.066
48.0, -17274.724516239705, -40781.16009010793, -44219.43953269, -10766.030641321022, -19757.958621735408, -13242.559223480133, -26594.194959902165, -35175.65550513929, -10729.194966458675, -17443.189614199357, -15848.482054291018, -4677.795431351117, -27401.562321372312, -20416.351606410935, -187500.02235174447, -37962.13572766015, 0.038, 0.96, -0.17200000000000001, 192.0, 0.5, 24.0, 15.0, 0.0, 125.0, 80.0, 0.0, 0.0, 0.0, 1.742502526066557E9, 0.0, 2025-03-20 15:28:46.066
50.0, -17305.592275332485, -40795.889889703976, -44227.41910546054, -10769.472809967137, -19768.061610229208, -13247.275441560203, -26599.78289601599, -35181.73517963114, -10739.812045074947, -17477.633652404984, -15856.506330550472, -4686.110280288492, -27400.780010316375, -20424.28647569257, -187500.02235174447, -37958.47004156948, 0.038, 0.96, -0.17200000000000001, 192.0, 0.0, 0.0, 0.0, 0.0, 0.0, 0.0, 0.0, 0.0, 0.0, 1.742502526066626E9, 0.0, 2025-03-20 15:28:46.066
52.0, -17272.98108017219, -40765.04448235565, -44207.32488719522, -10745.288222466495, -19750.649601298526, -13221.19095578086, -26577.565262027416, -35158.42231016425, -10739.02973401901, -17442.83198628807, -15847.029190901423, -4674.979111549748, -27402.210521961515, -20416.329254666478, -187500.02235174447, -37939.87339018266, 0.038, 0.96, -0.17200000000000001, 192.0, 0.0, 0.0, 0.0, 0.0, 0.0, 0.0, 0.0, 0.0, 0.0, 1.742502526066694E9, 0.0, 2025-03-20 15:28:46.066
54.0, -17280.692432009273, -40768.71016844633, -44206.43081741701, -10745.60114688887, -19748.928516975466, -13225.61660118301, -26577.63231726078, -35160.38926367632, -10695.153259653242, -17424.97294246828, -15830.868879660236, -4656.1812944628355, -27390.52055961139, -20399.252521902625, -187500.02235174447, -37920.67324169556, 0.038, 0.96, -0.17200000000000001, 192.0, 0.0, 0.0, 0.0, 0.0, 0.0, 0.0, 0.0, 0.0, 0.0, 1.742502526066761E9, 0.0, 2025-03-20 15:28:46.066
56.0, -17279.708955253238, -40766.676159700895, -44209.42595117402, -10755.122990026832, -19744.72638901787, -13235.205499554337, -26578.951070183644, -35165.887792812326, -10730.871347292823, -17439.859204275515, -15836.501519262973, -4667.759498090684, -27391.481684622966, -20408.059109218015, -187500.02235174447, -37927.93755864353, 0.038, 0.96, -0.17200000000000001, 192.0, 0.0, 0.0, 0.0, 0.0, 0.0, 0.0, 0.0, 0.0, 0.0, 1.742502526066839E9, 0.0, 2025-03-20 15:28:46.066
58.0, -17270.18711211528, -40761.40114800944, -44207.816625573236, -10764.13074304232, -19742.558269805704, -13241.218118812814, -26580.091009150867, -35171.34161845942, -10710.419501116217, -17458.254689962232, -15833.171109339131, -4670.799335336606, -27379.74701878393, -20409.400213885336, -187500.02235174447, -37954.491431056435, 0.038, 0.968, -0.178, 192.0, 0.5, 24.0, 15.0, 32.0, 125.0, 56.0, 0.0, 0.0, 0.0, 1.742502526066911E9, 0.0, 2025-03-20 15:28:46.066
60.0, -17290.348385613965, -40773.515793504215, -44221.9876315579, -10778.681728682724, -19756.259889156805, -13247.230738071292, -26587.288270865476, -35178.13654877384, -10722.780015800003, -17434.315971650598, -15835.786263440403, -4668.2735882131565, -27382.697449052033, -20412.842382531453, -187500.02235174447, -37968.975361463476, 0.038, 0.968, -0.178, 192.0, 0.0, 0.0, 0.0, 0.0, 0.0, 0.0, 0.0, 0.0, 0.0, 1.742502526126662E9, 0.0, 2025-03-20 15:28:46.126
62.0, -17259.27946082109, -40754.427403739384, -44208.42012267353, -10766.254158765574, -19748.459130341904, -13240.502862990244, -26585.67894526469, -35171.22985973714, -10717.192079686176, -17450.051599747134, -15835.719208207038, -4670.732280103241, -27380.238757161947, -20413.535286609567, -187500.02235174447, -37979.92771624657, 0.038, 0.968, -0.178, 192.0, 0.0, 0.0, 0.0, 0.0, 0.0, 0.0, 0.0, 0.0, 0.0, 1.742502526126768E9, 0.0, 2025-03-20 15:28:46.126
64.0, -17281.318280854022, -40758.0707380856, -44206.72139009493, -10758.56515867295, -19745.754569262812, -13235.227851298792, -26577.989945172067, -35168.21237423568, -10703.713977779626, -17422.111919178, -15820.877649888713, -4659.712870086774, -27367.095931422227, -20407.857943517916, -187500.02235174447, -37962.403948593615, 0.038, 0.968, -0.178, 192.0, 0.0, 0.0, 0.0, 0.0, 0.0, 0.0, 0.0, 0.0, 0.0, 1.742502526126842E9, 0.0, 2025-03-20 15:28:46.126
66.0, -17262.542815511562, -40757.8695723855, -44216.80202684427, -10767.639966921803, -19749.353200120117, -13244.302659547648, -26596.810114003434, -35180.550537175004, -10703.736329524081, -17431.276134404678, -15827.069083102833, -4658.72939333074, -27371.70039078002, -20405.443955116745, -187500.02235174447, -37959.78879449234, 0.038, 0.968, -0.178, 192.0, 0.0, 0.0, 0.0, 0.0, 0.0, 0.0, 0.0, 0.0, 0.0, 1.742502526126914E9, 0.0, 2025-03-20 15:28:46.126
68.0, -17294.505810082654, -40769.44777601335, -44210.23061397441, -10759.36982147334, -19754.918784489488, -13229.818729140608, -26580.78391322898, -35164.211411978176, -10718.376722142306, -17449.068122991102, -15836.836795429803, -4674.174448749358, -27373.421475103078, -20411.23305693067, -187500.02235174447, -37957.777137491365, 0.036000000000000004, 0.964, -0.184, 192.0, 0.5, 16.0, 15.0, 16.0, 125.0, 32.0, 0.0, 0.0, 0.0, 1.742502526126996E9, 0.0, 2025-03-20 15:28:46.126
70.0, -17269.69537373726, -40774.16399409342, -44226.59209091569, -10772.289129768507, -19746.648639041025, -13239.988772867773, -26587.824712732403, -35176.43781619523, -10724.009361745044, -17448.37521891299, -15840.793054198391, -4675.046166783115, -27373.644992547634, -20411.52362960859, -187500.02235174447, -37949.84226820973, 0.036000000000000004, 0.964, -0.184, 192.0, 0.0, 0.0, 0.0, 0.0, 0.0, 0.0, 0.0, 0.0, 0.0, 1.742502526127075E9, 0.0, 2025-03-20 15:28:46.127
72.0, -17310.509659112653, -40779.237840084774, -44222.09939028018, -10753.13368477031, -19758.539767091246, -13229.259935529226, -26578.43698006117, -35163.27263871105, -10732.055989748955, -17444.530718866674, -15848.70557173557, -4679.985902307738, -27372.6615157916, -20417.335083166967, -187500.02235174447, -37942.48854428394, 0.036000000000000004, 0.964, -0.184, 192.0, 0.0, 0.0, 0.0, 0.0, 0.0, 0.0, 0.0, 0.0, 0.0, 1.74250252612714E9, 0.0, 2025-03-20 15:28:46.127
74.0, -17274.523350539606, -40776.64503772796, -44226.56973917124, -10751.680821380714, -19754.874081000577, -13226.287153516669, -26578.369924827806, -35163.920839300255, -10727.630344346804, -17459.93107079638, -15847.163301368155, -4674.6661871273745, -27388.12892295467, -20415.256370932624, -187500.02235174447, -37925.25534930889, 0.036000000000000004, 0.964, -0.184, 192.0, 0.0, 0.0, 0.0, 0.0, 0.0, 0.0, 0.0, 0.0, 0.0, 1.742502526127209E9, 0.0, 2025-03-20 15:28:46.127
76.0, -17304.206467176256, -40779.036674384675, -44213.24809947587, -10738.470940407627, -19758.316249646694, -13216.832365612074, -26568.78102645648, -35153.996664762104, -10714.442815118173, -17450.02924800268, -15838.84845243078, -4669.480582413743, -27386.787818287354, -20404.95221673873, -187500.02235174447, -37917.231073049436, 0.036000000000000004, 0.964, -0.184, 192.0, 0.0, 0.0, 0.0, 0.0, 0.0, 0.0, 0.0, 0.0, 0.0, 1.742502526187013E9, 0.0, 2025-03-20 15:28:46.187
78.0, -17266.2755568356, -40773.78401443768, -44226.614442660146, -10763.527245942027, -19751.186043165453, -13237.083046088583, -26582.79557022996, -35174.09088302742, -10718.667294820225, -17443.860166533013, -15838.155548352666, -4664.294977700112, -27379.94818448403, -20408.23792317366, -187500.02235174447, -37921.74612542941, 0.036000000000000004, 0.97, -0.188, 192.0, 0.5, 16.0, 15.0, 40.0, 125.0, 16.0, 0.0, 0.0, 0.0, 1.742502526187118E9, 0.0, 2025-03-20 15:28:46.187
80.0, -17317.125775471424, -40789.16201462293, -44221.3394309687, -10775.50778097007, -19757.9139182465, -13248.258918316236, -26577.475855049594, -35174.15793826079, -10733.240632205085, -17461.830969075083, -15853.108865393266, -4685.551486677109, -27389.917062511096, -20432.6236763744, -187500.02235174447, -37956.592495035235, 0.036000000000000004, 0.97, -0.188, 192.0, 0.0, 0.0, 0.0, 0.0, 0.0, 0.0, 0.0, 0.0, 0.0, 1.742502526187202E9, 0.0, 2025-03-20 15:28:46.187
82.0, -17266.36496381342, -40772.93464814838, -44217.47257917793, -10783.912036885267, -19745.173423906974, -13259.43479054389, -26585.231910375587, -35186.83137736695, -10714.822794773912, -17451.59387011455, -15837.596754741284, -4674.643835382919, -27380.149350184125, -20415.703405821732, -187500.02235174447, -37959.945256703526, 0.036000000000000004, 0.97, -0.188, 192.0, 0.0, 0.0, 0.0, 0.0, 0.0, 0.0, 0.0, 0.0, 0.0, 1.742502526187274E9, 0.0, 2025-03-20 15:28:46.187
84.0, -17309.2356096787, -40789.676104745406, -44214.27627972082, -10781.520400228548, -19759.411485125005, -13254.495055019266, -26581.49916905155, -35185.49027269963, -10740.817873575435, -17462.725038853292, -15850.650173503182, -4685.93146633285, -27389.00064098843, -20434.680036864287, -187500.02235174447, -37982.02878022537, 0.036000000000000004, 0.97, -0.188, 192.0, 0.0, 0.0, 0.0, 0.0, 0.0, 0.0, 0.0, 0.0, 0.0, 1.742502526187359E9, 0.0, 2025-03-20 15:28:46.187
86.0, -17249.712914194217, -40757.89192412996, -44209.358895940655, -10768.534036700015, -19750.560194320704, -13248.258918316236, -26587.13180865429, -35184.14916803231, -10703.445756846162, -17459.953422540835, -15832.098225605278, -4674.107393515992, -27367.65472503361, -20417.491545378154, -187500.02235174447, -37973.33395163226, 0.036000000000000004, 0.97, -0.188, 192.0, 0.0, 0.0, 0.0, 0.0, 0.0, 0.0, 0.0, 0.0, 0.0, 1.742502526187425E9, 0.0, 2025-03-20 15:28:46.187
88.0, -17298.57382757352, -40778.43317728439, -44213.11398900914, -10765.695365154192, -19765.53586310576, -13238.04417110016, -26585.902462709244, -35176.77309236206, -10703.490460335071, -17438.227526930277, -15834.534565750906, -4663.624425366453, -27368.705257023008, -20414.56346685451, -187500.02235174447, -37969.0647684413, 0.038, 0.974, -0.19, 192.0, 0.5, 24.0, 15.0, 56.0, 125.0, 8.0, 0.0, 0.0, 0.0, 1.742502526187497E9, 0.0, 2025-03-20 15:28:46.187
90.0, -17263.235719589677, -40763.9715986218, -44214.34333495419, -10759.41452496225, -19745.441644840437, -13238.67001994491, -26573.519596281007, -35174.67202838326, -10729.97727751461, -17449.73867532476, -15846.403342056674, -4671.983977792737, -27374.851986748217, -20410.584856341466, -187500.02235174447, -37957.37480609117, 0.038, 0.974, -0.19, 192.0, 0.0, 0.0, 0.0, 0.0, 0.0, 0.0, 0.0, 0.0, 0.0, 1.742502526247819E9, 0.0, 2025-03-20 15:28:46.247
92.0, -17289.65548153585, -40766.34088353406, -44208.59893662917, -10748.015135290043, -19750.269621642783, -13220.319237747102, -26568.06577063391, -35157.416481663764, -10709.860707504835, -17443.949573510836, -15835.94272565159, -4660.562236376076, -27367.855890733706, -20403.52170509359, -187500.02235174447, -37941.79564020582, 0.038, 0.974, -0.19, 192.0, 0.0, 0.0, 0.0, 0.0, 0.0, 0.0, 0.0, 0.0, 0.0, 1.742502526247906E9, 0.0, 2025-03-20 15:28:46.247
94.0, -17259.257109076632, -40755.38852875096, -44219.81951234573, -10746.718734111635, -19750.00140070932, -13222.353246492536, -26571.239718346565, -35156.924743285745, -10708.005512715044, -17431.522003593684, -15834.534565750906, -4657.611806107975, -27362.60323078671, -20399.14076318035, -187500.02235174447, -37925.769439431366, 0.038, 0.974, -0.19, 192.0, 0.0, 0.0, 0.0, 0.0, 0.0, 0.0, 0.0, 0.0, 0.0, 1.742502526247971E9, 0.0, 2025-03-20 15:28:46.247
96.0, -17283.46404832173, -40757.243723540756, -44211.07998026371, -10738.783864830002, -19751.700133287923, -13217.860545857018, -26557.135767595264, -35152.07441473895, -10703.646922546259, -17440.59681184254, -15836.970905896535, -4659.109372986481, -27366.403027344113, -20402.5158765931, -187500.02235174447, -37926.1494190871, 0.038, 0.974, -0.186, 192.0, 0.5, 24.0, 15.0, 56.0, 125.0, 40.0, 0.0, 0.0, 0.0, 1.742502526248041E9, 0.0, 2025-03-20 15:28:46.248
98.0, -17258.944184654258, -40748.86181937001, -44207.30253545076, -10734.805254316958, -19746.067493685186, -13213.747824877242, -26558.387465284763, -35149.28044668203, -10716.163899441231, -17424.63766630145, -15827.270248802932, -4648.961681003771, -27345.347684067212, -20390.669452031787, -187500.02235174447, -37907.84334037821, 0.038, 0.974, -0.186, 192.0, 0.0, 0.0, 0.0, 0.0, 0.0, 0.0, 0.0, 0.0, 0.0, 1.742502526248114E9, 0.0, 2025-03-20 15:28:46.248
100.0, -17288.09085942398, -40768.84427891306, -44213.44926517597, -10748.372763201329, -19758.271546157783, -13227.114168061516, -26566.389389799762, -35159.98693227612, -10705.54682082496, -17436.17116644039, -15835.719208207038, -4657.097715985503, -27369.107588423205, -20403.365242882403, -187500.02235174447, -37920.11444808417, 0.038, 0.974, -0.186, 192.0, 0.0, 0.0, 0.0, 0.0, 0.0, 0.0, 0.0, 0.0, 0.0, 1.742502526248193E9, 0.0, 2025-03-20 15:28:46.248
102.0, -17270.835312704483, -40759.14362181945, -44204.106235993655, -10747.277527723018, -19744.972258206875, -13217.860545857018, -26559.14742459624, -35154.75662407358, -10710.777129027501, -17441.379122898474, -15831.718245949538, -4662.216265465769, -27357.954067940005, -20404.32636789398, -187500.02235174447, -37924.31657604177, 0.038, 0.974, -0.186, 192.0, 0.0, 0.0, 0.0, 0.0, 0.0, 0.0, 0.0, 0.0, 0.0, 1.74250252624827E9, 0.0, 2025-03-20 15:28:46.248
104.0, -17279.284272108587, -40766.095014345054, -44210.8341110747, -10757.335812727906, -19750.91782223199, -13231.740979163764, -26564.891822921258, -35166.2007172347, -10698.707187021637, -17437.02053272969, -15832.56761223884, -4660.517532887165, -27350.533288780844, -20400.4148126143, -187500.02235174447, -37938.912265171086, 0.038, 0.974, -0.186, 192.0, 0.0, 0.0, 0.0, 0.0, 0.0, 0.0, 0.0, 0.0, 0.0, 1.742502526248342E9, 0.0, 2025-03-20 15:28:46.248
106.0, -17271.952899927248, -40761.78112766518, -44205.76026508335, -10754.072458037432, -19754.38234262256, -13233.059732086627, -26567.97636365609, -35172.302743470995, -10709.346617382362, -17439.009837986214, -15836.412112285152, -4666.6866143568295, -27360.904498208107, -20412.350644153434, -187500.02235174447, -37958.04535842483, 0.038, 0.975, -0.181, 192.0, 0.5, 24.0, 15.0, 64.0, 125.0, 64.0, 0.0, 0.0, 0.0, 1.742502526306274E9, 0.0, 2025-03-20 15:28:46.306
108.0, -17278.837237219483, -40771.10180510304, -44210.02944827431, -10761.381478474317, -19755.231708911862, -13236.256031543737, -26574.59248001486, -35177.95773481819, -10697.433137587685, -17428.88449774796, -15830.488900004495, -4655.153114217891, -27356.70237025051, -20404.929864994272, -187500.02235174447, -37962.47100382698, 0.038, 0.975, -0.181, 192.0, 0.0, 0.0, 0.0, 0.0, 0.0, 0.0, 0.0, 0.0, 0.0, 1.742502526306355E9, 0.0, 2025-03-20 15:28:46.306
110.0, -17291.33186237, -40775.30393306064, -44211.0352767748, -10763.504894197571, -19763.837130527154, -13236.412493754924, -26578.347573083352, -35179.18708076323, -10727.540937368982, -17446.050637489636, -15844.525795522428, -4673.056861526592, -27360.837442974742, -20410.13782145236, -187500.02235174447, -37966.80724225131, 0.038, 0.975, -0.181, 192.0, 0.0, 0.0, 0.0, 0.0, 0.0, 0.0, 0.0, 0.0, 0.0, 1.74250252630644E9, 0.0, 2025-03-20 15:28:46.306
112.0, -17277.429077318797, -40777.40499703944, -44222.32290772473, -10763.147266286287, -19765.87113927259, -13236.5242524772, -26585.343669097863, -35177.73421737364, -10707.647884803759, -17440.68621882036, -15842.894118177192, -4670.195838236313, -27353.237849859936, -20407.857943517916, -187500.02235174447, -37965.75671026191, 0.038, 0.975, -0.181, 192.0, 0.0, 0.0, 0.0, 0.0, 0.0, 0.0, 0.0, 0.0, 0.0, 1.742502526306516E9, 0.0, 2025-03-20 15:28:46.306
114.0, -17305.90519975486, -40789.54199427867, -44227.597919416185, -10763.616652919847, -19778.790447567757, -13229.438749484867, -26579.219291117108, -35173.777958605046, -10723.383512900295, -17451.906794536924, -15852.37125782624, -4679.583570907542, -27367.341800611237, -20418.497373878643, -187500.02235174447, -37954.7596519899, 0.038, 0.975, -0.181, 192.0, 0.0, 0.0, 0.0, 0.0, 0.0, 0.0, 0.0, 0.0, 0.0, 1.742502526306583E9, 0.0, 2025-03-20 15:28:46.306
116.0, -17279.910120953336, -40777.44970052835, -44235.17516078653, -10758.006365061567, -19772.24138644235, -13233.484415231278, -26580.98507892908, -35176.080188283944, -10719.06962622042, -17441.759102554217, -15857.33334509532, -4675.873181327961, -27374.22613790347, -20412.99884474264, -187500.02235174447, -37951.45159381051, 0.038, 0.9744999999999999, -0.1775, 192.0, 0.5, 24.0, 15.0, 56.0, 125.0, 72.0, 0.0, 0.0, 0.0, 1.742502526306649E9, 0.0, 2025-03-20 15:28:46.306
118.0, -17301.39014737489, -40778.902563917945, -44222.635832147105, -10744.841187577389, -19777.20347371143, -13220.319237747102, -26572.11143638032, -35169.10644401389, -10733.106521738353, -17444.754236311226, -15859.345002096297, -4674.912056316382, -27376.6624780491, -20414.85403953243, -187500.02235174447, -37936.811201192286, 0.038, 0.9744999999999999, -0.1775, 192.0, 0.0, 0.0, 0.0, 0.0, 0.0, 0.0, 0.0, 0.0, 0.0, 1.742502526306721E9, 0.0, 2025-03-20 15:28:46.306
120.0, -17265.716763224216, -40772.68877895937, -44229.073134550235, -10748.84214983489, -19765.53586310576, -13228.030589584183, -26577.297041093952, -35170.089920769926, -10702.015245201022, -17430.73969253775, -15838.937859408601, -4656.225997951746, -27350.488585291932, -20406.36037663941, -187500.02235174447, -37922.86371265217, 0.038, 0.9744999999999999, -0.1775, 192.0, 0.0, 0.0, 0.0, 0.0, 0.0, 0.0, 0.0, 0.0, 0.0, 1.742502526366498E9, 0.0, 2025-03-20 15:28:46.366
122.0, -17307.738042800196, -40787.46328204433, -44232.627061918625, -10756.933481327711, -19781.897340047042, -13225.169566293904, -26576.06769514891, -35168.190022491224, -10730.893699037279, -17459.64049811846, -15858.406228829173, -4680.634102896941, -27368.638201789643, -20423.727682081186, -187500.02235174447, -37934.17369534656, 0.038, 0.9744999999999999, -0.1775, 192.0, 0.0, 0.0, 0.0, 0.0, 0.0, 0.0, 0.0, 0.0, 0.0, 1.742502526366607E9, 0.0, 2025-03-20 15:28:46.366
124.0, -17251.881033406382, -40760.082395086574, -44218.500759422874, -10751.74787661408, -19760.28320315876, -13225.884822116474, -26570.30094507944, -35171.92276381526, -10716.230954674596, -17439.50157636423, -15846.51510077895, -4666.664262612375, -27359.384579585145, -20418.94440876775, -187500.02235174447, -37931.58089298975, 0.038, 0.9744999999999999, -0.1775, 192.0, 0.0, 0.0, 0.0, 0.0, 0.0, 0.0, 0.0, 0.0, 0.0, 1.742502526366687E9, 0.0, 2025-03-20 15:28:46.366
126.0, -17295.735156027695, -40767.011435867724, -44213.337506453696, -10751.74787661408, -19772.174331208986, -13226.801243639142, -26572.0220294025, -35171.609839392884, -10699.109518421832, -17434.53948909515, -15832.679370961116, -4660.919864287361, -27368.302925622815, -20414.339949409958, -187500.02235174447, -37934.66543372458, 0.04, 0.96925, -0.17675, 192.0, 0.5, 40.0, 15.0, 16.0, 125.0, 64.0, 0.0, 0.0, 0.0, 1.742502526366764E9, 0.0, 2025-03-20 15:28:46.366
128.0, -17252.730399695683, -40753.26511302771, -44216.15382625507, -10762.36495523035, -19760.596127581135, -13233.372656509002, -26582.460294063127, -35184.97618257716, -10696.8743439763, -17431.11967219349, -15833.014647127946, -4657.365936918966, -27354.690713249533, -20413.75880405412, -187500.02235174447, -37949.57404727627, 0.04, 0.96925, -0.17675, 192.0, 0.0, 0.0, 0.0, 0.0, 0.0, 0.0, 0.0, 0.0, 0.0, 1.742502526366845E9, 0.0, 2025-03-20 15:28:46.366
130.0, -17302.41832761983, -40771.437081269876, -44219.484236178905, -10761.895568596789, -19774.05187774323, -13237.015990855216, -26579.800436472946, -35185.937307588734, -10698.371910854807, -17432.013741971703, -15837.08266461881, -4660.249311953701, -27355.003637671907, -20420.687844835265, -187500.02235174447, -37964.88499222815, 0.04, 0.96925, -0.17675, 192.0, 0.0, 0.0, 0.0, 0.0, 0.0, 0.0, 0.0, 0.0, 0.0, 1.742502526366914E9, 0.0, 2025-03-20 15:28:46.366
132.0, -17273.495170294664, -40772.755834192736, -44231.017736317845, -10770.724507656636, -19765.982897994865, -13240.324049034602, -26590.39516334476, -35195.77207514907, -10707.290256892475, -17442.74257931025, -15847.47622579053, -4667.960663790782, -27347.85107944621, -20421.17958321328, -187500.02235174447, -37964.639123039145, 0.04, 0.96925, -0.17675, 192.0, 0.0, 0.0, 0.0, 0.0, 0.0, 0.0, 0.0, 0.0, 0.0, 1.742502526366985E9, 0.0, 2025-03-20 15:28:46.366
134.0, -17313.90712426986, -40780.91422091892, -44227.97789907192, -10755.592376660392, -19773.47073238739, -13223.828461626586, -26580.44863706215, -35180.572888919465, -10704.675102791203, -17436.573497840585, -15853.019458415445, -4667.401870179399, -27356.925887695063, -20424.08530999247, -187500.02235174447, -37963.52153581638, 0.04, 0.96925, -0.17675, 192.0, 0.0, 0.0, 0.0, 0.0, 0.0, 0.0, 0.0, 0.0, 0.0, 1.742502526367056E9, 0.0, 2025-03-20 15:28:46.367
136.0, -17268.89071093687, -40763.43515675487, -44227.240291504895, -10753.424257448229, -19762.13839794855, -13215.04422605565, -26578.45933180563, -35171.36397020388, -10715.336884896384, -17431.991390227246, -15854.606432271772, -4664.406736422388, -27361.530347052856, -20408.215571429202, -187500.02235174447, -37948.92584668706, 0.039, 0.968625, -0.178375, 192.0, 0.5, 24.0, 15.0, 32.0, 125.0, 48.0, 0.0, 0.0, 0.0, 1.742502526426955E9, 0.0, 2025-03-20 15:28:46.426
138.0, -17311.873115524428, -40779.93074416289, -44227.12853278262, -10750.9879173026, -19774.163636465506, -13201.99080729375, -26569.272764834495, -35160.925705543246, -10700.741195767068, -17430.40441637092, -15849.934917680612, -4660.003442764693, -27362.759692997897, -20418.005635500627, -187500.02235174447, -37939.404003549105, 0.039, 0.968625, -0.178375, 192.0, 0.0, 0.0, 0.0, 0.0, 0.0, 0.0, 0.0, 0.0, 0.0, 1.742502526427038E9, 0.0, 2025-03-20 15:28:46.427
140.0, -17279.17251338631, -40775.79567143866, -44235.08575380871, -10756.777019116524, -19765.692325316944, -13212.607885910022, -26575.97828817109, -35172.43685393773, -10713.057006961943, -17433.511308850208, -15852.304202592875, -4664.8090678225835, -27356.79177722833, -20421.783080313573, -187500.02235174447, -37923.98129987494, 0.039, 0.968625, -0.178375, 192.0, 0.0, 0.0, 0.0, 0.0, 0.0, 0.0, 0.0, 0.0, 0.0, 1.742502526427104E9, 0.0, 2025-03-20 15:28:46.427
142.0, -17319.71857782824, -40795.42050307042, -44241.81362888976, -10758.855731350868, -19774.92359577699, -13215.938295833863, -26576.112398637822, -35170.82752833695, -10728.8820420363, -17454.611355616016, -15865.223510888043, -4676.946065061816, -27366.60419304421, -20436.244658976157, -187500.02235174447, -37930.306843555794, 0.039, 0.968625, -0.178375, 192.0, 0.0, 0.0, 0.0, 0.0, 0.0, 0.0, 0.0, 0.0, 0.0, 1.742502526427209E9, 0.0, 2025-03-20 15:28:46.427
144.0, -17273.249301105654, -40772.15233709244, -44226.70384963797, -10744.416504432738, -19757.109255446107, -13209.456289941823, -26567.39521830025, -35167.050083524, -10706.26207664753, -17444.374256655487, -15846.380990312218, -4665.2784544561455, -27347.202878857002, -20422.341873924957, -187500.02235174447, -37911.30786076878, 0.039, 0.968625, -0.178375, 192.0, 0.0, 0.0, 0.0, 0.0, 0.0, 0.0, 0.0, 0.0, 0.0, 1.742502526427285E9, 0.0, 2025-03-20 15:28:46.427
146.0, -17300.47372585222, -40777.38264529499, -44225.11687578164, -10744.260042221553, -19765.312345661205, -13218.575801679588, -26576.984116671578, -35174.98495280564, -10703.110480679332, -17445.715361322804, -15849.733751980515, -4662.5738933770535, -27354.668361505075, -20430.634371117874, -187500.02235174447, -37924.294224297315, 0.037500000000000006, 0.9693125, -0.1811875, 192.0, 0.5, 16.0, 15.0, 40.0, 125.0, 32.0, 0.0, 0.0, 0.0, 1.742502526427363E9, 0.0, 2025-03-20 15:28:46.427
148.0, -17275.90915869584, -40769.872459158, -44225.765076370844, -10749.110370768354, -19763.501854360326, -13228.343514006558, -26584.762523742025, -35182.07045579797, -10722.60120184436, -17436.797015285138, -15844.503443777972, -4656.583625863031, -27360.211594129993, -20426.074615248992, -187500.02235174447, -37928.94338714402, 0.037500000000000006, 0.9693125, -0.1811875, 192.0, 0.0, 0.0, 0.0, 0.0, 0.0, 0.0, 0.0, 0.0, 0.0, 1.742502526427446E9, 0.0, 2025-03-20 15:28:46.427
150.0, -17301.680720052806, -40787.217412855316, -44237.00800383187, -10763.817818619946, -19784.177217981483, -13247.029572371195, -26598.710012282136, -35203.95281361971, -10692.69456776316, -17444.88834677796, -15843.363504810752, -4662.3503759325, -27355.540079538834, -20441.005580545137, -187500.02235174447, -37954.156154889606, 0.037500000000000006, 0.9693125, -0.1811875, 192.0, 0.0, 0.0, 0.0, 0.0, 0.0, 0.0, 0.0, 0.0, 0.0, 1.74250252648701E9, 0.0, 2025-03-20 15:28:46.487
152.0, -17279.686603508784, -40771.81706092561, -44224.66984089254, -10755.07828653792, -19762.317211904196, -13235.272554787703, -26590.439866833673, -35194.475673970665, -10709.83835576038, -17436.372332140487, -15841.70947572106, -4661.903341043394, -27350.06390214728, -20432.37780718539, -187500.02235174447, -37961.28636137085, 0.037500000000000006, 0.9693125, -0.1811875, 192.0, 0.0, 0.0, 0.0, 0.0, 0.0, 0.0, 0.0, 0.0, 0.0, 1.742502526487115E9, 0.0, 2025-03-20 15:28:46.487
154.0, -17289.588426302485, -40779.953095907345, -44225.87683509312, -10757.916958083744, -19764.977069494376, -13237.5747844666, -26592.607986045838, -35196.1073513159, -10701.903486478745, -17446.095340978543, -15842.312972821353, -4661.97039627676, -27354.26603010488, -20439.23979273317, -187500.02235174447, -37972.08225394276, 0.037500000000000006, 0.9693125, -0.1811875, 192.0, 0.0, 0.0, 0.0, 0.0, 0.0, 0.0, 0.0, 0.0, 0.0, 1.742502526487186E9, 0.0, 2025-03-20 15:28:46.487
156.0, -17293.589388559983, -40784.69166573187, -44231.71064039596, -10760.442705207195, -19768.933328262967, -13236.032514099183, -26592.183302901187, -35197.895490872324, -10703.937495224178, -17439.30041066413, -15836.36740879624, -4660.964567776271, -27349.818032958276, -20434.322408953, -187500.02235174447, -37965.42143409508, 0.035750000000000004, 0.96865625, -0.18359375, 192.0, 0.5, 8.0, 15.0, 32.0, 125.0, 24.0, 0.0, 0.0, 0.0, 1.742502526487262E9, 0.0, 2025-03-20 15:28:46.487
158.0, -17295.46693509423, -40788.51381403373, -44240.04784107779, -10759.41452496225, -19765.804084039224, -13225.326028505091, -26585.03074467549, -35187.971316334166, -10716.342713396873, -17455.192500971854, -15855.433446816618, -4666.060765512081, -27360.301001107815, -20437.071673521004, -187500.02235174447, -37967.85777424071, 0.035750000000000004, 0.96865625, -0.18359375, 192.0, 0.0, 0.0, 0.0, 0.0, 0.0, 0.0, 0.0, 0.0, 0.0, 1.742502526487335E9, 0.0, 2025-03-20 15:28:46.487
160.0, -17297.769164773126, -40783.46231978683, -44232.85057936318, -10753.334850470406, -19760.037333969754, -13215.088929544561, -26578.1240556388, -35178.91885982977, -10711.984123228089, -17436.372332140487, -15847.543281023894, -4660.316367187067, -27351.226192858958, -20429.717949595208, -187500.02235174447, -37948.36705307568, 0.035750000000000004, 0.96865625, -0.18359375, 192.0, 0.0, 0.0, 0.0, 0.0, 0.0, 0.0, 0.0, 0.0, 0.0, 1.742502526487399E9, 0.0, 2025-03-20 15:28:46.487
162.0, -17291.980062959203, -40790.19019486788, -44246.57455045874, -10765.337737242906, -19756.773979279278, -13218.017008068206, -26581.230948118086, -35184.37268547686, -10704.473937091105, -17445.0671607336, -15848.459702546563, -4660.651643353897, -27354.22132661597, -20432.780138585586, -187500.02235174447, -37949.46228855399, 0.035750000000000004, 0.96865625, -0.18359375, 192.0, 0.0, 0.0, 0.0, 0.0, 0.0, 0.0, 0.0, 0.0, 0.0, 1.742502526487464E9, 0.0, 2025-03-20 15:28:46.487
164.0, -17326.066473253548, -40809.32328812162, -44252.85539065068, -10773.093792568898, -19770.67676433048, -13228.56703145111, -26582.16972138521, -35185.602031421906, -10733.531204883004, -17460.2216434743, -15866.788132999915, -4682.198725008813, -27365.955992455005, -20452.494377195166, -187500.02235174447, -37958.402986336114, 0.035750000000000004, 0.96865625, -0.18359375, 192.0, 0.0, 0.0, 0.0, 0.0, 0.0, 0.0, 0.0, 0.0, 0.0, 1.742502526487539E9, 0.0, 2025-03-20 15:28:46.487
166.0, -17297.545647328574, -40797.990953682776, -44253.9953296179, -10770.32217625644, -19754.516453089294, -13221.593287181055, -26573.58665151437, -35178.24830749611, -10718.667294820225, -17463.641460375962, -15863.703592265081, -4680.4776406857545, -27364.167852898583, -20455.400103974356, -187500.02235174447, -37953.575009533764, 0.032875, 0.969328125, -0.181796875, 192.0, 0.0, 120.0, 15.0, 40.0, 125.0, 48.0, 0.0, 0.0, 0.0, 1.742502526547269E9, 0.0, 2025-03-20 15:28:46.547
168.0, -17316.455223137764, -40796.13575889299, -44232.336489240704, -10752.664298136748, -19753.801197266723, -13208.204592252327, -26566.635258988772, -35163.227935222145, -10721.818890788423, -17456.846530061546, -15858.585042784816, -4678.086004029036, -27356.858832461698, -20450.10274053845, -187500.02235174447, -37939.98514890494, 0.032875, 0.969328125, -0.181796875, 192.0, 0.0, 0.0, 0.0, 0.0, 0.0, 0.0, 0.0, 0.0, 0.0, 1.742502526547375E9, 0.0, 2025-03-20 15:28:46.547
170.0, -17272.735210983185, -40776.60033423905, -44218.76898035633, -10741.309611953451, -19739.160804648498, -13206.416452695901, -26565.651782232737, -35164.7478538451, -10694.817983486413, -17443.994276999747, -15841.642420487693, -4659.4670008977655, -27352.79081497083, -20436.021141531604, -187500.02235174447, -37928.11637259917, 0.032875, 0.969328125, -0.181796875, 192.0, 0.0, 0.0, 0.0, 0.0, 0.0, 0.0, 0.0, 0.0, 0.0, 1.742502526547457E9, 0.0, 2025-03-20 15:28:46.547
172.0, -17324.121871485935, -40795.73342749279, -44220.37830595712, -10746.249347478075, -19767.39105789555, -13215.938295833863, -26579.26399460602, -35178.78474936304, -10711.224163916608, -17450.297468936144, -15849.510234535961, -4665.2784544561455, -27356.925887695063, -20449.678057393798, -187500.02235174447, -37930.3515470447, 0.032875, 0.969328125, -0.181796875, 192.0, 0.0, 0.0, 0.0, 0.0, 0.0, 0.0, 0.0, 0.0, 0.0, 1.742502526547524E9, 0.0, 2025-03-20 15:28:46.547
174.0, -17273.584577272486, -40776.22035458331, -44216.44439893298, -10746.852844578367, -19753.845900755634, -13219.738092391264, -26579.10753239483, -35182.58454592044, -10704.83156500239, -17446.587079356563, -15841.888289676703, -4656.49421888521, -27347.135823623637, -20441.4749671787, -187500.02235174447, -37935.760669202886, 0.032875, 0.969328125, -0.181796875, 192.0, 0.0, 0.0, 0.0, 0.0, 0.0, 0.0, 0.0, 0.0, 0.0, 1.742502526547594E9, 0.0, 2025-03-20 15:28:46.547
176.0, -17297.344481628475, -40766.60910446753, -44201.15580572555, -10735.252289206062, -19753.309458888707, -13199.353301448024, -26573.273727091997, -35168.34648470241, -10701.83643124538, -17436.126462951477, -15832.23233607201, -4651.152151960391, -27346.755843967898, -20444.939487569274, -187500.02235174447, -37947.8082594643, 0.0344375, 0.9696640624999999, -0.1828984375, 192.0, 0.5, 16.0, 15.0, 40.0, 125.0, 32.0, 0.0, 0.0, 0.0, 1.74250252654767E9, 0.0, 2025-03-20 15:28:46.547
178.0, -17251.054018861534, -40751.38756649346, -44210.543538396785, -10740.750818342069, -19753.35416237762, -13206.036473040162, -26590.439866833673, -35180.416426708274, -10687.933646194178, -17423.363616867497, -15820.005931854956, -4635.103599441481, -27348.856907946698, -20425.180545470783, -187500.02235174447, -37944.54490477382, 0.0344375, 0.9696640624999999, -0.1828984375, 192.0, 0.0, 0.0, 0.0, 0.0, 0.0, 0.0, 0.0, 0.0, 0.0, 1.742502526547742E9, 0.0, 2025-03-20 15:28:46.547
180.0, -17291.980062959203, -40762.608142210025, -44214.27627972082, -10738.448588663172, -19771.63788934206, -13203.488374172257, -26584.40489583074, -35179.20943250769, -10697.075509676399, -17418.893267976437, -15828.544298236884, -4639.596300076998, -27343.112509621682, -20429.60619087293, -187500.02235174447, -37947.33887283073, 0.0344375, 0.9696640624999999, -0.1828984375, 192.0, 0.0, 0.0, 0.0, 0.0, 0.0, 0.0, 0.0, 0.0, 0.0, 1.742502526606695E9, 0.0, 2025-03-20 15:28:46.606
182.0, -17251.299888050544, -40751.54402870465, -44214.253927976366, -10743.075399765421, -19752.974182721875, -13202.527249160677, -26581.901500451746, -35179.00826680759, -10689.11828865031, -17412.478317317764, -15825.012722612944, -4636.958794231271, -27362.22325113097, -20429.04739726155, -187500.02235174447, -37939.64987273811, 0.0344375, 0.9696640624999999, -0.1828984375, 192.0, 0.0, 0.0, 0.0, 0.0, 0.0, 0.0, 0.0, 0.0, 0.0, 1.74250252660679E9, 0.0, 2025-03-20 15:28:46.606
184.0, -17309.86145852345, -40782.09886337505, -44220.668878635035, -10753.536016170505, -19773.00134575383, -13211.244429498247, -26586.707125509638, -35182.71865638717, -10699.534201566483, -17435.277096662176, -15841.575365254328, -4654.326099673045, -27369.66638203459, -20448.47106319321, -187500.02235174447, -37942.91322742859, 0.0344375, 0.9696640624999999, -0.1828984375, 192.0, 0.0, 0.0, 0.0, 0.0, 0.0, 0.0, 0.0, 0.0, 0.0, 1.742502526606875E9, 0.0, 2025-03-20 15:28:46.606
186.0, -17268.667193492318, -40771.79470918116, -44215.32681171022, -10752.910167325756, -19754.9634879784, -13208.584571908066, -26577.431151560682, -35177.04131329552, -10700.003588200045, -17443.45783513282, -15843.072932132833, -4661.3445474320115, -27366.73830351094, -20455.444807463267, -187500.02235174447, -37939.49341052692, 0.03821875, 0.96683203125, -0.17944921875, 192.0, 0.5, 40.0, 15.0, 16.0, 125.0, 64.0, 0.0, 0.0, 0.0, 1.742502526606955E9, 0.0, 2025-03-20 15:28:46.606
188.0, -17321.797290062583, -40799.46616881683, -44221.451189690975, -10759.995670318089, -19767.10048521763, -13223.292019759658, -26578.034648660978, -35181.466958697674, -10701.232934145086, -17453.44906490434, -15849.979621169523, -4668.318291702067, -27367.632373289154, -20463.46908372272, -187500.02235174447, -37940.81216344979, 0.03821875, 0.96683203125, -0.17944921875, 192.0, 0.0, 0.0, 0.0, 0.0, 0.0, 0.0, 0.0, 0.0, 0.0, 1.742502526607038E9, 0.0, 2025-03-20 15:28:46.607
190.0, -17272.288176094076, -40777.11442436152, -44204.01682901583, -10747.769266101035, -19746.20160415192, -13216.966476078805, -26568.043418889454, -35176.52722317305, -10716.476823863606, -17459.819312074105, -15852.550071781883, -4672.408660937388, -27366.98417269995, -20467.872377380416, -187500.02235174447, -37940.163962860584, 0.03821875, 0.96683203125, -0.17944921875, 192.0, 0.0, 0.0, 0.0, 0.0, 0.0, 0.0, 0.0, 0.0, 0.0, 1.742502526607115E9, 0.0, 2025-03-20 15:28:46.607
192.0, -17308.654464322863, -40792.42536931341, -44205.715561594436, -10746.048181777976, -19754.359990878107, -13214.507784188723, -26571.574994513394, -35174.87319408336, -10692.15812589623, -17450.78920731416, -15842.201214099076, -4663.266797455168, -27362.960858697996, -20467.82767389151, -187500.02235174447, -37931.93852090103, 0.03821875, 0.96683203125, -0.17944921875, 192.0, 0.0, 0.0, 0.0, 0.0, 0.0, 0.0, 0.0, 0.0, 0.0, 1.742502526607187E9, 0.0, 2025-03-20 15:28:46.607
194.0, -17282.212350632235, -40783.529375020196, -44209.493006407385, -10747.277527723018, -19754.605860067113, -13215.491260944757, -26583.64493651926, -35183.72448488766, -10707.379663870295, -17449.917489280404, -15845.241051344998, -4664.294977700112, -27360.99390518593, -20468.721743669717, -187500.02235174447, -37926.08236385374, 0.03821875, 0.96683203125, -0.17944921875, 192.0, 0.0, 0.0, 0.0, 0.0, 0.0, 0.0, 0.0, 0.0, 0.0, 1.742502526607258E9, 0.0, 2025-03-20 15:28:46.607
196.0, -17308.36389164494, -40792.470072802316, -44206.00613427236, -10748.350411456873, -19759.67970605847, -13221.682694158877, -26582.750866741048, -35185.244403510624, -10697.656655032237, -17452.39853291494, -15844.056408888866, -4661.411602665377, -27367.8111872448, -20467.738266913686, -187500.02235174447, -37934.59837849121, 0.038109375, 0.965416015625, -0.178724609375, 192.0, 0.5, 24.0, 15.0, 16.0, 125.0, 56.0, 0.0, 0.0, 0.0, 1.742502526666548E9, 0.0, 2025-03-20 15:28:46.666
198.0, -17290.929530969803, -40786.05512214365, -44217.3384687112, -10760.42035346274, -19767.27929917327, -13222.777929637186, -26595.826637247403, -35196.152054804814, -10714.17459418471, -17458.41115217342, -15848.99614441349, -4667.267759712668, -27360.837442974742, -20473.43796174979, -187500.02235174447, -37948.23294260895, 0.038109375, 0.965416015625, -0.178724609375, 192.0, 0.0, 0.0, 0.0, 0.0, 0.0, 0.0, 0.0, 0.0, 0.0, 1.742502526666666E9, 0.0, 2025-03-20 15:28:46.666
200.0, -17282.70408901025, -40764.06100559962, -44193.28799167729, -10736.347524684374, -19751.92365073248, -13211.646760898444, -26568.289288078464, -35181.19873776421, -10692.582809040881, -17437.176994940877, -15837.015609385446, -4650.34748916, -27357.819957473275, -20468.989964603184, -187500.02235174447, -37954.37967233416, 0.038109375, 0.965416015625, -0.178724609375, 192.0, 0.0, 0.0, 0.0, 0.0, 0.0, 0.0, 0.0, 0.0, 0.0, 1.742502526666732E9, 0.0, 2025-03-20 15:28:46.666
202.0, -17271.70703073824, -40759.79182240866, -44202.787483070795, -10738.113312496342, -19753.398865866526, -13212.317313232103, -26571.038552646467, -35182.025752309055, -10695.26501837552, -17425.822308757583, -15827.94080113659, -4642.792599534107, -27358.870489462675, -20450.683885894287, -187500.02235174447, -37944.27668384036, 0.038109375, 0.965416015625, -0.178724609375, 192.0, 0.0, 0.0, 0.0, 0.0, 0.0, 0.0, 0.0, 0.0, 0.0, 1.742502526666797E9, 0.0, 2025-03-20 15:28:46.666
204.0, -17281.47474306521, -40773.96282839332, -44212.44343667549, -10749.535053913005, -19762.697191559935, -13219.626333668988, -26583.913157452724, -35194.07334257047, -10689.721785750602, -17432.12550069398, -15832.366446538741, -4642.971413489749, -27365.84423373273, -20449.074560293506, -187500.02235174447, -37950.53517228785, 0.038109375, 0.965416015625, -0.178724609375, 192.0, 0.0, 0.0, 0.0, 0.0, 0.0, 0.0, 0.0, 0.0, 0.0, 1.742502526666862E9, 0.0, 2025-03-20 15:28:46.666
206.0, -17278.345498841467, -40769.35836903553, -44207.05666626176, -10741.9354607982, -19761.669011314993, -13213.479603943779, -26578.45933180563, -35190.430008224255, -10698.349559110351, -17436.104111207023, -15839.921336164634, -4657.25417819669, -27369.934602968053, -20460.898633110362, -187500.02235174447, -37954.96081768999, 0.0370546875, 0.9587080078125001, -0.17536230468750003, 192.0, 0.5, 16.0, 14.5, 96.0, 125.0, 80.0, 0.0, 0.0, 0.0, 1.742502526666935E9, 0.0, 2025-03-20 15:28:46.666
208.0, -17280.446562820263, -40777.27088657271, -44211.77288434182, -10747.568100400937, -19763.233633426862, -13212.741996376753, -26583.935509197177, -35192.26285126959, -10685.743175237558, -17438.294582163642, -15834.84749017328, -4651.1298002159365, -27376.6624780491, -20453.276688251102, -187500.02235174447, -37946.28834084134, 0.0370546875, 0.9587080078125001, -0.17536230468750003, 192.0, 0.0, 0.0, 0.0, 0.0, 0.0, 0.0, 0.0, 0.0, 0.0, 1.742502526667016E9, 0.0, 2025-03-20 15:28:46.667
210.0, -17297.0315572061, -40784.69166573187, -44206.72139009493, -10743.857710821356, -19763.077171215675, -13201.096737515538, -26572.40200905824, -35178.96356331868, -10705.993855714067, -17447.101169479032, -15842.983525155012, -4664.317329444567, -27378.89765249463, -20460.18337728779, -187500.02235174447, -37940.61099774969, 0.0370546875, 0.9587080078125001, -0.17536230468750003, 192.0, 0.0, 0.0, 0.0, 0.0, 0.0, 0.0, 0.0, 0.0, 0.0, 1.742502526726845E9, 0.0, 2025-03-20 15:28:46.726
212.0, -17282.41351633233, -40787.910316933434, -44209.58241338521, -10756.307632482962, -19756.706924045913, -13214.865412100007, -26581.74503824056, -35187.03254306705, -10695.242666631064, -17450.58804161406, -15838.51317626395, -4661.009271265182, -27378.51767283889, -20462.753827900153, -187500.02235174447, -37934.1066401132, 0.0370546875, 0.9587080078125001, -0.17536230468750003, 192.0, 0.0, 0.0, 0.0, 0.0, 0.0, 0.0, 0.0, 0.0, 0.0, 1.742502526726953E9, 0.0, 2025-03-20 15:28:46.726
214.0, -17302.37362413092, -40785.98806691028, -44193.60091609966, -10746.964603300645, -19753.912955989, -13213.703121388331, -26566.009410144023, -35177.48834818463, -10711.291219149974, -17455.88540504997, -15847.386818812707, -4673.168620248869, -27384.954975242017, -20475.80724666205, -187500.02235174447, -37941.281550083346, 0.0370546875, 0.9587080078125001, -0.17536230468750003, 192.0, 0.0, 0.0, 0.0, 0.0, 0.0, 0.0, 0.0, 0.0, 0.0, 1.74250252672702E9, 0.0, 2025-03-20 15:28:46.727
216.0, -17282.145295398866, -40789.07260764511, -44200.7311225809, -10761.090905796398, -19747.319191374685, -13233.395008253457, -26579.040477161467, -35189.223014023664, -10688.045404916455, -17452.376181170486, -15832.522908749928, -4654.795486306606, -27369.398161101122, -20468.498226225165, -187500.02235174447, -37932.31850055677, 0.03652734375, 0.96135400390625, -0.17368115234375003, 192.0, 0.5, 16.0, 15.0, 16.0, 125.0, 80.0, 0.0, 0.0, 0.0, 1.742502526727096E9, 0.0, 2025-03-20 15:28:46.727
218.0, -17307.693339311285, -40789.92197393441, -44190.58343059819, -10753.647774892781, -19759.52324384728, -13228.209403539826, -26582.572052785406, -35183.433912209744, -10721.796539043968, -17459.394628929454, -15854.606432271772, -4673.9062278158935, -27383.837388019252, -20489.419459035333, -187500.02235174447, -37956.81601247979, 0.03652734375, 0.96135400390625, -0.17368115234375003, 192.0, 0.0, 0.0, 0.0, 0.0, 0.0, 0.0, 0.0, 0.0, 0.0, 1.742502526727172E9, 0.0, 2025-03-20 15:28:46.727
220.0, -17266.096742879956, -40779.99779939625, -44191.61161084314, -10758.833379606413, -19752.70596178841, -13231.651572185943, -26589.858721477834, -35189.781807635045, -10688.15716363873, -17445.49184387825, -15831.315914549341, -4653.610843850475, -27368.884070978653, -20470.442827992778, -187500.02235174447, -37954.60318977871, 0.03652734375, 0.96135400390625, -0.17368115234375003, 192.0, 0.0, 0.0, 0.0, 0.0, 0.0, 0.0, 0.0, 0.0, 0.0, 1.742502526727244E9, 0.0, 2025-03-20 15:28:46.727
222.0, -17300.3843188744, -40785.71984597681, -44190.00228524236, -10758.833379606413, -19762.697191559935, -13225.057807571628, -26593.658518035238, -35187.68074365625, -10695.801460242446, -17451.280945692175, -15835.071007617833, -4662.484486399232, -27374.293193136837, -20478.57886297451, -187500.02235174447, -37966.42726259557, 0.03652734375, 0.96135400390625, -0.17368115234375003, 192.0, 0.0, 0.0, 0.0, 0.0, 0.0, 0.0, 0.0, 0.0, 0.0, 1.74250252672731E9, 0.0, 2025-03-20 15:28:46.727
224.0, -17253.535062496074, -40766.56440097862, -44195.63492484509, -10760.241539507097, -19754.09176994464, -13236.211328054826, -26603.202712917653, -35189.088903556934, -10687.64307351626, -17449.582213113572, -15829.192498826087, -4655.913073529372, -27377.08716119375, -20471.448656493267, -187500.02235174447, -37974.85387025522, 0.03652734375, 0.96135400390625, -0.17368115234375003, 192.0, 0.0, 0.0, 0.0, 0.0, 0.0, 0.0, 0.0, 0.0, 0.0, 1.742502526727376E9, 0.0, 2025-03-20 15:28:46.727
226.0, -17280.55832154254, -40759.59065670856, -44181.598029327164, -10739.230899719108, -19752.124816432573, -13210.909153331419, -26578.772256228003, -35163.40674917779, -10688.023053171999, -17434.047750717134, -15822.598734211771, -4646.570044347053, -27372.70621928051, -20465.838368634984, -187500.02235174447, -37970.160003919606, 0.037263671875, 0.963677001953125, -0.17384057617187504, 192.0, 0.5, 24.0, 15.0, 24.0, 125.0, 72.0, 0.0, 0.0, 0.0, 1.742502526786972E9, 0.0, 2025-03-20 15:28:46.786
228.0, -17231.920925607792, -40747.94539784735, -44190.29285792028, -10739.230899719108, -19734.601048779616, -13214.396025466445, -26582.21442487412, -35160.88100205434, -10671.68392797517, -17417.507459820208, -15810.953475350558, -4632.801369762584, -27361.865623219684, -20445.38652245838, -187500.02235174447, -37948.16588737558, 0.037263671875, 0.963677001953125, -0.17384057617187504, 192.0, 0.0, 0.0, 0.0, 0.0, 0.0, 0.0, 0.0, 0.0, 0.0, 1.742502526787063E9, 0.0, 2025-03-20 15:28:46.787
230.0, -17288.359080357444, -40775.818023183114, -44192.997418999366, -10742.002516031565, -19748.682647786456, -13206.461156184812, -26579.68867775067, -35155.471879896155, -10686.056099659932, -17434.628896072973, -15826.152661580165, -4651.800352549595, -27375.030800703862, -20449.14161552687, -187500.02235174447, -37941.974454161464, 0.037263671875, 0.963677001953125, -0.17384057617187504, 192.0, 0.0, 0.0, 0.0, 0.0, 0.0, 0.0, 0.0, 0.0, 0.0, 1.742502526787141E9, 0.0, 2025-03-20 15:28:46.787
232.0, -17250.964611883715, -40771.30297080314, -44204.21799471593, -10753.066629536943, -19744.189947150942, -13216.586496423066, -26583.197901630152, -35161.797423577, -10698.058986432432, -17439.1663001974, -15833.506385505962, -4664.585550378031, -27374.38260011466, -20453.634316162388, -187500.02235174447, -37937.28058782585, 0.037263671875, 0.963677001953125, -0.17384057617187504, 192.0, 0.0, 0.0, 0.0, 0.0, 0.0, 0.0, 0.0, 0.0, 0.0, 1.742502526787214E9, 0.0, 2025-03-20 15:28:46.787
234.0, -17286.258016378644, -40775.52745050519, -44189.08586371969, -10744.304745710462, -19743.586450050647, -13204.270685228192, -26571.083256135378, -35144.698339068695, -10693.83450673038, -17433.17603268338, -15834.579269239817, -4665.479620156243, -27383.926794997074, -20454.43897896278, -187500.02235174447, -37927.93755864353, 0.037263671875, 0.963677001953125, -0.17384057617187504, 192.0, 0.0, 0.0, 0.0, 0.0, 0.0, 0.0, 0.0, 0.0, 0.0, 1.742502526787294E9, 0.0, 2025-03-20 15:28:46.787
236.0, -17247.835367659973, -40766.49734574525, -44197.043084745776, -10752.641946392292, -19740.904240716012, -13217.99465632375, -26580.49334055106, -35151.15799321628, -10686.838410715867, -17440.50740486472, -15831.874708160723, -4672.408660937388, -27388.4641991215, -20457.679981908797, -187500.02235174447, -37918.72863992794, 0.0366318359375, 0.9648385009765625, -0.17592028808593752, 192.0, 0.5, 16.0, 15.0, 24.0, 125.0, 56.0, 0.0, 0.0, 0.0, 1.742502526787363E9, 0.0, 2025-03-20 15:28:46.787
238.0, -17287.062679179035, -40773.448738270854, -44183.98966598388, -10744.192986988186, -19741.217165138383, -13215.491260944757, -26571.50793928003, -35146.039443736016, -10689.49826830605, -17440.775625798182, -15829.125443592722, -4668.16182949088, -27399.908292282616, -20461.837406377486, -187500.02235174447, -37921.67907019604, 0.0366318359375, 0.9648385009765625, -0.17592028808593752, 192.0, 0.0, 0.0, 0.0, 0.0, 0.0, 0.0, 0.0, 0.0, 0.0, 1.74250252678744E9, 0.0, 2025-03-20 15:28:46.787
240.0, -17247.36598102641, -40763.368101521504, -44186.560116596236, -10752.50783592556, -19737.976162192364, -13224.99075233826, -26580.56039578443, -35159.13756598682, -10692.40399508524, -17436.729960051773, -15819.983580110502, -4665.121992244958, -27392.6663270791, -20460.026915076603, -187500.02235174447, -37921.85788415169, 0.0366318359375, 0.9648385009765625, -0.17592028808593752, 192.0, 0.0, 0.0, 0.0, 0.0, 0.0, 0.0, 0.0, 0.0, 0.0, 1.742502526847482E9, 0.0, 2025-03-20 15:28:46.847
242.0, -17276.177379629302, -40769.49247950226, -44179.09463394817, -10747.165769000741, -19742.513566316793, -13226.845947128051, -26574.883052692778, -35157.32707468594, -10677.87536118929, -17439.25570717522, -15814.753271907959, -4663.199742221802, -27387.480722365468, -20459.088141809483, -187500.02235174447, -37938.912265171086, 0.0366318359375, 0.9648385009765625, -0.17592028808593752, 192.0, 0.0, 0.0, 0.0, 0.0, 0.0, 0.0, 0.0, 0.0, 0.0, 1.742502526847567E9, 0.0, 2025-03-20 15:28:46.847
244.0, -17245.0190478586, -40756.93079911838, -44179.631075815094, -10745.422332933227, -19735.495118557825, -13224.610772682521, -26580.29217485096, -35157.17061247476, -10687.061928160421, -17443.055503732623, -15817.74840566497, -4668.184181235335, -27391.057001478315, -20463.178511044804, -187500.02235174447, -37945.52838152985, 0.0366318359375, 0.9648385009765625, -0.17592028808593752, 192.0, 0.0, 0.0, 0.0, 0.0, 0.0, 0.0, 0.0, 0.0, 0.0, 1.742502526847632E9, 0.0, 2025-03-20 15:28:46.847
246.0, -17275.953862184746, -40776.108595861035, -44187.2306689299, -10751.74787661408, -19749.174386164475, -13228.18705179537, -26587.35532609884, -35166.223068979154, -10678.545913522948, -17443.994276999747, -15814.84267888578, -4666.239579467724, -27398.99187075995, -20464.94429885677, -187500.02235174447, -37945.818954207774, 0.03731591796875, 0.9664192504882813, -0.17196014404296878, 192.0, 0.5, 24.0, 15.0, 32.0, 125.0, 96.0, 0.0, 0.0, 0.0, 1.742502526847698E9, 0.0, 2025-03-20 15:28:46.847
248.0, -17251.992792128658, -40764.39628176645, -44182.13447119409, -10740.750818342069, -19739.250211626317, -13223.113205804017, -26587.400029587752, -35166.91597305727, -10697.075509676399, -17439.367465897496, -15820.810594655348, -4671.514591159176, -27401.89759753914, -20466.710086668743, -187500.02235174447, -37943.91905592907, 0.03731591796875, 0.9664192504882813, -0.17196014404296878, 192.0, 0.0, 0.0, 0.0, 0.0, 0.0, 0.0, 0.0, 0.0, 0.0, 1.74250252684777E9, 0.0, 2025-03-20 15:28:46.847
250.0, -17263.74980971215, -40770.69947370285, -44186.02367472931, -10742.40484743176, -19741.23951688284, -13222.4203017259, -26580.44863706215, -35163.8984875558, -10677.741250722558, -17437.0652362186, -15812.406338740151, -4662.149210232403, -27398.298966681836, -20455.556566185543, -187500.02235174447, -37936.90060817011, 0.03731591796875, 0.9664192504882813, -0.17196014404296878, 192.0, 0.0, 0.0, 0.0, 0.0, 0.0, 0.0, 0.0, 0.0, 0.0, 1.742502526847844E9, 0.0, 2025-03-20 15:28:46.847
252.0, -17263.347478311953, -40775.482747016285, -44190.42696838701, -10754.720658626635, -19740.926592460466, -13229.148176806948, -26585.41072433123, -35166.938324801726, -10696.248495131553, -17445.335381667064, -15823.559859223351, -4675.7837743501395, -27408.446658664547, -20463.223214533715, -187500.02235174447, -37938.39817504861, 0.03731591796875, 0.9664192504882813, -0.17196014404296878, 192.0, 0.0, 0.0, 0.0, 0.0, 0.0, 0.0, 0.0, 0.0, 0.0, 1.742502526847922E9, 0.0, 2025-03-20 15:28:46.847
254.0, -17271.639975504873, -40785.16105236543, -44194.29382017777, -10765.56125468746, -19742.357104105606, -13237.843005400064, -26586.21538713162, -35169.553478903, -10678.411803056217, -17448.419922401896, -15820.140042321687, -4673.280378971145, -27406.81498131931, -20463.42438023381, -187500.02235174447, -37943.449669295514, 0.03731591796875, 0.9664192504882813, -0.17196014404296878, 192.0, 0.0, 0.0, 0.0, 0.0, 0.0, 0.0, 0.0, 0.0, 0.0, 1.74250252684799E9, 0.0, 2025-03-20 15:28:46.847
0.0, -17273.159894127835, -40783.88700293148, -44188.70588406395, -10759.325117984428, -19735.29395285773, -13232.836214642075, -26573.676058492194, -35157.841164808415, -10688.559495038926, -17451.236242203267, -15827.22554531402, -4688.211344267291, -27401.5176178834, -20472.029801849105, -187500.02235174447, -37946.93654143054, 0.035657958984375, 0.9672096252441407, -0.1719800720214844, 192.0, 0.5, 8.0, 15.0, 32.0, 125.0, 80.0, 0.0, 0.0, 0.0, 1.742502526907768E9, 0.0, 2025-03-20 15:28:46.907
2.0, -17269.963594670724, -40787.30681983314, -44196.7301603234, -10769.025775078033, -19735.38335983555, -13236.479548988289, -26579.286346350476, -35161.685664854725, -10674.857875687823, -17451.63857360346, -15821.905830133657, -4679.181239507347, -27402.27757719488, -20468.654688436352, -187500.02235174447, -37937.83938143723, 0.035657958984375, 0.9672096252441407, -0.1719800720214844, 192.0, 0.0, 0.0, 0.0, 0.0, 0.0, 0.0, 0.0, 0.0, 0.0, 1.742502526907842E9, 0.0, 2025-03-20 15:28:46.907
4.0, -17286.168609400822, -40787.59739251106, -44189.46584337543, -10762.633176163814, -19745.7098657739, -13235.518423976711, -26575.73241898208, -35162.53503114403, -10702.909314979233, -17461.160416741423, -15838.647286730682, -4697.64378042743, -27420.024862292394, -20482.87039790993, -187500.02235174447, -37947.025948408365, 0.035657958984375, 0.9672096252441407, -0.1719800720214844, 192.0, 0.0, 0.0, 0.0, 0.0, 0.0, 0.0, 0.0, 0.0, 0.0, 1.742502526907924E9, 0.0, 2025-03-20 15:28:46.907
6.0, -17269.918891181816, -40781.271848830205, -44202.45220690396, -10768.489333211104, -19752.34833387713, -13234.646705942954, -26586.349497598352, -35169.62053413636, -10682.077489146888, -17455.997163772245, -15824.811556912848, -4681.25995174169, -27416.359176201724, -20464.743133156673, -187500.02235174447, -37942.73441347294, 0.035657958984375, 0.9672096252441407, -0.1719800720214844, 192.0, 0.0, 0.0, 0.0, 0.0, 0.0, 0.0, 0.0, 0.0, 0.0, 1.742502526907999E9, 0.0, 2025-03-20 15:28:46.907
8.0, -17286.436830334285, -40780.55659300764, -44194.85261378916, -10757.380516216817, -19761.043162470243, -13219.76044413572, -26585.83540747588, -35161.752720088094, -10721.014227988033, -17447.92818402388, -15844.794016455891, -4692.659341413897, -27429.390243219168, -20477.215406562736, -187500.02235174447, -37956.70425375751, 0.035657958984375, 0.9672096252441407, -0.1719800720214844, 192.0, 0.0, 0.0, 0.0, 0.0, 0.0, 0.0, 0.0, 0.0, 0.0, 1.742502526908061E9, 0.0, 2025-03-20 15:28:46.908
10.0, -17257.826597431493, -40772.174688836894, -44199.278259191306, -10761.13560928531, -19758.49506360234, -13223.090854059561, -26592.965613957123, -35171.16280450378, -10671.616872741804, -17435.433558873363, -15821.257629544454, -4670.754631847695, -27424.159935016625, -20450.415664960823, -187500.02235174447, -37949.35052983171, 0.0388289794921875, 0.9686048126220703, -0.1739900360107422, 192.0, 0.5, 40.0, 15.0, 40.0, 125.0, 64.0, 0.0, 0.0, 0.0, 1.742502526908125E9, 0.0, 2025-03-20 15:28:46.908
12.0, -17283.598158788463, -40769.58188648008, -44187.65535207455, -10747.210472489653, -19760.126740947573, -13205.164755006404, -26581.54387254046, -35162.98206603314, -10698.483669577083, -17435.142986195446, -15829.863051159748, -4679.516515674176, -27424.361100716724, -20456.227118519204, -187500.02235174447, -37956.50308805741, 0.0388289794921875, 0.9686048126220703, -0.1739900360107422, 192.0, 0.0, 0.0, 0.0, 0.0, 0.0, 0.0, 0.0, 0.0, 0.0, 1.742502526908195E9, 0.0, 2025-03-20 15:28:46.908
14.0, -17251.433998517277, -40768.53135449068, -44195.54551786727, -10756.911129583255, -19750.828415254167, -13219.112243546515, -26584.002564430546, -35171.83335683744, -10677.003643155533, -17433.667771061395, -15821.414091755641, -4668.117126001969, -27415.80038259034, -20452.315563239525, -187500.02235174447, -37951.920980444076, 0.0388289794921875, 0.9686048126220703, -0.1739900360107422, 192.0, 0.0, 0.0, 0.0, 0.0, 0.0, 0.0, 0.0, 0.0, 0.0, 1.742502526967106E9, 0.0, 2025-03-20 15:28:46.967
16.0, -17285.721574511717, -40776.42152028341, -44173.50669783434, -10748.08219052341, -19748.99557220883, -13219.201650524337, -26576.15710212673, -35162.28916195502, -10687.486611305072, -17434.15950943941, -15821.391740011186, -4670.866390569972, -27422.03651929337, -20461.747999399664, -187500.02235174447, -37947.67414899757, 0.0388289794921875, 0.9686048126220703, -0.1739900360107422, 192.0, 0.0, 0.0, 0.0, 0.0, 0.0, 0.0, 0.0, 0.0, 0.0, 1.742502526967193E9, 0.0, 2025-03-20 15:28:46.967
18.0, -17246.829539159484, -40774.40986328243, -44187.185965440985, -10760.755629629568, -19741.552441305215, -13230.533984963178, -26591.8256749899, -35178.33771447393, -10670.49928551904, -17449.53750962466, -15813.993312596478, -4671.626349881452, -27412.246455221946, -20465.033705834594, -187500.02235174447, -37944.12022162917, 0.0388289794921875, 0.9686048126220703, -0.1739900360107422, 192.0, 0.0, 0.0, 0.0, 0.0, 0.0, 0.0, 0.0, 0.0, 0.0, 1.742502526967273E9, 0.0, 2025-03-20 15:28:46.967
20.0, -17308.36389164494, -40800.784921739694, -44196.14901496757, -10769.361051244861, -19763.077171215675, -13235.652534443443, -26594.664346535727, -35181.8022348645, -10696.628474787292, -17466.100152266044, -15836.188594840598, -4691.675864657863, -27430.977217075495, -20493.10749687046, -187500.02235174447, -37956.74895724642, 0.03741448974609375, 0.9703024063110351, -0.1739950180053711, 192.0, 0.5, 16.0, 15.0, 48.0, 125.0, 72.0, 0.0, 0.0, 0.0, 1.742502526967348E9, 0.0, 2025-03-20 15:28:46.967
22.0, -17261.961670155724, -40787.23976459978, -44189.53289860879, -10767.41644947725, -19737.909106959, -13231.428054741391, -26578.191110872165, -35176.57192666196, -10687.620721771804, -17467.821236589105, -15832.075873860822, -4690.2230012682685, -27422.03651929337, -20484.68088921081, -187500.02235174447, -37947.89766644212, 0.03741448974609375, 0.9703024063110351, -0.1739950180053711, 192.0, 0.0, 0.0, 0.0, 0.0, 0.0, 0.0, 0.0, 0.0, 0.0, 1.742502526967427E9, 0.0, 2025-03-20 15:28:46.967
24.0, -17319.986798761704, -40815.112389935544, -44198.54065162428, -10779.017004849555, -19752.6612582995, -13238.960592622829, -26582.59440452986, -35178.09184528492, -10698.103689921343, -17472.962137813825, -15844.034057144412, -4700.840079884539, -27425.18811526157, -20498.06958413954, -187500.02235174447, -37952.680939755555, 0.03741448974609375, 0.9703024063110351, -0.1739950180053711, 192.0, 0.0, 0.0, 0.0, 0.0, 0.0, 0.0, 0.0, 0.0, 0.0, 1.742502526967499E9, 0.0, 2025-03-20 15:28:46.967
26.0, -17264.643879490362, -40787.88796518898, -44184.4814043619, -10762.119086041343, -19731.94119118943, -13235.987810610273, -26575.441846304162, -35176.41546445077, -10701.456451589638, -17468.156512755933, -15842.357676310263, -4696.816765882583, -27423.757603616432, -20492.124020114425, -187500.02235174447, -37952.43507056655, 0.03741448974609375, 0.9703024063110351, -0.1739950180053711, 192.0, 0.0, 0.0, 0.0, 0.0, 0.0, 0.0, 0.0, 0.0, 0.0, 1.74250252696757E9, 0.0, 2025-03-20 15:28:46.967
28.0, -17308.94503700078, -40801.56723279563, -44184.43670087298, -10756.79937086098, -19746.402769852015, -13229.148176806948, -26574.525424781496, -35169.28525796953, -10690.92877995119, -17458.478207406784, -15834.84749017328, -4688.054882056103, -27421.969464060006, -20481.730458942708, -187500.02235174447, -37944.03081465135, 0.03741448974609375, 0.9703024063110351, -0.1739950180053711, 192.0, 0.0, 0.0, 0.0, 0.0, 0.0, 0.0, 0.0, 0.0, 0.0, 1.742502526967643E9, 0.0, 2025-03-20 15:28:46.967
30.0, -17263.3251265675, -40782.83647094208, -44188.70588406395, -10756.285280738508, -19734.62340052407, -13226.018932583205, -26580.336878339873, -35173.17446150476, -10686.838410715867, -17446.36356191201, -15828.99133312599, -4677.057823784092, -27416.247417479448, -20467.850025635962, -187500.02235174447, -37930.440954022524, 0.03770724487304687, 0.9711512031555176, -0.17299750900268557, 192.0, 0.5, 24.0, 15.0, 48.0, 125.0, 80.0, 0.0, 0.0, 0.0, 1.74250252702693E9, 0.0, 2025-03-20 15:28:47.026
32.0, -17304.13941194289, -40791.59835476856, -44189.95758175344, -10755.502969682571, -19745.821624496177, -13217.435862712367, -26574.16779687021, -35168.27942946905, -10687.486611305072, -17452.756160826226, -15839.340190808796, -4684.16567852088, -27434.39703397716, -20473.505016983156, -187500.02235174447, -37943.49437278442, 0.03770724487304687, 0.9711512031555176, -0.17299750900268557, 192.0, 0.0, 0.0, 0.0, 0.0, 0.0, 0.0, 0.0, 0.0, 0.0, 1.742502527027003E9, 0.0, 2025-03-20 15:28:47.027
34.0, -17271.9752516717, -40781.51771801922, -44197.42306440152, -10762.163789530254, -19746.71569427439, -13231.249240785748, -26586.46125632063, -35181.73517963114, -10694.415652086218, -17445.514195622705, -15837.194423341087, -4677.884838328939, -27427.847972851752, -20459.736342398686, -187500.02235174447, -37944.18727686254, 0.03770724487304687, 0.9711512031555176, -0.17299750900268557, 192.0, 0.0, 0.0, 0.0, 0.0, 0.0, 0.0, 0.0, 0.0, 0.0, 1.74250252702707E9, 0.0, 2025-03-20 15:28:47.027
36.0, -17311.113156212945, -40798.03565717169, -44203.07805574871, -10767.08117331042, -19766.228767183875, -13234.490243731767, -26596.0278029475, -35187.09959830041, -10698.170745154708, -17457.092399250556, -15846.9397839236, -4684.277437243157, -27443.918877115117, -20469.995793103673, -187500.02235174447, -37954.87141071218, 0.03770724487304687, 0.9711512031555176, -0.17299750900268557, 192.0, 0.0, 0.0, 0.0, 0.0, 0.0, 0.0, 0.0, 0.0, 0.0, 1.742502527027152E9, 0.0, 2025-03-20 15:28:47.027
38.0, -17267.03551614708, -40770.83358416958, -44180.30162814875, -10749.758571357557, -19749.755531520314, -13211.870278342996, -26575.441846304162, -35168.39118819132, -10704.11630917982, -17440.797977542636, -15841.41890304314, -4678.644797640419, -27438.889734612672, -20466.95595585775, -187500.02235174447, -37949.3058263428, 0.03770724487304687, 0.9711512031555176, -0.17299750900268557, 192.0, 0.0, 0.0, 0.0, 0.0, 0.0, 0.0, 0.0, 0.0, 0.0, 1.742502527027228E9, 0.0, 2025-03-20 15:28:47.027
40.0, -17295.645749049872, -40788.267944844716, -44189.21997418642, -10760.912091840755, -19764.48533111636, -13223.85081337104, -26584.002564430546, -35178.471824940665, -10684.491477548061, -17436.104111207023, -15828.253725558965, -4666.083117256537, -27430.016092063917, -20451.689714394775, -187500.02235174447, -37942.98028266195, 0.03685362243652344, 0.9705756015777588, -0.17449875450134278, 192.0, 0.5, 16.0, 15.0, 40.0, 125.0, 64.0, 0.0, 0.0, 0.0, 1.742502527027301E9, 0.0, 2025-03-20 15:28:47.027
42.0, -17283.75462099965, -40787.083302388586, -44181.1286426936, -10762.633176163814, -19755.790502523247, -13233.104435575538, -26587.35532609884, -35178.44947319621, -10709.45837610464, -17450.9680212698, -15842.536490265906, -4686.803184366606, -27445.03646433788, -20479.204711819257, -187500.02235174447, -37957.73243400246, 0.03685362243652344, 0.9705756015777588, -0.17449875450134278, 192.0, 0.0, 0.0, 0.0, 0.0, 0.0, 0.0, 0.0, 0.0, 0.0, 1.74250252702739E9, 0.0, 2025-03-20 15:28:47.027
44.0, -17295.62339730542, -40794.5264332922, -44182.581506083196, -10765.002461076077, -19750.448435598428, -13235.071389087605, -26579.241642861565, -35178.38241796284, -10693.83450673038, -17456.93593703937, -15835.093359362289, -4681.684634886341, -27433.34650198776, -20480.47876125321, -187500.02235174447, -37954.357320589705, 0.03685362243652344, 0.9705756015777588, -0.17449875450134278, 192.0, 0.0, 0.0, 0.0, 0.0, 0.0, 0.0, 0.0, 0.0, 0.0, 1.742502527087243E9, 0.0, 2025-03-20 15:28:47.087
46.0, -17283.218179132724, -40785.29516283216, -44169.3269216212, -10752.396077203284, -19741.82066223868, -13222.95674359283, -26566.79172119996, -35161.46214741017, -10705.21154465813, -17458.187634728867, -15836.412112285152, -4686.244390755223, -27427.24447575146, -20478.310642041048, -187500.02235174447, -37942.399137306114, 0.03685362243652344, 0.9705756015777588, -0.17449875450134278, 192.0, 0.0, 0.0, 0.0, 0.0, 0.0, 0.0, 0.0, 0.0, 0.0, 1.742502527087472E9, 0.0, 2025-03-20 15:28:47.087
48.0, -17290.0801646805, -40792.91710769142, -44182.04506421627, -10761.56029242996, -19747.676819285967, -13233.260897786726, -26576.917061438213, -35172.325095215456, -10688.023053171999, -17464.93786155437, -15831.51708024944, -4682.7128151312845, -27423.355272216235, -20484.636185721898, -187500.02235174447, -37935.626558736156, 0.03685362243652344, 0.9705756015777588, -0.17449875450134278, 192.0, 0.0, 0.0, 0.0, 0.0, 0.0, 0.0, 0.0, 0.0, 0.0, 1.742502527087568E9, 0.0, 2025-03-20 15:28:47.087
50.0, -17290.728365269704, -40785.45162504335, -44168.32109312071, -10752.776056859024, -19744.569926806682, -13220.274534258191, -26567.126997366788, -35159.83047006494, -10705.792690013968, -17453.203195715334, -15837.574402996828, -4685.596190166019, -27428.42911820759, -20483.518598499133, -187500.02235174447, -37934.73248895794, 0.034426811218261716, 0.9702878007888793, -0.17524937725067138, 192.0, 0.5, 0.0, 15.0, 40.0, 125.0, 64.0, 0.0, 0.0, 0.0, 1.742502527087638E9, 0.0, 2025-03-20 15:28:47.087
52.0, -17281.497094809663, -40788.84909020056, -44179.27344790381, -10764.08603955341, -19746.827452996666, -13233.216194297815, -26573.452541047638, -35168.52529865805, -10686.570189782404, -17457.070047506102, -15829.28190580391, -4677.303692973101, -27420.874228581695, -20475.80724666205, -187500.02235174447, -37931.11150635618, 0.034426811218261716, 0.9702878007888793, -0.17524937725067138, 192.0, 0.0, 0.0, 0.0, 0.0, 0.0, 0.0, 0.0, 0.0, 0.0, 1.742502527087709E9, 0.0, 2025-03-20 15:28:47.087
54.0, -17294.19288566028, -40787.95502042234, -44181.19569792697, -10760.554463929471, -19757.28806940175, -13228.634086684477, -26577.341744582864, -35172.34744695991, -10706.172669669708, -17463.12737025349, -15840.413074542652, -4690.5135739461875, -27422.818830349308, -20486.781953189606, -187500.02235174447, -37940.32042507177, 0.034426811218261716, 0.9702878007888793, -0.17524937725067138, 192.0, 0.0, 0.0, 0.0, 0.0, 0.0, 0.0, 0.0, 0.0, 0.0, 1.742502527087776E9, 0.0, 2025-03-20 15:28:47.087
56.0, -17266.521426024607, -40780.06485462962, -44181.35216013815, -10764.153094786776, -19752.370685621583, -13236.166624565914, -26583.130846396787, -35181.53401393104, -10684.916160692712, -17460.847492319048, -15832.65701921666, -4681.706986630797, -27417.297949468848, -20477.14835132937, -187500.02235174447, -37950.82574496576, 0.034426811218261716, 0.9702878007888793, -0.17524937725067138, 192.0, 0.0, 0.0, 0.0, 0.0, 0.0, 0.0, 0.0, 0.0, 0.0, 1.742502527087843E9, 0.0, 2025-03-20 15:28:47.087
58.0, -17296.763336272637, -40789.74315997877, -44185.48723286238, -10768.869312866846, -19766.92167126199, -13242.738037435776, -26595.826637247403, -35190.65352566881, -10693.990968941567, -17451.191538714356, -15829.907754648657, -4679.985902307738, -27414.079298267283, -20484.01033687715, -187500.02235174447, -37961.3087131153, 0.034426811218261716, 0.9702878007888793, -0.17524937725067138, 192.0, 0.0, 0.0, 0.0, 0.0, 0.0, 0.0, 0.0, 0.0, 0.0, 1.742502527087929E9, 0.0, 2025-03-20 15:28:47.087
60.0, -17267.90723418084, -40785.0269418987, -44191.96923875442, -10772.244426279596, -19758.271546157783, -13239.318220534113, -26596.005451203044, -35192.866348369884, -10687.486611305072, -17458.947594040346, -15830.555955237862, -4677.817783095573, -27411.08416451027, -20480.657575208854, -187500.02235174447, -37968.79654750783, 0.03621340560913086, 0.9691439003944397, -0.1766246886253357, 192.0, 0.5, 24.0, 15.0, 32.0, 125.0, 56.0, 0.0, 0.0, 0.0, 1.742502527147596E9, 0.0, 2025-03-20 15:28:47.147
62.0, -17302.015996219634, -40791.061912901634, -44185.084901462185, -10762.119086041343, -19763.43479912696, -13227.76236865072, -26578.54873878345, -35178.78474936304, -10702.797556256957, -17462.88150106448, -15839.898984420179, -4686.333797733045, -27417.029728535384, -20484.524426999622, -187500.02235174447, -37964.72853001697, 0.03621340560913086, 0.9691439003944397, -0.1766246886253357, 192.0, 0.0, 0.0, 0.0, 0.0, 0.0, 0.0, 0.0, 0.0, 0.0, 1.742502527147694E9, 0.0, 2025-03-20 15:28:47.147
64.0, -17263.347478311953, -40780.95892440783, -44184.50375610635, -10760.822684862935, -19749.017923953288, -13219.447519713345, -26573.9219276812, -35176.929554573246, -10690.235875873075, -17450.36452416951, -15832.99229538349, -4677.706024373296, -27413.252283722435, -20469.302889025555, -187500.02235174447, -37946.64596875262, 0.03621340560913086, 0.9691439003944397, -0.1766246886253357, 192.0, 0.0, 0.0, 0.0, 0.0, 0.0, 0.0, 0.0, 0.0, 0.0, 1.742502527147781E9, 0.0, 2025-03-20 15:28:47.147
66.0, -17314.264752181145, -40805.83641598659, -44190.58343059819, -10763.08021105292, -19765.334697405662, -13221.347417992047, -26583.73434349708, -35179.43294995224, -10711.581791827894, -17463.283832464676, -15848.571461268839, -4694.40277748141, -27425.121060028203, -20479.182360074803, -187500.02235174447, -37938.66639598208, 0.03621340560913086, 0.9691439003944397, -0.1766246886253357, 192.0, 0.0, 0.0, 0.0, 0.0, 0.0, 0.0, 0.0, 0.0, 0.0, 1.742502527147846E9, 0.0, 2025-03-20 15:28:47.147
68.0, -17270.410629559832, -40791.911279190936, -44189.287029419786, -10768.645795422291, -19751.34250537664, -13227.13651980597, -26580.716857995616, -35178.047141796014, -10695.287370119973, -17458.858187062524, -15840.435426287107, -4684.947989576815, -27423.176458260594, -20474.220272805724, -187500.02235174447, -37928.18342783254, 0.03621340560913086, 0.9691439003944397, -0.1766246886253357, 192.0, 0.0, 0.0, 0.0, 0.0, 0.0, 0.0, 0.0, 0.0, 0.0, 1.742502527147924E9, 0.0, 2025-03-20 15:28:47.147
70.0, -17311.09080446849, -40797.566270538126, -44178.49113684787, -10766.052993065476, -19756.081075201164, -13220.18512728037, -26566.54585201095, -35168.07826376895, -10709.726597038103, -17460.758085341226, -15849.733751980515, -4691.07236755757, -27427.19977226255, -20490.44763928028, -187500.02235174447, -37937.52645701486, 0.038106702804565434, 0.9665719501972199, -0.17731234431266785, 192.0, 0.5, 32.0, 15.0, 16.0, 125.0, 56.0, 0.0, 0.0, 0.0, 1.742502527147997E9, 0.0, 2025-03-20 15:28:47.147
72.0, -17271.215292360223, -40790.12313963451, -44186.560116596236, -10779.464039738661, -19746.13454891855, -13243.945031636362, -26574.614831759314, -35185.11029304389, -10699.556553310938, -17471.241053490765, -15841.731827465515, -4688.971303578771, -27420.673062881597, -20487.09487761198, -187500.02235174447, -37938.062898881784, 0.038106702804565434, 0.9665719501972199, -0.17731234431266785, 192.0, 0.0, 0.0, 0.0, 0.0, 0.0, 0.0, 0.0, 0.0, 0.0, 1.74250252714807E9, 0.0, 2025-03-20 15:28:47.148
74.0, -17303.960597987247, -40786.41275005493, -44171.36093036663, -10756.687612138703, -19750.29197338724, -13228.857604129029, -26563.036628131467, -35168.43589168023, -10702.819908001413, -17466.524835410695, -15838.379065797219, -4682.422242453366, -27417.387356446667, -20492.079316625513, -187500.02235174447, -37940.231018093946, 0.038106702804565434, 0.9665719501972199, -0.17731234431266785, 192.0, 0.0, 0.0, 0.0, 0.0, 0.0, 0.0, 0.0, 0.0, 0.0, 1.742502527207808E9, 0.0, 2025-03-20 15:28:47.207
76.0, -17254.250318318645, -40763.9715986218, -44168.05287218725, -10749.55740565746, -19742.088883172142, -13226.488319216767, -26565.96470665511, -35172.23568823763, -10688.335977594374, -17440.753274053728, -15821.727016178014, -4664.6302538669415, -27409.966577287505, -20469.2805372811, -187500.02235174447, -37922.90841614109, 0.038106702804565434, 0.9665719501972199, -0.17731234431266785, 192.0, 0.0, 0.0, 0.0, 0.0, 0.0, 0.0, 0.0, 0.0, 0.0, 1.742502527207892E9, 0.0, 2025-03-20 15:28:47.207
78.0, -17307.1345456999, -40790.369008823516, -44181.598029327164, -10764.08603955341, -19771.05674398622, -13237.753598422241, -26586.528311553993, -35189.24536576812, -10688.201867127642, -17456.13127423898, -15831.450025016073, -4671.156963247891, -27421.00833904843, -20481.730458942708, -187500.02235174447, -37940.432183794044, 0.038106702804565434, 0.9665719501972199, -0.17731234431266785, 192.0, 0.0, 0.0, 0.0, 0.0, 0.0, 0.0, 0.0, 0.0, 0.0, 1.742502527207977E9, 0.0, 2025-03-20 15:28:47.207
80.0, -17259.257109076632, -40768.66546495741, -44175.11602343512, -10760.398001718284, -19757.086903701653, -13249.309450305636, -26588.78583774398, -35196.12970306035, -10693.141602652264, -17447.92818402388, -15828.968981381535, -4669.055899269092, -27415.46510642351, -20474.488493739187, -187500.02235174447, -37953.306788600305, 0.03905335140228272, 0.9672859750986099, -0.17865617215633392, 192.0, 0.5, 32.0, 15.0, 32.0, 125.0, 48.0, 0.0, 0.0, 0.0, 1.742502527208062E9, 0.0, 2025-03-20 15:28:47.208
82.0, -17289.677833280308, -40771.86176441453, -44165.102441919145, -10752.79840860348, -19758.204490924418, -13233.350304764546, -26576.35826782683, -35183.41156046528, -10680.78108796848, -17463.395591186953, -15823.805728412359, -4668.653567868897, -27413.073469766794, -20469.392296003378, -187500.02235174447, -37962.046320682326, 0.03905335140228272, 0.9672859750986099, -0.17865617215633392, 192.0, 0.0, 0.0, 0.0, 0.0, 0.0, 0.0, 0.0, 0.0, 0.0, 1.742502527208146E9, 0.0, 2025-03-20 15:28:47.208
84.0, -17257.78189394258, -40766.74321493426, -44173.752567023344, -10752.932519070211, -19753.398865866526, -13230.735150663275, -26588.91994821071, -35190.16178729079, -10683.038614158466, -17440.93208800937, -15819.335379521297, -4659.869332297961, -27410.301853454337, -20451.846176605963, -187500.02235174447, -37952.457422311, 0.03905335140228272, 0.9672859750986099, -0.17865617215633392, 192.0, 0.0, 0.0, 0.0, 0.0, 0.0, 0.0, 0.0, 0.0, 0.0, 1.742502527208221E9, 0.0, 2025-03-20 15:28:47.208
86.0, -17306.441641621786, -40793.63236351399, -44181.240401415875, -10761.85086510788, -19765.28999391675, -13235.607830954532, -26587.48943656557, -35191.79346463602, -10693.007492185532, -17460.2216434743, -15836.702684963071, -4673.682710371341, -27426.596275162254, -20456.76356038613, -187500.02235174447, -37960.571105548275, 0.03905335140228272, 0.9672859750986099, -0.17865617215633392, 192.0, 0.0, 0.0, 0.0, 0.0, 0.0, 0.0, 0.0, 0.0, 0.0, 1.742502527208293E9, 0.0, 2025-03-20 15:28:47.208
88.0, -17288.761411757638, -40791.061912901634, -44187.74475905237, -10768.332870999917, -19758.115083946595, -13228.879955873485, -26588.96465169962, -35195.101522815414, -10706.686759792181, -17469.050582534146, -15849.174958369133, -4687.361977977989, -27433.57001943231, -20457.52351969761, -187500.02235174447, -37957.37480609117, 0.03905335140228272, 0.9672859750986099, -0.17865617215633392, 192.0, 0.0, 0.0, 0.0, 0.0, 0.0, 0.0, 0.0, 0.0, 0.0, 1.742502527208366E9, 0.0, 2025-03-20 15:28:47.208
90.0, -17301.077222952514, -40786.90448843295, -44180.36868338212, -10764.957757587166, -19758.942098491443, -13215.290095244658, -26578.481683550082, -35178.6506388963, -10696.44966083165, -17461.45098941934, -15844.972830411534, -4678.376576706955, -27425.5233914284, -20447.62169690391, -187500.02235174447, -37952.59153277773, 0.040526675701141365, 0.966642987549305, -0.18232808607816697, 192.0, 0.5, 40.0, 15.0, 24.0, 125.0, 24.0, 0.0, 0.0, 0.0, 1.7425025272681E9, 0.0, 2025-03-20 15:28:47.268
92.0, -17292.31533912603, -40789.36318032303, -44176.300665891256, -10766.812952376957, -19754.71761878939, -13214.28426674417, -26565.607078743826, -35176.01313305058, -10708.161974926232, -17478.37125997201, -15845.08458913381, -4683.226905253757, -27428.831449607784, -20444.961839313728, -187500.02235174447, -37935.00070989141, 0.040526675701141365, 0.966642987549305, -0.18232808607816697, 192.0, 0.0, 0.0, 0.0, 0.0, 0.0, 0.0, 0.0, 0.0, 0.0, 1.742502527299794E9, 0.0, 2025-03-20 15:28:47.299
94.0, -17295.533990327596, -40786.792729710665, -44173.03731120078, -10764.913054098255, -19751.85659549911, -13225.482490716278, -26564.69065722116, -35180.05879879699, -10692.806326485435, -17466.368373199508, -15843.967001911045, -4680.499992430209, -27426.484516439978, -20449.119263782413, -187500.02235174447, -37934.777192446854, 0.040526675701141365, 0.966642987549305, -0.18232808607816697, 192.0, 0.0, 0.0, 0.0, 0.0, 0.0, 0.0, 0.0, 0.0, 0.0, 1.742502527299869E9, 0.0, 2025-03-20 15:28:47.299
96.0, -17292.002414703657, -40786.16688086592, -44175.89833449106, -10765.56125468746, -19756.796331023736, -13233.350304764546, -26573.184320114175, -35183.74683663212, -10705.010378958033, -17466.25661447723, -15842.067103632344, -4679.382405207444, -27424.115231527714, -20440.2232694892, -187500.02235174447, -37931.357375545194, 0.040526675701141365, 0.966642987549305, -0.18232808607816697, 192.0, 0.0, 0.0, 0.0, 0.0, 0.0, 0.0, 0.0, 0.0, 0.0, 1.742502527299938E9, 0.0, 2025-03-20 15:28:47.299
98.0, -17286.168609400822, -40784.93753492088, -44169.59514255466, -10763.661356408758, -19749.554365820215, -13239.00529611174, -26571.999677658045, -35187.412522722785, -10689.945303195156, -17480.40526871744, -15833.0369988724, -4672.16279174838, -27422.90823732713, -20435.99878978715, -187500.02235174447, -37934.73248895794, 0.040526675701141365, 0.966642987549305, -0.18232808607816697, 192.0, 0.0, 0.0, 0.0, 0.0, 0.0, 0.0, 0.0, 0.0, 0.0, 1.742502527300003E9, 0.0, 2025-03-20 15:28:47.300
100.0, -17291.37656585891, -40785.29516283216, -44167.047043686754, -10760.979147074122, -19752.191871665942, -13232.970325108807, -26572.8713956918, -35189.82651112396, -10705.457413847138, -17479.265329750222, -15839.049618130877, -4679.851791841005, -27430.70899614203, -20449.968630071715, -187500.02235174447, -37942.3544338172, 0.038263337850570685, 0.9663214937746525, -0.18216404303908348, 192.0, 0.5, 16.0, 15.0, 24.0, 125.0, 40.0, 0.0, 0.0, 0.0, 1.742502527300081E9, 0.0, 2025-03-20 15:28:47.300
102.0, -17264.308603323534, -40770.47595625829, -44162.91197096252, -10756.955833072167, -19743.72056051738, -13240.704028690343, -26576.470026549105, -35192.75458964761, -10681.988082169066, -17462.79209408666, -15819.08951033229, -4659.77992532014, -27408.491362153454, -20425.448766404246, -187500.02235174447, -37942.89087568413, 0.038263337850570685, 0.9663214937746525, -0.18216404303908348, 192.0, 0.0, 0.0, 0.0, 0.0, 0.0, 0.0, 0.0, 0.0, 0.0, 1.742502527300168E9, 0.0, 2025-03-20 15:28:47.300
104.0, -17287.24149313468, -40780.60129649655, -44165.14714540805, -10756.41939120524, -19755.00819146731, -13239.80995891213, -26577.341744582864, -35196.48733097164, -10687.598370027348, -17457.18180622838, -15827.069083102833, -4669.078251013548, -27429.09967054125, -20450.661534149833, -187500.02235174447, -37957.710082257996, 0.038263337850570685, 0.9663214937746525, -0.18216404303908348, 192.0, 0.0, 0.0, 0.0, 0.0, 0.0, 0.0, 0.0, 0.0, 0.0, 1.742502527327295E9, 0.0, 2025-03-20 15:28:47.327
106.0, -17266.588481257975, -40777.293238317165, -44168.90223847655, -10758.74397262859, -19747.654467541513, -13243.341534536068, -26571.127959624286, -35194.185101292744, -10678.814134456414, -17464.73669585427, -15822.621085956227, -4658.148247974903, -27418.817868091806, -20429.919115295306, -187500.02235174447, -37954.17850663406, 0.038263337850570685, 0.9663214937746525, -0.18216404303908348, 192.0, 0.0, 0.0, 0.0, 0.0, 0.0, 0.0, 0.0, 0.0, 0.0, 1.742502527327403E9, 0.0, 2025-03-20 15:28:47.327
108.0, -17299.04321420708, -40788.11148263353, -44164.0742616742, -10758.721620884136, -19745.441644840437, -13233.32795302009, -26564.668305476705, -35185.311458743985, -10695.73440500908, -17446.408265400918, -15831.382969782708, -4666.016062023171, -27421.05304253734, -20437.921039810306, -187500.02235174447, -37957.285399113345, 0.038263337850570685, 0.9663214937746525, -0.18216404303908348, 192.0, 0.0, 0.0, 0.0, 0.0, 0.0, 0.0, 0.0, 0.0, 0.0, 1.742502527327471E9, 0.0, 2025-03-20 15:28:47.327
110.0, -17280.759487242638, -40801.2319566288, -44183.8779072616, -10784.51553398556, -19750.04610419823, -13255.322069564114, -26586.237738876076, -35205.62919445386, -10701.970541712111, -17501.259446294243, -15844.123464122233, -4683.785698865139, -27435.13464154418, -20444.894784080363, -187500.02235174447, -37958.626503780666, 0.03913166892528534, 0.9691607468873262, -0.18108202151954172, 192.0, 0.5, 32.0, 15.0, 48.0, 125.0, 48.0, 0.0, 0.0, 0.0, 1.742502527327544E9, 0.0, 2025-03-20 15:28:47.327
112.0, -17304.85466776546, -40791.15131987946, -44170.332750121685, -10767.684670410714, -19747.453301841415, -13227.740016906264, -26568.043418889454, -35187.16665353378, -10711.961771483633, -17479.22062626131, -15852.527720037428, -4689.731262890251, -27433.5253159434, -20454.95306908525, -187500.02235174447, -37962.29218987134, 0.03913166892528534, 0.9691607468873262, -0.18108202151954172, 192.0, 0.0, 0.0, 0.0, 0.0, 0.0, 0.0, 0.0, 0.0, 0.0, 1.742502527327616E9, 0.0, 2025-03-20 15:28:47.327
114.0, -17264.04038239007, -40771.906467903435, -44160.74385175036, -10758.453399950671, -19726.934400431444, -13223.493185459756, -26556.800491428436, -35176.05783653949, -10682.882151947279, -17461.182768485876, -15831.092397104789, -4663.713832344274, -27421.880057082184, -20434.94825779775, -187500.02235174447, -37940.00750064939, 0.03913166892528534, 0.9691607468873262, -0.18108202151954172, 192.0, 0.0, 0.0, 0.0, 0.0, 0.0, 0.0, 0.0, 0.0, 0.0, 1.742502527327694E9, 0.0, 2025-03-20 15:28:47.327
116.0, -17317.79632780508, -40795.55461353715, -44166.93528496448, -10762.32025174144, -19746.827452996666, -13220.207479024826, -26558.49922400704, -35171.85570858189, -10714.956905240644, -17468.44708543385, -15847.923260679634, -4678.756556362696, -27422.952940816038, -20432.310751952024, -187500.02235174447, -37935.268930824874, 0.03913166892528534, 0.9691607468873262, -0.18108202151954172, 192.0, 0.0, 0.0, 0.0, 0.0, 0.0, 0.0, 0.0, 0.0, 0.0, 1.742502527327758E9, 0.0, 2025-03-20 15:28:47.327
118.0, -17275.059792406537, -40784.624610498504, -44165.14714540805, -10762.65552790827, -19729.66131325499, -13216.631199911977, -26556.44286351715, -35172.928592315744, -10688.514791550017, -17468.961175556324, -15839.161376853155, -4672.475716170754, -27421.790650104365, -20428.622714116897, -187500.02235174447, -37920.449724251004, 0.03913166892528534, 0.9691607468873262, -0.18108202151954172, 192.0, 0.0, 0.0, 0.0, 0.0, 0.0, 0.0, 0.0, 0.0, 0.0, 1.742502527327823E9, 0.0, 2025-03-20 15:28:47.327
120.0, -17329.486290155208, -40808.205700898856, -44174.91485773502, -10774.054917580475, -19753.510624588806, -13224.722531404797, -26561.11437810831, -35174.58262140544, -10705.16684116922, -17488.2283792768, -15852.751237481982, -4691.921733846872, -27435.00053107745, -20436.95991479873, -187500.02235174447, -37921.67907019604, 0.037565834462642674, 0.9715803734436631, -0.18254101075977086, 192.0, 0.5, 16.0, 15.0, 56.0, 125.0, 32.0, 0.0, 0.0, 0.0, 1.742502527387062E9, 0.0, 2025-03-20 15:28:47.387
122.0, -17269.874187692905, -40783.46231978683, -44167.628189042596, -10766.857655865868, -19745.08401692915, -13229.103473318039, -26569.339820067864, -35183.4562639542, -10708.609009815336, -17490.68707116688, -15850.381952569718, -4691.251181513212, -27426.596275162254, -20437.742225854665, -187500.02235174447, -37928.29518655482, 0.037565834462642674, 0.9715803734436631, -0.18254101075977086, 192.0, 0.0, 0.0, 0.0, 0.0, 0.0, 0.0, 0.0, 0.0, 0.0, 1.742502527387167E9, 0.0, 2025-03-20 15:28:47.387
124.0, -17296.42806010581, -40774.38751153797, -44151.6243400126, -10748.752742857068, -19754.449397855926, -13219.894554602452, -26576.112398637822, -35186.89843260031, -10705.815041758424, -17474.347945970054, -15840.167205353644, -4672.363957448478, -27428.4738216965, -20431.19316472926, -187500.02235174447, -37941.16979136107, 0.037565834462642674, 0.9715803734436631, -0.18254101075977086, 192.0, 0.0, 0.0, 0.0, 0.0, 0.0, 0.0, 0.0, 0.0, 0.0, 1.742502527387244E9, 0.0, 2025-03-20 15:28:47.387
126.0, -17235.83248088747, -40746.87251411349, -44140.51552301831, -10741.51077765355, -19742.088883172142, -13227.941182606362, -26580.56039578443, -35193.51454895909, -10676.288387332963, -17442.675524076883, -15812.518097462429, -4648.000555992193, -27411.039461021363, -20415.479888377176, -187500.02235174447, -37942.10856462819, 0.037565834462642674, 0.9715803734436631, -0.18254101075977086, 192.0, 0.0, 0.0, 0.0, 0.0, 0.0, 0.0, 0.0, 0.0, 0.0, 1.742502527387317E9, 0.0, 2025-03-20 15:28:47.387
128.0, -17296.80803976155, -40776.98031389479, -44156.22879937039, -10760.241539507097, -19767.52516836228, -13242.358057780035, -26586.50595980954, -35206.09858108742, -10678.25534084503, -17452.331477681575, -15821.32468477782, -4653.230864194735, -27422.550609415845, -20422.297170436046, -187500.02235174447, -37957.59832353572, 0.037565834462642674, 0.9715803734436631, -0.18254101075977086, 192.0, 0.0, 0.0, 0.0, 0.0, 0.0, 0.0, 0.0, 0.0, 0.0, 1.742502527387402E9, 0.0, 2025-03-20 15:28:47.387
130.0, -17249.51174849412, -40752.92983686088, -44149.5232760338, -10759.392173217795, -19748.43677859745, -13242.581575224589, -26575.955936426635, -35202.991688608134, -10707.223201659108, -17465.921338310403, -15826.599696469271, -4663.535018388631, -27411.12886799918, -20428.600362372443, -187500.02235174447, -37966.06963468428, 0.036782917231321335, 0.9737901867218315, -0.18427050537988543, 192.0, 0.5, 16.0, 15.0, 64.0, 125.0, 24.0, 0.0, 0.0, 0.0, 1.742502527387468E9, 0.0, 2025-03-20 15:28:47.387
132.0, -17293.61174030444, -40773.96282839332, -44156.295854603755, -10755.79354236049, -19762.294860159738, -13238.424150755902, -26574.570128270403, -35198.70015367272, -10673.44971578714, -17468.603547645038, -15818.709530676548, -4654.326099673045, -27417.923798313597, -20430.65672286233, -187500.02235174447, -37965.242620139434, 0.036782917231321335, 0.9737901867218315, -0.18427050537988543, 192.0, 0.0, 0.0, 0.0, 0.0, 0.0, 0.0, 0.0, 0.0, 0.0, 1.742502527387544E9, 0.0, 2025-03-20 15:28:47.387
134.0, -17247.008353115125, -40748.99592983675, -44148.45039229994, -10743.79065558799, -19744.43581633995, -13226.24245002776, -26564.91417466571, -35186.45139771121, -10692.44869857415, -17474.996146559257, -15823.269286545432, -4656.762439818674, -27409.810115076318, -20425.918153037805, -187500.02235174447, -37956.63719852414, 0.036782917231321335, 0.9737901867218315, -0.18427050537988543, 192.0, 0.0, 0.0, 0.0, 0.0, 0.0, 0.0, 0.0, 0.0, 0.0, 1.742502527447518E9, 0.0, 2025-03-20 15:28:47.447
136.0, -17283.061716921537, -40761.848182898546, -44161.70497676194, -10748.551577156972, -19750.80606350971, -13233.797339653653, -26566.232927588575, -35191.86051986939, -10686.994872927055, -17436.84171877405, -15823.716321434536, -4644.312518157068, -27409.09485925375, -20421.55956286902, -187500.02235174447, -37952.50212579991, 0.036782917231321335, 0.9737901867218315, -0.18427050537988543, 192.0, 0.0, 0.0, 0.0, 0.0, 0.0, 0.0, 0.0, 0.0, 0.0, 1.74250252744761E9, 0.0, 2025-03-20 15:28:47.447
138.0, -17270.880016193394, -40767.21260156782, -44169.41632859902, -10755.860597593857, -19752.638906555047, -13235.451368743345, -26568.982192156578, -35192.799293136515, -10700.8753062338, -17455.997163772245, -15836.389760540696, -4658.662338097374, -27412.00058603294, -20421.671321591297, -187500.02235174447, -37953.84323046723, 0.036782917231321335, 0.9737901867218315, -0.18427050537988543, 192.0, 0.0, 0.0, 0.0, 0.0, 0.0, 0.0, 0.0, 0.0, 0.0, 1.742502527447679E9, 0.0, 2025-03-20 15:28:47.447
140.0, -17292.069469937025, -40783.17174710891, -44158.732194749384, -10758.520455184038, -19747.363894863593, -13230.71279891882, -26560.15325309673, -35185.62438316636, -10687.26309386052, -17470.54814941265, -15833.0369988724, -4661.366899176467, -27407.28436795287, -20422.475984391687, -187500.02235174447, -37942.62265475067, 0.03639145861566067, 0.9718950933609157, -0.1841352526899427, 192.0, 0.5, 16.0, 15.0, 40.0, 125.0, 32.0, 0.0, 0.0, 0.0, 1.742502527447748E9, 0.0, 2025-03-20 15:28:47.447
142.0, -17271.505865038143, -40766.56440097862, -44154.64182551406, -10744.394152688285, -19745.218127395885, -13228.768197151208, -26558.58863098486, -35179.365894718874, -10703.222239401608, -17463.93203305388, -15835.60744948476, -4666.641910867919, -27420.404841948133, -20421.112527979916, -187500.02235174447, -37935.11246861368, 0.03639145861566067, 0.9718950933609157, -0.1841352526899427, 192.0, 0.0, 0.0, 0.0, 0.0, 0.0, 0.0, 0.0, 0.0, 0.0, 1.742502527447821E9, 0.0, 2025-03-20 15:28:47.447
144.0, -17289.387260602387, -40782.478843030796, -44168.63401754308, -10758.229882506119, -19748.61559255309, -13224.677827915888, -26563.64012523176, -35181.82458660896, -10688.335977594374, -17460.579271385584, -15832.008818627457, -4656.695384585308, -27407.66434760861, -20414.56346685451, -187500.02235174447, -37936.99001514793, 0.03639145861566067, 0.9718950933609157, -0.1841352526899427, 192.0, 0.0, 0.0, 0.0, 0.0, 0.0, 0.0, 0.0, 0.0, 0.0, 1.7425025274479E9, 0.0, 2025-03-20 15:28:47.447
146.0, -17277.451429063254, -40765.759738178225, -44173.193773411964, -10755.79354236049, -19757.62334556858, -13228.276458773193, -26562.92486940919, -35188.01601982308, -10739.230899719108, -17467.46360867782, -15849.443179302596, -4668.899437057905, -27403.775144073385, -20423.124184980894, -187500.02235174447, -37955.474907812466, 0.03639145861566067, 0.9718950933609157, -0.1841352526899427, 192.0, 0.0, 0.0, 0.0, 0.0, 0.0, 0.0, 0.0, 0.0, 0.0, 1.742502527447976E9, 0.0, 2025-03-20 15:28:47.447
148.0, -17275.26095810663, -40774.81219468262, -44184.0790729617, -10769.18223728922, -19765.513511361303, -13241.62045021301, -26576.805302715937, -35200.3094792735, -10670.052250629933, -17455.058390505124, -15828.32078079233, -4649.408715892878, -27399.215388204502, -20409.400213885336, -187500.02235174447, -37964.974399205974, 0.03639145861566067, 0.9718950933609157, -0.1841352526899427, 192.0, 0.0, 0.0, 0.0, 0.0, 0.0, 0.0, 0.0, 0.0, 0.0, 1.742502527448052E9, 0.0, 2025-03-20 15:28:47.448
150.0, -17286.61564428993, -40768.50900274623, -44191.14222420958, -10776.535961215015, -19778.477523145382, -13244.369714781013, -26589.277576121996, -35211.23948231214, -10718.17555644221, -17468.156512755933, -15844.592850755795, -4667.647739368408, -27415.196885490048, -20423.23594370317, -187500.02235174447, -37980.218288924494, 0.03619572930783034, 0.9719475466804579, -0.18206762634497137, 192.0, 0.5, 16.0, 15.0, 48.0, 125.0, 48.0, 0.0, 0.0, 0.0, 1.742502527507723E9, 0.0, 2025-03-20 15:28:47.507
152.0, -17260.352344554944, -40752.885133371965, -44187.58829684118, -10763.124914541831, -19766.698153817433, -13239.072351345105, -26580.470988806606, -35206.34445027643, -10696.673178276204, -17454.477245149286, -15837.484996019006, -4657.991785763716, -27408.200789475537, -20415.301074421535, -187500.02235174447, -37987.482605872465, 0.03619572930783034, 0.9719475466804579, -0.18206762634497137, 192.0, 0.0, 0.0, 0.0, 0.0, 0.0, 0.0, 0.0, 0.0, 0.0, 1.742502527507823E9, 0.0, 2025-03-20 15:28:47.507
154.0, -17279.19486513077, -40758.83069739708, -44185.19666018447, -10753.424257448229, -19771.39202015305, -13233.685580931377, -26577.2746893495, -35200.37653450686, -10708.944285982167, -17459.908719051924, -15838.267307074942, -4654.393154906411, -27395.862626536207, -20411.501277864132, -187500.02235174447, -37974.18331792156, 0.03619572930783034, 0.9719475466804579, -0.18206762634497137, 192.0, 0.0, 0.0, 0.0, 0.0, 0.0, 0.0, 0.0, 0.0, 0.0, 1.742502527507894E9, 0.0, 2025-03-20 15:28:47.507
156.0, -17242.2697832906, -40739.09410704304, -44178.13350893659, -10742.538957898494, -19757.19866242393, -13226.622429683499, -26564.958878154623, -35188.55246169001, -10692.135774151777, -17440.194480442344, -15825.347998779775, -4634.053067452081, -27379.188225172547, -20394.156324166815, -187500.02235174447, -37961.75574800441, 0.03619572930783034, 0.9719475466804579, -0.18206762634497137, 192.0, 0.0, 0.0, 0.0, 0.0, 0.0, 0.0, 0.0, 0.0, 0.0, 1.742502527507973E9, 0.0, 2025-03-20 15:28:47.507
158.0, -17283.37464134391, -40766.76556667871, -44190.58343059819, -10758.095772039387, -19773.0684009872, -13236.054865843638, -26575.285384092975, -35195.28033677105, -10698.863649232824, -17437.579326341074, -15834.556917495362, -4646.3465269025, -27380.104646695218, -20410.361338896913, -187500.02235174447, -37961.17460264857, 0.03619572930783034, 0.9719475466804579, -0.18206762634497137, 192.0, 0.0, 0.0, 0.0, 0.0, 0.0, 0.0, 0.0, 0.0, 0.0, 1.742502527508036E9, 0.0, 2025-03-20 15:28:47.508
160.0, -17269.673021992807, -40773.381683037485, -44203.83801506019, -10769.56221694496, -19770.5650056082, -13251.768142195719, -26583.8237504749, -35207.57379622147, -10709.592486571371, -17493.391632245974, -15847.163301368155, -4666.2172277232685, -27407.574940630788, -20419.436147145767, -187500.02235174447, -37967.23192539596, 0.03809786465391517, 0.9689737733402289, -0.18103381317248568, 192.0, 0.5, 32.0, 15.0, 24.0, 125.0, 48.0, 0.0, 0.0, 0.0, 1.742502527508102E9, 0.0, 2025-03-20 15:28:47.508
162.0, -17296.539818828085, -40772.73348244828, -44198.07126499072, -10759.526283684527, -19774.52126437679, -13239.80995891213, -26572.49141603606, -35190.80998787999, -10714.040483717978, -17450.83391080307, -15851.298374092386, -4658.01413750817, -27393.7168590685, -20431.66255136282, -187500.02235174447, -37964.214439894495, 0.03809786465391517, 0.9689737733402289, -0.18103381317248568, 192.0, 0.0, 0.0, 0.0, 0.0, 0.0, 0.0, 0.0, 0.0, 0.0, 1.742502527508176E9, 0.0, 2025-03-20 15:28:47.508
164.0, -17247.209518815223, -40755.343825262054, -44181.35216013815, -10749.333888212906, -19741.172461649476, -13223.04615057065, -26553.134805337766, -35173.75560686059, -10707.983160970589, -17455.75129458324, -15846.001010656479, -4657.701213085797, -27380.194053673036, -20419.860830290418, -187500.02235174447, -37947.51768678638, 0.03809786465391517, 0.9689737733402289, -0.18103381317248568, 192.0, 0.0, 0.0, 0.0, 0.0, 0.0, 0.0, 0.0, 0.0, 0.0, 1.742502527568004E9, 0.0, 2025-03-20 15:28:47.568
166.0, -17296.986853717193, -40777.583810995086, -44195.38905565609, -10754.295975481984, -19760.797293281234, -13226.4212639834, -26554.38650302726, -35168.57000214696, -10696.002625942545, -17475.13025702599, -15839.787225697903, -4659.9363875313275, -27370.582803557256, -20422.073652991494, -187500.02235174447, -37933.01140463488, 0.03809786465391517, 0.9689737733402289, -0.18103381317248568, 192.0, 0.0, 0.0, 0.0, 0.0, 0.0, 0.0, 0.0, 0.0, 0.0, 1.742502527568106E9, 0.0, 2025-03-20 15:28:47.568
168.0, -17257.401914286842, -40765.826793411594, -44211.21409073044, -10770.121010556342, -19755.946964734434, -13236.90423213294, -26566.814072944413, -35174.47086268316, -10711.514736594527, -17462.36741094201, -15847.47622579053, -4660.8751607984495, -27362.335009853246, -20420.57608611299, -187500.02235174447, -37945.86365769669, 0.03809786465391517, 0.9689737733402289, -0.18103381317248568, 192.0, 0.0, 0.0, 0.0, 0.0, 0.0, 0.0, 0.0, 0.0, 0.0, 1.742502527568186E9, 0.0, 2025-03-20 15:28:47.568
170.0, -17276.26678660712, -40752.08047057158, -44193.37739865511, -10753.826588848424, -19759.14326419154, -13225.504842460734, -26561.270840319496, -35163.6973218557, -10693.387471841274, -17450.275117191686, -15836.23329832951, -4656.203646207291, -27370.828672746262, -20412.99884474264, -187500.02235174447, -37958.09006191374, 0.037048932326957586, 0.9654868866701145, -0.17751690658624286, 192.0, 0.5, 16.0, 15.0, 8.0, 125.0, 72.0, 0.0, 0.0, 0.0, 1.742502527568262E9, 0.0, 2025-03-20 15:28:47.568
172.0, -17234.692541920253, -40743.43034546737, -44200.57466036972, -10761.001498818578, -19747.363894863593, -13241.531043235189, -26570.904442179733, -35169.799348092005, -10686.30196884894, -17421.419015099887, -15829.70658894856, -4638.992802976704, -27356.70237025051, -20403.65581556032, -187500.02235174447, -37961.46517532649, 0.037048932326957586, 0.9654868866701145, -0.17751690658624286, 192.0, 0.0, 0.0, 0.0, 0.0, 0.0, 0.0, 0.0, 0.0, 0.0, 1.742502527568346E9, 0.0, 2025-03-20 15:28:47.568
174.0, -17272.668155749816, -40757.17666830739, -44194.517337622325, -10756.285280738508, -19761.95958399291, -13238.29004028917, -26573.027857902987, -35165.68662711223, -10707.178498170197, -17453.89609979345, -15844.99518215599, -4659.2881869421235, -27377.489492593944, -20415.301074421535, -187500.02235174447, -37975.85969875571, 0.037048932326957586, 0.9654868866701145, -0.17751690658624286, 192.0, 0.0, 0.0, 0.0, 0.0, 0.0, 0.0, 0.0, 0.0, 0.0, 1.742502527568418E9, 0.0, 2025-03-20 15:28:47.568
176.0, -17220.1639080243, -40738.33414773156, -44185.95661949595, -10750.74204811359, -19740.39015059354, -13231.293944274657, -26566.054113632934, -35159.47284215365, -10672.466239031106, -17419.317951121087, -15823.51515573444, -4638.031677965126, -27366.69360002203, -20403.119373693393, -187500.02235174447, -37958.73826250294, 0.037048932326957586, 0.9654868866701145, -0.17751690658624286, 192.0, 0.0, 0.0, 0.0, 0.0, 0.0, 0.0, 0.0, 0.0, 0.0, 1.742502527568487E9, 0.0, 2025-03-20 15:28:47.568
178.0, -17266.4767225357, -40757.73546191877, -44195.76903531182, -10754.430085948718, -19759.411485125005, -13231.875089630495, -26573.54194802546, -35160.25515320959, -10681.049308901944, -17451.63857360346, -15831.092397104789, -4654.840189795517, -27375.969573970986, -20404.840458016453, -187500.02235174447, -37956.36897759068, 0.037048932326957586, 0.9654868866701145, -0.17751690658624286, 192.0, 0.0, 0.0, 0.0, 0.0, 0.0, 0.0, 0.0, 0.0, 0.0, 1.742502527568559E9, 0.0, 2025-03-20 15:28:47.568
180.0, -17231.429187229776, -40745.06202281261, -44199.05474174675, -10752.351373714373, -19744.838147740145, -13238.111226333527, -26578.816959716914, -35163.87613581135, -10692.605160785337, -17421.620180799982, -15836.836795429803, -4650.906282771383, -27379.970536228484, -20396.167981167793, -187500.02235174447, -37953.48560255594, 0.03652446616347879, 0.9667434433350572, -0.17875845329312143, 192.0, 0.5, 16.0, 15.0, 32.0, 125.0, 48.0, 0.0, 0.0, 0.0, 1.742502527628344E9, 0.0, 2025-03-20 15:28:47.628
182.0, -17263.101609122947, -40757.646054940946, -44188.370607897115, -10741.443722420183, -19756.39399962354, -13226.108339561028, -26571.50793928003, -35153.303760683986, -10674.813172198912, -17451.66092534792, -15831.248859315976, -4659.131724730936, -27381.289289151347, -20396.771478268085, -187500.02235174447, -37949.261122853895, 0.03652446616347879, 0.9667434433350572, -0.17875845329312143, 192.0, 0.0, 0.0, 0.0, 0.0, 0.0, 0.0, 0.0, 0.0, 0.0, 1.742502527628423E9, 0.0, 2025-03-20 15:28:47.628
184.0, -17220.499184191132, -40735.67429014138, -44174.69134029047, -10729.686704836691, -19733.43875806794, -13219.402816224434, -26554.92294489419, -35145.324187913444, -10691.197000884653, -17420.279076132665, -15825.191536568587, -4649.609881592975, -27372.795626258332, -20392.882274732863, -187500.02235174447, -37931.782058689845, 0.03652446616347879, 0.9667434433350572, -0.17875845329312143, 192.0, 0.0, 0.0, 0.0, 0.0, 0.0, 0.0, 0.0, 0.0, 0.0, 1.742502527628487E9, 0.0, 2025-03-20 15:28:47.628
186.0, -17272.84696970546, -40769.4254242689, -44203.50273889336, -10759.392173217795, -19753.7117902889, -13240.122883334505, -26568.423398545194, -35155.2483624516, -10674.991986154555, -17442.653172332426, -15826.622048213727, -4661.076326498548, -27369.353457612215, -20399.61014981391, -187500.02235174447, -37929.45747726649, 0.03652446616347879, 0.9667434433350572, -0.17875845329312143, 192.0, 0.0, 0.0, 0.0, 0.0, 0.0, 0.0, 0.0, 0.0, 0.0, 1.74250252762858E9, 0.0, 2025-03-20 15:28:47.628
188.0, -17229.909268606814, -40748.92887460338, -44188.39295964158, -10745.802312588969, -19736.14331914703, -13233.596173953554, -26559.39329378525, -35147.93934201472, -10702.663445790226, -17442.049675232134, -15834.914545406646, -4670.106431258492, -27378.85294900572, -20410.09311796345, -187500.02235174447, -37934.50897151339, 0.03652446616347879, 0.9667434433350572, -0.17875845329312143, 192.0, 0.0, 0.0, 0.0, 0.0, 0.0, 0.0, 0.0, 0.0, 0.0, 1.742502527628656E9, 0.0, 2025-03-20 15:28:47.628
190.0, -17259.65944047683, -40765.8714969005, -44200.820529558725, -10761.202664518674, -19751.00722920981, -13240.704028690343, -26572.49141603606, -35159.875173553846, -10676.802477455436, -17436.43938737385, -15819.581248710305, -4655.331928173534, -27363.586707542745, -20405.4663068612, -187500.02235174447, -37931.33502380073, 0.0352622330817394, 0.9673717216675286, -0.17637922664656072, 192.0, 0.5, 8.0, 15.0, 32.0, 125.0, 72.0, 0.0, 0.0, 0.0, 1.742502527628728E9, 0.0, 2025-03-20 15:28:47.628
192.0, -17238.537041966563, -40752.08047057158, -44202.295744692776, -10763.147266286287, -19752.460092599405, -13242.492168246767, -26571.999677658045, -35161.9985892771, -10711.69355055017, -17472.872730836003, -15834.154586095166, -4678.086004029036, -27382.831559518763, -20414.407004643323, -187500.02235174447, -37950.13284088765, 0.0352622330817394, 0.9673717216675286, -0.17637922664656072, 192.0, 0.0, 0.0, 0.0, 0.0, 0.0, 0.0, 0.0, 0.0, 0.0, 1.742502527628816E9, 0.0, 2025-03-20 15:28:47.628
194.0, -17240.056960589525, -40748.280674014175, -44205.20147147196, -10757.671088894736, -19756.23753741235, -13247.18603458238, -26579.822788217403, -35169.10644401389, -10693.566285796916, -17437.758140296715, -15826.398530769175, -4657.857675296984, -27368.638201789643, -20404.169905682793, -187500.02235174447, -37961.979265448965, 0.0352622330817394, 0.9673717216675286, -0.17637922664656072, 192.0, 0.0, 0.0, 0.0, 0.0, 0.0, 0.0, 0.0, 0.0, 0.0, 1.742502527688585E9, 0.0, 2025-03-20 15:28:47.688
196.0, -17251.299888050544, -40752.63926418296, -44213.71748610944, -10761.98497557461, -19765.0664764722, -13245.643764214965, -26584.539006297473, -35170.559307403484, -10684.670291503704, -17428.34805588103, -15826.197365069076, -4665.010233522682, -27386.60900433171, -20409.04258597405, -187500.02235174447, -37965.77906200637, 0.0352622330817394, 0.9673717216675286, -0.17637922664656072, 192.0, 0.0, 0.0, 0.0, 0.0, 0.0, 0.0, 0.0, 0.0, 0.0, 1.742502527688682E9, 0.0, 2025-03-20 15:28:47.688
198.0, -17248.75178918264, -40758.629531696984, -44218.25489023387, -10766.120048298842, -19760.394961881037, -13241.821615913108, -26568.289288078464, -35163.87613581135, -10688.671253761204, -17443.748407810737, -15835.674504718127, -4669.838210325028, -27367.677076778065, -20408.126164451383, -187500.02235174447, -37969.78002426386, 0.0352622330817394, 0.9673717216675286, -0.17637922664656072, 192.0, 0.0, 0.0, 0.0, 0.0, 0.0, 0.0, 0.0, 0.0, 0.0, 1.742502527688756E9, 0.0, 2025-03-20 15:28:47.688
200.0, -17248.282402549077, -40748.21361878081, -44199.635887102595, -10748.685687623703, -19759.67970605847, -13228.47762447329, -26565.897651421747, -35151.694435083205, -10696.40495734274, -17433.17603268338, -15827.739635436492, -4665.524323645154, -27369.688733779043, -20400.928902736774, -187500.02235174447, -37961.21930613748, 0.0356311165408697, 0.9656858608337643, -0.17418961332328037, 192.0, 0.5, 16.0, 15.0, 16.0, 125.0, 80.0, 0.0, 0.0, 0.0, 1.742502527688827E9, 0.0, 2025-03-20 15:28:47.688
202.0, -17256.686658464274, -40768.97838937979, -44213.7845413428, -10762.02967906352, -19762.227804926373, -13242.648630457954, -26574.83834920387, -35168.81587133597, -10678.411803056217, -17441.669695576395, -15828.589001725793, -4666.172524234357, -27370.582803557256, -20398.827838757974, -187500.02235174447, -37959.252352625415, 0.0356311165408697, 0.9656858608337643, -0.17418961332328037, 192.0, 0.0, 0.0, 0.0, 0.0, 0.0, 0.0, 0.0, 0.0, 0.0, 1.742502527688897E9, 0.0, 2025-03-20 15:28:47.688
204.0, -17277.76435348563, -40780.578944752095, -44211.28114596381, -10758.788676117501, -19765.379400894573, -13236.256031543737, -26573.698410236648, -35163.71967360016, -10709.190155171174, -17473.923262825403, -15846.783321712413, -4689.485393701243, -27381.3116408958, -20414.3175976655, -187500.02235174447, -37963.4097770941, 0.0356311165408697, 0.9656858608337643, -0.17418961332328037, 192.0, 0.0, 0.0, 0.0, 0.0, 0.0, 0.0, 0.0, 0.0, 0.0, 1.742502527688963E9, 0.0, 2025-03-20 15:28:47.688
206.0, -17248.438864760265, -40757.646054940946, -44193.26563993283, -10739.65558286376, -19734.62340052407, -13219.581630180077, -26552.57601172638, -35146.464126880666, -10702.104652178843, -17439.278058919677, -15834.288696561898, -4668.430050424344, -27371.83450124675, -20402.627635315377, -187500.02235174447, -37947.47298329747, 0.0356311165408697, 0.9656858608337643, -0.17418961332328037, 192.0, 0.0, 0.0, 0.0, 0.0, 0.0, 0.0, 0.0, 0.0, 0.0, 1.742502527689034E9, 0.0, 2025-03-20 15:28:47.689
208.0, -17278.881940708394, -40768.129023090485, -44203.547442382274, -10742.561309642948, -19753.398865866526, -13220.878031358485, -26563.26014557602, -35147.73817631462, -10697.20962014313, -17442.675524076883, -15835.093359362289, -4669.793506836118, -27362.871451720173, -20395.542132323044, -187500.02235174447, -37928.87633191065, 0.0356311165408697, 0.9656858608337643, -0.17418961332328037, 192.0, 0.0, 0.0, 0.0, 0.0, 0.0, 0.0, 0.0, 0.0, 0.0, 1.742502527689108E9, 0.0, 2025-03-20 15:28:47.689
210.0, -17241.263954790113, -40755.25441828423, -44196.417235901026, -10744.192986988186, -19741.977124449866, -13223.38142673748, -26554.990000127556, -35143.647807079295, -10683.887980447767, -17450.051599747134, -15829.930106393113, -4665.904303300894, -27365.866585477186, -20392.457591588212, -187500.02235174447, -37927.64698596561, 0.03381555827043485, 0.9638429304168821, -0.17309480666164018, 192.0, 0.5, 0.0, 15.0, 8.0, 125.0, 80.0, 0.0, 0.0, 0.0, 1.742502527747515E9, 0.0, 2025-03-20 15:28:47.747
212.0, -17290.124868169412, -40771.19121208086, -44209.38124768511, -10754.497141182082, -19767.927499762478, -13236.703066432843, -26565.025933387988, -35153.795499062006, -10703.35634986834, -17446.967059012302, -15839.720170464538, -4675.336739461033, -27366.246565132926, -20412.842382531453, -187500.02235174447, -37930.79858193381, 0.03381555827043485, 0.9638429304168821, -0.17309480666164018, 192.0, 0.0, 0.0, 0.0, 0.0, 0.0, 0.0, 0.0, 0.0, 0.0, 1.742502527747613E9, 0.0, 2025-03-20 15:28:47.747
214.0, -17240.839271645462, -40746.78310713567, -44193.064474232735, -10749.60210914637, -19743.877022728568, -13234.311429776124, -26560.868508919302, -35153.32611242844, -10694.683873019681, -17450.632745102972, -15834.579269239817, -4666.753669590195, -27368.258222133903, -20403.45464986022, -187500.02235174447, -37934.911302913584, 0.03381555827043485, 0.9638429304168821, -0.17309480666164018, 192.0, 0.0, 0.0, 0.0, 0.0, 0.0, 0.0, 0.0, 0.0, 0.0, 1.742502527747695E9, 0.0, 2025-03-20 15:28:47.747
