%OpenBCI Raw EXG Data
%Number of channels = 16
%Sample Rate = 125 Hz
%Board = OpenBCI_GUI$BoardCytonSerialDaisy
Sample Index, EXG Channel 0, EXG Channel 1, EXG Channel 2, EXG Channel 3, EXG Channel 4, EXG Channel 5, EXG Channel 6, EXG Channel 7, EXG Channel 8, EXG Channel 9, EXG Channel 10, EXG Channel 11, EXG Channel 12, EXG Channel 13, EXG Channel 14, EXG Channel 15, Accel Channel 0, Accel Channel 1, Accel Channel 2, Not Used, Digital Channel 0 (D11), Digital Channel 1 (D12), Digital Channel 2 (D13), Digital Channel 3 (D17), Not Used, Digital Channel 4 (D18), Analog Channel 0, Analog Channel 1, Analog Channel 2, Timestamp, Marker Channel, Timestamp (Formatted)
0.0, -18505.411565948914, -2914.8462909276836, -187500.02235174447, -8005.947829001883, 22095.101725471228, 11622.303619659378, -43302.39216117766, 7325.046637659864, 0.0, 0.0, 0.0, 0.0, 0.0, 0.0, 0.0, 0.0, 0.0, 0.0, 0.0, 192.0, 0.0, 0.0, 0.0, 0.0, 0.0, 0.0, 0.0, 0.0, 0.0, 1.741979376773206E9, 0.0, 2025-03-14 14:09:36.773
58.0, -18516.76625213221, -2960.957939738982, -187500.02235174447, -7979.706881011353, 22097.56041736131, 11632.361904664267, -43315.199710750545, 7332.400361585661, -3343.485694347107, 43090.162347574515, 10419.757416219403, 35577.87514661255, -13376.245007067324, 3051.9965949054476, -54208.3447227889, -187500.02235174447, 0.0, 0.0, 0.0, 192.0, 0.0, 0.0, 0.0, 0.0, 0.0, 0.0, 0.0, 0.0, 0.0, 1.741979376773359E9, 0.0, 2025-03-14 14:09:36.773
60.0, -18491.95581578682, -2928.0114684118594, -187500.02235174447, -8018.0848262411155, 22084.21642592149, 11613.161756177158, -43316.58551890678, 7317.6929137340685, -3338.389496611297, 42946.59709293808, 10246.441989712954, 35425.2127319828, -13368.757172674797, 3012.478710708465, -54324.70790442323, -187500.02235174447, 0.03, 0.486, 0.05, 192.0, 0.5, 112.0, 15.0, 48.0, 1.5, 16.0, 0.0, 0.0, 0.0, 1.741979376773507E9, 0.0, 2025-03-14 14:09:36.773
62.0, -18489.072440752083, -2928.860834701161, -187500.02235174447, -7957.064563878127, 22121.767356606408, 11651.316183962368, -43318.86539684122, 7352.829856017811, -3364.585741112917, 43101.58408899118, 10427.20054712302, 35585.407684493985, -13383.93400715995, 3071.6661300261176, -54203.025007608536, -187500.02235174447, 0.03, 0.486, 0.05, 192.0, 0.0, 0.0, 0.0, 0.0, 0.0, 0.0, 0.0, 0.0, 0.0, 1.741979376773683E9, 0.0, 2025-03-14 14:09:36.773
64.0, -18477.47188537978, -2933.8676254591496, -187500.02235174447, -8009.479404625822, 22083.434114865555, 11623.801186537885, -43313.92566131659, 7327.617088272225, -3340.5352640790065, 42967.004235625776, 10268.860789401626, 35446.0669095596, -13379.575416991165, 3033.8469784077383, -54298.98104655517, -187500.02235174447, 0.03, 0.486, 0.05, 192.0, 0.0, 0.0, 0.0, 0.0, 0.0, 0.0, 0.0, 0.0, 0.0, 1.741979376773845E9, 0.0, 2025-03-14 14:09:36.773
66.0, -18501.052975780127, -2934.9405091930043, -187500.02235174447, -7915.870298846996, 22149.260002286435, 11690.163515825692, -43335.33863250478, 7385.441051178104, -3345.8102757704587, 43110.70360072894, 10438.219957139489, 35594.68365844293, -13384.157524604503, 3074.9965399499583, -54182.79667887648, -187500.02235174447, 0.03, 0.486, 0.05, 192.0, 0.0, 0.0, 0.0, 0.0, 0.0, 0.0, 0.0, 0.0, 0.0, 1.74197937677399E9, 0.0, 2025-03-14 14:09:36.773
68.0, -18500.80710659112, -2916.7461892063843, -187500.02235174447, -8007.892430769495, 22075.879225239663, 11630.014971496461, -43323.246338754456, 7329.651097017658, -3342.99395596909, 42993.17812838294, 10302.0307781733, 35480.71211346533, -13376.60263497861, 3044.017022134903, -54257.07152570147, -187500.02235174447, 0.03, 0.486, 0.05, 192.0, 0.0, 0.0, 0.0, 0.0, 0.0, 0.0, 0.0, 0.0, 0.0, 1.741979376774146E9, 0.0, 2025-03-14 14:09:36.774
70.0, -18460.730428782754, -2912.856985671161, -187500.02235174447, -7925.61565942951, 22138.195888781058, 11675.433716229643, -43316.540815417866, 7367.380841658216, -3296.6140862243283, 43092.01754236431, 10414.549459761318, 35574.83530936662, -13386.571513005676, 3062.948949688548, -54190.95506560267, -187500.02235174447, 0.044, 0.73, 0.07300000000000001, 192.0, 0.5, 104.0, 15.0, 56.0, 1.5, 0.0, 0.0, 0.0, 0.0, 1.741979376774289E9, 0.0, 2025-03-14 14:09:36.774
72.0, -18462.786789272643, -2914.1980903384797, -187500.02235174447, -8068.59976871011, 22018.144669311605, 11570.33581380079, -43290.881012783175, 7273.414107968106, -3339.417676856241, 42969.306465304675, 10271.677109202994, 35446.0669095596, -13376.155600089503, 3037.7361819429616, -54294.197773241736, -187500.02235174447, 0.044, 0.73, 0.07300000000000001, 192.0, 0.0, 0.0, 0.0, 0.0, 0.0, 0.0, 0.0, 0.0, 0.0, 1.74197937677446E9, 0.0, 2025-03-14 14:09:36.774
74.0, -18480.04233599214, -2938.0697534167475, -187500.02235174447, -7955.701107466353, 22123.33197871828, 11652.143198507214, -43312.964536305015, 7345.230262903007, -3330.4099238407525, 43053.61724539009, 10370.158895273078, 35526.533189598704, -13359.190626047925, 3085.3901011216763, -54240.710048760186, -187500.02235174447, 0.044, 0.73, 0.07300000000000001, 192.0, 0.0, 0.0, 0.0, 0.0, 0.0, 0.0, 0.0, 0.0, 0.0, 1.74197937677461E9, 0.0, 2025-03-14 14:09:36.774
76.0, -18459.70224853781, -2904.072750100225, -187500.02235174447, -8078.948626392917, 22015.194239043503, 11560.344584029268, -43291.305695927826, 7266.48506718696, -3350.3923833837966, 42971.78750893921, 10277.734431950383, 35447.51977294919, -13361.939890615928, 3046.2074930915232, -54302.4679186902, -187500.02235174447, 0.044, 0.73, 0.07300000000000001, 192.0, 0.0, 0.0, 0.0, 0.0, 0.0, 0.0, 0.0, 0.0, 0.0, 1.74197937677476E9, 0.0, 2025-03-14 14:09:36.774
78.0, -18489.631234363467, -2928.3914480675994, -187500.02235174447, -7956.036383633183, 22125.589504908265, 11641.526119890943, -43309.9246990591, 7338.256518632951, -3337.3389646218975, 43028.4044776445, 10331.84800527668, 35491.39624731496, -13357.201320791402, 3071.8002404928498, -54275.69052883274, -187500.02235174447, 0.044, 0.73, 0.07300000000000001, 192.0, 0.0, 0.0, 0.0, 0.0, 0.0, 0.0, 0.0, 0.0, 0.0, 1.741979376774914E9, 0.0, 2025-03-14 14:09:36.774
80.0, -18482.791600560144, -2938.025049927837, -187500.02235174447, -8056.26160577078, 22032.494489251912, 11574.828514436307, -43291.88684128366, 7280.745480149446, -3345.095019947889, 43012.84766350361, 10316.581763813707, 35481.96381115482, -13379.709527457897, 3049.940234415559, -54271.823677041975, -187500.02235174447, 0.052, 0.854, 0.0855, 192.0, 0.5, 112.0, 15.0, 72.0, 1.5, 8.0, 0.0, 0.0, 0.0, 1.741979376775068E9, 0.0, 2025-03-14 14:09:36.775
0.0, -8755.334765354964, -862.8443912082186, -93750.01117587223, -3282.8901151287696, 12009.681702814307, 6555.833703974928, -21094.592940162773, 3609.694970809814, -1647.0106419337562, 21546.411102582348, 5205.810690618836, 17778.42107754005, -6686.814926483027, 1546.0701639735896, -27110.497905075303, -93750.01117587223, 0.10400000000000001, 0.982, 0.05, 192.0, 1.5, 32.0, 15.0, 88.0, 0.5, 72.0, 0.0, 0.0, 0.0, 1.741979376911204E9, 0.0, 2025-03-14 14:09:36.911
2.0, -17494.643329935472, -1726.8063696392023, -187500.02235174447, -6497.540354435487, 24055.75204560185, 13154.716867770776, -42188.1577000806, 7258.281976971863, -1632.6831737379043, 43690.68666585525, 11921.92875408277, 38286.68305715121, -13848.02327728549, 3174.5065062649855, -53792.02113056435, -187500.02235174447, 0.10400000000000001, 0.982, 0.05, 192.0, 0.0, 0.0, 0.0, 0.0, 0.0, 0.0, 0.0, 0.0, 0.0, 1.741979376911421E9, 0.0, 2025-03-14 14:09:36.911
4.0, -17446.520024123194, -1688.9648662763675, -187500.02235174447, -6591.842364292427, 23971.93300389445, 13093.987178085707, -42164.509554446886, 7205.598915290704, -1642.4285343204183, 43588.15921403876, 11821.971752878637, 38211.201216125635, -13845.698695862138, 3136.106209290768, -53846.559387035304, -187500.02235174447, 0.10400000000000001, 0.982, 0.05, 192.0, 0.0, 0.0, 0.0, 0.0, 0.0, 0.0, 0.0, 0.0, 0.0, 1.741979376911572E9, 0.0, 2025-03-14 14:09:36.911
6.0, -17443.39077989945, -1695.8715553130576, -187500.02235174447, -6504.044712071981, 24033.646170335553, 13151.922899713863, -42176.26657203038, 7255.488008914949, -1610.6443537049715, 43641.624586775855, 11900.918114294782, 38285.47606295062, -13857.612175656817, 3160.2460933024995, -53816.51864248737, -187500.02235174447, 0.10400000000000001, 0.982, 0.05, 192.0, 0.0, 0.0, 0.0, 0.0, 0.0, 0.0, 0.0, 0.0, 0.0, 1.741979376911722E9, 0.0, 2025-03-14 14:09:36.911
8.0, -17461.406285930432, -1684.0698342406554, -187500.02235174447, -6600.850117307916, 23946.20614602639, 13091.796707129086, -42159.81568811127, 7205.889487968623, -1620.076789865111, 43549.200123453156, 11816.182651064713, 38227.11565817781, -13865.122361793801, 3132.976965067025, -53867.8158960123, -187500.02235174447, 0.112, 0.9520000000000001, 0.046, 192.0, 1.5, 64.0, 14.5, 96.0, 0.5, 56.0, 0.0, 0.0, 0.0, 1.741979376911879E9, 0.0, 2025-03-14 14:09:36.911
10.0, -17449.470454391296, -1672.0445957237002, -187500.02235174447, -6487.012682797037, 24028.438213877467, 13171.234806923248, -42176.177165052555, 7275.291654502351, -1619.5179962537286, 43584.47117620363, 11882.299111163511, 38297.27778402303, -13850.392562197752, 3139.302508747877, -53833.28245082885, -187500.02235174447, 0.112, 0.9520000000000001, 0.046, 192.0, 0.0, 0.0, 0.0, 0.0, 0.0, 0.0, 0.0, 0.0, 0.0, 1.74197937691203E9, 0.0, 2025-03-14 14:09:36.912
12.0, -17419.094433676535, -1675.2632469252644, -187500.02235174447, -6595.262181194089, 23927.251866728293, 13102.570247956544, -42154.920656075556, 7214.5619648172815, -1616.3664002855303, 43527.65304179824, 11844.144683378301, 38290.616964175344, -13871.470257219107, 3105.1490432201676, -53847.09582890223, -187500.02235174447, 0.112, 0.9520000000000001, 0.046, 192.0, 0.0, 0.0, 0.0, 0.0, 0.0, 0.0, 0.0, 0.0, 0.0, 1.741979376912192E9, 0.0, 2025-03-14 14:09:36.912
14.0, -17430.896154748938, -1679.532430116228, -187500.02235174447, -6494.768738123029, 24007.06994617819, 13171.234806923248, -42161.357958478686, 7270.7318986334685, -1620.2332520762984, 43516.834797481875, 11853.331250349433, 38314.332165042426, -13848.984402297068, 3116.2802119589105, -53856.43885808455, -187500.02235174447, 0.112, 0.9520000000000001, 0.046, 192.0, 0.0, 0.0, 0.0, 0.0, 0.0, 0.0, 0.0, 0.0, 0.0, 1.741979376912337E9, 0.0, 2025-03-14 14:09:36.912
16.0, -17427.275172147176, -1674.95032250289, -187500.02235174447, -6598.614942862385, 23912.410308409966, 13101.519715967146, -42137.441591911505, 7211.745645015913, -1634.2030923608652, 43501.3673903188, 11862.696631276207, 38349.31264511498, -13853.566509910406, 3088.362883134232, -53846.11235214619, -187500.02235174447, 0.112, 0.9520000000000001, 0.046, 192.0, 0.0, 0.0, 0.0, 0.0, 0.0, 0.0, 0.0, 0.0, 0.0, 1.741979376971548E9, 0.0, 2025-03-14 14:09:36.971
18.0, -17443.39077989945, -1700.2972007152082, -187500.02235174447, -6498.747348636073, 23992.51896053779, 13176.912150014896, -42146.00231003789, 7274.062308557309, -1612.8124729171363, 43475.6628841952, 11844.859939200871, 38347.457450325186, -13858.372134968298, 3099.5164036174306, -53860.48452383096, -187500.02235174447, 0.11800000000000001, 0.936, 0.05, 192.0, 1.5, 88.0, 14.5, 32.0, 0.5, 72.0, 0.0, 0.0, 0.0, 1.741979376971779E9, 0.0, 2025-03-14 14:09:36.971
20.0, -17451.97384977029, -1711.696590387415, -187500.02235174447, -6592.088233481435, 23911.31507293166, 13121.278658065638, -42133.91001628757, 7225.268450411374, -1620.0097346317452, 43476.981637118064, 11867.524608078553, 38386.036561255045, -13865.16706528271, 3073.409566093632, -53850.60505278171, -187500.02235174447, 0.11800000000000001, 0.936, 0.05, 192.0, 0.0, 0.0, 0.0, 0.0, 0.0, 0.0, 0.0, 0.0, 0.0, 1.741979376971904E9, 0.0, 2025-03-14 14:09:36.971
22.0, -17456.533605639175, -1720.883157358546, -187500.02235174447, -6486.789165352484, 23996.743440239843, 13197.051071769129, -42142.33662394722, 7292.435442499572, -1577.8766963334915, 43445.242159991525, 11836.634497241319, 38380.40392165231, -13853.007716299024, 3062.5466182883524, -53852.54965454932, -187500.02235174447, 0.11800000000000001, 0.936, 0.05, 192.0, 0.0, 0.0, 0.0, 0.0, 0.0, 0.0, 0.0, 0.0, 0.0, 1.741979376972004E9, 0.0, 2025-03-14 14:09:36.972
24.0, -17446.900003778937, -1717.4409887124289, -187500.02235174447, -6571.770497771561, 23919.31699744666, 13143.988030432229, -42121.75066730388, 7246.167331477086, -1630.8950341814798, 43487.37519828978, 11905.58962888594, 38463.99944591516, -13865.927024594192, 3042.8994349121376, -53802.1464708026, -187500.02235174447, 0.11800000000000001, 0.936, 0.05, 192.0, 0.0, 0.0, 0.0, 0.0, 0.0, 0.0, 0.0, 0.0, 0.0, 1.741979376972111E9, 0.0, 2025-03-14 14:09:36.972
26.0, -17423.87770698997, -1709.6178781530714, -187500.02235174447, -6520.897927391283, 23977.632698730555, 13184.020004751685, -42110.79831252078, 7279.784355137868, -1604.0282373462007, 43401.320982136844, 11811.153508562269, 38390.93159329076, -13849.945527308648, 3041.0665918668024, -53855.008346439405, -187500.02235174447, 0.11800000000000001, 0.936, 0.05, 192.0, 0.0, 0.0, 0.0, 0.0, 0.0, 0.0, 0.0, 0.0, 0.0, 1.741979376972209E9, 0.0, 2025-03-14 14:09:36.972
28.0, -17441.69204732085, -1721.978392836856, -187500.02235174447, -6570.854076248894, 23928.41415743997, 13150.738257257732, -42095.57677454672, 7253.185779236052, -1621.8425776770805, 43470.72314867057, 11916.050245291024, 38491.00035321717, -13861.434323958674, 3065.3629380897214, -53785.4944211834, -187500.02235174447, 0.12, 0.9380000000000001, 0.07200000000000001, 192.0, 1.5, 96.0, 14.5, 40.0, 1.0, 32.0, 0.0, 0.0, 0.0, 1.741979376972306E9, 0.0, 2025-03-14 14:09:36.972
30.0, -17439.568631597595, -1704.499328672806, -187500.02235174447, -6523.267212303545, 23978.482065019856, 13186.590455364045, -42098.996591448384, 7282.220695283497, -1626.0670573791335, 43375.97410392453, 11816.249706298078, 38409.952927822225, -13853.700620377138, 3032.595280718241, -53823.29122105733, -187500.02235174447, 0.12, 0.9380000000000001, 0.07200000000000001, 192.0, 0.0, 0.0, 0.0, 0.0, 0.0, 0.0, 0.0, 0.0, 0.0, 1.741979377031883E9, 0.0, 2025-03-14 14:09:37.031
32.0, -17440.663867075906, -1702.5547269051942, -187500.02235174447, -6573.513933839075, 23931.25282898579, 13150.17946364635, -42082.05396915126, 7250.592976879237, -1604.0729408351112, 43450.4054129607, 11918.97832381467, 38508.09943772548, -13847.799759840938, 3047.1239146141907, -53769.02118551984, -187500.02235174447, 0.12, 0.9380000000000001, 0.07200000000000001, 192.0, 0.0, 0.0, 0.0, 0.0, 0.0, 0.0, 0.0, 0.0, 0.0, 1.741979377032004E9, 0.0, 2025-03-14 14:09:37.032
34.0, -17431.656114060417, -1700.3642559485743, -187500.02235174447, -6545.596605014397, 23975.308117307202, 13183.215341951292, -42094.74976000187, 7280.454907471527, -1612.5442519836727, 43346.022766354414, 11807.15254630477, 38419.519474449095, -13843.865852816803, 3029.734257427962, -53811.15422381809, -187500.02235174447, 0.12, 0.9380000000000001, 0.07200000000000001, 192.0, 0.0, 0.0, 0.0, 0.0, 0.0, 0.0, 0.0, 0.0, 0.0, 1.741979377032112E9, 0.0, 2025-03-14 14:09:37.032
36.0, -17431.142023937944, -1701.1912704934205, -187500.02235174447, -6600.581896374452, 23926.69307311691, 13128.677085480344, -42062.94322764197, 7230.588165591737, -1583.4199289584076, 43425.41616265967, 11933.328143754978, 38531.166438003354, -13849.54319590845, 3047.593301247752, -53733.996001958374, -187500.02235174447, 0.12, 0.9430000000000001, 0.07700000000000001, 192.0, 1.5, 96.0, 14.5, 80.0, 1.0, 72.0, 0.0, 0.0, 0.0, 1.741979377032212E9, 0.0, 2025-03-14 14:09:37.032
38.0, -17393.971072908767, -1682.1028807285884, -187500.02235174447, -6616.138710515346, 23955.191547297425, 13126.531318012634, -42074.92376267001, 7236.9807645059545, -1585.2974754926533, 43274.92186724208, 11775.748345345062, 38386.90827928881, -13840.64720161524, 3012.4563589640093, -53814.90931688659, -187500.02235174447, 0.12, 0.9430000000000001, 0.07700000000000001, 192.0, 0.0, 0.0, 0.0, 0.0, 0.0, 0.0, 0.0, 0.0, 0.0, 1.741979377032315E9, 0.0, 2025-03-14 14:09:37.032
40.0, -17441.669695576395, -1707.8967938300127, -187500.02235174447, -6613.322390713977, 23962.567622967676, 13120.384588287425, -42077.47186153792, 7238.523034873371, -1613.4159700174298, 43378.56690628135, 11929.796568131038, 38517.822446563536, -13850.45961743112, 3020.5029869679197, -53704.089367877175, -187500.02235174447, 0.12, 0.9430000000000001, 0.07700000000000001, 192.0, 0.0, 0.0, 0.0, 0.0, 0.0, 0.0, 0.0, 0.0, 0.0, 1.741979377032415E9, 0.0, 2025-03-14 14:09:37.032
42.0, -17432.147852438433, -1704.8793083285461, -187500.02235174447, -6656.975347635192, 23960.98064911135, 13092.713128651754, -42077.36010281564, 7225.156691689097, -1617.6180979750275, 43232.788828943834, 11785.247836738568, 38386.28243044406, -13840.848367315337, 2980.7615853263837, -53758.44881039248, -187500.02235174447, 0.12, 0.9430000000000001, 0.07700000000000001, 192.0, 0.0, 0.0, 0.0, 0.0, 0.0, 0.0, 0.0, 0.0, 0.0, 1.741979377032516E9, 0.0, 2025-03-14 14:09:37.032
44.0, -17431.656114060417, -1702.0406367827222, -187500.02235174447, -6624.207690263712, 23999.09037340765, 13101.609122944967, -42077.62832374911, 7243.57452912027, -1600.8989931224578, 43316.07142878431, 11918.17366101428, 38492.40851311785, -13830.566564865896, 3014.736236898451, -53660.950501078434, -187500.02235174447, 0.12, 0.9430000000000001, 0.07700000000000001, 192.0, 0.0, 0.0, 0.0, 0.0, 0.0, 0.0, 0.0, 0.0, 0.0, 1.741979377032611E9, 0.0, 2025-03-14 14:09:37.032
46.0, -17449.895137535947, -1689.9259912879459, -187500.02235174447, -6698.281371388599, 23968.51318699279, 13055.139846222382, -42061.98210263039, 7212.349142116206, -1583.4199289584076, 43184.30789522027, 11787.862990839838, 38376.470014628176, -13852.784198854471, 2989.21054473049, -53697.853231174144, -187500.02235174447, 0.11699999999999999, 0.9465000000000001, 0.08150000000000002, 192.0, 1.5, 72.0, 14.5, 88.0, 1.0, 88.0, 0.0, 0.0, 0.0, 1.74197937709098E9, 0.0, 2025-03-14 14:09:37.090
48.0, -17458.969945784804, -1679.7112440718704, -187500.02235174447, -6654.091972600458, 23998.08454490716, 13072.261282475149, -42054.27075079331, 7230.610517336192, -1588.4267197163965, 43273.42430036358, 11909.389425443343, 38480.29386762308, -13822.385826395253, 3007.3601612281996, -53616.31406740118, -187500.02235174447, 0.11699999999999999, 0.9465000000000001, 0.08150000000000002, 192.0, 0.0, 0.0, 0.0, 0.0, 0.0, 0.0, 0.0, 0.0, 0.0, 1.74197937709111E9, 0.0, 2025-03-14 14:09:37.091
50.0, -17428.102186692024, -1683.3098749291748, -187500.02235174447, -6723.985877512202, 23965.294535791225, 13032.028142455596, -42056.014186860826, 7206.761206002379, -1600.69782742236, 43157.30698791826, 11779.034051779992, 38368.40103487981, -13858.036858801468, 3003.5380129263417, -53679.03306234277, -187500.02235174447, 0.11699999999999999, 0.9465000000000001, 0.08150000000000002, 192.0, 0.0, 0.0, 0.0, 0.0, 0.0, 0.0, 0.0, 0.0, 0.0, 1.741979377091205E9, 0.0, 2025-03-14 14:09:37.091
52.0, -17454.92428003839, -1716.144587534021, -187500.02235174447, -6616.384579704354, 24052.555746144742, 13098.546933954589, -42076.51073652634, 7273.503514945926, -1600.69782742236, 43272.08319569626, 11929.505995453119, 38505.596042346486, -13847.062152273913, 3023.7216381694843, -53557.350165528085, -187500.02235174447, 0.11699999999999999, 0.9465000000000001, 0.08150000000000002, 192.0, 0.0, 0.0, 0.0, 0.0, 0.0, 0.0, 0.0, 0.0, 0.0, 1.741979377091309E9, 0.0, 2025-03-14 14:09:37.091
54.0, -17476.583120415584, -1697.1456047470099, -187500.02235174447, -6720.119025721434, 23983.84648368913, 13028.205994153739, -42052.9743496149, 7219.9040317421, -1620.9932113877787, 43171.45564215847, 11828.453758770676, 38419.00538432663, -13837.987344025058, 2967.6411113311187, -53594.252895623795, -187500.02235174447, 0.11699999999999999, 0.9465000000000001, 0.08150000000000002, 192.0, 0.0, 0.0, 0.0, 0.0, 0.0, 0.0, 0.0, 0.0, 0.0, 1.741979377091406E9, 0.0, 2025-03-14 14:09:37.091
56.0, -17452.26442244821, -1720.145549791521, -187500.02235174447, -6620.363190217399, 24067.129083529602, 13090.5897129285, -42069.87226842312, 7281.840715627756, -1576.245018988254, 43238.3544133132, 11917.458405191708, 38494.397818374375, -13823.436358384653, 2988.6741028635624, -53526.8847378355, -187500.02235174447, 0.11549999999999999, 0.95025, 0.08775000000000001, 192.0, 1.5, 72.0, 14.5, 104.0, 1.0, 120.0, 0.0, 0.0, 0.0, 1.741979377091512E9, 0.0, 2025-03-14 14:09:37.091
58.0, -17449.850434047035, -1690.9765232773452, -187500.02235174447, -6741.062610276057, 23976.202187085415, 13002.993226408153, -42041.239683775864, 7210.9186304710665, -1569.9641787963128, 43178.00470328387, 11855.007631183582, 38448.956721896735, -13850.996059298046, 2972.2008672000015, -53539.088790308095, -187500.02235174447, 0.11549999999999999, 0.95025, 0.08775000000000001, 192.0, 0.0, 0.0, 0.0, 0.0, 0.0, 0.0, 0.0, 0.0, 0.0, 1.741979377091619E9, 0.0, 2025-03-14 14:09:37.091
60.0, -17475.152608770444, -1693.211697722876, -187500.02235174447, -6641.150312560834, 24068.51489168583, 13071.233102230204, -42059.2775415513, 7279.024395826387, -1609.9738013713124, 43216.583814213736, 11899.800527072017, 38490.01687646114, -13827.660838086706, 2988.629399374652, -53505.09178699157, -187500.02235174447, 0.11549999999999999, 0.95025, 0.08775000000000001, 192.0, 0.0, 0.0, 0.0, 0.0, 0.0, 0.0, 0.0, 0.0, 0.0, 1.741979377150888E9, 0.0, 2025-03-14 14:09:37.150
62.0, -17454.968983527302, -1699.559593148183, -187500.02235174447, -6771.706851924283, 23966.725047436365, 12979.412136007802, -42035.31647149521, 7205.822432735256, -1609.437359504385, 43175.5907148827, 11866.384669111332, 38467.50866979464, -13845.341067950854, 2961.7849542838285, -53505.65058060296, -187500.02235174447, 0.11549999999999999, 0.95025, 0.08775000000000001, 192.0, 0.0, 0.0, 0.0, 0.0, 0.0, 0.0, 0.0, 0.0, 0.0, 1.741979377150994E9, 0.0, 2025-03-14 14:09:37.150
64.0, -17444.329553166575, -1707.0921310296217, -187500.02235174447, -6671.571036764507, 24056.04261827977, 13041.572337338011, -42052.147335070054, 7262.48410492946, -1568.4219084288966, 43176.39537768309, 11862.58487255393, 38462.65834124784, -13824.911573518702, 2980.694530093018, -53508.35514168205, -187500.02235174447, 0.11549999999999999, 0.95025, 0.08775000000000001, 192.0, 0.0, 0.0, 0.0, 0.0, 0.0, 0.0, 0.0, 0.0, 0.0, 1.741979377151101E9, 0.0, 2025-03-14 14:09:37.151
66.0, -17429.4656431038, -1698.9560960478898, -187500.02235174447, -6758.273453506644, 23985.053477889716, 12985.894141899842, -42044.79361114426, 7225.246098666918, -1602.5753739566057, 43191.41574995706, 11890.032814745047, 38491.62620206192, -13844.111722005811, 2973.5643236117753, -53471.05008018614, -187500.02235174447, 0.11474999999999999, 0.9501250000000001, 0.09487500000000001, 192.0, 1.5, 72.0, 14.5, 88.0, 1.5, 24.0, 0.0, 0.0, 0.0, 1.741979377151197E9, 0.0, 2025-03-14 14:09:37.151
68.0, -17433.757178039217, -1697.0338460247335, -187500.02235174447, -6659.41168778082, 24071.04063880928, 13046.19914844026, -42051.70030018095, 7286.176954052085, -1566.6114171280167, 43183.95026730899, 11873.626634314853, 38480.3832746009, -13835.483948646064, 2987.8470883187165, -53464.568074294104, -187500.02235174447, 0.11474999999999999, 0.9501250000000001, 0.09487500000000001, 192.0, 0.0, 0.0, 0.0, 0.0, 0.0, 0.0, 0.0, 0.0, 0.0, 1.741979377151306E9, 0.0, 2025-03-14 14:09:37.151
70.0, -17426.381102368963, -1700.5654216486719, -187500.02235174447, -6777.29478803811, 23969.69782944892, 12960.815484620987, -42032.298985993744, 7215.456034595494, -1582.6599696469273, 43211.08528507773, 11909.635294632351, 38519.32001344204, -13851.666611631706, 2967.0599659752806, -53436.33782104705, -187500.02235174447, 0.11474999999999999, 0.9501250000000001, 0.09487500000000001, 192.0, 0.0, 0.0, 0.0, 0.0, 0.0, 0.0, 0.0, 0.0, 0.0, 1.741979377151402E9, 0.0, 2025-03-14 14:09:37.151
72.0, -17455.79599807215, -1710.3778374645517, -187500.02235174447, -6664.664347727818, 24070.705362642453, 13049.753075808654, -42057.84702990616, 7299.006855369432, -1566.0973270055447, 43172.70733984796, 11855.67818351724, 38479.04216993358, -13847.30802146292, 2974.011358500881, -53456.05205965663, -187500.02235174447, 0.11474999999999999, 0.9501250000000001, 0.09487500000000001, 192.0, 0.0, 0.0, 0.0, 0.0, 0.0, 0.0, 0.0, 0.0, 0.0, 1.741979377151501E9, 0.0, 2025-03-14 14:09:37.151
74.0, -17447.391742156953, -1721.307840503197, -187500.02235174447, -6740.57087189804, 23993.88241694956, 12996.24299958265, -42042.06669832071, 7255.465657170494, -1582.3246934800975, 43248.92678844056, 11949.644917207352, 38572.24894431221, -13859.377963468787, 2962.723727550951, -53382.87244830996, -187500.02235174447, 0.11474999999999999, 0.9501250000000001, 0.09487500000000001, 192.0, 0.0, 0.0, 0.0, 0.0, 0.0, 0.0, 0.0, 0.0, 0.0, 1.741979377151599E9, 0.0, 2025-03-14 14:09:37.151
76.0, -17439.74744555324, -1715.630497411549, -187500.02235174447, -6694.123946919912, 24045.224373963403, 13028.608325553934, -42054.51661998232, 7279.9184656046, -1584.0457778031562, 43168.59461886819, 11842.423599055242, 38481.76908275713, -13838.523785891985, 2959.2592071603785, -53439.42236178188, -187500.02235174447, 0.119375, 0.9540625, 0.10343750000000002, 192.0, 1.5, 112.0, 14.5, 120.0, 1.5, 64.0, 0.0, 0.0, 0.0, 1.741979377211261E9, 0.0, 2025-03-14 14:09:37.211
78.0, -17438.428692630376, -1707.986200807834, -187500.02235174447, -6764.978976843236, 23974.905785907005, 12968.593891691435, -42030.04145980376, 7225.871947511667, -1559.6823763468715, 43255.52055305488, 11938.491396724154, 38576.71929320327, -13860.98728906957, 2965.964730496971, -53378.46915465226, -187500.02235174447, 0.119375, 0.9540625, 0.10343750000000002, 192.0, 0.0, 0.0, 0.0, 0.0, 0.0, 0.0, 0.0, 0.0, 0.0, 1.741979377211381E9, 0.0, 2025-03-14 14:09:37.211
80.0, -17460.06518126311, -1716.4128084674846, -187500.02235174447, -6730.244365959688, 24011.763812513807, 12992.845534425442, -42041.61966343161, 7246.837883810746, -1551.8145622986035, 43151.71905180443, 11798.658883411752, 38457.71860572322, -13862.41780071471, 2965.7188613079625, -53466.62443478399, -187500.02235174447, 0.119375, 0.9540625, 0.10343750000000002, 192.0, 0.0, 0.0, 0.0, 0.0, 0.0, 0.0, 0.0, 0.0, 0.0, 1.741979377211478E9, 0.0, 2025-03-14 14:09:37.211
82.0, -17464.826102832092, -1730.4497039854175, -187500.02235174447, -6743.789523099605, 23979.622003987075, 12981.580255219968, -42036.05407906223, 7230.744627802924, -1583.6210946585054, 43274.83246026426, 11938.647858935341, 38589.59389800953, -13854.50528317753, 2971.0609282327805, -53380.92784654234, -187500.02235174447, 0.119375, 0.9540625, 0.10343750000000002, 192.0, 0.0, 0.0, 0.0, 0.0, 0.0, 0.0, 0.0, 0.0, 0.0, 1.741979377211577E9, 0.0, 2025-03-14 14:09:37.211
84.0, -17456.287736450166, -1730.0026690963114, -187500.02235174447, -6716.1851186973, 24005.75119325533, 13010.324598589492, -42047.252303034344, 7251.57645363527, -1577.7202341223044, 43179.725787606934, 11804.649150925774, 38484.92067872533, -13862.41780071471, 2968.7139950649735, -53450.173550864885, -187500.02235174447, 0.119375, 0.9540625, 0.10343750000000002, 192.0, 0.0, 0.0, 0.0, 0.0, 0.0, 0.0, 0.0, 0.0, 0.0, 1.741979377211676E9, 0.0, 2025-03-14 14:09:37.211
86.0, -17467.396553444454, -1733.2213202978755, -187500.02235174447, -6685.339711348976, 24005.2147513884, 13031.089369188472, -42047.967558856915, 7267.423840454083, -1591.7124261513266, 43320.0723910418, 11964.08414412548, 38639.50534337823, -13881.617949201816, 2989.277599963856, -53346.32734612553, -187500.02235174447, 0.1236875, 0.95803125, 0.10471875, 192.0, 2.0, 0.0, 15.0, 8.0, 1.5, 40.0, 0.0, 0.0, 0.0, 1.741979377211776E9, 0.0, 2025-03-14 14:09:37.211
88.0, -17450.476282891785, -1729.7791516517582, -187500.02235174447, -6704.383397624898, 24003.024280431782, 13025.121453418906, -42046.760564656324, 7257.030279282365, -1578.9048765784355, 43215.801503157796, 11827.850261670383, 38527.7913245906, -13857.858044845825, 2952.0619454457697, -53410.72272190127, -187500.02235174447, 0.1236875, 0.95803125, 0.10471875, 192.0, 0.0, 0.0, 0.0, 0.0, 0.0, 0.0, 0.0, 0.0, 0.0, 1.741979377211878E9, 0.0, 2025-03-14 14:09:37.211
90.0, -17444.82129154459, -1732.4837127308504, -187500.02235174447, -6695.554458565052, 23993.92712043847, 13023.467424329214, -42037.50694245183, 7244.870930298678, -1555.8378763005587, 43330.309490002335, 11957.803303933539, 38642.83575330207, -13871.000870585547, 2978.347596925211, -53347.064953692556, -187500.02235174447, 0.1236875, 0.95803125, 0.10471875, 192.0, 0.0, 0.0, 0.0, 0.0, 0.0, 0.0, 0.0, 0.0, 0.0, 1.741979377271454E9, 0.0, 2025-03-14 14:09:37.271
92.0, -17436.618201329497, -1731.8578638861018, -187500.02235174447, -6731.160787482356, 23977.185663841447, 13008.223534610694, -42035.33882323967, 7227.749494045913, -1529.6192800544836, 43227.893796908116, 11825.190404080202, 38535.83795259451, -13888.949321383157, 2959.3933176271103, -53418.501128971715, -187500.02235174447, 0.1236875, 0.95803125, 0.10471875, 192.0, 0.0, 0.0, 0.0, 0.0, 0.0, 0.0, 0.0, 0.0, 0.0, 1.741979377271565E9, 0.0, 2025-03-14 14:09:37.271
94.0, -17476.963100071323, -1723.3865527375403, -187500.02235174447, -6684.84797297096, 23998.062193162703, 13027.691904031266, -42037.23872151837, 7233.158616204098, -1570.9476555523463, 43357.153935093156, 11961.446638279753, 38670.21664025982, -13846.324544706888, 2991.2892569648334, -53342.594604801496, -187500.02235174447, 0.1236875, 0.95803125, 0.10471875, 192.0, 0.0, 0.0, 0.0, 0.0, 0.0, 0.0, 0.0, 0.0, 0.0, 1.741979377271664E9, 0.0, 2025-03-14 14:09:37.271
96.0, -17449.917489280404, -1730.0920760741326, -187500.02235174447, -6725.058761246057, 23969.407256771, 13013.453842813236, -42033.349517983144, 7217.601802063204, -1560.6882048473603, 43256.973416444474, 11827.425578525732, 38561.72127267376, -13866.642280416761, 2970.0998032212024, -53416.78004464866, -187500.02235174447, 0.12784375, 0.960015625, 0.10835937500000001, 192.0, 2.0, 16.0, 15.0, 8.0, 1.5, 64.0, 0.0, 0.0, 0.0, 1.74197937727176E9, 0.0, 2025-03-14 14:09:37.271
98.0, -17474.41500120342, -1722.045448070222, -187500.02235174447, -6628.231004265667, 24026.60537083213, 13077.133962766406, -42047.45346873444, 7267.20032300953, -1539.0740679590783, 43393.363761110755, 11975.930568686792, 38701.88906215299, -13859.020335557501, 2991.535126153842, -53319.21468010124, -187500.02235174447, 0.12784375, 0.960015625, 0.10835937500000001, 192.0, 0.0, 0.0, 0.0, 0.0, 0.0, 0.0, 0.0, 0.0, 0.0, 1.741979377271864E9, 0.0, 2025-03-14 14:09:37.271
100.0, -17449.15752996892, -1731.0979045746215, -187500.02235174447, -6711.357141894954, 23958.097274076616, 13025.590840052468, -42036.41170697352, 7217.445339852016, -1578.7931178561591, 43306.61664087971, 11868.48573309013, 38618.293537890146, -13885.03776610348, 2959.4827246049317, -53371.450706893294, -187500.02235174447, 0.12784375, 0.960015625, 0.10835937500000001, 192.0, 0.0, 0.0, 0.0, 0.0, 0.0, 0.0, 0.0, 0.0, 0.0, 1.741979377271968E9, 0.0, 2025-03-14 14:09:37.271
102.0, -17431.83492801606, -1730.9861458523449, -187500.02235174447, -6638.803379393027, 24001.906693209017, 13059.900767791363, -42035.383526728576, 7237.181930206053, -1548.9088355194135, 43392.76026401047, 11955.299908554543, 38697.485768495295, -13859.757943124527, 2993.882059321649, -53330.837587218004, -187500.02235174447, 0.12784375, 0.960015625, 0.10835937500000001, 192.0, 0.0, 0.0, 0.0, 0.0, 0.0, 0.0, 0.0, 0.0, 0.0, 1.741979377272067E9, 0.0, 2025-03-14 14:09:37.272
104.0, -17452.51029163722, -1720.212605024887, -187500.02235174447, -6712.653543073362, 23939.321808734156, 13019.488813816168, -42035.74115463986, 7202.223801877953, -1528.0323061981567, 43318.351306718745, 11860.953195208693, 38621.82511351408, -13869.279786262488, 2988.8305650747498, -53390.15911700238, -187500.02235174447, 0.12784375, 0.960015625, 0.10835937500000001, 192.0, 0.0, 0.0, 0.0, 0.0, 0.0, 0.0, 0.0, 0.0, 0.0, 1.741979377272166E9, 0.0, 2025-03-14 14:09:37.272
106.0, -17455.55012888314, -1728.5721574511717, -187500.02235174447, -6591.820012547972, 24022.537353341264, 13096.915256609353, -42055.14246882707, 7265.412183453105, -1560.4199839138967, 43412.56390959787, 11961.60310049094, 38720.99980366228, -13855.913443078214, 2994.977294799959, -53314.632572487906, -187500.02235174447, 0.13192187500000002, 0.9600078125, 0.11217968750000001, 192.0, 2.0, 32.0, 15.0, 0.0, 1.5, 80.0, 0.0, 0.0, 0.0, 1.741979377331826E9, 0.0, 2025-03-14 14:09:37.331
108.0, -17463.1720737424, -1739.8597884011017, -187500.02235174447, -6669.827600696994, 23949.6036111836, 13059.29727069107, -42050.426250747, 7228.911784757589, -1565.8738095609915, 43371.68256898911, 11906.64016087534, 38682.3312857546, -13876.253530532544, 2967.5517043532973, -53334.50327330867, -187500.02235174447, 0.13192187500000002, 0.9600078125, 0.11217968750000001, 192.0, 0.0, 0.0, 0.0, 0.0, 0.0, 0.0, 0.0, 0.0, 0.0, 1.741979377331937E9, 0.0, 2025-03-14 14:09:37.331
110.0, -17475.823161104105, -1736.4399714994397, -187500.02235174447, -6536.320631065444, 24039.859955294127, 13151.766437502676, -42064.686663709486, 7305.578268239292, -1546.606605840517, 43436.726145354056, 11973.427173307799, 38749.498277842795, -13876.924082866202, 2999.246477990923, -53274.53354293508, -187500.02235174447, 0.13192187500000002, 0.9600078125, 0.11217968750000001, 192.0, 0.0, 0.0, 0.0, 0.0, 0.0, 0.0, 0.0, 0.0, 0.0, 1.741979377332032E9, 0.0, 2025-03-14 14:09:37.332
112.0, -17470.235224990276, -1738.7422011783365, -187500.02235174447, -6636.50114971413, 23956.800872898206, 13094.21069553026, -42043.45250647694, 7257.8796455716665, -1579.4413184453629, 43414.24029043201, 11950.561338730018, 38741.250484138785, -13894.447850519164, 2966.0317857303367, -53274.60059816845, -187500.02235174447, 0.13192187500000002, 0.9600078125, 0.11217968750000001, 192.0, 0.0, 0.0, 0.0, 0.0, 0.0, 0.0, 0.0, 0.0, 0.0, 1.741979377332134E9, 0.0, 2025-03-14 14:09:37.332
114.0, -17446.631782845474, -1739.077477345166, -187500.02235174447, -6540.276889834034, 24039.301161682746, 13163.523455086168, -42051.43207924749, 7314.8765939326995, -1528.6581550429053, 43418.10714222278, 11943.922870626793, 38738.90355097098, -13858.50624543503, 2983.3320359387444, -53275.78524062458, -187500.02235174447, 0.13192187500000002, 0.9600078125, 0.11217968750000001, 192.0, 0.0, 0.0, 0.0, 0.0, 0.0, 0.0, 0.0, 0.0, 0.0, 1.741979377332237E9, 0.0, 2025-03-14 14:09:37.332
116.0, -17452.46558814831, -1731.0979045746215, -187500.02235174447, -6651.655632454829, 23937.84659360011, 13088.086317549505, -42029.48266619237, 7248.782485578357, -1560.956425780824, 43428.679517350145, 11958.518559756109, 38759.02012098076, -13874.465390976118, 2975.955960268493, -53263.60353989644, -187500.02235174447, 0.13296093750000001, 0.95900390625, 0.11508984375, 192.0, 2.0, 24.0, 14.5, 120.0, 1.5, 88.0, 0.0, 0.0, 0.0, 1.741979377332331E9, 0.0, 2025-03-14 14:09:37.332
118.0, -17472.917434324914, -1748.3534512941185, -187500.02235174447, -6544.300203835989, 24029.51109761132, 13172.866484268485, -42055.030710104795, 7321.313896335829, -1546.986585496257, 43394.81662450035, 11903.712082351694, 38712.84141693609, -13856.271070989498, 2991.624533131663, -53305.49070900568, -187500.02235174447, 0.13296093750000001, 0.95900390625, 0.11508984375, 192.0, 0.0, 0.0, 0.0, 0.0, 0.0, 0.0, 0.0, 0.0, 0.0, 1.741979377332434E9, 0.0, 2025-03-14 14:09:37.332
120.0, -17471.464570935317, -1742.0726111021772, -187500.02235174447, -6613.501204669619, 23956.3538380091, 13137.50602454019, -42036.09878255115, 7289.261494786918, -1578.9495800673462, 43466.78924164644, 11994.594275306974, 38803.2095197689, -13885.261283548032, 2988.025902274359, -53226.14201618934, -187500.02235174447, 0.13296093750000001, 0.95900390625, 0.11508984375, 192.0, 0.0, 0.0, 0.0, 0.0, 0.0, 0.0, 0.0, 0.0, 0.0, 1.741979377392044E9, 0.0, 2025-03-14 14:09:37.392
122.0, -17466.547187155153, -1750.9909571398446, -187500.02235174447, -6517.299296533978, 24038.4741471379, 13216.005351067228, -42053.22021880391, 7359.155399698663, -1543.566768594595, 43413.703848565085, 11923.046341305535, 38739.86467598256, -13866.441114716663, 2996.0948820227245, -53256.83096132648, -187500.02235174447, 0.13296093750000001, 0.95900390625, 0.11508984375, 192.0, 0.0, 0.0, 0.0, 0.0, 0.0, 0.0, 0.0, 0.0, 0.0, 1.741979377392158E9, 0.0, 2025-03-14 14:09:37.392
124.0, -17441.15560545392, -1741.9385006354453, -187500.02235174447, -6611.377788946365, 23942.518108191267, 13145.865576966475, -42027.91804408051, 7291.049634343342, -1548.6406145859498, 43478.25568655202, 12003.311455644543, 38815.34651700813, -13896.392452286775, 2978.7946318143167, -53204.55023104551, -187500.02235174447, 0.13296093750000001, 0.95900390625, 0.11508984375, 192.0, 0.0, 0.0, 0.0, 0.0, 0.0, 0.0, 0.0, 0.0, 0.0, 1.741979377392255E9, 0.0, 2025-03-14 14:09:37.392
126.0, -17444.50836712222, -1754.9695676528893, -187500.02235174447, -6549.642270760807, 24004.097164165636, 13201.633179382467, -42043.38545124358, 7339.485864577993, -1541.376297637975, 43384.78069123992, 11878.789887284029, 38705.4876930103, -13878.600463700352, 2984.4496231615094, -53283.0272058281, -187500.02235174447, 0.13648046875000003, 0.960501953125, 0.117544921875, 192.0, 2.0, 48.0, 15.0, 8.0, 1.5, 96.0, 0.0, 0.0, 0.0, 1.741979377392355E9, 0.0, 2025-03-14 14:09:37.392
128.0, -17474.28089073669, -1727.432218483951, -187500.02235174447, -6600.78306207455, 23941.087596546127, 13167.41265862139, -42031.09199179316, 7307.388759540172, -1575.2615422322206, 43491.51027101401, 12012.1850981933, 38826.85766540261, -13896.303045308954, 2992.7868238433393, -53193.70963498469, -187500.02235174447, 0.13648046875000003, 0.960501953125, 0.117544921875, 192.0, 0.0, 0.0, 0.0, 0.0, 0.0, 0.0, 0.0, 0.0, 0.0, 1.741979377392455E9, 0.0, 2025-03-14 14:09:37.392
130.0, -17434.53948909515, -1717.3292299901523, -187500.02235174447, -6588.467250879676, 23962.969954367873, 13180.980167505762, -42032.50015169384, 7314.608372999236, -1552.5521698656287, 43370.922609677626, 11860.148532408302, 38691.80842540365, -13874.487742720574, 2982.1250417381575, -53296.05827284554, -187500.02235174447, 0.13648046875000003, 0.960501953125, 0.117544921875, 192.0, 0.0, 0.0, 0.0, 0.0, 0.0, 0.0, 0.0, 0.0, 0.0, 1.741979377392552E9, 0.0, 2025-03-14 14:09:37.392
132.0, -17443.122558965988, -1716.3234014896634, -187500.02235174447, -6606.6168673773855, 23936.371378466058, 13168.843170266531, -42037.43988721847, 7305.6006199837475, -1543.3208994055867, 43479.8650121528, 11983.37369959041, 38806.137598292546, -13875.404164243242, 2996.474861678465, -53229.09244645744, -187500.02235174447, 0.13648046875000003, 0.960501953125, 0.117544921875, 192.0, 0.0, 0.0, 0.0, 0.0, 0.0, 0.0, 0.0, 0.0, 0.0, 1.741979377392648E9, 0.0, 2025-03-14 14:09:37.392
134.0, -17440.440349631353, -1726.6052039391047, -187500.02235174447, -6598.950219029215, 23950.96706759537, 13183.774135562675, -42041.239683775864, 7318.005838156443, -1548.148876207933, 43377.494022547486, 11851.386648581822, 38698.402190017965, -13880.299196278955, 2975.1289457236467, -53295.47712748971, -187500.02235174447, 0.13648046875000003, 0.960501953125, 0.117544921875, 192.0, 0.0, 0.0, 0.0, 0.0, 0.0, 0.0, 0.0, 0.0, 0.0, 1.741979377392752E9, 0.0, 2025-03-14 14:09:37.392
136.0, -17455.617184116505, -1726.3593347500962, -187500.02235174447, -6571.882256493838, 23952.84461412962, 13202.66135962741, -42047.58757920117, 7337.518911065926, -1535.2295679127656, 43501.5685560189, 12002.752662033161, 38834.88194166207, -13888.74815568306, 2999.0229605463696, -53205.28783861254, -187500.02235174447, 0.13624023437500002, 0.9612509765624999, 0.11977246093749999, 192.0, 2.0, 32.0, 15.0, 8.0, 1.5, 104.0, 0.0, 0.0, 0.0, 1.741979377451418E9, 0.0, 2025-03-14 14:09:37.451
138.0, -17440.909736264915, -1715.5187386892724, -187500.02235174447, -6603.241753964634, 23937.35485522209, 13191.686653099854, -42043.765430899315, 7327.505329549948, -1554.7873443111594, 43382.25494411647, 11858.986241696626, 38715.1883501039, -13885.887132392781, 2984.159050483591, -53282.40135698335, -187500.02235174447, 0.13624023437500002, 0.9612509765624999, 0.11977246093749999, 192.0, 0.0, 0.0, 0.0, 0.0, 0.0, 0.0, 0.0, 0.0, 0.0, 1.741979377451548E9, 0.0, 2025-03-14 14:09:37.451
140.0, -17438.138119952455, -1729.2650615292862, -187500.02235174447, -6551.609224272875, 23962.657029945498, 13224.47666221579, -42053.01905310382, 7356.4955421084815, -1573.2051817423323, 43514.934899203174, 12006.619513823929, 38850.818735458706, -13884.344862025364, 3036.976222631481, -53194.514297785085, -187500.02235174447, 0.13624023437500002, 0.9612509765624999, 0.11977246093749999, 192.0, 0.0, 0.0, 0.0, 0.0, 0.0, 0.0, 0.0, 0.0, 0.0, 1.741979377451654E9, 0.0, 2025-03-14 14:09:37.451
142.0, -17422.715416278294, -1703.6052588945936, -187500.02235174447, -6626.8675478538935, 23912.231494454325, 13182.522437873178, -42027.18043651348, 7311.121500864208, -1546.1372192069555, 43401.07511294784, 11857.82395098495, 38727.481809554316, -13882.623777702305, 2987.467108662976, -53274.69000514627, -187500.02235174447, 0.13624023437500002, 0.9612509765624999, 0.11977246093749999, 192.0, 0.0, 0.0, 0.0, 0.0, 0.0, 0.0, 0.0, 0.0, 0.0, 1.741979377451759E9, 0.0, 2025-03-14 14:09:37.451
144.0, -17436.282925162664, -1717.9103753459901, -187500.02235174447, -6556.0795731639355, 23946.78729138223, 13230.489281474267, -42043.54191345476, 7345.140855925186, -1543.700879061327, 43506.620050265796, 11979.998586177659, 38833.183209083465, -13867.446943217152, 3017.731370655462, -53216.35195211792, -187500.02235174447, 0.13624023437500002, 0.9612509765624999, 0.11977246093749999, 192.0, 0.0, 0.0, 0.0, 0.0, 0.0, 0.0, 0.0, 0.0, 0.0, 1.741979377451866E9, 0.0, 2025-03-14 14:09:37.451
146.0, -17433.891288505947, -1716.9045468455015, -187500.02235174447, -6602.839422564438, 23912.007977009773, 13214.373673721992, -42034.48945695037, 7328.511158050437, -1539.2528819147208, 43403.511453093466, 11853.152436393792, 38726.654795009475, -13888.055251604945, 3005.4155594605877, -53286.73759540768, -187500.02235174447, 0.1341201171875, 0.9656254882812499, 0.11788623046874999, 192.0, 2.0, 16.0, 15.0, 40.0, 1.5, 80.0, 0.0, 0.0, 0.0, 1.741979377451969E9, 0.0, 2025-03-14 14:09:37.451
148.0, -17462.188596986365, -1729.175654551465, -187500.02235174447, -6503.418863227233, 23978.236195830847, 13289.475535091822, -42060.93157064099, 7388.145612257196, -1529.865149243492, 43538.24776867006, 12000.942170732282, 38861.771090241804, -13893.687891207683, 3025.509777725909, -53183.42783253525, -187500.02235174447, 0.1341201171875, 0.9656254882812499, 0.11788623046874999, 192.0, 0.0, 0.0, 0.0, 0.0, 0.0, 0.0, 0.0, 0.0, 0.0, 1.741979377452071E9, 0.0, 2025-03-14 14:09:37.452
150.0, -17445.804768300626, -1721.3301922476521, -187500.02235174447, -6566.450782591198, 23923.78734633772, 13260.57472951111, -42045.46416347792, 7364.676280579124, -1553.0662599881007, 43448.0584797929, 11890.569256611974, 38773.258182198784, -13894.447850519164, 2990.752815097906, -53238.770751806594, -187500.02235174447, 0.1341201171875, 0.9656254882812499, 0.11788623046874999, 192.0, 0.0, 0.0, 0.0, 0.0, 0.0, 0.0, 0.0, 0.0, 0.0, 1.741979377511121E9, 0.0, 2025-03-14 14:09:37.511
152.0, -17431.63376231596, -1718.9609073353897, -187500.02235174447, -6495.2828282455, 23967.574413725666, 13302.037215475704, -42043.02782333229, 7393.308865226372, -1541.8233325270812, 43537.867789014315, 11991.80030725006, 38864.81092748773, -13886.93766438218, 3014.445664220532, -53170.68733819573, -187500.02235174447, 0.1341201171875, 0.9656254882812499, 0.11788623046874999, 192.0, 0.0, 0.0, 0.0, 0.0, 0.0, 0.0, 0.0, 0.0, 0.0, 1.741979377511235E9, 0.0, 2025-03-14 14:09:37.511
154.0, -17461.49569290825, -1722.9618695928896, -187500.02235174447, -6592.468213137176, 23889.92445348793, 13250.76231369523, -42034.198884272446, 7343.509178579949, -1539.2081784258103, 43450.204247260604, 11886.59064609893, 38769.212516452375, -13884.255455047543, 3007.650733906118, -53240.89416752985, -187500.02235174447, 0.1341201171875, 0.9656254882812499, 0.11788623046874999, 192.0, 0.0, 0.0, 0.0, 0.0, 0.0, 0.0, 0.0, 0.0, 0.0, 1.741979377511339E9, 0.0, 2025-03-14 14:09:37.511
156.0, -17451.348000925544, -1716.1222357895656, -187500.02235174447, -6486.90092407476, 23971.73183819435, 13326.02063727625, -42053.5778467152, 7404.171813031651, -1535.7436580352376, 43521.46160858412, 11963.435943536275, 38839.128773108576, -13882.333205024386, 3023.051085835825, -53189.70867272719, -187500.02235174447, 0.13506005859375, 0.967812744140625, 0.117943115234375, 192.0, 2.0, 32.0, 15.0, 40.0, 1.5, 88.0, 0.0, 0.0, 0.0, 1.741979377511445E9, 0.0, 2025-03-14 14:09:37.511
158.0, -17438.383989141465, -1705.7733781067584, -187500.02235174447, -6600.648951607818, 23878.145084159984, 13254.517406763722, -42029.46031444792, 7340.35758261175, -1532.770876022682, 43475.48407023955, 11908.45065217622, 38799.09679878912, -13879.852161389848, 2999.3135332242887, -53221.67166729828, -187500.02235174447, 0.13506005859375, 0.967812744140625, 0.117943115234375, 192.0, 0.0, 0.0, 0.0, 0.0, 0.0, 0.0, 0.0, 0.0, 0.0, 1.74197937751155E9, 0.0, 2025-03-14 14:09:37.511
160.0, -17449.090474735556, -1724.2135672823867, -187500.02235174447, -6483.503458917554, 23972.78237018375, 13342.091541539616, -42049.219256546414, 7411.480833468537, -1542.9409197498464, 43504.00489616453, 11933.26108852161, 38823.23668280085, -13875.292405520966, 3015.9432310990373, -53209.98170494816, -187500.02235174447, 0.13506005859375, 0.967812744140625, 0.117943115234375, 192.0, 0.0, 0.0, 0.0, 0.0, 0.0, 0.0, 0.0, 0.0, 0.0, 1.741979377511641E9, 0.0, 2025-03-14 14:09:37.511
162.0, -17435.63472457346, -1710.2213752533646, -187500.02235174447, -6588.847230535416, 23880.29085162769, 13277.33853785259, -42040.50207620884, 7350.058239705353, -1524.0983991740227, 43502.932012430676, 11930.98121058717, 38826.23181655786, -13882.444963746664, 3002.1969082590235, -53206.78540549105, -187500.02235174447, 0.13506005859375, 0.967812744140625, 0.117943115234375, 192.0, 0.0, 0.0, 0.0, 0.0, 0.0, 0.0, 0.0, 0.0, 0.0, 1.741979377511743E9, 0.0, 2025-03-14 14:09:37.511
164.0, -17444.530718866674, -1704.499328672806, -187500.02235174447, -6470.070060499914, 23970.189567826936, 13361.761076660285, -42056.08124209419, 7422.544946973914, -1529.2616521431987, 43507.55882353292, 11922.800472116527, 38820.10743857711, -13880.612120701328, 3025.4203707480874, -53207.07597816896, -187500.02235174447, 0.13506005859375, 0.967812744140625, 0.117943115234375, 192.0, 0.0, 0.0, 0.0, 0.0, 0.0, 0.0, 0.0, 0.0, 0.0, 1.741979377511843E9, 0.0, 2025-03-14 14:09:37.511
166.0, -17440.17212869789, -1727.5886806951382, -187500.02235174447, -6567.188390158223, 23872.19952013487, 13299.869096263541, -42042.62549193209, 7361.345870655284, -1561.6940333478492, 43532.14574243376, 11958.98794638967, 38857.50190705084, -13896.571266242418, 3002.7109983814953, -53175.73883244263, -187500.02235174447, 0.13353002929687502, 0.9679063720703125, 0.1159715576171875, 192.0, 2.0, 16.0, 15.0, 32.0, 1.5, 72.0, 0.0, 0.0, 0.0, 1.741979377572818E9, 0.0, 2025-03-14 14:09:37.572
168.0, -17444.351904911033, -1741.044430857233, -187500.02235174447, -6498.121499791325, 23940.17117502346, 13352.418047477968, -42059.23283806239, 7400.081443796331, -1498.7068174727938, 43477.406320262715, 11881.49444836312, 38784.63522012654, -13863.31187049292, 3010.467053707487, -53234.90390001582, -187500.02235174447, 0.13353002929687502, 0.9679063720703125, 0.1159715576171875, 192.0, 0.0, 0.0, 0.0, 0.0, 0.0, 0.0, 0.0, 0.0, 0.0, 1.74197937757294E9, 0.0, 2025-03-14 14:09:37.572
170.0, -17467.061277277622, -1719.3408869911298, -187500.02235174447, -6573.782154772539, 23864.957554931352, 13309.368587657045, -42046.492343722864, 7357.814295031345, -1553.4015361549302, 43548.19429495267, 11969.783838961583, 38867.31432286672, -13897.688853465183, 2996.474861678465, -53171.49200099611, -187500.02235174447, 0.13353002929687502, 0.9679063720703125, 0.1159715576171875, 192.0, 0.0, 0.0, 0.0, 0.0, 0.0, 0.0, 0.0, 0.0, 0.0, 1.741979377573038E9, 0.0, 2025-03-14 14:09:37.573
172.0, -17457.271213206197, -1724.9288231049566, -187500.02235174447, -6517.656924445263, 23927.20716323938, 13356.329602757645, -42055.81302116073, 7393.219458248551, -1526.4006288529192, 43472.3101225269, 11860.975546953148, 38771.96178102038, -13875.605329943339, 3015.093864809736, -53246.68326934377, -187500.02235174447, 0.13353002929687502, 0.9679063720703125, 0.1159715576171875, 192.0, 0.0, 0.0, 0.0, 0.0, 0.0, 0.0, 0.0, 0.0, 0.0, 1.741979377573135E9, 0.0, 2025-03-14 14:09:37.573
174.0, -17449.22458520229, -1709.5508229197053, -187500.02235174447, -6580.912361253782, 23862.454159552355, 13315.403558659978, -42047.65463443454, 7354.260367662951, -1516.834082226048, 43555.19039096718, 11960.709030712727, 38869.393035101064, -13900.505173266552, 3011.2940682523335, -53181.14795460081, -187500.02235174447, 0.13353002929687502, 0.9679063720703125, 0.1159715576171875, 192.0, 0.0, 0.0, 0.0, 0.0, 0.0, 0.0, 0.0, 0.0, 0.0, 1.741979377573235E9, 0.0, 2025-03-14 14:09:37.573
176.0, -17447.347038668042, -1712.4118462099848, -187500.02235174447, -6536.141817109802, 23915.65131135599, 13357.827169636152, -42049.06279433522, 7386.424527934138, -1536.3024516466203, 43464.59877068982, 11842.267136844057, 38768.00552225179, -13886.98236787109, 3021.240594534945, -53252.38296417987, -187500.02235174447, 0.13476501464843751, 0.9689531860351562, 0.11398577880859376, 192.0, 2.0, 32.0, 15.0, 40.0, 1.5, 64.0, 0.0, 0.0, 0.0, 1.741979377573335E9, 0.0, 2025-03-14 14:09:37.573
178.0, -17446.184747956366, -1713.4400264549288, -187500.02235174447, -6593.406986404299, 23850.33951405758, 13306.619323089042, -42033.908311594525, 7333.629707530703, -1533.7543527787154, 43550.76474556503, 11951.008373619125, 38864.78857574327, -13885.194228314665, 3034.2940132968442, -53202.71738800018, -187500.02235174447, 0.13476501464843751, 0.9689531860351562, 0.11398577880859376, 192.0, 0.0, 0.0, 0.0, 0.0, 0.0, 0.0, 0.0, 0.0, 0.0, 1.741979377573447E9, 0.0, 2025-03-14 14:09:37.573
180.0, -17433.17603268338, -1725.8228928831688, -187500.02235174447, -6540.500407278587, 23905.660081584465, 13359.950585359406, -42053.46608799292, 7378.98139703052, -1520.7903409946373, 43453.31113973989, 11819.758930177562, 38750.74997553229, -13867.379887983787, 3031.9694318734923, -53290.582095453996, -187500.02235174447, 0.13476501464843751, 0.9689531860351562, 0.11398577880859376, 192.0, 0.0, 0.0, 0.0, 0.0, 0.0, 0.0, 0.0, 0.0, 0.0, 1.741979377631854E9, 0.0, 2025-03-14 14:09:37.631
182.0, -17463.909681309426, -1699.5372414037279, -187500.02235174447, -6549.329346338433, 23872.87007246853, 13346.07015205266, -42040.7255936534, 7363.335175911806, -1517.1693583928775, 43588.561545438955, 11977.204618120744, 38894.67285808001, -13879.002795100547, 3035.724524941984, -53197.82235596447, -187500.02235174447, 0.13476501464843751, 0.9689531860351562, 0.11398577880859376, 192.0, 0.0, 0.0, 0.0, 0.0, 0.0, 0.0, 0.0, 0.0, 0.0, 1.741979377631951E9, 0.0, 2025-03-14 14:09:37.631
184.0, -17455.326611438588, -1705.7733781067584, -187500.02235174447, -6533.973697897637, 23890.14797093248, 13374.4568675109, -42056.57298047221, 7384.301112210884, -1520.2315473832546, 43477.607485962806, 11825.883308158316, 38769.81601355267, -13892.883228407292, 3012.5457659418307, -53294.8289269005, -187500.02235174447, 0.13476501464843751, 0.9689531860351562, 0.11398577880859376, 192.0, 0.0, 0.0, 0.0, 0.0, 0.0, 0.0, 0.0, 0.0, 0.0, 1.741979377632057E9, 0.0, 2025-03-14 14:09:37.632
186.0, -17457.248861461743, -1704.8122530951803, -187500.02235174447, -6496.690988146185, 23890.81852326614, 13402.329492846668, -42050.24743679135, 7401.199031019096, -1546.0031087402235, 43626.87243543535, 11995.980083463202, 38929.18395151901, -13894.537257496984, 3029.041353349847, -53188.43462329324, -187500.02235174447, 0.13638250732421875, 0.9734765930175782, 0.11099288940429688, 192.0, 2.0, 40.0, 15.0, 72.0, 1.5, 48.0, 0.0, 0.0, 0.0, 1.741979377632164E9, 0.0, 2025-03-14 14:09:37.632
188.0, -17420.815517999592, -1691.8705930555575, -187500.02235174447, -6533.370200797343, 23871.216043378838, 13388.337300817646, -42049.88980888007, 7386.089251767308, -1513.5260240466625, 43502.26146009701, 11833.192328595202, 38794.648801642514, -13887.027071360002, 3010.623515918674, -53291.92320012131, -187500.02235174447, 0.13638250732421875, 0.9734765930175782, 0.11099288940429688, 192.0, 0.0, 0.0, 0.0, 0.0, 0.0, 0.0, 0.0, 0.0, 0.0, 1.741979377632275E9, 0.0, 2025-03-14 14:09:37.632
190.0, -17419.317951121087, -1679.6218370940492, -187500.02235174447, -6521.054389602469, 23865.762217731743, 13389.209018851403, -42042.647843676554, 7378.064975507853, -1513.7495414912155, 43624.704316223186, 11971.147295373357, 38919.21507349194, -13879.069850333912, 3033.3552400297217, -53225.04678071103, -187500.02235174447, 0.13638250732421875, 0.9734765930175782, 0.11099288940429688, 192.0, 0.0, 0.0, 0.0, 0.0, 0.0, 0.0, 0.0, 0.0, 0.0, 1.741979377632374E9, 0.0, 2025-03-14 14:09:37.632
192.0, -17437.154643196423, -1720.7043434029035, -187500.02235174447, -6550.7375062391175, 23849.311333812635, 13387.197361850425, -42051.521486225305, 7375.9192080401435, -1509.7932827226261, 43507.31295434391, 11822.619953467842, 38790.64783938502, -13879.338071267375, 3008.5224519398753, -53325.65198250437, -187500.02235174447, 0.13638250732421875, 0.9734765930175782, 0.11099288940429688, 192.0, 0.0, 0.0, 0.0, 0.0, 0.0, 0.0, 0.0, 0.0, 0.0, 1.741979377632473E9, 0.0, 2025-03-14 14:09:37.632
194.0, -17422.760119767205, -1715.5410904337277, -187500.02235174447, -6494.075834044914, 23876.692220770386, 13413.840641241151, -42043.631320432585, 7394.269990237951, -1494.571744748562, 43633.980290172134, 11960.373754545899, 38913.82830307821, -13890.22337081711, 3024.4815974809644, -53247.39852516634, -187500.02235174447, 0.13638250732421875, 0.9734765930175782, 0.11099288940429688, 192.0, 0.0, 0.0, 0.0, 0.0, 0.0, 0.0, 0.0, 0.0, 0.0, 1.741979377632571E9, 0.0, 2025-03-14 14:09:37.632
196.0, -17433.645419316937, -1708.7461601193143, -187500.02235174447, -6552.413887073266, 23831.407586503934, 13389.03020489576, -42041.32909075369, 7371.784135315912, -1511.447311812319, 43538.33717564788, 11833.840529184405, 38811.68083091746, -13893.732594696594, 2991.2222017314675, -53324.690857492795, -187500.02235174447, 0.14119125366210938, 0.9747382965087891, 0.10749644470214845, 192.0, 2.0, 72.0, 15.0, 64.0, 1.5, 32.0, 0.0, 0.0, 0.0, 1.74197937769208E9, 0.0, 2025-03-14 14:09:37.692
198.0, -17449.31399218011, -1724.2582707712975, -187500.02235174447, -6456.100220215348, 23895.981776235316, 13452.41975217101, -42052.1249833256, 7420.42153125066, -1521.6173555394837, 43642.20573213169, 11949.957841629726, 38912.80012283327, -13884.277806791999, 3011.1376060411462, -53257.05447877103, -187500.02235174447, 0.14119125366210938, 0.9747382965087891, 0.10749644470214845, 192.0, 0.0, 0.0, 0.0, 0.0, 0.0, 0.0, 0.0, 0.0, 0.0, 1.741979377692186E9, 0.0, 2025-03-14 14:09:37.692
200.0, -17420.480241832764, -1697.235011724831, -187500.02235174447, -6559.2982243655, 23809.547580426646, 13387.59969325062, -42030.10851503712, 7356.696707808579, -1523.8972334739249, 43563.86286781584, 11854.582948038931, 38831.372717782586, -13900.907504666748, 2971.2844456773337, -53309.96105789674, -187500.02235174447, 0.14119125366210938, 0.9747382965087891, 0.10749644470214845, 192.0, 0.0, 0.0, 0.0, 0.0, 0.0, 0.0, 0.0, 0.0, 0.0, 1.741979377692303E9, 0.0, 2025-03-14 14:09:37.692
202.0, -17440.12742520898, -1708.3661804635742, -187500.02235174447, -6468.460734899132, 23876.5357585592, 13442.763798566319, -42036.41170697352, 7396.840440850311, -1513.4589688132965, 43623.43026678923, 11911.289323722045, 38875.29389563727, -13868.385716484276, 2997.1230622676685, -53301.825022915014, -187500.02235174447, 0.14119125366210938, 0.9747382965087891, 0.10749644470214845, 192.0, 0.0, 0.0, 0.0, 0.0, 0.0, 0.0, 0.0, 0.0, 0.0, 1.741979377692402E9, 0.0, 2025-03-14 14:09:37.692
204.0, -17424.771776768182, -1694.3963401790072, -187500.02235174447, -6575.950273984704, 23785.005365014717, 13375.105068100103, -42014.66345961851, 7333.942631953077, -1505.2111751092882, 43577.54213542249, 11846.53632003502, 38821.40383975552, -13892.838524918381, 2969.0939747207135, -53343.8910059799, -187500.02235174447, 0.14119125366210938, 0.9747382965087891, 0.10749644470214845, 192.0, 0.0, 0.0, 0.0, 0.0, 0.0, 0.0, 0.0, 0.0, 0.0, 1.741979377692496E9, 0.0, 2025-03-14 14:09:37.692
206.0, -17439.88155601997, -1715.9434218339231, -187500.02235174447, -6449.215882923113, 23889.388011621002, 13466.657813389042, -42039.31743375271, 7411.570240446358, -1508.541585033129, 43622.29032782201, 11892.223285701668, 38855.0208634163, -13869.391544984765, 3004.1862135155457, -53329.74235173969, -187500.02235174447, 0.1425956268310547, 0.9763691482543946, 0.10574822235107423, 192.0, 2.0, 64.0, 15.0, 72.0, 1.5, 32.0, 0.0, 0.0, 0.0, 1.741979377692596E9, 0.0, 2025-03-14 14:09:37.692
208.0, -17444.284849677664, -1711.204852009398, -187500.02235174447, -6522.395494269788, 23819.42705147589, 13433.84545252865, -42036.41170697352, 7379.629597619724, -1512.3860850794417, 43614.2436998181, 11886.21066644319, 38854.41736631601, -13912.12808038331, 2972.469088133465, -53318.879403934414, -187500.02235174447, 0.1425956268310547, 0.9763691482543946, 0.10574822235107423, 192.0, 0.0, 0.0, 0.0, 0.0, 0.0, 0.0, 0.0, 0.0, 0.0, 1.741979377692707E9, 0.0, 2025-03-14 14:09:37.692
210.0, -17444.2177944443, -1711.4730729428618, -187500.02235174447, -6440.185778163169, 23890.282081399215, 13487.467287476933, -42038.44571571895, 7416.331162015339, -1525.3500968635199, 43638.2494733631, 11911.334027210954, 38870.935305468476, -13884.300158536455, 2982.661483605085, -53303.59081072698, -187500.02235174447, 0.1425956268310547, 0.9763691482543946, 0.10574822235107423, 192.0, 0.0, 0.0, 0.0, 0.0, 0.0, 0.0, 0.0, 0.0, 0.0, 1.741979377752408E9, 0.0, 2025-03-14 14:09:37.752
212.0, -17454.79016957166, -1702.7111891163813, -187500.02235174447, -6512.314857520445, 23824.81382188962, 13455.99603128386, -42037.21636977391, 7386.312769211861, -1514.3530385915087, 43632.05804014898, 11915.379692957365, 38872.2764101358, -13899.007606388046, 2973.2290474449455, -53304.082549105, -187500.02235174447, 0.1425956268310547, 0.9763691482543946, 0.10574822235107423, 192.0, 0.0, 0.0, 0.0, 0.0, 0.0, 0.0, 0.0, 0.0, 0.0, 1.741979377752542E9, 0.0, 2025-03-14 14:09:37.752
214.0, -17422.69306453384, -1700.9230495599568, -187500.02235174447, -6417.9010889412275, 23904.92247401744, 13519.854965192673, -42048.1240210681, 7436.000697136009, -1512.4307885683525, 43623.74319121161, 11898.906457293804, 38854.6185320161, -13893.687891207683, 2978.5487626253084, -53310.74336895268, -187500.02235174447, 0.1425956268310547, 0.9763691482543946, 0.10574822235107423, 192.0, 0.0, 0.0, 0.0, 0.0, 0.0, 0.0, 0.0, 0.0, 0.0, 1.741979377752657E9, 0.0, 2025-03-14 14:09:37.752
216.0, -17424.369445367985, -1695.9609622908788, -187500.02235174447, -6498.501479447064, 23830.446461492356, 13467.596586656164, -42036.45641046243, 7392.548905914892, -1516.5658612925843, 43656.242627649626, 11950.024896863091, 38899.79140756028, -13897.1300598538, 2962.924893251049, -53274.10885979043, -187500.02235174447, 0.14029781341552736, 0.9751845741271973, 0.10487411117553712, 192.0, 2.0, 40.0, 15.0, 56.0, 1.5, 32.0, 0.0, 0.0, 0.0, 1.741979377752761E9, 0.0, 2025-03-14 14:09:37.752
218.0, -17414.82525048557, -1707.8297385966468, -187500.02235174447, -6436.631850794774, 23895.713555301852, 13512.523593011332, -42045.15123905554, 7429.518691243969, -1497.6786372278498, 43599.4915484776, 11881.181523940746, 38835.127810851074, -13878.421649744709, 2970.4574311324873, -53317.761816711645, -187500.02235174447, 0.14029781341552736, 0.9751845741271973, 0.10487411117553712, 192.0, 0.0, 0.0, 0.0, 0.0, 0.0, 0.0, 0.0, 0.0, 0.0, 1.741979377752867E9, 0.0, 2025-03-14 14:09:37.752
220.0, -17412.120689406478, -1705.0581222841886, -187500.02235174447, -6511.979581353615, 23827.00429284624, 13464.556749410243, -42040.345613997655, 7388.346777957294, -1526.0653526860897, 43644.50796181059, 11950.918966641304, 38888.86140452164, -13909.512926282041, 2971.01622474387, -53283.31777850602, -187500.02235174447, 0.14029781341552736, 0.9751845741271973, 0.10487411117553712, 192.0, 0.0, 0.0, 0.0, 0.0, 0.0, 0.0, 0.0, 0.0, 0.0, 1.741979377752957E9, 0.0, 2025-03-14 14:09:37.752
222.0, -17400.028395656158, -1696.5197559022613, -187500.02235174447, -6438.7999700069395, 23895.422982623935, 13513.663531978553, -42048.95103561295, 7437.9676506480755, -1490.1460993464113, 43566.52272540602, 11858.852131229894, 38802.18133952395, -13886.870609148815, 2976.090070735225, -53339.778285000124, -187500.02235174447, 0.14029781341552736, 0.9751845741271973, 0.10487411117553712, 192.0, 0.0, 0.0, 0.0, 0.0, 0.0, 0.0, 0.0, 0.0, 0.0, 1.741979377753068E9, 0.0, 2025-03-14 14:09:37.753
224.0, -17435.858242018014, -1710.8919275870237, -187500.02235174447, -6463.453944141143, 23856.553299016156, 13496.497392236877, -42041.954939598436, 7429.697505199612, -1512.4307885683525, 43658.813078261985, 11985.698281013762, 38909.670878609526, -13911.032844905001, 2984.11434699468, -53257.702679360234, -187500.02235174447, 0.14029781341552736, 0.9751845741271973, 0.10487411117553712, 192.0, 0.0, 0.0, 0.0, 0.0, 0.0, 0.0, 0.0, 0.0, 0.0, 1.741979377753166E9, 0.0, 2025-03-14 14:09:37.753
226.0, -17417.820384242583, -1706.4886339293282, -187500.02235174447, -6439.604632807331, 23893.3889738785, 13514.57995350122, -42035.04825056175, 7445.388429807238, -1508.8768611999585, 43562.36530093734, 11871.927901736248, 38806.763447137295, -13911.904562938758, 2976.9394370245263, -53318.41001730085, -187500.02235174447, 0.1391489067077637, 0.9745922870635986, 0.10543705558776856, 192.0, 2.0, 40.0, 15.0, 56.0, 1.5, 40.0, 0.0, 0.0, 0.0, 1.741979377811957E9, 0.0, 2025-03-14 14:09:37.811
228.0, -17447.30233517913, -1718.8267968686578, -187500.02235174447, -6462.939854018671, 23861.470682796324, 13495.938598625495, -42038.535122696776, 7434.99486863552, -1491.3977970359085, 43652.71105202568, 11983.79838273506, 38903.74766632887, -13892.03386211799, 2990.1046145087025, -53263.245911985156, -187500.02235174447, 0.1391489067077637, 0.9745922870635986, 0.10543705558776856, 192.0, 0.0, 0.0, 0.0, 0.0, 0.0, 0.0, 0.0, 0.0, 0.0, 1.741979377812071E9, 0.0, 2025-03-14 14:09:37.812
230.0, -17430.24795415973, -1708.9696775638674, -187500.02235174447, -6470.360633177833, 23871.417209078936, 13495.29039803629, -42039.22802677489, 7432.133845345241, -1510.7767594786596, 43546.16028620724, 11853.420657327255, 38788.166795750476, -13893.822001674414, 2970.3680241546663, -53335.71026750926, -187500.02235174447, 0.1391489067077637, 0.9745922870635986, 0.10543705558776856, 192.0, 0.0, 0.0, 0.0, 0.0, 0.0, 0.0, 0.0, 0.0, 0.0, 1.741979377812174E9, 0.0, 2025-03-14 14:09:37.812
232.0, -17436.84171877405, -1703.0241135387557, -187500.02235174447, -6477.669653614718, 23846.047979122162, 13482.259331018846, -42030.2202737594, 7418.074598082852, -1521.6173555394837, 43647.07841242295, 11975.70705124224, 38891.40950338954, -13907.210696603144, 2994.0608732772916, -53276.18757202478, -187500.02235174447, 0.1391489067077637, 0.9745922870635986, 0.10543705558776856, 192.0, 0.0, 0.0, 0.0, 0.0, 0.0, 0.0, 0.0, 0.0, 0.0, 1.741979377812276E9, 0.0, 2025-03-14 14:09:37.812
234.0, -17426.224640157776, -1704.8346048396356, -187500.02235174447, -6475.792107080473, 23851.92648791391, 13497.05618584826, -42042.647843676554, 7428.624621465758, -1514.8000734806149, 43543.813353039426, 11838.91437517576, 38777.63912411203, -13902.025091889513, 2976.470050390965, -53354.50808459617, -187500.02235174447, 0.1391489067077637, 0.9745922870635986, 0.10543705558776856, 192.0, 0.0, 0.0, 0.0, 0.0, 0.0, 0.0, 0.0, 0.0, 0.0, 1.741979377812377E9, 0.0, 2025-03-14 14:09:37.812
236.0, -17429.622105314982, -1708.1203112745657, -187500.02235174447, -6471.835848311884, 23832.927505126896, 13488.160191555047, -42032.83542786067, 7408.9103828561765, -1509.994448422724, 43651.34759561391, 11961.245472579656, 38883.519337596816, -13890.312777794932, 2991.691588365029, -53309.73754045219, -187500.02235174447, 0.13857445335388185, 0.9742961435317993, 0.10571852779388427, 192.0, 2.0, 40.0, 15.0, 56.0, 1.5, 40.0, 0.0, 0.0, 0.0, 1.741979377812475E9, 0.0, 2025-03-14 14:09:37.812
238.0, -17436.417035629398, -1703.8734798280575, -187500.02235174447, -6509.319723763433, 23802.976167556786, 13474.480923948398, -42034.2212360169, 7390.447841936093, -1515.7164950032825, 43550.80944905394, 11824.3410377909, 38775.940391533426, -13906.495440780574, 2975.039538745825, -53397.22226825026, -187500.02235174447, 0.13857445335388185, 0.9742961435317993, 0.10571852779388427, 192.0, 0.0, 0.0, 0.0, 0.0, 0.0, 0.0, 0.0, 0.0, 0.0, 1.741979377812575E9, 0.0, 2025-03-14 14:09:37.812
240.0, -17433.511308850208, -1702.62178213856, -187500.02235174447, -6474.13807799078, 23809.972263571297, 13493.837534646695, -42036.27759650679, 7395.476984438537, -1487.1956690783106, 43672.13471795735, 11954.31643179851, 38891.16363420053, -13887.719975438116, 3007.4495682060206, -53349.41188686036, -187500.02235174447, 0.13857445335388185, 0.9742961435317993, 0.10571852779388427, 192.0, 0.0, 0.0, 0.0, 0.0, 0.0, 0.0, 0.0, 0.0, 0.0, 1.741979377872243E9, 0.0, 2025-03-14 14:09:37.872
242.0, -17433.77952978367, -1701.5712501491607, -187500.02235174447, -6522.6190117143415, 23762.295992648127, 13473.050412303259, -42032.74602088285, 7365.168018957141, -1493.029474381146, 43566.746242850575, 11805.945552104182, 38770.71008333088, -13878.689870678172, 2979.8451638037163, -53464.47866731628, -187500.02235174447, 0.13857445335388185, 0.9742961435317993, 0.10571852779388427, 192.0, 0.0, 0.0, 0.0, 0.0, 0.0, 0.0, 0.0, 0.0, 0.0, 1.741979377872342E9, 0.0, 2025-03-14 14:09:37.872
244.0, -17427.610448314008, -1700.498366415306, -187500.02235174447, -6462.179894707191, 23789.252196461224, 13508.67909296502, -42028.58859641416, 7378.422603419138, -1502.7748349636597, 43691.02194202208, 11936.256222278622, 38894.31523016873, -13905.511964024541, 3008.723617639973, -53411.19210853483, -187500.02235174447, 0.13857445335388185, 0.9742961435317993, 0.10571852779388427, 192.0, 0.0, 0.0, 0.0, 0.0, 0.0, 0.0, 0.0, 0.0, 0.0, 1.741979377872457E9, 0.0, 2025-03-14 14:09:37.872
246.0, -17424.54825932363, -1697.1679564914652, -187500.02235174447, -6507.866860373839, 23744.816928484077, 13499.269008549334, -42037.14931454055, 7361.301167166373, -1508.4521780553077, 43608.745170682094, 11823.894002901794, 38809.40095298302, -13902.717995967627, 2987.8917918076268, -53499.34738866656, -187500.02235174447, 0.13828722667694093, 0.9721480717658997, 0.10685926389694214, 192.0, 2.0, 40.0, 15.0, 40.0, 1.5, 48.0, 0.0, 0.0, 0.0, 1.741979377872556E9, 0.0, 2025-03-14 14:09:37.872
248.0, -17424.458852345808, -1702.822947838658, -187500.02235174447, -6429.233423380068, 23789.766286583697, 13546.408837605577, -42047.60993094563, 7388.503240168481, -1498.0809686280452, 43712.65843065482, 11934.155158299824, 38916.97989904641, -13887.675271949205, 3016.9043561106155, -53453.57101602209, -187500.02235174447, 0.13828722667694093, 0.9721480717658997, 0.10685926389694214, 192.0, 0.0, 0.0, 0.0, 0.0, 0.0, 0.0, 0.0, 0.0, 0.0, 1.741979377872658E9, 0.0, 2025-03-14 14:09:37.872
250.0, -17388.383136794942, -1690.082453499133, -187500.02235174447, -6524.764779182051, 23701.767468663154, 13486.86379037664, -42035.18236102848, 7328.712323750535, -1506.0381896541346, 43637.131886140334, 11830.420712282743, 38841.54276150975, -13895.744251697572, 2982.952056283004, -53533.277336749714, -187500.02235174447, 0.13828722667694093, 0.9721480717658997, 0.10685926389694214, 192.0, 0.0, 0.0, 0.0, 0.0, 0.0, 0.0, 0.0, 0.0, 0.0, 1.741979377872756E9, 0.0, 2025-03-14 14:09:37.872
252.0, -17423.564782567595, -1689.6801220989373, -187500.02235174447, -6404.691207968141, 23784.491274892247, 13567.665346582575, -42053.622550204105, 7393.800603604389, -1474.544581716607, 43717.57581443499, 11906.438995175242, 38909.9838030319, -13895.096051108367, 3026.4261992485763, -53511.95377253935, -187500.02235174447, 0.13828722667694093, 0.9721480717658997, 0.10685926389694214, 192.0, 0.0, 0.0, 0.0, 0.0, 0.0, 0.0, 0.0, 0.0, 0.0, 1.741979377872855E9, 0.0, 2025-03-14 14:09:37.872
254.0, -17424.72707327927, -1694.8880785570238, -187500.02235174447, -6493.829964855906, 23700.940454118307, 13515.764595957351, -42045.575922200194, 7341.162245412141, -1498.0809686280452, 43672.53704935754, 11848.704439247185, 38868.23074438939, -13902.539182011984, 2996.2289924894562, -53558.44540100639, -187500.02235174447, 0.13828722667694093, 0.9721480717658997, 0.10685926389694214, 192.0, 0.0, 0.0, 0.0, 0.0, 0.0, 0.0, 0.0, 0.0, 0.0, 1.741979377872956E9, 0.0, 2025-03-14 14:09:37.872
0.0, -17432.438425116354, -1711.8307008541467, -187500.02235174447, -6363.519294681465, 23800.629234388976, 13608.770204635885, -42060.529239240794, 7415.638257937224, -1500.3161430735759, 43740.41929726831, 11918.464233692197, 38930.81562886425, -13885.328338781399, 3021.307649768311, -53522.883775578, -187500.02235174447, 0.13714361333847047, 0.9720740358829498, 0.10542963194847108, 192.0, 2.0, 32.0, 15.0, 48.0, 1.5, 32.0, 0.0, 0.0, 0.0, 1.741979377932545E9, 0.0, 2025-03-14 14:09:37.932
2.0, -17419.630875543462, -1708.276773485753, -187500.02235174447, -6475.143906491269, 23706.3942797654, 13538.429264835033, -42031.919006338, 7345.9231669811215, -1480.020759108157, 43716.055895812024, 11896.3583584259, 38913.49302691138, -13906.89777218077, 3014.758588642906, -53551.69517418089, -187500.02235174447, 0.13714361333847047, 0.9720740358829498, 0.10542963194847108, 192.0, 0.0, 0.0, 0.0, 0.0, 0.0, 0.0, 0.0, 0.0, 0.0, 1.741979377932659E9, 0.0, 2025-03-14 14:09:37.932
4.0, -17424.05652094561, -1705.4828054288396, -187500.02235174447, -6368.906065095194, 23797.835266332062, 13618.73908266295, -42054.47191649341, 7407.7927956334115, -1497.6786372278498, 43727.522340717594, 11904.06971026298, 38920.13149501461, -13898.98525464359, 3014.2892020093445, -53559.07124985114, -187500.02235174447, 0.13714361333847047, 0.9720740358829498, 0.10542963194847108, 192.0, 0.0, 0.0, 0.0, 0.0, 0.0, 0.0, 0.0, 0.0, 0.0, 1.741979377932759E9, 0.0, 2025-03-14 14:09:37.932
6.0, -17435.701779806826, -1696.0727210131552, -187500.02235174447, -6459.721202817107, 23718.017186882164, 13564.513750614376, -42034.44475346145, 7355.8473415192775, -1484.893439399414, 43739.59228272346, 11921.660533149307, 38942.95262610348, -13915.033807162501, 2994.664370377585, -53548.72239216833, -187500.02235174447, 0.13714361333847047, 0.9720740358829498, 0.10542963194847108, 192.0, 0.0, 0.0, 0.0, 0.0, 0.0, 0.0, 0.0, 0.0, 0.0, 1.741979377932857E9, 0.0, 2025-03-14 14:09:37.932
8.0, -17460.981602785778, -1729.980317351856, -187500.02235174447, -6338.507692635977, 23819.896438109452, 13654.837149958272, -42055.790669416274, 7431.440941267127, -1514.9788874362573, 43725.66714592781, 11898.168849726779, 38925.22769275042, -13889.172838827712, 3009.7741496293725, -53560.68057545192, -187500.02235174447, 0.13714361333847047, 0.9720740358829498, 0.10542963194847108, 192.0, 0.0, 0.0, 0.0, 0.0, 0.0, 0.0, 0.0, 0.0, 0.0, 1.741979377932947E9, 0.0, 2025-03-14 14:09:37.932
10.0, -17447.212928201312, -1714.5129101887835, -187500.02235174447, -6439.917557229705, 23727.98606490923, 13580.428192666555, -42028.253320247335, 7365.168018957141, -1515.1577013918998, 43765.96734118072, 11956.931585899782, 38979.14010037662, -13907.389510558785, 3004.2979722378223, -53520.49213892128, -187500.02235174447, 0.13857180666923524, 0.9740370179414749, 0.10271481597423554, 192.0, 2.0, 48.0, 15.0, 64.0, 1.5, 16.0, 0.0, 0.0, 0.0, 1.74197937793305E9, 0.0, 2025-03-14 14:09:37.933
12.0, -17444.97775375578, -1724.750009149314, -187500.02235174447, -6355.204445744092, 23815.873124107497, 13648.757475466427, -42053.354329270645, 7425.6965429421125, -1496.9186779163692, 43694.88879381285, 11867.569311567464, 38894.24817493536, -13885.75302192605, 3010.3329432407554, -53586.38508157553, -187500.02235174447, 0.13857180666923524, 0.9740370179414749, 0.10271481597423554, 192.0, 0.0, 0.0, 0.0, 0.0, 0.0, 0.0, 0.0, 0.0, 0.0, 1.741979377933155E9, 0.0, 2025-03-14 14:09:37.933
14.0, -17426.179936668865, -1722.8948143595237, -187500.02235174447, -6430.015734436004, 23743.341713350026, 13593.347500961721, -42042.53608495428, 7379.495487152993, -1497.4551197832966, 43765.565009780534, 11970.946129673259, 38984.99625742391, -13907.70243498116, 3005.996704816426, -53517.765226097734, -187500.02235174447, 0.13857180666923524, 0.9740370179414749, 0.10271481597423554, 192.0, 0.0, 0.0, 0.0, 0.0, 0.0, 0.0, 0.0, 0.0, 0.0, 1.741979377992876E9, 0.0, 2025-03-14 14:09:37.992
16.0, -17438.45104437483, -1715.2952212447192, -187500.02235174447, -6377.712652410585, 23810.039318804662, 13635.167614837601, -42054.047233348756, 7419.259240538984, -1465.8050496345818, 43671.531220857054, 11855.67818351724, 38882.669971307514, -13906.1825163582, 3007.3825129726547, -53587.36855833156, -187500.02235174447, 0.13857180666923524, 0.9740370179414749, 0.10271481597423554, 192.0, 0.0, 0.0, 0.0, 0.0, 0.0, 0.0, 0.0, 0.0, 0.0, 1.741979377993018E9, 0.0, 2025-03-14 14:09:37.993
18.0, -17449.895137535947, -1723.8335876266467, -187500.02235174447, -6429.635754780264, 23763.14535893743, 13595.515620173886, -42048.01226234582, 7389.7772896024335, -1510.44148331183, 43766.839059214486, 11984.75950774664, 38992.797016238816, -13933.451644593675, 3011.0929025522355, -53506.388188169985, -187500.02235174447, 0.13857180666923524, 0.9740370179414749, 0.10271481597423554, 192.0, 0.0, 0.0, 0.0, 0.0, 0.0, 0.0, 0.0, 0.0, 0.0, 1.741979377993121E9, 0.0, 2025-03-14 14:09:37.993
20.0, -17451.03507650317, -1722.045448070222, -187500.02235174447, -6395.728158441563, 23813.70500489533, 13628.283277545366, -42061.33390204119, 7420.488586484026, -1516.8117304815926, 43647.61485428987, 11837.550918763985, 38858.26186636232, -13894.067870863424, 2997.7712628568725, -53600.28786662673, -187500.02235174447, 0.13628590333461763, 0.9750185089707375, 0.10235740798711777, 192.0, 2.0, 24.0, 15.0, 64.0, 1.5, 24.0, 0.0, 0.0, 0.0, 1.741979377993222E9, 0.0, 2025-03-14 14:09:37.993
22.0, -17455.639535860962, -1719.6761631579595, -187500.02235174447, -6422.103216898825, 23778.50100737822, 13602.444660955032, -42051.677948436496, 7398.717987384557, -1524.2101578962993, 43762.838096956984, 11992.113231672434, 38988.304315603295, -13914.340903084387, 3015.40678923211, -53500.59908635606, -187500.02235174447, 0.13628590333461763, 0.9750185089707375, 0.10235740798711777, 192.0, 0.0, 0.0, 0.0, 0.0, 0.0, 0.0, 0.0, 0.0, 0.0, 1.74197937799333E9, 0.0, 2025-03-14 14:09:37.993
24.0, -17440.149776953433, -1709.2826019862416, -187500.02235174447, -6441.75040027504, 23790.570949384088, 13593.772184106372, -42049.1745530575, 7390.201972747085, -1504.3618088199864, 43622.06681037746, 11824.497500002088, 38834.14433409504, -13898.404109287752, 3001.3922454586323, -53609.8544132536, -187500.02235174447, 0.13628590333461763, 0.9750185089707375, 0.10235740798711777, 192.0, 0.0, 0.0, 0.0, 0.0, 0.0, 0.0, 0.0, 0.0, 0.0, 1.741979377993433E9, 0.0, 2025-03-14 14:09:37.993
26.0, -17426.73873028025, -1703.627610639049, -187500.02235174447, -6470.941778533671, 23765.42523687187, 13560.848064523705, -42043.87718962159, 7363.178713700619, -1498.6621139838833, 43722.56025344852, 11959.122056856402, 38944.65135868208, -13899.521696510517, 3028.460207994009, -53542.55331069867, -187500.02235174447, 0.13628590333461763, 0.9750185089707375, 0.10235740798711777, 192.0, 0.0, 0.0, 0.0, 0.0, 0.0, 0.0, 0.0, 0.0, 0.0, 1.741979377993531E9, 0.0, 2025-03-14 14:09:37.993
28.0, -17413.528849307164, -1694.4186919234626, -187500.02235174447, -6500.848412614872, 23765.17936768286, 13543.927793971037, -42044.41363148852, 7354.573292085325, -1455.2997297405875, 43576.893934833286, 11789.494668185076, 38788.2562027283, -13895.163106341734, 3012.188138030546, -53656.77072486529, -187500.02235174447, 0.13628590333461763, 0.9750185089707375, 0.10235740798711777, 192.0, 0.0, 0.0, 0.0, 0.0, 0.0, 0.0, 0.0, 0.0, 0.0, 1.741979377993637E9, 0.0, 2025-03-14 14:09:37.993
30.0, -17447.54820436814, -1712.367142721074, -187500.02235174447, -6444.857292754328, 23800.606882644523, 13578.058907754292, -42060.261018307334, 7391.632484392225, -1493.6106197369838, 43708.63511665286, 11958.786780689572, 38932.69317539849, -13911.725748983115, 3030.181292317068, -53550.6893456804, -187500.02235174447, 0.13614295166730883, 0.9735092544853687, 0.10217870399355888, 192.0, 2.0, 32.0, 15.0, 48.0, 1.5, 24.0, 0.0, 0.0, 0.0, 1.741979378051713E9, 0.0, 2025-03-14 14:09:38.051
32.0, -17425.93406747986, -1697.9279158029458, -187500.02235174447, -6493.494688689076, 23779.08215273406, 13553.114360942169, -42053.33197752619, 7373.147591727686, -1516.9011374594138, 43590.662609417755, 11826.889136658805, 38817.62639494257, -13900.75104245556, 3003.1580332706017, -53618.54924184671, -187500.02235174447, 0.13614295166730883, 0.9735092544853687, 0.10217870399355888, 192.0, 0.0, 0.0, 0.0, 0.0, 0.0, 0.0, 0.0, 0.0, 0.0, 1.74197937805189E9, 0.0, 2025-03-14 14:09:38.051
34.0, -17418.35682610951, -1709.1708432639653, -187500.02235174447, -6464.906807530739, 23800.69628962234, 13557.96468948897, -42053.86841939312, 7376.8579813072665, -1504.026532653157, 43687.266848953586, 11954.048210865047, 38921.38319270411, -13903.030920390001, 3036.5068359979196, -53552.67865093693, -187500.02235174447, 0.13614295166730883, 0.9735092544853687, 0.10217870399355888, 192.0, 0.0, 0.0, 0.0, 0.0, 0.0, 0.0, 0.0, 0.0, 0.0, 1.741979378051996E9, 0.0, 2025-03-14 14:09:38.051
36.0, -17422.111919178, -1688.3613691760743, -187500.02235174447, -6549.955195183182, 23750.606030298, 13503.739357440396, -42043.698375665954, 7332.266251118929, -1496.4939947717185, 43553.62576885531, 11805.47616547062, 38782.75767359229, -13898.649978476762, 3013.439835720043, -53649.93109106197, -187500.02235174447, 0.13614295166730883, 0.9735092544853687, 0.10217870399355888, 192.0, 0.0, 0.0, 0.0, 0.0, 0.0, 0.0, 0.0, 0.0, 0.0, 1.74197937805209E9, 0.0, 2025-03-14 14:09:38.052
38.0, -17442.16143395441, -1714.3787997220518, -187500.02235174447, -6464.526827874998, 23817.929484597385, 13554.58957607622, -42054.20369555995, 7380.680129609124, -1493.7447302037158, 43659.01424396208, 11935.74213215615, 38893.01882899032, -13898.89584766577, 3041.8041994338278, -53576.84088669311, -187500.02235174447, 0.13614295166730883, 0.9735092544853687, 0.10217870399355888, 192.0, 0.0, 0.0, 0.0, 0.0, 0.0, 0.0, 0.0, 0.0, 0.0, 1.741979378052193E9, 0.0, 2025-03-14 14:09:38.052
40.0, -17457.807655073128, -1717.4409887124289, -187500.02235174447, -6538.891081677804, 23770.52143460768, 13513.529421511821, -42048.883980379585, 7351.64521356168, -1496.4045877938972, 43570.322521963426, 11832.812348939462, 38802.74013313534, -13919.526507798018, 3020.4135799900987, -53630.7085908304, -187500.02235174447, 0.13207147583365442, 0.9737546272426844, 0.10108935199677944, 192.0, 2.0, 0.0, 15.0, 56.0, 1.5, 16.0, 0.0, 0.0, 0.0, 1.741979378052292E9, 0.0, 2025-03-14 14:09:38.052
42.0, -17454.94663178285, -1718.3574102350963, -187500.02235174447, -6457.620138838308, 23842.091720353572, 13563.932605258538, -42056.88590489458, 7396.661626894668, -1481.8536021534924, 43651.52640956955, 11928.813091375005, 38885.061607964235, -13898.717033710127, 3058.2774350973887, -53573.13049711353, -187500.02235174447, 0.13207147583365442, 0.9737546272426844, 0.10108935199677944, 192.0, 0.0, 0.0, 0.0, 0.0, 0.0, 0.0, 0.0, 0.0, 0.0, 1.741979378052397E9, 0.0, 2025-03-14 14:09:38.052
44.0, -17453.337306182064, -1713.663543899482, -187500.02235174447, -6549.128180638335, 23777.025792244174, 13511.942447655494, -42041.50790470933, 7356.517893852937, -1508.9439164333246, 43589.41091172826, 11862.2495963871, 38825.74007817985, -13908.440042548185, 3037.22209182049, -53603.908849228486, -187500.02235174447, 0.13207147583365442, 0.9737546272426844, 0.10108935199677944, 192.0, 0.0, 0.0, 0.0, 0.0, 0.0, 0.0, 0.0, 0.0, 0.0, 1.741979378111914E9, 0.0, 2025-03-14 14:09:38.111
46.0, -17455.103093994036, -1720.7490468918143, -187500.02235174447, -6445.0808101988805, 23857.20149960536, 13571.934529773538, -42067.01124513284, 7414.095987569808, -1490.5931342355175, 43647.771316501065, 11931.919983854294, 38879.49602359486, -13890.268074306021, 3054.7458594734503, -53565.50855225427, -187500.02235174447, 0.13207147583365442, 0.9737546272426844, 0.10108935199677944, 192.0, 0.0, 0.0, 0.0, 0.0, 0.0, 0.0, 0.0, 0.0, 0.0, 1.741979378112037E9, 0.0, 2025-03-14 14:09:38.112
48.0, -17442.720227565795, -1698.7996338367027, -187500.02235174447, -6560.974605199648, 23763.726504293267, 13489.85892413365, -42033.86360810562, 7343.4644750910375, -1505.412340809386, 43596.876394376326, 11883.059070474992, 38836.84889517414, -13904.75200471306, 3024.9733358589815, -53593.358825845586, -187500.02235174447, 0.13207147583365442, 0.9737546272426844, 0.10108935199677944, 192.0, 0.0, 0.0, 0.0, 0.0, 0.0, 0.0, 0.0, 0.0, 0.0, 1.741979378112134E9, 0.0, 2025-03-14 14:09:38.112
50.0, -17425.73290177976, -1710.0649130421775, -187500.02235174447, -6479.524848404509, 23841.599981975556, 13535.791758989306, -42047.252303034344, 7384.5469813998925, -1478.2326195517326, 43601.92788862323, 11889.362262411389, 38831.97621488288, -13887.094126593367, 3041.7147924560063, -53608.91563998647, -187500.02235174447, 0.1310357379168272, 0.9738773136213421, 0.10254467599838973, 192.0, 2.0, 8.0, 15.0, 56.0, 1.5, 32.0, 0.0, 0.0, 0.0, 1.741979378112239E9, 0.0, 2025-03-14 14:09:38.112
52.0, -17442.630820587972, -1704.4099216949849, -187500.02235174447, -6564.327366867944, 23770.722600307778, 13484.29333976428, -42042.580788443185, 7345.543187325381, -1481.2501050531991, 43593.166004796745, 11894.547867125018, 38838.23470333037, -13911.546935027473, 3030.628327206174, -53602.500689327804, -187500.02235174447, 0.1310357379168272, 0.9738773136213421, 0.10254467599838973, 192.0, 0.0, 0.0, 0.0, 0.0, 0.0, 0.0, 0.0, 0.0, 0.0, 1.741979378112332E9, 0.0, 2025-03-14 14:09:38.112
54.0, -17455.55012888314, -1716.949250334412, -187500.02235174447, -6492.175935766213, 23842.985790131785, 13526.404026318078, -42058.69639619546, 7382.535324398915, -1472.7564421601824, 43580.023179057025, 11880.958006496192, 38824.55543572372, -13892.816173173926, 3047.9285774145815, -53613.29658189972, -187500.02235174447, 0.1310357379168272, 0.9738773136213421, 0.10254467599838973, 192.0, 0.0, 0.0, 0.0, 0.0, 0.0, 0.0, 0.0, 0.0, 0.0, 1.741979378112432E9, 0.0, 2025-03-14 14:09:38.112
56.0, -17454.79016957166, -1713.0600467991885, -187500.02235174447, -6578.58777983043, 23768.956812495806, 13465.428467444, -42050.31449202472, 7337.585966299292, -1505.8370239540368, 43589.85794661736, 11904.539096896542, 38846.97423541239, -13904.908466924247, 3040.3736877886877, -53598.164450903474, -187500.02235174447, 0.1310357379168272, 0.9738773136213421, 0.10254467599838973, 192.0, 0.0, 0.0, 0.0, 0.0, 0.0, 0.0, 0.0, 0.0, 0.0, 1.741979378112535E9, 0.0, 2025-03-14 14:09:38.112
58.0, -17429.73386403726, -1722.4030759815068, -187500.02235174447, -6471.522923889509, 23862.945897930374, 13540.083293924725, -42069.000550389355, 7401.869583352755, -1491.6213144804615, 43565.22632422762, 11869.625672057351, 38816.03942108624, -13901.868629678325, 3049.2696820819, -53614.95061098941, -187500.02235174447, 0.1310357379168272, 0.9738773136213421, 0.10254467599838973, 192.0, 0.0, 0.0, 0.0, 0.0, 0.0, 0.0, 0.0, 0.0, 0.0, 1.741979378112628E9, 0.0, 2025-03-14 14:09:38.112
60.0, -17445.2683264337, -1705.5722124066608, -187500.02235174447, -6560.371108099354, 23781.093809735037, 13472.3798599696, -42051.05209959175, 7340.5811000563035, -1504.8758989424587, 43617.149426597294, 11938.446693235242, 38880.12187243961, -13927.215507890643, 3046.3192518137994, -53566.0449941212, -187500.02235174447, 0.1315178689584136, 0.972938656810671, 0.09927233799919487, 192.0, 2.0, 16.0, 15.0, 48.0, 1.5, 0.0, 0.0, 0.0, 0.0, 1.741979378172233E9, 0.0, 2025-03-14 14:09:38.172
62.0, -17411.29367486163, -1696.8997355580016, -187500.02235174447, -6512.158395309258, 23843.23165932079, 13504.320502796234, -42055.32128278271, 7368.096097480786, -1482.2112300647773, 43537.89014075877, 11837.461511786165, 38786.22219398287, -13894.760774941538, 3056.154019374135, -53634.39662866553, -187500.02235174447, 0.1315178689584136, 0.972938656810671, 0.09927233799919487, 192.0, 0.0, 0.0, 0.0, 0.0, 0.0, 0.0, 0.0, 0.0, 0.0, 1.741979378172352E9, 0.0, 2025-03-14 14:09:38.172
64.0, -17440.328590909077, -1707.2709449852641, -187500.02235174447, -6598.63729460684, 23769.89558576293, 13436.035923485271, -42040.1220965531, 7309.06514037432, -1471.1471165594003, 43597.5916501989, 11922.420492460788, 38854.372662827096, -13905.444908791174, 3069.3639003472213, -53597.672712525455, -187500.02235174447, 0.1315178689584136, 0.972938656810671, 0.09927233799919487, 192.0, 0.0, 0.0, 0.0, 0.0, 0.0, 0.0, 0.0, 0.0, 0.0, 1.741979378172453E9, 0.0, 2025-03-14 14:09:38.172
66.0, -17462.859149320026, -1720.0337910692444, -187500.02235174447, -6523.356619281366, 23840.795319175162, 13493.658720691052, -42064.3290357982, 7361.167056699641, -1486.2345440667325, 43517.97473644909, 11822.53054649002, 38760.71885355936, -13895.811306930937, 3054.522342028897, -53657.038945798755, -187500.02235174447, 0.1315178689584136, 0.972938656810671, 0.09927233799919487, 192.0, 0.0, 0.0, 0.0, 0.0, 0.0, 0.0, 0.0, 0.0, 0.0, 1.741979378172554E9, 0.0, 2025-03-14 14:09:38.172
68.0, -17454.36548642701, -1727.1863492949426, -187500.02235174447, -6575.369128628866, 23794.28133896367, 13454.498464405355, -42046.96173035642, 7325.717189993524, -1491.1072243579895, 43620.52454001004, 11953.645879464852, 38870.667084535016, -13898.202943587656, 3057.98686241947, -53575.96916865935, -187500.02235174447, 0.1315178689584136, 0.972938656810671, 0.09927233799919487, 192.0, 0.0, 0.0, 0.0, 0.0, 0.0, 0.0, 0.0, 0.0, 0.0, 1.741979378172651E9, 0.0, 2025-03-14 14:09:38.172
70.0, -17444.50836712222, -1703.918183316968, -187500.02235174447, -6595.843326549927, 23804.160810012916, 13429.397455382044, -42039.160971541525, 7302.650189715647, -1479.059634096579, 43490.90677391372, 11799.754118890061, 38725.64896650898, -13902.248609334065, 3047.9285774145815, -53674.56271345171, -187500.02235174447, 0.1287589344792068, 0.9734693284053355, 0.09763616899959743, 192.0, 1.5, 120.0, 15.0, 56.0, 1.5, 0.0, 0.0, 0.0, 0.0, 1.741979378172751E9, 0.0, 2025-03-14 14:09:38.172
72.0, -17453.605527115527, -1713.1271020325546, -187500.02235174447, -6606.393349932832, 23785.966490026294, 13409.07971967217, -42044.72655591089, 7292.100166332742, -1487.5980004785063, 43589.030932072514, 11926.130882040368, 38826.41063051351, -13898.60527498785, 3068.5815892912856, -53615.33059064515, -187500.02235174447, 0.1287589344792068, 0.9734693284053355, 0.09763616899959743, 192.0, 0.0, 0.0, 0.0, 0.0, 0.0, 0.0, 0.0, 0.0, 0.0, 1.741979378172858E9, 0.0, 2025-03-14 14:09:38.172
74.0, -17449.96219276931, -1712.5683084211719, -187500.02235174447, -6588.534306113042, 23814.75553688473, 13418.713321532408, -42058.47287875091, 7311.032093886387, -1470.8118403925707, 43477.51807898499, 11797.42953746671, 38710.76270470175, -13903.790879701482, 3051.4154495496095, -53681.24588504385, -187500.02235174447, 0.1287589344792068, 0.9734693284053355, 0.09763616899959743, 192.0, 0.0, 0.0, 0.0, 0.0, 0.0, 0.0, 0.0, 0.0, 0.0, 1.741979378232696E9, 0.0, 2025-03-14 14:09:38.232
76.0, -17440.462701375807, -1723.3642009930852, -187500.02235174447, -6566.473134335653, 23825.909057367928, 13424.547126835243, -42058.65169270655, 7319.995143412965, -1480.087814341523, 43597.658705432266, 11953.042382364558, 38845.58842725616, -13907.143641369777, 3077.4775835844976, -53576.32679657064, -187500.02235174447, 0.1287589344792068, 0.9734693284053355, 0.09763616899959743, 192.0, 0.0, 0.0, 0.0, 0.0, 0.0, 0.0, 0.0, 0.0, 0.0, 1.741979378232809E9, 0.0, 2025-03-14 14:09:38.232
78.0, -17433.958343739312, -1708.500290930306, -187500.02235174447, -6628.722742643684, 23802.730298367776, 13377.362594290089, -42042.290215765264, 7283.360634250717, -1480.0431108526125, 43457.64737816422, 11800.447022968177, 38706.09119011059, -13906.964827414135, 3047.5262460143863, -53659.43058245547, -187500.02235174447, 0.1287589344792068, 0.9734693284053355, 0.09763616899959743, 192.0, 0.0, 0.0, 0.0, 0.0, 0.0, 0.0, 0.0, 0.0, 0.0, 1.741979378232917E9, 0.0, 2025-03-14 14:09:38.232
80.0, -17439.702742064328, -1712.657715398993, -187500.02235174447, -6609.947277301226, 23822.37748174399, 13373.36163203259, -42046.33588151167, 7285.037015084865, -1490.280209813143, 43554.11750723333, 11922.912230838803, 38801.9578220794, -13894.64901621926, 3081.2773801419, -53595.303427613195, -187500.02235174447, 0.12837946723960342, 0.9727346642026677, 0.09681808449979872, 192.0, 2.0, 0.0, 15.0, 48.0, 1.5, 0.0, 0.0, 0.0, 0.0, 1.741979378233014E9, 0.0, 2025-03-14 14:09:38.233
82.0, -17437.847547274538, -1713.0600467991885, -187500.02235174447, -6671.816905953516, 23794.504856408224, 13328.456977421878, -42043.2736925213, 7255.845636826234, -1477.1373840734225, 43414.08382822083, 11767.23233070759, 38657.20792498683, -13893.777298185505, 3060.400850820643, -53684.777460667785, -187500.02235174447, 0.12837946723960342, 0.9727346642026677, 0.09681808449979872, 192.0, 0.0, 0.0, 0.0, 0.0, 0.0, 0.0, 0.0, 0.0, 0.0, 1.741979378233114E9, 0.0, 2025-03-14 14:09:38.233
84.0, -17450.342172425055, -1734.1824453094537, -187500.02235174447, -6591.8870677813375, 23864.264650853238, 13375.350937289113, -42062.09386135267, 7305.064178116821, -1489.9449336463135, 43525.82019875291, 11915.334989468454, 38779.62842936855, -13897.912370909737, 3082.0373394533804, -53584.328721085636, -187500.02235174447, 0.12837946723960342, 0.9727346642026677, 0.09681808449979872, 192.0, 0.0, 0.0, 0.0, 0.0, 0.0, 0.0, 0.0, 0.0, 0.0, 1.741979378233217E9, 0.0, 2025-03-14 14:09:38.233
86.0, -17444.30720142212, -1717.9550788349009, -187500.02235174447, -6685.56322879353, 23810.687519393865, 13310.06149173516, -42050.51565772482, 7261.366517706695, -1504.7417884757267, 43413.92736600964, 11799.888229356793, 38671.31187573813, -13913.022150161523, 3058.456249053031, -53632.27321294227, -187500.02235174447, 0.12837946723960342, 0.9727346642026677, 0.09681808449979872, 192.0, 0.0, 0.0, 0.0, 0.0, 0.0, 0.0, 0.0, 0.0, 0.0, 1.741979378233318E9, 0.0, 2025-03-14 14:09:38.233
88.0, -17459.84166381856, -1720.8608056140909, -187500.02235174447, -6605.454576665709, 23884.269462140735, 13352.73097190034, -42066.25128582135, 7309.288657818874, -1477.6738259403498, 43484.93885814415, 11895.576047369963, 38744.2456178958, -13902.785051200994, 3087.9381999895813, -53575.83505819262, -187500.02235174447, 0.12837946723960342, 0.9727346642026677, 0.09681808449979872, 192.0, 0.0, 0.0, 0.0, 0.0, 0.0, 0.0, 0.0, 0.0, 0.0, 1.741979378233422E9, 0.0, 2025-03-14 14:09:38.233
90.0, -17427.610448314008, -1705.7957298512138, -187500.02235174447, -6737.955717796769, 23797.008251787218, 13251.119941606516, -42046.17941930049, 7228.397694635117, -1477.7185294292606, 43383.372531339235, 11791.595732163874, 38648.37898592699, -13913.066853650434, 3072.202571893045, -53619.063331969184, -187500.02235174447, 0.1281897336198017, 0.9733673321013339, 0.10040904224989936, 192.0, 2.0, 0.0, 15.0, 56.0, 1.5, 32.0, 0.0, 0.0, 0.0, 1.741979378292834E9, 0.0, 2025-03-14 14:09:38.292
92.0, -17452.957326526324, -1729.8909103740348, -187500.02235174447, -6612.607134891407, 23917.752375334785, 13334.693114124908, -42068.240591077876, 7318.028189900898, -1487.2403725672214, 43439.67657562215, 11867.882235989839, 38701.75495168626, -13899.476993021608, 3096.6330285826957, -53571.29765406819, -187500.02235174447, 0.1281897336198017, 0.9733673321013339, 0.10040904224989936, 192.0, 0.0, 0.0, 0.0, 0.0, 0.0, 0.0, 0.0, 0.0, 0.0, 1.741979378292954E9, 0.0, 2025-03-14 14:09:38.292
94.0, -17464.870806321003, -1724.593546938127, -187500.02235174447, -6729.506758392663, 23839.81184241913, 13248.393028782968, -42045.08418382218, 7257.164389749097, -1522.958460206802, 43383.75251099498, 11824.855127913372, 38660.426576188394, -13926.94728695718, 3061.98782467697, -53557.640738206, -187500.02235174447, 0.1281897336198017, 0.9733673321013339, 0.10040904224989936, 192.0, 0.0, 0.0, 0.0, 0.0, 0.0, 0.0, 0.0, 0.0, 0.0, 1.741979378293064E9, 0.0, 2025-03-14 14:09:38.293
96.0, -17445.245974689242, -1713.3953229660183, -187500.02235174447, -6646.805303908027, 23934.583238909632, 13295.309340394657, -42048.21342804592, 7311.076797375298, -1490.928410402347, 43399.97987746953, 11854.895872461304, 38670.79778561566, -13901.108670366844, 3097.9964849944695, -53527.44353144688, -187500.02235174447, 0.1281897336198017, 0.9733673321013339, 0.10040904224989936, 192.0, 0.0, 0.0, 0.0, 0.0, 0.0, 0.0, 0.0, 0.0, 0.0, 1.741979378293158E9, 0.0, 2025-03-14 14:09:38.293
98.0, -17439.143948452944, -1695.8715553130576, -187500.02235174447, -6779.999349117202, 23849.467796023822, 13195.978188035273, -42037.618701174106, 7240.489988385438, -1492.2248115807547, 43342.71470817503, 11810.371197506332, 38618.78527626816, -13923.371007844331, 3086.3512261332544, -53529.946926825876, -187500.02235174447, 0.1281897336198017, 0.9733673321013339, 0.10040904224989936, 192.0, 0.0, 0.0, 0.0, 0.0, 0.0, 0.0, 0.0, 0.0, 0.0, 1.741979378293261E9, 0.0, 2025-03-14 14:09:38.293
100.0, -17453.806692815626, -1708.5673461636718, -187500.02235174447, -6713.592316340485, 23926.804831839185, 13215.312446989114, -42045.55357045574, 7267.267378242896, -1454.159790773367, 43317.99367880746, 11800.447022968177, 38586.44230204133, -13880.567417212418, 3111.3404764342877, -53533.41144721645, -187500.02235174447, 0.13009486680990084, 0.9736836660506669, 0.10320452112494968, 192.0, 2.0, 16.0, 15.0, 56.0, 1.5, 40.0, 0.0, 0.0, 0.0, 1.741979378293366E9, 0.0, 2025-03-14 14:09:38.293
102.0, -17460.51221615222, -1726.918128361479, -187500.02235174447, -6791.041110878124, 23868.131502644006, 13167.345603388025, -42050.64976819155, 7240.937023274544, -1483.6193899654616, 43310.52819615939, 11812.986351607604, 38594.1089503895, -13904.170859357222, 3095.180165193101, -53507.5281271372, -187500.02235174447, 0.13009486680990084, 0.9736836660506669, 0.10320452112494968, 192.0, 0.0, 0.0, 0.0, 0.0, 0.0, 0.0, 0.0, 0.0, 0.0, 1.741979378293465E9, 0.0, 2025-03-14 14:09:38.293
104.0, -17450.65509684743, -1716.1222357895656, -187500.02235174447, -6719.359066409954, 23942.98749482483, 13199.822688081586, -42048.660462935026, 7273.2576457569185, -1488.380311534442, 43292.0209517504, 11793.607389164852, 38573.746511190715, -13907.188344858689, 3106.6689618431287, -53503.97419976881, -187500.02235174447, 0.13009486680990084, 0.9736836660506669, 0.10320452112494968, 192.0, 0.0, 0.0, 0.0, 0.0, 0.0, 0.0, 0.0, 0.0, 0.0, 1.741979378353026E9, 0.0, 2025-03-14 14:09:38.353
106.0, -17454.521948638198, -1702.107692016088, -187500.02235174447, -6841.488998113751, 23844.840984921575, 13100.44683223329, -42019.62554688758, 7190.1985633609975, -1500.0702738845675, 43296.401893663635, 11811.757005662563, 38581.32375256107, -13917.492499052585, 3089.636932568185, -53500.710845078334, -187500.02235174447, 0.13009486680990084, 0.9736836660506669, 0.10320452112494968, 192.0, 0.0, 0.0, 0.0, 0.0, 0.0, 0.0, 0.0, 0.0, 0.0, 1.741979378353257E9, 0.0, 2025-03-14 14:09:38.353
108.0, -17459.104056251534, -1715.7422561338255, -187500.02235174447, -6760.57568318554, 23930.984608052328, 13149.732428757243, -42044.123058810605, 7243.887453542645, -1488.2238493232549, 43245.68578549454, 11742.868929251306, 38513.62031860594, -13896.347748797865, 3103.495014130475, -53546.017831089244, -187500.02235174447, 0.13009486680990084, 0.9736836660506669, 0.10320452112494968, 192.0, 0.0, 0.0, 0.0, 0.0, 0.0, 0.0, 0.0, 0.0, 0.0, 1.741979378353443E9, 0.0, 2025-03-14 14:09:38.353
110.0, -17449.626916602483, -1719.0950178021214, -187500.02235174447, -6822.44531183783, 23867.460950310346, 13100.044500833095, -42049.80040190225, 7210.605706048693, -1489.1179191014671, 43313.99271654996, 11832.387665794811, 38593.70661898931, -13917.09016765239, 3107.3842176656985, -53478.20263841184, -187500.02235174447, 0.13104743340495043, 0.9758418330253334, 0.10160226056247484, 192.0, 2.0, 16.0, 15.0, 72.0, 1.5, 16.0, 0.0, 0.0, 0.0, 1.741979378353624E9, 0.0, 2025-03-14 14:09:38.353
112.0, -17454.432541660375, -1719.1620730354873, -187500.02235174447, -6745.823531845037, 23941.445224457413, 13150.715905513276, -42060.84216366317, 7261.411221195605, -1475.2374857947214, 43252.6595297646, 11759.699792826152, 38529.13242925792, -13910.317589082431, 3097.3259326608104, -53502.811909057134, -187500.02235174447, 0.13104743340495043, 0.9758418330253334, 0.10160226056247484, 192.0, 0.0, 0.0, 0.0, 0.0, 0.0, 0.0, 0.0, 0.0, 0.0, 1.741979378353811E9, 0.0, 2025-03-14 14:09:38.353
114.0, -17466.100152266044, -1715.8093113671914, -187500.02235174447, -6810.665942509883, 23882.950709217872, 13094.791840886099, -42045.866494878115, 7219.121720686165, -1482.3006370425985, 43323.00046956545, 11858.15922715178, 38613.93494772136, -13917.671313008228, 3098.75644430595, -53440.29407981564, -187500.02235174447, 0.13104743340495043, 0.9758418330253334, 0.10160226056247484, 192.0, 0.0, 0.0, 0.0, 0.0, 0.0, 0.0, 0.0, 0.0, 0.0, 1.741979378353983E9, 0.0, 2025-03-14 14:09:38.353
116.0, -17465.65311737694, -1718.7150381463812, -187500.02235174447, -6759.838075618515, 23944.21684076987, 13131.873384937453, -42065.916009654524, 7261.411221195605, -1485.2063638217885, 43229.436067275536, 11747.406333375733, 38513.91089128386, -13908.395339059274, 3098.108243716746, -53498.6768363329, -187500.02235174447, 0.13104743340495043, 0.9758418330253334, 0.10160226056247484, 192.0, 0.0, 0.0, 0.0, 0.0, 0.0, 0.0, 0.0, 0.0, 0.0, 1.74197937835417E9, 0.0, 2025-03-14 14:09:38.354
118.0, -17450.61039335852, -1714.7140758888813, -187500.02235174447, -6788.448308521308, 23903.938997261408, 13099.105727565971, -42059.54576248476, 7234.790293549335, -1468.1072793134786, 43337.88673137269, 11896.045434003525, 38640.242950945256, -13940.581851074918, 3104.344380419777, -53395.367073460475, -187500.02235174447, 0.13104743340495043, 0.9758418330253334, 0.10160226056247484, 192.0, 0.0, 0.0, 0.0, 0.0, 0.0, 0.0, 0.0, 0.0, 0.0, 1.741979378354338E9, 0.0, 2025-03-14 14:09:38.354
120.0, -17439.903907764427, -1699.8948693150128, -187500.02235174447, -6780.334625284032, 23929.621151640553, 13104.917181124352, -42058.36112002863, 7246.882587299656, -1501.9478204188133, 43219.31072703728, 11753.933042756682, 38510.7369435712, -13896.057176119946, 3091.045092468869, -53470.938321463866, -187500.02235174447, 0.1275237167024752, 0.9779209165126668, 0.09980113028123742, 192.0, 1.5, 112.0, 15.0, 80.0, 1.5, 8.0, 0.0, 0.0, 0.0, 1.741979378412442E9, 0.0, 2025-03-14 14:09:38.412
122.0, -17451.66092534792, -1708.8802705860462, -187500.02235174447, -6777.607712460484, 23921.574523636642, 13093.16016354086, -42061.93739914148, 7241.138188974642, -1501.7913582076262, 43339.4290017401, 11907.400120186821, 38642.79104981316, -13932.289353881999, 3116.302563703366, -53367.42739289134, -187500.02235174447, 0.1275237167024752, 0.9779209165126668, 0.09980113028123742, 192.0, 0.0, 0.0, 0.0, 0.0, 0.0, 0.0, 0.0, 0.0, 0.0, 1.741979378412604E9, 0.0, 2025-03-14 14:09:38.412
124.0, -17459.305221951632, -1734.0706865871773, -187500.02235174447, -6771.773907157649, 23944.708579147886, 13105.833602647019, -42071.861573679635, 7259.019584538888, -1485.4969364997073, 43215.91326188007, 11761.309118426934, 38514.045001750594, -13917.80542347496, 3100.9022117736595, -53441.05403912712, -187500.02235174447, 0.1275237167024752, 0.9779209165126668, 0.09980113028123742, 192.0, 0.0, 0.0, 0.0, 0.0, 0.0, 0.0, 0.0, 0.0, 0.0, 1.74197937841274E9, 0.0, 2025-03-14 14:09:38.412
126.0, -17459.26051846272, -1721.5984131811158, -187500.02235174447, -6756.932348839325, 23944.59682042561, 13098.993968843695, -42059.09872759566, 7257.164389749097, -1477.8749916404477, 43349.57669372281, 11925.393274473343, 38654.36925344101, -13913.335074583898, 3122.8069213398603, -53328.98239242821, -187500.02235174447, 0.1275237167024752, 0.9779209165126668, 0.09980113028123742, 192.0, 0.0, 0.0, 0.0, 0.0, 0.0, 0.0, 0.0, 0.0, 0.0, 1.741979378412879E9, 0.0, 2025-03-14 14:09:38.412
128.0, -17448.956364268823, -1711.0260380537557, -187500.02235174447, -6787.062500365079, 23935.812584854673, 13081.291387235093, -42055.723614182905, 7248.804837322812, -1484.9381428883248, 43221.948232883005, 11771.52386564301, 38518.023612263634, -13914.69853099567, 3101.7068745740503, -53414.321352758576, -187500.02235174447, 0.1275237167024752, 0.9779209165126668, 0.09980113028123742, 192.0, 0.0, 0.0, 0.0, 0.0, 0.0, 0.0, 0.0, 0.0, 0.0, 1.741979378413011E9, 0.0, 2025-03-14 14:09:38.413
130.0, -17450.744503825248, -1720.8608056140909, -187500.02235174447, -6744.258909733166, 23964.93690787994, 13094.590675186, -42052.39320425907, 7265.546293919837, -1468.442555480308, 43353.443545513575, 11927.002600074125, 38654.95039879685, -13913.782109473004, 3130.1829970101116, -53309.379912540906, -187500.02235174447, 0.1277618583512376, 0.9759604582563334, 0.09990056514061871, 192.0, 2.0, 0.0, 15.0, 56.0, 1.5, 16.0, 0.0, 0.0, 0.0, 1.741979378413146E9, 0.0, 2025-03-14 14:09:38.413
132.0, -17472.135123268978, -1724.593546938127, -187500.02235174447, -6799.802994704604, 23935.253791243293, 13063.052363759562, -42050.60506470264, 7245.630889610159, -1498.8185761950704, 43231.71594520997, 11783.347938459867, 38526.51727515665, -13901.868629678325, 3104.925525775615, -53382.76068958768, -187500.02235174447, 0.1277618583512376, 0.9759604582563334, 0.09990056514061871, 192.0, 0.0, 0.0, 0.0, 0.0, 0.0, 0.0, 0.0, 0.0, 0.0, 1.741979378413284E9, 0.0, 2025-03-14 14:09:38.413
134.0, -17462.9709080423, -1735.8141226546911, -187500.02235174447, -6709.658409316351, 23997.637510018052, 13113.12027133945, -42062.09386135267, 7299.342131536261, -1483.1723550763554, 43348.92849313361, 11931.517652454097, 38656.85029707555, -13939.911298741257, 3137.4249622136313, -53273.95239757925, -187500.02235174447, 0.1277618583512376, 0.9759604582563334, 0.09990056514061871, 192.0, 0.0, 0.0, 0.0, 0.0, 0.0, 0.0, 0.0, 0.0, 0.0, 1.74197937847227E9, 0.0, 2025-03-14 14:09:38.472
136.0, -17446.520024123194, -1707.0250757962556, -187500.02235174447, -6809.391893075931, 23928.12358476205, 13043.606346083445, -42048.99573910186, 7242.367534919684, -1499.1315006174448, 43245.88695119464, 11809.164203305747, 38552.86998186946, -13925.025036934023, 3115.408493925154, -53326.277831349114, -187500.02235174447, 0.1277618583512376, 0.9759604582563334, 0.09990056514061871, 192.0, 0.0, 0.0, 0.0, 0.0, 0.0, 0.0, 0.0, 0.0, 0.0, 1.741979378472376E9, 0.0, 2025-03-14 14:09:38.472
138.0, -17451.83973930356, -1722.4030759815068, -187500.02235174447, -6718.688514076294, 24003.85129497663, 13097.630512431922, -42058.741099684376, 7296.7940326683565, -1480.2889800416208, 43322.03934455387, 11898.615884615885, 38623.21092167031, -13891.60917897334, 3131.9040813331703, -53273.997101068155, -187500.02235174447, 0.1277618583512376, 0.9759604582563334, 0.09990056514061871, 192.0, 0.0, 0.0, 0.0, 0.0, 0.0, 0.0, 0.0, 0.0, 0.0, 1.741979378472482E9, 0.0, 2025-03-14 14:09:38.472
140.0, -17457.60648937303, -1714.9599450778896, -187500.02235174447, -6799.467718537774, 23948.48602396083, 13045.886224017886, -42050.58271295819, 7261.545331662337, -1465.1344973009227, 43255.14057339914, 11826.442101769699, 38560.24605753971, -13919.168879886733, 3106.624258354218, -53287.65401693035, -187500.02235174447, 0.1278809291756188, 0.9769802291281666, 0.10295028257030936, 192.0, 2.0, 0.0, 15.0, 72.0, 1.5, 40.0, 0.0, 0.0, 0.0, 1.741979378472581E9, 0.0, 2025-03-14 14:09:38.472
142.0, -17473.900911080946, -1721.3972474810182, -187500.02235174447, -6674.856743199438, 24051.795786833263, 13133.236841349226, -42068.28529456679, 7345.431428603105, -1493.252991825699, 43341.507713974446, 11927.114358796402, 38646.16616322591, -13920.889964209791, 3138.944880836592, -53201.04100716603, -187500.02235174447, 0.1278809291756188, 0.9769802291281666, 0.10295028257030936, 192.0, 0.0, 0.0, 0.0, 0.0, 0.0, 0.0, 0.0, 0.0, 0.0, 1.741979378472685E9, 0.0, 2025-03-14 14:09:38.472
144.0, -17442.697875821337, -1708.5449944192167, -187500.02235174447, -6807.536698286141, 23950.944715850917, 13041.527633849102, -42050.31449202472, 7266.283901486862, -1478.4337852518304, 43279.213402177505, 11865.043564444013, 38594.06424690059, -13940.246574908087, 3106.534851376397, -53213.20035614972, -187500.02235174447, 0.1278809291756188, 0.9769802291281666, 0.10295028257030936, 192.0, 0.0, 0.0, 0.0, 0.0, 0.0, 0.0, 0.0, 0.0, 0.0, 1.741979378472795E9, 0.0, 2025-03-14 14:09:38.472
146.0, -17455.55012888314, -1719.2514800133085, -187500.02235174447, -6691.151164907356, 24058.791882847774, 13127.000704646196, -42063.25615206434, 7345.409076858649, -1469.381328747431, 43305.78962633487, 11899.241733460634, 38619.92521523538, -13914.22914436211, 3126.6067178972626, -53182.064376123475, -187500.02235174447, 0.1278809291756188, 0.9769802291281666, 0.10295028257030936, 192.0, 0.0, 0.0, 0.0, 0.0, 0.0, 0.0, 0.0, 0.0, 0.0, 1.741979378472889E9, 0.0, 2025-03-14 14:09:38.472
148.0, -17450.58804161406, -1720.3467154916186, -187500.02235174447, -6797.925448170358, 23971.73183819435, 13051.742381065176, -42041.396145987055, 7286.825154641289, -1455.612654162962, 43279.973361488985, 11876.532361094041, 38602.9602411938, -13936.871461495337, 3088.4522901120536, -53173.19073357472, -187500.02235174447, 0.1278809291756188, 0.9769802291281666, 0.10295028257030936, 192.0, 0.0, 0.0, 0.0, 0.0, 0.0, 0.0, 0.0, 0.0, 0.0, 1.741979378472984E9, 0.0, 2025-03-14 14:09:38.472
150.0, -17454.29843119364, -1717.5080439457947, -187500.02235174447, -6682.255170614144, 24068.649002152564, 13125.458434278778, -42061.400957274556, 7358.529550853915, -1483.4852794987298, 43296.58070761928, 11895.933675281249, 38617.712392534304, -13917.648961263772, 3117.464854415042, -53139.61841340285, -187500.02235174447, 0.1299404645878094, 0.9764901145640833, 0.10347514128515468, 192.0, 2.0, 16.0, 15.0, 64.0, 1.5, 32.0, 0.0, 0.0, 0.0, 1.74197937853249E9, 0.0, 2025-03-14 14:09:38.532
152.0, -17441.133253709468, -1704.6781426284485, -187500.02235174447, -6798.216020848277, 23973.16234983949, 13044.187491439283, -42040.837352375675, 7291.899000632644, -1487.508593500685, 43292.53504187287, 11901.141631739334, 38620.6181193135, -13941.52062434204, 3102.4444821410757, -53123.99454402859, -187500.02235174447, 0.1299404645878094, 0.9764901145640833, 0.10347514128515468, 192.0, 0.0, 0.0, 0.0, 0.0, 0.0, 0.0, 0.0, 0.0, 0.0, 1.741979378532607E9, 0.0, 2025-03-14 14:09:38.532
154.0, -17444.44131188885, -1693.0328837672334, -187500.02235174447, -6743.767171355149, 24026.270094665302, 13071.009584785652, -42044.83831463317, 7311.657942731135, -1447.834247092515, 43251.92192219757, 11840.568404265452, 38563.95644711929, -13914.89969669577, 3116.302563703366, -53158.23741653412, -187500.02235174447, 0.1299404645878094, 0.9764901145640833, 0.10347514128515468, 192.0, 0.0, 0.0, 0.0, 0.0, 0.0, 0.0, 0.0, 0.0, 0.0, 1.741979378532716E9, 0.0, 2025-03-14 14:09:38.532
156.0, -17452.733809081772, -1689.0319215097336, -187500.02235174447, -6829.5531665746175, 23948.038989071727, 13011.732758490178, -42031.76254412682, 7260.047764783832, -1459.345395486998, 43277.78289053236, 11874.610111070886, 38590.957354421305, -13926.343789856886, 3103.8079385528495, -53141.33949772591, -187500.02235174447, 0.1299404645878094, 0.9764901145640833, 0.10347514128515468, 192.0, 0.0, 0.0, 0.0, 0.0, 0.0, 0.0, 0.0, 0.0, 0.0, 1.741979378532814E9, 0.0, 2025-03-14 14:09:38.532
158.0, -17432.036093716157, -1692.4293866669402, -187500.02235174447, -6748.885720835415, 24020.48099285138, 13065.600462627466, -42039.69741340845, 7305.108881605731, -1459.6806716538276, 43236.23099758995, 11814.036883597004, 38540.35300497449, -13917.045464163479, 3105.372560664721, -53162.95363461419, -187500.02235174447, 0.1299404645878094, 0.9764901145640833, 0.10347514128515468, 192.0, 0.0, 0.0, 0.0, 0.0, 0.0, 0.0, 0.0, 0.0, 0.0, 1.741979378532907E9, 0.0, 2025-03-14 14:09:38.532
160.0, -17430.426768115376, -1701.3253809601524, -187500.02235174447, -6822.534718815651, 23943.389826225022, 13011.553944534535, -42033.23775926087, 7257.924349060578, -1475.4386514948192, 43297.027742508384, 11884.690747820228, 38599.58512778105, -13917.80542347496, 3109.597040366774, -53125.53681439601, -187500.02235174447, 0.136, 0.978, 0.1, 192.0, 2.0, 32.0, 15.0, 72.0, 1.5, 16.0, 0.0, 0.0, 0.0, 1.741979378533012E9, 0.0, 2025-03-14 14:09:38.533
162.0, -17422.82717500057, -1684.628627852038, -187500.02235174447, -6795.846735936015, 23975.151655096015, 13023.422720840303, -42024.14059926756, 7264.33929971925, -1447.1636947588559, 43216.09207583572, 11778.654072124253, 38502.98088824521, -13895.587789486384, 3101.8633367852376, -53191.09448088342, -187500.02235174447, 0.136, 0.978, 0.1, 192.0, 0.0, 0.0, 0.0, 0.0, 0.0, 0.0, 0.0, 0.0, 0.0, 1.741979378533107E9, 0.0, 2025-03-14 14:09:38.533
164.0, -17434.047750717134, -1671.0834707121219, -187500.02235174447, -6836.169282933389, 23928.97295105135, 12985.692976199743, -42026.62164290209, 7233.583299348748, -1459.0995262979898, 43301.296925699346, 11877.404079127798, 38589.99622940973, -13918.52067929753, 3120.884671316704, -53147.06154430647, -187500.02235174447, 0.136, 0.978, 0.1, 192.0, 0.0, 0.0, 0.0, 0.0, 0.0, 0.0, 0.0, 0.0, 0.0, 1.741979378592766E9, 0.0, 2025-03-14 14:09:38.592
166.0, -17397.480296788253, -1672.0445957237002, -187500.02235174447, -6807.469643052775, 23966.79210266973, 13009.698749744744, -42039.719765152906, 7253.811628080801, -1450.5611599160625, 43208.62659318765, 11755.85529277984, 38487.42407410432, -13916.66548450774, 3102.332723418799, -53213.35681836091, -187500.02235174447, 0.136, 0.978, 0.1, 192.0, 0.0, 0.0, 0.0, 0.0, 0.0, 0.0, 0.0, 0.0, 0.0, 1.741979378592882E9, 0.0, 2025-03-14 14:09:38.592
168.0, -17399.02256715567, -1679.7782993052363, -187500.02235174447, -6851.59198660755, 23917.327692190134, 12967.94569110223, -42024.36411671211, 7214.42785435055, -1426.9130142823476, 43319.2230247525, 11885.920093765271, 38605.754209250714, -13936.737351028605, 3111.4522351565643, -53137.249128490585, -187500.02235174447, 0.136, 0.978, 0.1, 192.0, 0.0, 0.0, 0.0, 0.0, 0.0, 0.0, 0.0, 0.0, 0.0, 1.741979378592977E9, 0.0, 2025-03-14 14:09:38.592
170.0, -17415.83107898606, -1677.498421370795, -187500.02235174447, -6845.713477815804, 23932.616285397566, 12977.556941218012, -42035.65174766204, 7223.569717832771, -1429.930499783814, 43184.754930109375, 11714.638676004253, 38455.57283825551, -13903.32149306792, 3107.6747903436176, -53254.72989734768, -187500.02235174447, 0.13, 0.976, 0.098, 192.0, 2.0, 8.0, 15.0, 64.0, 1.5, 8.0, 0.0, 0.0, 0.0, 1.741979378593072E9, 0.0, 2025-03-14 14:09:38.593
172.0, -17421.463718588795, -1675.3973573919961, -187500.02235174447, -6848.3956871504415, 23906.487096129313, 12960.837836365443, -42028.40978245852, 7206.180060646541, -1436.6583748648613, 43308.18126299158, 11866.116448177869, 38594.3101160896, -13912.776280972515, 3126.6067178972626, -53163.22185554765, -187500.02235174447, 0.13, 0.976, 0.098, 192.0, 0.0, 0.0, 0.0, 0.0, 0.0, 0.0, 0.0, 0.0, 0.0, 1.74197937859318E9, 0.0, 2025-03-14 14:09:38.593
174.0, -17433.39955012793, -1684.0698342406554, -187500.02235174447, -6870.568617650106, 23895.981776235316, 12947.94087981473, -42033.014241816316, 7195.250057607896, -1440.636985377906, 43183.95026730899, 11703.708672965608, 38458.56797201252, -13910.027016404512, 3097.5494501053636, -53266.33045271999, -187500.02235174447, 0.13, 0.976, 0.098, 192.0, 0.0, 0.0, 0.0, 0.0, 0.0, 0.0, 0.0, 0.0, 0.0, 1.741979378593281E9, 0.0, 2025-03-14 14:09:38.593
176.0, -17443.25666943272, -1693.1222907450547, -187500.02235174447, -6804.832137207048, 23930.4481661854, 12995.930075160275, -42050.89563738056, 7237.897186028623, -1458.540732686607, 43321.793475364866, 11867.010517956081, 38604.27899411666, -13923.706284011161, 3115.207328225056, -53172.766050430066, -187500.02235174447, 0.13, 0.976, 0.098, 192.0, 0.0, 0.0, 0.0, 0.0, 0.0, 0.0, 0.0, 0.0, 0.0, 1.741979378593382E9, 0.0, 2025-03-14 14:09:38.593
178.0, -17414.177049896367, -1672.0892992126107, -187500.02235174447, -6843.858283026014, 23897.72521230283, 12977.199313306728, -42043.85483787714, 7218.160595674586, -1448.6836133818167, 43222.26115730538, 11743.785350773973, 38502.98088824521, -13925.382664845309, 3091.1792029356006, -53234.18864419325, -187500.02235174447, 0.13, 0.976, 0.098, 192.0, 0.0, 0.0, 0.0, 0.0, 0.0, 0.0, 0.0, 0.0, 0.0, 1.741979378593477E9, 0.0, 2025-03-14 14:09:38.593
180.0, -17414.311160363097, -1684.4721656408508, -187500.02235174447, -6795.578515002551, 23915.45014565589, 12993.314921059004, -42032.20957901592, 7225.939002745034, -1432.5903573739956, 43329.37071673521, 11866.764648767072, 38613.532616321165, -13908.909429181747, 3115.2967352028772, -53175.29179755352, -187500.02235174447, 0.13, 0.978, 0.10200000000000001, 192.0, 2.0, 8.0, 15.0, 72.0, 1.5, 24.0, 0.0, 0.0, 0.0, 1.741979378653122E9, 0.0, 2025-03-14 14:09:38.653
182.0, -17411.517192306186, -1671.3293399011302, -187500.02235174447, -6845.177035948877, 23878.837988238098, 12976.70757492871, -42034.84708486165, 7206.738854257925, -1433.9091102968587, 43224.69749745101, 11731.067208178903, 38501.95270800027, -13947.443836622697, 3090.03926396838, -53258.194417738254, -187500.02235174447, 0.13, 0.978, 0.10200000000000001, 192.0, 0.0, 0.0, 0.0, 0.0, 0.0, 0.0, 0.0, 0.0, 0.0, 1.741979378653241E9, 0.0, 2025-03-14 14:09:38.653
184.0, -17440.797977542636, -1684.3827586630296, -187500.02235174447, -6740.794389342594, 23945.625000670552, 13052.43528514329, -42044.950073355445, 7269.882532344167, -1465.022738578646, 43355.835182170296, 11882.656739074797, 38640.377061411986, -13922.834565977404, 3124.0139155404468, -53162.17132355825, -187500.02235174447, 0.13, 0.978, 0.10200000000000001, 192.0, 0.0, 0.0, 0.0, 0.0, 0.0, 0.0, 0.0, 0.0, 0.0, 1.741979378653335E9, 0.0, 2025-03-14 14:09:38.653
186.0, -17412.053634173113, -1673.7209765578482, -187500.02235174447, -6818.3996460914195, 23874.76997074723, 13011.33042708998, -42032.92483483849, 7227.771845790368, -1466.9002851128919, 43283.14730920164, 11788.71235712914, 38566.25867679819, -13943.778150532025, 3107.7641973214386, -53209.93700145924, -187500.02235174447, 0.13, 0.978, 0.10200000000000001, 192.0, 0.0, 0.0, 0.0, 0.0, 0.0, 0.0, 0.0, 0.0, 0.0, 1.741979378653435E9, 0.0, 2025-03-14 14:09:38.653
188.0, -17430.672637304382, -1682.1028807285884, -187500.02235174447, -6729.640868859395, 23925.55313414969, 13062.672384103822, -42036.16583778451, 7257.901997316122, -1439.5193981551408, 43361.78074619541, 11859.410924841277, 38632.621006085996, -13915.078510651412, 3111.787511323394, -53193.396710562316, -187500.02235174447, 0.13, 0.978, 0.10200000000000001, 192.0, 0.0, 0.0, 0.0, 0.0, 0.0, 0.0, 0.0, 0.0, 0.0, 1.74197937865354E9, 0.0, 2025-03-14 14:09:38.653
190.0, -17404.364634080488, -1671.8434300236024, -187500.02235174447, -6818.176128646866, 23838.738958685277, 13010.034025911573, -42025.3699452126, 7200.458014065983, -1442.4921801676967, 43312.65161188264, 11779.794011091473, 38579.87088917147, -13930.992952703591, 3098.979961750503, -53249.1196094894, -187500.02235174447, 0.13, 0.976, 0.106, 192.0, 2.0, 8.0, 15.0, 64.0, 1.5, 40.0, 0.0, 0.0, 0.0, 1.741979378653634E9, 0.0, 2025-03-14 14:09:38.653
192.0, -17429.242125659242, -1686.95320927539, -187500.02235174447, -6678.477725801197, 23930.291703974213, 13113.92493413984, -42055.18717231598, 7278.778526637379, -1439.4523429217747, 43402.34916238179, 11865.87057898886, 38667.66854139192, -13926.477900323618, 3130.272403987933, -53211.568678804484, -187500.02235174447, 0.13, 0.976, 0.106, 192.0, 0.0, 0.0, 0.0, 0.0, 0.0, 0.0, 0.0, 0.0, 0.0, 1.741979378653736E9, 0.0, 2025-03-14 14:09:38.653
194.0, -17403.649378257916, -1678.8395260381135, -187500.02235174447, -6788.425956776853, 23820.566990443112, 13044.992154239673, -42023.157122511526, 7203.85547922319, -1439.988784788702, 43383.26077261696, 11834.48872977361, 38658.10199476504, -13931.685856781705, 3098.488223372486, -53239.93304251826, -187500.02235174447, 0.13, 0.976, 0.106, 192.0, 0.0, 0.0, 0.0, 0.0, 0.0, 0.0, 0.0, 0.0, 0.0, 1.741979378713448E9, 0.0, 2025-03-14 14:09:38.713
196.0, -17424.034169201157, -1664.8696857535465, -187500.02235174447, -6691.464089329731, 23890.751468032777, 13113.522602739646, -42038.15514304103, 7246.7261250884685, -1444.0791540240234, 43416.74368581101, 11845.306974089977, 38676.36336998503, -13944.783979032514, 3133.267537744944, -53267.8727230874, -187500.02235174447, 0.13, 0.976, 0.106, 192.0, 0.0, 0.0, 0.0, 0.0, 0.0, 0.0, 0.0, 0.0, 0.0, 1.741979378713565E9, 0.0, 2025-03-14 14:09:38.713
198.0, -17401.10127939001, -1682.3934534065072, -187500.02235174447, -6748.2598719906655, 23819.449403220344, 13087.818096616042, -42035.96467208442, 7217.110063685187, -1441.28518596711, 43442.35878495679, 11856.371087595355, 38708.125198856025, -13943.353467387375, 3113.9332787911035, -53265.92812131979, -187500.02235174447, 0.13, 0.976, 0.106, 192.0, 0.0, 0.0, 0.0, 0.0, 0.0, 0.0, 0.0, 0.0, 0.0, 1.741979378713669E9, 0.0, 2025-03-14 14:09:38.713
200.0, -17408.365596337986, -1678.4148428934627, -187500.02235174447, -6640.569167204996, 23896.428811124424, 13168.776115033164, -42047.833448390185, 7272.810610867812, -1444.4814854242188, 43470.186706803644, 11868.73160227914, 38734.18733289091, -13927.774301502026, 3121.2199474835334, -53266.75513586464, -187500.02235174447, 0.134, 0.964, 0.106, 192.0, 2.0, 24.0, 15.0, 16.0, 1.5, 40.0, 0.0, 0.0, 0.0, 1.741979378713769E9, 0.0, 2025-03-14 14:09:38.713
202.0, -17405.795145725628, -1663.528581086228, -187500.02235174447, -6745.3764969559315, 23788.447533660834, 13097.697567665287, -42020.765485854805, 7194.221877362952, -1447.2754534811322, 43493.32076231489, 11885.87539027636, 38762.73051056034, -13934.926859727724, 3114.559127635852, -53282.46841221672, -187500.02235174447, 0.134, 0.964, 0.106, 192.0, 0.0, 0.0, 0.0, 0.0, 0.0, 0.0, 0.0, 0.0, 0.0, 1.741979378713875E9, 0.0, 2025-03-14 14:09:38.713
204.0, -17387.265549572177, -1672.5586858461722, -187500.02235174447, -6639.943318360248, 23864.801092720165, 13176.822743037075, -42038.35630874113, 7248.3130989447955, -1425.638964848395, 43473.137137071746, 11835.785130952017, 38727.414754320955, -13904.394376801774, 3126.6514213861733, -53337.25253787667, -187500.02235174447, 0.134, 0.964, 0.106, 192.0, 0.0, 0.0, 0.0, 0.0, 0.0, 0.0, 0.0, 0.0, 0.0, 1.741979378713978E9, 0.0, 2025-03-14 14:09:38.713
206.0, -17401.145982878923, -1679.7335958163258, -187500.02235174447, -6693.654560286351, 23790.079211006072, 13147.720771756265, -42020.3184509657, 7212.527956071849, -1455.769116374149, 43552.35171942136, 11918.17366101428, 38814.85477863011, -13942.638211564805, 3103.7408833194836, -53295.11949957842, -187500.02235174447, 0.134, 0.964, 0.106, 192.0, 0.0, 0.0, 0.0, 0.0, 0.0, 0.0, 0.0, 0.0, 0.0, 1.741979378714068E9, 0.0, 2025-03-14 14:09:38.714
208.0, -17400.743651478726, -1672.6480928239935, -187500.02235174447, -6607.600344133419, 23858.25203159476, 13219.13459529097, -42035.249416261846, 7264.249892741429, -1443.8556365794702, 43515.359582347824, 11851.520759048553, 38763.982208249836, -13937.765531273548, 3126.182034752612, -53342.728715268226, -187500.02235174447, 0.134, 0.964, 0.106, 192.0, 0.0, 0.0, 0.0, 0.0, 0.0, 0.0, 0.0, 0.0, 0.0, 1.741979378714166E9, 0.0, 2025-03-14 14:09:38.714
210.0, -17401.145982878923, -1682.7063778288816, -187500.02235174447, -6643.653707939829, 23802.931464067875, 13203.108394516516, -42040.27855876429, 7239.52886337386, -1442.5368836566072, 43609.43807476021, 11958.786780689572, 38872.321113624705, -13941.006534219568, 3126.9419940640923, -53285.396490740364, -187500.02235174447, 0.13, 0.972, 0.10400000000000001, 192.0, 2.0, 8.0, 15.0, 48.0, 1.5, 32.0, 0.0, 0.0, 0.0, 1.741979378772904E9, 0.0, 2025-03-14 14:09:38.772
