%OpenBCI Raw EXG Data
%Number of channels = 16
%Sample Rate = 125 Hz
%Board = OpenBCI_GUI$BoardCytonSerialDaisy
Sample Index, EXG Channel 0, EXG Channel 1, EXG Channel 2, EXG Channel 3, EXG Channel 4, EXG Channel 5, EXG Channel 6, EXG Channel 7, EXG Channel 8, EXG Channel 9, EXG Channel 10, EXG Channel 11, EXG Channel 12, EXG Channel 13, EXG Channel 14, EXG Channel 15, Accel Channel 0, Accel Channel 1, Accel Channel 2, Not Used, Digital Channel 0 (D11), Digital Channel 1 (D12), Digital Channel 2 (D13), Digital Channel 3 (D17), Not Used, Digital Channel 4 (D18), Analog Channel 0, Analog Channel 1, Analog Channel 2, Timestamp, Marker Channel, Timestamp (Formatted)
132.0, -17130.712226714164, -1438.670031865839, -187500.02235174447, -6467.90194128775, 23700.381660506926, 13652.13258887918, -41801.56192798161, 7995.978950974817, -1325.614908410896, 43851.976853844746, 12302.847183090113, 39020.02144098538, -14273.913416136911, 2525.389495538413, -52449.776524278706, -187500.02235174447, 0.0, 0.0, 0.0, 192.0, 0.0, 0.0, 0.0, 0.0, 0.0, 0.0, 0.0, 0.0, 0.0, 1.741979393253826E9, 0.0, 2025-03-14 14:09:53.253
134.0, -17139.83173845193, -1433.5961858744845, -187500.02235174447, -6570.027061704048, 23614.43920307627, 13586.709032858496, -41793.09061683305, 7942.021839859705, -1352.906388390826, 43829.55805415608, 12275.1980751989, 39000.57542330926, -14287.078593621087, 2501.0484458265837, -52454.604501081056, -187500.02235174447, 0.0, 0.0, 0.0, 192.0, 0.0, 0.0, 0.0, 0.0, 0.0, 0.0, 0.0, 0.0, 0.0, 1.741979393254011E9, 0.0, 2025-03-14 14:09:53.254
136.0, -17141.44106405271, -1434.736124841705, -187500.02235174447, -6474.965092535626, 23695.196055793294, 13644.063609130813, -41806.97105013979, 7990.972160216828, -1339.36123125091, 43843.97492932975, 12284.541104381216, 39000.1060366757, -14271.030041102176, 2517.074646601039, -52463.96988200783, -187500.02235174447, 0.0, 0.0, 0.0, 192.0, 0.0, 0.0, 0.0, 0.0, 0.0, 0.0, 0.0, 0.0, 0.0, 1.741979393254188E9, 0.0, 2025-03-14 14:09:53.254
138.0, -17138.669447740253, -1436.3230986980318, -187500.02235174447, -6554.269081863056, 23621.34589211296, 13596.186172507547, -41789.11200632001, 7956.170494099915, -1323.6926583877396, 43851.19454278881, 12301.48372667834, 39019.03796422934, -14298.522686782204, 2532.0503153860946, -52443.00394570875, -187500.02235174447, 0.0, 0.0, 0.0, 192.0, 0.0, 0.0, 0.0, 0.0, 0.0, 0.0, 0.0, 0.0, 0.0, 1.741979393254334E9, 0.0, 2025-03-14 14:09:53.254
140.0, -17124.20786907767, -1424.700191581272, -187500.02235174447, -6456.904883015738, 23701.856875640977, 13661.475618061499, -41806.434608272866, 8010.909916270962, -1348.3466325219433, 43859.21881904827, 12299.025034788256, 39021.161379952595, -14271.00768935772, 2526.037696127617, -52438.95827996234, -187500.02235174447, 0.126, 0.976, 0.058, 192.0, 1.5, 120.0, 15.0, 64.0, 0.5, 104.0, 0.0, 0.0, 0.0, 1.74197939325448E9, 0.0, 2025-03-14 14:09:53.254
142.0, -17119.20107831968, -1426.7789038156156, -187500.02235174447, -6563.835628489927, 23609.7229849962, 13589.078317770758, -41792.80004415513, 7949.844950419063, -1326.8666061003933, 43866.68430169634, 12314.760662884792, 39035.9135312931, -14284.172866841898, 2501.517832460145, -52432.297460114656, -187500.02235174447, 0.126, 0.976, 0.058, 192.0, 0.0, 0.0, 0.0, 0.0, 0.0, 0.0, 0.0, 0.0, 0.0, 1.741979393254658E9, 0.0, 2025-03-14 14:09:53.254
144.0, -17126.91243015676, -1425.706020081761, -187500.02235174447, -6470.561798877931, 23693.02793658113, 13652.981955168481, -41812.55898625362, 8005.500794112778, -1321.5692426644855, 43832.91081582437, 12268.157275695477, 38992.14881564961, -14269.197198056841, 2516.940536134307, -52465.28863493069, -187500.02235174447, 0.126, 0.976, 0.058, 192.0, 0.0, 0.0, 0.0, 0.0, 0.0, 0.0, 0.0, 0.0, 0.0, 1.741979393254822E9, 0.0, 2025-03-14 14:09:53.254
146.0, -17118.374063774834, -1436.4348574203084, -187500.02235174447, -6553.464419062665, 23617.166115899818, 13595.001530051415, -41803.30536404912, 7956.706935966842, -1339.517693462097, 43882.08465362604, 12340.621631219583, 39055.359548969216, -14279.769573184201, 2513.1183878324496, -52420.406332064435, -187500.02235174447, 0.126, 0.976, 0.058, 192.0, 0.0, 0.0, 0.0, 0.0, 0.0, 0.0, 0.0, 0.0, 0.0, 1.741979393254978E9, 0.0, 2025-03-14 14:09:53.254
148.0, -17121.324494042932, -1438.1782934878224, -187500.02235174447, -6485.626874640808, 23685.562453933057, 13639.548556750842, -41812.38017229798, 7995.509564341255, -1332.4098387253093, 43813.107170236966, 12253.248662143787, 38975.54146951932, -14265.576215455081, 2512.1349110764163, -52471.033033255706, -187500.02235174447, 0.126, 0.976, 0.058, 192.0, 0.0, 0.0, 0.0, 0.0, 0.0, 0.0, 0.0, 0.0, 0.0, 1.741979393255131E9, 0.0, 2025-03-14 14:09:53.255
0.0, -8593.575190731906, -738.9486716924515, -93750.01117587223, -3214.0243904619683, 12110.152794140911, 6694.235705642189, -20976.57572943875, 4005.007923246375, -676.7884703622426, 21923.932066432484, 6148.674326977054, 19511.776508304658, -7150.859493119657, 1253.9328639427263, -26216.785754774304, -93750.01117587223, 0.124, 0.982, 0.008, 192.0, 1.5, 112.0, 15.0, 88.0, 0.0, 32.0, 0.0, 0.0, 0.0, 1.741979393421014E9, 0.0, 2025-03-14 14:09:53.421
2.0, -17211.066748030993, -1502.3948553079194, -187500.02235174447, -6457.821304538406, 24178.329012194758, 13378.658995468497, -41960.21461012538, 8006.998360991283, -1375.2134293572224, 43997.62082071553, 12420.976152536412, 38151.23148575205, -14566.609509779157, 2581.9617607547953, -52773.18391480255, -187500.02235174447, 0.124, 0.982, 0.008, 192.0, 0.0, 0.0, 0.0, 0.0, 0.0, 0.0, 0.0, 0.0, 0.0, 1.741979393421199E9, 0.0, 2025-03-14 14:09:53.421
4.0, -17208.183372996256, -1504.4959192867184, -187500.02235174447, -6448.366516633811, 24196.635090903652, 13389.432536295955, -41960.01344442528, 8016.251983195781, -1387.4621853187307, 43906.716276015795, 12299.941456310924, 38052.25796130395, -14566.855378968166, 2562.716908778776, -52827.1186741732, -187500.02235174447, 0.124, 0.982, 0.008, 192.0, 0.0, 0.0, 0.0, 0.0, 0.0, 0.0, 0.0, 0.0, 0.0, 1.74197939342135E9, 0.0, 2025-03-14 14:09:53.421
6.0, -17225.841251115948, -1518.0634281710898, -187500.02235174447, -6418.683399997163, 24200.390183972144, 13411.359597606612, -41961.3545490926, 8034.334544460124, -1394.0559499330461, 44032.28837636571, 12450.234586028408, 38184.93791639065, -14587.284873400316, 2600.625467374977, -52735.47652190644, -187500.02235174447, 0.124, 0.982, 0.008, 192.0, 0.0, 0.0, 0.0, 0.0, 0.0, 0.0, 0.0, 0.0, 0.0, 1.741979393421521E9, 0.0, 2025-03-14 14:09:53.421
8.0, -17221.862640602903, -1520.2315473832546, -187500.02235174447, -6442.912690986716, 24192.947053068525, 13400.541353290244, -41954.8054879672, 8023.11396874356, -1393.8100807440378, 43910.761941762205, 12301.19315400042, 38060.17047884112, -14583.105097187174, 2550.401097583902, -52812.21006062151, -187500.02235174447, 0.122, 0.98, -0.018000000000000002, 192.0, 1.5, 104.0, 15.0, 80.0, 127.5, 56.0, 0.0, 0.0, 0.0, 1.74197939342164E9, 0.0, 2025-03-14 14:09:53.421
10.0, -17243.722646680195, -1540.0128412262013, -187500.02235174447, -6401.651370722219, 24209.464992220997, 13426.4693768584, -41960.39342408102, 8043.92344283145, -1401.7002465367611, 44031.43901007641, 12451.598042440182, 38190.95053564913, -14577.003070950876, 2573.3563391395023, -52718.4444926315, -187500.02235174447, 0.122, 0.98, -0.018000000000000002, 192.0, 0.0, 0.0, 0.0, 0.0, 0.0, 0.0, 0.0, 0.0, 0.0, 1.741979393421746E9, 0.0, 2025-03-14 14:09:53.421
12.0, -17245.443731003255, -1545.6231290844835, -187500.02235174447, -6465.107973230836, 24166.527291122355, 13384.425745537967, -41949.888104187026, 8005.5231458572325, -1402.3037436370546, 43905.7104475153, 12293.973540541356, 38056.348330539266, -14588.357757134172, 2547.1153911489714, -52808.27615359738, -187500.02235174447, 0.122, 0.98, -0.018000000000000002, 192.0, 0.0, 0.0, 0.0, 0.0, 0.0, 0.0, 0.0, 0.0, 0.0, 1.741979393421844E9, 0.0, 2025-03-14 14:09:53.421
14.0, -17256.351382297442, -1556.4190216563968, -187500.02235174447, -6419.0186761639925, 24192.231797245957, 13404.676426014476, -41953.64319725552, 8020.677628597931, -1400.0462174470686, 44007.030905131214, 12417.064597256733, 38156.93118058815, -14587.575446078235, 2593.383502171457, -52743.27728072134, -187500.02235174447, 0.122, 0.98, -0.018000000000000002, 192.0, 0.0, 0.0, 0.0, 0.0, 0.0, 0.0, 0.0, 0.0, 0.0, 1.741979393421951E9, 0.0, 2025-03-14 14:09:53.421
16.0, -17275.84210346247, -1550.0934779755448, -187500.02235174447, -6502.614200426841, 24136.419491341054, 13350.16052128798, -41930.55384523319, 7975.080069909105, -1367.0997461199458, 43893.48404329825, 12282.395336913507, 38039.69628092006, -14594.348024648194, 2555.944330208818, -52815.42871182308, -187500.02235174447, 0.122, 0.98, -0.018000000000000002, 192.0, 0.0, 0.0, 0.0, 0.0, 0.0, 0.0, 0.0, 0.0, 0.0, 1.741979393484409E9, 0.0, 2025-03-14 14:09:53.484
18.0, -17304.60879857645, -1587.4432429603628, -187500.02235174447, -6414.749492973029, 24203.720593895985, 13407.55980104921, -41944.52368551775, 8023.404541421479, -1431.4504184067748, 43986.199079298865, 12382.97818696239, 38119.42495339215, -14584.35679487667, 2584.554563111611, -52769.2053042895, -187500.02235174447, 0.126, 0.98, -0.022, 192.0, 1.5, 120.0, 15.0, 80.0, 127.5, 40.0, 0.0, 0.0, 0.0, 1.741979393484534E9, 0.0, 2025-03-14 14:09:53.484
20.0, -17281.340632598476, -1556.9554635233242, -187500.02235174447, -6496.020435812526, 24138.945238464505, 13361.559910960188, -41935.98531913583, 7981.450317078868, -1451.768154116649, 43910.761941762205, 12290.151392239499, 38045.41832750062, -14589.69886180149, 2560.6605482888876, -52809.19257512005, -187500.02235174447, 0.126, 0.98, -0.022, 192.0, 0.0, 0.0, 0.0, 0.0, 0.0, 0.0, 0.0, 0.0, 0.0, 1.741979393484644E9, 0.0, 2025-03-14 14:09:53.484
22.0, -17270.343574326467, -1557.1789809678771, -187500.02235174447, -6408.088673125348, 24208.414460231597, 13414.42178659699, -41934.085420857125, 8023.628058866032, -1411.646772819373, 43989.9318206229, 12378.329024115685, 38118.77675280294, -14582.993338464898, 2591.41654865939, -52761.53865594133, -187500.02235174447, 0.126, 0.98, -0.022, 192.0, 0.0, 0.0, 0.0, 0.0, 0.0, 0.0, 0.0, 0.0, 0.0, 1.741979393484749E9, 0.0, 2025-03-14 14:09:53.484
24.0, -17230.89274536285, -1530.9156812328913, -187500.02235174447, -6526.955250138671, 24111.49729627339, 13329.775730344742, -41911.46545546835, 7947.229796317792, -1409.4786536072081, 43913.10887493001, 12284.675214847948, 38038.26576927493, -14580.489943085902, 2573.199876928315, -52818.02151417989, -187500.02235174447, 0.126, 0.98, -0.022, 192.0, 0.0, 0.0, 0.0, 0.0, 0.0, 0.0, 0.0, 0.0, 0.0, 1.741979393484853E9, 0.0, 2025-03-14 14:09:53.484
26.0, -17234.111396564414, -1526.154759663911, -187500.02235174447, -6425.411275078211, 24196.992718814938, 13399.312007345201, -41925.07766784164, 8001.030445221716, -1363.4340600292755, 43977.37014023902, 12347.237747578352, 38090.3900373447, -14574.991413949898, 2629.973307844795, -52789.34422604373, -187500.02235174447, 0.126, 0.98, -0.022, 192.0, 0.0, 0.0, 0.0, 0.0, 0.0, 0.0, 0.0, 0.0, 0.0, 1.741979393484955E9, 0.0, 2025-03-14 14:09:53.484
28.0, -17213.234867243154, -1487.1509655894001, -187500.02235174447, -6520.652058202274, 24116.77230796484, 13342.717390384363, -41911.57721419063, 7950.00141263025, -1411.3338483969985, 43933.068982728604, 12302.131927267543, 38052.14620258167, -14579.908797730066, 2584.1075282225047, -52813.48411005546, -187500.02235174447, 0.126, 0.974, -0.024, 192.0, 1.5, 120.0, 15.0, 56.0, 127.5, 32.0, 0.0, 0.0, 0.0, 1.741979393485058E9, 0.0, 2025-03-14 14:09:53.485
30.0, -17197.946274035727, -1509.480358300252, -187500.02235174447, -6407.351065558322, 24209.017957331893, 13418.08747268766, -41922.551920718186, 8014.888526784007, -1356.929702392781, 43969.345863979564, 12337.760607929304, 38076.15197612667, -14567.280062112817, 2616.584612916066, -52792.29465631183, -187500.02235174447, 0.126, 0.974, -0.024, 192.0, 0.0, 0.0, 0.0, 0.0, 0.0, 0.0, 0.0, 0.0, 0.0, 1.741979393540586E9, 0.0, 2025-03-14 14:09:53.540
32.0, -17199.712061847695, -1484.6252184659504, -187500.02235174447, -6491.885363088294, 24127.009406925372, 13367.840751152129, -41906.07868505463, 7971.034404162694, -1411.1773861858114, 43975.33613149359, 12342.58858473165, 38086.85846172076, -14589.363585634661, 2600.267839463692, -52772.84863863572, -187500.02235174447, 0.126, 0.974, -0.024, 192.0, 0.0, 0.0, 0.0, 0.0, 0.0, 0.0, 0.0, 0.0, 0.0, 1.741979393540773E9, 0.0, 2025-03-14 14:09:53.540
34.0, -17168.97841322165, -1476.0868520840231, -187500.02235174447, -6392.531858984454, 24217.019881846893, 13437.287621174768, -41911.26428976826, 8022.711637343364, -1397.5428220680742, 43973.2797710037, 12326.67414267947, 38069.02176964543, -14561.35684983216, 2617.0316478051723, -52788.606618476704, -187500.02235174447, 0.126, 0.974, -0.024, 192.0, 0.0, 0.0, 0.0, 0.0, 0.0, 0.0, 0.0, 0.0, 0.0, 1.741979393540879E9, 0.0, 2025-03-14 14:09:53.540
36.0, -17131.136909858815, -1445.1520377578781, -187500.02235174447, -6482.452926928155, 24131.412700583067, 13377.720222201375, -41892.980562803816, 7969.559189028644, -1382.187173627278, 44007.589698742595, 12372.0705356682, 38113.680555067134, -14562.139160888097, 2605.9898860442504, -52752.77677211485, -187500.02235174447, 0.126, 0.974, -0.024, 192.0, 0.0, 0.0, 0.0, 0.0, 0.0, 0.0, 0.0, 0.0, 0.0, 1.741979393540985E9, 0.0, 2025-03-14 14:09:53.540
38.0, -17125.459566767164, -1423.9849357587022, -187500.02235174447, -6390.207277561102, 24217.668082436096, 13443.23318519988, -41901.7424466303, 8022.242250709803, -1359.2766355605884, 43972.60921867004, 12320.90739261, 38064.752586454466, -14545.174186846518, 2624.5641856866105, -52792.98756038995, -187500.02235174447, 0.128, 0.98, -0.02, 192.0, 2.0, 0.0, 15.0, 80.0, 127.5, 48.0, 0.0, 0.0, 0.0, 1.741979393541093E9, 0.0, 2025-03-14 14:09:53.541
40.0, -17126.86772666785, -1412.4290838753086, -187500.02235174447, -6468.214865710123, 24137.984113452927, 13387.018547894782, -41883.01168477675, 7973.269578608225, -1345.0162225981026, 44028.0415449192, 12389.728413787892, 38126.01871800646, -14560.060448653752, 2632.789627646164, -52752.57560641475, -187500.02235174447, 0.128, 0.98, -0.02, 192.0, 0.0, 0.0, 0.0, 0.0, 0.0, 0.0, 0.0, 0.0, 0.0, 1.741979393541199E9, 0.0, 2025-03-14 14:09:53.541
42.0, -17083.23712149109, -1401.9684674702248, -187500.02235174447, -6410.055626637415, 24200.189018272045, 13421.79786226724, -41875.65796085095, 7999.689340554398, -1331.9628038362032, 43963.84733484356, 12302.981293556846, 38044.65836818914, -14544.6824484685, 2642.490284739767, -52815.76398798991, -187500.02235174447, 0.128, 0.98, -0.02, 192.0, 0.0, 0.0, 0.0, 0.0, 0.0, 0.0, 0.0, 0.0, 0.0, 1.741979393541302E9, 0.0, 2025-03-14 14:09:53.541
44.0, -17087.461601193143, -1400.0462174470686, -187500.02235174447, -6459.408278394732, 24147.97534322445, 13385.811553694195, -41863.29744616717, 7968.553360528155, -1342.937510363759, 44031.796637987696, 12391.605960322138, 38120.58724410382, -14533.819500663221, 2636.745886414753, -52773.58624620274, -187500.02235174447, 0.128, 0.98, -0.02, 192.0, 0.0, 0.0, 0.0, 0.0, 0.0, 0.0, 0.0, 0.0, 0.0, 1.741979393541403E9, 0.0, 2025-03-14 14:09:53.541
46.0, -17087.171028515226, -1377.158031124834, -187500.02235174447, -6405.004132390515, 24205.08405030776, 13429.308048404224, -41870.3829491595, 8001.164555688448, -1346.0220510985914, 43965.76958486671, 12306.646979647516, 38049.17342056912, -14545.867090924632, 2630.643860178454, -52812.07595015478, -187500.02235174447, 0.127, 0.98, -0.017, 192.0, 1.5, 120.0, 15.0, 80.0, 127.5, 72.0, 0.0, 0.0, 0.0, 1.741979393600839E9, 0.0, 2025-03-14 14:09:53.600
48.0, -17095.888208852793, -1387.3951300853646, -187500.02235174447, -6414.302458083923, 24175.177416226557, 13420.903792489027, -41869.64534159248, 7995.442509107889, -1335.4943794601418, 44068.72171982786, 12434.02957129831, 38161.31212250139, -14541.888480411588, 2664.6632152394313, -52738.51635915237, -187500.02235174447, 0.127, 0.98, -0.017, 192.0, 0.0, 0.0, 0.0, 0.0, 0.0, 0.0, 0.0, 0.0, 0.0, 1.741979393600959E9, 0.0, 2025-03-14 14:09:53.600
50.0, -17096.06702280844, -1384.3999963283536, -187500.02235174447, -6382.697091424119, 24212.214256789, 13451.23510971488, -41877.20023121837, 8020.722332086842, -1329.8170363684937, 43980.90171586296, 12321.488537965839, 38069.31234232335, -14539.899175155066, 2641.7526771727416, -52796.27326682488, -187500.02235174447, 0.127, 0.98, -0.017, 192.0, 0.0, 0.0, 0.0, 0.0, 0.0, 0.0, 0.0, 0.0, 0.0, 1.741979393601064E9, 0.0, 2025-03-14 14:09:53.601
52.0, -17082.343051712876, -1344.8597603869152, -187500.02235174447, -6412.670780738686, 24171.847006302716, 13416.880478487074, -41855.429632118896, 7988.781689260208, -1315.1095885169016, 44092.883955584046, 12451.106304062165, 38188.29067805895, -14532.545451229269, 2648.324090042602, -52719.45032113199, -187500.02235174447, 0.127, 0.98, -0.017, 192.0, 0.0, 0.0, 0.0, 0.0, 0.0, 0.0, 0.0, 0.0, 0.0, 1.741979393601178E9, 0.0, 2025-03-14 14:09:53.601
54.0, -17062.964089270128, -1343.0269173415802, -187500.02235174447, -6434.508435071521, 24163.48745387643, 13397.970902677884, -41849.17114367141, 7966.117020382527, -1344.3233185199879, 43964.20496275485, 12284.921084036958, 38041.327958265305, -14537.21696582043, 2634.5554154581328, -52827.94568871805, -187500.02235174447, 0.127, 0.98, -0.017, 192.0, 0.0, 0.0, 0.0, 0.0, 0.0, 0.0, 0.0, 0.0, 0.0, 1.741979393601277E9, 0.0, 2025-03-14 14:09:53.601
56.0, -17088.71329888264, -1367.8820571758815, -187500.02235174447, -6390.45314675011, 24183.760486097395, 13427.18463268097, -41852.769774528715, 7991.91093348395, -1310.7286466036614, 44090.648781138516, 12434.901289332067, 38169.604619694306, -14540.234451321896, 2671.3687385760236, -52749.178141257544, -187500.02235174447, 0.1255, 0.984, -0.0155, 192.0, 1.5, 112.0, 15.0, 112.0, 127.5, 72.0, 0.0, 0.0, 0.0, 1.741979393601375E9, 0.0, 2025-03-14 14:09:53.601
58.0, -17074.788162086985, -1336.9248911052814, -187500.02235174447, -6416.180004618169, 24172.137578980637, 13416.65696104252, -41849.61817856052, 7979.908046711451, -1332.1863212807561, 43993.821024158126, 12314.447738462417, 38071.74868246898, -14527.985695360387, 2656.929511657895, -52803.62699075067, -187500.02235174447, 0.1255, 0.984, -0.0155, 192.0, 0.0, 0.0, 0.0, 0.0, 0.0, 0.0, 0.0, 0.0, 0.0, 1.741979393601487E9, 0.0, 2025-03-14 14:09:53.601
60.0, -17080.085525522893, -1328.967670079192, -187500.02235174447, -6373.510524452988, 24195.1598757696, 13441.601507854642, -41849.55112332715, 7996.805965519663, -1311.9356408042481, 44113.67107792748, 12457.364792509652, 38198.84070144185, -14528.6785994385, 2691.0159219522384, -52722.691324078005, -187500.02235174447, 0.1255, 0.984, -0.0155, 192.0, 0.0, 0.0, 0.0, 0.0, 0.0, 0.0, 0.0, 0.0, 0.0, 1.74197939366105E9, 0.0, 2025-03-14 14:09:53.661
62.0, -17072.105952752347, -1318.1270740183681, -187500.02235174447, -6403.215992834091, 24178.88780580614, 13439.746313064852, -41849.57347507161, 7992.827355006619, -1309.3428384474323, 44009.17667259892, 12327.434101990952, 38091.12764491173, -14525.325837770206, 2662.5621512606326, -52789.187763832546, -187500.02235174447, 0.1255, 0.984, -0.0155, 192.0, 0.0, 0.0, 0.0, 0.0, 0.0, 0.0, 0.0, 0.0, 0.0, 1.741979393661172E9, 0.0, 2025-03-14 14:09:53.661
64.0, -17082.4324586907, -1309.7898733365387, -187500.02235174447, -6345.213215972569, 24213.577713200775, 13470.636423902086, -41843.67261453541, 8010.619343593043, -1300.8715272988711, 44126.165703078, 12466.126676336131, 38208.519006791, -14513.077081808697, 2720.833149055618, -52711.2919344058, -187500.02235174447, 0.1255, 0.984, -0.0155, 192.0, 0.0, 0.0, 0.0, 0.0, 0.0, 0.0, 0.0, 0.0, 0.0, 1.741979393661275E9, 0.0, 2025-03-14 14:09:53.661
66.0, -17042.04285645996, -1307.8005680800163, -187500.02235174447, -6426.618269278797, 24157.11720670667, 13419.719150032897, -41825.165370126415, 7965.357061071046, -1299.2174982091783, 44013.02117264523, 12332.73146542686, 38091.97701120103, -14534.40064601906, 2672.2404566097807, -52793.34518830123, -187500.02235174447, 0.11975, 0.988, -0.012750000000000001, 192.0, 1.5, 72.0, 15.5, 0.0, 127.5, 88.0, 0.0, 0.0, 0.0, 1.741979393661379E9, 0.0, 2025-03-14 14:09:53.661
68.0, -17035.203222656637, -1283.0124834790806, -187500.02235174447, -6358.177227756647, 24208.995605587435, 13454.029077771793, -41823.60074801454, 7992.872058495529, -1282.3195794009662, 44111.458255226404, 12448.759370894359, 38191.352867049325, -14509.567857929214, 2720.5202246332437, -52738.136379496624, -187500.02235174447, 0.11975, 0.988, -0.012750000000000001, 192.0, 0.0, 0.0, 0.0, 0.0, 0.0, 0.0, 0.0, 0.0, 0.0, 1.74197939366149E9, 0.0, 2025-03-14 14:09:53.661
70.0, -17046.647315817754, -1280.129108444346, -187500.02235174447, -6430.015734436004, 24151.01518047037, 13413.974751707883, -41821.67849799139, 7958.316261567625, -1318.037667040547, 44025.89577745149, 12346.567195244694, 38110.23838642101, -14514.172317287008, 2685.539744560688, -52796.96617090299, -187500.02235174447, 0.11975, 0.988, -0.012750000000000001, 192.0, 0.0, 0.0, 0.0, 0.0, 0.0, 0.0, 0.0, 0.0, 0.0, 1.741979393661589E9, 0.0, 2025-03-14 14:09:53.661
72.0, -17064.484007893087, -1301.3185621879772, -187500.02235174447, -6311.037398700404, 24241.003303647438, 13498.397290515577, -41832.8767219635, 8029.551271146688, -1299.329256931455, 44117.53792971825, 12448.93818485, 38201.61231775431, -14501.029491547286, 2710.998381495283, -52736.258832962376, -187500.02235174447, 0.11975, 0.988, -0.012750000000000001, 192.0, 0.0, 0.0, 0.0, 0.0, 0.0, 0.0, 0.0, 0.0, 0.0, 1.741979393661696E9, 0.0, 2025-03-14 14:09:53.661
74.0, -17041.729932037586, -1285.784099791539, -187500.02235174447, -6410.368551059789, 24158.055979973793, 13438.002876997338, -41809.34033505205, 7976.510581554245, -1303.5313848890526, 44067.44767039391, 12395.361053390629, 38163.100262057815, -14517.59213418867, 2689.160727162448, -52752.128571525645, -187500.02235174447, 0.11975, 0.988, -0.012750000000000001, 192.0, 0.0, 0.0, 0.0, 0.0, 0.0, 0.0, 0.0, 0.0, 0.0, 1.741979393661809E9, 0.0, 2025-03-14 14:09:53.661
76.0, -17041.819339015405, -1288.712178315184, -187500.02235174447, -6308.399892854678, 24236.46589952301, 13495.759784669852, -41809.22857632978, 8018.688323341409, -1270.5402100730194, 44098.65070565352, 12429.089835773688, 38190.168224593195, -14501.945913069954, 2727.7174863478526, -52747.367649956665, -187500.02235174447, 0.112875, 0.991, -0.0063750000000000005, 192.0, 1.5, 40.0, 15.5, 8.0, 0.0, 0.0, 0.0, 0.0, 0.0, 1.741979393721346E9, 0.0, 2025-03-14 14:09:53.721
78.0, -17032.208088899624, -1303.419626166776, -187500.02235174447, -6404.512394012499, 24149.40585486959, 13431.811443783217, -41800.779616925676, 7963.032479647694, -1308.1805477357564, 44068.58760936113, 12405.285227928785, 38175.617238952786, -14515.893401610067, 2699.4648813563444, -52757.76121112838, -187500.02235174447, 0.112875, 0.991, -0.0063750000000000005, 192.0, 0.0, 0.0, 0.0, 0.0, 0.0, 0.0, 0.0, 0.0, 0.0, 1.741979393721463E9, 0.0, 2025-03-14 14:09:53.721
80.0, -17013.902010190726, -1281.7831375340388, -187500.02235174447, -6306.365884109246, 24233.001379132438, 13494.396328258077, -41815.19649209935, 8014.77676806173, -1280.3526258888992, 44089.173566004465, 12426.02764678331, 38187.35190479182, -14496.939122311966, 2721.704867089375, -52752.91088258158, -187500.02235174447, 0.112875, 0.991, -0.0063750000000000005, 192.0, 0.0, 0.0, 0.0, 0.0, 0.0, 0.0, 0.0, 0.0, 0.0, 1.741979393721571E9, 0.0, 2025-03-14 14:09:53.721
82.0, -16990.879713401762, -1261.040718679514, -187500.02235174447, -6422.013809921004, 24125.10950864667, 13406.263399870802, -41785.28985801814, 7934.131674066982, -1281.6043235783964, 44078.556487388196, 12422.607829881648, 38187.35190479182, -14513.702930653446, 2711.7136373178528, -52758.23059776195, -187500.02235174447, 0.112875, 0.991, -0.0063750000000000005, 192.0, 0.0, 0.0, 0.0, 0.0, 0.0, 0.0, 0.0, 0.0, 0.0, 1.741979393721673E9, 0.0, 2025-03-14 14:09:53.721
84.0, -16985.001204610016, -1254.0446226650029, -187500.02235174447, -6306.991732953994, 24223.658349950118, 13489.590703200187, -41803.014791371206, 8002.77388128923, -1270.517858328564, 44068.36409191658, 12396.523344102305, 38169.112881316294, -14502.370596214605, 2720.9225560334394, -52781.49876373992, -187500.02235174447, 0.112875, 0.991, -0.0063750000000000005, 192.0, 0.0, 0.0, 0.0, 0.0, 0.0, 0.0, 0.0, 0.0, 0.0, 1.741979393721786E9, 0.0, 2025-03-14 14:09:53.721
86.0, -16999.351024550324, -1245.3497940718883, -187500.02235174447, -6419.353952330823, 24121.980264422928, 13408.99031269435, -41773.75635787921, 7925.883880362974, -1259.1855238897233, 44098.51659518678, 12437.516443433338, 38215.89508246125, -14498.928427568488, 2737.7534196082856, -52750.96628081397, -187500.02235174447, 0.1114375, 0.9895, 0.0028125, 192.0, 1.5, 56.0, 15.0, 112.0, 0.0, 48.0, 0.0, 0.0, 0.0, 1.741979393721891E9, 0.0, 2025-03-14 14:09:53.721
88.0, -16993.89719890323, -1266.5168960710641, -187500.02235174447, -6349.9294340526385, 24193.483494935455, 13463.394458698567, -41787.16740455239, 7962.294872080669, -1293.16017546179, 44043.441896848904, 12368.15898038852, 38152.1032037858, -14493.809878088223, 2736.702887618886, -52804.67752274007, -187500.02235174447, 0.1114375, 0.9895, 0.0028125, 192.0, 0.0, 0.0, 0.0, 0.0, 0.0, 0.0, 0.0, 0.0, 0.0, 1.741979393721995E9, 0.0, 2025-03-14 14:09:53.721
90.0, -16977.558073706397, -1251.1612476302682, -187500.02235174447, -6413.788367961451, 24125.69065400251, 13422.066083200703, -41772.70582588981, 7922.821691372596, -1281.9843032341366, 44098.963630075894, 12447.373562738128, 38223.60643429833, -14502.68352063698, 2718.2850501877133, -52761.58335943024, -187500.02235174447, 0.1114375, 0.9895, 0.0028125, 192.0, 0.0, 0.0, 0.0, 0.0, 0.0, 0.0, 0.0, 0.0, 0.0, 1.741979393780733E9, 0.0, 2025-03-14 14:09:53.780
92.0, -16965.957518334093, -1259.520800056553, -187500.02235174447, -6332.293907677402, 24194.60108215822, 13479.733583895397, -41780.2607155157, 7968.262787850236, -1281.6937305562176, 44042.45842009287, 12375.06566942521, 38165.31308475889, -14495.39685194455, 2720.475521144333, -52798.50844127041, -187500.02235174447, 0.1114375, 0.9895, 0.0028125, 192.0, 0.0, 0.0, 0.0, 0.0, 0.0, 0.0, 0.0, 0.0, 0.0, 1.741979393780864E9, 0.0, 2025-03-14 14:09:53.780
94.0, -16958.69320138612, -1258.58202678943, -187500.02235174447, -6412.626077249775, 24113.218380596445, 13416.74636802034, -41765.06152928609, 7908.449519687834, -1272.7530327740947, 44112.84406338264, 12464.60675771317, 38250.76380381153, -14502.214134003418, 2719.2014717103807, -52751.86035059218, -187500.02235174447, 0.1114375, 0.9895, 0.0028125, 192.0, 0.0, 0.0, 0.0, 0.0, 0.0, 0.0, 0.0, 0.0, 0.0, 1.741979393780972E9, 0.0, 2025-03-14 14:09:53.780
96.0, -16976.79811439492, -1247.070878394947, -187500.02235174447, -6335.736076323518, 24184.989832042436, 13483.488676963887, -41774.51631719069, 7965.804095960152, -1268.3720908608545, 44020.75487622677, 12352.982145903366, 38154.2042677646, -14502.124727025597, 2706.5503843486767, -52818.84852872474, -187500.02235174447, 0.10871875, 0.98275, 0.01140625, 192.0, 1.5, 40.0, 15.0, 64.0, 0.0, 80.0, 0.0, 0.0, 0.0, 1.741979393781084E9, 0.0, 2025-03-14 14:09:53.781
98.0, -16992.578445980365, -1240.1865411027125, -187500.02235174447, -6354.869169577261, 24145.6507618011, 13468.200083756457, -41763.25103798521, 7953.3988777874565, -1264.6840530257289, 44143.287139330765, 12506.270409377863, 38297.50130146758, -14510.886610852076, 2710.350180906079, -52714.57764084073, -187500.02235174447, 0.10871875, 0.98275, 0.01140625, 192.0, 0.0, 0.0, 0.0, 0.0, 0.0, 0.0, 0.0, 0.0, 0.0, 1.741979393781191E9, 0.0, 2025-03-14 14:09:53.781
100.0, -17003.061414129905, -1228.4295235192208, -187500.02235174447, -6335.289041434413, 24169.70123883501, 13489.791868900284, -41768.74956712122, 7968.374546572512, -1278.3633206323768, 44020.57606227113, 12365.253253609331, 38175.30431453041, -14505.701006138446, 2731.8525590720847, -52791.422938278076, -187500.02235174447, 0.10871875, 0.98275, 0.01140625, 192.0, 0.0, 0.0, 0.0, 0.0, 0.0, 0.0, 0.0, 0.0, 0.0, 1.741979393781291E9, 0.0, 2025-03-14 14:09:53.781
102.0, -17020.674588760685, -1235.6044334893745, -187500.02235174447, -6342.955689782583, 24142.677979788543, 13476.738450138386, -41764.16745950788, 7952.258938820236, -1279.3020938994998, 44133.430020025975, 12508.9526187125, 38305.41381900475, -14505.030453804786, 2714.6640675859535, -52709.99553322739, -187500.02235174447, 0.10871875, 0.98275, 0.01140625, 192.0, 0.0, 0.0, 0.0, 0.0, 0.0, 0.0, 0.0, 0.0, 0.0, 1.741979393781397E9, 0.0, 2025-03-14 14:09:53.781
104.0, -17023.89323996225, -1220.5840612154082, -187500.02235174447, -6365.598006915809, 24132.619694783654, 13470.815237857729, -41764.88271533045, 7939.294927036158, -1288.8239370374606, 44011.3894953, 12362.526340785784, 38189.542375748446, -14499.800145602245, 2718.128587976526, -52791.40058653362, -187500.02235174447, 0.10871875, 0.98275, 0.01140625, 192.0, 0.0, 0.0, 0.0, 0.0, 0.0, 0.0, 0.0, 0.0, 0.0, 1.741979393781499E9, 0.0, 2025-03-14 14:09:53.781
106.0, -17005.922437420184, -1215.778436157517, -187500.02235174447, -6327.86826227525, 24140.82278499875, 13502.778232428818, -41769.91185783289, 7960.394973801968, -1288.935695759737, 44126.8139036672, 12497.03913891782, 38321.305909312476, -14496.179163000485, 2722.8895095455064, -52721.55138511078, -187500.02235174447, 0.105359375, 0.971375, 0.018703125, 192.0, 1.5, 24.0, 15.0, 0.0, 0.0, 104.0, 0.0, 0.0, 0.0, 1.741979393840608E9, 0.0, 2025-03-14 14:09:53.840
108.0, -16989.426850012165, -1221.8357589049053, -187500.02235174447, -6377.422079732666, 24106.19993283748, 13477.409002472044, -41760.94880830632, 7936.836235146075, -1263.67822452524, 44008.72963770982, 12360.894663440546, 38223.98641395407, -14507.980884072887, 2693.9440004758835, -52787.53373474285, -187500.02235174447, 0.105359375, 0.971375, 0.018703125, 192.0, 0.0, 0.0, 0.0, 0.0, 0.0, 0.0, 0.0, 0.0, 0.0, 1.741979393840786E9, 0.0, 2025-03-14 14:09:53.840
110.0, -17006.771803709486, -1243.427544048732, -187500.02235174447, -6328.024724486438, 24126.808241225273, 13508.05324412027, -41765.84384034203, 7962.898369180963, -1301.4079691657985, 44111.547662204226, 12490.199505114497, 38351.793688749516, -14490.68063386448, 2733.9759747953385, -52718.6903618205, -187500.02235174447, 0.105359375, 0.971375, 0.018703125, 192.0, 0.0, 0.0, 0.0, 0.0, 0.0, 0.0, 0.0, 0.0, 0.0, 1.741979393840891E9, 0.0, 2025-03-14 14:09:53.840
112.0, -16981.581387708353, -1233.4586660216648, -187500.02235174447, -6370.895370351716, 24087.62563319512, 13495.580970714209, -41750.912875045884, 7952.124828353504, -1293.4954516286198, 44006.963849897846, 12368.963643188912, 38267.03587377499, -14516.005160332343, 2717.1451112204923, -52766.657205421594, -187500.02235174447, 0.105359375, 0.971375, 0.018703125, 192.0, 0.0, 0.0, 0.0, 0.0, 0.0, 0.0, 0.0, 0.0, 0.0, 1.741979393840988E9, 0.0, 2025-03-14 14:09:53.840
114.0, -17010.057510144416, -1252.7035179976842, -187500.02235174447, -6298.609828783254, 24121.287360344813, 13542.743151514907, -41754.466802414274, 7986.144183414482, -1277.648064809807, 44110.6088889371, 12495.51922029486, 38393.99378228113, -14526.197555803963, 2732.6348701280203, -52690.61657078464, -187500.02235174447, 0.105359375, 0.971375, 0.018703125, 192.0, 0.0, 0.0, 0.0, 0.0, 0.0, 0.0, 0.0, 0.0, 0.0, 1.741979393841094E9, 0.0, 2025-03-14 14:09:53.841
116.0, -17001.94382690714, -1225.0097066175588, -187500.02235174447, -6388.642655449231, 24048.644190865063, 13493.323444524223, -41744.94495927632, 7941.351287526047, -1310.9968675371251, 44010.89775692198, 12384.945140474456, 38315.38269703182, -14516.228677776895, 2712.6300588405206, -52739.85746381968, -187500.02235174447, 0.10467968750000001, 0.9666874999999999, 0.0283515625, 192.0, 1.5, 32.0, 15.0, 8.0, 0.5, 24.0, 0.0, 0.0, 0.0, 1.741979393841196E9, 0.0, 2025-03-14 14:09:53.841
118.0, -17007.531763020965, -1259.8560762233826, -187500.02235174447, -6306.701160276075, 24097.77332517783, 13545.358305616177, -41747.78363082214, 7980.3997850894675, -1312.6285448823626, 44091.967534061376, 12477.280196819329, 38408.187140010254, -14508.517325939814, 2720.721390333342, -52695.846878987184, -187500.02235174447, 0.10467968750000001, 0.9666874999999999, 0.0283515625, 192.0, 0.0, 0.0, 0.0, 0.0, 0.0, 0.0, 0.0, 0.0, 0.0, 1.741979393841313E9, 0.0, 2025-03-14 14:09:53.841
120.0, -16992.22081806908, -1230.5082357535643, -187500.02235174447, -6414.7941964619395, 24006.019414188795, 13481.052336818258, -41733.433810881834, 7920.13948203796, -1337.6177951833959, 44004.236937074296, 12378.329024115685, 38336.08041239744, -14495.955645555932, 2675.8614392115405, -52748.351126712696, -187500.02235174447, 0.10467968750000001, 0.9666874999999999, 0.0283515625, 192.0, 0.0, 0.0, 0.0, 0.0, 0.0, 0.0, 0.0, 0.0, 0.0, 1.741979393900901E9, 0.0, 2025-03-14 14:09:53.900
122.0, -16983.03425109795, -1240.8347416919162, -187500.02235174447, -6314.054884201871, 24076.293298756278, 13556.176549932547, -41741.972177263764, 7979.662177522443, -1299.485719142642, 44080.38933043353, 12459.510559977361, 38416.591395925454, -14483.259854705317, 2700.58246857911, -52703.0888441907, -187500.02235174447, 0.10467968750000001, 0.9666874999999999, 0.0283515625, 192.0, 0.0, 0.0, 0.0, 0.0, 0.0, 0.0, 0.0, 0.0, 0.0, 1.741979393901015E9, 0.0, 2025-03-14 14:09:53.901
124.0, -16993.561922736397, -1214.1467588122796, -187500.02235174447, -6431.289783869956, 23972.64825971702, 13478.034851316794, -41725.476589855745, 7912.115205778505, -1296.8035098080052, 44019.34671632609, 12390.823649266202, 38369.49627035812, -14514.574648687203, 2671.86047695404, -52738.40460043008, -187500.02235174447, 0.10467968750000001, 0.9666874999999999, 0.0283515625, 192.0, 0.0, 0.0, 0.0, 0.0, 0.0, 0.0, 0.0, 0.0, 0.0, 1.741979393901124E9, 0.0, 2025-03-14 14:09:53.901
126.0, -17001.005053640016, -1216.5160437245422, -187500.02235174447, -6346.844893317806, 24028.52762085529, 13525.219383861946, -41731.332746903034, 7952.370697542513, -1288.2204399371672, 44054.19308593191, 12427.748731106369, 38405.37082020889, -14488.423107674493, 2677.29195085668, -52730.84971080419, -187500.02235174447, 0.10433984375000001, 0.96634375, 0.04017578125, 192.0, 1.5, 32.0, 15.0, 24.0, 0.5, 80.0, 0.0, 0.0, 0.0, 1.741979393901225E9, 0.0, 2025-03-14 14:09:53.901
128.0, -16961.308355487392, -1224.9202996397376, -187500.02235174447, -6449.9534904901375, 23932.63863714202, 13462.723906364907, -41719.44161885281, 7896.044301515139, -1305.1183587453793, 44011.54595751118, 12387.157963175532, 38380.89566003033, -14507.310331739227, 2649.0840493540823, -52757.67180415056, -187500.02235174447, 0.10433984375000001, 0.96634375, 0.04017578125, 192.0, 0.0, 0.0, 0.0, 0.0, 0.0, 0.0, 0.0, 0.0, 0.0, 1.741979393901341E9, 0.0, 2025-03-14 14:09:53.901
130.0, -16988.644538956232, -1233.0563346214694, -187500.02235174447, -6342.642765360209, 24009.886265979563, 13539.189224146514, -41736.585406850034, 7956.952805155851, -1313.813187338494, 44030.030850175724, 12410.917867531523, 38411.02581155608, -14490.144191997551, 2633.169607301904, -52740.170388242055, -187500.02235174447, 0.10433984375000001, 0.96634375, 0.04017578125, 192.0, 0.0, 0.0, 0.0, 0.0, 0.0, 0.0, 0.0, 0.0, 0.0, 1.741979393901441E9, 0.0, 2025-03-14 14:09:53.901
132.0, -17019.020559670993, -1215.6443256907853, -187500.02235174447, -6436.006001950026, 23918.042948012706, 13483.868656619628, -41721.4979793427, 7907.957781309818, -1317.7694461070832, 44028.220358874845, 12416.461100156439, 38428.86250363142, -14498.973131057399, 2581.5370776101445, -52735.16359748407, -187500.02235174447, 0.10433984375000001, 0.96634375, 0.04017578125, 192.0, 0.0, 0.0, 0.0, 0.0, 0.0, 0.0, 0.0, 0.0, 0.0, 1.741979393901542E9, 0.0, 2025-03-14 14:09:53.901
134.0, -17026.32958010788, -1242.9805091596259, -187500.02235174447, -6327.77885529743, 23995.84937046163, 13557.07061971076, -41736.07131672756, 7968.754526228253, -1271.613093806874, 44017.69268723639, 12402.111280216131, 38426.18029429678, -14476.733145324368, 2593.383502171457, -52738.73987659692, -187500.02235174447, 0.10433984375000001, 0.96634375, 0.04017578125, 192.0, 0.0, 0.0, 0.0, 0.0, 0.0, 0.0, 0.0, 0.0, 0.0, 1.741979393901643E9, 0.0, 2025-03-14 14:09:53.901
136.0, -17032.029274943983, -1224.2720990505338, -187500.02235174447, -6426.417103578699, 23898.060488469662, 13488.62957818861, -41711.03736293762, 7908.360112710013, -1355.901522147837, 44046.41467886147, 12456.090743075698, 38482.931373468804, -14507.153869528041, 2524.048390871095, -52701.56892556774, -187500.02235174447, 0.105169921875, 0.9661718749999999, 0.052087890625, 192.0, 1.5, 40.0, 15.0, 24.0, 1.0, 0.0, 0.0, 0.0, 0.0, 1.741979393961074E9, 0.0, 2025-03-14 14:09:53.961
138.0, -17024.65319927373, -1220.651116448774, -187500.02235174447, -6330.975154754538, 23979.420838286977, 13564.759619803384, -41732.00329923669, 7970.117982640027, -1313.2767454715665, 43991.42938750141, 12390.622483566105, 38426.22499778569, -14488.132534996574, 2514.8618238999634, -52744.17135049956, -187500.02235174447, 0.105169921875, 0.9661718749999999, 0.052087890625, 192.0, 0.0, 0.0, 0.0, 0.0, 0.0, 0.0, 0.0, 0.0, 0.0, 1.741979393961199E9, 0.0, 2025-03-14 14:09:53.961
140.0, -16993.427812269667, -1231.8716921653381, -187500.02235174447, -6421.857347709817, 23884.068296440637, 13500.118374838636, -41712.26670888266, 7909.924734821884, -1272.6636257962734, 44050.68386205243, 12476.050850874288, 38507.56299585855, -14495.687424622469, 2506.8598993849637, -52687.19675388298, -187500.02235174447, 0.105169921875, 0.9661718749999999, 0.052087890625, 192.0, 0.0, 0.0, 0.0, 0.0, 0.0, 0.0, 0.0, 0.0, 0.0, 1.741979393961313E9, 0.0, 2025-03-14 14:09:53.961
142.0, -17016.07012940289, -1268.0815181829355, -187500.02235174447, -6346.979003784538, 23954.520994963765, 13570.25814893939, -41739.960520262786, 7971.704956496354, -1326.5089781891083, 43976.878401861, 12384.609864307628, 38429.0189658426, -14492.714642609912, 2539.4040393118908, -52736.08001900674, -187500.02235174447, 0.105169921875, 0.9661718749999999, 0.052087890625, 192.0, 0.0, 0.0, 0.0, 0.0, 0.0, 0.0, 0.0, 0.0, 0.0, 1.741979393961416E9, 0.0, 2025-03-14 14:09:53.961
144.0, -17035.42674010119, -1269.199105405701, -187500.02235174447, -6407.418120791688, 23890.55030233268, 13531.567279287254, -41722.50380784319, 7936.947993868351, -1357.0414611150577, 44071.11335648458, 12504.616380288171, 38536.17322876135, -14499.8224973467, 2437.010697962129, -52659.4805907584, -187500.02235174447, 0.105169921875, 0.9661718749999999, 0.052087890625, 192.0, 0.0, 0.0, 0.0, 0.0, 0.0, 0.0, 0.0, 0.0, 0.0, 1.741979393961516E9, 0.0, 2025-03-14 14:09:53.961
146.0, -17043.339257638367, -1284.5994573354076, -187500.02235174447, -6384.239361791535, 23917.97589277934, 13561.384506390634, -41733.97025274876, 7958.897406923463, -1336.4108009828092, 43980.56643969613, 12391.449498110951, 38432.19291355526, -14484.779773328279, 2425.790122245565, -52723.51833862285, -187500.02235174447, 0.1085849609375, 0.9680859374999999, 0.0610439453125, 192.0, 1.5, 64.0, 15.0, 40.0, 1.0, 24.0, 0.0, 0.0, 0.0, 1.741979393961624E9, 0.0, 2025-03-14 14:09:53.961
148.0, -17049.776560041497, -1268.1262216718462, -187500.02235174447, -6418.035199407959, 23872.423037579425, 13528.616849019152, -41706.70112451329, 7930.018953087206, -1346.3349755209656, 44085.55258340271, 12520.262601406885, 38546.25386551069, -14505.25397124934, 2417.139997141361, -52649.19878830895, -187500.02235174447, 0.1085849609375, 0.9680859374999999, 0.0610439453125, 192.0, 0.0, 0.0, 0.0, 0.0, 0.0, 0.0, 0.0, 0.0, 0.0, 1.741979393961731E9, 0.0, 2025-03-14 14:09:53.961
150.0, -17021.121623649793, -1261.1077739128798, -187500.02235174447, -6422.214975621102, 23882.704840028866, 13526.404026318078, -41717.00527870718, 7926.621487929999, -1275.099965941902, 43957.052404529146, 12359.44180005095, 38400.520491662086, -14492.781697843278, 2405.874717935886, -52749.93810056902, -187500.02235174447, 0.1085849609375, 0.9680859374999999, 0.0610439453125, 192.0, 0.0, 0.0, 0.0, 0.0, 0.0, 0.0, 0.0, 0.0, 0.0, 1.741979394021339E9, 0.0, 2025-03-14 14:09:54.021
152.0, -17064.3275456819, -1302.9949430221252, -187500.02235174447, -6402.344274800334, 23881.274328383726, 13542.765503259363, -41726.30360440059, 7942.7147439378205, -1351.453525001231, 44085.06084502469, 12516.19458391602, 38539.61539740746, -14497.63202639008, 2372.9058948643083, -52659.2794250583, -187500.02235174447, 0.1085849609375, 0.9680859374999999, 0.0610439453125, 192.0, 0.0, 0.0, 0.0, 0.0, 0.0, 0.0, 0.0, 0.0, 0.0, 1.741979394021486E9, 0.0, 2025-03-14 14:09:54.021
154.0, -17071.882435307794, -1306.2135942236894, -187500.02235174447, -6393.090652595837, 23895.847665768586, 13562.323279657756, -41737.32301441706, 7963.121886625516, -1362.741155951161, 43987.96486711084, 12395.137535946076, 38436.61855895741, -14495.620369389102, 2309.7175132891552, -52714.71175130746, -187500.02235174447, 0.1085849609375, 0.9680859374999999, 0.0610439453125, 192.0, 0.0, 0.0, 0.0, 0.0, 0.0, 0.0, 0.0, 0.0, 0.0, 1.741979394021598E9, 0.0, 2025-03-14 14:09:54.021
156.0, -17061.51122588053, -1279.749128788606, -187500.02235174447, -6391.12369908377, 23877.318069615136, 13552.197939419502, -41729.92458700235, 7948.548549240655, -1326.64308865584, 44116.12976981757, 12543.977802273967, 38566.3033802871, -14499.598979902146, 2305.850661498387, -52626.355305475634, -187500.02235174447, 0.11229248046875001, 0.96604296875, 0.06852197265625, 192.0, 1.5, 80.0, 15.0, 16.0, 1.0, 48.0, 0.0, 0.0, 0.0, 1.741979394021699E9, 0.0, 2025-03-14 14:09:54.021
158.0, -17065.75805732704, -1259.1631721452682, -187500.02235174447, -6414.011885406004, 23869.852586967063, 13556.154198188091, -41741.055755741094, 7951.789552186675, -1326.4419229557423, 43986.266134532234, 12386.666224797515, 38428.46017223122, -14494.68159612198, 2231.575814673402, -52719.20445194298, -187500.02235174447, 0.11229248046875001, 0.96604296875, 0.06852197265625, 192.0, 0.0, 0.0, 0.0, 0.0, 0.0, 0.0, 0.0, 0.0, 0.0, 1.741979394021815E9, 0.0, 2025-03-14 14:09:54.021
160.0, -17081.694851123673, -1263.0523756804914, -187500.02235174447, -6364.994509815516, 23891.95846223336, 13589.324186959766, -41740.07227898506, 7978.097555410571, -1346.6255481988846, 44133.7652961928, 12557.210034991507, 38585.81645319658, -14484.8691803061, 2224.2667942365165, -52600.628447607574, -187500.02235174447, 0.11229248046875001, 0.96604296875, 0.06852197265625, 192.0, 0.0, 0.0, 0.0, 0.0, 0.0, 0.0, 0.0, 0.0, 0.0, 1.741979394021922E9, 0.0, 2025-03-14 14:09:54.021
162.0, -17063.656993348242, -1265.4440123372094, -187500.02235174447, -6457.195455693657, 23825.61848469001, 13530.58380253122, -41721.25211015369, 7922.598173928043, -1351.7217459346946, 43996.0338468592, 12400.367844148619, 38440.775983426094, -14516.072215565708, 2163.9841394405535, -52695.66806503154, -187500.02235174447, 0.11229248046875001, 0.96604296875, 0.06852197265625, 192.0, 0.0, 0.0, 0.0, 0.0, 0.0, 0.0, 0.0, 0.0, 0.0, 1.741979394022031E9, 0.0, 2025-03-14 14:09:54.022
164.0, -17063.90286253725, -1307.0406087685358, -187500.02235174447, -6372.25882676349, 23886.795209264186, 13591.78287884985, -41730.66219456938, 7972.688433252387, -1329.8170363684937, 44104.19393827843, 12518.005075216899, 38541.33648173052, -14497.497915923348, 2155.356366080805, -52633.01612532332, -187500.02235174447, 0.11229248046875001, 0.96604296875, 0.06852197265625, 192.0, 0.0, 0.0, 0.0, 0.0, 0.0, 0.0, 0.0, 0.0, 0.0, 1.741979394022132E9, 0.0, 2025-03-14 14:09:54.022
166.0, -17070.362516684832, -1270.7637275175725, -187500.02235174447, -6460.458810384132, 23821.52811545469, 13542.63139279263, -41715.10538042848, 7929.147235053449, -1355.5438942365522, 44011.99299240029, 12408.54858261926, 38445.00046312815, -14507.511497439325, 2122.521653475959, -52684.40278582607, -187500.02235174447, 0.116146240234375, 0.9640214843749999, 0.071260986328125, 192.0, 1.5, 96.0, 15.0, 8.0, 1.0, 40.0, 0.0, 0.0, 0.0, 1.741979394081591E9, 0.0, 2025-03-14 14:09:54.081
168.0, -17067.009755016537, -1278.743300288117, -187500.02235174447, -6375.097498309315, 23882.883653984507, 13600.701224887518, -41733.232645181735, 7976.1753053874145, -1334.779123637572, 44101.332914988154, 12508.66204603458, 38526.15964724537, -14509.63491316258, 2126.8131884113777, -52629.909232844024, -187500.02235174447, 0.116146240234375, 0.9640214843749999, 0.071260986328125, 192.0, 0.0, 0.0, 0.0, 0.0, 0.0, 0.0, 0.0, 0.0, 0.0, 1.741979394081724E9, 0.0, 2025-03-14 14:09:54.081
170.0, -17088.735650627095, -1267.5897798049189, -187500.02235174447, -6470.427688411199, 23808.675862392887, 13545.134788171625, -41724.2472439107, 7934.5563572116325, -1325.4584461997088, 44020.106675637566, 12420.640876369582, 38447.79443118506, -14535.093550097174, 2075.0465482528866, -52674.724480476914, -187500.02235174447, 0.116146240234375, 0.9640214843749999, 0.071260986328125, 192.0, 0.0, 0.0, 0.0, 0.0, 0.0, 0.0, 0.0, 0.0, 0.0, 1.741979394081824E9, 0.0, 2025-03-14 14:09:54.081
172.0, -17104.985368846104, -1283.9512567462036, -187500.02235174447, -6369.129582539747, 23893.992470978796, 13618.470861729487, -41740.49696212971, 8001.2986661551795, -1353.420478513298, 44080.2552199668, 12488.120792880154, 38500.1869201883, -14502.236485747873, 2063.1777719471183, -52638.35819224813, -187500.02235174447, 0.116146240234375, 0.9640214843749999, 0.071260986328125, 192.0, 0.0, 0.0, 0.0, 0.0, 0.0, 0.0, 0.0, 0.0, 0.0, 1.741979394081933E9, 0.0, 2025-03-14 14:09:54.081
174.0, -17095.262360008044, -1262.4712303246536, -187500.02235174447, -6463.56570286342, 23815.493144451757, 13561.093933712715, -41729.27638641315, 7954.471761521311, -1355.8791704033817, 44040.40205960299, 12446.770065637835, 38468.42509131731, -14543.609564734646, 2041.0048414474538, -52649.10938133114, -187500.02235174447, 0.116146240234375, 0.9640214843749999, 0.071260986328125, 192.0, 0.0, 0.0, 0.0, 0.0, 0.0, 0.0, 0.0, 0.0, 0.0, 1.741979394082034E9, 0.0, 2025-03-14 14:09:54.082
176.0, -17105.007720590558, -1276.5081258425864, -187500.02235174447, -6357.9090068231835, 23899.40159313698, 13626.65160020013, -41735.624281838456, 8010.932268015417, -1348.2125220552114, 44070.75572857329, 12481.23645558792, 38492.85554800696, -14534.847680908166, 2052.7171555420346, -52633.060828812224, -187500.02235174447, 0.11307312011718751, 0.9650107421874999, 0.0706304931640625, 192.0, 1.5, 56.0, 15.0, 24.0, 1.0, 24.0, 0.0, 0.0, 0.0, 1.741979394082142E9, 0.0, 2025-03-14 14:09:54.082
178.0, -17105.05242407947, -1273.7365095301282, -187500.02235174447, -6462.001080751548, 23813.503839195233, 13562.21152093548, -41720.4474473533, 7963.792438959174, -1330.3311264909657, 44051.33206264163, 12467.84776065919, 38478.05869317755, -14549.68923922649, 2029.06900990832, -52633.150235790046, -187500.02235174447, 0.11307312011718751, 0.9650107421874999, 0.0706304931640625, 192.0, 0.0, 0.0, 0.0, 0.0, 0.0, 0.0, 0.0, 0.0, 0.0, 1.741979394082247E9, 0.0, 2025-03-14 14:09:54.082
180.0, -17100.62677867732, -1285.292361413522, -187500.02235174447, -6367.274387749957, 23899.178075692427, 13631.166652580101, -41733.992604493214, 8023.940983288406, -1288.2204399371672, 44051.33206264163, 12456.291908775796, 38461.74191972517, -14538.714532698934, 2060.4732108680264, -52641.42038123851, -187500.02235174447, 0.11307312011718751, 0.9650107421874999, 0.0706304931640625, 192.0, 0.0, 0.0, 0.0, 0.0, 0.0, 0.0, 0.0, 0.0, 0.0, 1.741979394142364E9, 0.0, 2025-03-14 14:09:54.142
182.0, -17103.376043245324, -1285.1806026912454, -187500.02235174447, -6448.053592211437, 23827.71954866881, 13580.763468833384, -41721.31916538706, 7990.927456727917, -1375.2581328461329, 44081.283400211745, 12502.314150609274, 38503.18205394531, -14570.923396459031, 2067.8492865382777, -52600.3155231852, -187500.02235174447, 0.11307312011718751, 0.9650107421874999, 0.0706304931640625, 192.0, 0.0, 0.0, 0.0, 0.0, 0.0, 0.0, 0.0, 0.0, 0.0, 1.741979394142481E9, 0.0, 2025-03-14 14:09:54.142
184.0, -17124.18551733321, -1264.4158320922652, -187500.02235174447, -6353.148085254203, 23911.583293865122, 13653.2725278464, -41738.038270239624, 8055.859274370584, -1342.3116615190104, 44051.086193452626, 12458.616490199149, 38458.7244342237, -14526.39872150406, 2058.8638852672443, -52623.494282185355, -187500.02235174447, 0.11307312011718751, 0.9650107421874999, 0.0706304931640625, 192.0, 0.0, 0.0, 0.0, 0.0, 0.0, 0.0, 0.0, 0.0, 0.0, 1.741979394142594E9, 0.0, 2025-03-14 14:09:54.142
186.0, -17117.882325396815, -1258.8278959784384, -187500.02235174447, -6450.333470145878, 23822.221019532804, 13585.457335168998, -41712.28906062711, 7997.923552742429, -1344.2115597977115, 44099.56712717618, 12518.966200228477, 38506.981850502714, -14563.189692877495, 2072.967836018543, -52581.54005784274, -187500.02235174447, 0.11253656005859375, 0.9685053710937499, 0.07031524658203125, 192.0, 1.5, 64.0, 15.0, 48.0, 1.0, 24.0, 0.0, 0.0, 0.0, 1.741979394142695E9, 0.0, 2025-03-14 14:09:54.142
188.0, -17091.52961868401, -1273.133012429835, -187500.02235174447, -6375.924512854161, 23888.806866265164, 13645.203548098034, -41735.199598693805, 8050.696021401409, -1272.104832184891, 44042.16784741495, 12442.769103380335, 38433.66812868931, -14580.221722152439, 2084.03194952392, -52625.26006999732, -187500.02235174447, 0.11253656005859375, 0.9685053710937499, 0.07031524658203125, 192.0, 0.0, 0.0, 0.0, 0.0, 0.0, 0.0, 0.0, 0.0, 0.0, 1.741979394142804E9, 0.0, 2025-03-14 14:09:54.142
190.0, -17146.112578643868, -1282.5878003344299, -187500.02235174447, -6440.319888629901, 23840.102415097048, 13604.143393533635, -41735.177246949344, 8017.816605307652, -1364.8422199299598, 44104.79743537873, 12523.838880519734, 38505.41722839084, -14562.474437054925, 2094.246696739995, -52580.422470619975, -187500.02235174447, 0.11253656005859375, 0.9685053710937499, 0.07031524658203125, 192.0, 0.0, 0.0, 0.0, 0.0, 0.0, 0.0, 0.0, 0.0, 0.0, 1.74197939414291E9, 0.0, 2025-03-14 14:09:54.142
192.0, -17130.57811624743, -1279.2126869216786, -187500.02235174447, -6366.693242394119, 23910.957445020373, 13669.99163269897, -41748.02950001115, 8073.539504234733, -1366.4738972751973, 44032.33307985462, 12432.17437650852, 38420.61470992741, -14557.065314896741, 2109.9599730920763, -52622.287287984764, -187500.02235174447, 0.11253656005859375, 0.9685053710937499, 0.07031524658203125, 192.0, 0.0, 0.0, 0.0, 0.0, 0.0, 0.0, 0.0, 0.0, 0.0, 1.741979394143009E9, 0.0, 2025-03-14 14:09:54.143
194.0, -17124.967828389148, -1281.358454389388, -187500.02235174447, -6419.532766286465, 23857.20149960536, 13629.64673395714, -41741.88277028594, 8037.508492172778, -1347.810190655016, 44139.28617707326, 12560.58514840426, 38536.64261539491, -14564.754314989366, 2103.187394522118, -52538.6023567441, -187500.02235174447, 0.11253656005859375, 0.9685053710937499, 0.07031524658203125, 192.0, 0.0, 0.0, 0.0, 0.0, 0.0, 0.0, 0.0, 0.0, 0.0, 1.741979394143115E9, 0.0, 2025-03-14 14:09:54.143
196.0, -17144.72677048764, -1268.841477494416, -187500.02235174447, -6377.9808733440495, 23908.67756708593, 13667.354126853244, -41742.463915641776, 8071.773716422763, -1335.6731934157842, 44022.36420182756, 12415.410568167039, 38408.12008477689, -14554.830140451211, 2101.578068921336, -52627.60700316513, -187500.02235174447, 0.11526828002929687, 0.9712526855468749, 0.06715762329101563, 192.0, 1.5, 88.0, 15.0, 56.0, 1.0, 0.0, 0.0, 0.0, 0.0, 1.741979394200887E9, 0.0, 2025-03-14 14:09:54.200
198.0, -17129.795805191494, -1288.578067848452, -187500.02235174447, -6402.8136614338955, 23871.707781756853, 13640.979068395982, -41734.88667427143, 8046.046858554704, -1320.0716757859798, 44151.15495337903, 12571.49279969845, 38547.259694011176, -14561.826236465722, 2130.322412290861, -52528.52171999475, -187500.02235174447, 0.11526828002929687, 0.9712526855468749, 0.06715762329101563, 192.0, 0.0, 0.0, 0.0, 0.0, 0.0, 0.0, 0.0, 0.0, 0.0, 1.741979394201008E9, 0.0, 2025-03-14 14:09:54.201
200.0, -17114.753081173072, -1274.8540967528936, -187500.02235174447, -6427.55704254592, 23870.634898023, 13624.08114958777, -41733.18794169283, 8031.808797336674, -1323.938527576748, 44010.7859981997, 12400.300788915252, 38391.289221202045, -14563.659079511057, 2117.5372144624253, -52636.7265149029, -187500.02235174447, 0.11526828002929687, 0.9712526855468749, 0.06715762329101563, 192.0, 0.0, 0.0, 0.0, 0.0, 0.0, 0.0, 0.0, 0.0, 0.0, 1.741979394201109E9, 0.0, 2025-03-14 14:09:54.201
202.0, -17136.188404105713, -1288.5333643595416, -187500.02235174447, -6366.290910993924, 23900.228607681824, 13673.389097856176, -41754.26563671418, 8079.820344426674, -1339.4506382287311, 44148.45039229994, 12561.881549582668, 38532.3957839484, -14579.797039007788, 2146.5050752765032, -52538.93763291093, -187500.02235174447, 0.11526828002929687, 0.9712526855468749, 0.06715762329101563, 192.0, 0.0, 0.0, 0.0, 0.0, 0.0, 0.0, 0.0, 0.0, 0.0, 1.741979394201214E9, 0.0, 2025-03-14 14:09:54.201
204.0, -17150.426465323744, -1285.001788735603, -187500.02235174447, -6383.434698991144, 23894.30539540117, 13675.713679279528, -41750.68935760133, 8082.569608994676, -1319.6916961302395, 44038.79273400221, 12436.018876554834, 38421.01704132761, -14607.624960854646, 2155.2893108474386, -52589.81020329121, -187500.02235174447, 0.11526828002929687, 0.9712526855468749, 0.06715762329101563, 192.0, 0.0, 0.0, 0.0, 0.0, 0.0, 0.0, 0.0, 0.0, 0.0, 1.741979394201321E9, 0.0, 2025-03-14 14:09:54.201
206.0, -17175.996860980613, -1291.9084777722928, -187500.02235174447, -6343.223910716047, 23917.797078823696, 13701.440537147588, -41754.913837303386, 8105.256629616813, -1322.776236865072, 44171.33857862218, 12587.094317328254, 38556.15568830439, -14607.915533532565, 2169.8849999767544, -52492.401300954974, -187500.02235174447, 0.11563414001464845, 0.9746263427734374, 0.06357881164550781, 192.0, 1.5, 80.0, 15.0, 72.0, 0.5, 112.0, 0.0, 0.0, 0.0, 1.741979394201428E9, 0.0, 2025-03-14 14:09:54.201
208.0, -17161.244709640112, -1286.4099486362875, -187500.02235174447, -6396.331655541856, 23892.070220955637, 13677.077135691303, -41744.22970345375, 8085.922370662973, -1318.6188123963848, 44042.681937537425, 12436.063580043743, 38423.76630589561, -14603.020501496852, 2139.3972205397154, -52577.1591159295, -187500.02235174447, 0.11563414001464845, 0.9746263427734374, 0.06357881164550781, 192.0, 0.0, 0.0, 0.0, 0.0, 0.0, 0.0, 0.0, 0.0, 0.0, 1.741979394201536E9, 0.0, 2025-03-14 14:09:54.201
210.0, -17165.893872486817, -1293.8530795399047, -187500.02235174447, -6367.363794727778, 23907.4929246298, 13686.867199762726, -41743.44739239781, 8091.666768987986, -1351.6323389568734, 44152.853685957634, 12564.63081415067, 38532.14991475939, -14590.41411762406, 2184.8830205062654, -52510.68502791942, -187500.02235174447, 0.11563414001464845, 0.9746263427734374, 0.06357881164550781, 192.0, 0.0, 0.0, 0.0, 0.0, 0.0, 0.0, 0.0, 0.0, 0.0, 1.741979394261092E9, 0.0, 2025-03-14 14:09:54.261
212.0, -17150.694686257208, -1291.6402568388291, -187500.02235174447, -6424.718371000096, 23870.903118956463, 13661.90030120615, -41738.93234001784, 8072.801896667707, -1306.8617948128933, 44033.13774265501, 12424.619486882626, 38408.187140010254, -14601.32176891825, 2168.0074534425084, -52594.70523532692, -187500.02235174447, 0.11563414001464845, 0.9746263427734374, 0.06357881164550781, 192.0, 0.0, 0.0, 0.0, 0.0, 0.0, 0.0, 0.0, 0.0, 0.0, 1.741979394261226E9, 0.0, 2025-03-14 14:09:54.261
214.0, -17133.215622093157, -1293.227230695156, -187500.02235174447, -6327.041247730404, 23936.907820332985, 13727.837947349304, -41750.75641283469, 8125.663772304509, -1335.449675971231, 44159.46980231641, 12572.409221221116, 38539.704804385285, -14627.719179119968, 2196.2377066895615, -52493.876516089025, -187500.02235174447, 0.11563414001464845, 0.9746263427734374, 0.06357881164550781, 192.0, 0.0, 0.0, 0.0, 0.0, 0.0, 0.0, 0.0, 0.0, 0.0, 1.741979394261328E9, 0.0, 2025-03-14 14:09:54.261
216.0, -17137.663619239764, -1267.3662623603657, -187500.02235174447, -6433.860234482317, 23857.29090658318, 13655.75357148094, -41726.527121845145, 8065.694041930919, -1293.3836929063432, 44058.52932435624, 12452.760333151859, 38438.540808980564, -14619.493737160414, 2178.3563111253156, -52558.11542965358, -187500.02235174447, 0.11781707000732422, 0.9803131713867187, 0.06478940582275391, 192.0, 1.5, 96.0, 15.0, 104.0, 1.0, 8.0, 0.0, 0.0, 0.0, 1.741979394261439E9, 0.0, 2025-03-14 14:09:54.261
218.0, -17159.009535194582, -1286.4323003807426, -187500.02235174447, -6322.01210522796, 23944.46270995888, 13729.2908107389, -41751.02463376816, 8134.157435197525, -1304.5372133895414, 44135.97811889388, 12535.707656825502, 38509.59700460399, -14607.17792596554, 2202.8761747927874, -52518.73165592333, -187500.02235174447, 0.11781707000732422, 0.9803131713867187, 0.06478940582275391, 192.0, 0.0, 0.0, 0.0, 0.0, 0.0, 0.0, 0.0, 0.0, 0.0, 1.741979394261546E9, 0.0, 2025-03-14 14:09:54.261
220.0, -17142.20102336419, -1286.8346317809383, -187500.02235174447, -6431.848577481339, 23856.374485060514, 13654.479522046986, -41736.78657255013, 8071.729012933853, -1322.8209403539827, 44071.64979835151, 12469.255920559874, 38456.869239433916, -14627.763882608877, 2194.4272153886814, -52542.93859516842, -187500.02235174447, 0.11781707000732422, 0.9803131713867187, 0.06478940582275391, 192.0, 0.0, 0.0, 0.0, 0.0, 0.0, 0.0, 0.0, 0.0, 0.0, 1.741979394261648E9, 0.0, 2025-03-14 14:09:54.261
222.0, -17146.112578643868, -1286.5440591030192, -187500.02235174447, -6327.845910530796, 23940.97583782385, 13725.267496736944, -41755.182058236845, 8129.441217117455, -1320.0940275304351, 44123.505845487816, 12517.066301949777, 38501.0362864776, -14616.766824336866, 2233.609823418835, -52521.16799606896, -187500.02235174447, 0.11781707000732422, 0.9803131713867187, 0.06478940582275391, 192.0, 0.0, 0.0, 0.0, 0.0, 0.0, 0.0, 0.0, 0.0, 0.0, 1.741979394261752E9, 0.0, 2025-03-14 14:09:54.261
224.0, -17126.599505734386, -1280.0844049554355, -187500.02235174447, -6425.03129542247, 23861.269517096225, 13665.588339041275, -41739.46878188477, 8079.976806637861, -1313.4108559382983, 44083.07153976817, 12470.462914760461, 38463.3288935815, -14622.310056961782, 2205.4242736606925, -52540.63636548953, -187500.02235174447, 0.11781707000732422, 0.9803131713867187, 0.06478940582275391, 192.0, 0.0, 0.0, 0.0, 0.0, 0.0, 0.0, 0.0, 0.0, 0.0, 1.741979394261858E9, 0.0, 2025-03-14 14:09:54.261
226.0, -17140.3458285744, -1283.0571869679914, -187500.02235174447, -6317.899384248184, 23947.7037129049, 13738.879709110226, -41752.61160762449, 8141.287641678768, -1308.3817134358542, 44114.02870583877, 12504.459918076984, 38490.44155960579, -14626.13220526364, 2237.543730442969, -52512.45081573139, -187500.02235174447, 0.12090853500366211, 0.9801565856933594, 0.06339470291137696, 192.0, 1.5, 112.0, 15.0, 80.0, 0.5, 120.0, 0.0, 0.0, 0.0, 1.741979394321442E9, 0.0, 2025-03-14 14:09:54.321
228.0, -17151.67816301324, -1286.231134680645, -187500.02235174447, -6424.6513157667305, 23859.839005451086, 13676.630100802196, -41741.81571505257, 8087.799917197218, -1320.4069519528093, 44107.03260982426, 12499.743699996914, 38491.402684617366, -14642.001943826908, 2232.022849562508, -52501.140833037, -187500.02235174447, 0.12090853500366211, 0.9801565856933594, 0.06339470291137696, 192.0, 0.0, 0.0, 0.0, 0.0, 0.0, 0.0, 0.0, 0.0, 0.0, 1.741979394321574E9, 0.0, 2025-03-14 14:09:54.321
230.0, -17134.802595949484, -1266.4498408376983, -187500.02235174447, -6354.466838177066, 23927.654198128486, 13721.557107157363, -41749.77293607866, 8118.600621056631, -1297.2505446971113, 44073.99673151931, 12459.376449510628, 38450.96837889771, -14622.108891261685, 2241.6117479338345, -52536.3001270652, -187500.02235174447, 0.12090853500366211, 0.9801565856933594, 0.06339470291137696, 192.0, 0.0, 0.0, 0.0, 0.0, 0.0, 0.0, 0.0, 0.0, 0.0, 1.741979394321677E9, 0.0, 2025-03-14 14:09:54.321
232.0, -17135.2943343275, -1279.4138526217762, -187500.02235174447, -6442.689173542163, 23850.540679757676, 13666.035373930381, -41731.8021335366, 8075.97584438036, -1309.4098936807984, 44103.925717344966, 12497.419118573562, 38488.742827027185, -14645.734685150945, 2262.801201677466, -52511.06500757516, -187500.02235174447, 0.12090853500366211, 0.9801565856933594, 0.06339470291137696, 192.0, 0.0, 0.0, 0.0, 0.0, 0.0, 0.0, 0.0, 0.0, 0.0, 1.74197939432178E9, 0.0, 2025-03-14 14:09:54.321
234.0, -17132.00862789257, -1271.5460385735082, -187500.02235174447, -6326.951840752583, 23940.998189568305, 13745.652287680185, -41748.63299711144, 8144.841569047162, -1322.6421263983402, 44074.73433908634, 12449.072295316731, 38445.112221850424, -14626.758054108388, 2263.985844133597, -52538.31178406618, -187500.02235174447, 0.12090853500366211, 0.9801565856933594, 0.06339470291137696, 192.0, 0.0, 0.0, 0.0, 0.0, 0.0, 0.0, 0.0, 0.0, 0.0, 1.741979394321889E9, 0.0, 2025-03-14 14:09:54.321
236.0, -17111.377967760323, -1254.9163406987598, -187500.02235174447, -6419.733931986562, 23851.52415651371, 13676.294824635366, -41728.136447445926, 8084.335396806646, -1298.4798906421531, 44131.28425255827, 12525.71642705398, 38515.587272118006, -14639.409141470092, 2261.214227821139, -52483.48295491731, -187500.02235174447, 0.12145426750183105, 0.9780782928466797, 0.06169735145568848, 192.0, 1.5, 104.0, 15.0, 64.0, 0.5, 112.0, 0.0, 0.0, 0.0, 1.741979394321987E9, 0.0, 2025-03-14 14:09:54.321
238.0, -17097.89986585377, -1252.3011865974888, -187500.02235174447, -6357.394916700711, 23917.88648580152, 13718.606676889263, -41733.74673530421, 8121.774568769285, -1293.8307277954493, 44043.62071080455, 12413.711835588436, 38413.730372635175, -14623.6511616291, 2285.1976496216835, -52562.69753726692, -187500.02235174447, 0.12145426750183105, 0.9780782928466797, 0.06169735145568848, 192.0, 0.0, 0.0, 0.0, 0.0, 0.0, 0.0, 0.0, 0.0, 0.0, 1.7419793943221E9, 0.0, 2025-03-14 14:09:54.322
240.0, -17101.09616531088, -1250.0436604075028, -187500.02235174447, -6412.402559805222, 23860.241336851283, 13678.887626992182, -41728.87405501295, 8093.298446333224, -1306.2582977126, 44134.748772948835, 12522.229554918953, 38515.22964420672, -14635.94462107952, 2282.5824955204125, -52492.80363235517, -187500.02235174447, 0.12145426750183105, 0.9780782928466797, 0.06169735145568848, 192.0, 0.0, 0.0, 0.0, 0.0, 0.0, 0.0, 0.0, 0.0, 0.0, 1.741979394381757E9, 0.0, 2025-03-14 14:09:54.381
242.0, -17112.830831149917, -1254.9163406987598, -187500.02235174447, -6365.441544704622, 23907.336462418614, 13717.802014088871, -41730.841008525014, 8127.2060426719245, -1282.2748759120557, 44048.73926028481, 12418.942143790979, 38425.59914894094, -14624.232306984939, 2281.151983875273, -52548.86180744908, -187500.02235174447, 0.12145426750183105, 0.9780782928466797, 0.06169735145568848, 192.0, 0.0, 0.0, 0.0, 0.0, 0.0, 0.0, 0.0, 0.0, 0.0, 1.741979394381872E9, 0.0, 2025-03-14 14:09:54.381
244.0, -17114.931895128717, -1260.9960151906032, -187500.02235174447, -6422.818472721395, 23848.90900241244, 13668.114086164724, -41726.30360440059, 8084.067175873181, -1279.8832392553377, 44132.96063339241, 12523.503604352905, 38519.16355123086, -14634.983496067942, 2316.825368025943, -52497.05046380168, -187500.02235174447, 0.12145426750183105, 0.9780782928466797, 0.06169735145568848, 192.0, 0.0, 0.0, 0.0, 0.0, 0.0, 0.0, 0.0, 0.0, 0.0, 1.741979394381974E9, 0.0, 2025-03-14 14:09:54.381
246.0, -17107.846392136384, -1255.653948265785, -187500.02235174447, -6390.922533383672, 23881.47549408382, 13695.89730452267, -41739.06645048457, 8106.865955217595, -1320.8986903308262, 44027.08041990762, 12396.500992357851, 38411.27168074509, -14627.205088997494, 2293.4230915812363, -52564.150400656516, -187500.02235174447, 0.12072713375091552, 0.9760391464233398, 0.05884867572784424, 192.0, 1.5, 96.0, 15.0, 56.0, 0.5, 96.0, 0.0, 0.0, 0.0, 1.741979394382083E9, 0.0, 2025-03-14 14:09:54.382
248.0, -17107.980502603114, -1265.48871582612, -187500.02235174447, -6384.574637958364, 23872.959479446352, 13702.37931041471, -41734.75256380469, 8111.93980120895, -1300.8938790433263, 44142.54953176374, 12535.99822950342, 38536.597911906, -14635.050551301307, 2320.4239988832474, -52485.360501451556, -187500.02235174447, 0.12072713375091552, 0.9760391464233398, 0.05884867572784424, 192.0, 0.0, 0.0, 0.0, 0.0, 0.0, 0.0, 0.0, 0.0, 0.0, 1.74197939438219E9, 0.0, 2025-03-14 14:09:54.382
250.0, -17126.219526078647, -1252.3682418308547, -187500.02235174447, -6369.598969173309, 23897.993433236294, 13729.2908107389, -41744.207351709294, 8135.23031893138, -1318.3058879740106, 44034.635309533514, 12405.329931417697, 38423.721602406695, -14632.65891464459, 2297.044074182996, -52547.2524818483, -187500.02235174447, 0.12072713375091552, 0.9760391464233398, 0.05884867572784424, 192.0, 0.0, 0.0, 0.0, 0.0, 0.0, 0.0, 0.0, 0.0, 0.0, 1.741979394382299E9, 0.0, 2025-03-14 14:09:54.382
252.0, -17121.033921365015, -1254.9833959321256, -187500.02235174447, -6337.568919368854, 23902.553189105176, 13750.904947627181, -41737.92651151735, 8152.239996461868, -1318.3058879740106, 44178.60289557015, 12577.527770701381, 38580.45203452731, -14635.542289679324, 2322.0333244840294, -52430.978707191796, -187500.02235174447, 0.12072713375091552, 0.9760391464233398, 0.05884867572784424, 192.0, 0.0, 0.0, 0.0, 0.0, 0.0, 0.0, 0.0, 0.0, 0.0, 1.741979394382402E9, 0.0, 2025-03-14 14:09:54.382
254.0, -17097.67634840922, -1232.4975410100867, -187500.02235174447, -6386.45218449261, 23877.87686322652, 13724.105206025268, -41728.67288931285, 8126.915469994005, -1294.0542452400025, 44039.753859013785, 12412.683655343493, 38436.05976534603, -14626.959219808487, 2301.1344434183175, -52525.19131007091, -187500.02235174447, 0.12072713375091552, 0.9760391464233398, 0.05884867572784424, 192.0, 0.0, 0.0, 0.0, 0.0, 0.0, 0.0, 0.0, 0.0, 0.0, 1.7419793943825E9, 0.0, 2025-03-14 14:09:54.382
0.0, -17100.62677867732, -1244.813352204961, -187500.02235174447, -6340.519349636955, 23902.284968171713, 13751.843720894305, -41743.290930186624, 8152.262348206324, -1257.5761982889412, 44169.17045941001, 12559.042878036844, 38568.96323787728, -14622.46651917297, 2351.2247027426606, -52438.153617161945, -187500.02235174447, 0.11736356687545776, 0.9800195732116699, 0.05942433786392212, 192.0, 1.5, 72.0, 15.0, 96.0, 0.5, 112.0, 0.0, 0.0, 0.0, 1.741979394441968E9, 0.0, 2025-03-14 14:09:54.441
2.0, -17099.53154319901, -1237.7054974681732, -187500.02235174447, -6420.493891298043, 23846.606772733543, 13697.864258034739, -41728.80699977958, 8101.36742608159, -1305.3642279343878, 44038.278643879734, 12405.955780262444, 38437.423221757796, -14630.826071599255, 2323.106208217884, -52524.54310948171, -187500.02235174447, 0.11736356687545776, 0.9800195732116699, 0.05942433786392212, 192.0, 0.0, 0.0, 0.0, 0.0, 0.0, 0.0, 0.0, 0.0, 0.0, 1.7419793944421E9, 0.0, 2025-03-14 14:09:54.442
4.0, -17108.025206092025, -1254.1116778983687, -187500.02235174447, -6349.616509630265, 23893.25486341177, 13744.53470045742, -41746.91191278838, 8139.074818977692, -1323.938527576748, 44148.98683416687, 12535.707656825502, 38550.187772534824, -14614.978684780443, 2362.199409270216, -52461.39943139547, -187500.02235174447, 0.11736356687545776, 0.9800195732116699, 0.05942433786392212, 192.0, 0.0, 0.0, 0.0, 0.0, 0.0, 0.0, 0.0, 0.0, 0.0, 1.741979394442216E9, 0.0, 2025-03-14 14:09:54.442
6.0, -17095.172953030225, -1248.970776673648, -187500.02235174447, -6415.621211006786, 23844.751577943753, 13704.368615671232, -41731.064525969574, 8104.988408683349, -1302.2573354551, 44043.12897242654, 12412.527193132306, 38446.14040209537, -14644.035952572342, 2338.8641880588757, -52528.141740339015, -187500.02235174447, 0.11736356687545776, 0.9800195732116699, 0.05942433786392212, 192.0, 0.0, 0.0, 0.0, 0.0, 0.0, 0.0, 0.0, 0.0, 0.0, 1.741979394442318E9, 0.0, 2025-03-14 14:09:54.442
8.0, -17124.878421411326, -1253.3070150979777, -187500.02235174447, -6302.454328829566, 23926.961294050372, 13780.766878219472, -41750.04115701213, 8173.116525783125, -1296.647047596818, 44159.17922963849, 12544.983630774455, 38565.63282795344, -14636.27989724635, 2356.7455836231215, -52441.55108231915, -187500.02235174447, 0.11736356687545776, 0.9800195732116699, 0.05942433786392212, 192.0, 0.0, 0.0, 0.0, 0.0, 0.0, 0.0, 0.0, 0.0, 0.0, 1.741979394442422E9, 0.0, 2025-03-14 14:09:54.442
10.0, -17110.081566581914, -1247.7414307286062, -187500.02235174447, -6402.210164333602, 23849.959534401838, 13718.964304800547, -41734.95372950479, 8120.411112357511, -1305.4983384011196, 44072.320350685164, 12447.373562738128, 38485.255954892156, -14634.04472280082, 2311.706818545678, -52484.220562484334, -187500.02235174447, 0.11768178343772889, 0.9810097866058349, 0.05771216893196106, 192.0, 1.5, 88.0, 15.0, 88.0, 0.5, 96.0, 0.0, 0.0, 0.0, 1.741979394442525E9, 0.0, 2025-03-14 14:09:54.442
12.0, -17098.749232143073, -1256.7938872330055, -187500.02235174447, -6310.612715555753, 23921.529820147734, 13776.609453750785, -41738.619415595465, 8166.723926868907, -1292.355512661399, 44143.08597363067, 12529.918555011578, 38553.831106881036, -14619.001998782398, 2358.019633057074, -52438.48889332878, -187500.02235174447, 0.11768178343772889, 0.9810097866058349, 0.05771216893196106, 192.0, 0.0, 0.0, 0.0, 0.0, 0.0, 0.0, 0.0, 0.0, 0.0, 1.741979394442636E9, 0.0, 2025-03-14 14:09:54.442
14.0, -17101.453793222165, -1250.5577505299748, -187500.02235174447, -6424.718371000096, 23831.251124292747, 13695.114993466736, -41721.74384853171, 8098.372292324579, -1317.3671147068876, 44060.920961012955, 12446.300679004275, 38479.578611800505, -14642.918365349577, 2329.051772242996, -52491.082548032115, -187500.02235174447, 0.11768178343772889, 0.9810097866058349, 0.05771216893196106, 192.0, 0.0, 0.0, 0.0, 0.0, 0.0, 0.0, 0.0, 0.0, 0.0, 1.741979394502312E9, 0.0, 2025-03-14 14:09:54.502
16.0, -17116.854145151872, -1274.58587581943, -187500.02235174447, -6302.454328829566, 23929.35293070709, 13780.096325885812, -41749.41530816738, 8172.669490894019, -1304.06782675598, 44116.82267389568, 12501.844763975712, 38527.545455401596, -14612.765862079366, 2355.337423722437, -52457.867855771525, -187500.02235174447, 0.11768178343772889, 0.9810097866058349, 0.05771216893196106, 192.0, 0.0, 0.0, 0.0, 0.0, 0.0, 0.0, 0.0, 0.0, 0.0, 1.741979394502457E9, 0.0, 2025-03-14 14:09:54.502
18.0, -17104.784203146006, -1254.20108487619, -187500.02235174447, -6395.951675886116, 23853.938144914886, 13726.563897915352, -41730.997470736205, 8126.468435104899, -1328.6323939123624, 44102.13757778854, 12488.210199857975, 38523.11980999944, -14642.85131011621, 2344.9662142951747, -52444.6803265429, -187500.02235174447, 0.11768178343772889, 0.9810097866058349, 0.05771216893196106, 192.0, 0.0, 0.0, 0.0, 0.0, 0.0, 0.0, 0.0, 0.0, 0.0, 1.741979394502562E9, 0.0, 2025-03-14 14:09:54.502
20.0, -17071.52480739651, -1238.6889742242067, -187500.02235174447, -6319.240488915502, 23924.524953904744, 13774.843665938815, -41738.79822955111, 8160.0184035323155, -1297.87639354186, 44113.3134500162, 12491.540609781816, 38528.84185658, -14625.193431996517, 2357.0361563010406, -52443.674498042405, -187500.02235174447, 0.12084089171886445, 0.9795048933029175, 0.05485608446598053, 192.0, 1.5, 112.0, 15.0, 72.0, 0.5, 80.0, 0.0, 0.0, 0.0, 1.74197939450266E9, 0.0, 2025-03-14 14:09:54.502
22.0, -17084.198246502667, -1237.8396079349052, -187500.02235174447, -6424.561908788909, 23836.34732202856, 13705.32974068281, -41724.269595655154, 8097.522926035277, -1317.5682804069854, 44096.907269586, 12477.459010774972, 38517.397763418885, -14627.8532895867, 2360.7241941361663, -52459.6336435835, -187500.02235174447, 0.12084089171886445, 0.9795048933029175, 0.05485608446598053, 192.0, 0.0, 0.0, 0.0, 0.0, 0.0, 0.0, 0.0, 0.0, 0.0, 1.741979394502777E9, 0.0, 2025-03-14 14:09:54.502
24.0, -17075.816342331927, -1246.0874016389134, -187500.02235174447, -6325.364866896256, 23921.932151547928, 13770.52977925894, -41740.83223829654, 8151.99412727286, -1286.097024213913, 44085.15025200251, 12454.481417474917, 38494.531928841105, -14616.498603403403, 2363.495810448624, -52475.4363269134, -187500.02235174447, 0.12084089171886445, 0.9795048933029175, 0.05485608446598053, 192.0, 0.0, 0.0, 0.0, 0.0, 0.0, 0.0, 0.0, 0.0, 0.0, 1.741979394502875E9, 0.0, 2025-03-14 14:09:54.502
26.0, -17073.782333586496, -1248.1884656177124, -187500.02235174447, -6396.197545075124, 23857.380313561003, 13727.413264204653, -41737.12184871696, 8122.199251913936, -1311.6897716152396, 44129.27259555729, 12516.19458391602, 38552.06531906907, -14632.524804177858, 2358.0643365459846, -52427.31302110112, -187500.02235174447, 0.12084089171886445, 0.9795048933029175, 0.05485608446598053, 192.0, 0.0, 0.0, 0.0, 0.0, 0.0, 0.0, 0.0, 0.0, 0.0, 1.741979394502984E9, 0.0, 2025-03-14 14:09:54.502
28.0, -17080.644319134273, -1239.6724509802402, -187500.02235174447, -6312.557317323365, 23930.135241763026, 13786.198352122112, -41745.23553195423, 8172.267159493824, -1287.4604806256868, 44089.173566004465, 12457.163626809554, 38500.00810623266, -14616.476251658947, 2362.110002292395, -52457.39846913797, -187500.02235174447, 0.12084089171886445, 0.9795048933029175, 0.05485608446598053, 192.0, 0.0, 0.0, 0.0, 0.0, 0.0, 0.0, 0.0, 0.0, 0.0, 1.741979394503084E9, 0.0, 2025-03-14 14:09:54.503
30.0, -17075.771638843016, -1235.805599189472, -187500.02235174447, -6394.498812496521, 23845.53388899969, 13723.389950202698, -41733.07618297055, 8118.444158845444, -1308.9181553027815, 44150.64086325656, 12532.913688768589, 38569.410272766385, -14613.436414413025, 2365.6415779163335, -52406.704712713334, -187500.02235174447, 0.12142044585943222, 0.9747524466514588, 0.05242804223299027, 192.0, 1.5, 104.0, 15.0, 40.0, 0.5, 72.0, 0.0, 0.0, 0.0, 1.741979394561707E9, 0.0, 2025-03-14 14:09:54.561
32.0, -17059.208996201636, -1227.6248607188297, -187500.02235174447, -6324.604907584776, 23918.579389879633, 13776.430639795142, -41740.295796429615, 8162.1865227444805, -1267.1427449158127, 44066.77711806025, 12426.474681672416, 38471.15200414086, -14626.288667474828, 2367.630883172856, -52473.71524259034, -187500.02235174447, 0.12142044585943222, 0.9747524466514588, 0.05242804223299027, 192.0, 0.0, 0.0, 0.0, 0.0, 0.0, 0.0, 0.0, 0.0, 0.0, 1.741979394561875E9, 0.0, 2025-03-14 14:09:54.561
34.0, -17086.075793036915, -1253.6199395203519, -187500.02235174447, -6356.322032966857, 23875.664040525444, 13753.430694750632, -41731.3998021364, 8150.250691205346, -1320.9880973086474, 44173.86432574563, 12557.701773369525, 38589.906822431905, -14623.807623840288, 2390.273200306082, -52384.86705838049, -187500.02235174447, 0.12142044585943222, 0.9747524466514588, 0.05242804223299027, 192.0, 0.0, 0.0, 0.0, 0.0, 0.0, 0.0, 0.0, 0.0, 0.0, 1.741979394561982E9, 0.0, 2025-03-14 14:09:54.561
36.0, -17073.00002253056, -1240.231244591623, -187500.02235174447, -6327.577689597331, 23910.152782219982, 13776.788267706426, -41732.87501727045, 8170.166095515025, -1315.4672164281865, 44072.07448149616, 12433.94016432049, 38480.31621936753, -14605.702710831489, 2382.2489240466266, -52455.431515625896, -187500.02235174447, 0.12142044585943222, 0.9747524466514588, 0.05242804223299027, 192.0, 0.0, 0.0, 0.0, 0.0, 0.0, 0.0, 0.0, 0.0, 0.0, 1.741979394562084E9, 0.0, 2025-03-14 14:09:54.562
38.0, -17082.119534268324, -1257.1068116553797, -187500.02235174447, -6355.897349822206, 23870.366677089536, 13751.329630771832, -41724.02372646615, 8144.953327769438, -1314.2825739720554, 44170.77978501079, 12554.080790767764, 38588.18573810885, -14625.595763396714, 2378.7173484226882, -52385.716424669794, -187500.02235174447, 0.12142044585943222, 0.9747524466514588, 0.05242804223299027, 192.0, 0.0, 0.0, 0.0, 0.0, 0.0, 0.0, 0.0, 0.0, 0.0, 1.741979394562196E9, 0.0, 2025-03-14 14:09:54.562
40.0, -17095.463525708143, -1262.1583059022792, -187500.02235174447, -6330.72928556553, 23904.58719785061, 13779.001090407502, -41730.438677124825, 8167.863865836128, -1317.1659490067898, 44056.450612121895, 12413.398911166063, 38466.592248271976, -14623.427644184549, 2371.1401070523393, -52463.612254096544, -187500.02235174447, 0.12271022292971612, 0.9753762233257294, 0.05221402111649513, 192.0, 1.5, 112.0, 15.0, 64.0, 0.5, 80.0, 0.0, 0.0, 0.0, 1.741979394562302E9, 0.0, 2025-03-14 14:09:54.562
42.0, -17103.599560689876, -1250.1107156408686, -187500.02235174447, -6344.274442705446, 23882.280156884215, 13764.941843145114, -41725.744810789205, 8152.262348206324, -1308.44876866922, 44180.12281419311, 12562.306232727318, 38598.914575447394, -14634.715275134478, 2381.37720601287, -52371.27719775167, -187500.02235174447, 0.12271022292971612, 0.9753762233257294, 0.05221402111649513, 192.0, 0.0, 0.0, 0.0, 0.0, 0.0, 0.0, 0.0, 0.0, 0.0, 1.741979394562406E9, 0.0, 2025-03-14 14:09:54.562
44.0, -17073.402353930756, -1242.5334742705197, -187500.02235174447, -6342.575710126843, 23892.87488375603, 13773.971947905058, -41738.66411908437, 8162.8347233336835, -1283.1242422013572, 44060.920961012955, 12418.338646690685, 38474.95180069826, -14615.895106303109, 2376.817450143987, -52445.06030619864, -187500.02235174447, 0.12271022292971612, 0.9753762233257294, 0.05221402111649513, 192.0, 0.0, 0.0, 0.0, 0.0, 0.0, 0.0, 0.0, 0.0, 0.0, 1.741979394621597E9, 0.0, 2025-03-14 14:09:54.621
46.0, -17089.29444423848, -1243.1146196263576, -187500.02235174447, -6333.657364089176, 23893.43367736741, 13776.385936306231, -41734.43963938232, 8164.488752423376, -1329.9511468352255, 44176.23361065789, 12554.036087278853, 38592.87960444446, -14637.173967024562, 2391.659008462311, -52373.288854752645, -187500.02235174447, 0.12271022292971612, 0.9753762233257294, 0.05221402111649513, 192.0, 0.0, 0.0, 0.0, 0.0, 0.0, 0.0, 0.0, 0.0, 0.0, 1.74197939462173E9, 0.0, 2025-03-14 14:09:54.621
48.0, -17078.409144688743, -1228.2060060746678, -187500.02235174447, -6382.473573979566, 23864.890499697984, 13755.732924429527, -41735.37841264944, 8143.366353913111, -1328.0736003009797, 44057.52349585575, 12412.303675687752, 38472.33664659699, -14631.831900099744, 2359.7183656356774, -52445.95437597685, -187500.02235174447, 0.12271022292971612, 0.9753762233257294, 0.05221402111649513, 192.0, 0.0, 0.0, 0.0, 0.0, 0.0, 0.0, 0.0, 0.0, 0.0, 1.741979394621841E9, 0.0, 2025-03-14 14:09:54.621
50.0, -17079.86200807834, -1227.9154333967488, -187500.02235174447, -6339.178244969636, 23888.5386453317, 13777.056488639892, -41736.92068301686, 8156.71034535293, -1314.2825739720554, 44165.68358727498, 12535.48413938095, 38578.97681939326, -14617.79500458181, 2393.6483137188334, -52385.93994211435, -187500.02235174447, 0.11935511146485805, 0.9766881116628647, 0.05310701055824757, 192.0, 1.5, 80.0, 15.0, 72.0, 0.5, 88.0, 0.0, 0.0, 0.0, 1.741979394621948E9, 0.0, 2025-03-14 14:09:54.621
52.0, -17057.1749874562, -1225.3226310399332, -187500.02235174447, -6381.423041990166, 23861.850662452063, 13761.611433221273, -41730.97511899175, 8144.32747892469, -1283.0795387124467, 44063.33494941413, 12416.617562367626, 38477.94693445527, -14634.961144323486, 2371.8106593859984, -52441.9757654638, -187500.02235174447, 0.11935511146485805, 0.9766881116628647, 0.05310701055824757, 192.0, 0.0, 0.0, 0.0, 0.0, 0.0, 0.0, 0.0, 0.0, 0.0, 1.741979394622053E9, 0.0, 2025-03-14 14:09:54.622
54.0, -17047.56373734042, -1206.4354069751987, -187500.02235174447, -6323.9790587400275, 23892.561959333656, 13787.58416027834, -41725.342479389015, 8159.481961665388, -1275.7034630421954, 44177.194735669465, 12543.329601684762, 38593.036066655644, -14641.867833360177, 2397.626924231878, -52368.43852620584, -187500.02235174447, 0.11935511146485805, 0.9766881116628647, 0.05310701055824757, 192.0, 0.0, 0.0, 0.0, 0.0, 0.0, 0.0, 0.0, 0.0, 0.0, 1.741979394622154E9, 0.0, 2025-03-14 14:09:54.622
56.0, -17027.80479524193, -1182.5413921524755, -187500.02235174447, -6411.9108214272055, 23824.836173634074, 13730.631915406218, -41718.81577000806, 8111.269248875291, -1275.032910708536, 44060.18335344593, 12404.212344194932, 38469.56503028453, -14601.232361940429, 2386.4734037486796, -52458.87368427202, -187500.02235174447, 0.11935511146485805, 0.9766881116628647, 0.05310701055824757, 192.0, 0.0, 0.0, 0.0, 0.0, 0.0, 0.0, 0.0, 0.0, 0.0, 1.741979394622259E9, 0.0, 2025-03-14 14:09:54.622
58.0, -17067.769714328017, -1201.4062644727546, -187500.02235174447, -6335.0208205009485, 23885.722325530332, 13772.228511837544, -41725.25307241119, 8142.829912046184, -1289.7850620490387, 44150.59615976765, 12506.158650655587, 38553.94286560331, -14606.932056776532, 2437.05540145104, -52408.246983080746, -187500.02235174447, 0.11935511146485805, 0.9766881116628647, 0.05310701055824757, 192.0, 0.0, 0.0, 0.0, 0.0, 0.0, 0.0, 0.0, 0.0, 0.0, 1.741979394622363E9, 0.0, 2025-03-14 14:09:54.622
60.0, -17053.017562987516, -1200.4004359722658, -187500.02235174447, -6412.916649927694, 23831.94402837086, 13731.391874717698, -41726.97415673425, 8112.208022142413, -1300.6256581098626, 44078.78000483275, 12424.194803737975, 38484.63010604741, -14614.866926058165, 2388.6415229608447, -52449.553006834154, -187500.02235174447, 0.11567755573242902, 0.9773440558314324, 0.05255350527912379, 192.0, 1.5, 64.0, 15.0, 72.0, 0.5, 80.0, 0.0, 0.0, 0.0, 1.741979394681822E9, 0.0, 2025-03-14 14:09:54.681
62.0, -17052.145844953757, -1215.130235568313, -187500.02235174447, -6299.727416006019, 23918.981721279826, 13803.789175008438, -41739.26761618467, 8173.496505438866, -1255.7880587325167, 44157.681662759984, 12508.550287312304, 38562.01184535168, -14632.144824522118, 2417.4082180748246, -52393.58423871807, -187500.02235174447, 0.11567755573242902, 0.9773440558314324, 0.05255350527912379, 192.0, 0.0, 0.0, 0.0, 0.0, 0.0, 0.0, 0.0, 0.0, 0.0, 1.741979394681977E9, 0.0, 2025-03-14 14:09:54.681
64.0, -17058.2255194456, -1224.227395561623, -187500.02235174447, -6382.02653909046, 23852.977019903305, 13760.113866342768, -41726.92945324534, 8139.186577699969, -1308.0240855245693, 44112.12880756007, 12456.940109365, 38526.80784783457, -14619.583144138234, 2391.6366567178557, -52408.246983080746, -187500.02235174447, 0.11567755573242902, 0.9773440558314324, 0.05255350527912379, 192.0, 0.0, 0.0, 0.0, 0.0, 0.0, 0.0, 0.0, 0.0, 0.0, 1.741979394682082E9, 0.0, 2025-03-14 14:09:54.682
66.0, -17048.904842007738, -1216.426636746721, -187500.02235174447, -6296.307599104357, 23922.20037248139, 13808.281875643956, -41723.867264254965, 8176.089307795681, -1279.0562247104913, 44153.59129352466, 12497.620284273658, 38567.71154018778, -14608.116699232663, 2398.275124821082, -52376.88748560995, -187500.02235174447, 0.11567755573242902, 0.9773440558314324, 0.05255350527912379, 192.0, 0.0, 0.0, 0.0, 0.0, 0.0, 0.0, 0.0, 0.0, 0.0, 1.741979394682191E9, 0.0, 2025-03-14 14:09:54.682
68.0, -17061.488874136077, -1206.3907034862882, -187500.02235174447, -6419.711580242108, 23826.04316783466, 13726.51919442644, -41709.316278614555, 8104.116690649592, -1306.0571320125023, 44106.67498191297, 12451.374524995628, 38529.065374024554, -14621.617152883668, 2385.7804996705654, -52408.02346563619, -187500.02235174447, 0.11567755573242902, 0.9773440558314324, 0.05255350527912379, 192.0, 0.0, 0.0, 0.0, 0.0, 0.0, 0.0, 0.0, 0.0, 0.0, 1.741979394682292E9, 0.0, 2025-03-14 14:09:54.682
70.0, -17079.459676678143, -1219.198253059179, -187500.02235174447, -6300.263857872947, 23927.20716323938, 13810.11471868929, -41730.05869746908, 8177.944502585471, -1271.166058917768, 44118.34259251864, 12461.23164430042, 38533.35690895998, -14628.166214009074, 2419.6880960092662, -52399.86507891001, -187500.02235174447, 0.11583877786621452, 0.9786720279157162, 0.0512767526395619, 192.0, 1.5, 80.0, 15.0, 80.0, 0.5, 72.0, 0.0, 0.0, 0.0, 1.741979394682399E9, 0.0, 2025-03-14 14:09:54.682
72.0, -17078.31973771092, -1223.713305439151, -187500.02235174447, -6406.03231263546, 23832.793394660162, 13732.28594449591, -41712.42317109385, 8111.336304108657, -1324.743190377139, 44126.67979320047, 12478.844818931202, 38551.12654580195, -14621.885373817131, 2395.2129358307047, -52384.755299658216, -187500.02235174447, 0.11583877786621452, 0.9786720279157162, 0.0512767526395619, 192.0, 0.0, 0.0, 0.0, 0.0, 0.0, 0.0, 0.0, 0.0, 0.0, 1.741979394682508E9, 0.0, 2025-03-14 14:09:54.682
74.0, -17055.99034500007, -1223.0204013610366, -187500.02235174447, -6309.919811477639, 23921.127488747537, 13799.318826117376, -41722.12382818745, 8169.495543181365, -1291.3496841609103, 44099.0083335648, 12437.315277733242, 38512.25686219417, -14610.262466700373, 2408.33340982597, -52413.81256745012, -187500.02235174447, 0.11583877786621452, 0.9786720279157162, 0.0512767526395619, 192.0, 0.0, 0.0, 0.0, 0.0, 0.0, 0.0, 0.0, 0.0, 0.0, 1.741979394742139E9, 0.0, 2025-03-14 14:09:54.742
76.0, -17041.32760063739, -1227.9377851412041, -187500.02235174447, -6405.540574257443, 23832.592228960068, 13727.927354327127, -41704.4435983233, 8107.514155806799, -1312.4273791822648, 44143.37654630859, 12499.363720341173, 38570.86313615598, -14631.183699510539, 2387.1216043378836, -52372.95357858582, -187500.02235174447, 0.11583877786621452, 0.9786720279157162, 0.0512767526395619, 192.0, 0.0, 0.0, 0.0, 0.0, 0.0, 0.0, 0.0, 0.0, 0.0, 1.741979394742275E9, 0.0, 2025-03-14 14:09:54.742
78.0, -17019.624056771285, -1215.9572501131595, -187500.02235174447, -6331.466893132555, 23907.559979863167, 13781.169209619668, -41720.40274386439, 8151.077705750193, -1302.682018599751, 44066.71006282688, 12409.733225075392, 38484.22777464721, -14605.434489898025, 2392.7095404517104, -52441.5287305747, -187500.02235174447, 0.11583877786621452, 0.9786720279157162, 0.0512767526395619, 192.0, 0.0, 0.0, 0.0, 0.0, 0.0, 0.0, 0.0, 0.0, 0.0, 1.741979394742385E9, 0.0, 2025-03-14 14:09:54.742
80.0, -17055.856234533338, -1210.0340378325031, -187500.02235174447, -6378.941998355627, 23856.709761227343, 13749.988526104515, -41715.194787406304, 8127.697781049941, -1294.5683353624745, 44150.73027023438, 12517.938019983534, 38582.32958106155, -14620.298399960804, 2415.1059883959283, -52369.69022389534, -187500.02235174447, 0.11591938893310727, 0.9783360139578581, 0.05163837631978095, 192.0, 1.5, 80.0, 15.0, 72.0, 0.5, 80.0, 0.0, 0.0, 0.0, 1.741979394742488E9, 0.0, 2025-03-14 14:09:54.742
82.0, -17050.581222841887, -1222.0369246050032, -187500.02235174447, -6337.725381580041, 23901.81558153815, 13777.905854929193, -41722.92849098784, 8150.205987716436, -1275.099965941902, 44067.04533899371, 12415.835251311692, 38490.843891005985, -14604.920399775554, 2408.534575526068, -52426.15073038945, -187500.02235174447, 0.11591938893310727, 0.9783360139578581, 0.05163837631978095, 192.0, 0.0, 0.0, 0.0, 0.0, 0.0, 0.0, 0.0, 0.0, 0.0, 1.741979394742602E9, 0.0, 2025-03-14 14:09:54.742
84.0, -17058.18081595669, -1209.8999273657712, -187500.02235174447, -6380.193696045125, 23857.156796116447, 13746.456950480575, -41714.92656647284, 8121.998086213838, -1301.2515069546112, 44169.773956510304, 12535.238270191941, 38597.19349112434, -14621.863022072677, 2414.323677339992, -52356.88267432245, -187500.02235174447, 0.11591938893310727, 0.9783360139578581, 0.05163837631978095, 192.0, 0.0, 0.0, 0.0, 0.0, 0.0, 0.0, 0.0, 0.0, 0.0, 1.741979394742706E9, 0.0, 2025-03-14 14:09:54.742
86.0, -17036.65608604623, -1208.2011947871679, -187500.02235174447, -6372.012957574482, 23875.462874825345, 13748.379200503732, -41713.093723427504, 8116.499557077833, -1293.7860243065388, 44059.62455983455, 12396.724509802403, 38474.0800826645, -14598.527800861337, 2403.4383777902576, -52445.28382364319, -187500.02235174447, 0.11591938893310727, 0.9783360139578581, 0.05163837631978095, 192.0, 0.0, 0.0, 0.0, 0.0, 0.0, 0.0, 0.0, 0.0, 0.0, 1.741979394742808E9, 0.0, 2025-03-14 14:09:54.742
88.0, -17047.653144318243, -1212.4480262336763, -187500.02235174447, -6398.656236965208, 23839.52126974121, 13722.182956002112, -41706.052923924086, 8089.163373608992, -1301.0503412545136, 44162.084956417675, 12517.736854283436, 38581.14493860542, -14607.647312599101, 2416.536500041068, -52388.599799704534, -187500.02235174447, 0.11591938893310727, 0.9783360139578581, 0.05163837631978095, 192.0, 0.0, 0.0, 0.0, 0.0, 0.0, 0.0, 0.0, 0.0, 0.0, 1.741979394742913E9, 0.0, 2025-03-14 14:09:54.742
90.0, -17033.102158677837, -1210.52577621052, -187500.02235174447, -6368.16845752817, 23877.76510450424, 13754.39181976221, -41716.96057521827, 8118.824138501184, -1284.5100503575864, 44048.2475219068, 12380.608902050126, 38461.16077436933, -14602.931094519032, 2396.375226542381, -52469.3343006771, -187500.02235174447, 0.11295969446655363, 0.978168006978929, 0.047819188159890474, 192.0, 1.5, 56.0, 15.0, 72.0, 0.5, 48.0, 0.0, 0.0, 0.0, 1.741979394802448E9, 0.0, 2025-03-14 14:09:54.802
92.0, -17064.57341487091, -1226.7531426850728, -187500.02235174447, -6346.375506684245, 23884.045944696183, 13769.814523436371, -41723.04024971012, 8132.972792741394, -1311.2203849816783, 44183.92261075051, 12550.862139566201, 38613.86789248799, -14622.913554062075, 2430.1487124143496, -52361.80005810262, -187500.02235174447, 0.11295969446655363, 0.978168006978929, 0.047819188159890474, 192.0, 0.0, 0.0, 0.0, 0.0, 0.0, 0.0, 0.0, 0.0, 0.0, 1.741979394802592E9, 0.0, 2025-03-14 14:09:54.802
94.0, -17031.872812732796, -1220.0923228373913, -187500.02235174447, -6385.781632158952, 23865.11401714254, 13746.076970824835, -41715.127732172936, 8114.085568676659, -1290.9250010162593, 44054.55071384319, 12394.064652212222, 38476.87405072142, -14626.914516319575, 2393.3800927853695, -52448.658937055945, -187500.02235174447, 0.11295969446655363, 0.978168006978929, 0.047819188159890474, 192.0, 0.0, 0.0, 0.0, 0.0, 0.0, 0.0, 0.0, 0.0, 0.0, 1.741979394802708E9, 0.0, 2025-03-14 14:09:54.802
96.0, -17072.642394619274, -1216.069008835436, -187500.02235174447, -6343.335669438323, 23886.48228484181, 13767.020555379459, -41716.46883684026, 8134.4703596199, -1298.4798906421531, 44181.46391886043, 12542.636697606647, 38607.944680207336, -14596.247922926894, 2434.172026416305, -52363.45408719231, -187500.02235174447, 0.11295969446655363, 0.978168006978929, 0.047819188159890474, 192.0, 0.0, 0.0, 0.0, 0.0, 0.0, 0.0, 0.0, 0.0, 0.0, 1.741979394802811E9, 0.0, 2025-03-14 14:09:54.802
98.0, -17077.649185377264, -1238.6442707352962, -187500.02235174447, -6381.020710589971, 23868.91381369994, 13749.072104581846, -41716.804113007085, 8119.2264699013795, -1295.2388876961336, 44060.71979531286, 12389.393137621062, 38471.77785298561, -14623.449995929002, 2423.331430355481, -52452.972823735814, -187500.02235174447, 0.11295969446655363, 0.978168006978929, 0.047819188159890474, 192.0, 0.0, 0.0, 0.0, 0.0, 0.0, 0.0, 0.0, 0.0, 0.0, 1.741979394802914E9, 0.0, 2025-03-14 14:09:54.802
100.0, -17071.591862629874, -1248.2108173621675, -187500.02235174447, -6311.797358011885, 23915.919532289452, 13794.580256292851, -41725.72245904475, 8160.644252377064, -1298.614001108885, 44194.42793064451, 12552.449113422528, 38618.695869290335, -14623.829975584744, 2426.013639690118, -52349.95363354131, -187500.02235174447, 0.1104798472332768, 0.9760840034894644, 0.045909594079945236, 192.0, 1.5, 48.0, 15.0, 56.0, 0.5, 48.0, 0.0, 0.0, 0.0, 1.741979394803013E9, 0.0, 2025-03-14 14:09:54.803
102.0, -17071.39069692978, -1238.5772155019304, -187500.02235174447, -6374.337538997834, 23872.91477595744, 13759.800941920394, -41720.380392119936, 8134.626821831086, -1328.6547456568178, 44079.15998448849, 12422.74194034838, 38503.91966151234, -14622.488870917425, 2387.859211904909, -52418.03704715217, -187500.02235174447, 0.1104798472332768, 0.9760840034894644, 0.045909594079945236, 192.0, 0.0, 0.0, 0.0, 0.0, 0.0, 0.0, 0.0, 0.0, 0.0, 1.741979394803116E9, 0.0, 2025-03-14 14:09:54.803
104.0, -17074.788162086985, -1234.7550672000727, -187500.02235174447, -6315.351285380279, 23914.757241577776, 13790.53459054644, -41724.135485188424, 8156.844455819662, -1309.87928031436, 44177.21708741392, 12537.808720804302, 38597.506415546704, -14614.777519080344, 2430.886319981375, -52356.34623245552, -187500.02235174447, 0.1104798472332768, 0.9760840034894644, 0.045909594079945236, 192.0, 0.0, 0.0, 0.0, 0.0, 0.0, 0.0, 0.0, 0.0, 0.0, 1.741979394861919E9, 0.0, 2025-03-14 14:09:54.861
106.0, -17067.814417816928, -1224.875596150827, -187500.02235174447, -6413.69896098363, 23845.064502366127, 13728.396740960687, -41714.010144950174, 8104.206097627413, -1319.9822688081586, 44077.9529902879, 12419.8809170581, 38491.246222406175, -14622.019484283863, 2402.8125289455093, -52423.84850071055, -187500.02235174447, 0.1104798472332768, 0.9760840034894644, 0.045909594079945236, 192.0, 0.0, 0.0, 0.0, 0.0, 0.0, 0.0, 0.0, 0.0, 0.0, 1.741979394862033E9, 0.0, 2025-03-14 14:09:54.862
108.0, -17058.98547875708, -1228.809503174961, -187500.02235174447, -6315.664209802653, 23917.528857890233, 13790.556942290896, -41726.12479044495, 8155.793923830262, -1288.7345300596394, 44163.78368899628, 12518.34035138373, 38569.47732799975, -14597.7454898054, 2434.8649304944197, -52375.03229082016, -187500.02235174447, 0.1104798472332768, 0.9760840034894644, 0.045909594079945236, 192.0, 0.0, 0.0, 0.0, 0.0, 0.0, 0.0, 0.0, 0.0, 0.0, 1.741979394862136E9, 0.0, 2025-03-14 14:09:54.862
110.0, -17044.41214137222, -1232.1399130988018, -187500.02235174447, -6419.9574494311155, 23836.839060406575, 13718.271400722433, -41713.943089716806, 8095.243048100835, -1282.0960619564132, 44089.75471136031, 12432.88963233109, 38496.3871236309, -14627.070978530763, 2431.1321891703833, -52423.11089314352, -187500.02235174447, 0.1112399236166384, 0.9780420017447322, 0.04395479703997262, 192.0, 1.5, 64.0, 15.0, 80.0, 0.5, 40.0, 0.0, 0.0, 0.0, 1.741979394862246E9, 0.0, 2025-03-14 14:09:54.862
112.0, -17081.873665079318, -1243.6734132377403, -187500.02235174447, -6311.48443358951, 23922.133317248026, 13791.026328924458, -41731.422153880856, 8156.509179652832, -1284.644160824318, 44144.203560853435, 12489.57365626975, 38542.14114453091, -14602.282893929827, 2449.6841370682882, -52397.00405561973, -187500.02235174447, 0.1112399236166384, 0.9780420017447322, 0.04395479703997262, 192.0, 0.0, 0.0, 0.0, 0.0, 0.0, 0.0, 0.0, 0.0, 0.0, 1.741979394862349E9, 0.0, 2025-03-14 14:09:54.862
114.0, -17085.539351169988, -1255.4080790767764, -187500.02235174447, -6402.880716667261, 23849.087816368083, 13739.684371910618, -41717.94405197431, 8118.153586167525, -1312.360323948899, 44112.464083726896, 12459.264690788352, 38518.20242621928, -14629.060283787285, 2415.1506918848386, -52402.27906731118, -187500.02235174447, 0.1112399236166384, 0.9780420017447322, 0.04395479703997262, 192.0, 0.0, 0.0, 0.0, 0.0, 0.0, 0.0, 0.0, 0.0, 0.0, 1.741979394862457E9, 0.0, 2025-03-14 14:09:54.862
116.0, -17092.62485416232, -1252.457648808676, -187500.02235174447, -6302.521384062932, 23931.968084808363, 13802.269256385478, -41733.27734867064, 8170.389612959578, -1315.9589548062033, 44141.09666837414, 12487.584351013227, 38541.26942649716, -14630.960182065986, 2437.1895119177716, -52385.805831647616, -187500.02235174447, 0.1112399236166384, 0.9780420017447322, 0.04395479703997262, 192.0, 0.0, 0.0, 0.0, 0.0, 0.0, 0.0, 0.0, 0.0, 0.0, 1.741979394862559E9, 0.0, 2025-03-14 14:09:54.862
118.0, -17065.60159511585, -1241.192369603201, -187500.02235174447, -6402.612495733798, 23845.08685411058, 13733.403531718675, -41718.97223221925, 8110.598696541631, -1314.0814082719576, 44135.531084004775, 12489.394842314106, 38545.784478877125, -14621.103062761196, 2410.8591569494197, -52376.17222978738, -187500.02235174447, 0.1112399236166384, 0.9780420017447322, 0.04395479703997262, 192.0, 0.0, 0.0, 0.0, 0.0, 0.0, 0.0, 0.0, 0.0, 0.0, 1.74197939486266E9, 0.0, 2025-03-14 14:09:54.862
120.0, -17084.5335226695, -1247.8978929397933, -187500.02235174447, -6309.316314377345, 23928.011826039772, 13794.133221403745, -41730.371621891456, 8160.9571767994385, -1304.0901785004353, 44113.26874652729, 12460.18111231102, 38512.1898069608, -14600.785327051322, 2437.725953784699, -52407.24115458026, -187500.02235174447, 0.1116199618083192, 0.9800210008723661, 0.04297739851998631, 192.0, 1.5, 64.0, 15.0, 88.0, 0.5, 40.0, 0.0, 0.0, 0.0, 1.741979394922132E9, 0.0, 2025-03-14 14:09:54.922
122.0, -17065.288670693477, -1231.0223258760366, -187500.02235174447, -6405.182946346158, 23837.19668831786, 13722.629990891219, -41710.67973502633, 8099.244010358336, -1285.1806026912454, 44143.2200840974, 12496.972083684455, 38549.986606834726, -14624.969914551964, 2428.561738558023, -52379.52499145568, -187500.02235174447, 0.1116199618083192, 0.9800210008723661, 0.04297739851998631, 192.0, 0.0, 0.0, 0.0, 0.0, 0.0, 0.0, 0.0, 0.0, 0.0, 1.74197939492225E9, 0.0, 2025-03-14 14:09:54.922
124.0, -17063.18760671468, -1231.8716921653381, -187500.02235174447, -6315.038360957905, 23922.289779459214, 13792.121564402767, -41734.19377019331, 8152.977604028893, -1300.6033063654074, 44095.454406196404, 12435.08010328771, 38489.12280668292, -14614.241077213417, 2437.9271194847965, -52427.13420714548, -187500.02235174447, 0.1116199618083192, 0.9800210008723661, 0.04297739851998631, 192.0, 0.0, 0.0, 0.0, 0.0, 0.0, 0.0, 0.0, 0.0, 0.0, 1.74197939492235E9, 0.0, 2025-03-14 14:09:54.922
126.0, -17067.881473050293, -1240.2535963360783, -187500.02235174447, -6369.241341262024, 23865.941031687384, 13762.751372188493, -41730.19280793581, 8131.475225862888, -1315.936603061748, 44165.90710471953, 12527.839842777234, 38577.36749379247, -14636.123435035162, 2426.237157134671, -52354.98277604375, -187500.02235174447, 0.1116199618083192, 0.9800210008723661, 0.04297739851998631, 192.0, 0.0, 0.0, 0.0, 0.0, 0.0, 0.0, 0.0, 0.0, 0.0, 1.74197939492246E9, 0.0, 2025-03-14 14:09:54.922
128.0, -17059.141940968268, -1233.5704247439414, -187500.02235174447, -6284.662340243142, 23940.864079101575, 13825.895050274738, -41740.429906896345, 8180.872581109117, -1261.8677332243603, 44109.178377291966, 12448.960536594455, 38508.90410052587, -14622.399463939604, 2436.9883462176736, -52395.46178525231, -187500.02235174447, 0.1116199618083192, 0.9800210008723661, 0.04297739851998631, 192.0, 0.0, 0.0, 0.0, 0.0, 0.0, 0.0, 0.0, 0.0, 0.0, 1.74197939492256E9, 0.0, 2025-03-14 14:09:54.922
130.0, -17081.29251972348, -1233.9280526552263, -187500.02235174447, -6349.4600474190775, 23874.010011435752, 13777.235302595533, -41726.9965084787, 8135.543243353754, -1328.5876904234517, 44186.53776485178, 12551.018601777389, 38596.344124835035, -14620.946600550009, 2430.0593054365286, -52337.704877579796, -187500.02235174447, 0.11280998090415961, 0.9830105004361831, 0.04248869925999316, 192.0, 1.5, 72.0, 15.0, 104.0, 0.5, 40.0, 0.0, 0.0, 0.0, 1.741979394922661E9, 0.0, 2025-03-14 14:09:54.922
132.0, -17045.529728594985, -1226.5743287294304, -187500.02235174447, -6312.333799878812, 23920.993378280804, 13807.968951221581, -41735.15489520489, 8158.967871542915, -1283.906553257293, 44104.95389758991, 12442.679696402514, 38501.41626613334, -14624.925211063053, 2438.083581695984, -52396.13233758597, -187500.02235174447, 0.11280998090415961, 0.9830105004361831, 0.04248869925999316, 192.0, 0.0, 0.0, 0.0, 0.0, 0.0, 0.0, 0.0, 0.0, 0.0, 1.741979394922775E9, 0.0, 2025-03-14 14:09:54.922
134.0, -17072.552987641455, -1223.4450845056874, -187500.02235174447, -6378.763184399985, 23859.034342650695, 13750.904947627181, -41715.03832519511, 8107.491804062343, -1322.1056845314129, 44187.36477939663, 12539.887433038644, 38588.58806950904, -14620.499565660903, 2436.787180517576, -52351.13827599744, -187500.02235174447, 0.11280998090415961, 0.9830105004361831, 0.04248869925999316, 192.0, 0.0, 0.0, 0.0, 0.0, 0.0, 0.0, 0.0, 0.0, 0.0, 1.741979394983881E9, 0.0, 2025-03-14 14:09:54.983
136.0, -17066.719182338617, -1238.420753290743, -187500.02235174447, -6338.530044380432, 23909.236360697316, 13790.623997524262, -41731.3998021364, 8140.192406200458, -1295.1271289738572, 44076.74599608732, 12404.145288961565, 38466.2793238496, -14590.592931579702, 2436.2954421395593, -52432.72214325931, -187500.02235174447, 0.11280998090415961, 0.9830105004361831, 0.04248869925999316, 192.0, 0.0, 0.0, 0.0, 0.0, 0.0, 0.0, 0.0, 0.0, 0.0, 1.741979394983996E9, 0.0, 2025-03-14 14:09:54.983
138.0, -17100.850296121873, -1246.6461952502962, -187500.02235174447, -6356.009108544482, 23884.470627840834, 13775.782439205937, -41722.57086307655, 8125.842586260151, -1306.1465389903235, 44200.12762548061, 12551.95737504451, 38594.667744000886, -14633.530632678347, 2442.9339102427853, -52343.605738116, -187500.02235174447, 0.11280998090415961, 0.9830105004361831, 0.04248869925999316, 192.0, 0.0, 0.0, 0.0, 0.0, 0.0, 0.0, 0.0, 0.0, 0.0, 1.741979394984097E9, 0.0, 2025-03-14 14:09:54.984
140.0, -17073.581167886397, -1246.869712694849, -187500.02235174447, -6335.132579223226, 23913.259674699268, 13801.218724396078, -41731.95859574778, 8155.972737785904, -1284.9570852466925, 44082.5574496457, 12413.287152443785, 38470.637914018385, -14632.949487322509, 2429.5452153140563, -52414.34900931705, -187500.02235174447, 0.1164049904520798, 0.9845052502180915, 0.04124434962999658, 192.0, 1.5, 96.0, 15.0, 104.0, 0.5, 32.0, 0.0, 0.0, 0.0, 1.741979394984199E9, 0.0, 2025-03-14 14:09:54.984
142.0, -17083.32652846891, -1251.742392986106, -187500.02235174447, -6315.775968524929, 23908.275235685735, 13805.957294220603, -41738.26178768418, 8163.326461711701, -1325.1455217773346, 44218.724276867426, 12574.286767755362, 38617.60063381203, -14615.828051069744, 2443.6268143209, -52307.999409198696, -187500.02235174447, 0.1164049904520798, 0.9845052502180915, 0.04124434962999658, 192.0, 0.0, 0.0, 0.0, 0.0, 0.0, 0.0, 0.0, 0.0, 0.0, 1.741979394984305E9, 0.0, 2025-03-14 14:09:54.984
144.0, -17062.33824042538, -1242.7569917150727, -187500.02235174447, -6340.519349636955, 23896.272348913237, 13791.942750447126, -41734.37258414896, 8157.135028497581, -1319.5352339190524, 44097.82369110867, 12432.397893953073, 38492.34145788449, -14626.467481430469, 2417.0952936524504, -52384.57648570258, -187500.02235174447, 0.1164049904520798, 0.9845052502180915, 0.04124434962999658, 192.0, 0.0, 0.0, 0.0, 0.0, 0.0, 0.0, 0.0, 0.0, 0.0, 1.741979394984405E9, 0.0, 2025-03-14 14:09:54.984
146.0, -17022.619190528298, -1217.6336309473074, -187500.02235174447, -6339.021782758449, 23886.929319730916, 13773.39080254922, -41721.87795899844, 8137.912528266017, -1288.3321986594437, 44196.75251206786, 12550.571566888282, 38590.935002676844, -14625.595763396714, 2454.623872592911, -52331.37933389895, -187500.02235174447, 0.1164049904520798, 0.9845052502180915, 0.04124434962999658, 192.0, 0.0, 0.0, 0.0, 0.0, 0.0, 0.0, 0.0, 0.0, 0.0, 1.741979394984506E9, 0.0, 2025-03-14 14:09:54.984
148.0, -17081.963072057137, -1241.035907392014, -187500.02235174447, -6406.434644035655, 23848.90900241244, 13729.894307839193, -41714.90421472838, 8104.496670305332, -1260.0795936679356, 44060.00453949029, 12386.68857654197, 38447.481506762684, -14623.874679073655, 2431.176892659294, -52435.04672468266, -187500.02235174447, 0.1164049904520798, 0.9845052502180915, 0.04124434962999658, 192.0, 0.0, 0.0, 0.0, 0.0, 0.0, 0.0, 0.0, 0.0, 0.0, 1.741979394984613E9, 0.0, 2025-03-14 14:09:54.984
150.0, -17095.41882221923, -1256.3021488549887, -187500.02235174447, -6345.347326439301, 23888.225720909326, 13759.465665753563, -41721.833255509526, 8129.016533972805, -1340.5905771959517, 44172.88084898959, 12518.317999639274, 38562.88356338544, -14596.113812460162, 2459.7647738176315, -52368.93026458386, -187500.02235174447, 0.1192024952260399, 0.9852526251090458, 0.04262217481499829, 192.0, 1.5, 104.0, 15.0, 104.0, 0.5, 48.0, 0.0, 0.0, 0.0, 1.741979395042895E9, 0.0, 2025-03-14 14:09:55.042
152.0, -17086.81340060394, -1230.105904353369, -187500.02235174447, -6399.751472443518, 23852.10530186955, 13730.386046217209, -41722.77202877665, 8109.101129663126, -1321.613946153396, 44066.53124887124, 12390.197800421454, 38449.18023934129, -14620.253696471895, 2432.0039072041404, -52445.30617538765, -187500.02235174447, 0.1192024952260399, 0.9852526251090458, 0.04262217481499829, 192.0, 0.0, 0.0, 0.0, 0.0, 0.0, 0.0, 0.0, 0.0, 0.0, 1.741979395043013E9, 0.0, 2025-03-14 14:09:55.043
154.0, -17059.544272368465, -1244.746296971595, -187500.02235174447, -6319.352247637778, 23910.219837453347, 13775.067183383368, -41728.136447445926, 8146.629708603587, -1295.0600737404911, 44182.8273752722, 12521.514299096383, 38563.91174363038, -14612.475289401447, 2466.4479454097686, -52366.18100001586, -187500.02235174447, 0.1192024952260399, 0.9852526251090458, 0.04262217481499829, 192.0, 0.0, 0.0, 0.0, 0.0, 0.0, 0.0, 0.0, 0.0, 0.0, 1.741979395043111E9, 0.0, 2025-03-14 14:09:55.043
156.0, -17056.14680721126, -1233.838645677405, -187500.02235174447, -6402.232516078057, 23853.558165259143, 13728.642610149696, -41725.811866022574, 8111.783338997762, -1302.5032046441086, 44086.24548748082, 12412.661303599038, 38467.46396630573, -14621.661856372579, 2429.880491480886, -52429.928175202396, -187500.02235174447, 0.1192024952260399, 0.9852526251090458, 0.04262217481499829, 192.0, 0.0, 0.0, 0.0, 0.0, 0.0, 0.0, 0.0, 0.0, 0.0, 1.741979395043216E9, 0.0, 2025-03-14 14:09:55.043
158.0, -17072.687098108185, -1232.2069683321677, -187500.02235174447, -6278.33679656229, 23945.960276837384, 13817.513146103996, -41740.69812782981, 8189.723871913418, -1288.6004195929074, 44183.475575861405, 12521.179022929553, 38567.39861576541, -14628.479138431447, 2473.6675588688327, -52355.63097663295, -187500.02235174447, 0.1192024952260399, 0.9852526251090458, 0.04262217481499829, 192.0, 0.0, 0.0, 0.0, 0.0, 0.0, 0.0, 0.0, 0.0, 0.0, 1.741979395043322E9, 0.0, 2025-03-14 14:09:55.043
160.0, -17081.80660984595, -1232.229320076623, -187500.02235174447, -6375.343367498323, 23864.734037486796, 13755.82233140735, -41726.3483078895, 8137.84547303265, -1338.1765887947786, 44127.81973216769, 12463.019783856844, 38520.86228380946, -14633.552984422802, 2426.684192023777, -52373.288854752645, -187500.02235174447, 0.12160124761301995, 0.9866263125545229, 0.04131108740749914, 192.0, 1.5, 112.0, 15.0, 112.0, 0.5, 32.0, 0.0, 0.0, 0.0, 1.741979395043425E9, 0.0, 2025-03-14 14:09:55.043
162.0, -17077.5821301439, -1263.968797203159, -187500.02235174447, -6264.724584189008, 23946.809643126686, 13825.805643296915, -41739.6028923515, 8198.351645273167, -1327.0677718004908, 44162.97902619589, 12497.32971159574, 38547.036176566624, -14600.673568329046, 2447.7618870451315, -52361.42007844688, -187500.02235174447, 0.12160124761301995, 0.9866263125545229, 0.04131108740749914, 192.0, 0.0, 0.0, 0.0, 0.0, 0.0, 0.0, 0.0, 0.0, 0.0, 1.741979395043534E9, 0.0, 2025-03-14 14:09:55.043
164.0, -17068.75319108405, -1233.168093343746, -187500.02235174447, -6375.008091331493, 23859.30256358416, 13756.87286339675, -41722.41440086537, 8138.314859666212, -1338.198940539234, 44138.77208695079, 12473.94978689549, 38532.775763604135, -14647.500472962915, 2429.7910845030647, -52360.6601191354, -187500.02235174447, 0.12160124761301995, 0.9866263125545229, 0.04131108740749914, 192.0, 0.0, 0.0, 0.0, 0.0, 0.0, 0.0, 0.0, 0.0, 0.0, 1.741979395102261E9, 0.0, 2025-03-14 14:09:55.102
166.0, -17055.61036534433, -1237.8172561904498, -187500.02235174447, -6280.281398329902, 23933.845631342607, 13814.92034374718, -41732.87501727045, 8181.744299142873, -1287.102852714402, 44147.0198806548, 12470.507618249372, 38522.493961154694, -14616.56565863677, 2466.783221576598, -52378.116831554995, -187500.02235174447, 0.12160124761301995, 0.9866263125545229, 0.04131108740749914, 192.0, 0.0, 0.0, 0.0, 0.0, 0.0, 0.0, 0.0, 0.0, 0.0, 1.741979395102382E9, 0.0, 2025-03-14 14:09:55.102
168.0, -17075.168141742724, -1228.653040963774, -187500.02235174447, -6356.076163777848, 23870.38902883399, 13773.68137522714, -41728.09174395702, 8152.061182506226, -1321.0775042864686, 44159.0227674273, 12492.009996415378, 38545.47155445475, -14643.477158960959, 2467.67729135481, -52356.2568254777, -187500.02235174447, 0.12160124761301995, 0.9866263125545229, 0.04131108740749914, 192.0, 0.0, 0.0, 0.0, 0.0, 0.0, 0.0, 0.0, 0.0, 0.0, 1.741979395102487E9, 0.0, 2025-03-14 14:09:55.102
170.0, -17066.65212710525, -1237.8396079349052, -187500.02235174447, -6269.9772441360055, 23949.044817572216, 13832.421759655686, -41736.60775859449, 8198.686921439996, -1315.5566234060077, 44154.79828772525, 12481.772897454846, 38535.5473799166, -14623.271181973361, 2450.2205789352156, -52355.943901055325, -187500.02235174447, 0.12280062380650997, 0.9843131562772615, 0.039655543703749574, 192.0, 1.5, 112.0, 15.0, 88.0, 0.5, 24.0, 0.0, 0.0, 0.0, 1.741979395102597E9, 0.0, 2025-03-14 14:09:55.102
172.0, -17083.72885986911, -1247.5626167729638, -187500.02235174447, -6362.133486525237, 23870.120807900526, 13766.19354083461, -41718.346383374505, 8145.288603936268, -1330.576995679974, 44167.896409976056, 12502.783537242834, 38553.18290629183, -14621.550097650303, 2443.2244829207043, -52351.965290542284, -187500.02235174447, 0.12280062380650997, 0.9843131562772615, 0.039655543703749574, 192.0, 0.0, 0.0, 0.0, 0.0, 0.0, 0.0, 0.0, 0.0, 0.0, 1.741979395102709E9, 0.0, 2025-03-14 14:09:55.102
174.0, -17098.72688039862, -1250.267177852056, -187500.02235174447, -6270.9160174031285, 23947.033160571238, 13825.82799504137, -41732.56209284808, 8195.132994071602, -1315.8024925950162, 44131.73128744737, 12453.60969944116, 38510.62518484893, -14608.630789355135, 2447.180741689294, -52373.713537897296, -187500.02235174447, 0.12280062380650997, 0.9843131562772615, 0.039655543703749574, 192.0, 0.0, 0.0, 0.0, 0.0, 0.0, 0.0, 0.0, 0.0, 0.0, 1.741979395102811E9, 0.0, 2025-03-14 14:09:55.102
176.0, -17062.874682292306, -1243.6734132377403, -187500.02235174447, -6363.184018514636, 23868.176206132914, 13762.661965210673, -41714.077200183536, 8139.387743400067, -1317.1212455178793, 44189.86817477563, 12532.019618990376, 38580.49673801622, -14649.378019497159, 2458.691890083777, -52324.18207218434, -187500.02235174447, 0.12280062380650997, 0.9843131562772615, 0.039655543703749574, 192.0, 0.0, 0.0, 0.0, 0.0, 0.0, 0.0, 0.0, 0.0, 0.0, 1.741979395102912E9, 0.0, 2025-03-14 14:09:55.102
178.0, -17071.94949054116, -1239.2701195800448, -187500.02235174447, -6307.394064354189, 23930.895201074505, 13807.320750632376, -41724.716630544266, 8177.117488040625, -1306.3477046904213, 44102.942240588935, 12421.110263003144, 38476.3823123434, -14614.978684780443, 2458.7142418282324, -52400.80385217713, -187500.02235174447, 0.12280062380650997, 0.9843131562772615, 0.039655543703749574, 192.0, 0.0, 0.0, 0.0, 0.0, 0.0, 0.0, 0.0, 0.0, 0.0, 1.741979395103019E9, 0.0, 2025-03-14 14:09:55.103
180.0, -17096.67051990873, -1248.3672795733548, -187500.02235174447, -6346.286099706424, 23882.68248828441, 13779.314014829877, -41721.18505492032, 8156.106848252636, -1335.3155655044993, 44196.484291134395, 12540.915613283589, 38584.721217718274, -14634.715275134478, 2466.492648898679, -52325.54552859611, -187500.02235174447, 0.12, 0.98, 0.04, 192.0, 1.5, 96.0, 15.0, 80.0, 0.5, 32.0, 0.0, 0.0, 0.0, 1.741979395161896E9, 0.0, 2025-03-14 14:09:55.161
182.0, -17072.217711474623, -1250.3789365743323, -187500.02235174447, -6306.634105042709, 23929.30822721818, 13815.12150944728, -41726.795342778605, 8182.258389265346, -1338.8918446173484, 44097.64487715303, 12419.657399613548, 38477.969286199725, -14621.684208117034, 2453.752154559154, -52393.53953522915, -187500.02235174447, 0.12, 0.98, 0.04, 192.0, 0.0, 0.0, 0.0, 0.0, 0.0, 0.0, 0.0, 0.0, 0.0, 1.741979395162019E9, 0.0, 2025-03-14 14:09:55.162
184.0, -17071.882435307794, -1241.6617562367626, -187500.02235174447, -6346.800189828896, 23885.230587152313, 13782.890293942726, -41708.80218849208, 8149.937766782972, -1298.97162902017, 44207.83897731769, 12554.259604723407, 38597.39465682443, -14626.13220526364, 2461.0388232515843, -52316.35896162498, -187500.02235174447, 0.12, 0.98, 0.04, 192.0, 0.0, 0.0, 0.0, 0.0, 0.0, 0.0, 0.0, 0.0, 0.0, 1.74197939516212E9, 0.0, 2025-03-14 14:09:55.162
186.0, -17044.18862392767, -1218.170072814235, -187500.02235174447, -6339.49116939201, 23906.21887519585, 13792.702709758605, -41715.03832519511, 8155.749220341351, -1275.167021175268, 44086.26783922528, 12399.11614645912, 38459.21617260172, -14611.156536478584, 2474.8074978360532, -52419.95929717533, -187500.02235174447, 0.12, 0.98, 0.04, 192.0, 0.0, 0.0, 0.0, 0.0, 0.0, 0.0, 0.0, 0.0, 0.0, 1.741979395162223E9, 0.0, 2025-03-14 14:09:55.162
188.0, -17085.96403431464, -1243.6287097488296, -187500.02235174447, -6337.144236224203, 23894.752430290275, 13789.215837623578, -41725.65540381139, 8154.631633118586, -1322.3068502315105, 44213.1363407536, 12548.649316865125, 38592.566680022086, -14612.31882719026, 2499.30500975907, -52337.10138047951, -187500.02235174447, 0.12, 0.98, 0.04, 192.0, 0.0, 0.0, 0.0, 0.0, 0.0, 0.0, 0.0, 0.0, 0.0, 1.741979395162332E9, 0.0, 2025-03-14 14:09:55.162
190.0, -17055.789179299973, -1240.1194858693464, -187500.02235174447, -6357.573730656354, 23891.220854666335, 13776.430639795142, -41726.41536312287, 8139.857130033628, -1311.1756814927676, 44096.7061038859, 12404.346454661663, 38466.70400699425, -14624.008789540387, 2471.4323844233018, -52419.06522739711, -187500.02235174447, 0.126, 0.978, 0.04, 192.0, 1.5, 120.0, 15.0, 72.0, 0.5, 32.0, 0.0, 0.0, 0.0, 1.741979395162438E9, 0.0, 2025-03-14 14:09:55.162
192.0, -17073.983499286594, -1249.909549940771, -187500.02235174447, -6315.775968524929, 23909.88456128652, 13799.54234356193, -41730.013993980174, 8160.331327954689, -1322.1727397647787, 44219.10425652317, 12555.24308147944, 38600.792121981634, -14625.126376763152, 2500.2214312817373, -52336.56493861257, -187500.02235174447, 0.126, 0.978, 0.04, 192.0, 0.0, 0.0, 0.0, 0.0, 0.0, 0.0, 0.0, 0.0, 0.0, 1.741979395162555E9, 0.0, 2025-03-14 14:09:55.162
194.0, -17065.24396720457, -1239.225416091134, -187500.02235174447, -6352.768105598463, 23897.233473924814, 13782.689128242628, -41722.347345632, 8146.450894647944, -1321.6586496423067, 44093.375693962065, 12408.772100063814, 38473.94597219777, -14623.986437795931, 2474.6733873693215, -52415.511300028724, -187500.02235174447, 0.126, 0.978, 0.04, 192.0, 0.0, 0.0, 0.0, 0.0, 0.0, 0.0, 0.0, 0.0, 0.0, 1.741979395222158E9, 0.0, 2025-03-14 14:09:55.222
196.0, -17071.36834518532, -1258.58202678943, -187500.02235174447, -6300.845003228785, 23929.241171984813, 13814.92034374718, -41730.12575270245, 8174.524685683809, -1297.7869865640387, 44224.0886955367, 12560.831017593267, 38608.79404649664, -14623.718216862468, 2475.4780501697123, -52326.12667395195, -187500.02235174447, 0.126, 0.978, 0.04, 192.0, 0.0, 0.0, 0.0, 0.0, 0.0, 0.0, 0.0, 0.0, 0.0, 1.741979395222277E9, 0.0, 2025-03-14 14:09:55.222
198.0, -17077.3809644438, -1242.4664190371536, -187500.02235174447, -6356.612605644776, 23894.707726801364, 13787.762974233983, -41729.85753176898, 8153.0893627511705, -1323.9608793212033, 44110.20655753691, 12426.429978183507, 38493.146120684876, -14630.691961132523, 2454.422706892813, -52397.09346259755, -187500.02235174447, 0.126, 0.978, 0.04, 192.0, 0.0, 0.0, 0.0, 0.0, 0.0, 0.0, 0.0, 0.0, 0.0, 1.741979395222379E9, 0.0, 2025-03-14 14:09:55.222
200.0, -17098.436307720698, -1243.3381370709108, -187500.02235174447, -6295.212363626047, 23936.058454043683, 13820.910611261203, -41724.0460782106, 8181.252560764857, -1312.2038617377118, 44212.89047156459, 12551.309174455308, 38598.66870625838, -14618.644370871112, 2475.6792158698104, -52328.31714490857, -187500.02235174447, 0.124, 0.984, 0.042, 192.0, 1.5, 112.0, 15.0, 96.0, 0.5, 40.0, 0.0, 0.0, 0.0, 1.741979395222487E9, 0.0, 2025-03-14 14:09:55.222
202.0, -17064.685173593185, -1238.6442707352962, -187500.02235174447, -6382.831201890851, 23873.96530794684, 13767.691107713117, -41715.84298799551, 8135.94557475395, -1306.5265186460638, 44108.820749380684, 12429.872146829623, 38491.335629384, -14624.925211063053, 2451.405221391347, -52393.24896255124, -187500.02235174447, 0.124, 0.984, 0.042, 192.0, 0.0, 0.0, 0.0, 0.0, 0.0, 0.0, 0.0, 0.0, 0.0, 1.741979395222602E9, 0.0, 2025-03-14 14:09:55.222
204.0, -17091.23904600609, -1252.904683697782, -187500.02235174447, -6286.025796654916, 23949.804776883695, 13833.516995133996, -41732.98677599273, 8190.752052158363, -1318.1717775072786, 44197.043084745776, 12528.152767199608, 38573.09831060151, -14609.971894022454, 2497.561573691556, -52347.74081084023, -187500.02235174447, 0.124, 0.984, 0.042, 192.0, 0.0, 0.0, 0.0, 0.0, 0.0, 0.0, 0.0, 0.0, 0.0, 1.741979395222707E9, 0.0, 2025-03-14 14:09:55.222
206.0, -17055.476254877598, -1237.8843114238157, -187500.02235174447, -6376.058623320892, 23876.736924259298, 13778.241131096021, -41724.22489216625, 8144.126313224592, -1322.3962572093317, 44129.652575213026, 12452.737981407403, 38514.6932023398, -14639.453844959004, 2474.874553069419, -52372.19361927434, -187500.02235174447, 0.124, 0.984, 0.042, 192.0, 0.0, 0.0, 0.0, 0.0, 0.0, 0.0, 0.0, 0.0, 0.0, 1.741979395222808E9, 0.0, 2025-03-14 14:09:55.222
208.0, -17060.61715610232, -1246.1768086167347, -187500.02235174447, -6283.589456509288, 23949.715369905876, 13833.472291645086, -41732.76325854818, 8191.891991125583, -1318.6188123963848, 44182.96148573893, 12515.993418215921, 38564.69405468632, -14625.729873863445, 2485.7598526191537, -52346.60087187301, -187500.02235174447, 0.124, 0.984, 0.042, 192.0, 0.0, 0.0, 0.0, 0.0, 0.0, 0.0, 0.0, 0.0, 0.0, 1.741979395222909E9, 0.0, 2025-03-14 14:09:55.222
210.0, -17035.60555405683, -1231.201139831679, -187500.02235174447, -6384.865210636283, 23870.836063723098, 13777.63763399573, -41726.169493933856, 8145.869749292106, -1310.1698529922787, 44144.918816676, 12473.726269450935, 38529.66887112485, -14635.050551301307, 2475.656864125355, -52359.18490400135, -187500.02235174447, 0.124, 0.984, 0.04, 192.0, 1.5, 112.0, 15.0, 96.0, 0.5, 32.0, 0.0, 0.0, 0.0, 1.741979395282432E9, 0.0, 2025-03-14 14:09:55.282
212.0, -17064.99809801556, -1232.363430543355, -187500.02235174447, -6283.500049531466, 23950.07299781716, 13841.988306282557, -41737.010089994685, 8197.010540605848, -1298.7257598311617, 44165.303607619244, 12495.675682506047, 38547.77378413365, -14639.744417636923, 2499.819099881542, -52356.27917722216, -187500.02235174447, 0.124, 0.984, 0.04, 192.0, 0.0, 0.0, 0.0, 0.0, 0.0, 0.0, 0.0, 0.0, 0.0, 1.741979395282573E9, 0.0, 2025-03-14 14:09:55.282
214.0, -17072.03889751898, -1240.7006312251845, -187500.02235174447, -6405.294705068434, 23849.020761134718, 13754.81650290686, -41713.518406572155, 8122.489824591855, -1303.553736633508, 44142.70599397492, 12470.507618249372, 38533.759240360174, -14638.895051347621, 2446.331375399992, -52363.94582557033, -187500.02235174447, 0.124, 0.984, 0.04, 192.0, 0.0, 0.0, 0.0, 0.0, 0.0, 0.0, 0.0, 0.0, 0.0, 1.741979395282691E9, 0.0, 2025-03-14 14:09:55.282
216.0, -17064.282842192988, -1229.4353520197096, -187500.02235174447, -6303.258991629958, 23940.104119790092, 13825.895050274738, -41732.07035447006, 8182.750127643362, -1323.1785682652676, 44136.559264249714, 12454.906100619568, 38515.81078956256, -14602.819335796756, 2494.3429224899915, -52388.398634004436, -187500.02235174447, 0.124, 0.984, 0.04, 192.0, 0.0, 0.0, 0.0, 0.0, 0.0, 0.0, 0.0, 0.0, 0.0, 1.741979395282795E9, 0.0, 2025-03-14 14:09:55.282
218.0, -17063.36642067032, -1243.2263783486342, -187500.02235174447, -6368.8837133507395, 23876.312241114647, 13788.567637034374, -41730.90806375838, 8156.956214541939, -1300.8268238099604, 44175.227782157395, 12506.963313455977, 38567.57742972105, -14646.04760957332, 2481.848297339475, -52333.14512171091, -187500.02235174447, 0.124, 0.984, 0.04, 192.0, 0.0, 0.0, 0.0, 0.0, 0.0, 0.0, 0.0, 0.0, 0.0, 1.741979395282893E9, 0.0, 2025-03-14 14:09:55.282
220.0, -17044.434493116678, -1235.358564300366, -187500.02235174447, -6296.709930504552, 23946.74258789332, 13833.06996024489, -41734.350232404504, 8190.506182969354, -1320.7198763751837, 44140.22495034039, 12460.449333244484, 38520.258786709164, -14613.302303946293, 2479.7695851051312, -52361.12950576896, -187500.02235174447, 0.124, 0.978, 0.04, 192.0, 1.5, 112.0, 15.0, 72.0, 0.5, 32.0, 0.0, 0.0, 0.0, 1.74197939528299E9, 0.0, 2025-03-14 14:09:55.282
222.0, -17051.832920531382, -1231.558767742964, -187500.02235174447, -6386.429832748156, 23867.10332239906, 13770.90975891468, -41728.002336979196, 8138.024286988293, -1312.9638210491921, 44169.48338383238, 12502.224743631452, 38556.31215051558, -14630.177871010052, 2480.306026972059, -52342.108171237494, -187500.02235174447, 0.124, 0.978, 0.04, 192.0, 0.0, 0.0, 0.0, 0.0, 0.0, 0.0, 0.0, 0.0, 0.0, 1.741979395283098E9, 0.0, 2025-03-14 14:09:55.283
