%OpenBCI Raw EXG Data
%Number of channels = 16
%Sample Rate = 125 Hz
%Board = OpenBCI_GUI$BoardCytonSerialDaisy
Sample Index, EXG Channel 0, EXG Channel 1, EXG Channel 2, EXG Channel 3, EXG Channel 4, EXG Channel 5, EXG Channel 6, EXG Channel 7, EXG Channel 8, EXG Channel 9, EXG Channel 10, EXG Channel 11, EXG Channel 12, EXG Channel 13, EXG Channel 14, EXG Channel 15, Accel Channel 0, Accel Channel 1, Accel Channel 2, Not Used, Digital Channel 0 (D11), Digital Channel 1 (D12), Digital Channel 2 (D13), Digital Channel 3 (D17), Not Used, Digital Channel 4 (D18), Analog Channel 0, Analog Channel 1, Analog Channel 2, Timestamp, Marker Channel, Timestamp (Formatted)
88.0, -15626.104548705167, 656.4707346523684, -187500.02235174447, -4727.3268970640775, 25252.933830372553, 15509.361387415098, -39901.50718706932, 10833.488206087137, -1462.7428606442047, 46469.20966735002, 14095.099460494455, 39586.88403211642, -15068.987318156638, 4211.8286146913315, -50059.23510303916, -187500.02235174447, 0.0, 0.0, 0.0, 192.0, 0.0, 0.0, 0.0, 0.0, 0.0, 0.0, 0.0, 0.0, 0.0, 1.741979494947827E9, 0.0, 2025-03-14 14:11:34.947
90.0, -15605.160964150546, 654.7496503293098, -187500.02235174447, -4713.1782428238685, 25275.53144401687, 15530.394378947543, -39916.773428532295, 10858.76802906609, -1449.0412412931016, 46351.61713977065, 13962.508912385574, 39464.50823122361, -15067.713268722686, 4169.650872904167, -50135.18633069829, -187500.02235174447, 0.041, 0.486, 0.019, 192.0, 1.0, 72.0, 15.0, 48.0, 0.5, 24.0, 0.0, 0.0, 0.0, 1.741979494948061E9, 0.0, 2025-03-14 14:11:34.948
92.0, -15625.366941138142, 644.6690135799663, -187500.02235174447, -4686.803184366606, 25285.746191232945, 15544.632440165573, -39909.88909124006, 10873.497828662137, -1414.4407408762863, 46480.74316748895, 14122.122719540921, 39603.78195092463, -15075.469324048678, 4203.2008413315825, -50038.42562895127, -187500.02235174447, 0.041, 0.486, 0.019, 192.0, 0.0, 0.0, 0.0, 0.0, 0.0, 0.0, 0.0, 0.0, 0.0, 1.741979494948275E9, 0.0, 2025-03-14 14:11:34.948
94.0, -15615.2863043888, 647.5970921036115, -187500.02235174447, -4713.580574224064, 25279.152426618628, 15546.465283210908, -39908.592690061654, 10881.142125265853, -1456.439668707808, 46369.476183590436, 13993.421374967264, 39487.128196612386, -15080.118486895382, 4169.1591345261495, -50092.44979529975, -187500.02235174447, 0.041, 0.486, 0.019, 192.0, 0.0, 0.0, 0.0, 0.0, 0.0, 0.0, 0.0, 0.0, 0.0, 1.741979494948463E9, 0.0, 2025-03-14 14:11:34.948
96.0, -15598.008405924846, 674.9109238279967, -187500.02235174447, -4696.459137971298, 25287.57903427828, 15542.039637808757, -39890.353666586125, 10871.441468172248, -1426.3318689265095, 46480.76551923341, 14119.149937528366, 39597.32229677705, -15061.097152363916, 4186.347626012281, -50021.99709677662, -187500.02235174447, 0.041, 0.486, 0.019, 192.0, 0.0, 0.0, 0.0, 0.0, 0.0, 0.0, 0.0, 0.0, 0.0, 1.741979494948673E9, 0.0, 2025-03-14 14:11:34.948
98.0, -15603.75280424986, 680.0071215638068, -187500.02235174447, -4754.3278043660885, 25257.314772285794, 15514.770509573284, -39883.715198482896, 10857.382220909862, -1439.608805132962, 46365.072889932744, 13980.345604460908, 39472.28663829406, -15081.101963651416, 4183.531306210913, -50112.18638565378, -187500.02235174447, 0.041, 0.486, 0.019, 192.0, 0.0, 0.0, 0.0, 0.0, 0.0, 0.0, 0.0, 0.0, 0.0, 1.741979494948862E9, 0.0, 2025-03-14 14:11:34.948
100.0, -15624.741092293394, 675.0897377836392, -187500.02235174447, -4686.3561494775, 25305.81805775381, 15549.482768712374, -39893.4158555765, 10882.527933422081, -1418.6205170894286, 46473.18827786306, 14104.733062354693, 39580.8937646024, -15048.200195813204, 4199.959838385563, -50043.47712319817, -187500.02235174447, 0.0625, 0.732, 0.028499999999999998, 192.0, 1.0, 80.0, 15.0, 72.0, 0.5, 24.0, 0.0, 0.0, 0.0, 1.741979494949051E9, 0.0, 2025-03-14 14:11:34.949
102.0, -15599.394214081076, 684.4327669659575, -187500.02235174447, -4766.934188238882, 25244.23900177944, 15497.693776809429, -39880.45184379242, 10841.937165491243, -1433.9761655302245, 46382.08256746323, 13999.903380859303, 39493.25257459314, -15059.577233740954, 4185.2970940228815, -50101.45754831524, -187500.02235174447, 0.0625, 0.732, 0.028499999999999998, 192.0, 0.0, 0.0, 0.0, 0.0, 0.0, 0.0, 0.0, 0.0, 0.0, 1.741979494949265E9, 0.0, 2025-03-14 14:11:34.949
104.0, -15591.884027944092, 680.5435634307341, -187500.02235174447, -4671.492239414721, 25314.244665413462, 15554.109579814623, -39887.73851248485, 10887.11004103542, -1424.2755084366213, 46457.25148406643, 14084.102402222445, 39564.39817719438, -15044.132178322337, 4217.505957782979, -50064.62187345289, -187500.02235174447, 0.0625, 0.732, 0.028499999999999998, 192.0, 0.0, 0.0, 0.0, 0.0, 0.0, 0.0, 0.0, 0.0, 0.0, 1.741979494949462E9, 0.0, 2025-03-14 14:11:34.949
0.0, -7807.151413816383, 384.96409475375356, -93750.01117587223, -2282.7389577316, 12812.757529349034, 7887.572990366578, -19802.080965290184, 5587.757299871123, -722.7213052178986, 23220.51205879594, 7033.468131240384, 19775.929424277478, -7530.280355248494, 2101.4886619435147, -25033.39499633253, -93750.01117587223, 0.122, 0.968, 0.108, 192.0, 1.5, 104.0, 15.0, 32.0, 1.5, 48.0, 0.0, 0.0, 0.0, 1.741979495091595E9, 0.0, 2025-03-14 14:11:35.091
2.0, -15593.649815756062, 775.6502360880656, -187500.02235174447, -4486.978588936161, 25670.531472031056, 15816.876687631213, -39603.80430266909, 11208.12579490254, -1223.0204013610366, 46780.72592982363, 14047.087913404455, 39621.73040172224, -14835.948030465608, 4746.124714150991, -50141.04248774559, -187500.02235174447, 0.122, 0.968, 0.108, 192.0, 0.0, 0.0, 0.0, 0.0, 0.0, 0.0, 0.0, 0.0, 0.0, 1.741979495091876E9, 0.0, 2025-03-14 14:11:35.091
4.0, -15610.32421711972, 781.5510966242667, -187500.02235174447, -4612.640096263897, 25583.15850295526, 15731.157747645111, -39587.576936194535, 11143.909233082442, -1259.520800056553, 46731.08270538839, 14001.311540759987, 39583.68773265931, -14843.145292180216, 4733.607737256019, -50166.07644153553, -187500.02235174447, 0.122, 0.968, 0.108, 192.0, 0.0, 0.0, 0.0, 0.0, 0.0, 0.0, 0.0, 0.0, 0.0, 1.741979495092072E9, 0.0, 2025-03-14 14:11:35.092
6.0, -15634.374694153632, 776.8572302886523, -187500.02235174447, -4485.749242991119, 25666.441102795736, 15812.093414317778, -39608.341706793515, 11215.591277550611, -1216.2031193021678, 46752.74154576559, 14020.578744480461, 39598.30577353308, -14838.250260144505, 4765.168400426913, -50168.19985725878, -187500.02235174447, 0.122, 0.968, 0.108, 192.0, 0.0, 0.0, 0.0, 0.0, 0.0, 0.0, 0.0, 0.0, 0.0, 1.741979495092267E9, 0.0, 2025-03-14 14:11:35.092
8.0, -15624.249353915377, 766.5530760947557, -187500.02235174447, -4593.1940785877805, 25581.459770376656, 15734.443454080041, -39590.437959484814, 11156.381506488504, -1271.4342798512316, 46749.098211419376, 14031.307581819008, 39612.186206839826, -14849.716705050078, 4718.877937659971, -50147.27862444861, -187500.02235174447, 0.136, 0.968, 0.14, 192.0, 2.0, 32.0, 15.0, 32.0, 2.0, 48.0, 0.0, 0.0, 0.0, 1.741979495092464E9, 0.0, 2025-03-14 14:11:35.092
10.0, -15611.598266553674, 772.8562680311524, -187500.02235174447, -4494.622885539876, 25649.945515387717, 15799.576437422806, -39604.34074453601, 11206.561172790667, -1231.3799537873215, 46731.06035364394, 14001.423299482263, 39580.91611634685, -14833.869318231264, 4767.6494440614515, -50175.08419455102, -187500.02235174447, 0.136, 0.968, 0.14, 192.0, 0.0, 0.0, 0.0, 0.0, 0.0, 0.0, 0.0, 0.0, 0.0, 1.741979495092654E9, 0.0, 2025-03-14 14:11:35.092
12.0, -15640.610830856662, 750.4598200869347, -187500.02235174447, -4589.2601715636465, 25576.050648218472, 15736.768035503394, -39597.41170375487, 11161.321242013126, -1252.8823319533267, 46753.23328414361, 14034.0121428981, 39617.438866786826, -14849.806112027898, 4744.828312972583, -50150.944310539286, -187500.02235174447, 0.136, 0.968, 0.14, 192.0, 0.0, 0.0, 0.0, 0.0, 0.0, 0.0, 0.0, 0.0, 0.0, 1.741979495092856E9, 0.0, 2025-03-14 14:11:35.092
14.0, -15614.951028221969, 765.5919510831775, -187500.02235174447, -4494.779347751063, 25644.379931018346, 15806.438422970585, -39612.74500045121, 11217.55823106268, -1207.3518284978663, 46713.73775169108, 13984.570084162962, 39568.37678770743, -14850.431960872647, 4750.885635719971, -50170.34562472649, -187500.02235174447, 0.136, 0.968, 0.14, 192.0, 0.0, 0.0, 0.0, 0.0, 0.0, 0.0, 0.0, 0.0, 0.0, 1.741979495093045E9, 0.0, 2025-03-14 14:11:35.093
16.0, -15623.690560303994, 765.1002127051607, -187500.02235174447, -4574.150392311859, 25582.912633766253, 15758.002192735934, -39603.06669510206, 11183.672986468433, -1228.6306892193186, 46777.35081641088, 14065.25988164662, 39646.94316946783, -14859.41736214368, 4738.972155925293, -50119.6295165574, -187500.02235174447, 0.136, 0.968, 0.14, 192.0, 0.0, 0.0, 0.0, 0.0, 0.0, 0.0, 0.0, 0.0, 0.0, 1.741979495152033E9, 0.0, 2025-03-14 14:11:35.152
18.0, -15632.407740641564, 755.1983899114597, -187500.02235174447, -4495.829879740462, 25635.707454169686, 15815.245010285977, -39609.92868064984, 11231.550423091701, -1271.814259506972, 46711.39081852327, 13987.00642430859, 39570.231982497215, -14820.592382024812, 4741.27438560419, -50158.36508969845, -187500.02235174447, 0.14200000000000002, 0.9580000000000001, 0.15, 192.0, 2.0, 56.0, 14.5, 120.0, 2.0, 88.0, 0.0, 0.0, 0.0, 1.741979495152287E9, 0.0, 2025-03-14 14:11:35.152
20.0, -15643.695371591493, 745.6988985179543, -187500.02235174447, -4568.137773053381, 25577.30234590797, 15766.585262606772, -39600.4962444897, 11195.07237614064, -1265.3322536149328, 46788.102005493885, 14073.485323606174, 39656.08503295005, -14856.84691153132, 4731.640783743952, -50117.19317641177, -187500.02235174447, 0.14200000000000002, 0.9580000000000001, 0.15, 192.0, 0.0, 0.0, 0.0, 0.0, 0.0, 0.0, 0.0, 0.0, 0.0, 1.741979495152495E9, 0.0, 2025-03-14 14:11:35.152
22.0, -15634.844080787192, 749.3869363530799, -187500.02235174447, -4482.709405745198, 25640.22250654966, 15835.696856462582, -39614.779009196645, 11254.572719880667, -1269.9814164616366, 46709.66973420021, 13986.291168486021, 39576.378712222424, -14848.50971084949, 4735.865263446005, -50148.150342482375, -187500.02235174447, 0.14200000000000002, 0.9580000000000001, 0.15, 192.0, 0.0, 0.0, 0.0, 0.0, 0.0, 0.0, 0.0, 0.0, 0.0, 1.741979495152684E9, 0.0, 2025-03-14 14:11:35.152
24.0, -15654.088932763212, 736.5570350357336, -187500.02235174447, -4534.431342414778, 25591.62981410382, 15798.50355368895, -39609.97338413875, 11226.588335822624, -1263.4994105695976, 46820.243814020614, 14111.12566126891, 39698.6204026485, -14849.470835861068, 4752.852589232039, -50077.42942302578, -187500.02235174447, 0.14200000000000002, 0.9580000000000001, 0.15, 192.0, 0.0, 0.0, 0.0, 0.0, 0.0, 0.0, 0.0, 0.0, 0.0, 1.741979495152894E9, 0.0, 2025-03-14 14:11:35.152
26.0, -15658.536929909818, 719.0779708716835, -187500.02235174447, -4487.850306969918, 25627.526715699045, 15838.691990219593, -39622.28919533363, 11264.295728718726, -1266.1369164153239, 46699.298524772945, 13980.211493994177, 39577.786872123106, -14856.198710942115, 4722.007181883715, -50138.67320283332, -187500.02235174447, 0.14200000000000002, 0.9580000000000001, 0.15, 192.0, 0.0, 0.0, 0.0, 0.0, 0.0, 0.0, 0.0, 0.0, 0.0, 1.741979495153083E9, 0.0, 2025-03-14 14:11:35.153
28.0, -15690.030537847346, 696.5697642051892, -187500.02235174447, -4494.712292517697, 25607.387793944814, 15831.427673271619, -39618.489398776226, 11263.044031029229, -1241.0135556475586, 46831.3526310149, 14133.253888279663, 39727.185932062384, -14876.963481541095, 4731.6631354884075, -50041.97955631967, -187500.02235174447, 0.148, 0.962, 0.164, 192.0, 2.0, 80.0, 15.0, 8.0, 2.5, 16.0, 0.0, 0.0, 0.0, 1.741979495153272E9, 0.0, 2025-03-14 14:11:35.153
30.0, -15672.90910159458, 690.9818280913626, -187500.02235174447, -4517.13109220637, 25600.794029330496, 15825.526812735417, -39617.707087720286, 11253.432780913447, -1286.0746724694577, 46681.21596350861, 13968.096848499401, 39573.02595055413, -14874.102458250816, 4742.8166559716055, -50131.654755074356, -187500.02235174447, 0.148, 0.962, 0.164, 192.0, 0.0, 0.0, 0.0, 0.0, 0.0, 0.0, 0.0, 0.0, 0.0, 1.741979495212387E9, 0.0, 2025-03-14 14:11:35.212
32.0, -15720.585372517751, 680.1188802860833, -187500.02235174447, -4508.950353735728, 25594.893168794297, 15823.805728412359, -39601.70323869029, 11255.980879781351, -1281.9172480007708, 46813.538290684024, 14105.962408299734, 39708.38811497547, -14880.584464142856, 4759.51340907972, -50055.90469311532, -187500.02235174447, 0.148, 0.962, 0.164, 192.0, 0.0, 0.0, 0.0, 0.0, 0.0, 0.0, 0.0, 0.0, 0.0, 1.74197949521263E9, 0.0, 2025-03-14 14:11:35.212
34.0, -15770.563873119818, 677.9284093294632, -187500.02235174447, -4559.688813649275, 25571.401485371767, 15791.55216116335, -39593.32133451955, 11232.89152775902, -1289.5391928600304, 46670.308312214416, 13944.80633077697, 39560.240752725695, -14878.215179230594, 4708.462024743799, -50142.338888923994, -187500.02235174447, 0.148, 0.962, 0.164, 192.0, 0.0, 0.0, 0.0, 0.0, 0.0, 0.0, 0.0, 0.0, 0.0, 1.741979495212838E9, 0.0, 2025-03-14 14:11:35.212
36.0, -15741.998343705935, 666.3502057016142, -187500.02235174447, -4509.553850836021, 25594.021450760538, 15816.004969597456, -39588.918040861856, 11256.56202513719, -1278.6091898213851, 46801.73656961162, 14081.889579521368, 39689.88087056648, -14865.98877501354, 4730.9031761769265, -50068.511076988114, -187500.02235174447, 0.148, 0.962, 0.164, 192.0, 0.0, 0.0, 0.0, 0.0, 0.0, 0.0, 0.0, 0.0, 0.0, 1.741979495212971E9, 0.0, 2025-03-14 14:11:35.212
38.0, -15732.364741845697, 695.385121749058, -187500.02235174447, -4580.1630115703365, 25550.793176983974, 15772.463771398518, -39587.59928793899, 11223.727312532345, -1283.392463134821, 46660.63000686526, 13930.836490492404, 39549.7354328317, -14873.789533828442, 4695.185088537346, -50147.524493637626, -187500.02235174447, 0.14400000000000002, 0.972, 0.17200000000000001, 192.0, 2.0, 64.0, 15.0, 48.0, 2.5, 48.0, 0.0, 0.0, 0.0, 1.741979495213098E9, 0.0, 2025-03-14 14:11:35.213
40.0, -15775.771829577903, 674.5309441722566, -187500.02235174447, -4491.761862249597, 25603.140962498306, 15837.08266461881, -39594.7965496536, 11277.505609691812, -1317.031838540058, 46795.96981954215, 14074.669966062304, 39682.504794896224, -14865.720554080077, 4717.3133155481, -50066.365309520406, -187500.02235174447, 0.14400000000000002, 0.972, 0.17200000000000001, 192.0, 0.0, 0.0, 0.0, 0.0, 0.0, 0.0, 0.0, 0.0, 0.0, 1.741979495213241E9, 0.0, 2025-03-14 14:11:35.213
42.0, -15755.096465956745, 693.8204996371866, -187500.02235174447, -4572.630473688898, 25548.87092696082, 15789.78637335138, -39586.21347978276, 11245.721429076366, -1306.906498301804, 46686.647437411244, 13958.463246639163, 39575.14936627739, -14864.915891279685, 4681.97520756426, -50118.713095034735, -187500.02235174447, 0.14400000000000002, 0.972, 0.17200000000000001, 192.0, 0.0, 0.0, 0.0, 0.0, 0.0, 0.0, 0.0, 0.0, 0.0, 1.741979495213368E9, 0.0, 2025-03-14 14:11:35.213
44.0, -15706.97316014447, 708.9302788889742, -187500.02235174447, -4495.740472762642, 25592.322718181935, 15838.222603586031, -39594.438921742316, 11287.94387435244, -1258.716137256162, 46791.27595320654, 14064.25405314613, 39676.44747214884, -14865.742905824532, 4714.832271913561, -50063.14665831884, -187500.02235174447, 0.14400000000000002, 0.972, 0.17200000000000001, 192.0, 0.0, 0.0, 0.0, 0.0, 0.0, 0.0, 0.0, 0.0, 0.0, 1.741979495213495E9, 0.0, 2025-03-14 14:11:35.213
46.0, -15688.1529913131, 712.3724475350914, -187500.02235174447, -4597.105633867459, 25523.836973170874, 15776.151809233645, -39580.580840180024, 11243.173330208461, -1290.679131827251, 46692.41418748071, 13956.585700104917, 39578.9938663237, -14860.043210988428, 4675.224980738757, -50120.43417935779, -187500.02235174447, 0.14400000000000002, 0.972, 0.17200000000000001, 192.0, 0.0, 0.0, 0.0, 0.0, 0.0, 0.0, 0.0, 0.0, 0.0, 1.741979495272031E9, 0.0, 2025-03-14 14:11:35.272
48.0, -15680.553398198295, 721.6931249729545, -187500.02235174447, -4475.221571352669, 25603.96797704315, 15864.038868431911, -39593.991886853204, 11317.582287500178, -1278.1845066767344, 46784.43631940321, 14049.792474483547, 39668.9149342674, -14849.85081551681, 4713.535870735153, -50066.18649556476, -187500.02235174447, 0.14, 0.964, 0.17, 192.0, 2.0, 48.0, 15.0, 16.0, 2.5, 40.0, 0.0, 0.0, 0.0, 1.741979495272175E9, 0.0, 2025-03-14 14:11:35.272
50.0, -15642.376618668632, 723.9282994184852, -187500.02235174447, -4587.986122129693, 25523.18877258167, 15793.899094331158, -39574.45646219927, 11266.665013630989, -1277.4692508541646, 46724.66775472972, 13992.48260170014, 39619.584634254534, -14882.126734510271, 4673.9062278158935, -50079.48578351567, -187500.02235174447, 0.14, 0.964, 0.17, 192.0, 0.0, 0.0, 0.0, 0.0, 0.0, 0.0, 0.0, 0.0, 0.0, 1.741979495272304E9, 0.0, 2025-03-14 14:11:35.272
52.0, -15643.024819257835, 735.3276890906917, -187500.02235174447, -4497.506260574611, 25575.670668562732, 15844.70460947807, -39580.91611634685, 11300.751423925332, -1243.0922678819022, 46763.000996470575, 14025.160852093799, 39645.80323050061, -14851.08016146185, 4675.761422605685, -50075.46246951372, -187500.02235174447, 0.14, 0.964, 0.17, 192.0, 0.0, 0.0, 0.0, 0.0, 0.0, 0.0, 0.0, 0.0, 0.0, 1.741979495272428E9, 0.0, 2025-03-14 14:11:35.272
54.0, -15632.921830764037, 741.9885089383732, -187500.02235174447, -4612.796558475085, 25493.460952456113, 15773.559006876829, -39574.25529649917, 11243.12862671955, -1250.9153784412597, 46731.887368188785, 13993.689595900727, 39614.89076791892, -14851.281327161949, 4642.390268133911, -50093.00858891113, -187500.02235174447, 0.14, 0.964, 0.17, 192.0, 0.0, 0.0, 0.0, 0.0, 0.0, 0.0, 0.0, 0.0, 0.0, 1.741979495272557E9, 0.0, 2025-03-14 14:11:35.272
56.0, -15644.678848347528, 744.2013316394487, -187500.02235174447, -4485.615132524387, 25583.225558188627, 15866.631670788727, -39597.05407584358, 11317.96226715592, -1244.8580556938716, 46758.46359234615, 14013.694407188226, 39629.665271003876, -14842.854719502297, 4668.117126001969, -50082.81619343951, -187500.02235174447, 0.14, 0.964, 0.17, 192.0, 0.0, 0.0, 0.0, 0.0, 0.0, 0.0, 0.0, 0.0, 0.0, 1.741979495272691E9, 0.0, 2025-03-14 14:11:35.272
58.0, -15649.305659449776, 747.7552590078425, -187500.02235174447, -4595.786880944595, 25500.300586259436, 15792.714451875026, -39576.35636047797, 11258.573682138167, -1259.587855289919, 46768.231304673114, 14039.533023778562, 39654.36394862699, -14872.649594861221, 4649.788695548617, -50057.24579778264, -187500.02235174447, 0.14400000000000002, 0.966, 0.17, 192.0, 2.0, 64.0, 15.0, 24.0, 2.5, 40.0, 0.0, 0.0, 0.0, 1.741979495272813E9, 0.0, 2025-03-14 14:11:35.272
60.0, -15636.274592432332, 741.7649914938202, -187500.02235174447, -4504.234135655658, 25572.653183061266, 15862.85422597578, -39582.592497181, 11310.586191485667, -1231.1564363427683, 46752.786249254495, 14013.470889743674, 39621.01514589968, -14829.108396662283, 4659.534056131131, -50079.6198939824, -187500.02235174447, 0.14400000000000002, 0.966, 0.17, 192.0, 0.0, 0.0, 0.0, 0.0, 0.0, 0.0, 0.0, 0.0, 0.0, 1.741979495332781E9, 0.0, 2025-03-14 14:11:35.332
62.0, -15641.236679701411, 742.9049304610409, -187500.02235174447, -4619.926764956327, 25482.821522095386, 15780.331585446786, -39562.65474112687, 11239.50764411779, -1271.3001693845, 46784.27985719203, 14057.146198409344, 39660.220105674285, -14842.899422991208, 4615.948154443283, -50054.541236703546, -187500.02235174447, 0.14400000000000002, 0.966, 0.17, 192.0, 0.0, 0.0, 0.0, 0.0, 0.0, 0.0, 0.0, 0.0, 0.0, 1.741979495332931E9, 0.0, 2025-03-14 14:11:35.332
64.0, -15594.052147156257, 760.8533812586525, -187500.02235174447, -4526.407066155322, 25555.10706366385, 15850.001972913979, -39577.07161630054, 11294.403528500025, -1250.7589162300726, 46720.59973723886, 13981.418488194764, 39576.62458141144, -14823.922791948653, 4640.222148921746, -50108.61010654093, -187500.02235174447, 0.14400000000000002, 0.966, 0.17, 192.0, 0.0, 0.0, 0.0, 0.0, 0.0, 0.0, 0.0, 0.0, 0.0, 1.741979495333066E9, 0.0, 2025-03-14 14:11:35.333
66.0, -15617.208554411955, 733.3607355786247, -187500.02235174447, -4610.919011940839, 25483.93910931815, 15790.255759984942, -39580.2902675021, 11249.565929122678, -1208.5588226984528, 46802.11654926736, 14083.633015588883, 39669.63019008996, -14857.808036542898, 4620.619669034442, -50038.02329755107, -187500.02235174447, 0.14200000000000002, 0.969, 0.176, 192.0, 2.0, 48.0, 15.0, 48.0, 2.5, 88.0, 0.0, 0.0, 0.0, 1.74197949533319E9, 0.0, 2025-03-14 14:11:35.333
68.0, -15640.81199655676, 727.9292616759851, -187500.02235174447, -4537.091200004959, 25536.353950065848, 15843.005876899468, -39620.165779610375, 11293.755327910822, -1263.8570384808825, 46725.315955318925, 13989.778040621048, 39572.84713659849, -14818.871297701753, 4604.571116515532, -50092.360388321926, -187500.02235174447, 0.14200000000000002, 0.969, 0.176, 192.0, 0.0, 0.0, 0.0, 0.0, 0.0, 0.0, 0.0, 0.0, 0.0, 1.741979495333331E9, 0.0, 2025-03-14 14:11:35.333
70.0, -15605.250371128366, 734.2324536123817, -187500.02235174447, -4582.778165671607, 25493.505655945024, 15813.680388174105, -39621.328070322044, 11274.868103846085, -1214.8620146348494, 46832.53727347103, 14114.679588637304, 39685.1199489975, -14843.346457880314, 4604.973447915727, -50019.49370139762, -187500.02235174447, 0.14200000000000002, 0.969, 0.176, 192.0, 0.0, 0.0, 0.0, 0.0, 0.0, 0.0, 0.0, 0.0, 0.0, 1.741979495333459E9, 0.0, 2025-03-14 14:11:35.333
72.0, -15634.754673809372, 733.2936803452588, -187500.02235174447, -4527.077618488982, 25546.568697281924, 15871.28083363543, -39642.450468832314, 11323.393741058559, -1243.0252126485364, 46736.17890312421, 14008.44174724123, 39577.80922386757, -14843.659382302689, 4611.164881129847, -50068.041690354556, -187500.02235174447, 0.14200000000000002, 0.969, 0.176, 192.0, 0.0, 0.0, 0.0, 0.0, 0.0, 0.0, 0.0, 0.0, 0.0, 1.741979495333584E9, 0.0, 2025-03-14 14:11:35.333
74.0, -15608.916057219036, 726.7446192198538, -187500.02235174447, -4605.4651862937435, 25473.009106279507, 15799.17410602261, -39616.522445264156, 11259.37834493856, -1254.2234366206453, 46851.40214579131, 14139.0876935825, 39696.74285611425, -14836.596231054811, 4597.284447823101, -49995.62203831936, -187500.02235174447, 0.14200000000000002, 0.969, 0.176, 192.0, 0.0, 0.0, 0.0, 0.0, 0.0, 0.0, 0.0, 0.0, 0.0, 1.74197949533371E9, 0.0, 2025-03-14 14:11:35.333
76.0, -15617.677941045516, 741.5414740492671, -187500.02235174447, -4579.134831325392, 25502.401650238236, 15830.757120937958, -39637.60014028551, 11288.547371452734, -1222.4392560051986, 46700.147891062246, 13963.224168208144, 39525.88612149789, -14818.424262812647, 4592.165898342836, -50110.9793914532, -187500.02235174447, 0.14100000000000001, 0.9625, 0.179, 192.0, 2.0, 48.0, 14.5, 112.0, 2.5, 88.0, 0.0, 0.0, 0.0, 1.741979495391658E9, 0.0, 2025-03-14 14:11:35.391
78.0, -15615.241600899888, 718.7426947048539, -187500.02235174447, -4552.022165301105, 25504.927397361684, 15851.812464214858, -39633.04038441663, 11309.781528685276, -1224.1603403282572, 46864.589675019946, 14148.52012974264, 39699.93915557137, -14854.231757430049, 4597.709130967753, -49984.51322132507, -187500.02235174447, 0.14100000000000001, 0.9625, 0.179, 192.0, 0.0, 0.0, 0.0, 0.0, 0.0, 0.0, 0.0, 0.0, 0.0, 1.741979495391848E9, 0.0, 2025-03-14 14:11:35.391
80.0, -15630.239621429399, 742.0332124272838, -187500.02235174447, -4608.974410173227, 25479.334649960358, 15813.211001540543, -39617.39416329791, 11270.80008635522, -1239.873616680338, 46712.70957144613, 13979.518589916062, 39530.89291225588, -14837.087969432829, 4560.225255516202, -50082.704434717234, -187500.02235174447, 0.14100000000000001, 0.9625, 0.179, 192.0, 0.0, 0.0, 0.0, 0.0, 0.0, 0.0, 0.0, 0.0, 0.0, 1.741979495391974E9, 0.0, 2025-03-14 14:11:35.391
82.0, -15636.09577847669, 718.452122026935, -187500.02235174447, -4556.939549081272, 25509.084821830373, 15855.65696426117, -39624.39025931242, 11313.737787453865, -1238.845436435394, 46864.03088140856, 14144.60857446296, 39679.24144020575, -14832.88584147523, 4582.755813927151, -49991.5987243174, -187500.02235174447, 0.14100000000000001, 0.9625, 0.179, 192.0, 0.0, 0.0, 0.0, 0.0, 0.0, 0.0, 0.0, 0.0, 0.0, 1.741979495392095E9, 0.0, 2025-03-14 14:11:35.392
84.0, -15608.603132796663, 721.290793572759, -187500.02235174447, -4608.125043883925, 25483.38031570677, 15830.332437793308, -39625.64195700192, 11300.393796014047, -1253.843456964905, 46730.34509782137, 14000.551581448506, 39540.07947922701, -14839.189033411627, 4564.80736312954, -50060.79972515103, -187500.02235174447, 0.14100000000000001, 0.9625, 0.179, 192.0, 0.0, 0.0, 0.0, 0.0, 0.0, 0.0, 0.0, 0.0, 0.0, 1.741979495392229E9, 0.0, 2025-03-14 14:11:35.392
86.0, -15618.974342223924, 709.6008312226334, -187500.02235174447, -4570.060023076538, 25498.75831589202, 15850.158435125166, -39629.50880879269, 11319.705703223432, -1246.5344365280196, 46854.285520826044, 14138.059513337555, 39662.56703884209, -14822.671094259154, 4571.959921355238, -49992.738663284625, -187500.02235174447, 0.1375, 0.95825, 0.1835, 192.0, 2.0, 24.0, 14.5, 104.0, 2.5, 112.0, 0.0, 0.0, 0.0, 1.741979495392361E9, 0.0, 2025-03-14 14:11:35.392
88.0, -15601.383519337598, 714.4288080249796, -187500.02235174447, -4613.6235730199305, 25474.797245835933, 15834.311048306352, -39634.89557920642, 11314.85537467663, -1213.9455931121818, 46738.97287118112, 14020.355227035909, 39546.315615930034, -14847.213309671082, 4530.072752245993, -50043.343012731435, -187500.02235174447, 0.1375, 0.95825, 0.1835, 192.0, 0.0, 0.0, 0.0, 0.0, 0.0, 0.0, 0.0, 0.0, 0.0, 1.741979495392486E9, 0.0, 2025-03-14 14:11:35.392
90.0, -15615.241600899888, 714.2946975582478, -187500.02235174447, -4552.580958912487, 25509.688318930665, 15870.051487690389, -39636.21433212928, 11344.002049446352, -1207.977677342615, 46856.811267949495, 14144.832091907514, 39656.710881794796, -14834.249297887005, 4570.730575410196, -49979.104099166885, -187500.02235174447, 0.1375, 0.95825, 0.1835, 192.0, 0.0, 0.0, 0.0, 0.0, 0.0, 0.0, 0.0, 0.0, 0.0, 1.741979495451956E9, 0.0, 2025-03-14 14:11:35.451
92.0, -15635.201708698478, 711.5901364791556, -187500.02235174447, -4631.974355217738, 25457.47464388307, 15828.790167425892, -39640.774087998165, 11318.498709022846, -1258.4032128337876, 46749.45583933066, 14029.675904473772, 39548.6849008423, -14829.756597251488, 4547.440057687767, -50032.860044581896, -187500.02235174447, 0.1375, 0.95825, 0.1835, 192.0, 0.0, 0.0, 0.0, 0.0, 0.0, 0.0, 0.0, 0.0, 0.0, 1.741979495452157E9, 0.0, 2025-03-14 14:11:35.452
94.0, -15616.605057311663, 717.9827353933734, -187500.02235174447, -4533.0902377474595, 25517.04204285646, 15890.950368756101, -39653.916913737885, 11370.555921859255, -1236.6996689676844, 46854.576093503965, 14138.350086015475, 39646.294968878625, -14830.60596354079, 4588.2096395742465, -49970.90100895179, -187500.02235174447, 0.1375, 0.95825, 0.1835, 192.0, 0.0, 0.0, 0.0, 0.0, 0.0, 0.0, 0.0, 0.0, 0.0, 1.741979495452282E9, 0.0, 2025-03-14 14:11:35.452
96.0, -15631.625429585629, 720.7767034502868, -187500.02235174447, -4639.551596588087, 25448.489242612035, 15833.573440739328, -39647.70312877931, 11330.345133584158, -1218.52770072552, 46779.18365945622, 14059.984869955168, 39568.24267724069, -14844.59815556981, 4553.989118813171, -50001.5005471111, -187500.02235174447, 0.13475, 0.9561250000000001, 0.18675, 192.0, 2.0, 16.0, 14.5, 104.0, 2.5, 120.0, 0.0, 0.0, 0.0, 1.741979495452404E9, 0.0, 2025-03-14 14:11:35.452
98.0, -15656.43586593102, 717.5133487598121, -187500.02235174447, -4547.752982110141, 25515.38801376677, 15898.974645015556, -39655.95092248332, 11384.078727254717, -1227.7366194411063, 46838.304023540506, 14116.020693304623, 39615.807189441584, -14824.302771604393, 4586.645017462375, -49982.18863990172, -187500.02235174447, 0.13475, 0.9561250000000001, 0.18675, 192.0, 0.0, 0.0, 0.0, 0.0, 0.0, 0.0, 0.0, 0.0, 0.0, 1.741979495452541E9, 0.0, 2025-03-14 14:11:35.452
100.0, -15632.117167963645, 716.2840028147701, -187500.02235174447, -4677.4825069287435, 25424.036434177928, 15813.099242818267, -39643.366890354984, 11315.324761310192, -1282.0290067230471, 46798.40615968778, 14066.511579336116, 39575.6411046554, -14843.480568347046, 4541.13686575137, -49997.16430868678, -187500.02235174447, 0.13475, 0.9561250000000001, 0.18675, 192.0, 0.0, 0.0, 0.0, 0.0, 0.0, 0.0, 0.0, 0.0, 0.0, 1.741979495452672E9, 0.0, 2025-03-14 14:11:35.452
102.0, -15633.301810419776, 702.224755552382, -187500.02235174447, -4548.736458866174, 25516.170324822706, 15907.781232330946, -39664.62339933198, 11396.908628572062, -1267.1427449158127, 46838.10285784041, 14093.98187327169, 39595.958840365274, -14825.040379171418, 4572.228142288702, -49988.87181149385, -187500.02235174447, 0.13475, 0.9561250000000001, 0.18675, 192.0, 0.0, 0.0, 0.0, 0.0, 0.0, 0.0, 0.0, 0.0, 0.0, 1.741979495452801E9, 0.0, 2025-03-14 14:11:35.452
104.0, -15630.485490618408, 708.5950027221445, -187500.02235174447, -4664.697309100307, 25432.88772498223, 15830.84652791578, -39642.115192665486, 11338.347058099158, -1241.7735149590392, 46824.53534895604, 14085.711727823225, 39585.87820361593, -14840.79835901241, 4558.817095615518, -49981.339273612415, -187500.02235174447, 0.13475, 0.9561250000000001, 0.18675, 192.0, 0.0, 0.0, 0.0, 0.0, 0.0, 0.0, 0.0, 0.0, 0.0, 1.741979495452922E9, 0.0, 2025-03-14 14:11:35.452
106.0, -15625.635162071607, 705.4657584984016, -187500.02235174447, -4521.646144586342, 25540.220801856616, 15939.990096091045, -39660.26480916319, 11436.851195913696, -1208.2235465316232, 46843.22140732067, 14093.423079660306, 39587.17460479434, -14839.166681667171, 4569.031842831593, -49972.62209327485, -187500.02235174447, 0.13037500000000002, 0.9570625000000001, 0.18937500000000002, 192.0, 1.5, 120.0, 14.5, 120.0, 3.0, 0.0, 0.0, 0.0, 0.0, 1.741979495512158E9, 0.0, 2025-03-14 14:11:35.512
108.0, -15626.775101038827, 719.4355987829684, -187500.02235174447, -4656.3601084184775, 25432.619504048766, 15838.915507664145, -39631.02872741565, 11356.854302508153, -1234.5986049888857, 46867.13777388785, 14129.476443466718, 39619.27170983216, -14845.045190458917, 4574.373909756411, -49932.99245035559, -187500.02235174447, 0.13037500000000002, 0.9570625000000001, 0.18937500000000002, 192.0, 0.0, 0.0, 0.0, 0.0, 0.0, 0.0, 0.0, 0.0, 0.0, 1.741979495512321E9, 0.0, 2025-03-14 14:11:35.512
110.0, -15629.792586540294, 715.4122847810131, -187500.02235174447, -4579.738328425686, 25493.37154547829, 15888.916360010668, -39632.43688731633, 11397.802698350275, -1278.229210165645, 46817.36043898588, 14061.281271133576, 39548.52843863111, -14801.191067837604, 4582.599351715965, -49987.620113804354, -187500.02235174447, 0.13037500000000002, 0.9570625000000001, 0.18937500000000002, 192.0, 0.0, 0.0, 0.0, 0.0, 0.0, 0.0, 0.0, 0.0, 0.0, 1.741979495512447E9, 0.0, 2025-03-14 14:11:35.512
112.0, -15636.341647665698, 700.3472090181361, -187500.02235174447, -4649.386364148422, 25440.219097163572, 15850.784283969913, -39635.07439316206, 11375.719174828431, -1256.682128510729, 46865.908427942806, 14114.903106081856, 39600.92092763435, -14820.055940157885, 4579.961845870238, -49958.18286635672, -187500.02235174447, 0.13037500000000002, 0.9570625000000001, 0.18937500000000002, 192.0, 0.0, 0.0, 0.0, 0.0, 0.0, 0.0, 0.0, 0.0, 0.0, 1.741979495512576E9, 0.0, 2025-03-14 14:11:35.512
114.0, -15623.645856815083, 712.707723701921, -187500.02235174447, -4550.703412378241, 25512.214066054115, 15925.193241261632, -39650.83237300305, 11439.421646526056, -1269.0426431945139, 46829.11745656937, 14070.065506704512, 39557.647950368875, -14822.69344600361, 4582.062909849037, -49965.15661062677, -187500.02235174447, 0.13037500000000002, 0.9570625000000001, 0.18937500000000002, 192.0, 0.0, 0.0, 0.0, 0.0, 0.0, 0.0, 0.0, 0.0, 0.0, 1.741979495512713E9, 0.0, 2025-03-14 14:11:35.512
116.0, -15635.805205798772, 709.4667207559015, -187500.02235174447, -4630.789712761607, 25448.288076911937, 15873.560711569871, -39635.58848328453, 11401.4907361854, -1250.133067385324, 46902.3194196605, 14155.069190868044, 39639.14241065293, -14823.542812292912, 4570.015319587626, -49909.70193263316, -187500.02235174447, 0.1301875, 0.9585312500000001, 0.1886875, 192.0, 2.0, 8.0, 15.0, 0.0, 2.5, 112.0, 0.0, 0.0, 0.0, 1.741979495512837E9, 0.0, 2025-03-14 14:11:35.512
118.0, -15591.928731433003, 714.4064562805244, -187500.02235174447, -4555.285519991579, 25504.390955494757, 15927.786043618447, -39649.42421310237, 11452.497417032411, -1236.4090962897656, 46821.78608438803, 14056.63210828687, 39547.4332031528, -14818.133690134728, 4560.940511338772, -49955.50065702208, -187500.02235174447, 0.1301875, 0.9585312500000001, 0.1886875, 192.0, 0.0, 0.0, 0.0, 0.0, 0.0, 0.0, 0.0, 0.0, 0.0, 1.741979495512968E9, 0.0, 2025-03-14 14:11:35.512
120.0, -15603.506935060852, 722.2742703287925, -187500.02235174447, -4633.941308729805, 25434.519402327467, 15860.350830596786, -39633.152143138905, 11397.31095997226, -1264.77346000355, 46916.512777389624, 14158.131379858421, 39641.42228858737, -14817.574896523345, 4584.186325572291, -49903.041112785475, -187500.02235174447, 0.1301875, 0.9585312500000001, 0.1886875, 192.0, 0.0, 0.0, 0.0, 0.0, 0.0, 0.0, 0.0, 0.0, 0.0, 1.741979495572544E9, 0.0, 2025-03-14 14:11:35.572
122.0, -15609.027815941314, 718.7650464493092, -187500.02235174447, -4594.713997210741, 25478.351173204326, 15897.521781625961, -39644.73034676675, 11431.866756900163, -1234.1515700997795, 46794.58401138592, 14019.416453768785, 39506.7753799886, -14810.399986553191, 4581.7499854266625, -49985.00495970309, -187500.02235174447, 0.1301875, 0.9585312500000001, 0.1886875, 192.0, 0.0, 0.0, 0.0, 0.0, 0.0, 0.0, 0.0, 0.0, 0.0, 1.741979495572701E9, 0.0, 2025-03-14 14:11:35.572
124.0, -15614.079310188212, 724.5765000076891, -187500.02235174447, -4600.48074728021, 25461.252088696016, 15892.649101334704, -39644.88680897794, 11433.16315807857, -1255.2516168655893, 46934.88591133188, 14175.588092278016, 39655.43683236084, -14816.949047678596, 4605.91222118285, -49884.19859220965, -187500.02235174447, 0.1301875, 0.9585312500000001, 0.1886875, 192.0, 0.0, 0.0, 0.0, 0.0, 0.0, 0.0, 0.0, 0.0, 0.0, 1.741979495572829E9, 0.0, 2025-03-14 14:11:35.572
126.0, -15611.911190976047, 715.3675812921025, -187500.02235174447, -4598.0667588790375, 25471.444484167634, 15903.646159606715, -39646.920817723374, 11443.087332616728, -1263.3876518473212, 46816.466369207665, 14038.43778830025, 39526.891949998375, -14826.22502162755, 4569.277712020602, -49946.62701447332, -187500.02235174447, 0.13209375, 0.961265625, 0.18734375, 192.0, 2.0, 24.0, 15.0, 16.0, 2.5, 104.0, 0.0, 0.0, 0.0, 1.741979495572957E9, 0.0, 2025-03-14 14:11:35.572
128.0, -15606.703234517961, 723.414209296013, -187500.02235174447, -4595.7198257112295, 25457.206422949606, 15903.556752628894, -39649.42421310237, 11445.926004162551, -1238.4431050351984, 46946.03943181508, 14174.381098077429, 39651.94996022582, -14816.03262615593, 4597.083282123003, -49872.978016493085, -187500.02235174447, 0.13209375, 0.961265625, 0.18734375, 192.0, 0.0, 0.0, 0.0, 0.0, 0.0, 0.0, 0.0, 0.0, 0.0, 1.741979495573093E9, 0.0, 2025-03-14 14:11:35.573
130.0, -15593.113373889135, 738.4122298255242, -187500.02235174447, -4619.837357978507, 25449.092739712327, 15896.650063592204, -39649.82654450256, 11439.846329670707, -1247.3390993284106, 46825.51882571207, 14034.34741906493, 39519.35941211694, -14820.324161091348, 4561.611063672432, -49933.8865201338, -187500.02235174447, 0.13209375, 0.961265625, 0.18734375, 192.0, 0.0, 0.0, 0.0, 0.0, 0.0, 0.0, 0.0, 0.0, 0.0, 1.741979495573226E9, 0.0, 2025-03-14 14:11:35.573
132.0, -15594.253312856355, 732.0643344002169, -187500.02235174447, -4600.927782169317, 25451.75259730251, 15900.963950272078, -39651.30175963661, 11446.730666962942, -1260.8172012349607, 46955.96360635324, 14169.150789874888, 39638.62832053046, -14803.6944632166, 4596.09980536697, -49867.814763523915, -187500.02235174447, 0.13209375, 0.961265625, 0.18734375, 192.0, 0.0, 0.0, 0.0, 0.0, 0.0, 0.0, 0.0, 0.0, 0.0, 1.741979495573351E9, 0.0, 2025-03-14 14:11:35.573
134.0, -15597.60607452465, 728.7115727319209, -187500.02235174447, -4673.168620248869, 25414.02285266195, 15855.992240428, -39634.38148908395, 11412.174870035038, -1234.978584644626, 46810.118473782364, 14008.620561196873, 39483.842490177456, -14816.949047678596, 4567.757793397641, -49962.02736640303, -187500.02235174447, 0.13209375, 0.961265625, 0.18734375, 192.0, 0.0, 0.0, 0.0, 0.0, 0.0, 0.0, 0.0, 0.0, 0.0, 1.741979495573478E9, 0.0, 2025-03-14 14:11:35.573
136.0, -15610.033644441803, 704.1693573199937, -187500.02235174447, -4572.04932833306, 25482.799170350932, 15937.77727338997, -39657.38143412846, 11491.434155873556, -1245.260387094067, 46967.00536811416, 14171.453019553785, 39634.31443385058, -14809.505916774979, 4598.379683301411, -49861.668033798705, -187500.02235174447, 0.132046875, 0.9596328125, 0.189671875, 192.0, 2.0, 16.0, 14.5, 120.0, 3.0, 0.0, 0.0, 0.0, 0.0, 1.741979495631903E9, 0.0, 2025-03-14 14:11:35.631
138.0, -15572.192141078967, 744.4919043173677, -187500.02235174447, -4672.989806293226, 25414.08990789532, 15867.436333589118, -39635.58848328453, 11429.16219582107, -1229.6588694642628, 46852.966767903185, 14050.395971583841, 39523.69565054127, -14821.419396569658, 4594.021093132626, -49913.41232221274, -187500.02235174447, 0.132046875, 0.9596328125, 0.189671875, 192.0, 0.0, 0.0, 0.0, 0.0, 0.0, 0.0, 0.0, 0.0, 0.0, 1.741979495632061E9, 0.0, 2025-03-14 14:11:35.632
140.0, -15590.498219787863, 732.4219623115018, -187500.02235174447, -4566.930778852794, 25482.6650598842, 15942.9628781036, -39662.83525977555, 11495.725690808975, -1223.3780292723216, 46953.92959760781, 14150.285917554607, 39611.850930673, -14799.134707347717, 4625.313535370056, -49870.675786814194, -187500.02235174447, 0.132046875, 0.9596328125, 0.189671875, 192.0, 0.0, 0.0, 0.0, 0.0, 0.0, 0.0, 0.0, 0.0, 0.0, 1.74197949563219E9, 0.0, 2025-03-14 14:11:35.632
142.0, -15608.133746163101, 739.1051339036386, -187500.02235174447, -4659.981091020238, 25419.58843703132, 15888.849304777303, -39650.05006194712, 11455.403143811602, -1272.6636257962734, 46882.98516070666, 14078.268596919608, 39549.5342671316, -14835.612754298778, 4585.996816873171, -49875.839039783365, -187500.02235174447, 0.132046875, 0.9596328125, 0.189671875, 192.0, 0.0, 0.0, 0.0, 0.0, 0.0, 0.0, 0.0, 0.0, 0.0, 1.741979495632322E9, 0.0, 2025-03-14 14:11:35.632
144.0, -15615.643932300083, 734.1206948901051, -187500.02235174447, -4603.699398481775, 25450.83617577984, 15912.38569168874, -39641.48934382074, 11468.121286406671, -1224.7638374285505, 46939.84799860096, 14132.069245823533, 39593.81307289757, -14791.915093888652, 4612.260116608157, -49868.842943768854, -187500.02235174447, 0.132046875, 0.9596328125, 0.189671875, 192.0, 0.0, 0.0, 0.0, 0.0, 0.0, 0.0, 0.0, 0.0, 0.0, 1.741979495632457E9, 0.0, 2025-03-14 14:11:35.632
146.0, -15621.745958536383, 708.0585608552171, -187500.02235174447, -4668.452402168799, 25412.525285783446, 15891.263293178476, -39651.860553248, 11462.712164248487, -1251.0941923969021, 46880.52646881658, 14061.750657767137, 39527.69661279877, -14808.790660952409, 4576.966712113227, -49898.146080749764, -187500.02235174447, 0.1270234375, 0.9558164062500001, 0.1898359375, 192.0, 1.5, 104.0, 14.5, 96.0, 2.5, 120.0, 0.0, 0.0, 0.0, 1.741979495632584E9, 0.0, 2025-03-14 14:11:35.632
148.0, -15626.90921150556, 719.9049854165298, -187500.02235174447, -4561.678118905797, 25481.346306961335, 15959.324355044886, -39658.90135275142, 11517.764510841907, -1249.328404584933, 46958.467001732235, 14137.835995893001, 39596.27176478765, -14799.827611425831, 4602.447700792277, -49844.63600452376, -187500.02235174447, 0.1270234375, 0.9558164062500001, 0.1898359375, 192.0, 0.0, 0.0, 0.0, 0.0, 0.0, 0.0, 0.0, 0.0, 0.0, 1.74197949563272E9, 0.0, 2025-03-14 14:11:35.632
150.0, -15629.814938284748, 718.3403633046584, -187500.02235174447, -4667.848905068506, 25394.55448324138, 15892.157362956688, -39651.122945680974, 11469.708260262998, -1260.1242971568463, 46911.550690120544, 14092.685472093282, 39556.01627302364, -14818.69248374611, 4572.4740114777105, -49859.61167330881, -187500.02235174447, 0.1270234375, 0.9558164062500001, 0.1898359375, 192.0, 0.0, 0.0, 0.0, 0.0, 0.0, 0.0, 0.0, 0.0, 0.0, 1.741979495692555E9, 0.0, 2025-03-14 14:11:35.692
152.0, -15592.621635511117, 731.8855204445745, -187500.02235174447, -4570.015319587626, 25465.23069920906, 15951.501244485527, -39661.29298940814, 11518.323304453292, -1221.6569449492629, 46937.568120666525, 14112.243248491675, 39566.655703384364, -14820.771195980455, 4616.372837587934, -49847.54173130295, -187500.02235174447, 0.1270234375, 0.9558164062500001, 0.1898359375, 192.0, 0.0, 0.0, 0.0, 0.0, 0.0, 0.0, 0.0, 0.0, 0.0, 1.741979495692714E9, 0.0, 2025-03-14 14:11:35.692
154.0, -15648.076313504735, 715.4346365254685, -187500.02235174447, -4664.138515488925, 25397.057878620373, 15896.538304869928, -39661.7623760417, 11478.447792345023, -1259.073765167447, 46927.71100136173, 14101.98379778669, 39557.06680501304, -14819.31833259086, 4597.95500015676, -49844.56894929039, -187500.02235174447, 0.1270234375, 0.9558164062500001, 0.1898359375, 192.0, 0.0, 0.0, 0.0, 0.0, 0.0, 0.0, 0.0, 0.0, 0.0, 1.741979495692834E9, 0.0, 2025-03-14 14:11:35.692
156.0, -15652.546662395796, 696.5921159496446, -187500.02235174447, -4552.245682745657, 25479.021725537983, 15976.624605253293, -39668.110271467005, 11543.021982076405, -1241.684107981218, 46940.74206837917, 14103.481364665195, 39556.37390093492, -14790.529285732424, 4597.329151312012, -49832.34254507334, -187500.02235174447, 0.12051171875, 0.959908203125, 0.18991796875, 192.0, 1.5, 72.0, 15.0, 16.0, 2.5, 120.0, 0.0, 0.0, 0.0, 1.741979495692964E9, 0.0, 2025-03-14 14:11:35.692
158.0, -15659.587461899218, 741.3403083491694, -187500.02235174447, -4672.92275105986, 25379.4894074785, 15885.563598342373, -39644.64093978894, 11471.719917263976, -1205.7872063859948, 46960.34454826648, 14122.614457918939, 39576.82574711153, -14811.048187142396, 4584.253380805657, -49815.511681498494, -187500.02235174447, 0.12051171875, 0.959908203125, 0.18991796875, 192.0, 0.0, 0.0, 0.0, 0.0, 0.0, 0.0, 0.0, 0.0, 0.0, 1.741979495693108E9, 0.0, 2025-03-14 14:11:35.693
160.0, -15636.408702899063, 739.7980379817532, -187500.02235174447, -4558.146543281859, 25471.690353356644, 15975.529369774982, -39671.28421917966, 11550.263947279924, -1254.3351953429217, 46920.849015813954, 14071.36190788292, 39521.54988307356, -14799.335873047814, 4616.775168988129, -49842.24436786704, -187500.02235174447, 0.12051171875, 0.959908203125, 0.18991796875, 192.0, 0.0, 0.0, 0.0, 0.0, 0.0, 0.0, 0.0, 0.0, 0.0, 1.741979495693231E9, 0.0, 2025-03-14 14:11:35.693
162.0, -15677.625319674651, 709.3549620336249, -187500.02235174447, -4670.128783002947, 25384.63030870322, 15895.644235091715, -39641.48934382074, 11482.493458091434, -1268.39444260531, 46978.449461275275, 14138.953583115768, 39582.056055314075, -14806.756652206977, 4588.768433185629, -49798.032617334444, -187500.02235174447, 0.12051171875, 0.959908203125, 0.18991796875, 192.0, 0.0, 0.0, 0.0, 0.0, 0.0, 0.0, 0.0, 0.0, 0.0, 1.741979495693356E9, 0.0, 2025-03-14 14:11:35.693
164.0, -15677.379450485641, 710.8301771676752, -187500.02235174447, -4571.691700421775, 25470.393952178238, 15976.490494786562, -39671.19481220184, 11552.14149381417, -1230.0164973755477, 46918.971469279706, 14064.589329312961, 39507.602394533445, -14799.6935009591, 4609.57790727352, -49834.84594045233, -187500.02235174447, 0.12051171875, 0.959908203125, 0.18991796875, 192.0, 0.0, 0.0, 0.0, 0.0, 0.0, 0.0, 0.0, 0.0, 0.0, 1.741979495693485E9, 0.0, 2025-03-14 14:11:35.693
166.0, -15661.800284600293, 734.0089361678287, -187500.02235174447, -4658.774096819651, 25397.348451298294, 15911.089290510332, -39650.497096836225, 11497.80440304332, -1255.9221691992486, 47014.1451971704, 14170.536598031116, 39609.526349249645, -14815.384425566725, 4596.882116422906, -49760.54874188289, -187500.02235174447, 0.11425585937499999, 0.9649541015625, 0.190958984375, 192.0, 1.5, 48.0, 15.0, 40.0, 3.0, 0.0, 0.0, 0.0, 0.0, 1.741979495753241E9, 0.0, 2025-03-14 14:11:35.753
168.0, -15653.217214729455, 730.4103053105242, -187500.02235174447, -4601.91125892535, 25450.6573618242, 15953.177625319675, -39659.169573684885, 11534.237746505469, -1220.4723024931316, 46906.722713318195, 14039.957706923213, 39481.22733607618, -14799.201762581082, 4603.051197892571, -49836.38821081975, -187500.02235174447, 0.11425585937499999, 0.9649541015625, 0.190958984375, 192.0, 0.0, 0.0, 0.0, 0.0, 0.0, 0.0, 0.0, 0.0, 0.0, 1.741979495753433E9, 0.0, 2025-03-14 14:11:35.753
170.0, -15668.349345725697, 745.609491540133, -187500.02235174447, -4633.047238951593, 25413.17348637265, 15927.428415707162, -39651.614684058986, 11517.295124208347, -1251.5412272860083, 47035.04407823612, 14181.980691192233, 39614.44373302981, -14805.437899284114, 4603.5876397594975, -49744.142561452696, -187500.02235174447, 0.11425585937499999, 0.9649541015625, 0.190958984375, 192.0, 0.0, 0.0, 0.0, 0.0, 0.0, 0.0, 0.0, 0.0, 0.0, 1.741979495753559E9, 0.0, 2025-03-14 14:11:35.753
172.0, -15637.325124421732, 749.2528258863481, -187500.02235174447, -4593.685816965797, 25454.881841526254, 15966.007526637022, -39665.09278596554, 11554.041392092871, -1243.9639859156594, 46925.2746612161, 14054.911023963812, 39492.917298426306, -14798.486506758512, 4590.981255886705, -49808.157957572694, -187500.02235174447, 0.11425585937499999, 0.9649541015625, 0.190958984375, 192.0, 0.0, 0.0, 0.0, 0.0, 0.0, 0.0, 0.0, 0.0, 0.0, 1.741979495753693E9, 0.0, 2025-03-14 14:11:35.753
174.0, -15658.514578165363, 721.6260697395885, -187500.02235174447, -4592.14354659838, 25446.07525421086, 15967.058058626422, -39666.299780166126, 11558.511740983933, -1253.0611459089691, 47071.991511820735, 14216.33532242004, 39647.43490784585, -14806.868410929254, 4607.05216015007, -49705.92107843412, -187500.02235174447, 0.11425585937499999, 0.9649541015625, 0.190958984375, 192.0, 0.0, 0.0, 0.0, 0.0, 0.0, 0.0, 0.0, 0.0, 0.0, 1.741979495753826E9, 0.0, 2025-03-14 14:11:35.753
176.0, -15645.99760127039, 733.1148663896164, -187500.02235174447, -4625.313535370056, 25430.205515647594, 15940.995924591534, -39657.18026842836, 11530.482653436979, -1232.72105845464, 46930.25910022964, 14050.440675072752, 39494.48192053818, -14797.592436980301, 4573.770412656118, -49794.970428344066, -187500.02235174447, 0.1091279296875, 0.96447705078125, 0.1934794921875, 192.0, 1.5, 32.0, 15.0, 16.0, 3.0, 16.0, 0.0, 0.0, 0.0, 1.741979495753947E9, 0.0, 2025-03-14 14:11:35.753
178.0, -15646.869319304147, 772.6551023310545, -187500.02235174447, -4641.518550100154, 25407.40673630318, 15910.821069576868, -39644.193904899825, 11501.157164711614, -1212.2692122780338, 47051.91964529987, 14172.704717243281, 39601.39031426791, -14798.419451525147, 4606.269849094135, -49743.583767841315, -187500.02235174447, 0.1091279296875, 0.96447705078125, 0.1934794921875, 192.0, 0.0, 0.0, 0.0, 0.0, 0.0, 0.0, 0.0, 0.0, 0.0, 1.741979495754083E9, 0.0, 2025-03-14 14:11:35.754
180.0, -15611.128879920112, 739.1498373925492, -187500.02235174447, -4656.963605518771, 25414.156963128684, 15914.419700434173, -39663.43875687585, 11507.952095026028, -1251.876503452838, 46904.28637317257, 14011.481584487152, 39443.43053620226, -14798.710024203066, 4591.160069842347, -49838.73514398756, -187500.02235174447, 0.1091279296875, 0.96447705078125, 0.1934794921875, 192.0, 0.0, 0.0, 0.0, 0.0, 0.0, 0.0, 0.0, 0.0, 0.0, 1.741979495812165E9, 0.0, 2025-03-14 14:11:35.812
182.0, -15648.232775715922, 725.8729011860969, -187500.02235174447, -4641.138570444414, 25418.582608530833, 15914.799680089913, -39653.17930617086, 11503.884077535162, -1228.2507095635783, 47043.046002751114, 14159.18191184782, 39575.59640116649, -14785.12016357424, 4616.842224221495, -49759.721727338045, -187500.02235174447, 0.1091279296875, 0.96447705078125, 0.1934794921875, 192.0, 0.0, 0.0, 0.0, 0.0, 0.0, 0.0, 0.0, 0.0, 0.0, 1.741979495812309E9, 0.0, 2025-03-14 14:11:35.812
184.0, -15650.065618761257, 741.5191223048118, -187500.02235174447, -4684.635065154442, 25399.985957144017, 15899.488735138028, -39650.58650381405, 11495.166897197592, -1233.1904450882012, 46924.89468156036, 14024.445596271229, 39452.84062061794, -14795.111393345762, 4608.996761917682, -49826.73225721506, -187500.02235174447, 0.1091279296875, 0.96447705078125, 0.1934794921875, 192.0, 0.0, 0.0, 0.0, 0.0, 0.0, 0.0, 0.0, 0.0, 0.0, 1.741979495812434E9, 0.0, 2025-03-14 14:11:35.812
186.0, -15658.313412465264, 724.8894244300634, -187500.02235174447, -4626.744047015196, 25437.872163995766, 15928.546002929927, -39655.23566666075, 11514.367045684701, -1217.0524855914696, 47053.55132264511, 14162.646432238393, 39578.92681109033, -14802.867448671754, 4630.946174972793, -49748.970538255046, -187500.02235174447, 0.10756396484375, 0.960238525390625, 0.19173974609375, 192.0, 1.5, 40.0, 14.5, 112.0, 2.5, 120.0, 0.0, 0.0, 0.0, 1.741979495812565E9, 0.0, 2025-03-14 14:11:35.812
188.0, -15642.846005302192, 733.1819216229823, -187500.02235174447, -4708.193803810335, 25386.150227326183, 15876.265272648965, -39656.46501260579, 11470.132943407649, -1234.5986049888857, 46927.82276008401, 14021.986904381145, 39445.442193203235, -14801.056957370873, 4593.641113476886, -49830.28618458345, -187500.02235174447, 0.10756396484375, 0.960238525390625, 0.19173974609375, 192.0, 0.0, 0.0, 0.0, 0.0, 0.0, 0.0, 0.0, 0.0, 0.0, 1.741979495812708E9, 0.0, 2025-03-14 14:11:35.812
190.0, -15645.259993703366, 730.0973808881499, -187500.02235174447, -4622.608974290964, 25444.51063209899, 15928.568354674382, -39659.19192542934, 11508.89086829315, -1257.263273866567, 47035.73698231423, 14137.456016237262, 39548.215514208736, -14777.609977437256, 4617.2669073661455, -49770.51761990996, -187500.02235174447, 0.10756396484375, 0.960238525390625, 0.19173974609375, 192.0, 0.0, 0.0, 0.0, 0.0, 0.0, 0.0, 0.0, 0.0, 0.0, 1.741979495812835E9, 0.0, 2025-03-14 14:11:35.812
192.0, -15626.28336266081, 733.3830873230801, -187500.02235174447, -4716.106321347514, 25381.903395879675, 15871.593758057805, -39652.84403000403, 11464.924986949562, -1275.5917043199188, 46943.40192596936, 14043.44457905824, 39461.98248410016, -14794.597303223289, 4584.745119183674, -49812.33773378584, -187500.02235174447, 0.10756396484375, 0.960238525390625, 0.19173974609375, 192.0, 0.0, 0.0, 0.0, 0.0, 0.0, 0.0, 0.0, 0.0, 0.0, 1.74197949581296E9, 0.0, 2025-03-14 14:11:35.812
194.0, -15668.774028870348, 734.1430466345605, -187500.02235174447, -4615.5011195541765, 25456.17824270466, 15939.118378057288, -39660.063643463094, 11515.171708485093, -1220.3158402819445, 47035.75933405868, 14137.880699381913, 39547.32144443053, -14784.918997874141, 4620.083227167514, -49755.0949162358, -187500.02235174447, 0.10756396484375, 0.960238525390625, 0.19173974609375, 192.0, 0.0, 0.0, 0.0, 0.0, 0.0, 0.0, 0.0, 0.0, 0.0, 1.741979495813093E9, 0.0, 2025-03-14 14:11:35.813
196.0, -15663.76723811236, 738.5016368033454, -187500.02235174447, -4730.545548265642, 25388.765381427456, 15863.927109709635, -39650.139468924935, 11455.336088578235, -1250.937730185715, 46955.96360635324, 14054.329878607974, 39463.14477481184, -14801.325178304336, 4578.196058058269, -49804.91695462668, -187500.02235174447, 0.108781982421875, 0.9601192626953126, 0.192869873046875, 192.0, 1.5, 56.0, 15.0, 0.0, 3.0, 8.0, 0.0, 0.0, 0.0, 1.741979495872549E9, 0.0, 2025-03-14 14:11:35.872
198.0, -15655.497092663896, 746.0341746847838, -187500.02235174447, -4603.095901381481, 25485.011993052005, 15949.869567140291, -39663.10348070902, 11526.5710981573, -1240.879445180827, 47023.8011507751, 14117.719425883226, 39518.085362682985, -14777.565273948345, 4617.982163188715, -49767.00839603048, -187500.02235174447, 0.108781982421875, 0.9601192626953126, 0.192869873046875, 192.0, 0.0, 0.0, 0.0, 0.0, 0.0, 0.0, 0.0, 0.0, 0.0, 1.741979495872696E9, 0.0, 2025-03-14 14:11:35.872
200.0, -15644.544737880797, 749.3869363530799, -187500.02235174447, -4719.704952204818, 25402.019965889453, 15869.090362678811, -39643.41159384389, 11460.164065380583, -1238.9348434132153, 46999.638915018906, 14092.17138197081, 39498.48288279568, -14794.35143403428, 4625.58175630352, -49768.90829430918, -187500.02235174447, 0.108781982421875, 0.9601192626953126, 0.192869873046875, 192.0, 0.0, 0.0, 0.0, 0.0, 0.0, 0.0, 0.0, 0.0, 0.0, 1.741979495872828E9, 0.0, 2025-03-14 14:11:35.872
202.0, -15653.373676940642, 755.1760381670044, -187500.02235174447, -4627.146378415391, 25481.882748828262, 15926.869622095779, -39653.7604515267, 11506.499231636433, -1230.9999741315812, 47003.25989762067, 14086.963425512724, 39486.92703091229, -14757.247538238471, 4629.895642983394, -49791.64001842023, -187500.02235174447, 0.108781982421875, 0.9601192626953126, 0.192869873046875, 192.0, 0.0, 0.0, 0.0, 0.0, 0.0, 0.0, 0.0, 0.0, 0.0, 1.741979495872966E9, 0.0, 2025-03-14 14:11:35.872
204.0, -15662.202616000488, 739.1721891370046, -187500.02235174447, -4706.986809609748, 25426.204553390093, 15880.288586650919, -39642.00343394321, 11475.27384463237, -1225.3226310399332, 47010.70302852429, 14096.529972139595, 39501.85799620843, -14794.820820667843, 4616.1493201433805, -49777.53606766892, -187500.02235174447, 0.108781982421875, 0.9601192626953126, 0.192869873046875, 192.0, 0.0, 0.0, 0.0, 0.0, 0.0, 0.0, 0.0, 0.0, 0.0, 1.74197949587309E9, 0.0, 2025-03-14 14:11:35.873
206.0, -15659.900386321591, 722.6989534734432, -187500.02235174447, -4565.969653841216, 25533.582333753388, 15980.893788444257, -39669.1160999675, 11563.317366041823, -1270.651968795296, 47027.176264187845, 14109.538687412583, 39514.509083570134, -14788.294111286892, 4604.884040937905, -49745.818942286845, -187500.02235174447, 0.11239099121093751, 0.9610596313476563, 0.19243493652343752, 192.0, 1.5, 80.0, 15.0, 8.0, 3.0, 0.0, 0.0, 0.0, 0.0, 1.741979495873211E9, 0.0, 2025-03-14 14:11:35.873
208.0, -15692.1539535706, 740.2003693819487, -187500.02235174447, -4688.457213456299, 25445.13648094374, 15892.135011212233, -39644.551532811114, 11487.857876760707, -1269.48967808362, 47050.958520288295, 14141.144054072387, 39546.337967674495, -14800.945198648596, 4607.566250272543, -49722.59547979778, -187500.02235174447, 0.11239099121093751, 0.9610596313476563, 0.19243493652343752, 192.0, 0.0, 0.0, 0.0, 0.0, 0.0, 0.0, 0.0, 0.0, 0.0, 1.741979495873342E9, 0.0, 2025-03-14 14:11:35.873
210.0, -15667.72349688095, 724.9117761745186, -187500.02235174447, -4594.1328518549035, 25524.19460108216, 15961.20190157913, -39661.98589348625, 11546.352392000246, -1255.67630001024, 46993.15690912687, 14072.07716370549, 39472.10782433842, -14775.553616947367, 4606.605125260964, -49771.746965855, -187500.02235174447, 0.11239099121093751, 0.9610596313476563, 0.19243493652343752, 192.0, 0.0, 0.0, 0.0, 0.0, 0.0, 0.0, 0.0, 0.0, 0.0, 1.741979495933277E9, 0.0, 2025-03-14 14:11:35.933
212.0, -15648.612755371661, 757.7017852904542, -187500.02235174447, -4681.617579652975, 25448.98098099005, 15894.90662752469, -39645.44560258932, 11495.792746042342, -1194.6113341583414, 47070.33748273105, 14161.99823164919, 39558.139688746895, -14828.88487921773, 4600.748968213674, -49715.88995646119, -187500.02235174447, 0.11239099121093751, 0.9610596313476563, 0.19243493652343752, 192.0, 0.0, 0.0, 0.0, 0.0, 0.0, 0.0, 0.0, 0.0, 0.0, 1.741979495933427E9, 0.0, 2025-03-14 14:11:35.933
214.0, -15695.86434315018, 743.1731513945045, -187500.02235174447, -4613.824738720029, 25519.836010913376, 15952.440017752651, -39667.059739477605, 11542.28437450938, -1251.4965237970978, 46974.470850762234, 14044.651573258827, 39446.13509728135, -14801.325178304336, 4589.9083721528505, -49790.03069281944, -187500.02235174447, 0.11239099121093751, 0.9610596313476563, 0.19243493652343752, 192.0, 0.0, 0.0, 0.0, 0.0, 0.0, 0.0, 0.0, 0.0, 0.0, 1.741979495933548E9, 0.0, 2025-03-14 14:11:35.933
216.0, -15668.930491081535, 745.6318432845883, -187500.02235174447, -4671.402832436899, 25463.17433871917, 15903.66851135117, -39654.94509398283, 11501.715958322997, -1283.5042218570975, 47090.1634800629, 14183.008871437178, 39576.959857578266, -14804.83440218382, 4612.10365439697, -49692.80060443886, -187500.02235174447, 0.11419549560546877, 0.9605298156738281, 0.19221746826171876, 192.0, 1.5, 80.0, 15.0, 0.0, 3.0, 0.0, 0.0, 0.0, 0.0, 1.741979495933684E9, 0.0, 2025-03-14 14:11:35.933
218.0, -15640.834348301214, 763.5579423377445, -187500.02235174447, -4635.260061652668, 25508.324862518893, 15934.983305333057, -39664.75750979871, 11522.503080666433, -1253.2399598646116, 46952.07440281801, 14018.097700845921, 39417.61427135638, -14802.621579482744, 4595.362197799945, -49807.01801860548, -187500.02235174447, 0.11419549560546877, 0.9605298156738281, 0.19221746826171876, 192.0, 0.0, 0.0, 0.0, 0.0, 0.0, 0.0, 0.0, 0.0, 0.0, 1.741979495933822E9, 0.0, 2025-03-14 14:11:35.933
220.0, -15656.86054907567, 757.2323986568927, -187500.02235174447, -4672.810992337584, 25470.349248689326, 15903.646159606715, -39652.866381748485, 11496.575057098276, -1234.8668259223493, 47087.36951200599, 14167.094429384999, 39559.749014347675, -14837.17737641065, 4608.5720787730315, -49712.49249130398, -187500.02235174447, 0.11419549560546877, 0.9605298156738281, 0.19221746826171876, 192.0, 0.0, 0.0, 0.0, 0.0, 0.0, 0.0, 0.0, 0.0, 0.0, 1.741979495933945E9, 0.0, 2025-03-14 14:11:35.933
222.0, -15679.480514464442, 756.2712736453144, -187500.02235174447, -4659.310538686578, 25491.56105417741, 15919.29238072543, -39653.33576838205, 11508.220315959492, -1230.5305874980197, 46949.727469650206, 14002.987921594135, 39407.75715205159, -14808.567143507857, 4587.248514562669, -49811.01898086297, -187500.02235174447, 0.11419549560546877, 0.9605298156738281, 0.19221746826171876, 192.0, 0.0, 0.0, 0.0, 0.0, 0.0, 0.0, 0.0, 0.0, 0.0, 1.741979495934069E9, 0.0, 2025-03-14 14:11:35.934
224.0, -15692.086898337235, 737.3393460916694, -187500.02235174447, -4656.404811907389, 25495.04792631244, 15927.24960175152, -39663.4611086203, 11516.378702685679, -1236.811427689961, 47091.99632310824, 14161.126513615432, 39560.26310447015, -14819.921829691153, 4617.3786660884225, -49715.04059017189, -187500.02235174447, 0.11419549560546877, 0.9605298156738281, 0.19221746826171876, 192.0, 0.0, 0.0, 0.0, 0.0, 0.0, 0.0, 0.0, 0.0, 0.0, 1.741979495934202E9, 0.0, 2025-03-14 14:11:35.934
226.0, -15671.143313782612, 770.576390096711, -187500.02235174447, -4690.334759990545, 25486.04017329695, 15909.547020142916, -39657.202620172815, 11498.989045499451, -1266.7627652600725, 46950.44272547278, 14008.017064096579, 39419.804742313, -14812.098719131794, 4594.155203599358, -49798.52435571246, -187500.02235174447, 0.11309774780273438, 0.9602649078369141, 0.19010873413085938, 192.0, 1.5, 64.0, 15.0, 0.0, 2.5, 112.0, 0.0, 0.0, 0.0, 1.741979495991995E9, 0.0, 2025-03-14 14:11:35.991
228.0, -15655.206519985977, 771.2916459192808, -187500.02235174447, -4683.137498275936, 25481.435713939158, 15897.052394992399, -39651.681739292355, 11486.27090290438, -1238.1078288683689, 47076.41715722289, 14139.333562771508, 39542.1805432058, -14807.31544581836, 4626.922860970839, -49741.907387007166, -187500.02235174447, 0.11309774780273438, 0.9602649078369141, 0.19010873413085938, 192.0, 0.0, 0.0, 0.0, 0.0, 0.0, 0.0, 0.0, 0.0, 0.0, 1.741979495992151E9, 0.0, 2025-03-14 14:11:35.992
230.0, -15644.81295881426, 784.8815065481075, -187500.02235174447, -4672.87804757095, 25494.355022234326, 15917.951276058111, -39678.86146055001, 11513.785900328863, -1199.327552238411, 46946.86644635993, 14002.049148327013, 39413.38979165433, -14827.543774550411, 4601.464224036244, -49811.66718145218, -187500.02235174447, 0.11309774780273438, 0.9602649078369141, 0.19010873413085938, 192.0, 0.0, 0.0, 0.0, 0.0, 0.0, 0.0, 0.0, 0.0, 0.0, 1.741979495992285E9, 0.0, 2025-03-14 14:11:35.992
232.0, -15668.997546314902, 729.1362558765717, -187500.02235174447, -4601.3524653139675, 25535.504583776546, 15964.845235925346, -39679.39790241694, 11554.443723493066, -1226.2167008181455, 47107.46373027131, 14181.62306328095, 39584.8947268599, -14849.895519005719, 4618.608012033465, -49693.180584094596, -187500.02235174447, 0.11309774780273438, 0.9602649078369141, 0.19010873413085938, 192.0, 0.0, 0.0, 0.0, 0.0, 0.0, 0.0, 0.0, 0.0, 0.0, 1.741979495992422E9, 0.0, 2025-03-14 14:11:35.992
234.0, -15677.446505719008, 747.3305758631916, -187500.02235174447, -4690.960608835293, 25486.531911674967, 15909.569371887372, -39665.91980051038, 11504.576981613278, -1277.5363060875304, 46968.10060359247, 14030.659381229805, 39446.04569030353, -14835.009257198484, 4540.399258184345, -49773.04336703341, -187500.02235174447, 0.11309774780273438, 0.9602649078369141, 0.19010873413085938, 192.0, 0.0, 0.0, 0.0, 0.0, 0.0, 0.0, 0.0, 0.0, 0.0, 1.741979495992554E9, 0.0, 2025-03-14 14:11:35.992
236.0, -15669.399877715097, 748.157590408038, -187500.02235174447, -4625.805273748073, 25530.877772674296, 15947.232061294564, -39672.80413780262, 11532.42725520459, -1245.2827388385224, 47084.4637852268, 14155.069190868044, 39560.2854562146, -14817.463137801069, 4618.4962533111875, -49712.403084326164, -187500.02235174447, 0.1115488739013672, 0.956132453918457, 0.1890543670654297, 192.0, 1.5, 56.0, 14.5, 96.0, 2.5, 112.0, 0.0, 0.0, 0.0, 1.741979495992677E9, 0.0, 2025-03-14 14:11:35.992
238.0, -15642.175452968533, 771.2692941748255, -187500.02235174447, -4722.163644094902, 25470.99744927853, 15883.015499474466, -39673.22882094727, 11478.067812689284, -1204.5355086964976, 46963.29497853458, 14023.953857893213, 39437.77554485507, -14833.466986831068, 4585.303912795057, -49787.90727709619, -187500.02235174447, 0.1115488739013672, 0.956132453918457, 0.1890543670654297, 192.0, 0.0, 0.0, 0.0, 0.0, 0.0, 0.0, 0.0, 0.0, 0.0, 1.741979495992821E9, 0.0, 2025-03-14 14:11:35.992
240.0, -15658.916909565558, 745.8330089846861, -187500.02235174447, -4602.090072880992, 25553.87771771881, 15969.44969528314, -39685.9693152868, 11554.376668259702, -1217.1865960582013, 47069.9127995864, 14138.171272059832, 39545.421546151825, -14842.98882996903, 4620.686724267808, -49723.377790853716, -187500.02235174447, 0.1115488739013672, 0.956132453918457, 0.1890543670654297, 192.0, 0.0, 0.0, 0.0, 0.0, 0.0, 0.0, 0.0, 0.0, 0.0, 1.741979496051885E9, 0.0, 2025-03-14 14:11:36.051
242.0, -15634.70997032046, 747.8893694745743, -187500.02235174447, -4702.73997816324, 25485.39197270775, 15910.128165498754, -39673.05000699163, 11505.493403135944, -1231.581119487419, 47006.12092091095, 14072.233625916675, 39490.83858619197, -14843.771141024965, 4573.010453344637, -49737.52644509393, -187500.02235174447, 0.1115488739013672, 0.956132453918457, 0.1890543670654297, 192.0, 0.0, 0.0, 0.0, 0.0, 0.0, 0.0, 0.0, 0.0, 0.0, 1.74197949605204E9, 0.0, 2025-03-14 14:11:36.052
244.0, -15672.998508572402, 733.1148663896164, -187500.02235174447, -4599.3855118019, 25558.705694521155, 15972.802456951435, -39677.3638936715, 11553.169674059114, -1234.486846266609, 47068.437584452346, 14135.734931914203, 39547.232037452704, -14843.838196258332, 4589.595447730476, -49710.81611046984, -187500.02235174447, 0.1115488739013672, 0.956132453918457, 0.1890543670654297, 192.0, 0.0, 0.0, 0.0, 0.0, 0.0, 0.0, 0.0, 0.0, 0.0, 1.741979496052168E9, 0.0, 2025-03-14 14:11:36.052
246.0, -15676.708898151983, 744.737773506376, -187500.02235174447, -4707.031513098659, 25480.340478460846, 15908.80941257589, -39665.85274527702, 11505.225182202481, -1253.1729046312457, 47014.01108670367, 14079.45323937574, 39497.23118510618, -14851.258975417493, 4565.835543374485, -49737.72761079403, -187500.02235174447, 0.1127744369506836, 0.9540662269592286, 0.18752718353271486, 192.0, 1.5, 72.0, 14.5, 96.0, 2.5, 104.0, 0.0, 0.0, 0.0, 1.741979496052302E9, 0.0, 2025-03-14 14:11:36.052
248.0, -15682.363889499175, 733.0254594117952, -187500.02235174447, -4594.959866399749, 25570.127435937815, 15982.816038467414, -39679.911992539404, 11564.390249775679, -1207.7094564091512, 47056.0100145352, 14122.212126518742, 39537.106697214454, -14840.038399700928, 4606.739235727696, -49712.827767470815, -187500.02235174447, 0.1127744369506836, 0.9540662269592286, 0.18752718353271486, 192.0, 0.0, 0.0, 0.0, 0.0, 0.0, 0.0, 0.0, 0.0, 0.0, 1.741979496052438E9, 0.0, 2025-03-14 14:11:36.052
250.0, -15676.083049307234, 743.1955031389598, -187500.02235174447, -4708.149100321424, 25489.14706577624, 15907.177735230654, -39665.5621725991, 11502.475917634478, -1220.4275990042208, 47028.517368855166, 14103.302550709554, 39524.92499648631, -14845.246356159016, 4563.287444506579, -49710.74905523647, -187500.02235174447, 0.1127744369506836, 0.9540662269592286, 0.18752718353271486, 192.0, 0.0, 0.0, 0.0, 0.0, 0.0, 0.0, 0.0, 0.0, 0.0, 1.741979496052564E9, 0.0, 2025-03-14 14:11:36.052
252.0, -15666.158874769078, 707.1644910770049, -187500.02235174447, -4609.980238673716, 25563.399560856767, 15970.9696139061, -39679.10732973902, 11549.146360057159, -1194.231354502601, 47022.81767401906, 14084.102402222445, 39502.66265900882, -14838.876108989252, 4582.644055204875, -49733.32431713633, -187500.02235174447, 0.1127744369506836, 0.9540662269592286, 0.18752718353271486, 192.0, 0.0, 0.0, 0.0, 0.0, 0.0, 0.0, 0.0, 0.0, 0.0, 1.741979496052692E9, 0.0, 2025-03-14 14:11:36.052
254.0, -15701.944017642025, 738.8816164590855, -187500.02235174447, -4718.8108824266055, 25480.251071483028, 15899.868714793769, -39659.81777427409, 11491.4118041291, -1280.196163677712, 47040.43084864984, 14106.096518766466, 39530.69174655578, -14847.012143970984, 4540.04163027306, -49714.61590702723, -187500.02235174447, 0.1127744369506836, 0.9540662269592286, 0.18752718353271486, 192.0, 0.0, 0.0, 0.0, 0.0, 0.0, 0.0, 0.0, 0.0, 0.0, 1.741979496052828E9, 0.0, 2025-03-14 14:11:36.052
0.0, -15670.29394749331, 746.6600235295324, -187500.02235174447, -4614.025904420127, 25556.91755496473, 15972.154256362232, -39668.870230778484, 11548.431104234589, -1223.0874565944025, 47020.627203062446, 14071.227797416186, 39495.95713567223, -14853.628260329755, 4556.403107214344, -49738.17464568313, -187500.02235174447, 0.11538721847534181, 0.9570331134796143, 0.18576359176635743, 192.0, 1.5, 88.0, 15.0, 0.0, 2.5, 96.0, 0.0, 0.0, 0.0, 1.741979496112275E9, 0.0, 2025-03-14 14:11:36.112
2.0, -15665.443618946509, 750.2139508979262, -187500.02235174447, -4742.883711204971, 25464.47073989758, 15875.95234822659, -39652.575809070564, 11463.002736926406, -1209.0282093320143, 47052.009052277695, 14104.822469332514, 39528.92595874381, -14852.197748684615, 4550.479894933688, -49726.797607755376, -187500.02235174447, 0.11538721847534181, 0.9570331134796143, 0.18576359176635743, 192.0, 0.0, 0.0, 0.0, 0.0, 0.0, 0.0, 0.0, 0.0, 0.0, 1.741979496112417E9, 0.0, 2025-03-14 14:11:36.112
4.0, -15631.066635974246, 762.5074103483452, -187500.02235174447, -4654.974300262249, 25542.38892106878, 15943.231099037064, -39665.20454468782, 11515.70815035202, -1216.1137123243466, 46985.4902607787, 14020.690503202737, 39445.08456529195, -14818.871297701753, 4535.526577893088, -49786.7002828956, -187500.02235174447, 0.11538721847534181, 0.9570331134796143, 0.18576359176635743, 192.0, 0.0, 0.0, 0.0, 0.0, 0.0, 0.0, 0.0, 0.0, 0.0, 1.741979496112551E9, 0.0, 2025-03-14 14:11:36.112
6.0, -15656.547624653296, 766.8436487726747, -187500.02235174447, -4726.142254607947, 25478.462931926602, 15889.564560599872, -39656.710881794796, 11472.83750448674, -1213.81148264545, 47063.542552416635, 14113.60670490345, 39537.19610419227, -14861.65253658921, 4536.1971302267475, -49730.26212814595, -187500.02235174447, 0.11538721847534181, 0.9570331134796143, 0.18576359176635743, 192.0, 0.0, 0.0, 0.0, 0.0, 0.0, 0.0, 0.0, 0.0, 0.0, 1.741979496112676E9, 0.0, 2025-03-14 14:11:36.112
8.0, -15664.683659635028, 784.0768437477165, -187500.02235174447, -4633.360163373967, 25556.358761353345, 15963.817055680402, -39677.967390771795, 11535.33298198378, -1198.4334824601988, 46987.83719394651, 14019.707026446704, 39449.84548686093, -14854.32116440787, 4544.221406486203, -49773.71391936707, -187500.02235174447, 0.11538721847534181, 0.9570331134796143, 0.18576359176635743, 192.0, 0.0, 0.0, 0.0, 0.0, 0.0, 0.0, 0.0, 0.0, 0.0, 1.741979496112801E9, 0.0, 2025-03-14 14:11:36.112
10.0, -15653.396028685098, 756.8300672566971, -187500.02235174447, -4683.763347120685, 25504.256845028027, 15922.667494138183, -39655.14625968293, 11500.017225744394, -1212.1574535557572, 47107.8213581826, 14156.544406002095, 39581.9442965918, -14863.910062779196, 4526.317659177502, -49680.7753659219, -187500.02235174447, 0.11669360923767091, 0.9565165567398072, 0.1798817958831787, 192.0, 1.5, 88.0, 14.5, 112.0, 2.5, 56.0, 0.0, 0.0, 0.0, 1.741979496112926E9, 0.0, 2025-03-14 14:11:36.112
12.0, -15634.017066242346, 748.1128869191274, -187500.02235174447, -4641.026811722138, 25550.033217672495, 15959.838445167357, -39674.56992561459, 11529.677990636586, -1249.4625150516647, 46990.96643817025, 14019.751729935615, 39451.745385139635, -14855.975193497563, 4500.434339098256, -49760.10170699379, -187500.02235174447, 0.11669360923767091, 0.9565165567398072, 0.1798817958831787, 192.0, 0.0, 0.0, 0.0, 0.0, 0.0, 0.0, 0.0, 0.0, 0.0, 1.741979496113074E9, 0.0, 2025-03-14 14:11:36.113
14.0, -15646.42228441504, 760.0040149693507, -187500.02235174447, -4632.421390106844, 25537.24801984406, 15964.420552780695, -39654.65452130491, 11535.154168028137, -1232.3187270544443, 47131.4248003274, 14180.930159202833, 39601.278555545636, -14863.127751723261, 4488.36439709239, -49657.01546156591, -187500.02235174447, 0.11669360923767091, 0.9565165567398072, 0.1798817958831787, 192.0, 0.0, 0.0, 0.0, 0.0, 0.0, 0.0, 0.0, 0.0, 0.0, 1.741979496172999E9, 0.0, 2025-03-14 14:11:36.172
16.0, -15651.518482150852, 792.5705066407331, -187500.02235174447, -4640.065686710559, 25547.641581015778, 15961.49247425705, -39662.656445819914, 11531.510833681921, -1195.4383487031876, 46994.27449634964, 14026.658418972305, 39456.61806543089, -14849.515539349979, 4469.365414305379, -49739.113418950255, -187500.02235174447, 0.11669360923767091, 0.9565165567398072, 0.1798817958831787, 192.0, 0.0, 0.0, 0.0, 0.0, 0.0, 0.0, 0.0, 0.0, 0.0, 1.741979496173145E9, 0.0, 2025-03-14 14:11:36.173
18.0, -15649.260955960866, 755.6007213116552, -187500.02235174447, -4636.154131430881, 25533.33646456438, 15953.423494508685, -39655.01214921619, 11528.470996436, -1177.691063605674, 47131.51420730522, 14177.867970212457, 39598.10460783298, -14864.111228479294, 4481.2565423556025, -49651.47222894099, -187500.02235174447, 0.11669360923767091, 0.9565165567398072, 0.1798817958831787, 192.0, 0.0, 0.0, 0.0, 0.0, 0.0, 0.0, 0.0, 0.0, 0.0, 1.741979496173275E9, 0.0, 2025-03-14 14:11:36.173
20.0, -15654.401857185587, 751.9350352209849, -187500.02235174447, -4657.544750874609, 25528.016749384016, 15944.77336940448, -39663.88579176495, 11519.910278309617, -1241.0806108809247, 46984.70794972276, 14014.119090332877, 39446.068042047984, -14854.209405685593, 4441.02340233605, -49742.108552707265, -187500.02235174447, 0.11734680461883545, 0.9622582783699036, 0.17694089794158935, 192.0, 1.5, 88.0, 15.0, 32.0, 2.5, 56.0, 0.0, 0.0, 0.0, 1.741979496173401E9, 0.0, 2025-03-14 14:11:36.173
22.0, -15648.322182693742, 764.7872882827864, -187500.02235174447, -4633.538977329609, 25526.273313316502, 15946.62856419427, -39659.795422529634, 11515.730502096476, -1240.4547620361761, 47122.059419400626, 14164.211054350264, 39582.592497181, -14872.068449505383, 4455.239111809625, -49662.96102559102, -187500.02235174447, 0.11734680461883545, 0.9622582783699036, 0.17694089794158935, 192.0, 0.0, 0.0, 0.0, 0.0, 0.0, 0.0, 0.0, 0.0, 0.0, 1.741979496173544E9, 0.0, 2025-03-14 14:11:36.173
24.0, -15615.487470088896, 754.3937271110686, -187500.02235174447, -4679.561219163086, 25498.914778103208, 15914.732624856548, -39649.40186135791, 11489.936588995051, -1176.3499589383555, 46973.12974609491, 14008.218229796676, 39431.874684318864, -14873.498961150523, 4421.890309082307, -49753.95497726858, -187500.02235174447, 0.11734680461883545, 0.9622582783699036, 0.17694089794158935, 192.0, 0.0, 0.0, 0.0, 0.0, 0.0, 0.0, 0.0, 0.0, 0.0, 1.741979496173671E9, 0.0, 2025-03-14 14:11:36.173
26.0, -15683.05679357729, 753.9466922219625, -187500.02235174447, -4623.3689336024445, 25536.800984954953, 15946.673267683182, -39647.79253575713, 11517.809214330819, -1208.9611540986484, 47099.0147708672, 14134.594992946983, 39549.31074968705, -14851.393085884225, 4484.430490068256, -49692.130052105196, -187500.02235174447, 0.11734680461883545, 0.9622582783699036, 0.17694089794158935, 192.0, 0.0, 0.0, 0.0, 0.0, 0.0, 0.0, 0.0, 0.0, 0.0, 1.741979496173806E9, 0.0, 2025-03-14 14:11:36.173
28.0, -15663.364906712164, 738.1663606365157, -187500.02235174447, -4671.581646392542, 25510.738850920065, 15928.72481688557, -39663.17053594238, 11506.767452569897, -1219.4664739926427, 46998.364865584954, 14033.028666142067, 39457.62389393138, -14872.001394272018, 4406.177032730226, -49727.69167753359, -187500.02235174447, 0.11734680461883545, 0.9622582783699036, 0.17694089794158935, 192.0, 0.0, 0.0, 0.0, 0.0, 0.0, 0.0, 0.0, 0.0, 0.0, 1.741979496173926E9, 0.0, 2025-03-14 14:11:36.173
30.0, -15656.614679886661, 731.0808576441834, -187500.02235174447, -4584.767470928129, 25563.44426434568, 15983.39718382325, -39667.50677436671, 11548.833435634784, -1210.1457965547797, 47115.353896064036, 14155.963260646256, 39570.47785168622, -14885.501847923024, 4416.436483435212, -49655.40613596513, -187500.02235174447, 0.11967340230941773, 0.9641291391849518, 0.17647044897079467, 192.0, 1.5, 104.0, 15.0, 24.0, 2.5, 64.0, 0.0, 0.0, 0.0, 1.741979496232799E9, 0.0, 2025-03-14 14:11:36.232
32.0, -15650.914985050558, 752.449125343457, -187500.02235174447, -4675.984940050237, 25506.871999129296, 15929.507127941506, -39657.73906203974, 11509.024978759882, -1256.4809628106311, 47017.54266232761, 14053.97225069669, 39480.80265293153, -14887.357042712814, 4405.148852485282, -49694.25346782845, -187500.02235174447, 0.11967340230941773, 0.9641291391849518, 0.17647044897079467, 192.0, 0.0, 0.0, 0.0, 0.0, 0.0, 0.0, 0.0, 0.0, 0.0, 1.741979496232953E9, 0.0, 2025-03-14 14:11:36.232
34.0, -15668.058773047778, 720.8661104281081, -187500.02235174447, -4570.551761454554, 25584.164331455748, 16000.518620076016, -39676.67098959339, 11571.408697534645, -1209.7658168990395, 47111.487044273264, 14149.771827432136, 39563.97349404973, -14865.005298257507, 4419.63278289232, -49644.43142943757, -187500.02235174447, 0.11967340230941773, 0.9641291391849518, 0.17647044897079467, 192.0, 0.0, 0.0, 0.0, 0.0, 0.0, 0.0, 0.0, 0.0, 0.0, 1.741979496233089E9, 0.0, 2025-03-14 14:11:36.233
36.0, -15640.1414442231, 737.3616978361247, -187500.02235174447, -4674.219152238268, 25509.598911952846, 15933.463386710095, -39663.39405338694, 11518.99385678695, -1228.9883171306035, 47036.09461022552, 14073.59708232845, 39495.4206938053, -14883.870170577786, 4375.666901548731, -49675.5227059749, -187500.02235174447, 0.11967340230941773, 0.9641291391849518, 0.17647044897079467, 192.0, 0.0, 0.0, 0.0, 0.0, 0.0, 0.0, 0.0, 0.0, 0.0, 1.741979496233216E9, 0.0, 2025-03-14 14:11:36.233
38.0, -15645.57291812574, 736.4005728245464, -187500.02235174447, -4561.0299183165935, 25583.24790993308, 16002.776146266002, -39665.42806213237, 11576.639005737186, -1187.9505143106599, 47103.19454708035, 14139.378266260419, 39555.50218290117, -14880.89738856523, 4395.783471558509, -49637.90472005662, -187500.02235174447, 0.11967340230941773, 0.9641291391849518, 0.17647044897079467, 192.0, 0.0, 0.0, 0.0, 0.0, 0.0, 0.0, 0.0, 0.0, 0.0, 1.74197949623334E9, 0.0, 2025-03-14 14:11:36.233
40.0, -15662.2473194894, 734.8135989682197, -187500.02235174447, -4684.992693065727, 25492.499827444535, 15917.973627802567, -39652.26288464819, 11510.14256598265, -1232.9222241547375, 47040.87788353895, 14071.317204394009, 39493.16316761532, -14890.24041774755, 4356.9361396951845, -49679.30015078785, -187500.02235174447, 0.12083670115470886, 0.9630645695924759, 0.17423522448539736, 192.0, 1.5, 104.0, 15.0, 8.0, 2.5, 48.0, 0.0, 0.0, 0.0, 1.741979496233468E9, 0.0, 2025-03-14 14:11:36.233
42.0, -15667.0976480362, 723.3024505737366, -187500.02235174447, -4591.741215198185, 25563.645430045777, 15971.260186584019, -39663.55051559812, 11555.203682804547, -1216.292526279989, 47065.88948558444, 14091.322015681508, 39507.40122883335, -14864.267690690482, 4371.353014868858, -49678.271970542904, -187500.02235174447, 0.12083670115470886, 0.9630645695924759, 0.17423522448539736, 192.0, 0.0, 0.0, 0.0, 0.0, 0.0, 0.0, 0.0, 0.0, 0.0, 1.741979496233598E9, 0.0, 2025-03-14 14:11:36.233
44.0, -15657.732267109426, 739.127485648094, -187500.02235174447, -4717.246260314734, 25469.298716699926, 15881.227359918043, -39654.43100386036, 11485.08626044825, -1226.7307909406175, 47045.88467429694, 14071.250149160642, 39492.00087690364, -14882.283196721459, 4338.339488308369, -49689.22432532601, -187500.02235174447, 0.12083670115470886, 0.9630645695924759, 0.17423522448539736, 192.0, 0.0, 0.0, 0.0, 0.0, 0.0, 0.0, 0.0, 0.0, 0.0, 1.741979496293182E9, 0.0, 2025-03-14 14:11:36.293
46.0, -15649.350362938687, 721.9166424175075, -187500.02235174447, -4587.606142473954, 25566.841729502885, 15974.68000348568, -39679.934344283865, 11565.552540487355, -1217.8571483918606, 47044.230645207244, 14067.226835158686, 39483.99895238864, -14864.804132557409, 4380.62898881781, -49691.50420326045, -187500.02235174447, 0.12083670115470886, 0.9630645695924759, 0.17423522448539736, 192.0, 0.0, 0.0, 0.0, 0.0, 0.0, 0.0, 0.0, 0.0, 0.0, 1.741979496293338E9, 0.0, 2025-03-14 14:11:36.293
48.0, -15633.145348208589, 721.4025522950354, -187500.02235174447, -4693.419300725377, 25477.36769644829, 15896.985339759034, -39650.67591079187, 11503.168821712592, -1218.9970873590812, 47074.293741499634, 14103.861344320936, 39522.689822040775, -14911.42987149118, 4332.148055094249, -49653.1709615196, -187500.02235174447, 0.12083670115470886, 0.9630645695924759, 0.17423522448539736, 192.0, 0.0, 0.0, 0.0, 0.0, 0.0, 0.0, 0.0, 0.0, 0.0, 1.741979496293471E9, 0.0, 2025-03-14 14:11:36.293
50.0, -15657.396990942598, 717.4462935264461, -187500.02235174447, -4586.980293629204, 25564.11481667934, 15981.743154733558, -39670.94894301283, 11571.05106962336, -1214.6384971902964, 47032.96536600177, 14045.791512226047, 39462.58598120046, -14891.04508054794, 4337.579528996888, -49691.9288864051, -187500.02235174447, 0.12141835057735442, 0.9625322847962379, 0.17111761224269867, 192.0, 1.5, 104.0, 15.0, 8.0, 2.5, 32.0, 0.0, 0.0, 0.0, 1.741979496293599E9, 0.0, 2025-03-14 14:11:36.293
52.0, -15691.975139614957, 723.771837207298, -187500.02235174447, -4687.45138495581, 25480.385181949758, 15906.775403830457, -39655.16861142738, 11507.482708392467, -1226.3731630293325, 47106.390846537455, 14129.31998125553, 39545.17567696282, -14914.335598270369, 4339.367668553313, -49628.360525174205, -187500.02235174447, 0.12141835057735442, 0.9625322847962379, 0.17111761224269867, 192.0, 0.0, 0.0, 0.0, 0.0, 0.0, 0.0, 0.0, 0.0, 0.0, 1.741979496293739E9, 0.0, 2025-03-14 14:11:36.293
54.0, -15674.026688817346, 714.1829388359713, -187500.02235174447, -4603.252363592668, 25550.01086592804, 15968.376811549284, -39676.20160295982, 11557.014174105427, -1252.5470557864971, 47020.67190655135, 14029.340628306942, 39445.41984145878, -14863.463027890091, 4322.00036311154, -49692.26416257193, -187500.02235174447, 0.12141835057735442, 0.9625322847962379, 0.17111761224269867, 192.0, 0.0, 0.0, 0.0, 0.0, 0.0, 0.0, 0.0, 0.0, 0.0, 1.741979496293865E9, 0.0, 2025-03-14 14:11:36.293
56.0, -15650.982040283925, 740.6921077599654, -187500.02235174447, -4682.802222109106, 25484.073219784885, 15906.104851496799, -39662.83525977555, 11505.068719991294, -1228.2507095635783, 47106.01086688171, 14127.017751576634, 39536.480848369705, -14887.982891557562, 4333.936194650673, -49634.2166822215, -187500.02235174447, 0.12141835057735442, 0.9625322847962379, 0.17111761224269867, 192.0, 0.0, 0.0, 0.0, 0.0, 0.0, 0.0, 0.0, 0.0, 0.0, 1.741979496293999E9, 0.0, 2025-03-14 14:11:36.293
58.0, -15673.020860316858, 745.1177531621163, -187500.02235174447, -4601.3524653139675, 25558.34806660987, 15977.049288397944, -39682.169518729395, 11567.00540387695, -1194.5666306694307, 47016.35801987148, 14022.165718336788, 39436.09916402092, -14886.03828978995, 4325.554290479933, -49688.46436601453, -187500.02235174447, 0.12141835057735442, 0.9625322847962379, 0.17111761224269867, 192.0, 0.0, 0.0, 0.0, 0.0, 0.0, 0.0, 0.0, 0.0, 0.0, 1.741979496294127E9, 0.0, 2025-03-14 14:11:36.294
60.0, -15663.566072412263, 735.2382821128705, -187500.02235174447, -4660.137553231425, 25497.75248739153, 15928.322485485374, -39658.90135275142, 11520.446720176546, -1253.6422912648072, 47140.879588232, 14161.350031059985, 39568.57795340753, -14898.175287029182, 4357.785505984486, -49598.05155969281, -187500.02235174447, 0.11770917528867722, 0.9622661423981189, 0.17055880612134933, 192.0, 1.5, 72.0, 15.0, 8.0, 2.5, 40.0, 0.0, 0.0, 0.0, 1.741979496352522E9, 0.0, 2025-03-14 14:11:36.352
62.0, -15647.696333848995, 730.0973808881499, -187500.02235174447, -4629.850939494484, 25529.80488894044, 15957.335049788362, -39673.96642851429, 11537.031714562383, -1227.8930816522934, 47009.51838606816, 14005.021930339568, 39421.5034748916, -14889.502810180524, 4350.811761714431, -49695.46046202904, -187500.02235174447, 0.11770917528867722, 0.9622661423981189, 0.17055880612134933, 192.0, 0.0, 0.0, 0.0, 0.0, 0.0, 0.0, 0.0, 0.0, 0.0, 1.741979496352773E9, 0.0, 2025-03-14 14:11:36.352
64.0, -15659.833331088226, 734.7912472237643, -187500.02235174447, -4640.758590788673, 25508.771897407998, 15945.82390139388, -39662.92466675337, 11522.503080666433, -1206.0777790639138, 47137.5268265637, 14151.492911755195, 39558.51966840264, -14895.537781183457, 4344.217997100115, -49609.11567319819, -187500.02235174447, 0.11770917528867722, 0.9622661423981189, 0.17055880612134933, 192.0, 0.0, 0.0, 0.0, 0.0, 0.0, 0.0, 0.0, 0.0, 0.0, 1.741979496352967E9, 0.0, 2025-03-14 14:11:36.352
66.0, -15671.679755649538, 729.7621047213203, -187500.02235174447, -4613.556517786565, 25538.164441366727, 15979.843256454857, -39674.52522212568, 11550.934499613584, -1233.8162939329497, 47011.46298783577, 14008.575857707961, 39427.963129039184, -14903.360891742814, 4336.104313862838, -49684.418700268114, -187500.02235174447, 0.11770917528867722, 0.9622661423981189, 0.17055880612134933, 192.0, 0.0, 0.0, 0.0, 0.0, 0.0, 0.0, 0.0, 0.0, 0.0, 1.741979496353171E9, 0.0, 2025-03-14 14:11:36.353
68.0, -15686.163686056578, 721.7825319507757, -187500.02235174447, -4607.6333055059085, 25531.414214541222, 15976.579901764382, -39662.90231500892, 11548.252290278948, -1242.8687504373493, 47153.016585471225, 14170.827170709035, 39579.99969482418, -14904.031444076472, 4348.330718079891, -49583.79114673033, -187500.02235174447, 0.11770917528867722, 0.9622661423981189, 0.17055880612134933, 192.0, 0.0, 0.0, 0.0, 0.0, 0.0, 0.0, 0.0, 0.0, 0.0, 1.741979496353353E9, 0.0, 2025-03-14 14:11:36.353
70.0, -15649.663287361062, 739.5074653038341, -187500.02235174447, -4643.597262334498, 25515.723289933598, 15957.692677699648, -39660.26480916319, 11530.147377270148, -1192.7561393685507, 47013.631107047935, 14011.369825764874, 39432.23231223015, -14924.125662341794, 4344.642680244766, -49668.48190647148, -187500.02235174447, 0.11485458764433862, 0.9651330711990594, 0.17227940306067469, 192.0, 1.5, 64.0, 15.0, 32.0, 2.5, 56.0, 0.0, 0.0, 0.0, 1.741979496353543E9, 0.0, 2025-03-14 14:11:36.353
72.0, -15679.636976675629, 728.1751308649934, -187500.02235174447, -4570.395299243367, 25558.4821770766, 16006.352425378851, -39674.01113200321, 11571.252235323458, -1262.515933813564, 47146.95926272384, 14156.767923446647, 39566.76746210664, -14890.486286936557, 4335.947851651651, -49586.11572815368, -187500.02235174447, 0.11485458764433862, 0.9651330711990594, 0.17227940306067469, 192.0, 0.0, 0.0, 0.0, 0.0, 0.0, 0.0, 0.0, 0.0, 0.0, 1.741979496353755E9, 0.0, 2025-03-14 14:11:36.353
74.0, -15657.307583964775, 732.3996105670465, -187500.02235174447, -4638.769285532151, 25514.851571899842, 15962.051267868434, -39653.80515501561, 11533.99187731646, -1214.4149797457433, 47026.282194409636, 14024.378541037864, 39444.23519900265, -14904.120851054295, 4313.752569407531, -49646.35367946073, -187500.02235174447, 0.11485458764433862, 0.9651330711990594, 0.17227940306067469, 192.0, 0.0, 0.0, 0.0, 0.0, 0.0, 0.0, 0.0, 0.0, 0.0, 1.741979496412319E9, 0.0, 2025-03-14 14:11:36.412
76.0, -15686.29779652331, 718.608584238122, -187500.02235174447, -4564.539142196077, 25561.700828278164, 16007.425309112707, -39670.65837033491, 11571.431049279101, -1228.6306892193186, 47151.58607382609, 14164.211054350264, 39572.02012205364, -14895.582484672366, 4351.370555325813, -49569.91071342358, -187500.02235174447, 0.11485458764433862, 0.9651330711990594, 0.17227940306067469, 192.0, 0.0, 0.0, 0.0, 0.0, 0.0, 0.0, 0.0, 0.0, 0.0, 1.74197949641255E9, 0.0, 2025-03-14 14:11:36.412
78.0, -15674.205502772988, 742.7931717387643, -187500.02235174447, -4658.103544485992, 25497.126638546782, 15947.097950827832, -39655.97327422778, 11520.42436843209, -1243.3381370709108, 47016.2462611492, 14020.019950869078, 39437.66378613279, -14906.132508055272, 4292.004322052518, -49648.58885390626, -187500.02235174447, 0.11485458764433862, 0.9651330711990594, 0.17227940306067469, 192.0, 0.0, 0.0, 0.0, 0.0, 0.0, 0.0, 0.0, 0.0, 0.0, 1.741979496412761E9, 0.0, 2025-03-14 14:11:36.412
80.0, -15663.76723811236, 718.9885638938623, -187500.02235174447, -4574.508020223144, 25554.43651133019, 16002.01618695452, -39661.87413476397, 11564.81493292033, -1204.490805207587, 47130.24015787127, 14137.858347637457, 39542.627578094914, -14931.412331034224, 4349.850636702852, -49583.00883567439, -187500.02235174447, 0.11042729382216931, 0.9665665355995297, 0.17213970153033736, 192.0, 1.5, 40.0, 15.0, 32.0, 2.5, 48.0, 0.0, 0.0, 0.0, 1.74197949641295E9, 0.0, 2025-03-14 14:11:36.412
82.0, -15640.208499456467, 723.8835959295745, -187500.02235174447, -4675.4932016722205, 25487.068353541894, 15938.850157123825, -39665.07043422108, 11512.37774042818, -1261.48775356862, 47030.73019155624, 14030.614677740894, 39444.056385047006, -14905.99839758854, 4306.75647339302, -49641.25748172492, -187500.02235174447, 0.11042729382216931, 0.9665665355995297, 0.17213970153033736, 192.0, 0.0, 0.0, 0.0, 0.0, 0.0, 0.0, 0.0, 0.0, 0.0, 1.741979496413148E9, 0.0, 2025-03-14 14:11:36.413
84.0, -15635.782854054316, 747.0400031852727, -187500.02235174447, -4576.720842924219, 25556.62698228681, 16003.133774177288, -39674.21229770331, 11563.295014297368, -1213.0291715895144, 47112.537576262665, 14117.451204949763, 39519.67233653931, -14901.840973119854, 4314.512528719011, -49595.59286780273, -187500.02235174447, 0.11042729382216931, 0.9665665355995297, 0.17213970153033736, 192.0, 0.0, 0.0, 0.0, 0.0, 0.0, 0.0, 0.0, 0.0, 0.0, 1.74197949641334E9, 0.0, 2025-03-14 14:11:36.413
86.0, -15656.972307797947, 740.7591629933314, -187500.02235174447, -4696.615600182486, 25467.242356210038, 15920.320560970375, -39659.48249810726, 11497.156202454114, -1188.3751974553106, 47042.24133995073, 14050.239509372654, 39459.926123610276, -14936.039142136473, 4327.074209102894, -49622.370257660186, -187500.02235174447, 0.11042729382216931, 0.9665665355995297, 0.17213970153033736, 192.0, 0.0, 0.0, 0.0, 0.0, 0.0, 0.0, 0.0, 0.0, 0.0, 1.741979496413522E9, 0.0, 2025-03-14 14:11:36.413
88.0, -15647.070485004246, 719.7932266942533, -187500.02235174447, -4601.5312792696095, 25530.98953139657, 15973.0706778849, -39663.84108827604, 11535.534147683877, -1238.91249166876, 47075.94777058933, 14073.015936972612, 39474.54416448405, -14888.161705513205, 4314.3784182522795, -49629.45576065252, -187500.02235174447, 0.11042729382216931, 0.9665665355995297, 0.17213970153033736, 192.0, 0.0, 0.0, 0.0, 0.0, 0.0, 0.0, 0.0, 0.0, 0.0, 1.741979496413725E9, 0.0, 2025-03-14 14:11:36.413
90.0, -15601.115298404135, 749.8116194977307, -187500.02235174447, -4706.159795064902, 25459.46394913959, 15907.870639308769, -39657.38143412846, 11486.673234304577, -1207.2177180311344, 47044.83414230754, 14046.998506426635, 39453.89115260734, -14913.75445291453, 4286.125813260772, -49634.306089199315, -187500.02235174447, 0.10521364691108466, 0.9642832677997648, 0.17106985076516867, 192.0, 1.5, 16.0, 15.0, 8.0, 2.5, 40.0, 0.0, 0.0, 0.0, 1.741979496472643E9, 0.0, 2025-03-14 14:11:36.472
92.0, -15653.843063574204, 734.7912472237643, -187500.02235174447, -4595.228087333213, 25544.3782263253, 15981.743154733558, -39671.954771513316, 11545.547729199854, -1193.42669170221, 47064.81660185059, 14070.490189849163, 39468.308027781015, -14927.47842401009, 4316.993572353551, -49622.92905127157, -187500.02235174447, 0.10521364691108466, 0.9642832677997648, 0.17106985076516867, 192.0, 0.0, 0.0, 0.0, 0.0, 0.0, 0.0, 0.0, 0.0, 0.0, 1.741979496472885E9, 0.0, 2025-03-14 14:11:36.472
94.0, -15662.2473194894, 720.2402615833595, -187500.02235174447, -4711.211289311801, 25458.748693317022, 15905.970741030067, -39656.86734400599, 11481.644091802133, -1230.3741252868326, 47060.36860470398, 14075.83225677398, 39475.70645519572, -14911.966313358107, 4277.922723045674, -49614.83771977875, -187500.02235174447, 0.10521364691108466, 0.9642832677997648, 0.17106985076516867, 192.0, 0.0, 0.0, 0.0, 0.0, 0.0, 0.0, 0.0, 0.0, 0.0, 1.741979496473095E9, 0.0, 2025-03-14 14:11:36.473
96.0, -15628.339723150699, 701.2636305408038, -187500.02235174447, -4581.14648832637, 25561.4326073447, 16007.26884690152, -39674.52522212568, 11567.027755621404, -1217.454816991665, 47046.77874407515, 14057.325012364987, 39453.622931673875, -14909.75349065703, 4308.18698503816, -49626.95236527352, -187500.02235174447, 0.10521364691108466, 0.9642832677997648, 0.17106985076516867, 192.0, 0.0, 0.0, 0.0, 0.0, 0.0, 0.0, 0.0, 0.0, 0.0, 1.741979496473296E9, 0.0, 2025-03-14 14:11:36.473
98.0, -15616.739167778394, 740.7815147377867, -187500.02235174447, -4700.862431628994, 25459.821577050876, 15915.58199114585, -39645.33384386705, 11491.769432040386, -1213.7667791565393, 47078.160593290406, 14112.1314897694, 39509.23407187868, -14947.662049253233, 4257.180304191149, -49581.08658565123, -187500.02235174447, 0.10521364691108466, 0.9642832677997648, 0.17106985076516867, 192.0, 0.0, 0.0, 0.0, 0.0, 0.0, 0.0, 0.0, 0.0, 0.0, 1.74197949647349E9, 0.0, 2025-03-14 14:11:36.473
100.0, -15602.836382727193, 752.4938288323676, -187500.02235174447, -4651.420372893855, 25509.4200979972, 15937.307886756407, -39647.59137005703, 11501.60419960072, -1220.9863926156036, 47008.06552267856, 14021.897497403324, 39419.514169635084, -14902.019787075495, 4287.310455716903, -49653.05920279732, -187500.02235174447, 0.10560682345554233, 0.9641416338998824, 0.16953492538258436, 192.0, 1.5, 40.0, 15.0, 16.0, 2.5, 32.0, 0.0, 0.0, 0.0, 1.741979496473702E9, 0.0, 2025-03-14 14:11:36.473
102.0, -15615.37571136662, 725.0458866412505, -187500.02235174447, -4709.5349084776535, 25454.36775140378, 15898.43820314863, -39647.94899796832, 11470.64703353012, -1171.0749472469029, 47071.365662975986, 14094.585370371982, 39487.955211157234, -14910.245229035048, 4283.622417881777, -49620.604469848215, -187500.02235174447, 0.10560682345554233, 0.9641416338998824, 0.16953492538258436, 192.0, 0.0, 0.0, 0.0, 0.0, 0.0, 0.0, 0.0, 0.0, 0.0, 1.741979496473903E9, 0.0, 2025-03-14 14:11:36.473
104.0, -15617.454423600964, 755.6901282894764, -187500.02235174447, -4653.812009550573, 25502.580464193878, 15935.318581499885, -39650.69826253632, 11496.08331872026, -1209.944630854682, 47005.852699977484, 14016.823651411969, 39415.379096910845, -14884.630129889267, 4280.649635869221, -49664.078612813784, -187500.02235174447, 0.10560682345554233, 0.9641416338998824, 0.16953492538258436, 192.0, 0.0, 0.0, 0.0, 0.0, 0.0, 0.0, 0.0, 0.0, 0.0, 1.741979496532846E9, 0.0, 2025-03-14 14:11:36.532
106.0, -15595.125030890113, 719.1673778495048, -187500.02235174447, -4704.148138063924, 25452.71372231409, 15898.9522932711, -39638.02482343016, 11469.328280607258, -1223.3333257834108, 47091.906916130414, 14115.484251437694, 39506.7753799886, -14904.254961521026, 4284.874115571274, -49619.19630994753, -187500.02235174447, 0.10560682345554233, 0.9641416338998824, 0.16953492538258436, 192.0, 0.0, 0.0, 0.0, 0.0, 0.0, 0.0, 0.0, 0.0, 0.0, 1.741979496533082E9, 0.0, 2025-03-14 14:11:36.533
108.0, -15583.23390283989, 747.8446659856637, -187500.02235174447, -4647.128837958436, 25503.251016527538, 15944.259279282009, -39653.04519570413, 11504.576981613278, -1188.6434183887743, 47000.10830165247, 14007.145346062822, 39407.13130320684, -14920.459976251124, 4268.155010718705, -49674.986264107974, -187500.02235174447, 0.10560682345554233, 0.9641416338998824, 0.16953492538258436, 192.0, 0.0, 0.0, 0.0, 0.0, 0.0, 0.0, 0.0, 0.0, 0.0, 1.741979496533268E9, 0.0, 2025-03-14 14:11:36.533
110.0, -15594.32036808972, 771.0681284747277, -187500.02235174447, -4668.452402168799, 25477.881786570764, 15928.389540718741, -39658.85664926251, 11494.563400097299, -1184.8212700869167, 47125.30042234665, 14151.17998733282, 39547.07557524152, -14944.62221200731, 4328.5717759814, -49586.27219036486, -187500.02235174447, 0.10480341172777116, 0.9640708169499412, 0.16876746269129217, 192.0, 1.5, 32.0, 15.0, 16.0, 2.5, 32.0, 0.0, 0.0, 0.0, 1.741979496533472E9, 0.0, 2025-03-14 14:11:36.533
112.0, -15593.001615166857, 729.3597733211247, -187500.02235174447, -4662.976224777249, 25497.551321691433, 15935.765616388991, -39656.80028877262, 11498.921990266084, -1213.297392522978, 46992.28519109311, 14000.372767492863, 39407.488931118125, -14907.42890923368, 4233.375696346247, -49676.059147841836, -187500.02235174447, 0.10480341172777116, 0.9640708169499412, 0.16876746269129217, 192.0, 0.0, 0.0, 0.0, 0.0, 0.0, 0.0, 0.0, 0.0, 0.0, 1.74197949653367E9, 0.0, 2025-03-14 14:11:36.533
114.0, -15578.60709173764, 730.834988455175, -187500.02235174447, -4678.421280195866, 25471.153911489717, 15913.570334144872, -39642.62928278796, 11476.547894066322, -1220.6064129598633, 47129.36843983751, 14158.489007769705, 39552.66351135534, -14912.14512731375, 4264.735193817043, -49588.037978176835, -187500.02235174447, 0.10480341172777116, 0.9640708169499412, 0.16876746269129217, 192.0, 0.0, 0.0, 0.0, 0.0, 0.0, 0.0, 0.0, 0.0, 0.0, 1.741979496533863E9, 0.0, 2025-03-14 14:11:36.533
116.0, -15585.759649963338, 742.9272822054961, -187500.02235174447, -4685.752652377207, 25478.015897037494, 15917.43718593564, -39656.53206783916, 11477.84429524473, -1201.652133661763, 46977.421281030336, 13996.260046513087, 39398.61528856937, -14926.830223420886, 4229.799417233398, -49685.916267146626, -187500.02235174447, 0.10480341172777116, 0.9640708169499412, 0.16876746269129217, 192.0, 0.0, 0.0, 0.0, 0.0, 0.0, 0.0, 0.0, 0.0, 0.0, 1.741979496534065E9, 0.0, 2025-03-14 14:11:36.534
118.0, -15590.140591876578, 720.6872964724656, -187500.02235174447, -4675.113222016481, 25469.455178911114, 15915.827860334857, -39653.04519570413, 11474.044498687328, -1223.2439188055896, 47106.9719918933, 14145.368533774441, 39534.7821157911, -14913.776804658986, 4255.772144290465, -49606.567574330285, -187500.02235174447, 0.10480341172777116, 0.9640708169499412, 0.16876746269129217, 192.0, 0.0, 0.0, 0.0, 0.0, 0.0, 0.0, 0.0, 0.0, 0.0, 1.74197949653426E9, 0.0, 2025-03-14 14:11:36.534
120.0, -15615.442766599986, 720.0837993721723, -187500.02235174447, -4685.327969232556, 25475.356039447313, 15927.517822684984, -39669.7643005567, 11486.159144182104, -1219.8911571372935, 46979.74586245369, 14001.356244248896, 39401.476311859646, -14917.107214582828, 4214.108492625773, -49682.51880198942, -187500.02235174447, 0.10640170586388559, 0.9650354084749706, 0.1663837313456461, 192.0, 1.5, 48.0, 15.0, 24.0, 2.5, 16.0, 0.0, 0.0, 0.0, 1.74197949659454E9, 0.0, 2025-03-14 14:11:36.594
122.0, -15608.647836285572, 722.5648430067114, -187500.02235174447, -4618.183328888814, 25509.464801486112, 15973.607119751827, -39661.58356208605, 11523.441853933557, -1152.433592371177, 47133.57056779511, 14180.840752225013, 39567.32625571803, -14944.5775085184, 4240.394144105214, -49568.1002221227, -187500.02235174447, 0.10640170586388559, 0.9650354084749706, 0.1663837313456461, 192.0, 0.0, 0.0, 0.0, 0.0, 0.0, 0.0, 0.0, 0.0, 0.0, 1.741979496594802E9, 0.0, 2025-03-14 14:11:36.594
124.0, -15581.959853405937, 743.5531310502447, -187500.02235174447, -4696.727358904763, 25467.734094588053, 15927.607229662804, -39654.609817816, 11482.672272047075, -1252.904683697782, 46993.17926087132, 14034.816805698492, 39427.58314938345, -14941.135339872282, 4194.327198782826, -49651.11460102971, -187500.02235174447, 0.10640170586388559, 0.9650354084749706, 0.1663837313456461, 192.0, 0.0, 0.0, 0.0, 0.0, 0.0, 0.0, 0.0, 0.0, 0.0, 1.741979496594995E9, 0.0, 2025-03-14 14:11:36.594
126.0, -15624.316409148743, 711.5901364791556, -187500.02235174447, -4603.922915926328, 25527.122679605804, 15990.661500771226, -39663.55051559812, 11536.942307584563, -1227.647212463285, 47114.012791396715, 14168.681403241326, 39547.45555489726, -14921.175232073694, 4227.921870699152, -49582.56180078528, -187500.02235174447, 0.10640170586388559, 0.9650354084749706, 0.1663837313456461, 192.0, 0.0, 0.0, 0.0, 0.0, 0.0, 0.0, 0.0, 0.0, 0.0, 1.741979496595192E9, 0.0, 2025-03-14 14:11:36.595
128.0, -15606.792641495782, 733.5171977898119, -187500.02235174447, -4682.757518620196, 25475.065466769396, 15941.889994369745, -39652.64286430393, 11500.88894377815, -1231.2458433205895, 47021.16364492937, 14065.751620024637, 39455.76869914159, -14938.788406704476, 4205.234850077016, -49622.39260940464, -187500.02235174447, 0.10640170586388559, 0.9650354084749706, 0.1663837313456461, 192.0, 0.0, 0.0, 0.0, 0.0, 0.0, 0.0, 0.0, 0.0, 0.0, 1.741979496595387E9, 0.0, 2025-03-14 14:11:36.595
130.0, -15576.818952181215, 749.9457299644625, -187500.02235174447, -4615.344657342989, 25521.37828128079, 15976.155218619731, -39646.94316946783, 11528.001609802439, -1184.195421242168, 47113.92338441889, 14163.384039805418, 39542.202894950264, -14915.587295959867, 4210.509861768468, -49579.85723970619, -187500.02235174447, 0.10720085293194279, 0.9655177042374853, 0.16719186567282307, 192.0, 1.5, 48.0, 15.0, 24.0, 2.5, 32.0, 0.0, 0.0, 0.0, 1.741979496595572E9, 0.0, 2025-03-14 14:11:36.595
132.0, -15582.540998761773, 770.7328523078982, -187500.02235174447, -4703.5446409636315, 25453.31721941438, 15918.9571045586, -39641.28817812064, 11485.399184870623, -1190.588020156386, 47015.10632218198, 14060.186035655266, 39447.90088509332, -14919.029464605985, 4204.296076809893, -49645.52666491588, -187500.02235174447, 0.10720085293194279, 0.9655177042374853, 0.16719186567282307, 192.0, 0.0, 0.0, 0.0, 0.0, 0.0, 0.0, 0.0, 0.0, 0.0, 1.741979496595784E9, 0.0, 2025-03-14 14:11:36.595
134.0, -15573.376783535097, 751.0186136983173, -187500.02235174447, -4574.195095800769, 25542.701845491156, 16006.531239334494, -39667.417367388894, 11560.054011351349, -1204.1778807852127, 47098.23245981127, 14149.525958243128, 39530.06589771103, -14933.71456071312, 4253.469914611568, -49597.98450445945, -187500.02235174447, 0.10720085293194279, 0.9655177042374853, 0.16719186567282307, 192.0, 0.0, 0.0, 0.0, 0.0, 0.0, 0.0, 0.0, 0.0, 0.0, 1.741979496653514E9, 0.0, 2025-03-14 14:11:36.653
136.0, -15577.355394048143, 744.6930700174654, -187500.02235174447, -4691.675864657863, 25453.31721941438, 15930.53530818645, -39645.5573613116, 11497.200905943026, -1228.00484037457, 47041.41432540588, 14106.543553655572, 39499.15343512934, -14950.880700454796, 4183.464250977547, -49600.465548093984, -187500.02235174447, 0.10720085293194279, 0.9655177042374853, 0.16719186567282307, 192.0, 0.0, 0.0, 0.0, 0.0, 0.0, 0.0, 0.0, 0.0, 0.0, 1.741979496653753E9, 0.0, 2025-03-14 14:11:36.653
138.0, -15589.335929076187, 745.5424363067671, -187500.02235174447, -4611.142529385392, 25517.04204285646, 15978.949186676646, -39646.4067276009, 11533.298973238347, -1168.4374414011768, 47063.967235561286, 14118.41232996134, 39501.56742353051, -14916.95075237164, 4195.914172639153, -49617.98931574694, -187500.02235174447, 0.10720085293194279, 0.9655177042374853, 0.16719186567282307, 192.0, 0.0, 0.0, 0.0, 0.0, 0.0, 0.0, 0.0, 0.0, 0.0, 1.741979496653964E9, 0.0, 2025-03-14 14:11:36.653
140.0, -15628.965571995446, 745.2071601399375, -187500.02235174447, -4694.469832714776, 25453.808957792397, 15933.217517521087, -39648.66425379089, 11504.979313013473, -1238.0184218905476, 47042.75543007319, 14095.50179189465, 39485.34005705596, -14928.126624599294, 4214.734341470521, -49629.67927809707, -187500.02235174447, 0.1076004264659714, 0.9657588521187426, 0.17059593283641156, 192.0, 1.5, 48.0, 15.0, 24.0, 2.5, 56.0, 0.0, 0.0, 0.0, 1.741979496654165E9, 0.0, 2025-03-14 14:11:36.654
142.0, -15605.809164739749, 743.7319450058872, -187500.02235174447, -4572.80928764454, 25550.256735117047, 16020.344617407873, -39673.40763490291, 11579.00829064945, -1222.8192356609388, 47072.37149147648, 14128.381207988406, 39513.23503413618, -14935.793272947465, 4229.5982515333, -49601.1584521721, -187500.02235174447, 0.1076004264659714, 0.9657588521187426, 0.17059593283641156, 192.0, 0.0, 0.0, 0.0, 0.0, 0.0, 0.0, 0.0, 0.0, 0.0, 1.741979496654368E9, 0.0, 2025-03-14 14:11:36.654
144.0, -15586.2290365969, 760.7416225363759, -187500.02235174447, -4689.418338467877, 25452.13257695825, 15935.609154177804, -39649.64773054692, 11509.874345049186, -1235.1797503447235, 47078.07118631258, 14145.457940752261, 39530.84820876696, -14941.604726505844, 4199.333989540814, -49582.58415252974, -187500.02235174447, 0.1076004264659714, 0.9657588521187426, 0.17059593283641156, 192.0, 0.0, 0.0, 0.0, 0.0, 0.0, 0.0, 0.0, 0.0, 0.0, 1.741979496654578E9, 0.0, 2025-03-14 14:11:36.654
146.0, -15582.69746097296, 747.2411688853704, -187500.02235174447, -4593.015264632138, 25529.022577884505, 16007.849992257357, -39664.064605720596, 11567.094810854771, -1187.1905549991793, 47035.44640963631, 14085.197637700754, 39468.37508301438, -14919.588258217367, 4208.788777445409, -49634.730772343966, -187500.02235174447, 0.1076004264659714, 0.9657588521187426, 0.17059593283641156, 192.0, 0.0, 0.0, 0.0, 0.0, 0.0, 0.0, 0.0, 0.0, 0.0, 1.741979496654832E9, 0.0, 2025-03-14 14:11:36.654
148.0, -15603.730452505406, 749.7892677532755, -187500.02235174447, -4679.516515674176, 25452.71372231409, 15947.813206650402, -39653.000492215215, 11519.70911260952, -1218.393590258788, 47077.02065432318, 14147.380190775419, 39525.66260405333, -14947.885566697785, 4209.21346059006, -49592.1059956677, -187500.02235174447, 0.1076004264659714, 0.9657588521187426, 0.17059593283641156, 192.0, 0.0, 0.0, 0.0, 0.0, 0.0, 0.0, 0.0, 0.0, 0.0, 1.741979496654997E9, 0.0, 2025-03-14 14:11:36.654
150.0, -15590.922902932514, 730.2761948437924, -187500.02235174447, -4601.106596124959, 25518.29374054596, 16003.44669859966, -39659.03546321815, 11564.323194542312, -1225.0320583620141, 47027.73505779923, 14085.68937607877, 39465.04467309054, -14922.516336741011, 4232.9063097126855, -49624.5607286168, -187500.02235174447, 0.1058002132329857, 0.9658794260593713, 0.17329796641820577, 192.0, 1.5, 32.0, 15.0, 24.0, 2.5, 64.0, 0.0, 0.0, 0.0, 1.741979496713706E9, 0.0, 2025-03-14 14:11:36.713
152.0, -15578.025946381802, 741.2509013713482, -187500.02235174447, -4688.390158222933, 25444.622390821267, 15944.125168815277, -39659.84012601854, 11517.250420719436, -1197.6735231487182, 47078.58527643506, 14153.99630713419, 39526.02023196462, -14940.48713928308, 4208.83348093432, -49598.11861492618, -187500.02235174447, 0.1058002132329857, 0.9658794260593713, 0.17329796641820577, 192.0, 0.0, 0.0, 0.0, 0.0, 0.0, 0.0, 0.0, 0.0, 0.0, 1.741979496713878E9, 0.0, 2025-03-14 14:11:36.713
154.0, -15598.94717919197, 761.4345266144904, -187500.02235174447, -4642.077343711537, 25491.13637103276, 15982.771334978503, -39653.26871314868, 11544.698362910553, -1232.3857822878101, 46994.65447600537, 14053.458160574219, 39432.63464363034, -14921.063473351416, 4187.286399279404, -49658.89300810016, -187500.02235174447, 0.1058002132329857, 0.9658794260593713, 0.17329796641820577, 192.0, 0.0, 0.0, 0.0, 0.0, 0.0, 0.0, 0.0, 0.0, 0.0, 1.741979496714018E9, 0.0, 2025-03-14 14:11:36.714
156.0, -15604.378653094609, 736.512331546823, -187500.02235174447, -4683.003387809204, 25452.445501380626, 15963.481779513573, -39655.61564631649, 11531.019095303905, -1246.4003260612878, 47098.61243946701, 14174.381098077429, 39543.387537406394, -14943.57168001791, 4196.87529765073, -49592.642437534625, -187500.02235174447, 0.1058002132329857, 0.9658794260593713, 0.17329796641820577, 192.0, 0.0, 0.0, 0.0, 0.0, 0.0, 0.0, 0.0, 0.0, 0.0, 1.741979496714143E9, 0.0, 2025-03-14 14:11:36.714
158.0, -15590.364109321132, 774.4879453763897, -187500.02235174447, -4630.208567405769, 25498.735964147567, 16009.459317858138, -39673.80996630311, 11568.10063935526, -1195.6618661477407, 46986.80901370156, 14057.459122831719, 39430.622986629365, -14951.752418488553, 4227.676001510144, -49655.16026677612, -187500.02235174447, 0.1058002132329857, 0.9658794260593713, 0.17329796641820577, 192.0, 0.0, 0.0, 0.0, 0.0, 0.0, 0.0, 0.0, 0.0, 0.0, 1.741979496714269E9, 0.0, 2025-03-14 14:11:36.714
160.0, -15587.480734286397, 727.8845581870745, -187500.02235174447, -4667.200704479302, 25455.306524670905, 15976.535198275471, -39659.6613120629, 11539.915089597118, -1222.6851251942069, 47107.10610236003, 14202.186668179831, 39563.86173532745, -14957.742686002575, 4191.309713281359, -49570.625969246146, -187500.02235174447, 0.10490010661649285, 0.9669397130296856, 0.17564898320910288, 192.0, 1.5, 32.0, 15.0, 32.0, 2.5, 72.0, 0.0, 0.0, 0.0, 1.741979496714401E9, 0.0, 2025-03-14 14:11:36.714
162.0, -15565.576024720196, 750.2586543868368, -187500.02235174447, -4642.077343711537, 25485.302565729926, 16006.531239334494, -39661.829431275066, 11568.972357389017, -1221.5675379714417, 46980.617580487444, 14059.291965877053, 39431.98644304114, -14930.294743811459, 4173.651835161667, -49652.768630119404, -187500.02235174447, 0.10490010661649285, 0.9669397130296856, 0.17564898320910288, 192.0, 0.0, 0.0, 0.0, 0.0, 0.0, 0.0, 0.0, 0.0, 0.0, 1.741979496714535E9, 0.0, 2025-03-14 14:11:36.714
164.0, -15602.076423415712, 743.3966688390576, -187500.02235174447, -4682.01991105317, 25444.153004187705, 15965.336974303364, -39644.12684966646, 11529.700342381042, -1245.1486283717904, 47096.89135514395, 14192.530714575138, 39553.177601477815, -14934.228650835592, 4177.026948574418, -49584.81932697527, -187500.02235174447, 0.10490010661649285, 0.9669397130296856, 0.17564898320910288, 192.0, 0.0, 0.0, 0.0, 0.0, 0.0, 0.0, 0.0, 0.0, 0.0, 1.741979496773029E9, 0.0, 2025-03-14 14:11:36.773
166.0, -15594.298016345265, 755.0866311891832, -187500.02235174447, -4691.899382102416, 25454.50186187051, 15974.121209874298, -39652.48640209275, 11537.881080851685, -1230.7094014536622, 46963.831420401504, 14042.416398813297, 39412.33925966493, -14926.271429809503, 4154.764611096932, -49667.520781459905, -187500.02235174447, 0.10490010661649285, 0.9669397130296856, 0.17564898320910288, 192.0, 0.0, 0.0, 0.0, 0.0, 0.0, 0.0, 0.0, 0.0, 0.0, 1.741979496773199E9, 0.0, 2025-03-14 14:11:36.773
168.0, -15592.599283766662, 748.157590408038, -187500.02235174447, -4666.2172277232685, 25457.631106094257, 15981.519637289006, -39648.7089572798, 11545.793598388864, -1160.815496541917, 47093.42683475338, 14195.928179732346, 39549.333101431504, -14963.621194794321, 4185.095928322784, -49587.00979793189, -187500.02235174447, 0.10490010661649285, 0.9669397130296856, 0.17564898320910288, 192.0, 0.0, 0.0, 0.0, 0.0, 0.0, 0.0, 0.0, 0.0, 0.0, 1.741979496773332E9, 0.0, 2025-03-14 14:11:36.773
170.0, -15587.346623819665, 752.6279392990995, -187500.02235174447, -4712.664152701396, 25437.156908173194, 15962.274785312986, -39645.31149212259, 11530.5720604148, -1264.907570470282, 46950.710946406245, 14039.309506334008, 39404.02441072755, -14931.05470312294, 4143.544035380368, -49679.7248339325, -187500.02235174447, 0.10545005330824642, 0.9674698565148427, 0.17882449160455144, 192.0, 1.5, 40.0, 15.0, 32.0, 2.5, 88.0, 0.0, 0.0, 0.0, 1.74197949677345E9, 0.0, 2025-03-14 14:11:36.773
172.0, -15566.760667176328, 764.4967156048675, -187500.02235174447, -4656.918902029861, 25467.04119050994, 15996.741175263069, -39652.62051255948, 11558.66820319512, -1234.2856805665112, 47086.5648492056, 14188.9991389512, 39542.73933681719, -14939.77188346051, 4156.955082053552, -49598.208021904, -187500.02235174447, 0.10545005330824642, 0.9674698565148427, 0.17882449160455144, 192.0, 0.0, 0.0, 0.0, 0.0, 0.0, 0.0, 0.0, 0.0, 0.0, 1.741979496773581E9, 0.0, 2025-03-14 14:11:36.773
174.0, -15600.154173392557, 749.7445642643648, -187500.02235174447, -4720.286097560656, 25428.372672602258, 15963.325317302386, -39653.000492215215, 11534.148339527648, -1222.9533461276706, 46970.51459199365, 14058.844930987947, 39425.459733660195, -14942.185871861682, 4129.1271602066945, -49664.3244820028, -187500.02235174447, 0.10545005330824642, 0.9674698565148427, 0.17882449160455144, 192.0, 0.0, 0.0, 0.0, 0.0, 0.0, 0.0, 0.0, 0.0, 0.0, 1.741979496773713E9, 0.0, 2025-03-14 14:11:36.773
176.0, -15587.212513352933, 765.5025441053563, -187500.02235174447, -4648.648756581397, 25470.79628357843, 16003.558457321938, -39652.19582941483, 11567.631252721698, -1206.9942005865814, 47084.10615731552, 14181.600711536494, 39535.76559254713, -14955.440456323679, 4167.035718802896, -49603.23716440644, -187500.02235174447, 0.10545005330824642, 0.9674698565148427, 0.17882449160455144, 192.0, 0.0, 0.0, 0.0, 0.0, 0.0, 0.0, 0.0, 0.0, 0.0, 1.741979496773844E9, 0.0, 2025-03-14 14:11:36.773
178.0, -15598.790716980782, 758.1264684351049, -187500.02235174447, -4716.709818447807, 25433.334759871337, 15973.025974395989, -39661.94118999734, 11545.99476408896, -1207.0612558199473, 46989.87120269194, 14081.241378932165, 39446.71624263719, -14960.827226737409, 4118.040694956862, -49649.30410972883, -187500.02235174447, 0.10545005330824642, 0.9674698565148427, 0.17882449160455144, 192.0, 0.0, 0.0, 0.0, 0.0, 0.0, 0.0, 0.0, 0.0, 0.0, 1.74197949677397E9, 0.0, 2025-03-14 14:11:36.773
180.0, -15577.064821370224, 771.4704598749232, -187500.02235174447, -4641.2726809111455, 25475.89248131424, 16014.577867338405, -39657.44848936182, 11571.989842890483, -1218.7288664256175, 47087.32480851708, 14186.451040083295, 39543.16401996184, -14948.779636475998, 4166.700442636066, -49593.31298986828, -187500.02235174447, 0.10272502665412321, 0.9657349282574214, 0.17741224580227571, 192.0, 1.5, 16.0, 15.0, 16.0, 2.5, 64.0, 0.0, 0.0, 0.0, 1.74197949683426E9, 0.0, 2025-03-14 14:11:36.834
182.0, -15555.853015882138, 761.4568783589457, -187500.02235174447, -4730.679658732374, 25414.536942784423, 15963.437076024662, -39659.54955334062, 11538.417522718612, -1230.3070700534668, 46997.739016740205, 14090.472649392206, 39454.65111191882, -14943.079941639895, 4091.28565684386, -49651.40517370763, -187500.02235174447, 0.10272502665412321, 0.9657349282574214, 0.17741224580227571, 192.0, 0.0, 0.0, 0.0, 0.0, 0.0, 0.0, 0.0, 0.0, 0.0, 1.741979496834438E9, 0.0, 2025-03-14 14:11:36.834
184.0, -15612.201763653966, 759.9593114804401, -187500.02235174447, -4637.785808776118, 25479.155836004717, 16015.963675494633, -39658.76724228469, 11581.712851728542, -1215.264346035045, 47058.13343025845, 14145.41323726335, 39505.5236822991, -14940.5765462609, 4135.095075976262, -49629.38870541915, -187500.02235174447, 0.10272502665412321, 0.9657349282574214, 0.17741224580227571, 192.0, 0.0, 0.0, 0.0, 0.0, 0.0, 0.0, 0.0, 0.0, 0.0, 1.741979496834573E9, 0.0, 2025-03-14 14:11:36.834
186.0, -15584.329138318199, 760.9651399809289, -187500.02235174447, -4724.59998424053, 25414.291073595414, 15970.67904122818, -39662.030596975164, 11551.403886247146, -1182.2061159856457, 47019.04022920612, 14107.549382156061, 39471.48197549367, -14948.466712053623, 4092.671465000089, -49639.96108054651, -187500.02235174447, 0.10272502665412321, 0.9657349282574214, 0.17741224580227571, 192.0, 0.0, 0.0, 0.0, 0.0, 0.0, 0.0, 0.0, 0.0, 0.0, 1.741979496834698E9, 0.0, 2025-03-14 14:11:36.834
188.0, -15582.876274928603, 772.7221575644205, -187500.02235174447, -4610.986067174204, 25495.67377515719, 16047.099655520877, -39663.32699815357, 11613.072349199338, -1216.6725059357293, 47068.21406700779, 14157.438475780305, 39514.039696936576, -14966.571625062423, 4086.2788660858714, -49605.44998710752, -187500.02235174447, 0.10272502665412321, 0.9657349282574214, 0.17741224580227571, 192.0, 0.0, 0.0, 0.0, 0.0, 0.0, 0.0, 0.0, 0.0, 0.0, 1.741979496834834E9, 0.0, 2025-03-14 14:11:36.834
190.0, -15558.46816998341, 783.4509949029679, -187500.02235174447, -4717.134501592458, 25417.196800374604, 15981.54198903346, -39656.68853005034, 11566.357203287746, -1234.8221224334386, 47046.93520628634, 14141.099350583478, 39503.333211342484, -14967.420991351724, 4081.4955927724354, -49608.66863830908, -187500.02235174447, 0.10400000000000001, 0.964, 0.18, 192.0, 1.5, 32.0, 15.0, 16.0, 2.5, 80.0, 0.0, 0.0, 0.0, 1.741979496834961E9, 0.0, 2025-03-14 14:11:36.834
192.0, -15564.681954941983, 756.4277358565016, -187500.02235174447, -4622.944250457794, 25495.47260945709, 16043.36691419684, -39661.85178301952, 11620.11314870276, -1214.9961251015814, 47039.58148236054, 14132.113949312443, 39494.07958913798, -14950.657183010244, 4051.007813335397, -49616.80467329081, -187500.02235174447, 0.10400000000000001, 0.964, 0.18, 192.0, 0.0, 0.0, 0.0, 0.0, 0.0, 0.0, 0.0, 0.0, 0.0, 1.741979496835088E9, 0.0, 2025-03-14 14:11:36.835
194.0, -15572.482713756886, 762.8203347707195, -187500.02235174447, -4745.968251939804, 25398.17546584314, 15954.317564286897, -39651.055890447606, 11548.76638040142, -1199.461662705143, 47044.63297660744, 14145.390885518897, 39505.81425497702, -14943.236403851082, 4020.8329583207324, -49611.88728951065, -187500.02235174447, 0.10400000000000001, 0.964, 0.18, 192.0, 0.0, 0.0, 0.0, 0.0, 0.0, 0.0, 0.0, 0.0, 0.0, 1.741979496893058E9, 0.0, 2025-03-14 14:11:36.893
196.0, -15591.615807010628, 748.6046252971441, -187500.02235174447, -4608.415616561844, 25509.174228808195, 16063.70700165117, -39684.3152861971, 11647.4493321716, -1214.0126483455479, 47019.86724375096, 14107.79525134507, 39464.64234169035, -14946.320944585914, 4041.865949853176, -49637.70355435653, -187500.02235174447, 0.10400000000000001, 0.964, 0.18, 192.0, 0.0, 0.0, 0.0, 0.0, 0.0, 0.0, 0.0, 0.0, 0.0, 1.741979496893199E9, 0.0, 2025-03-14 14:11:36.893
198.0, -15588.397155809065, 743.2625583723258, -187500.02235174447, -4715.972210880782, 25414.93927418462, 15982.123134389298, -39665.80804178811, 11578.76242146044, -1210.9281076107154, 47090.1634800629, 14197.448098355306, 39554.67516835632, -14962.213034893637, 4016.764940829866, -49567.47437327795, -187500.02235174447, 0.10400000000000001, 0.964, 0.18, 192.0, 0.0, 0.0, 0.0, 0.0, 0.0, 0.0, 0.0, 0.0, 0.0, 1.741979496893335E9, 0.0, 2025-03-14 14:11:36.893
200.0, -15567.833550910182, 765.189619682982, -187500.02235174447, -4641.451494866788, 25486.84483609734, 16043.076341518921, -39673.87702153647, 11631.19961395259, -1239.8065614469722, 46997.78372022912, 14090.293835436563, 39447.94558858223, -14939.369552060314, 4006.259620935872, -49644.63259513767, -187500.02235174447, 0.098, 0.966, 0.178, 192.0, 1.5, 8.0, 15.0, 24.0, 2.5, 72.0, 0.0, 0.0, 0.0, 1.741979496893463E9, 0.0, 2025-03-14 14:11:36.893
202.0, -15583.23390283989, 749.9904334533732, -187500.02235174447, -4690.580629179553, 25442.27545765346, 16013.12500394881, -39665.316303410094, 11613.094700943793, -1202.0097615730479, 47100.4676342568, 14212.557877607094, 39562.02889228212, -14970.349069875369, 4017.5919553747126, -49561.3499952972, -187500.02235174447, 0.098, 0.966, 0.178, 192.0, 0.0, 0.0, 0.0, 0.0, 0.0, 0.0, 0.0, 0.0, 0.0, 1.741979496893593E9, 0.0, 2025-03-14 14:11:36.893
204.0, -15577.109524859134, 768.251808673359, -187500.02235174447, -4643.194930934302, 25484.207330251615, 16051.279431734018, -39677.050969249125, 11642.531948391432, -1213.1185785673356, 47014.659287292874, 14112.511469425139, 39467.57042021399, -14955.172235390215, 4000.582277844224, -49610.52383309887, -187500.02235174447, 0.098, 0.966, 0.178, 192.0, 0.0, 0.0, 0.0, 0.0, 0.0, 0.0, 0.0, 0.0, 0.0, 1.741979496893728E9, 0.0, 2025-03-14 14:11:36.893
206.0, -15594.499182045363, 746.1682851515156, -187500.02235174447, -4697.822594383072, 25430.786661003433, 16006.665349801226, -39662.92466675337, 11605.182183406614, -1196.6900463926847, 47102.680456957874, 14216.022397997665, 39561.38069169292, -14952.735895244587, 4020.8553100651875, -49563.85339067619, -187500.02235174447, 0.098, 0.966, 0.178, 192.0, 0.0, 0.0, 0.0, 0.0, 0.0, 0.0, 0.0, 0.0, 0.0, 1.741979496893858E9, 0.0, 2025-03-14 14:11:36.893
208.0, -15599.70713850345, 760.4063463695463, -187500.02235174447, -4647.06178272507, 25480.027554038472, 16054.65454514677, -39674.79344305914, 11652.456122929589, -1237.6607939792627, 46993.24631610469, 14091.992568015166, 39445.5092484366, -14941.738836972576, 3991.842745762199, -49630.953327531024, -187500.02235174447, 0.098, 0.966, 0.178, 192.0, 0.0, 0.0, 0.0, 0.0, 0.0, 0.0, 0.0, 0.0, 0.0, 1.741979496893981E9, 0.0, 2025-03-14 14:11:36.893
210.0, -15590.788792465783, 753.9466922219625, -187500.02235174447, -4688.16664077838, 25431.658379037188, 16011.515678348027, -39653.87221024898, 11618.079139957326, -1221.81340716045, 47108.89424191645, 14229.411092926395, 39571.88601158691, -14948.444360309168, 4002.325713911738, -49552.52105623735, -187500.02235174447, 0.096, 0.972, 0.176, 192.0, 1.5, 0.0, 15.0, 48.0, 2.5, 64.0, 0.0, 0.0, 0.0, 1.741979496953431E9, 0.0, 2025-03-14 14:11:36.953
212.0, -15593.85098145616, 757.6570818015435, -187500.02235174447, -4654.72843107324, 25474.439617924647, 16051.122969522832, -39673.16176571391, 11662.894387590217, -1239.583044002419, 46980.01408338715, 14082.0236899881, 39436.009757043095, -14940.62124974981, 4012.451054149992, -49632.80852232081, -187500.02235174447, 0.096, 0.972, 0.176, 192.0, 0.0, 0.0, 0.0, 0.0, 0.0, 0.0, 0.0, 0.0, 0.0, 1.74197949695362E9, 0.0, 2025-03-14 14:11:36.953
214.0, -15602.188182137988, 746.1682851515156, -187500.02235174447, -4650.1910269488135, 25462.74965557452, 16046.69732412068, -39669.09374822304, 11661.553282922898, -1191.1468137677687, 47131.76007649423, 14248.745351880236, 39596.78585491012, -14980.295596157981, 4005.320847668749, -49523.70965763446, -187500.02235174447, 0.096, 0.972, 0.176, 192.0, 0.0, 0.0, 0.0, 0.0, 0.0, 0.0, 0.0, 0.0, 0.0, 1.741979496953756E9, 0.0, 2025-03-14 14:11:36.953
216.0, -15588.732431975894, 749.4539915864458, -187500.02235174447, -4676.767251106173, 25452.64666708072, 16035.074417003922, -39667.4620708778, 11657.351154965301, -1251.6976894971956, 46986.272571834634, 14083.029518488589, 39446.09039379244, -14957.519168558023, 3997.251867920383, -49611.35084764372, -187500.02235174447, 0.096, 0.972, 0.176, 192.0, 0.0, 0.0, 0.0, 0.0, 0.0, 0.0, 0.0, 0.0, 0.0, 1.741979496953885E9, 0.0, 2025-03-14 14:11:36.953
218.0, -15576.081344614191, 741.094439160161, -187500.02235174447, -4676.11905051697, 25441.962533231086, 16018.623533084814, -39651.972311970276, 11640.944974535105, -1210.101093065869, 47101.67462845739, 14218.078758487554, 39563.72762486072, -14954.009944678539, 4024.4986444114024, -49547.536617223814, -187500.02235174447, 0.096, 0.972, 0.176, 192.0, 0.0, 0.0, 0.0, 0.0, 0.0, 0.0, 0.0, 0.0, 0.0, 1.741979496954009E9, 0.0, 2025-03-14 14:11:36.954
220.0, -15598.075461158212, 748.7834392527866, -187500.02235174447, -4747.376411840488, 25405.126858368738, 15974.814113952412, -39651.48057359226, 11606.523288073933, -1229.5471107419862, 46949.61571092793, 14043.645744758338, 39399.19643392521, -14938.43077879319, 3972.6873007640006, -49656.92605458809, -187500.02235174447, 0.092, 0.968, 0.17400000000000002, 192.0, 1.0, 112.0, 15.0, 32.0, 2.5, 56.0, 0.0, 0.0, 0.0, 1.741979496954139E9, 0.0, 2025-03-14 14:11:36.954
222.0, -15607.619656040628, 749.543398564267, -187500.02235174447, -4662.953873032793, 25461.676771840666, 16035.275582704018, -39667.864402278, 11661.575634667353, -1221.7687036715392, 47085.782538149666, 14197.135173932931, 39538.13487745939, -14933.781615946487, 4039.6307754076456, -49570.46950703496, -187500.02235174447, 0.092, 0.968, 0.17400000000000002, 192.0, 0.0, 0.0, 0.0, 0.0, 0.0, 0.0, 0.0, 0.0, 0.0, 1.741979496954276E9, 0.0, 2025-03-14 14:11:36.954
