%OpenBCI Raw EXG Data
%Number of channels = 16
%Sample Rate = 125 Hz
%Board = OpenBCI_GUI$BoardCytonSerialDaisy
Sample Index, EXG Channel 0, EXG Channel 1, EXG Channel 2, EXG Channel 3, EXG Channel 4, EXG Channel 5, EXG Channel 6, EXG Channel 7, EXG Channel 8, EXG Channel 9, EXG Channel 10, EXG Channel 11, EXG Channel 12, EXG Channel 13, EXG Channel 14, EXG Channel 15, Accel Channel 0, Accel Channel 1, Accel Channel 2, Not Used, Digital Channel 0 (D11), Digital Channel 1 (D12), Digital Channel 2 (D13), Digital Channel 3 (D17), Not Used, Digital Channel 4 (D18), Analog Channel 0, Analog Channel 1, Analog Channel 2, Timestamp, Marker Channel, Timestamp (Formatted)
72.0, -21860.676629623966, -8021.459939653867, -187500.02235174447, -13155.633289293444, 17399.290788089133, 5151.987689970457, -49130.38601045442, 742.9049304610409, -5652.64441402488, 36529.76888773071, 3067.173429390601, 24701.315128960032, -13562.815018035773, -2089.5528304043805, -63778.42292528426, -187500.02235174447, 0.0, 0.0, 0.0, 192.0, 0.0, 0.0, 0.0, 0.0, 0.0, 0.0, 0.0, 0.0, 0.0, 1.741979106492298E9, 0.0, 2025-03-14 14:05:06.492
74.0, -21863.582356403156, -7988.20054390437, -187500.02235174447, -13292.023633959727, 17278.881940708394, 5051.42719166603, -49106.71551307625, 651.7321648278433, -5703.584039638525, 36526.885512695975, 3069.207438136034, 24708.914722074835, -13568.201788449502, -2090.7151211160567, -63767.35881177888, -187500.02235174447, 0.0, 0.0, 0.0, 192.0, 0.0, 0.0, 0.0, 0.0, 0.0, 0.0, 0.0, 0.0, 0.0, 1.741979106492386E9, 0.0, 2025-03-14 14:05:06.492
76.0, -21854.46284466539, -7993.810831762652, -187500.02235174447, -13192.714833344799, 17376.2014360668, 5121.231689599954, -49125.379219696435, 710.3607905341138, -5668.804725266066, 36511.97689914428, 3043.167655845601, 24682.159683961832, -13525.934639684516, -2073.12429822973, -63788.503562033606, -187500.02235174447, 0.0, 0.0, 0.0, 192.0, 0.0, 0.0, 0.0, 0.0, 0.0, 0.0, 0.0, 0.0, 0.0, 1.741979106492453E9, 0.0, 2025-03-14 14:05:06.492
78.0, -21852.339428942138, -7985.33952061409, -187500.02235174447, -13331.697980367897, 17247.94712638225, 5016.178490660011, -49098.55712635006, 617.9586789558743, -5682.483992872714, 36517.05074513564, 3058.8809321976823, 24695.70484110175, -13550.655669052085, -2108.3953509802045, -63786.603663754904, -187500.02235174447, 0.0, 0.0, 0.0, 192.0, 0.0, 0.0, 0.0, 0.0, 0.0, 0.0, 0.0, 0.0, 0.0, 1.741979106492538E9, 0.0, 2025-03-14 14:05:06.492
80.0, -21843.89046953803, -7993.9002387404735, -187500.02235174447, -13206.505859673724, 17368.803008652092, 5113.006247640401, -49126.96619355276, 706.9856771213624, -5667.284806643106, 36472.414311458386, 3003.1580332706017, 24641.658323008814, -13533.19895663249, -2086.4906414140037, -63823.84167001745, -187500.02235174447, 0.066, 0.978, 0.11800000000000001, 192.0, 1.0, 8.0, 15.0, 72.0, 1.5, 88.0, 0.0, 0.0, 0.0, 1.741979106492605E9, 0.0, 2025-03-14 14:05:06.492
82.0, -21845.276277694258, -7980.19861938937, -187500.02235174447, -13305.904067266472, 17266.342612068966, 5031.958822245458, -49108.70481833277, 634.4989698528016, -5664.4461350972815, 36553.26057115324, 3105.4619676425423, 24736.720292177237, -13551.01329696337, -2091.4974321719924, -63750.63970692632, -187500.02235174447, 0.066, 0.978, 0.11800000000000001, 192.0, 0.0, 0.0, 0.0, 0.0, 0.0, 0.0, 0.0, 0.0, 0.0, 1.741979106492698E9, 0.0, 2025-03-14 14:05:06.492
84.0, -21833.09457696612, -7990.100442183071, -187500.02235174447, -13210.216249253304, 17369.96529936377, 5109.117044105178, -49126.11682726346, 707.8350434106641, -5648.263472111639, 36466.31228522209, 2995.7819576003503, 24636.24920085063, -13537.15521540108, -2062.9766062470208, -63824.86985026239, -187500.02235174447, 0.066, 0.978, 0.11800000000000001, 192.0, 0.0, 0.0, 0.0, 0.0, 0.0, 0.0, 0.0, 0.0, 0.0, 1.741979106492765E9, 0.0, 2025-03-14 14:05:06.492
86.0, -21854.932231298953, -7987.977026459816, -187500.02235174447, -13285.362814112046, 17288.314376868533, 5051.695412599494, -49113.219870712746, 657.6330253640444, -5675.532600347114, 36575.76877781973, 3131.4123429551537, 24756.881565675925, -13553.382581875632, -2072.967836018543, -63729.31614271595, -187500.02235174447, 0.066, 0.978, 0.11800000000000001, 192.0, 0.0, 0.0, 0.0, 0.0, 0.0, 0.0, 0.0, 0.0, 0.0, 1.74197910649283E9, 0.0, 2025-03-14 14:05:06.492
88.0, -21848.450225406912, -7987.284122381702, -187500.02235174447, -13215.826537111585, 17368.087752829524, 5109.787596438837, -49123.65813537337, 709.9137556450077, -5662.769754263134, 36463.69713112082, 2995.7819576003503, 24635.377482816875, -13524.906459439571, -2095.386635707216, -63811.995245456135, -187500.02235174447, 0.066, 0.978, 0.11800000000000001, 192.0, 0.0, 0.0, 0.0, 0.0, 0.0, 0.0, 0.0, 0.0, 0.0, 1.741979106492885E9, 0.0, 2025-03-14 14:05:06.492
0.0, -10879.465744431704, -3899.194764994951, -93750.01117587223, -6582.365224643377, 8759.44748633474, 2544.500237047701, -24499.41182129524, 397.03403675961937, -2837.285737667768, 18318.23805788017, 1600.0049233442455, 12406.089890729178, -6763.48140996473, -1032.1365037127143, -31842.16104056371, -93750.01117587223, 0.062, 0.986, 0.082, 192.0, 0.5, 120.0, 15.0, 104.0, 1.0, 72.0, 0.0, 0.0, 0.0, 1.74197910666082E9, 0.0, 2025-03-14 14:05:06.660
2.0, -21729.807165838145, -7797.540163700601, -187500.02235174447, -13160.37185911797, 17540.218536879842, 5102.567982979773, -49001.97523855868, 806.2721259918363, -5537.33176437995, 36802.326059618725, 3091.268609913422, 26359.74751231045, -13557.58470983323, -1636.8405982065915, -63858.30805996753, -187500.02235174447, 0.062, 0.986, 0.082, 192.0, 0.0, 0.0, 0.0, 0.0, 0.0, 0.0, 0.0, 0.0, 0.0, 1.741979106660899E9, 0.0, 2025-03-14 14:05:06.660
4.0, -21758.953840607865, -7826.150396603393, -187500.02235174447, -13086.320529737537, 17589.32531944815, 5154.424030116085, -49029.26671853861, 853.4566585369896, -5547.211235429196, 36947.254770666936, 3256.2915392269542, 26503.24571171352, -13558.143503444613, -1608.051551348156, -63755.95942210668, -187500.02235174447, 0.062, 0.986, 0.082, 192.0, 0.0, 0.0, 0.0, 0.0, 0.0, 0.0, 0.0, 0.0, 0.0, 1.741979106660956E9, 0.0, 2025-03-14 14:05:06.660
6.0, -21754.97523009482, -7803.329265514525, -187500.02235174447, -13170.072516211572, 17527.925077429423, 5093.470822986463, -49011.81000611902, 801.9358875675068, -5579.308340467017, 36803.33188811921, 3089.145194190168, 26359.233422187976, -13561.786837790829, -1635.2983278391753, -63854.73178085468, -187500.02235174447, 0.062, 0.986, 0.082, 192.0, 0.0, 0.0, 0.0, 0.0, 0.0, 0.0, 0.0, 0.0, 0.0, 1.741979106661009E9, 0.0, 2025-03-14 14:05:06.661
8.0, -21792.72732647983, -7818.126120343938, -187500.02235174447, -13076.999852299674, 17599.29419747522, 5160.4590011190185, -49026.29393652605, 860.6092167626879, -5550.653404075313, 36938.67170079609, 3248.5131321565073, 26493.58975810883, -13553.606099320186, -1579.7095393788265, -63763.62607045485, -187500.02235174447, 0.06, 0.984, 0.064, 192.0, 0.5, 112.0, 15.0, 96.0, 1.0, 0.0, 0.0, 0.0, 0.0, 1.741979106661059E9, 0.0, 2025-03-14 14:05:06.661
10.0, -21749.722570147824, -7803.798652148087, -187500.02235174447, -13188.199780964826, 17512.122394099522, 5086.430023483041, -48991.33580819795, 793.5539833967666, -5575.352081698427, 36819.46984761594, 3114.469720658031, 26377.628907874696, -13571.286329184333, -1665.5625898316612, -63845.29934469454, -187500.02235174447, 0.06, 0.984, 0.064, 192.0, 0.0, 0.0, 0.0, 0.0, 0.0, 0.0, 0.0, 0.0, 0.0, 1.741979106661111E9, 0.0, 2025-03-14 14:05:06.661
12.0, -21761.25607028676, -7824.384608791424, -187500.02235174447, -13072.082468519506, 17604.882133589046, 5165.398736643641, -49022.94117485776, 863.2690743528693, -5543.545549338526, 36916.141142385146, 3223.6803440666613, 26466.141815917712, -13539.815072991261, -1618.0427811196782, -63792.48217254665, -187500.02235174447, 0.06, 0.984, 0.064, 192.0, 0.0, 0.0, 0.0, 0.0, 0.0, 0.0, 0.0, 0.0, 0.0, 1.741979106661159E9, 0.0, 2025-03-14 14:05:06.661
14.0, -21746.235698012795, -7812.2252598077375, -187500.02235174447, -13190.591417621545, 17503.315806784132, 5080.484459457929, -49003.29399148154, 792.771672340831, -5563.14802922583, 36835.741917579406, 3140.5095029484637, 26396.002041816955, -13575.510808886387, -1655.3254908711303, -63835.24105968965, -187500.02235174447, 0.06, 0.984, 0.064, 192.0, 0.0, 0.0, 0.0, 0.0, 0.0, 0.0, 0.0, 0.0, 0.0, 1.741979106661214E9, 0.0, 2025-03-14 14:05:06.661
16.0, -21754.05880857215, -7824.9657541472625, -187500.02235174447, -13068.77441034012, 17602.71401437688, 5167.768021555904, -49020.571889945495, 870.5333913008442, -5544.014935972087, 36905.12173236868, 3220.1040649538118, 26462.90081297169, -13550.67802079654, -1627.631679491005, -63790.470515545676, -187500.02235174447, 0.06, 0.984, 0.064, 192.0, 0.0, 0.0, 0.0, 0.0, 0.0, 0.0, 0.0, 0.0, 0.0, 1.741979106719809E9, 0.0, 2025-03-14 14:05:06.719
18.0, -21759.31146851915, -7814.21456506426, -187500.02235174447, -13178.856751782509, 17515.542211001186, 5100.042235856323, -49015.94507884325, 811.9047655945737, -5567.171343227786, 36856.082005033735, 3170.527895751941, 26420.43249850661, -13589.570056148776, -1649.2234646348315, -63809.93888496624, -187500.02235174447, 0.058, 0.98, 0.046, 192.0, 0.5, 104.0, 15.0, 80.0, 0.5, 56.0, 0.0, 0.0, 0.0, 1.741979106719872E9, 0.0, 2025-03-14 14:05:06.719
20.0, -21789.59808225609, -7820.629515722932, -187500.02235174447, -13067.500360906168, 17613.733424393347, 5171.21019020202, -49006.110311282915, 872.8132692352855, -5559.437639646249, 36889.140235083134, 3205.0613409353905, 26443.208926106567, -13524.012389661359, -1649.8493134795801, -63793.309187091494, -187500.02235174447, 0.058, 0.98, 0.046, 192.0, 0.0, 0.0, 0.0, 0.0, 0.0, 0.0, 0.0, 0.0, 0.0, 1.741979106719928E9, 0.0, 2025-03-14 14:05:06.719
22.0, -21773.638936715, -7814.862765653464, -187500.02235174447, -13182.678900084366, 17510.624827221018, 5089.939247362524, -49009.84305260695, 804.6851521355096, -5577.251979977129, 36858.317179479265, 3176.5405150104184, 26416.610350204748, -13562.63620408013, -1653.604406548072, -63808.061338432, -187500.02235174447, 0.058, 0.98, 0.046, 192.0, 0.0, 0.0, 0.0, 0.0, 0.0, 0.0, 0.0, 0.0, 0.0, 1.741979106719972E9, 0.0, 2025-03-14 14:05:06.719
24.0, -21769.861491902055, -7834.956983918784, -187500.02235174447, -13063.141770737384, 17625.199869298922, 5175.948760026546, -49017.576756188486, 879.9881792054391, -5545.132523194853, 36867.43669121703, 3187.9622564270803, 26413.346995514275, -13537.15521540108, -1659.304101384175, -63798.226570871666, -187500.02235174447, 0.058, 0.98, 0.046, 192.0, 0.0, 0.0, 0.0, 0.0, 0.0, 0.0, 0.0, 0.0, 0.0, 1.741979106720029E9, 0.0, 2025-03-14 14:05:06.720
26.0, -21763.938279621398, -7830.240765838715, -187500.02235174447, -13180.533132616656, 17509.23901906479, 5087.86053512818, -48992.83337507646, 804.7969108577861, -5575.642654376346, 36877.182051799544, 3213.3091346393985, 26424.858143908757, -13563.932605258538, -1680.7841278057251, -63782.37918405285, -187500.02235174447, 0.058, 0.98, 0.046, 192.0, 0.0, 0.0, 0.0, 0.0, 0.0, 0.0, 0.0, 0.0, 0.0, 1.741979106720083E9, 0.0, 2025-03-14 14:05:06.720
28.0, -21761.07725633112, -7835.538129274622, -187500.02235174447, -13052.792913054576, 17626.63038094406, 5177.245161204954, -49027.90326212684, 887.1630891755926, -5557.448334389727, 36838.75940308087, 3166.236360816522, 26365.11193097972, -13561.719782557462, -1652.5315228142172, -63816.10796643591, -187500.02235174447, 0.064, 0.976, 0.046, 192.0, 1.0, 0.0, 15.0, 64.0, 0.5, 56.0, 0.0, 0.0, 0.0, 1.741979106720133E9, 0.0, 2025-03-14 14:05:06.720
30.0, -21780.009183884762, -7832.677105984343, -187500.02235174447, -13127.179518601837, 17547.751074761283, 5127.378419325164, -49025.17634930329, 849.701565468498, -5549.200540685719, 36913.70480223952, 3267.579170176884, 26445.84643195229, -13582.216332222979, -1698.687875114426, -63733.71943637365, -187500.02235174447, 0.064, 0.976, 0.046, 192.0, 0.0, 0.0, 0.0, 0.0, 0.0, 0.0, 0.0, 0.0, 0.0, 1.741979106780102E9, 0.0, 2025-03-14 14:05:06.780
32.0, -21791.49798053479, -7839.025001409651, -187500.02235174447, -13034.084502945483, 17646.72459920938, 5200.4909754384735, -49035.63696570838, 914.4769208999778, -5569.026538017576, 36842.71566184946, 3182.0166924019686, 26355.813605286316, -13547.437017850521, -1697.592639636116, -63778.60173923991, -187500.02235174447, 0.064, 0.976, 0.046, 192.0, 0.0, 0.0, 0.0, 0.0, 0.0, 0.0, 0.0, 0.0, 0.0, 1.741979106780164E9, 0.0, 2025-03-14 14:05:06.780
34.0, -21782.557282752667, -7808.559573717067, -187500.02235174447, -13146.804350233597, 17539.458577568363, 5110.502852261407, -49005.14918627134, 830.4567134924786, -5593.9487330852435, 36920.7679534874, 3284.8794203852917, 26427.89798115468, -13566.033669237337, -1690.015398265767, -63714.49693614208, -187500.02235174447, 0.064, 0.976, 0.046, 192.0, 0.0, 0.0, 0.0, 0.0, 0.0, 0.0, 0.0, 0.0, 0.0, 1.741979106780209E9, 0.0, 2025-03-14 14:05:06.780
36.0, -21780.344460051594, -7839.2261671097485, -187500.02235174447, -13049.350744408459, 17639.05795086121, 5193.047844534855, -49031.25602379513, 910.6100691092097, -5569.160648484308, 36804.203606152965, 3149.4725524750415, 26289.0042411094, -13550.454503351988, -1707.4274071964512, -63801.37816683986, -187500.02235174447, 0.064, 0.976, 0.046, 192.0, 0.0, 0.0, 0.0, 0.0, 0.0, 0.0, 0.0, 0.0, 0.0, 1.741979106780263E9, 0.0, 2025-03-14 14:05:06.780
38.0, -21796.16949512595, -7822.060027368073, -187500.02235174447, -13137.148396628905, 17548.734551517315, 5109.139395849633, -48997.48253792316, 837.4975129959004, -5585.365663214406, 36913.54834002833, 3296.077644357401, 26394.95150982756, -13574.795553063817, -1681.2535144392866, -63708.32785467242, -187500.02235174447, 0.07, 0.976, 0.042, 192.0, 1.0, 24.0, 15.0, 64.0, 0.5, 40.0, 0.0, 0.0, 0.0, 1.74197910678031E9, 0.0, 2025-03-14 14:05:06.780
40.0, -21793.80021021369, -7829.860786182975, -187500.02235174447, -13095.909428108864, 17604.882133589046, 5144.20928290001, -49019.27548876709, 870.8686674676737, -5561.471648391682, 36764.30574230025, 3119.3200492048322, 26211.466039593943, -13543.570166059753, -1713.305915988197, -63826.97091424119, -187500.02235174447, 0.07, 0.976, 0.042, 192.0, 0.0, 0.0, 0.0, 0.0, 0.0, 0.0, 0.0, 0.0, 0.0, 1.741979106780368E9, 0.0, 2025-03-14 14:05:06.780
42.0, -21796.92945443743, -7825.099864613994, -187500.02235174447, -13116.115405096461, 17565.632470325527, 5124.9420791795355, -49010.75947412962, 851.6238154916543, -5565.383203671361, 36916.5658255298, 3305.0406938839787, 26354.763073296916, -13574.527332130354, -1707.8073868521915, -63698.448383623174, -187500.02235174447, 0.07, 0.976, 0.042, 192.0, 0.0, 0.0, 0.0, 0.0, 0.0, 0.0, 0.0, 0.0, 0.0, 1.741979106780413E9, 0.0, 2025-03-14 14:05:06.780
44.0, -21783.31724206415, -7812.426425507835, -187500.02235174447, -13125.994876145707, 17581.27869144424, 5123.019829156378, -49006.17736651628, 850.1262486131488, -5536.392991112828, 36742.199867033945, 3103.696179830573, 26150.490480719865, -13561.16098894608, -1723.4536079709064, -63831.6647805768, -187500.02235174447, 0.07, 0.976, 0.042, 192.0, 0.0, 0.0, 0.0, 0.0, 0.0, 0.0, 0.0, 0.0, 0.0, 1.741979106780467E9, 0.0, 2025-03-14 14:05:06.780
46.0, -21820.063509948675, -7819.064893611061, -187500.02235174447, -13116.182460329826, 17578.28355768723, 5126.529053035862, -49007.56317467251, 851.6461672361097, -5575.441488676249, 36901.523101511375, 3297.262286813532, 26294.793342923327, -13555.550701087797, -1676.403185892485, -63707.74670931658, -187500.02235174447, 0.07, 0.976, 0.042, 192.0, 0.0, 0.0, 0.0, 0.0, 0.0, 0.0, 0.0, 0.0, 0.0, 1.74197910684083E9, 0.0, 2025-03-14 14:05:06.840
48.0, -21793.375527069038, -7815.063931353561, -187500.02235174447, -13133.706227982788, 17581.748078077802, 5127.289012347343, -49018.64963992234, 848.8969026681069, -5583.286950980062, 36730.33109072818, 3103.8079385528495, 26102.45658188541, -13550.163930674069, -1709.6849333864373, -63832.29062942155, -187500.02235174447, 0.066, 0.984, 0.044, 192.0, 1.0, 8.0, 15.0, 96.0, 0.5, 48.0, 0.0, 0.0, 0.0, 1.741979106840959E9, 0.0, 2025-03-14 14:05:06.840
50.0, -21835.240344433827, -7824.652829724888, -187500.02235174447, -13100.089204322006, 17594.309758461688, 5140.476541575974, -49015.07336080949, 855.31185332678, -5563.259787948106, 36890.123711839165, 3300.8385659263813, 26253.979057547935, -13549.672192296051, -1694.1951744789094, -63702.650511580774, -187500.02235174447, 0.066, 0.984, 0.044, 192.0, 0.0, 0.0, 0.0, 0.0, 0.0, 0.0, 0.0, 0.0, 0.0, 1.741979106841016E9, 0.0, 2025-03-14 14:05:06.841
52.0, -21804.68550976342, -7803.6421899369, -187500.02235174447, -13141.93166994234, 17568.33703140462, 5117.074265131267, -49014.916898598305, 836.379925773135, -5581.230590490173, 36717.992927788844, 3102.1539094631567, 26055.78613946273, -13567.397125649111, -1714.7364276333367, -63833.1176439664, -187500.02235174447, 0.066, 0.984, 0.044, 192.0, 0.0, 0.0, 0.0, 0.0, 0.0, 0.0, 0.0, 0.0, 0.0, 1.741979106841061E9, 0.0, 2025-03-14 14:05:06.841
54.0, -21808.5970650431, -7826.530376259134, -187500.02235174447, -13085.605273914967, 17599.87534283106, 5151.294785892343, -49009.686590395766, 862.5985220192101, -5526.960554952688, 36863.59219117072, 3275.4469842251524, 26187.817893960226, -13556.556529588286, -1677.565476604161, -63723.01295077956, -187500.02235174447, 0.066, 0.984, 0.044, 192.0, 0.0, 0.0, 0.0, 0.0, 0.0, 0.0, 0.0, 0.0, 0.0, 1.74197910684111E9, 0.0, 2025-03-14 14:05:06.841
56.0, -21817.314245380672, -7834.755818218687, -187500.02235174447, -13150.581795046544, 17553.115493430556, 5116.984858153446, -49012.5699654305, 835.0388211058165, -5605.884564624377, 36725.43605869247, 3124.2821364739107, 26039.826993921637, -13573.722669329962, -1731.790808652736, -63811.0117687001, -187500.02235174447, 0.066, 0.984, 0.044, 192.0, 0.0, 0.0, 0.0, 0.0, 0.0, 0.0, 0.0, 0.0, 0.0, 1.741979106841158E9, 0.0, 2025-03-14 14:05:06.841
58.0, -21830.948809498408, -7831.805387950586, -187500.02235174447, -13065.220482971727, 17617.9579040954, 5168.326815167286, -49020.21426203421, 880.2340483944474, -5562.2539594476175, 36850.71758636446, 3277.2127720371213, 26152.41273074302, -13547.861700995172, -1685.7015115858928, -63714.5863431199, -187500.02235174447, 0.066, 0.98, 0.052000000000000005, 192.0, 1.0, 8.0, 15.0, 80.0, 0.5, 80.0, 0.0, 0.0, 0.0, 1.741979106841211E9, 0.0, 2025-03-14 14:05:06.841
60.0, -21822.723367538856, -7817.857899410475, -187500.02235174447, -13168.932577244352, 17530.38376931951, 5095.1025003317, -49006.75851187212, 820.0408005763055, -5589.478384194182, 36716.204788232426, 3129.2218719985335, 26001.04671729168, -13581.612835122685, -1726.0017068388113, -63813.448108845725, -187500.02235174447, 0.066, 0.98, 0.052000000000000005, 192.0, 0.0, 0.0, 0.0, 0.0, 0.0, 0.0, 0.0, 0.0, 0.0, 1.741979106899638E9, 0.0, 2025-03-14 14:05:06.899
62.0, -21832.669893821465, -7836.029867652639, -187500.02235174447, -13040.38769488188, 17639.326171794673, 5186.498783409451, -49036.77690467559, 901.5129091158998, -5585.1421457698525, 36832.41150765556, 3271.5577806899287, 26105.138791220044, -13549.560433573775, -1706.2204129958645, -63717.246200710084, -187500.02235174447, 0.066, 0.98, 0.052000000000000005, 192.0, 0.0, 0.0, 0.0, 0.0, 0.0, 0.0, 0.0, 0.0, 0.0, 1.741979106899692E9, 0.0, 2025-03-14 14:05:06.899
64.0, -21790.11217237856, -7802.636361436411, -187500.02235174447, -13192.871295555986, 17512.211801077345, 5070.381470964131, -49003.316343226, 796.1691374980376, -5520.813825227478, 36716.42830567698, 3143.14700879419, 25973.75523731175, -13582.037518267336, -1718.692686401926, -63807.949579709726, -187500.02235174447, 0.066, 0.98, 0.052000000000000005, 192.0, 0.0, 0.0, 0.0, 0.0, 0.0, 0.0, 0.0, 0.0, 0.0, 1.741979106899748E9, 0.0, 2025-03-14 14:05:06.899
66.0, -21793.710803235866, -7823.334076802025, -187500.02235174447, -13065.82398007202, 17621.57888669716, 5165.376384899186, -49017.48734921066, 879.3623303606904, -5576.179096243274, 36786.299858844264, 3223.3227161553764, 26026.415947248453, -13543.145482915103, -1692.7646628337698, -63762.17320706525, -187500.02235174447, 0.066, 0.98, 0.052000000000000005, 192.0, 0.0, 0.0, 0.0, 0.0, 0.0, 0.0, 0.0, 0.0, 0.0, 1.741979106899801E9, 0.0, 2025-03-14 14:05:06.899
68.0, -21805.490172563812, -7817.656733710377, -187500.02235174447, -13202.415490438401, 17502.913475383935, 5064.346499961198, -48992.98983728765, 792.2352304739036, -5584.672759136291, 36731.98511981787, 3167.175134083645, 25962.691123806373, -13580.87522755566, -1719.7879218802361, -63795.0079196701, -187500.02235174447, 0.07, 0.978, 0.052000000000000005, 192.0, 1.0, 24.0, 15.0, 72.0, 0.5, 80.0, 0.0, 0.0, 0.0, 1.741979106899854E9, 0.0, 2025-03-14 14:05:06.899
70.0, -21795.16366662546, -7815.242745309204, -187500.02235174447, -13067.857988817454, 17633.246497302833, 5160.503704607929, -49032.686535440276, 880.1893449055368, -5542.204444671207, 36747.40782349203, 3180.3403115678207, 25952.36461786802, -13541.849081736695, -1715.6752009004595, -63799.277102861066, -187500.02235174447, 0.07, 0.978, 0.052000000000000005, 192.0, 0.0, 0.0, 0.0, 0.0, 0.0, 0.0, 0.0, 0.0, 0.0, 1.74197910689991E9, 0.0, 2025-03-14 14:05:06.899
72.0, -21825.60674257359, -7810.772396418142, -187500.02235174447, -13188.08802224255, 17519.811394192147, 5074.5835989217285, -49012.45820670822, 802.0029428008727, -5564.377375170872, 36761.422367265506, 3204.390788601731, 25962.557013339643, -13575.68962284203, -1689.1660319764653, -63767.33646003443, -187500.02235174447, 0.07, 0.978, 0.052000000000000005, 192.0, 0.0, 0.0, 0.0, 0.0, 0.0, 0.0, 0.0, 0.0, 0.0, 1.74197910689996E9, 0.0, 2025-03-14 14:05:06.899
74.0, -21822.857478005586, -7820.830681423031, -187500.02235174447, -13067.96974753973, 17635.749892681826, 5170.606693101728, -49019.521357956095, 882.826850751263, -5562.276311192073, 36732.70037564044, 3169.097384106801, 25911.12564934798, -13548.487549839921, -1704.5216804172612, -63800.9087802063, -187500.02235174447, 0.07, 0.978, 0.052000000000000005, 192.0, 0.0, 0.0, 0.0, 0.0, 0.0, 0.0, 0.0, 0.0, 0.0, 1.741979106900004E9, 0.0, 2025-03-14 14:05:06.900
76.0, -21792.481457290825, -7833.906451929385, -187500.02235174447, -13193.832420567564, 17515.028120878713, 5078.204581523488, -49002.13170076987, 794.6492188750767, -5567.618378116891, 36769.51369875833, 3226.228442934566, 25947.84956548805, -13594.062756784291, -1743.0337361137554, -63759.8486256419, -187500.02235174447, 0.07200000000000001, 0.981, 0.051000000000000004, 192.0, 1.0, 40.0, 15.0, 96.0, 0.5, 72.0, 0.0, 0.0, 0.0, 1.741979106959418E9, 0.0, 2025-03-14 14:05:06.959
78.0, -21816.50958258028, -7830.643097238911, -187500.02235174447, -13088.332186738515, 17622.91999136448, 5155.698079550038, -49032.887701140375, 863.3137778417799, -5561.203427458218, 36704.62658460457, 3148.62318618574, 25858.487291155732, -13551.192110919013, -1729.0862475736437, -63819.08074844847, -187500.02235174447, 0.07200000000000001, 0.981, 0.051000000000000004, 192.0, 0.0, 0.0, 0.0, 0.0, 0.0, 0.0, 0.0, 0.0, 0.0, 1.74197910695947E9, 0.0, 2025-03-14 14:05:06.959
80.0, -21800.863361461565, -7813.387550519414, -187500.02235174447, -13180.153152960916, 17528.439167551896, 5082.943151348013, -49015.02865732058, 795.5209369088336, -5591.490041195159, 36779.54963201877, 3248.6919461121497, 25931.108108891025, -13567.575939604752, -1715.496386944817, -63751.71259066017, -187500.02235174447, 0.07200000000000001, 0.981, 0.051000000000000004, 192.0, 0.0, 0.0, 0.0, 0.0, 0.0, 0.0, 0.0, 0.0, 0.0, 1.741979106959525E9, 0.0, 2025-03-14 14:05:06.959
82.0, -21781.8420269301, -7821.277716312136, -187500.02235174447, -13098.099899065483, 17608.30195049071, 5143.739896266448, -49028.685573182775, 851.2438358359142, -5529.061618931487, 36684.867642506084, 3138.4084389696645, 25813.716747011753, -13557.49530285541, -1729.108599318099, -63831.128338709874, -187500.02235174447, 0.07200000000000001, 0.981, 0.051000000000000004, 192.0, 0.0, 0.0, 0.0, 0.0, 0.0, 0.0, 0.0, 0.0, 0.0, 1.741979106959574E9, 0.0, 2025-03-14 14:05:06.959
84.0, -21787.049983388184, -7831.02307689465, -187500.02235174447, -13174.475809869267, 17521.912458170948, 5078.942189090513, -49010.51360494061, 794.2245357304258, -5590.260695250117, 36782.0306756533, 3263.0417660524568, 25911.572684237086, -13585.21146597999, -1726.3816864945516, -63751.89140461581, -187500.02235174447, 0.07200000000000001, 0.981, 0.051000000000000004, 192.0, 0.0, 0.0, 0.0, 0.0, 0.0, 0.0, 0.0, 0.0, 0.0, 1.74197910695962E9, 0.0, 2025-03-14 14:05:06.959
86.0, -21821.51637333827, -7843.115370644971, -187500.02235174447, -13108.471108492746, 17602.356386465595, 5139.604823542217, -49025.64573593685, 848.3604608011796, -5563.215084459196, 36663.58878178463, 3121.5105201614524, 25770.71199067974, -13578.237721709935, -1735.8588261436018, -63841.432492903776, -187500.02235174447, 0.07300000000000001, 0.9804999999999999, 0.0505, 192.0, 1.0, 40.0, 15.0, 80.0, 0.5, 72.0, 0.0, 0.0, 0.0, 1.74197910695967E9, 0.0, 2025-03-14 14:05:06.959
88.0, -21815.526105824247, -7818.729617444232, -187500.02235174447, -13167.233844665749, 17552.042609696702, 5090.498040973907, -49023.20939579122, 803.2099370014593, -5588.1372795268635, 36798.14628340558, 3284.6111994518283, 25901.447343998832, -13560.021049978859, -1721.6207649255712, -63731.95364856168, -187500.02235174447, 0.07300000000000001, 0.9804999999999999, 0.0505, 192.0, 0.0, 0.0, 0.0, 0.0, 0.0, 0.0, 0.0, 0.0, 0.0, 1.741979106959726E9, 0.0, 2025-03-14 14:05:06.959
90.0, -21815.99549245781, -7827.0221146371505, -187500.02235174447, -13144.792693232619, 17589.638243870526, 5114.369704052175, -49013.26286950861, 822.991230844406, -5576.581427643469, 36634.41975527046, 3096.431862882598, 25713.871504529896, -13546.520596327853, -1720.6149364250823, -63867.11464728292, -187500.02235174447, 0.07300000000000001, 0.9804999999999999, 0.0505, 192.0, 0.0, 0.0, 0.0, 0.0, 0.0, 0.0, 0.0, 0.0, 0.0, 1.741979107019733E9, 0.0, 2025-03-14 14:05:07.019
92.0, -21810.966349955364, -7824.205794835782, -187500.02235174447, -13151.811140991585, 17576.741287319815, 5098.902296889102, -49023.231747535676, 807.3897132146017, -5557.269520434084, 36795.37466709312, 3292.233144311088, 25868.344410460522, -13553.53904408682, -1693.1222907450547, -63742.369561477855, -187500.02235174447, 0.07300000000000001, 0.9804999999999999, 0.0505, 192.0, 0.0, 0.0, 0.0, 0.0, 0.0, 0.0, 0.0, 0.0, 0.0, 1.741979107019797E9, 0.0, 2025-03-14 14:05:07.019
94.0, -21810.85459123309, -7822.842338424009, -187500.02235174447, -13150.090056668527, 17594.73444160634, 5105.183137081044, -49027.99266910466, 810.5189574383447, -5558.856494290411, 36641.594665240606, 3114.5144241469416, 25694.89487348734, -13556.78004703284, -1742.7431634358363, -63854.575318643496, -187500.02235174447, 0.07300000000000001, 0.9804999999999999, 0.0505, 192.0, 0.0, 0.0, 0.0, 0.0, 0.0, 0.0, 0.0, 0.0, 0.0, 1.741979107019846E9, 0.0, 2025-03-14 14:05:07.019
96.0, -21821.73989078282, -7831.403056550391, -187500.02235174447, -13133.795634960608, 17589.548836892707, 5108.714712704982, -49019.58841318946, 810.8989370940849, -5574.4580119202155, 36781.29306808628, 3289.685045443183, 25826.30077914009, -13561.116285457168, -1710.8695758425686, -63752.919584860756, -187500.02235174447, 0.07050000000000001, 0.98225, 0.05025, 192.0, 1.0, 16.0, 15.0, 96.0, 0.5, 72.0, 0.0, 0.0, 0.0, 1.741979107019891E9, 0.0, 2025-03-14 14:05:07.019
98.0, -21816.867210491564, -7834.286431585126, -187500.02235174447, -13129.280582580637, 17613.37579648206, 5126.484349546951, -49036.91101514233, 830.9037483815847, -5588.405500460327, 36636.274950060244, 3124.0809707738126, 25663.80359695001, -13550.812131263272, -1738.7645529227916, -63850.32848719699, -187500.02235174447, 0.07050000000000001, 0.98225, 0.05025, 192.0, 0.0, 0.0, 0.0, 0.0, 0.0, 0.0, 0.0, 0.0, 0.0, 1.741979107019947E9, 0.0, 2025-03-14 14:05:07.019
100.0, -21851.043027763728, -7823.579945991033, -187500.02235174447, -13059.677250346811, 17657.006401658822, 5173.624178603194, -49041.15784658884, 872.7462140019196, -5571.8205060744895, 36816.85469351467, 3340.647022801283, 25835.1967734333, -13545.425360849544, -1666.5460665876947, -63698.29192141198, -187500.02235174447, 0.07050000000000001, 0.98225, 0.05025, 192.0, 0.0, 0.0, 0.0, 0.0, 0.0, 0.0, 0.0, 0.0, 0.0, 1.741979107019994E9, 0.0, 2025-03-14 14:05:07.019
102.0, -21834.972123500364, -7820.897736656397, -187500.02235174447, -13139.741198985721, 17607.05025280121, 5122.550442522817, -49024.52814871409, 828.3332977692245, -5549.491113363638, 36654.91630493597, 3161.8554189032816, 25657.433349780244, -13564.916082014572, -1727.8792533730573, -63812.9116669788, -187500.02235174447, 0.07050000000000001, 0.98225, 0.05025, 192.0, 0.0, 0.0, 0.0, 0.0, 0.0, 0.0, 0.0, 0.0, 0.0, 1.741979107020043E9, 0.0, 2025-03-14 14:05:07.020
104.0, -21828.199544930405, -7823.892870413408, -187500.02235174447, -13079.145619767383, 17654.033619646267, 5156.502742350429, -49023.27645102459, 853.7695829593639, -5567.439564161249, 36775.056931383246, 3307.9464206631687, 25756.29511550607, -13542.094950925703, -1693.3011047006971, -63737.65334339778, -187500.02235174447, 0.07050000000000001, 0.98225, 0.05025, 192.0, 0.0, 0.0, 0.0, 0.0, 0.0, 0.0, 0.0, 0.0, 0.0, 1.741979107020093E9, 0.0, 2025-03-14 14:05:07.020
106.0, -21845.678609094455, -7820.115425600461, -187500.02235174447, -13158.851940495008, 17599.718880619872, 5110.838128428237, -49020.70600041223, 815.9727830854396, -5592.048834806542, 36645.57327575365, 3165.431698016131, 25613.713337625664, -13569.54289311682, -1731.6566981860042, -63822.52291709458, -187500.02235174447, 0.06725, 0.981125, 0.049125, 192.0, 1.0, 0.0, 15.0, 80.0, 0.5, 64.0, 0.0, 0.0, 0.0, 1.741979107080511E9, 0.0, 2025-03-14 14:05:07.080
108.0, -21837.341408412627, -7824.541071002612, -187500.02235174447, -13095.149468797383, 17645.338791053153, 5140.387134598152, -49010.714770640705, 841.2079025754813, -5570.591160129447, 36745.01618683532, 3279.291484271465, 25690.782152507563, -13551.549738830297, -1685.9920842638116, -63763.603718710394, -187500.02235174447, 0.06725, 0.981125, 0.049125, 192.0, 0.0, 0.0, 0.0, 0.0, 0.0, 0.0, 0.0, 0.0, 0.0, 1.741979107080573E9, 0.0, 2025-03-14 14:05:07.080
110.0, -21830.278257164748, -7808.224297550238, -187500.02235174447, -13200.22501948178, 17578.149447220498, 5071.7672791203595, -49018.24730852214, 783.0710152472276, -5588.450203949238, 36633.36922328106, 3151.7747821539383, 25565.008886457552, -13550.745076029907, -1721.5537096922053, -63845.94754528374, -187500.02235174447, 0.06725, 0.981125, 0.049125, 192.0, 0.0, 0.0, 0.0, 0.0, 0.0, 0.0, 0.0, 0.0, 0.0, 1.741979107080625E9, 0.0, 2025-03-14 14:05:07.080
112.0, -21833.720425810865, -7809.788919662109, -187500.02235174447, -13085.046480303585, 17672.853788477634, 5150.467771347496, -49036.77690467559, 853.2554928368918, -5548.999374985621, 36724.5196371698, 3257.1409055162558, 25639.015512349073, -13528.996828674894, -1663.238008408309, -63783.22855034215, -187500.02235174447, 0.06725, 0.981125, 0.049125, 192.0, 0.0, 0.0, 0.0, 0.0, 0.0, 0.0, 0.0, 0.0, 0.0, 1.741979107080685E9, 0.0, 2025-03-14 14:05:07.080
114.0, -21834.815661289176, -7823.535242502123, -187500.02235174447, -13181.22603669477, 17586.508999646783, 5091.459165985485, -49020.929517856785, 806.6968091364872, -5556.062526233498, 36651.69765373441, 3183.9165906806697, 25561.231441644602, -13566.994794248914, -1716.3681049785741, -63826.41212062981, -187500.02235174447, 0.06725, 0.981125, 0.049125, 192.0, 0.0, 0.0, 0.0, 0.0, 0.0, 0.0, 0.0, 0.0, 0.0, 1.74197910708074E9, 0.0, 2025-03-14 14:05:07.080
116.0, -21839.509527624792, -7821.903565156886, -187500.02235174447, -13052.278822932103, 17691.78571603128, 5182.162544985121, -49036.21811106421, 887.0736821977714, -5577.363738699405, 36725.50311392583, 3270.686062656172, 25623.034015063527, -13554.522520842853, -1673.6539213244823, -63764.743657677616, -187500.02235174447, 0.065625, 0.9845625, 0.0505625, 192.0, 1.0, 0.0, 15.0, 112.0, 0.5, 80.0, 0.0, 0.0, 0.0, 1.74197910708079E9, 0.0, 2025-03-14 14:05:07.080
118.0, -21822.432794860935, -7804.223335292738, -187500.02235174447, -13186.791621064142, 17576.18249370843, 5087.122927561156, -49012.30174449703, 805.154538769071, -5564.667947848791, 36675.234040645846, 3217.310096896899, 25565.947659724672, -13579.73528858844, -1733.1319133200543, -63802.831030229456, -187500.02235174447, 0.065625, 0.9845625, 0.0505625, 192.0, 0.0, 0.0, 0.0, 0.0, 0.0, 0.0, 0.0, 0.0, 0.0, 1.741979107080838E9, 0.0, 2025-03-14 14:05:07.080
120.0, -21857.23446097785, -7809.990085362207, -187500.02235174447, -13072.909483064352, 17685.393117117063, 5166.7398413109595, -49034.497026741155, 876.7918797483302, -5569.428869417771, 36694.63535483305, 3235.0573819944125, 25566.39469461378, -13527.119282140648, -1682.1028807285884, -63795.11967839237, -187500.02235174447, 0.065625, 0.9845625, 0.0505625, 192.0, 0.0, 0.0, 0.0, 0.0, 0.0, 0.0, 0.0, 0.0, 0.0, 1.741979107140315E9, 0.0, 2025-03-14 14:05:07.140
122.0, -21833.563963599678, -7802.859878880964, -187500.02235174447, -13187.976263520273, 17573.34382216261, 5080.976197835947, -49018.11319805541, 805.2662974913476, -5567.707785094713, 36685.001752972814, 3234.1409604717446, 25551.240211873082, -13573.074468740759, -1714.9375933334343, -63800.10411740591, -187500.02235174447, 0.065625, 0.9845625, 0.0505625, 192.0, 0.0, 0.0, 0.0, 0.0, 0.0, 0.0, 0.0, 0.0, 0.0, 1.741979107140367E9, 0.0, 2025-03-14 14:05:07.140
124.0, -21832.04404497672, -7821.300068056592, -187500.02235174447, -13072.909483064352, 17688.276492151796, 5164.415259887607, -49036.598090719956, 883.0727199402714, -5573.943921797743, 36667.00859868629, 3207.140053169734, 25514.896275388754, -13543.793683504306, -1699.626648381549, -63817.58318156996, -187500.02235174447, 0.065625, 0.9845625, 0.0505625, 192.0, 0.0, 0.0, 0.0, 0.0, 0.0, 0.0, 0.0, 0.0, 0.0, 1.741979107140423E9, 0.0, 2025-03-14 14:05:07.140
126.0, -21839.755396813798, -7803.575134703534, -187500.02235174447, -13181.18133320586, 17580.54108387722, 5085.401843238097, -49026.0704190815, 813.8717191066407, -5585.522125425592, 36706.39237241654, 3258.102030527834, 25553.4306828297, -13576.11430598668, -1700.6101251375826, -63784.4578962872, -187500.02235174447, 0.0638125, 0.98428125, 0.05028125, 192.0, 0.5, 120.0, 15.0, 96.0, 0.5, 72.0, 0.0, 0.0, 0.0, 1.741979107140473E9, 0.0, 2025-03-14 14:05:07.140
128.0, -21840.627114847557, -7816.74031218771, -187500.02235174447, -13067.209788228249, 17690.332852641684, 5179.055652505834, -49050.99261414917, 898.2272026809696, -5558.163590212297, 36649.551886266694, 3186.330579081843, 25475.46779816959, -13572.314509429278, -1670.077642211633, -63828.96021949771, -187500.02235174447, 0.0638125, 0.98428125, 0.05028125, 192.0, 0.0, 0.0, 0.0, 0.0, 0.0, 0.0, 0.0, 0.0, 0.0, 1.741979107140523E9, 0.0, 2025-03-14 14:05:07.140
130.0, -21850.685399852446, -7808.894849883896, -187500.02235174447, -13180.42137389438, 17578.931758276434, 5086.362968249675, -49018.91786085581, 818.4091232310681, -5589.880715594378, 36730.666366895006, 3288.7239204316047, 25553.00599968505, -13582.529256645354, -1712.7694741212697, -63759.826273897444, -187500.02235174447, 0.0638125, 0.98428125, 0.05028125, 192.0, 0.0, 0.0, 0.0, 0.0, 0.0, 0.0, 0.0, 0.0, 0.0, 1.741979107140572E9, 0.0, 2025-03-14 14:05:07.140
132.0, -21834.122757211062, -7821.0318471231285, -187500.02235174447, -13097.96578859875, 17667.8693494641, 5150.311309136308, -49048.48921877018, 880.4128623500899, -5543.724363294168, 36613.65498467148, 3144.376354739232, 25405.149210113195, -13545.648878294096, -1710.0425612977222, -63865.93000482679, -187500.02235174447, 0.0638125, 0.98428125, 0.05028125, 192.0, 0.0, 0.0, 0.0, 0.0, 0.0, 0.0, 0.0, 0.0, 0.0, 1.741979107140626E9, 0.0, 2025-03-14 14:05:07.140
134.0, -21827.104309452094, -7809.475995239734, -187500.02235174447, -13141.12700714195, 17607.43023245695, 5116.873099431169, -49044.60001523495, 852.1602573585818, -5568.043061261543, 36758.002550363846, 3317.915298690236, 25551.508432806546, -13589.614759637685, -1685.0756627411442, -63738.63682015381, -187500.02235174447, 0.0638125, 0.98428125, 0.05028125, 192.0, 0.0, 0.0, 0.0, 0.0, 0.0, 0.0, 0.0, 0.0, 0.0, 1.741979107140677E9, 0.0, 2025-03-14 14:05:07.140
136.0, -21856.13922549954, -7810.794748162598, -187500.02235174447, -13116.428329518836, 17650.144416111045, 5135.715620006993, -49043.41537277882, 866.375966832157, -5578.883657322366, 36609.89989160298, 3140.0177645704466, 25374.97435509853, -13557.428247622043, -1715.2505177558087, -63864.410086203825, -187500.02235174447, 0.06290625, 0.986140625, 0.048140625, 192.0, 0.5, 120.0, 15.0, 112.0, 0.5, 56.0, 0.0, 0.0, 0.0, 1.741979107199599E9, 0.0, 2025-03-14 14:05:07.199
138.0, -21808.55236155419, -7815.555669731578, -187500.02235174447, -13153.152245658905, 17593.86272357258, 5101.249230056909, -49027.925613871295, 834.2341583054255, -5558.9682530126875, 36743.943303101456, 3304.973638650613, 25503.139257805262, -13585.949073547015, -1693.368159934063, -63758.23930004112, -187500.02235174447, 0.06290625, 0.986140625, 0.048140625, 192.0, 0.0, 0.0, 0.0, 0.0, 0.0, 0.0, 0.0, 0.0, 0.0, 1.741979107199661E9, 0.0, 2025-03-14 14:05:07.199
140.0, -21848.360818429093, -7810.794748162598, -187500.02235174447, -13156.057972438095, 17613.44285171543, 5099.461090500485, -49025.37751500339, 832.0213356043502, -5576.313206710006, 36585.82706282462, 3117.8448340707823, 25320.190229438573, -13560.87041626816, -1700.7218838598592, -63882.76086840164, -187500.02235174447, 0.06290625, 0.986140625, 0.048140625, 192.0, 0.0, 0.0, 0.0, 0.0, 0.0, 0.0, 0.0, 0.0, 0.0, 1.74197910719971E9, 0.0, 2025-03-14 14:05:07.199
142.0, -21862.978859302864, -7833.1241408734495, -187500.02235174447, -13143.943326943318, 17608.190191768434, 5107.083035359745, -49040.68845995527, 841.476123508945, -5561.248130947129, 36715.780105087775, 3276.966902848113, 25442.141347186727, -13545.358305616177, -1695.33511344613, -63795.23143711465, -187500.02235174447, 0.06290625, 0.986140625, 0.048140625, 192.0, 0.0, 0.0, 0.0, 0.0, 0.0, 0.0, 0.0, 0.0, 0.0, 1.741979107199762E9, 0.0, 2025-03-14 14:05:07.199
144.0, -21845.879774794554, -7821.769454690154, -187500.02235174447, -13145.664411266376, 17624.86459313209, 5120.069398888279, -49047.058707125034, 856.8764754386516, -5559.14706696833, 36581.267306955735, 3118.627145126718, 25298.665499528113, -13575.3543466752, -1722.5595381926942, -63885.08544982499, -187500.02235174447, 0.06290625, 0.986140625, 0.048140625, 192.0, 0.0, 0.0, 0.0, 0.0, 0.0, 0.0, 0.0, 0.0, 0.0, 1.741979107199808E9, 0.0, 2025-03-14 14:05:07.199
146.0, -21849.03137076275, -7825.859823925474, -187500.02235174447, -13127.492443024212, 17621.40007274152, 5124.986782668446, -49035.86048315293, 860.6315685071431, -5573.385128186361, 36749.12890781509, 3316.998877167568, 25463.442559652634, -13574.952015275005, -1653.0456129366892, -63754.12657906134, -187500.02235174447, 0.064453125, 0.9900703125, 0.0470703125, 192.0, 1.0, 8.0, 15.5, 8.0, 0.5, 56.0, 0.0, 0.0, 0.0, 1.741979107199862E9, 0.0, 2025-03-14 14:05:07.199
148.0, -21846.058588750195, -7831.492463528212, -187500.02235174447, -13174.140533702439, 17593.795668339215, 5098.656427700094, -49030.6748784393, 839.6656322080651, -5589.433680705271, 36561.977751490806, 3103.8973455306705, 25263.32739154427, -13578.72946008795, -1736.4846749883504, -63901.9833686332, -187500.02235174447, 0.064453125, 0.9900703125, 0.0470703125, 192.0, 0.0, 0.0, 0.0, 0.0, 0.0, 0.0, 0.0, 0.0, 0.0, 1.741979107199915E9, 0.0, 2025-03-14 14:05:07.199
150.0, -21855.42396967697, -7830.173710605349, -187500.02235174447, -13120.40694003188, 17633.268849047286, 5132.340506594242, -49042.2754338116, 867.5829610327436, -5566.567846127492, 36729.548779672245, 3303.8113479389367, 25430.786661003433, -13554.544872587308, -1688.4507761538955, -63768.81167516848, -187500.02235174447, 0.064453125, 0.9900703125, 0.0470703125, 192.0, 0.0, 0.0, 0.0, 0.0, 0.0, 0.0, 0.0, 0.0, 0.0, 1.741979107260311E9, 0.0, 2025-03-14 14:05:07.260
152.0, -21815.861381991075, -7809.900678384385, -187500.02235174447, -13194.70413860132, 17585.547874635206, 5087.726424661449, -49029.669049938806, 829.9649751144618, -5558.901197779322, 36569.599696350066, 3121.532871905908, 25257.42653100807, -13567.195959949013, -1721.2854887587416, -63887.432382992796, -187500.02235174447, 0.064453125, 0.9900703125, 0.0470703125, 192.0, 0.0, 0.0, 0.0, 0.0, 0.0, 0.0, 0.0, 0.0, 0.0, 1.741979107260371E9, 0.0, 2025-03-14 14:05:07.260
154.0, -21830.65823682049, -7799.954152101774, -187500.02235174447, -13141.46228330878, 17624.506965220808, 5114.1461866076215, -49025.958660359225, 846.572321244755, -5543.657308060802, 36700.960898513906, 3273.1671062907108, 25373.566195197847, -13558.657593567086, -1657.9182932279462, -63796.617245270885, -187500.02235174447, 0.064453125, 0.9900703125, 0.0470703125, 192.0, 0.0, 0.0, 0.0, 0.0, 0.0, 0.0, 0.0, 0.0, 0.0, 1.741979107260424E9, 0.0, 2025-03-14 14:05:07.260
156.0, -21833.295742666214, -7813.968695875252, -187500.02235174447, -13220.453348213834, 17561.206824923378, 5066.313453473264, -49029.6243464499, 805.6015736581771, -5563.90798853731, 36550.645417051965, 3093.4367291255867, 25202.642405348113, -13556.891805755116, -1723.274794015264, -63924.960961933255, -187500.02235174447, 0.0642265625, 0.99203515625, 0.04853515625, 192.0, 1.0, 0.0, 15.5, 8.0, 0.5, 72.0, 0.0, 0.0, 0.0, 1.741979107260482E9, 0.0, 2025-03-14 14:05:07.260
158.0, -21857.50268191131, -7815.8685941539525, -187500.02235174447, -13081.649015146377, 17672.473808821895, 5165.398736643641, -49049.4279920373, 898.4060166366121, -5563.259787948106, 36696.37879090056, 3262.93000733018, 25342.653732616156, -13564.223177936457, -1692.0941105001107, -63804.797983741526, -187500.02235174447, 0.0642265625, 0.99203515625, 0.04853515625, 192.0, 0.0, 0.0, 0.0, 0.0, 0.0, 0.0, 0.0, 0.0, 0.0, 1.741979107260538E9, 0.0, 2025-03-14 14:05:07.260
160.0, -21844.829242805154, -7816.874422654441, -187500.02235174447, -13199.532115403666, 17572.09212447311, 5084.6195321821615, -49023.14234055786, 829.9426233700066, -5598.419081976304, 36608.737600891305, 3166.3704712832537, 25250.296324526826, -13578.416535665578, -1727.499273717317, -63851.31196395302, -187500.02235174447, 0.0642265625, 0.99203515625, 0.04853515625, 192.0, 0.0, 0.0, 0.0, 0.0, 0.0, 0.0, 0.0, 0.0, 0.0, 1.741979107260586E9, 0.0, 2025-03-14 14:05:07.260
162.0, -21861.883623824553, -7836.8792339419415, -187500.02235174447, -13069.467314418234, 17684.275529894298, 5180.910847295624, -49048.62332923691, 916.1309499896706, -5558.364755912395, 36675.2563923903, 3241.494684397541, 25293.05521166983, -13550.029820207337, -1705.8627850845796, -63811.72702452267, -187500.02235174447, 0.0642265625, 0.99203515625, 0.04853515625, 192.0, 0.0, 0.0, 0.0, 0.0, 0.0, 0.0, 0.0, 0.0, 0.0, 1.741979107260631E9, 0.0, 2025-03-14 14:05:07.260
164.0, -21828.98185598634, -7803.441024236802, -187500.02235174447, -13207.779909107676, 17565.319545903152, 5079.143354790611, -49029.534939472076, 821.3372017547133, -5551.033383731054, 36614.57140619414, 3175.1770585986446, 25221.23905673493, -13596.83437309675, -1724.9064713605014, -63846.48398715067, -187500.02235174447, 0.0642265625, 0.99203515625, 0.04853515625, 192.0, 0.0, 0.0, 0.0, 0.0, 0.0, 0.0, 0.0, 0.0, 0.0, 1.741979107260678E9, 0.0, 2025-03-14 14:05:07.260
166.0, -21846.59503061712, -7811.532355729623, -187500.02235174447, -13076.798686599575, 17675.24542513435, 5169.377347156686, -49031.16661681731, 903.7033800725198, -5581.297645723539, 36657.48675554833, 3213.8008730174156, 25235.41006271959, -13547.995811461904, -1699.045503025711, -63826.30036190753, -187500.02235174447, 0.06511328125, 0.990017578125, 0.050267578125000004, 192.0, 1.0, 8.0, 15.0, 112.0, 0.5, 80.0, 0.0, 0.0, 0.0, 1.741979107321289E9, 0.0, 2025-03-14 14:05:07.321
168.0, -21832.42402463246, -7818.260230810671, -187500.02235174447, -13198.392176436446, 17563.263185413263, 5086.295913016309, -49018.336715499965, 830.121437325649, -5588.6066661604245, 36626.842513900105, 3180.072090634357, 25192.248844176396, -13585.278521213357, -1716.8821951010461, -63845.92519353929, -187500.02235174447, 0.06511328125, 0.990017578125, 0.050267578125000004, 192.0, 0.0, 0.0, 0.0, 0.0, 0.0, 0.0, 0.0, 0.0, 0.0, 1.741979107321406E9, 0.0, 2025-03-14 14:05:07.321
170.0, -21818.543591325713, -7839.650850254399, -187500.02235174447, -13066.941567294785, 17680.65454729254, 5186.610542131727, -49045.69525071326, 919.5284151468773, -5557.738907067645, 36646.288531576225, 3197.9981896875133, 25188.203178429983, -13576.427230409054, -1706.3098199736858, -63826.12154795189, -187500.02235174447, 0.06511328125, 0.990017578125, 0.050267578125000004, 192.0, 0.0, 0.0, 0.0, 0.0, 0.0, 0.0, 0.0, 0.0, 0.0, 1.741979107321484E9, 0.0, 2025-03-14 14:05:07.321
172.0, -21845.61155386109, -7789.180611274316, -187500.02235174447, -13212.630237654477, 17557.47408359934, 5076.9305320895355, -49014.73808464266, 816.6880389080095, -5557.783610556557, 36648.657816488485, 3208.235288648044, 25180.201253914984, -13584.384451435144, -1707.2709449852641, -63820.77948102707, -187500.02235174447, 0.06511328125, 0.990017578125, 0.050267578125000004, 192.0, 0.0, 0.0, 0.0, 0.0, 0.0, 0.0, 0.0, 0.0, 0.0, 1.741979107321553E9, 0.0, 2025-03-14 14:05:07.321
174.0, -21832.289914165725, -7830.911318172374, -187500.02235174447, -13097.921085109841, 17667.221148874898, 5163.431783131574, -49040.68845995527, 892.8404322672407, -5546.115999950886, 36602.50146418827, 3142.2305872715224, 25099.422049453504, -13536.037628178316, -1702.7111891163813, -63873.1272665414, -187500.02235174447, 0.06511328125, 0.990017578125, 0.050267578125000004, 192.0, 0.0, 0.0, 0.0, 0.0, 0.0, 0.0, 0.0, 0.0, 0.0, 1.741979107321629E9, 0.0, 2025-03-14 14:05:07.321
176.0, -21822.835126261132, -7810.571230718045, -187500.02235174447, -13203.443670683346, 17549.181586406423, 5076.438793711519, -49013.03935206406, 815.5480999407888, -5578.280160222073, 36658.89491544902, 3219.388809131242, 25148.50648027736, -13586.396108436122, -1716.9268985899566, -63823.2158211727, -187500.02235174447, 0.064556640625, 0.9860087890625, 0.051133789062500004, 192.0, 1.0, 0.0, 15.0, 88.0, 0.5, 80.0, 0.0, 0.0, 0.0, 1.741979107321713E9, 0.0, 2025-03-14 14:05:07.321
178.0, -21808.239437131815, -7823.043504124106, -187500.02235174447, -13091.21556177325, 17661.92378543899, 5168.527980867384, -49021.73418065717, 902.98812424995, -5560.063488490998, 36583.54718489017, 3125.6455928856844, 25043.67679878197, -13561.898596513105, -1710.1990235089092, -63885.55483645855, -187500.02235174447, 0.064556640625, 0.9860087890625, 0.051133789062500004, 192.0, 0.0, 0.0, 0.0, 0.0, 0.0, 0.0, 0.0, 0.0, 0.0, 1.741979107321798E9, 0.0, 2025-03-14 14:05:07.321
180.0, -21819.66117854848, -7812.247611552193, -187500.02235174447, -13175.28047266966, 17577.99298500931, 5103.350294035708, -49034.36291627442, 844.6724229660539, -5576.3355584544615, 36687.0581134627, 3255.0845450263673, 25141.97977089641, -13589.704166615507, -1700.140738504021, -63795.700823748215, -187500.02235174447, 0.064556640625, 0.9860087890625, 0.051133789062500004, 192.0, 0.0, 0.0, 0.0, 0.0, 0.0, 0.0, 0.0, 0.0, 0.0, 1.741979107380109E9, 0.0, 2025-03-14 14:05:07.380
182.0, -21835.9556002564, -7826.619783236955, -187500.02235174447, -13111.041559105106, 17653.944212668444, 5157.217998172999, -49042.23073032269, 887.9230484870731, -5558.342404167939, 36580.41794066643, 3127.9031190756705, 25008.539856498224, -13561.295099412811, -1710.400189209007, -63881.17389454531, -187500.02235174447, 0.064556640625, 0.9860087890625, 0.051133789062500004, 192.0, 0.0, 0.0, 0.0, 0.0, 0.0, 0.0, 0.0, 0.0, 0.0, 1.741979107380225E9, 0.0, 2025-03-14 14:05:07.380
184.0, -21826.83608851863, -7832.095960628505, -187500.02235174447, -13177.917978515385, 17579.982290265834, 5101.159823079089, -49020.3707242454, 835.217635061459, -5545.356040639405, 36689.3603431416, 3266.4168794652082, 25110.217942025418, -13586.753736347406, -1728.1921777954315, -63797.645425515824, -187500.02235174447, 0.064556640625, 0.9860087890625, 0.051133789062500004, 192.0, 0.0, 0.0, 0.0, 0.0, 0.0, 0.0, 0.0, 0.0, 0.0, 1.741979107380294E9, 0.0, 2025-03-14 14:05:07.380
186.0, -21834.681550822443, -7841.260175855181, -187500.02235174447, -13111.063910849562, 17656.44760804744, 5164.370556398697, -49038.69915469875, 899.3000864148244, -5576.29085496555, 36564.16822244743, 3116.146101492179, 24958.002562284775, -13564.290233169822, -1737.8034279112135, -63893.288540040085, -187500.02235174447, 0.0642783203125, 0.98500439453125, 0.051566894531250004, 192.0, 1.0, 0.0, 15.0, 96.0, 0.5, 80.0, 0.0, 0.0, 0.0, 1.741979107380371E9, 0.0, 2025-03-14 14:05:07.380
188.0, -21825.159707684485, -7840.455513054791, -187500.02235174447, -13147.452550822802, 17606.916142334478, 5125.433817557552, -49023.857596380425, 868.8123069777855, -5581.498811423638, 36710.2145207184, 3299.6092199813393, 25099.15382852004, -13581.188151978035, -1725.7111341608925, -63775.0031083826, -187500.02235174447, 0.0642783203125, 0.98500439453125, 0.051566894531250004, 192.0, 0.0, 0.0, 0.0, 0.0, 0.0, 0.0, 0.0, 0.0, 0.0, 1.741979107380442E9, 0.0, 2025-03-14 14:05:07.380
190.0, -21828.914800752977, -7828.0726466265505, -187500.02235174447, -13141.12700714195, 17630.63134320156, 5137.906090963614, -49028.551462716045, 884.4585280965005, -5557.314223922995, 36557.79797527766, 3115.2967352028772, 24921.144535677977, -13586.97725379196, -1745.5818349816604, -63894.763755174135, -187500.02235174447, 0.0642783203125, 0.98500439453125, 0.051566894531250004, 192.0, 0.0, 0.0, 0.0, 0.0, 0.0, 0.0, 0.0, 0.0, 0.0, 1.741979107380518E9, 0.0, 2025-03-14 14:05:07.380
192.0, -21838.146071213017, -7832.6547542398885, -187500.02235174447, -13130.197004103304, 17629.379645512065, 5142.801122999325, -49027.500930726645, 886.6489990531205, -5539.186959169741, 36715.288366709756, 3294.93770539018, 25066.207357192918, -13566.59246284872, -1668.1330404440214, -63781.12748636335, -187500.02235174447, 0.0642783203125, 0.98500439453125, 0.051566894531250004, 192.0, 0.0, 0.0, 0.0, 0.0, 0.0, 0.0, 0.0, 0.0, 0.0, 1.741979107380593E9, 0.0, 2025-03-14 14:05:07.380
194.0, -21815.7496232688, -7839.337925832025, -187500.02235174447, -13171.771248790175, 17613.77812788226, 5115.889622675136, -49015.65450616533, 863.1796673750481, -5569.495924651137, 36554.02053046472, 3104.1879182085895, 24885.672317227403, -13567.151256460102, -1727.2534045283085, -63903.05625236705, -187500.02235174447, 0.0642783203125, 0.98500439453125, 0.051566894531250004, 192.0, 0.0, 0.0, 0.0, 0.0, 0.0, 0.0, 0.0, 0.0, 0.0, 1.741979107380661E9, 0.0, 2025-03-14 14:05:07.380
196.0, -21851.98180103085, -7848.680955014343, -187500.02235174447, -13134.399132060902, 17632.48653799135, 5136.766151996392, -49016.03448582107, 882.5139263288887, -5570.725270596179, 36705.8112270607, 3282.6218941953057, 25022.353234571605, -13558.009392977881, -1698.8443373256132, -63798.18186738275, -187500.02235174447, 0.060139160156249996, 0.983502197265625, 0.052783447265625005, 192.0, 0.5, 96.0, 15.0, 88.0, 0.5, 88.0, 0.0, 0.0, 0.0, 1.741979107440374E9, 0.0, 2025-03-14 14:05:07.440
198.0, -21849.99249577433, -7837.326268831047, -187500.02235174447, -13157.197911405316, 17622.517659964284, 5131.535843793851, -49034.4746749967, 884.9055629856066, -5593.501698196137, 36560.54723984566, 3113.486243901997, 24860.236032037265, -13569.140561716624, -1742.0949628466324, -63903.10095585597, -187500.02235174447, 0.060139160156249996, 0.983502197265625, 0.052783447265625005, 192.0, 0.0, 0.0, 0.0, 0.0, 0.0, 0.0, 0.0, 0.0, 0.0, 1.741979107440458E9, 0.0, 2025-03-14 14:05:07.440
200.0, -21841.90116428151, -7842.020135166662, -187500.02235174447, -13095.104765308472, 17656.268794091797, 5161.643643575149, -49030.920747628305, 915.5051011449219, -5555.570787855481, 36724.296119725244, 3312.2156038541325, 25020.073356637164, -13593.593370150731, -1706.756854862792, -63767.09059084542, -187500.02235174447, 0.060139160156249996, 0.983502197265625, 0.052783447265625005, 192.0, 0.0, 0.0, 0.0, 0.0, 0.0, 0.0, 0.0, 0.0, 0.0, 1.741979107440514E9, 0.0, 2025-03-14 14:05:07.440
202.0, -21801.8468382176, -7822.216489579259, -187500.02235174447, -13197.878086313975, 17585.570226379663, 5088.195811295011, -49017.46499746621, 852.3837748031349, -5564.824410059979, 36568.57151610512, 3124.8632818297488, 24838.599543404525, -13581.92575954506, -1729.9579656074006, -63894.24966505166, -187500.02235174447, 0.060139160156249996, 0.983502197265625, 0.052783447265625005, 192.0, 0.0, 0.0, 0.0, 0.0, 0.0, 0.0, 0.0, 0.0, 0.0, 1.741979107440571E9, 0.0, 2025-03-14 14:05:07.440
204.0, -21834.905068267, -7843.31653634507, -187500.02235174447, -13096.803497887076, 17669.836302976168, 5161.420126130596, -49038.14036108737, 913.5828511217655, -5563.438601903749, 36684.46531110589, 3255.397469448742, 24931.426338127418, -13533.288363610312, -1703.4487966834065, -63824.62398107338, -187500.02235174447, 0.060139160156249996, 0.983502197265625, 0.052783447265625005, 192.0, 0.0, 0.0, 0.0, 0.0, 0.0, 0.0, 0.0, 0.0, 0.0, 1.741979107440621E9, 0.0, 2025-03-14 14:05:07.440
206.0, -21822.253980905294, -7837.0580478975835, -187500.02235174447, -13183.260045440204, 17598.288368974732, 5114.548518007818, -49018.11319805541, 873.3050076133022, -5564.466782148693, 36608.938766591404, 3163.978834626536, 24846.042674308144, -13586.440811925033, -1733.8918726315349, -63861.92904256929, -187500.02235174447, 0.060069580078125, 0.9847510986328125, 0.051391723632812504, 192.0, 0.5, 112.0, 15.0, 104.0, 0.5, 72.0, 0.0, 0.0, 0.0, 1.741979107440666E9, 0.0, 2025-03-14 14:05:07.440
208.0, -21831.84287927662, -7838.421504309357, -187500.02235174447, -13092.579018185023, 17666.59530003015, 5168.7962018008475, -49027.74679991565, 916.4885779009555, -5560.175247213274, 36691.103779209116, 3256.492704927052, 24904.91716920342, -13560.289270912323, -1717.6198026680713, -63814.69980653522, -187500.02235174447, 0.060069580078125, 0.9847510986328125, 0.051391723632812504, 192.0, 0.0, 0.0, 0.0, 0.0, 0.0, 0.0, 0.0, 0.0, 0.0, 1.741979107440722E9, 0.0, 2025-03-14 14:05:07.440
210.0, -21814.900256979497, -7833.571175762556, -187500.02235174447, -13197.721624102787, 17584.095011245612, 5101.070416101267, -49024.55050045854, 857.9493591725063, -5570.568808384992, 36609.72107764734, 3155.462819989064, 24807.016528489177, -13589.16772474858, -1732.751933664314, -63877.82113287701, -187500.02235174447, 0.060069580078125, 0.9847510986328125, 0.051391723632812504, 192.0, 0.0, 0.0, 0.0, 0.0, 0.0, 0.0, 0.0, 0.0, 0.0, 1.741979107503475E9, 0.0, 2025-03-14 14:05:07.503
212.0, -21854.261678965293, -7850.938481204329, -187500.02235174447, -13067.947395795274, 17694.937311999478, 5192.846678834758, -49038.00625062064, 941.5895869242653, -5551.972156998177, 36695.015334488795, 3251.26239672451, 24873.378857776985, -13554.097837698202, -1684.9639040188677, -63816.39853911383, -187500.02235174447, 0.060069580078125, 0.9847510986328125, 0.051391723632812504, 192.0, 0.0, 0.0, 0.0, 0.0, 0.0, 0.0, 0.0, 0.0, 0.0, 1.741979107503541E9, 0.0, 2025-03-14 14:05:07.503
214.0, -21836.357931656592, -7824.518719258156, -187500.02235174447, -13195.061766512605, 17577.702412331393, 5098.1199858331665, -49017.59910793294, 860.0727748957605, -5579.48715442266, 36638.33131055014, 3190.7338727395386, 24810.726918068758, -13594.532143417853, -1737.7140209333922, -63854.73178085468, -187500.02235174447, 0.060069580078125, 0.9847510986328125, 0.051391723632812504, 192.0, 0.0, 0.0, 0.0, 0.0, 0.0, 0.0, 0.0, 0.0, 0.0, 1.741979107503594E9, 0.0, 2025-03-14 14:05:07.503
216.0, -21813.849724990097, -7834.889928685418, -187500.02235174447, -13066.069849261028, 17693.953835243447, 5192.869030579213, -49033.6253087074, 943.3777264806898, -5583.756337613623, 36677.469215091376, 3229.692963325139, 24834.0621392801, -13560.959823245981, -1716.5245671897612, -63830.793062543045, -187500.02235174447, 0.061034790039062495, 0.9863755493164063, 0.05169586181640626, 192.0, 0.5, 120.0, 15.0, 112.0, 0.5, 80.0, 0.0, 0.0, 0.0, 1.741979107503639E9, 0.0, 2025-03-14 14:05:07.503
218.0, -21824.04212046172, -7822.998800635195, -187500.02235174447, -13195.70996710181, 17577.925929775945, 5098.857593400192, -49013.12875904188, 860.6539202515985, -5574.525067153581, 36648.76957521076, 3205.0613409353905, 24805.116630210476, -13591.604064894209, -1740.4185820124844, -63851.58018488648, -187500.02235174447, 0.061034790039062495, 0.9863755493164063, 0.05169586181640626, 192.0, 0.0, 0.0, 0.0, 0.0, 0.0, 0.0, 0.0, 0.0, 0.0, 1.741979107503694E9, 0.0, 2025-03-14 14:05:07.503
220.0, -21840.85063229211, -7847.31749860257, -187500.02235174447, -13067.321546950525, 17692.992710231865, 5191.6843881230825, -49040.95668088874, 942.148380535648, -5543.456142360705, 36655.40804331399, 3206.6036113028067, 24792.778467271146, -13575.399050164111, -1685.790918563714, -63849.25560346313, -187500.02235174447, 0.061034790039062495, 0.9863755493164063, 0.05169586181640626, 192.0, 0.0, 0.0, 0.0, 0.0, 0.0, 0.0, 0.0, 0.0, 0.0, 1.741979107503749E9, 0.0, 2025-03-14 14:05:07.503
222.0, -21803.65732951848, -7810.92885862933, -187500.02235174447, -13204.114223017004, 17564.738400547314, 5081.669101914061, -49004.59039265995, 841.3196612977579, -5528.368714853373, 36671.76952025527, 3231.4811028815634, 24808.91642676788, -13583.423326423566, -1721.3301922476521, -63839.13026322488, -187500.02235174447, 0.061034790039062495, 0.9863755493164063, 0.05169586181640626, 192.0, 0.0, 0.0, 0.0, 0.0, 0.0, 0.0, 0.0, 0.0, 0.0, 1.741979107503804E9, 0.0, 2025-03-14 14:05:07.503
224.0, -21840.381245658547, -7833.861748440475, -187500.02235174447, -13073.669442375833, 17689.125858441097, 5185.045920019856, -49033.737067429676, 935.8228368547962, -5582.415232946305, 36629.68118544593, 3170.013805629469, 24742.062359102056, -13550.387448118621, -1719.9220323469679, -63884.347842257965, -187500.02235174447, 0.061034790039062495, 0.9863755493164063, 0.05169586181640626, 192.0, 0.0, 0.0, 0.0, 0.0, 0.0, 0.0, 0.0, 0.0, 0.0, 1.741979107503857E9, 0.0, 2025-03-14 14:05:07.503
226.0, -21815.92843722444, -7799.752986401676, -187500.02235174447, -13199.286246214659, 17564.537234847216, 5086.318264760765, -49002.86930833689, 849.12042011266, -5590.417157461305, 36686.56637508469, 3247.842579822848, 24801.249778419708, -13584.429154924055, -1719.7432183913254, -63838.92909752478, -187500.02235174447, 0.06151739501953125, 0.9871877746582032, 0.05084793090820313, 192.0, 0.5, 120.0, 15.0, 112.0, 0.5, 72.0, 0.0, 0.0, 0.0, 1.741979107559893E9, 0.0, 2025-03-14 14:05:07.559
228.0, -21819.08003319264, -7828.832605938031, -187500.02235174447, -13078.609177900456, 17681.190989159466, 5187.996350287956, -49041.80604717804, 943.1765607805921, -5554.922587266277, 36619.13116206302, 3158.3238432793432, 24714.726175633215, -13573.186227463035, -1717.820968368169, -63894.58494121849, -187500.02235174447, 0.06151739501953125, 0.9871877746582032, 0.05084793090820313, 192.0, 0.0, 0.0, 0.0, 0.0, 0.0, 0.0, 0.0, 0.0, 0.0, 1.741979107559963E9, 0.0, 2025-03-14 14:05:07.559
230.0, -21835.016826989275, -7820.495405256201, -187500.02235174447, -13186.903379786418, 17579.311737932174, 5096.778881165848, -49008.07726479498, 858.2622835948806, -5549.62522383037, 36710.102761996124, 3270.8201731229037, 24808.223522689765, -13582.104573500703, -1728.8403783846354, -63827.90968750831, -187500.02235174447, 0.06151739501953125, 0.9871877746582032, 0.05084793090820313, 192.0, 0.0, 0.0, 0.0, 0.0, 0.0, 0.0, 0.0, 0.0, 0.0, 1.741979107560024E9, 0.0, 2025-03-14 14:05:07.560
232.0, -21807.345367353602, -7820.115425600461, -187500.02235174447, -13121.368065043458, 17650.367933555597, 5149.618405058194, -49021.197738790244, 904.9997812509276, -5547.747677296124, 36602.166188021445, 3134.42982845662, 24681.533835117083, -13566.391297148622, -1712.6800671434485, -63915.662636239846, -187500.02235174447, 0.06151739501953125, 0.9871877746582032, 0.05084793090820313, 192.0, 0.0, 0.0, 0.0, 0.0, 0.0, 0.0, 0.0, 0.0, 0.0, 1.74197910756007E9, 0.0, 2025-03-14 14:05:07.560
234.0, -21829.11596645307, -7819.288411055614, -187500.02235174447, -13178.499123871223, 17580.85400829959, 5097.9411718775245, -49009.44072120675, 857.6587864945873, -5575.195619487241, 36707.107628239115, 3260.940702073658, 24784.48597007823, -13575.644919353119, -1726.046410327722, -63847.556870884524, -187500.02235174447, 0.06151739501953125, 0.9871877746582032, 0.05084793090820313, 192.0, 0.0, 0.0, 0.0, 0.0, 0.0, 0.0, 0.0, 0.0, 0.0, 1.741979107560122E9, 0.0, 2025-03-14 14:05:07.560
236.0, -21809.26761737676, -7812.560535974567, -187500.02235174447, -13151.565271802578, 17631.570116468683, 5122.729256478459, -49023.81289289152, 882.089243184238, -5574.659177620313, 36580.59675462208, 3108.6359153551957, 24643.848793965437, -13560.602195334697, -1735.5682534656828, -63939.80252025158, -187500.02235174447, 0.059758697509765625, 0.9865938873291016, 0.04942396545410156, 192.0, 0.5, 104.0, 15.0, 104.0, 0.5, 64.0, 0.0, 0.0, 0.0, 1.741979107560173E9, 0.0, 2025-03-14 14:05:07.560
238.0, -21822.343387883117, -7837.303917086592, -187500.02235174447, -13150.246518879714, 17612.19115402593, 5117.364837809186, -49026.94213711526, 879.474089082967, -5551.301604664517, 36722.552683657734, 3277.45864122613, 24781.04380143211, -13572.806247807295, -1710.3778374645517, -63841.007809759125, -187500.02235174447, 0.059758697509765625, 0.9865938873291016, 0.04942396545410156, 192.0, 0.0, 0.0, 0.0, 0.0, 0.0, 0.0, 0.0, 0.0, 0.0, 1.741979107560222E9, 0.0, 2025-03-14 14:05:07.560
240.0, -21809.379376099037, -7826.418617536858, -187500.02235174447, -13137.997762918207, 17638.365046783096, 5140.409486342608, -49026.80802664853, 900.8423567822406, -5570.501753151626, 36583.83775756809, 3111.273421200922, 24632.78468046006, -13577.142486231623, -1747.884064660557, -63941.590659808004, -187500.02235174447, 0.059758697509765625, 0.9865938873291016, 0.04942396545410156, 192.0, 0.0, 0.0, 0.0, 0.0, 0.0, 0.0, 0.0, 0.0, 0.0, 1.741979107619748E9, 0.0, 2025-03-14 14:05:07.619
242.0, -21834.010998488786, -7812.962867374763, -187500.02235174447, -13150.604146791, 17612.034691814744, 5116.224898841965, -49014.73808464266, 874.2884843693357, -5544.8195987724785, 36738.10949779862, 3296.3011618019536, 24787.592862557514, -13582.462201411987, -1685.9920842638116, -63825.763920040605, -187500.02235174447, 0.059758697509765625, 0.9865938873291016, 0.04942396545410156, 192.0, 0.0, 0.0, 0.0, 0.0, 0.0, 0.0, 0.0, 0.0, 0.0, 1.741979107619849E9, 0.0, 2025-03-14 14:05:07.619
244.0, -21804.93137895243, -7827.446797781801, -187500.02235174447, -13168.194969677326, 17610.984159825344, 5113.6767999740605, -49014.983953831674, 870.6227982786654, -5573.116907252897, 36559.4296526229, 3086.664150555629, 24596.06076431999, -13565.944262259516, -1737.982241866856, -63973.128971234444, -187500.02235174447, 0.059758697509765625, 0.9865938873291016, 0.04942396545410156, 192.0, 0.0, 0.0, 0.0, 0.0, 0.0, 0.0, 0.0, 0.0, 0.0, 1.741979107619904E9, 0.0, 2025-03-14 14:05:07.619
246.0, -21830.12179495356, -7826.955059403785, -187500.02235174447, -13109.208716059771, 17642.25425031832, 5152.21120741501, -49023.41056149132, 904.0386562393495, -5556.040174489042, 36741.8198873782, 3300.9279729042023, 24782.60842354398, -13577.567169376276, -1710.4225409534624, -63828.9155160088, -187500.02235174447, 0.06187934875488281, 0.9842969436645508, 0.04871198272705078, 192.0, 1.0, 0.0, 15.0, 88.0, 0.5, 64.0, 0.0, 0.0, 0.0, 1.741979107619957E9, 0.0, 2025-03-14 14:05:07.619
248.0, -21808.530009809736, -7824.295201813603, -187500.02235174447, -13162.137646929938, 17611.54295343673, 5123.82449195677, -49014.51456719811, 879.9658274609837, -5566.076107749475, 36594.00780129526, 3125.0867992743015, 24628.02375889108, -13603.875172600172, -1748.5546169942163, -63935.2874678716, -187500.02235174447, 0.06187934875488281, 0.9842969436645508, 0.04871198272705078, 192.0, 0.0, 0.0, 0.0, 0.0, 0.0, 0.0, 0.0, 0.0, 0.0, 1.741979107620009E9, 0.0, 2025-03-14 14:05:07.620
250.0, -21828.378358886046, -7831.69362922831, -187500.02235174447, -13103.486669479213, 17650.859671933613, 5156.435687117063, -49019.47665446719, 904.2398219394472, -5533.979002711654, 36735.471991952894, 3291.7637576775264, 24769.33148733753, -13571.889826284627, -1688.6742935984487, -63832.603553843925, -187500.02235174447, 0.06187934875488281, 0.9842969436645508, 0.04871198272705078, 192.0, 0.0, 0.0, 0.0, 0.0, 0.0, 0.0, 0.0, 0.0, 0.0, 1.741979107620055E9, 0.0, 2025-03-14 14:05:07.620
252.0, -21811.45808833338, -7818.170823832849, -187500.02235174447, -13209.344531219547, 17574.014374496266, 5083.725462403949, -49013.03935206406, 834.7706001723528, -5589.433680705271, 36582.04961801167, 3111.6534008566623, 24608.041299348035, -13578.662404854585, -1734.852997643113, -63957.393343137905, -187500.02235174447, 0.06187934875488281, 0.9842969436645508, 0.04871198272705078, 192.0, 0.0, 0.0, 0.0, 0.0, 0.0, 0.0, 0.0, 0.0, 0.0, 1.741979107620099E9, 0.0, 2025-03-14 14:05:07.620
254.0, -21843.197565459915, -7838.421504309357, -187500.02235174447, -13076.150486010372, 17681.772134515304, 5185.537658397872, -49034.60878546343, 925.8986623166397, -5569.987663029154, 36711.82384631918, 3264.4052224642305, 24736.697940432783, -13559.864587767672, -1707.4721106853617, -63859.49270242366, -187500.02235174447, 0.06187934875488281, 0.9842969436645508, 0.04871198272705078, 192.0, 0.0, 0.0, 0.0, 0.0, 0.0, 0.0, 0.0, 0.0, 0.0, 1.741979107620148E9, 0.0, 2025-03-14 14:05:07.620
0.0, -21828.803042030697, -7819.176652333338, -187500.02235174447, -13182.835362295553, 17590.800534582202, 5111.732198206449, -49008.39018921735, 859.1116498841823, -5575.016805531598, 36622.34981326459, 3169.097384106801, 24653.035360936567, -13591.715823616485, -1749.6498524725262, -63907.16897334683, -187500.02235174447, 0.06293967437744141, 0.9861484718322754, 0.04635599136352539, 192.0, 1.0, 0.0, 15.0, 112.0, 0.5, 48.0, 0.0, 0.0, 0.0, 1.741979107680116E9, 0.0, 2025-03-14 14:05:07.680
2.0, -21806.026614430742, -7812.471128996745, -187500.02235174447, -13076.418706943836, 17677.100619924142, 5181.871972307203, -49017.08501781047, 921.0036302809275, -5539.522235336571, 36709.342802684645, 3270.3060830004315, 24732.69697817528, -13566.145427959613, -1705.9968955513116, -63850.864929063915, -187500.02235174447, 0.06293967437744141, 0.9861484718322754, 0.04635599136352539, 192.0, 0.0, 0.0, 0.0, 0.0, 0.0, 0.0, 0.0, 0.0, 0.0, 1.741979107680241E9, 0.0, 2025-03-14 14:05:07.680
4.0, -21813.335634867624, -7819.221355822248, -187500.02235174447, -13193.608903123011, 17571.578034350638, 5100.332808534242, -49003.00341880362, 850.573283502255, -5566.724308338679, 36632.20693256938, 3180.653235990195, 24654.488224326164, -13611.787690137351, -1716.4575119563954, -63908.75594720316, -187500.02235174447, 0.06293967437744141, 0.9861484718322754, 0.04635599136352539, 192.0, 0.0, 0.0, 0.0, 0.0, 0.0, 0.0, 0.0, 0.0, 0.0, 1.741979107680285E9, 0.0, 2025-03-14 14:05:07.680
6.0, -21823.215105916872, -7827.69266697081, -187500.02235174447, -13083.750079125177, 17672.250291377342, 5171.187838457566, -49020.728352156686, 913.7840168218634, -5578.503677666626, 36690.99202048684, 3241.6958500976384, 24706.679547629305, -13569.229968694446, -1680.2029824498873, -63873.998984575155, -187500.02235174447, 0.06293967437744141, 0.9861484718322754, 0.04635599136352539, 192.0, 0.0, 0.0, 0.0, 0.0, 0.0, 0.0, 0.0, 0.0, 0.0, 1.741979107680334E9, 0.0, 2025-03-14 14:05:07.680
8.0, -21838.883678780043, -7821.858861667974, -187500.02235174447, -13217.972304579294, 17550.70150502938, 5071.163782020067, -48992.78867158755, 827.215710546459, -5595.334541241472, 36633.05629885868, 3176.652273732695, 24653.59415454795, -13583.199808979012, -1728.4380469844398, -63928.42548232383, -187500.02235174447, 0.06293967437744141, 0.9861484718322754, 0.04635599136352539, 192.0, 0.0, 0.0, 0.0, 0.0, 0.0, 0.0, 0.0, 0.0, 0.0, 1.741979107680394E9, 0.0, 2025-03-14 14:05:07.680
10.0, -21829.585353086633, -7838.734428731732, -187500.02235174447, -13072.708317364255, 17679.96164321442, 5178.876838550191, -49023.56702370251, 930.7489908634413, -5554.229683188162, 36673.28943887824, 3211.006904960502, 24684.439561896274, -13569.431134394543, -1711.0260380537557, -63906.78899369109, -187500.02235174447, 0.062469837188720706, 0.9830742359161377, 0.046177995681762694, 192.0, 0.5, 120.0, 15.0, 80.0, 0.5, 56.0, 0.0, 0.0, 0.0, 1.741979107680453E9, 0.0, 2025-03-14 14:05:07.680
12.0, -21812.598027300603, -7808.06783533905, -187500.02235174447, -13179.728469816266, 17581.993947266812, 5103.551459735806, -49015.810968376514, 866.9794639324504, -5553.045040732031, 36680.397293615024, 3228.083637724357, 24701.113963259933, -13617.241515784444, -1734.6741836874705, -63894.49553424067, -187500.02235174447, 0.062469837188720706, 0.9830742359161377, 0.046177995681762694, 192.0, 0.0, 0.0, 0.0, 0.0, 0.0, 0.0, 0.0, 0.0, 0.0, 1.741979107680503E9, 0.0, 2025-03-14 14:05:07.680
14.0, -21790.179227611927, -7816.78501567662, -187500.02235174447, -13052.43528514329, 17696.993672489367, 5196.26649573642, -49026.53980571507, 949.5244562058994, -5571.395822929839, 36675.010523201294, 3212.236250905544, 24686.182997963788, -13584.384451435144, -1669.2282759223315, -63898.49649649817, -187500.02235174447, 0.062469837188720706, 0.9830742359161377, 0.046177995681762694, 192.0, 0.0, 0.0, 0.0, 0.0, 0.0, 0.0, 0.0, 0.0, 0.0, 1.741979107740336E9, 0.0, 2025-03-14 14:05:07.740
16.0, -21815.61551280207, -7819.333114544525, -187500.02235174447, -13177.001556992718, 17577.81417105367, 5101.740968434927, -49006.2667734941, 864.7442894869197, -5598.955523843232, 36706.057096249715, 3254.682213626172, 24725.45501297176, -13606.535030190353, -1727.1863492949426, -63872.30025199655, -187500.02235174447, 0.062469837188720706, 0.9830742359161377, 0.046177995681762694, 192.0, 0.0, 0.0, 0.0, 0.0, 0.0, 0.0, 0.0, 0.0, 0.0, 1.741979107740386E9, 0.0, 2025-03-14 14:05:07.740
18.0, -21824.712672795376, -7823.825815180042, -187500.02235174447, -13077.513942422145, 17681.123933926097, 5177.669844349604, -49023.00823009112, 934.8170083543073, -5568.3559856839165, 36648.92603742195, 3174.998244643002, 24649.101453912433, -13578.617701365674, -1709.2155467528758, -63925.22918286672, -187500.02235174447, 0.062469837188720706, 0.9830742359161377, 0.046177995681762694, 192.0, 0.0, 0.0, 0.0, 0.0, 0.0, 0.0, 0.0, 0.0, 0.0, 1.741979107740431E9, 0.0, 2025-03-14 14:05:07.740
20.0, -21812.70978602288, -7813.968695875252, -187500.02235174447, -13175.883969769951, 17578.216502453866, 5098.365855022175, -49001.774072858585, 865.6607110095872, -5552.061563975998, 36730.0181663058, 3275.0446528249568, 24736.697940432783, -13597.54962891932, -1714.177634021954, -63860.565586157514, -187500.02235174447, 0.06123491859436035, 0.9845371179580689, 0.047088997840881344, 192.0, 0.5, 112.0, 15.0, 104.0, 0.5, 64.0, 0.0, 0.0, 0.0, 1.741979107740494E9, 0.0, 2025-03-14 14:05:07.740
22.0, -21807.144201653507, -7802.166974802849, -187500.02235174447, -13079.480895934212, 17667.422314574997, 5169.35499541223, -49010.75947412962, 933.8335315982738, -5573.183962486263, 36636.31965354916, 3156.781572911927, 24631.287113581555, -13584.049175268314, -1703.5829071501385, -63940.696590029795, -187500.02235174447, 0.06123491859436035, 0.9845371179580689, 0.047088997840881344, 192.0, 0.0, 0.0, 0.0, 0.0, 0.0, 0.0, 0.0, 0.0, 0.0, 1.741979107740542E9, 0.0, 2025-03-14 14:05:07.740
24.0, -21794.761335225267, -7803.821003892542, -187500.02235174447, -13138.958887929784, 17593.259226472288, 5115.82256744177, -49017.39794223284, 885.0396734523384, -5590.573619672492, 36750.20179154895, 3294.1777460787, 24755.316943564052, -13605.708015645507, -1691.557668633183, -63851.71429535322, -187500.02235174447, 0.06123491859436035, 0.9845371179580689, 0.047088997840881344, 192.0, 0.0, 0.0, 0.0, 0.0, 0.0, 0.0, 0.0, 0.0, 0.0, 1.741979107740595E9, 0.0, 2025-03-14 14:05:07.740
26.0, -21781.819675185645, -7803.1280998144275, -187500.02235174447, -13087.371061726935, 17655.15120686903, 5160.347242396741, -49014.8721951094, 928.7596856069191, -5557.917721023288, 36633.72685119234, 3148.198503041089, 24626.615598990393, -13576.650747853608, -1684.8744970410464, -63943.84818599799, -187500.02235174447, 0.06123491859436035, 0.9845371179580689, 0.047088997840881344, 192.0, 0.0, 0.0, 0.0, 0.0, 0.0, 0.0, 0.0, 0.0, 0.0, 1.741979107740642E9, 0.0, 2025-03-14 14:05:07.740
28.0, -21782.6913932194, -7802.390492247402, -187500.02235174447, -13128.922954669351, 17604.01041555529, 5125.255003601909, -49006.64675314984, 894.2262404234697, -5568.713613595201, 36769.84897492516, 3309.3545805638532, 24769.219728615255, -13592.073451527769, -1677.3866626485185, -63842.79594931554, -187500.02235174447, 0.06123491859436035, 0.9845371179580689, 0.047088997840881344, 192.0, 0.0, 0.0, 0.0, 0.0, 0.0, 0.0, 0.0, 0.0, 0.0, 1.741979107740692E9, 0.0, 2025-03-14 14:05:07.740
30.0, -21784.07720137563, -7800.289428268604, -187500.02235174447, -13105.721843924743, 17642.075436362677, 5151.54065508135, -49014.71573289821, 917.248537212436, -5553.357965154406, 36629.30120579019, 3136.4191337131424, 24617.451383763717, -13583.132753745647, -1698.5761163921495, -63957.16982569335, -187500.02235174447, 0.061617459297180176, 0.9842685589790344, 0.04654449892044067, 192.0, 0.5, 120.0, 15.0, 96.0, 0.5, 56.0, 0.0, 0.0, 0.0, 1.741979107800619E9, 0.0, 2025-03-14 14:05:07.800
32.0, -21791.02859390123, -7791.549896186579, -187500.02235174447, -13105.49832648019, 17623.81406114269, 5145.908015478613, -49014.156939286826, 907.9502115190282, -5547.993546485132, 36790.07730365721, 3323.5702900374285, 24782.586071799527, -13587.513695658887, -1686.2379534528202, -63837.74445506865, -187500.02235174447, 0.061617459297180176, 0.9842685589790344, 0.04654449892044067, 192.0, 0.0, 0.0, 0.0, 0.0, 0.0, 0.0, 0.0, 0.0, 0.0, 1.741979107800737E9, 0.0, 2025-03-14 14:05:07.800
34.0, -21765.97228836683, -7787.571285673534, -187500.02235174447, -13118.663503964366, 17624.10463382061, 5143.471675332985, -49010.088921795956, 903.2339934389584, -5559.996433257632, 36630.754069179784, 3135.4580087015643, 24614.523305240073, -13598.555457419809, -1713.7976543662137, -63965.28350893063, -187500.02235174447, 0.061617459297180176, 0.9842685589790344, 0.04654449892044067, 192.0, 0.0, 0.0, 0.0, 0.0, 0.0, 0.0, 0.0, 0.0, 0.0, 1.741979107800808E9, 0.0, 2025-03-14 14:05:07.800
36.0, -21817.18013491394, -7810.0571405955725, -187500.02235174447, -13079.547951167579, 17639.594392728137, 5169.846733790247, -49012.99464857515, 922.4341419260671, -5571.976968285677, 36786.97041117793, 3325.447836571674, 24783.927176466845, -13582.059870011792, -1666.3001973986861, -63845.34404818345, -187500.02235174447, 0.061617459297180176, 0.9842685589790344, 0.04654449892044067, 192.0, 0.0, 0.0, 0.0, 0.0, 0.0, 0.0, 0.0, 0.0, 0.0, 1.741979107800864E9, 0.0, 2025-03-14 14:05:07.800
38.0, -21794.940149180908, -7815.68978019831, -187500.02235174447, -13121.88215516593, 17619.58958144064, 5150.691288792049, -49002.042293792045, 903.7033800725198, -5579.084823022464, 36645.64033098702, 3157.429773501131, 24643.40175907633, -13593.571018406275, -1728.4380469844398, -63944.02699995363, -187500.02235174447, 0.061617459297180176, 0.9842685589790344, 0.04654449892044067, 192.0, 0.0, 0.0, 0.0, 0.0, 0.0, 0.0, 0.0, 0.0, 0.0, 1.741979107800908E9, 0.0, 2025-03-14 14:05:07.800
40.0, -21823.99741697281, -7824.518719258156, -187500.02235174447, -13063.275881204116, 17657.92282318149, 5187.705777610037, -49016.28035501008, 933.4312001980783, -5562.097497236431, 36798.77213225033, 3338.836531500403, 24801.026260975155, -13584.451506668509, -1694.0610640121777, -63830.77071079859, -187500.02235174447, 0.05980872964859009, 0.9871342794895173, 0.047272249460220336, 192.0, 0.5, 104.0, 15.0, 120.0, 0.5, 64.0, 0.0, 0.0, 0.0, 1.741979107800955E9, 0.0, 2025-03-14 14:05:07.800
42.0, -21792.950843924387, -7793.963884587752, -187500.02235174447, -13152.481693325246, 17597.34959570761, 5124.91972743508, -49001.03646529156, 875.473126825467, -5561.091668735942, 36645.90855192048, 3151.9982995984915, 24639.221982863186, -13587.759564847895, -1708.8802705860462, -63953.1465116914, -187500.02235174447, 0.05980872964859009, 0.9871342794895173, 0.047272249460220336, 192.0, 0.0, 0.0, 0.0, 0.0, 0.0, 0.0, 0.0, 0.0, 0.0, 1.741979107801006E9, 0.0, 2025-03-14 14:05:07.801
44.0, -21802.02565217324, -7816.695608698798, -187500.02235174447, -13070.003756285163, 17656.73818072536, 5177.468678649507, -49011.25121250763, 919.9978017804387, -5539.544587081026, 36782.52241403132, 3303.230202583099, 24771.34314433851, -13580.15997173309, -1695.0445407682112, -63862.174911758295, -187500.02235174447, 0.05980872964859009, 0.9871342794895173, 0.047272249460220336, 192.0, 0.0, 0.0, 0.0, 0.0, 0.0, 0.0, 0.0, 0.0, 0.0, 1.741979107860883E9, 0.0, 2025-03-14 14:05:07.860
46.0, -21777.885768161508, -7790.7452333861875, -187500.02235174447, -13168.686708055344, 17573.47793262934, 5110.882831917147, -49000.07534027998, 858.5975597617102, -5586.460898692715, 36657.5538107817, 3153.9652531105585, 24647.693294011748, -13598.421346953077, -1699.7160553593703, -63958.935613505324, -187500.02235174447, 0.05980872964859009, 0.9871342794895173, 0.047272249460220336, 192.0, 0.0, 0.0, 0.0, 0.0, 0.0, 0.0, 0.0, 0.0, 0.0, 1.741979107860949E9, 0.0, 2025-03-14 14:05:07.860
48.0, -21844.426911404957, -7840.187292121326, -187500.02235174447, -13044.098084461462, 17671.333869854676, 5200.110995782733, -49018.11319805541, 940.0920200457598, -5570.322939195984, 36773.76053020484, 3282.9348186176803, 24759.720237221747, -13566.21248319298, -1690.1271569880435, -63882.02326083461, -187500.02235174447, 0.05980872964859009, 0.9871342794895173, 0.047272249460220336, 192.0, 0.0, 0.0, 0.0, 0.0, 0.0, 0.0, 0.0, 0.0, 0.0, 1.741979107860995E9, 0.0, 2025-03-14 14:05:07.860
50.0, -21792.36969856855, -7820.294239556103, -187500.02235174447, -13162.405867863401, 17570.214577938867, 5117.163672109088, -48992.63220937637, 870.2428186229251, -5599.603724432436, 36694.590651344144, 3196.880602464748, 24694.587253878984, -13619.923725119083, -1739.7480296788253, -63925.29623810008, -187500.02235174447, 0.05890436482429505, 0.9875671397447586, 0.04663612473011017, 192.0, 0.5, 104.0, 15.0, 112.0, 0.5, 56.0, 0.0, 0.0, 0.0, 1.741979107861044E9, 0.0, 2025-03-14 14:05:07.861
52.0, -21840.98474275884, -7831.2465943392035, -187500.02235174447, -13035.157386679339, 17687.315367140218, 5207.084740052788, -49026.33864001497, 949.7703253949077, -5560.24230244664, 36758.136660830576, 3266.55098993194, 24753.260583074163, -13576.181361220046, -1689.210735465376, -63895.07667959651, -187500.02235174447, 0.05890436482429505, 0.9875671397447586, 0.04663612473011017, 192.0, 0.0, 0.0, 0.0, 0.0, 0.0, 0.0, 0.0, 0.0, 0.0, 1.741979107861099E9, 0.0, 2025-03-14 14:05:07.861
54.0, -21814.050890690196, -7820.07072211155, -187500.02235174447, -13154.292184626125, 17573.0979529736, 5125.098541390722, -49007.294953739045, 876.0766239257604, -5591.19946851724, 36713.72374459788, 3212.459768350097, 24714.36854772193, -13609.485460458454, -1714.5352619332389, -63917.1378513739, -187500.02235174447, 0.05890436482429505, 0.9875671397447586, 0.04663612473011017, 192.0, 0.0, 0.0, 0.0, 0.0, 0.0, 0.0, 0.0, 0.0, 0.0, 1.741979107861145E9, 0.0, 2025-03-14 14:05:07.861
56.0, -21837.296704923716, -7837.281565342137, -187500.02235174447, -13014.258505613627, 17698.87121902361, 5231.4257897646185, -49026.49510222615, 972.4796977614997, -5591.2441720061515, 36761.221201565415, 3258.9290450726803, 24754.869908674948, -13589.726518359963, -1681.8793632840352, -63890.04753709406, -187500.02235174447, 0.05890436482429505, 0.9875671397447586, 0.04663612473011017, 192.0, 0.0, 0.0, 0.0, 0.0, 0.0, 0.0, 0.0, 0.0, 0.0, 1.741979107861202E9, 0.0, 2025-03-14 14:05:07.861
58.0, -21817.962445969875, -7825.278678569637, -187500.02235174447, -13148.726600256754, 17577.367136164565, 5136.117951407189, -48994.88973556635, 885.665522297087, -5591.400634217338, 36751.81111714973, 3250.1224577572893, 24753.215879585252, -13615.140451805646, -1728.2368812843422, -63886.91829287032, -187500.02235174447, 0.05890436482429505, 0.9875671397447586, 0.04663612473011017, 192.0, 0.0, 0.0, 0.0, 0.0, 0.0, 0.0, 0.0, 0.0, 0.0, 1.741979107861254E9, 0.0, 2025-03-14 14:05:07.861
60.0, -21804.618454530057, -7831.268946083659, -187500.02235174447, -13024.316790618515, 17686.667166551015, 5226.933089129101, -49013.12875904188, 965.2377325579802, -5569.026538017576, 36742.490439711866, 3231.1905302036444, 24732.45110898627, -13579.757640332895, -1703.0017617943004, -63911.21463909324, -187500.02235174447, 0.060452182412147525, 0.9857835698723794, 0.047318062365055084, 192.0, 0.5, 120.0, 15.0, 96.0, 0.5, 64.0, 0.0, 0.0, 0.0, 1.741979107921828E9, 0.0, 2025-03-14 14:05:07.921
62.0, -21795.297777092193, -7804.737425415209, -187500.02235174447, -13157.756705016698, 17563.03966796871, 5123.802140212315, -48997.81781409, 868.5217342998666, -5567.1266397388745, 36764.37279753361, 3262.7735451189933, 24766.62692625844, -13621.622457697686, -1706.1533577624987, -63884.39254574687, -187500.02235174447, 0.060452182412147525, 0.9857835698723794, 0.047318062365055084, 192.0, 0.0, 0.0, 0.0, 0.0, 0.0, 0.0, 0.0, 0.0, 0.0, 1.741979107921886E9, 0.0, 2025-03-14 14:05:07.921
64.0, -21793.93432068042, -7807.285524283115, -187500.02235174447, -13046.221500184716, 17677.79352400226, 5211.756254643948, -49016.92855559928, 945.277624759391, -5573.452183419727, 36715.6683463655, 3196.3218088533654, 24709.65232964186, -13573.745021074417, -1696.564459391172, -63938.99785745119, -187500.02235174447, 0.060452182412147525, 0.9857835698723794, 0.047318062365055084, 192.0, 0.0, 0.0, 0.0, 0.0, 0.0, 0.0, 0.0, 0.0, 0.0, 1.741979107921944E9, 0.0, 2025-03-14 14:05:07.921
66.0, -21810.116983666063, -7789.627646163422, -187500.02235174447, -13139.137701885427, 17582.418630411463, 5146.310346878809, -48996.90139256733, 887.5430688313328, -5598.754358143135, 36786.433969311, 3280.140850560767, 24791.81734225957, -13611.273600014878, -1690.4177296659625, -63880.011603833635, -187500.02235174447, 0.060452182412147525, 0.9857835698723794, 0.047318062365055084, 192.0, 0.0, 0.0, 0.0, 0.0, 0.0, 0.0, 0.0, 0.0, 0.0, 1.741979107921989E9, 0.0, 2025-03-14 14:05:07.921
68.0, -21817.001320958298, -7832.1853676063265, -187500.02235174447, -13038.443093114269, 17687.65064330705, 5228.005972862956, -49023.14234055786, 960.85679064474, -5576.022634032087, 36721.278634223774, 3194.131337896745, 24714.569713422028, -13586.64197762513, -1707.3827037075405, -63938.48376732872, -187500.02235174447, 0.060452182412147525, 0.9857835698723794, 0.047318062365055084, 192.0, 0.0, 0.0, 0.0, 0.0, 0.0, 0.0, 0.0, 0.0, 0.0, 1.741979107922044E9, 0.0, 2025-03-14 14:05:07.922
70.0, -21794.60487301408, -7837.125103130949, -187500.02235174447, -13110.661579449366, 17603.071642288167, 5173.646530347649, -49005.46211069371, 911.6382493541539, -5568.668910106291, 36824.968376751945, 3320.128121391311, 24832.653979379415, -13614.872230872183, -1706.6674478849707, -63849.814397074515, -187500.02235174447, 0.06422609120607377, 0.9858917849361897, 0.04765903118252754, 192.0, 1.0, 16.0, 15.0, 104.0, 0.5, 64.0, 0.0, 0.0, 0.0, 1.74197910792209E9, 0.0, 2025-03-14 14:05:07.922
72.0, -21813.201524400894, -7814.549841231089, -187500.02235174447, -13034.732703534688, 17679.82753274769, 5231.93987988709, -49027.85855863793, 958.4875057324774, -5566.321976938484, 36729.973462816895, 3197.819375731871, 24728.628960684415, -13600.522410931875, -1672.5363341017169, -63924.02218866613, -187500.02235174447, 0.06422609120607377, 0.9858917849361897, 0.04765903118252754, 192.0, 0.0, 0.0, 0.0, 0.0, 0.0, 0.0, 0.0, 0.0, 0.0, 1.741979107922145E9, 0.0, 2025-03-14 14:05:07.922
74.0, -21798.87405620504, -7808.805442906076, -187500.02235174447, -13122.619762732955, 17585.86079905758, 5157.910902251113, -48994.21918323269, 888.6383043096429, -5584.225724247185, 36829.930464021025, 3325.0455051714785, 24838.040749793145, -13599.673044642574, -1697.2797152137418, -63854.26239422112, -187500.02235174447, 0.06422609120607377, 0.9858917849361897, 0.04765903118252754, 192.0, 0.0, 0.0, 0.0, 0.0, 0.0, 0.0, 0.0, 0.0, 0.0, 1.741979107980649E9, 0.0, 2025-03-14 14:05:07.980
76.0, -21810.98870169982, -7822.283544812625, -187500.02235174447, -13042.846386771964, 17674.329003611685, 5235.314993299841, -49035.189930819266, 959.6497964441535, -5559.303529179518, 36708.24756720633, 3175.2217620875554, 24706.36662320693, -13590.151201504614, -1715.4516834559065, -63947.536223833114, -187500.02235174447, 0.06422609120607377, 0.9858917849361897, 0.04765903118252754, 192.0, 0.0, 0.0, 0.0, 0.0, 0.0, 0.0, 0.0, 0.0, 0.0, 1.741979107980706E9, 0.0, 2025-03-14 14:05:07.980
78.0, -21802.003300428787, -7809.297181284092, -187500.02235174447, -13097.339939754003, 17612.414671470484, 5182.386062429674, -49008.52429968409, 905.4915196289444, -5575.553247398526, 36852.32691196524, 3349.0736304609336, 24864.505215228226, -13593.92864631756, -1704.6334391395378, -63835.0175422451, -187500.02235174447, 0.06422609120607377, 0.9858917849361897, 0.04765903118252754, 192.0, 0.0, 0.0, 0.0, 0.0, 0.0, 0.0, 0.0, 0.0, 0.0, 1.741979107980775E9, 0.0, 2025-03-14 14:05:07.980
80.0, -21812.68743427842, -7813.409902263868, -187500.02235174447, -13073.557683653557, 17647.97629689888, 5213.5220424559175, -49020.81775913451, 936.3592787217235, -5581.185887001263, 36699.061000235204, 3160.938997380614, 24701.248073726663, -13579.40001242161, -1705.7510263623033, -63962.69070657381, -187500.02235174447, 0.06511304560303688, 0.9879458924680948, 0.04882951559126377, 192.0, 1.0, 8.0, 15.0, 120.0, 0.5, 72.0, 0.0, 0.0, 0.0, 1.741979107980826E9, 0.0, 2025-03-14 14:05:07.980
82.0, -21794.806038714178, -7811.554707474078, -187500.02235174447, -13078.564474411545, 17622.092976819633, 5200.0215888049115, -49013.19581427525, 922.054162270327, -5580.29181722305, 36862.74282488142, 3355.1980084416878, 24879.39147703546, -13606.825602868272, -1686.9979127643005, -63832.49179512165, -187500.02235174447, 0.06511304560303688, 0.9879458924680948, 0.04882951559126377, 192.0, 0.0, 0.0, 0.0, 0.0, 0.0, 0.0, 0.0, 0.0, 0.0, 1.741979107980878E9, 0.0, 2025-03-14 14:05:07.980
84.0, -21788.83812294461, -7798.166012545349, -187500.02235174447, -13116.495384752201, 17619.321360507176, 5173.065384991812, -49018.31436375551, 900.6635428265981, -5559.348232668428, 36692.24371817633, 3151.7300786650276, 24702.79034409408, -13605.17157377858, -1715.6528491560043, -63965.7975990531, -187500.02235174447, 0.06511304560303688, 0.9879458924680948, 0.04882951559126377, 192.0, 0.0, 0.0, 0.0, 0.0, 0.0, 0.0, 0.0, 0.0, 0.0, 1.741979107980922E9, 0.0, 2025-03-14 14:05:07.980
86.0, -21808.082974920628, -7814.728655186732, -187500.02235174447, -13058.82788405751, 17645.808177686715, 5207.621181919716, -49025.51162547012, 932.2018542530363, -5562.231607703163, 36852.1480980096, 3341.6975547906823, 24873.132988587975, -13588.161896248092, -1683.3322266736302, -63844.40527491633, -187500.02235174447, 0.06511304560303688, 0.9879458924680948, 0.04882951559126377, 192.0, 0.0, 0.0, 0.0, 0.0, 0.0, 0.0, 0.0, 0.0, 0.0, 1.741979107980971E9, 0.0, 2025-03-14 14:05:07.980
88.0, -21765.92758487792, -7787.593637417989, -187500.02235174447, -13135.382608816935, 17600.0541567867, 5155.943948739046, -49017.12972129938, 884.5926385632323, -5566.880770549867, 36697.98811650135, 3157.5191804789524, 24716.84959135647, -13598.935437075548, -1716.0551805561997, -63956.834549526524, -187500.02235174447, 0.06511304560303688, 0.9879458924680948, 0.04882951559126377, 192.0, 0.0, 0.0, 0.0, 0.0, 0.0, 0.0, 0.0, 0.0, 0.0, 1.741979107981016E9, 0.0, 2025-03-14 14:05:07.981
90.0, -21791.900311934987, -7821.0318471231285, -187500.02235174447, -13043.427532127802, 17666.68470700797, 5222.865071638235, -49034.2735092966, 944.6741276590977, -5577.430793932771, 36847.78950784082, 3335.32730762092, 24868.237956552264, -13585.323224702266, -1685.1874214634206, -63846.75220808414, -187500.02235174447, 0.06655652280151844, 0.9869729462340474, 0.052414757795631886, 192.0, 1.0, 16.0, 15.0, 104.0, 0.5, 96.0, 0.0, 0.0, 0.0, 1.741979108040421E9, 0.0, 2025-03-14 14:05:08.040
92.0, -21795.186018369917, -7792.041634564595, -187500.02235174447, -13123.290315066615, 17606.737328378837, 5171.768983813404, -49016.48152071018, 903.9045457726177, -5582.169363757296, 36710.70625909642, 3178.686282478128, 24734.172193309332, -13614.022864582881, -1713.5964886661159, -63938.55082256208, -187500.02235174447, 0.06655652280151844, 0.9869729462340474, 0.052414757795631886, 192.0, 0.0, 0.0, 0.0, 0.0, 0.0, 0.0, 0.0, 0.0, 0.0, 1.741979108040475E9, 0.0, 2025-03-14 14:05:08.040
94.0, -21811.994530200307, -7808.872498139442, -187500.02235174447, -13031.648162799855, 17672.58556754417, 5230.0176298639335, -49027.36682025991, 958.2192847990137, -5542.740886538135, 36844.30263570579, 3335.9755082101237, 24872.149511831944, -13613.620533182686, -1695.5809826351385, -63831.39655964334, -187500.02235174447, 0.06655652280151844, 0.9869729462340474, 0.052414757795631886, 192.0, 0.0, 0.0, 0.0, 0.0, 0.0, 0.0, 0.0, 0.0, 0.0, 1.741979108040532E9, 0.0, 2025-03-14 14:05:08.040
96.0, -21794.31430033616, -7820.987143634217, -187500.02235174447, -13130.621687247954, 17596.254360229297, 5161.68834706406, -49019.49900621164, 904.150414961626, -5582.839916090956, 36709.767485829296, 3182.3072650798877, 24737.480251488716, -13608.949018591526, -1735.3894395100403, -63931.37591259193, -187500.02235174447, 0.06655652280151844, 0.9869729462340474, 0.052414757795631886, 192.0, 0.0, 0.0, 0.0, 0.0, 0.0, 0.0, 0.0, 0.0, 0.0, 1.741979108040591E9, 0.0, 2025-03-14 14:05:08.040
98.0, -21790.089820634108, -7808.246649294692, -187500.02235174447, -13034.91151749033, 17678.240558891364, 5225.1449495726765, -49023.3211545135, 956.341738264768, -5565.383203671361, 36817.212321425955, 3307.097054373867, 24848.00962782021, -13581.724593844963, -1682.7063778288816, -63849.14384474085, -187500.02235174447, 0.06655652280151844, 0.9869729462340474, 0.052414757795631886, 192.0, 0.0, 0.0, 0.0, 0.0, 0.0, 0.0, 0.0, 0.0, 0.0, 1.741979108040637E9, 0.0, 2025-03-14 14:05:08.040
100.0, -21769.034477357207, -7776.887151823897, -187500.02235174447, -13176.062783725594, 17559.28457490022, 5122.438683800541, -48988.072453507484, 863.9396266865286, -5589.701901638735, 36711.30975619671, 3186.844669204315, 24743.269353302643, -13613.665236671595, -1723.3642009930852, -63930.03480792461, -187500.02235174447, 0.06827826140075922, 0.9844864731170238, 0.05520737889781595, 192.0, 1.0, 24.0, 15.0, 88.0, 0.5, 104.0, 0.0, 0.0, 0.0, 1.741979108040697E9, 0.0, 2025-03-14 14:05:08.040
102.0, -21771.560224480658, -7795.550858444079, -187500.02235174447, -13081.11257327945, 17653.67599173498, 5181.290826951365, -49010.31243924051, 916.4662261565002, -5566.746660083135, 36760.88592539858, 3240.9135390417027, 24777.266356619162, -13579.332957188244, -1666.3672526320522, -63909.448851281275, -187500.02235174447, 0.06827826140075922, 0.9844864731170238, 0.05520737889781595, 192.0, 0.0, 0.0, 0.0, 0.0, 0.0, 0.0, 0.0, 0.0, 0.0, 1.741979108040754E9, 0.0, 2025-03-14 14:05:08.040
104.0, -21765.480549988813, -7785.559628672556, -187500.02235174447, -13210.953856820328, 17542.878394470026, 5091.883849130136, -48989.99470353064, 844.6277194771433, -5570.38999442935, 36704.9618607714, 3182.4413755466194, 24721.051719314066, -13616.436852984054, -1729.7344481628477, -63944.07170344254, -187500.02235174447, 0.06827826140075922, 0.9844864731170238, 0.05520737889781595, 192.0, 0.0, 0.0, 0.0, 0.0, 0.0, 0.0, 0.0, 0.0, 0.0, 1.741979108100673E9, 0.0, 2025-03-14 14:05:08.100
106.0, -21782.758448452765, -7820.361294789469, -187500.02235174447, -13057.665593345833, 17679.313442625218, 5204.357827229242, -49020.571889945495, 950.7538021509412, -5532.481435833149, 36747.11725081411, 3227.2566231795104, 24754.28876331911, -13576.583692620241, -1693.6363808675267, -63911.86283968244, -187500.02235174447, 0.06827826140075922, 0.9844864731170238, 0.05520737889781595, 192.0, 0.0, 0.0, 0.0, 0.0, 0.0, 0.0, 0.0, 0.0, 0.0, 1.74197910810073E9, 0.0, 2025-03-14 14:05:08.100
108.0, -21807.50182956479, -7809.721864428743, -187500.02235174447, -13163.076420197061, 17578.395316409507, 5131.133512393655, -49010.6700671518, 886.1572606751038, -5583.175192257785, 36754.11334682862, 3246.456771666619, 24773.13128389493, -13613.799347138329, -1703.6499623835043, -63883.78904864658, -187500.02235174447, 0.06827826140075922, 0.9844864731170238, 0.05520737889781595, 192.0, 0.0, 0.0, 0.0, 0.0, 0.0, 0.0, 0.0, 0.0, 0.0, 1.741979108100787E9, 0.0, 2025-03-14 14:05:08.100
110.0, -21767.425151756426, -7801.87640212493, -187500.02235174447, -13057.307965434547, 17680.945119970456, 5202.7261498840035, -49016.63798292136, 949.8150288838183, -5546.920662751278, 36733.728555885384, 3221.6686870656836, 24742.911725391357, -13603.718710388985, -1663.886208997513, -63899.301159298564, -187500.02235174447, 0.06913913070037961, 0.9832432365585119, 0.058603689448907974, 192.0, 1.0, 24.0, 15.0, 88.0, 0.5, 120.0, 0.0, 0.0, 0.0, 1.741979108100833E9, 0.0, 2025-03-14 14:05:08.100
112.0, -21809.89346622151, -7805.229163793227, -187500.02235174447, -13176.487466870245, 17574.729630318838, 5115.5543465083065, -49002.198756003236, 872.701510513009, -5600.430738977282, 36751.72171017191, 3253.139943258756, 24770.359667582474, -13607.205582524013, -1715.4740352003616, -63876.25651076514, -187500.02235174447, 0.06913913070037961, 0.9832432365585119, 0.058603689448907974, 192.0, 0.0, 0.0, 0.0, 0.0, 0.0, 0.0, 0.0, 0.0, 0.0, 1.74197910810089E9, 0.0, 2025-03-14 14:05:08.100
114.0, -21781.394992040994, -7810.571230718045, -187500.02235174447, -13074.228235987215, 17677.9723379579, 5193.9195625686125, -49002.10934902541, 943.7130026475195, -5554.252034932618, 36698.45750313491, 3191.136204139734, 24707.03717554059, -13585.144410746625, -1710.8025206092025, -63914.85797343946, -187500.02235174447, 0.06913913070037961, 0.9832432365585119, 0.058603689448907974, 192.0, 0.0, 0.0, 0.0, 0.0, 0.0, 0.0, 0.0, 0.0, 0.0, 1.741979108100937E9, 0.0, 2025-03-14 14:05:08.100
116.0, -21771.135541336007, -7788.085375796006, -187500.02235174447, -13186.970435019784, 17571.309813417174, 5101.070416101267, -48982.88684879385, 860.9221411850622, -5573.0498520195315, 36755.49915498486, 3269.166144033211, 24773.846539717502, -13611.184193037057, -1712.3894944655294, -63860.16325475732, -187500.02235174447, 0.06913913070037961, 0.9832432365585119, 0.058603689448907974, 192.0, 0.0, 0.0, 0.0, 0.0, 0.0, 0.0, 0.0, 0.0, 0.0, 1.74197910810099E9, 0.0, 2025-03-14 14:05:08.100
118.0, -21785.150085109482, -7797.249591022682, -187500.02235174447, -13078.698584878277, 17687.2259601624, 5189.449213677552, -49014.000477075635, 945.9928805819608, -5560.398764657827, 36665.578087041155, 3158.949692124092, 24671.22968092319, -13577.388355420633, -1690.3953779215071, -63928.47018581274, -187500.02235174447, 0.06913913070037961, 0.9832432365585119, 0.058603689448907974, 192.0, 0.0, 0.0, 0.0, 0.0, 0.0, 0.0, 0.0, 0.0, 0.0, 1.741979108101042E9, 0.0, 2025-03-14 14:05:08.101
120.0, -21797.06356490416, -7785.917256583841, -187500.02235174447, -13169.51372260019, 17589.14650549251, 5114.861442430191, -48985.211430217205, 877.3730251041682, -5568.288930450551, 36771.637114481586, 3289.9532663766468, 24785.022411945156, -13615.006341338914, -1686.3944156640073, -63836.44805389024, -187500.02235174447, 0.0675695653501898, 0.9816216182792559, 0.05830184472445399, 192.0, 1.0, 8.0, 15.0, 80.0, 0.5, 104.0, 0.0, 0.0, 0.0, 1.741979108162339E9, 0.0, 2025-03-14 14:05:08.162
122.0, -21780.50092226278, -7796.333169500014, -187500.02235174447, -13111.801518416587, 17667.0199831748, 5161.621291830694, -48992.609857631905, 925.3398687052571, -5579.710671867213, 36645.77444145375, 3136.463837202053, 24643.513517798605, -13588.430117181555, -1710.9589828203898, -63934.28163937112, -187500.02235174447, 0.0675695653501898, 0.9816216182792559, 0.05830184472445399, 192.0, 0.0, 0.0, 0.0, 0.0, 0.0, 0.0, 0.0, 0.0, 0.0, 1.741979108162409E9, 0.0, 2025-03-14 14:05:08.162
124.0, -21787.988756655308, -7794.9697130882405, -187500.02235174447, -13162.115295185482, 17602.043462043224, 5121.388151811141, -48984.02678776107, 889.957057232506, -5570.926436296277, 36776.5321465173, 3302.000856638057, 24785.89412997891, -13606.3115127458, -1686.9979127643005, -63821.40532987182, -187500.02235174447, 0.0675695653501898, 0.9816216182792559, 0.05830184472445399, 192.0, 0.0, 0.0, 0.0, 0.0, 0.0, 0.0, 0.0, 0.0, 0.0, 1.741979108162467E9, 0.0, 2025-03-14 14:05:08.162
126.0, -21724.06276751313, -7781.2904454815925, -187500.02235174447, -13146.513777555678, 17643.304782307718, 5135.670916518083, -48990.15116574182, 905.7150370734975, -5541.556244082003, 36614.10201956058, 3111.0052002674583, 24611.796392416527, -13611.541820948341, -1721.978392836856, -63946.150415676886, -187500.02235174447, 0.0675695653501898, 0.9816216182792559, 0.05830184472445399, 192.0, 0.0, 0.0, 0.0, 0.0, 0.0, 0.0, 0.0, 0.0, 0.0, 1.741979108162516E9, 0.0, 2025-03-14 14:05:08.162
128.0, -21771.60492796957, -7782.20686700426, -187500.02235174447, -13155.163902659882, 17623.277619275763, 5122.908070434102, -48989.681779108265, 899.568307348288, -5573.429831675271, 36757.84608815266, 3286.6005047083504, 24760.61430699996, -13592.587541650242, -1679.6218370940492, -63832.268277677096, -187500.02235174447, 0.0675695653501898, 0.9816216182792559, 0.05830184472445399, 192.0, 0.0, 0.0, 0.0, 0.0, 0.0, 0.0, 0.0, 0.0, 0.0, 1.741979108162563E9, 0.0, 2025-03-14 14:05:08.162
130.0, -21787.631128744022, -7775.8366198344975, -187500.02235174447, -13160.617728306977, 17636.979238626867, 5125.456169302007, -48984.67498835027, 909.9395167755505, -5588.450203949238, 36609.47520845833, 3113.106264246257, 24606.07434583597, -13605.104518545213, -1725.107637060599, -63926.97261893423, -187500.02235174447, 0.06578478267509491, 0.9798108091396279, 0.061150922362226995, 192.0, 1.0, 0.0, 15.0, 72.0, 1.0, 0.0, 0.0, 0.0, 0.0, 1.741979108162616E9, 0.0, 2025-03-14 14:05:08.162
132.0, -21788.12286712204, -7802.278733525126, -187500.02235174447, -13133.370951815958, 17647.663372476505, 5137.392000841141, -49000.18709900226, 920.9365750475616, -5548.753505796612, 36763.97046613341, 3299.4751095146075, 24765.531690780128, -13606.937361590548, -1657.8735897390354, -63800.88642846185, -187500.02235174447, 0.06578478267509491, 0.9798108091396279, 0.061150922362226995, 192.0, 0.0, 0.0, 0.0, 0.0, 0.0, 0.0, 0.0, 0.0, 0.0, 1.741979108162664E9, 0.0, 2025-03-14 14:05:08.162
134.0, -21782.423172285937, -7795.237934021704, -187500.02235174447, -13167.010327221195, 17633.559421725204, 5119.421198299075, -48995.38147394437, 906.5196998738885, -5566.4784391496705, 36593.62782163952, 3100.410473395643, 24586.76243862658, -13605.59625692323, -1724.5711951936717, -63925.855031711464, -187500.02235174447, 0.06578478267509491, 0.9798108091396279, 0.061150922362226995, 192.0, 0.0, 0.0, 0.0, 0.0, 0.0, 0.0, 0.0, 0.0, 0.0, 1.741979108221058E9, 0.0, 2025-03-14 14:05:08.221
136.0, -21778.533968750715, -7804.156280059372, -187500.02235174447, -13109.186364315316, 17667.73523899737, 5153.7087742935155, -49001.349389713934, 936.9627758220167, -5565.897293793833, 36764.03752136678, 3300.682103715194, 24763.832958201525, -13614.514602960899, -1656.37602286053, -63785.553131765504, -187500.02235174447, 0.06578478267509491, 0.9798108091396279, 0.061150922362226995, 192.0, 0.0, 0.0, 0.0, 0.0, 0.0, 0.0, 0.0, 0.0, 0.0, 1.741979108221109E9, 0.0, 2025-03-14 14:05:08.221
138.0, -21760.786683653198, -7803.932762614819, -187500.02235174447, -13187.998615264729, 17611.0065115698, 5098.298799788809, -48987.088976751445, 889.085339198749, -5582.884619579866, 36599.640440897994, 3101.66217108514, 24587.075363048956, -13596.92378007457, -1726.1134655610879, -63916.48965078469, -187500.02235174447, 0.06578478267509491, 0.9798108091396279, 0.061150922362226995, 192.0, 0.0, 0.0, 0.0, 0.0, 0.0, 0.0, 0.0, 0.0, 0.0, 1.741979108221166E9, 0.0, 2025-03-14 14:05:08.221
140.0, -21784.524236264737, -7800.44589047979, -187500.02235174447, -13117.277695808138, 17672.809084988723, 5145.68449803406, -48996.05202627803, 927.5526914063325, -5565.874942049378, 36744.502096712844, 3266.7968591209483, 24728.159574050853, -13583.848009568217, -1690.0601017546776, -63815.52682108007, -187500.02235174447, 0.06389239133754746, 0.9799054045698139, 0.059575461181113495, 192.0, 0.5, 120.0, 15.0, 80.0, 0.5, 104.0, 0.0, 0.0, 0.0, 1.74197910822122E9, 0.0, 2025-03-14 14:05:08.221
142.0, -21780.21034958486, -7782.676253637822, -187500.02235174447, -13233.685580931377, 17583.089182745123, 5059.607930136673, -48970.369871898874, 847.3769840451461, -5566.567846127492, 36596.33238271861, 3093.7720052924165, 24576.05595303249, -13603.07050979978, -1710.914279331479, -63933.901659715375, -187500.02235174447, 0.06389239133754746, 0.9799054045698139, 0.059575461181113495, 192.0, 0.0, 0.0, 0.0, 0.0, 0.0, 0.0, 0.0, 0.0, 0.0, 1.741979108221268E9, 0.0, 2025-03-14 14:05:08.221
144.0, -21792.772029968743, -7814.058102853072, -187500.02235174447, -13125.570193001056, 17674.865445478612, 5135.849730473725, -49002.265811236604, 914.5216243888884, -5560.331709424461, 36720.00458478982, 3230.4752743810745, 24689.64751835436, -13582.886884556638, -1671.66461606796, -63853.59184188746, -187500.02235174447, 0.06389239133754746, 0.9799054045698139, 0.059575461181113495, 192.0, 0.0, 0.0, 0.0, 0.0, 0.0, 0.0, 0.0, 0.0, 0.0, 1.741979108221321E9, 0.0, 2025-03-14 14:05:08.221
146.0, -21783.49605601979, -7797.003721833673, -187500.02235174447, -13245.911985148428, 17575.71310707487, 5050.510770143363, -48972.87326727787, 835.5305594838333, -5582.0352532905645, 36617.611243440064, 3113.3521334352654, 24589.712868894683, -13604.702187145018, -1725.4205614829734, -63922.77049097663, -187500.02235174447, 0.06389239133754746, 0.9799054045698139, 0.059575461181113495, 192.0, 0.0, 0.0, 0.0, 0.0, 0.0, 0.0, 0.0, 0.0, 0.0, 1.741979108221374E9, 0.0, 2025-03-14 14:05:08.221
148.0, -21788.279329333225, -7809.364236517458, -187500.02235174447, -13113.701416695289, 17685.25900665033, 5149.528998080373, -49014.20164277573, 921.6518308701314, -5547.792380785034, 36710.79566607424, 3214.1585009287005, 24674.64949782485, -13582.037518267336, -1664.3332438866191, -63867.8746065944, -187500.02235174447, 0.06389239133754746, 0.9799054045698139, 0.059575461181113495, 192.0, 0.0, 0.0, 0.0, 0.0, 0.0, 0.0, 0.0, 0.0, 0.0, 1.741979108221424E9, 0.0, 2025-03-14 14:05:08.221
150.0, -21789.88865493401, -7816.8073674210755, -187500.02235174447, -13221.794452881153, 17599.741232364326, 5081.8032123807925, -48999.85182283543, 858.8434289507186, -5579.464802678204, 36649.417775799964, 3142.2976425048882, 24616.803183174514, -13618.895544874138, -1693.6810843564374, -63909.69472047028, -187500.02235174447, 0.06394619566877373, 0.9789527022849069, 0.05878773059055675, 192.0, 1.0, 0.0, 15.0, 72.0, 0.5, 104.0, 0.0, 0.0, 0.0, 1.74197910827461E9, 0.0, 2025-03-14 14:05:08.274
152.0, -21804.70786150788, -7831.984201906229, -187500.02235174447, -13077.268073233137, 17718.540754144284, 5189.225696232998, -49015.09571255395, 956.3640900092233, -5593.233477262674, 36731.64984365104, 3235.2138442055993, 24699.683451614794, -13595.985006807448, -1720.2796602582528, -63841.45484464823, -187500.02235174447, 0.06394619566877373, 0.9789527022849069, 0.05878773059055675, 192.0, 0.0, 0.0, 0.0, 0.0, 0.0, 0.0, 0.0, 0.0, 0.0, 1.741979108274683E9, 0.0, 2025-03-14 14:05:08.274
154.0, -21794.627224758533, -7818.64021046641, -187500.02235174447, -13222.397949981447, 17588.364194436574, 5082.473764714452, -48996.58846814495, 859.8269057067521, -5609.952582115243, 36688.242755918836, 3188.074015149357, 24661.081988940477, -13633.424178770088, -1735.4564947434062, -63872.34495548546, -187500.02235174447, 0.06394619566877373, 0.9789527022849069, 0.05878773059055675, 192.0, 0.0, 0.0, 0.0, 0.0, 0.0, 0.0, 0.0, 0.0, 0.0, 1.741979108274733E9, 0.0, 2025-03-14 14:05:08.274
156.0, -21822.499850094304, -7828.050294882095, -187500.02235174447, -13077.91627382234, 17719.12189950012, 5191.639684634171, -49023.56702370251, 956.6770144315976, -5556.129581466864, 36709.58867187365, 3203.4743670790635, 24672.324916401496, -13619.566097207797, -1692.496441900306, -63862.197263502756, -187500.02235174447, 0.06394619566877373, 0.9789527022849069, 0.05878773059055675, 192.0, 0.0, 0.0, 0.0, 0.0, 0.0, 0.0, 0.0, 0.0, 0.0, 1.741979108274786E9, 0.0, 2025-03-14 14:05:08.274
158.0, -21793.59904451359, -7819.243707566704, -187500.02235174447, -13199.777984592676, 17601.417613198475, 5106.881869659647, -49002.466976936696, 877.8871152266402, -5615.1381868288745, 36714.8189800762, 3215.007867218002, 24686.69708808626, -13629.93730663506, -1718.5362241907387, -63848.94267904075, -187500.02235174447, 0.06394619566877373, 0.9789527022849069, 0.05878773059055675, 192.0, 0.0, 0.0, 0.0, 0.0, 0.0, 0.0, 0.0, 0.0, 0.0, 1.741979108274831E9, 0.0, 2025-03-14 14:05:08.274
160.0, -21786.133561865518, -7819.35546628898, -187500.02235174447, -13070.607253385455, 17714.897419798068, 5205.788338874381, -49020.79540739005, 966.8917616476729, -5577.095517765942, 36710.59450037414, 3200.456881577597, 24671.095570456455, -13611.497117459432, -1697.7043983583926, -63852.13897849787, -187500.02235174447, 0.058, 0.984, 0.058, 192.0, 0.5, 104.0, 15.0, 96.0, 0.5, 104.0, 0.0, 0.0, 0.0, 1.741979108325576E9, 0.0, 2025-03-14 14:05:08.325
162.0, -21807.5465330537, -7821.5012337566895, -187500.02235174447, -13194.547676390133, 17603.876305088557, 5114.637924985638, -48999.47184317969, 881.0834146837491, -5594.105195296431, 36735.74021288636, 3241.2488152085325, 24706.07605052901, -13638.65448697263, -1716.7480846343142, -63825.45099561823, -187500.02235174447, 0.058, 0.984, 0.058, 192.0, 0.0, 0.0, 0.0, 0.0, 0.0, 0.0, 0.0, 0.0, 0.0, 1.741979108325709E9, 0.0, 2025-03-14 14:05:08.325
164.0, -21800.17045738345, -7842.467170055768, -187500.02235174447, -13087.59457917149, 17709.711815084436, 5197.451138192551, -49010.69241889625, 953.9724533525055, -5578.078994521975, 36685.62760181756, 3171.8913521637146, 24642.77591023158, -13617.241515784444, -1713.015343310278, -63865.52767342659, -187500.02235174447, 0.058, 0.984, 0.058, 192.0, 0.0, 0.0, 0.0, 0.0, 0.0, 0.0, 0.0, 0.0, 0.0, 1.741979108325755E9, 0.0, 2025-03-14 14:05:08.325
166.0, -21810.809887744177, -7808.0007801056845, -187500.02235174447, -13183.394155906935, 17605.15035452251, 5122.6622012450935, -48987.513659896096, 885.9784467194613, -5570.769974085089, 36759.120137586615, 3264.941664331158, 24726.997283339177, -13631.278411302377, -1707.4721106853617, -63804.641521530335, -187500.02235174447, 0.058, 0.984, 0.058, 192.0, 0.0, 0.0, 0.0, 0.0, 0.0, 0.0, 0.0, 0.0, 0.0, 1.74197910832581E9, 0.0, 2025-03-14 14:05:08.325
168.0, -21796.482419548323, -7834.0629141405725, -187500.02235174447, -13094.031881574618, 17703.006291747846, 5197.294675981364, -49008.569003173, 953.2795492743909, -5599.380206987883, 36668.95320045391, 3148.8020001413825, 24621.273532065577, -13607.540858690842, -1711.6071834095935, -63877.709374154736, -187500.02235174447, 0.058, 0.984, 0.058, 192.0, 0.0, 0.0, 0.0, 0.0, 0.0, 0.0, 0.0, 0.0, 0.0, 1.741979108325863E9, 0.0, 2025-03-14 14:05:08.325
170.0, -21787.117038621553, -7804.78212890412, -187500.02235174447, -13188.535057131656, 17609.799517369214, 5118.39301805413, -48984.47382265018, 879.9881792054391, -5600.587201188469, 36778.56615526273, 3277.548048203951, 24730.41710024084, -13604.992759822937, -1701.079511771144, -63797.66777726028, -187500.02235174447, 0.06, 0.984, 0.058, 192.0, 0.5, 112.0, 15.0, 96.0, 0.5, 104.0, 0.0, 0.0, 0.0, 1.741979108325913E9, 0.0, 2025-03-14 14:05:08.325
172.0, -21795.945977681396, -7810.303009784581, -187500.02235174447, -13120.898678409896, 17678.911111225025, 5170.740803568459, -48999.33773271296, 926.3456972057459, -5586.5503056705365, 36650.80358395619, 3124.6621161296507, 24586.561272926483, -13599.136602775647, -1707.8967938300127, -63898.87647615391, -187500.02235174447, 0.06, 0.984, 0.058, 192.0, 0.0, 0.0, 0.0, 0.0, 0.0, 0.0, 0.0, 0.0, 0.0, 1.741979108325962E9, 0.0, 2025-03-14 14:05:08.325
174.0, -21798.091745149108, -7813.029922608129, -187500.02235174447, -13145.351486844003, 17634.29702929223, 5145.416277100597, -48996.096729766934, 905.0444847398383, -5560.0187850020875, 36781.42717855301, 3285.259400041032, 24724.762108893647, -13629.736140934961, -1690.1271569880435, -63796.57254178197, -187500.02235174447, 0.06, 0.984, 0.058, 192.0, 0.0, 0.0, 0.0, 0.0, 0.0, 0.0, 0.0, 0.0, 0.0, 1.741979108326011E9, 0.0, 2025-03-14 14:05:08.326
176.0, -21795.856570703578, -7807.509041727668, -187500.02235174447, -13117.747082441698, 17674.64192803406, 5174.652358848138, -49001.483500180664, 930.7042873745307, -5575.1062125094195, 36645.03683388673, 3124.0586190293575, 24579.72163912316, -13622.114196075701, -1711.71894213187, -63891.768621417126, -187500.02235174447, 0.06, 0.984, 0.058, 192.0, 0.0, 0.0, 0.0, 0.0, 0.0, 0.0, 0.0, 0.0, 0.0, 1.741979108384373E9, 0.0, 2025-03-14 14:05:08.384
178.0, -21796.325957337136, -7775.747212856676, -187500.02235174447, -13144.5021205547, 17633.045331602734, 5138.487236319451, -48988.81006107451, 895.2544206684138, -5589.433680705271, 36791.15018739107, 3299.65392347025, 24724.203315282266, -13609.127832547169, -1670.9046567564794, -63785.12844862085, -187500.02235174447, 0.06, 0.984, 0.058, 192.0, 0.0, 0.0, 0.0, 0.0, 0.0, 0.0, 0.0, 0.0, 0.0, 1.741979108384441E9, 0.0, 2025-03-14 14:05:08.384
180.0, -21779.7409629513, -7815.779187176131, -187500.02235174447, -13152.302879369603, 17640.82373867318, 5140.811817742803, -48985.94903778423, 897.3554846472126, -5584.002206802632, 36626.149609821994, 3099.9187350176257, 24540.159051437266, -13601.2600184989, -1683.6675028404597, -63921.49644154268, -187500.02235174447, 0.062, 0.984, 0.056, 192.0, 0.5, 120.0, 15.0, 96.0, 0.5, 96.0, 0.0, 0.0, 0.0, 1.741979108384487E9, 0.0, 2025-03-14 14:05:08.384
182.0, -21811.45808833338, -7817.947306388296, -187500.02235174447, -13130.733445970232, 17644.19885208593, 5146.645623045638, -48979.64584584783, 902.183461449559, -5578.883657322366, 36783.19296636498, 3287.449870997652, 24697.94001554728, -13604.210448767, -1686.9085057864793, -63803.43452732975, -187500.02235174447, 0.062, 0.984, 0.056, 192.0, 0.0, 0.0, 0.0, 0.0, 0.0, 0.0, 0.0, 0.0, 0.0, 1.741979108384539E9, 0.0, 2025-03-14 14:05:08.384
184.0, -21808.46295457637, -7810.705341184776, -187500.02235174447, -13167.591472577033, 17634.699360692426, 5127.557233280806, -48985.613761617395, 888.1689176760815, -5574.212142731207, 36623.33329002062, 3098.175298950112, 24525.47395533013, -13627.277449044877, -1738.5410354782387, -63930.30302885807, -187500.02235174447, 0.062, 0.984, 0.056, 192.0, 0.0, 0.0, 0.0, 0.0, 0.0, 0.0, 0.0, 0.0, 0.0, 1.741979108384585E9, 0.0, 2025-03-14 14:05:08.384
186.0, -21830.03238797574, -7816.494442998701, -187500.02235174447, -13114.483727751223, 17673.949023955945, 5161.151905197133, -48998.60012514593, 913.0687609992935, -5569.518276395593, 36783.97527742091, 3293.529545489496, 24688.84285555397, -13586.798439836317, -1688.4284244094401, -63803.166306396284, -187500.02235174447, 0.062, 0.984, 0.056, 192.0, 0.0, 0.0, 0.0, 0.0, 0.0, 0.0, 0.0, 0.0, 0.0, 1.741979108384639E9, 0.0, 2025-03-14 14:05:08.384
188.0, -21799.052870160685, -7803.351617258981, -187500.02235174447, -13195.79937407963, 17616.996779083824, 5110.368741794675, -48986.038444762045, 866.957112187995, -5600.140166299363, 36633.43627851442, 3112.0557322568575, 24525.004568696568, -13601.237666754445, -1707.7403316188256, -63922.25640085416, -187500.02235174447, 0.062, 0.984, 0.056, 192.0, 0.0, 0.0, 0.0, 0.0, 0.0, 0.0, 0.0, 0.0, 0.0, 1.741979108384693E9, 0.0, 2025-03-14 14:05:08.384
190.0, -21812.732137767332, -7835.02403915215, -187500.02235174447, -13102.234971789716, 17682.845018249158, 5169.958492512524, -49001.215279247204, 918.1873104795588, -5575.441488676249, 36772.262963326335, 3273.5470859464513, 24656.052846438033, -13591.939341061037, -1687.690816842415, -63821.89706824983, -187500.02235174447, 0.064, 0.984, 0.056, 192.0, 1.0, 0.0, 15.0, 96.0, 0.5, 96.0, 0.0, 0.0, 0.0, 1.741979108444175E9, 0.0, 2025-03-14 14:05:08.444
192.0, -21837.252001434805, -7836.387495563924, -187500.02235174447, -13178.879103526962, 17618.606104684604, 5125.500872790918, -48997.281372223064, 882.5809815622547, -5591.847669106444, 36650.133031622536, 3135.279194745922, 24531.441871099698, -13618.40380649612, -1731.8578638861018, -63908.823002436526, -187500.02235174447, 0.064, 0.984, 0.056, 192.0, 0.0, 0.0, 0.0, 0.0, 0.0, 0.0, 0.0, 0.0, 0.0, 1.741979108444241E9, 0.0, 2025-03-14 14:05:08.444
194.0, -21819.102384937094, -7809.140719072905, -187500.02235174447, -13094.523619952633, 17689.103506696643, 5177.222809460498, -48995.60499138892, 927.6197466396984, -5564.95852052671, 36772.91116391554, 3280.2526092830435, 24649.481433568173, -13603.048158055326, -1686.2826569417307, -63816.309132136004, -187500.02235174447, 0.064, 0.984, 0.056, 192.0, 0.0, 0.0, 0.0, 0.0, 0.0, 0.0, 0.0, 0.0, 0.0, 1.74197910844429E9, 0.0, 2025-03-14 14:05:08.444
196.0, -21784.412477542457, -7817.544974988101, -187500.02235174447, -13198.459231669813, 17603.004587054802, 5108.066512115778, -48984.295008694535, 865.280731353847, -5580.29181722305, 36665.645142274516, 3160.782535169427, 24539.86847875935, -13637.000457882938, -1724.5488434492165, -63893.422650506815, -187500.02235174447, 0.064, 0.984, 0.056, 192.0, 0.0, 0.0, 0.0, 0.0, 0.0, 0.0, 0.0, 0.0, 0.0, 1.74197910844434E9, 0.0, 2025-03-14 14:05:08.444
198.0, -21809.669948776955, -7814.795710420098, -187500.02235174447, -13068.148561495373, 17714.428033164506, 5193.874859079702, -49013.66520090881, 938.1027147892374, -5573.295721208539, 36750.738233415876, 3257.7891061054597, 24618.323101797476, -13588.564227648287, -1681.3205696726525, -63828.691998564245, -187500.02235174447, 0.064, 0.984, 0.056, 192.0, 0.0, 0.0, 0.0, 0.0, 0.0, 0.0, 0.0, 0.0, 0.0, 1.741979108444386E9, 0.0, 2025-03-14 14:05:08.444
200.0, -21788.927529922432, -7797.406053233869, -187500.02235174447, -13191.396080421935, 17601.015281798278, 5105.6972272035155, -48978.23768594715, 860.2292371069476, -5576.670834621291, 36691.103779209116, 3187.269352348966, 24554.03948474401, -13615.3639692502, -1722.8277591261578, -63873.48489445268, -187500.02235174447, 0.062, 0.984, 0.06, 192.0, 0.5, 120.0, 15.0, 96.0, 0.5, 112.0, 0.0, 0.0, 0.0, 1.74197910844444E9, 0.0, 2025-03-14 14:05:08.444
202.0, -21822.656312305488, -7821.0318471231285, -187500.02235174447, -13035.738532035177, 17738.344399731686, 5222.932126871601, -49010.62536366288, 967.629369214698, -5574.905046809322, 36753.68866368397, 3257.9232165721914, 24609.78473541555, -13588.474820670464, -1684.1592412184766, -63827.03796947456, -187500.02235174447, 0.062, 0.984, 0.06, 192.0, 0.0, 0.0, 0.0, 0.0, 0.0, 0.0, 0.0, 0.0, 0.0, 1.741979108444488E9, 0.0, 2025-03-14 14:05:08.444
204.0, -21784.72540196483, -7793.7403671431985, -187500.02235174447, -13163.791676019631, 17614.02399707127, 5131.982878682957, -48981.79161331554, 884.5926385632323, -5572.7592793416125, 36729.99581456135, 3234.3421261718427, 24590.763400884083, -13624.729350176973, -1705.080474028644, -63836.939792268255, -187500.02235174447, 0.062, 0.984, 0.06, 192.0, 0.0, 0.0, 0.0, 0.0, 0.0, 0.0, 0.0, 0.0, 0.0, 1.741979108444533E9, 0.0, 2025-03-14 14:05:08.444
206.0, -21800.282216105727, -7802.278733525126, -187500.02235174447, -13034.15155817885, 17731.84004209519, 5228.9000426411685, -49013.575793930984, 971.4291657721003, -5547.322994151473, 36734.53321868578, 3235.459713394608, 24586.427162459753, -13614.000512838425, -1702.9570583053899, -63833.92230676679, -187500.02235174447, 0.062, 0.984, 0.06, 192.0, 0.0, 0.0, 0.0, 0.0, 0.0, 0.0, 0.0, 0.0, 0.0, 1.741979108504332E9, 0.0, 2025-03-14 14:05:08.504
208.0, -21767.179282567417, -7797.651922422877, -187500.02235174447, -13152.83932123653, 17611.922933092468, 5139.984803197957, -48985.479651150665, 891.5216793443775, -5601.481270966682, 36751.22997179389, 3254.123420014789, 24610.16471507129, -13624.17055656559, -1694.7763198347475, -63814.990379213144, -187500.02235174447, 0.062, 0.984, 0.06, 192.0, 0.0, 0.0, 0.0, 0.0, 0.0, 0.0, 0.0, 0.0, 0.0, 1.741979108504397E9, 0.0, 2025-03-14 14:05:08.504
210.0, -21803.83614347412, -7790.007625819162, -187500.02235174447, -13063.879378304408, 17702.715719069925, 5201.586210916783, -48993.526279154576, 946.0375840708714, -5554.2073314437075, 36711.48857015235, 3199.160480399189, 24557.81692955696, -13587.111364258692, -1704.6334391395378, -63850.52965289708, -187500.02235174447, 0.064, 0.982, 0.06, 192.0, 1.0, 0.0, 15.0, 88.0, 0.5, 112.0, 0.0, 0.0, 0.0, 1.741979108504452E9, 0.0, 2025-03-14 14:05:08.504
212.0, -21775.672945460432, -7772.595616888478, -187500.02235174447, -13184.17646696287, 17587.67129035846, 5110.704017961504, -48978.014168502596, 862.1291353856487, -5552.553302354015, 36744.725614157396, 3238.54425412944, 24590.025793317058, -13605.350387734223, -1691.1329854885323, -63833.72114106669, -187500.02235174447, 0.064, 0.982, 0.06, 192.0, 0.0, 0.0, 0.0, 0.0, 0.0, 0.0, 0.0, 0.0, 0.0, 1.741979108504509E9, 0.0, 2025-03-14 14:05:08.504
214.0, -21769.906195390966, -7794.165050287849, -187500.02235174447, -13076.239892988193, 17693.462096865427, 5201.094472538766, -49009.99951481814, 943.4671334585112, -5534.560148067492, 36675.144633668024, 3145.6727559176393, 24506.98906266559, -13593.571018406275, -1680.985293505823, -63892.14860107286, -187500.02235174447, 0.064, 0.982, 0.06, 192.0, 0.0, 0.0, 0.0, 0.0, 0.0, 0.0, 0.0, 0.0, 0.0, 1.741979108504557E9, 0.0, 2025-03-14 14:05:08.504
216.0, -21750.16960503693, -7769.578131387011, -187500.02235174447, -13188.602112365023, 17580.33991817712, 5107.708884204493, -48970.593389343434, 854.8201149487633, -5582.77286085759, 36761.46707075442, 3257.811457849915, 24608.15305807031, -13625.712826933006, -1699.7384071038257, -63817.359664125404, -187500.02235174447, 0.064, 0.982, 0.06, 192.0, 0.0, 0.0, 0.0, 0.0, 0.0, 0.0, 0.0, 0.0, 0.0, 1.741979108504602E9, 0.0, 2025-03-14 14:05:08.504
218.0, -21793.55434102468, -7794.299160754581, -187500.02235174447, -13131.202832603793, 17649.049180632734, 5152.97116672649, -48980.808136559506, 898.3836648921567, -5567.2383984611515, 36633.570388981156, 3096.56597334933, 24456.429416707688, -13585.345576446722, -1695.692741357415, -63939.55665106257, -187500.02235174447, 0.064, 0.982, 0.06, 192.0, 0.0, 0.0, 0.0, 0.0, 0.0, 0.0, 0.0, 0.0, 0.0, 1.741979108504652E9, 0.0, 2025-03-14 14:05:08.504
220.0, -21810.631073788532, -7802.8375271365085, -187500.02235174447, -13176.353356403513, 17601.350557965106, 5121.432855300052, -48994.845032077435, 872.9250279575621, -5533.688430033735, 36758.136660830576, 3251.26239672451, 24590.025793317058, -13627.925649634082, -1678.2583806822754, -63840.091388236455, -187500.02235174447, 0.066, 0.984, 0.06, 192.0, 1.0, 8.0, 15.0, 96.0, 0.5, 112.0, 0.0, 0.0, 0.0, 1.741979108564713E9, 0.0, 2025-03-14 14:05:08.564
222.0, -21804.28317836323, -7826.351562303492, -187500.02235174447, -13109.16401257086, 17674.865445478612, 5181.983731029479, -49010.13362528487, 929.5196449183995, -5586.371491714895, 36644.0980606196, 3109.0605984998465, 24463.671381911205, -13610.044254069837, -1700.5207181597614, -63920.356502575465, -187500.02235174447, 0.066, 0.984, 0.06, 192.0, 0.0, 0.0, 0.0, 0.0, 0.0, 0.0, 0.0, 0.0, 0.0, 1.741979108564856E9, 0.0, 2025-03-14 14:05:08.564
224.0, -21787.184093854918, -7808.760739417165, -187500.02235174447, -13150.000649690706, 17615.0074738273, 5140.811817742803, -48986.15020348432, 890.1135194436931, -5599.402558732339, 36782.0306756533, 3273.4800307130854, 24607.638967947838, -13633.22301306999, -1701.7500641048032, -63811.12352742237, -187500.02235174447, 0.066, 0.984, 0.06, 192.0, 0.0, 0.0, 0.0, 0.0, 0.0, 0.0, 0.0, 0.0, 0.0, 1.741979108564906E9, 0.0, 2025-03-14 14:05:08.564
