%OpenBCI Raw EXG Data
%Number of channels = 8
%Sample Rate = 250 Hz
%Board = OpenBCI_GUI$BoardCytonSerial
Sample Index, EXG Channel 0, EXG Channel 1, EXG Channel 2, EXG Channel 3, EXG Channel 4, EXG Channel 5, EXG Channel 6, EXG Channel 7, Accel Channel 0, Accel Channel 1, Accel Channel 2, Not Used, Digital Channel 0 (D11), Digital Channel 1 (D12), Digital Channel 2 (D13), Digital Channel 3 (D17), Not Used, Digital Channel 4 (D18), Analog Channel 0, Analog Channel 1, Analog Channel 2, Timestamp, Marker Channel, Timestamp (Formatted)
253.0, 3849.730354515357, 22839.14659489949, -6694.615685297929, -18850.075465449747, -187500.02235174447, 20667.451103621854, -187500.02235174447, 5254.582197020316, 0.0, 0.0, 0.0, 192.0, 0.0, 0.0, 0.0, 0.0, 0.0, 0.0, 0.0, 0.0, 0.0, 1.741290221893158E9, 0.0, 2025-03-06 13:43:41.893
254.0, 3849.708002770901, 22865.700467312392, -6689.385377095387, -18831.165889640557, -187500.02235174447, 20672.77081880222, -187500.02235174447, 5253.9116446866565, 0.0, 0.0, 0.0, 192.0, 0.0, 0.0, 0.0, 0.0, 0.0, 0.0, 0.0, 0.0, 0.0, 1.741290221893194E9, 0.0, 2025-03-06 13:43:41.893
255.0, 3856.748802274323, 22865.85692952358, -6685.2279526267, -18803.941464893993, -187500.02235174447, 20677.531740371196, -187500.02235174447, 5259.343118589297, 0.0, 0.0, 0.0, 192.0, 0.0, 0.0, 0.0, 0.0, 0.0, 0.0, 0.0, 0.0, 0.0, 1.741290221893214E9, 0.0, 2025-03-06 13:43:41.893
0.0, 3855.608863307102, 22841.2923623672, -6690.748833507161, -18857.16096844208, -187500.02235174447, 20667.920490255416, -187500.02235174447, 5233.459798510051, 0.0, 0.0, 0.0, 192.0, 0.0, 0.0, 0.0, 0.0, 0.0, 0.0, 0.0, 0.0, 0.0, 1.74129022189325E9, 0.0, 2025-03-06 13:43:41.893
1.0, 3855.564159818192, 22848.46727233735, -6685.540877049074, -18879.1550849861, -187500.02235174447, 20672.14496995747, -187500.02235174447, 5233.191577576587, 0.0, 0.0, 0.0, 192.0, 0.0, 0.0, 0.0, 0.0, 0.0, 0.0, 0.0, 0.0, 0.0, 1.74129022189327E9, 0.0, 2025-03-06 13:43:41.893
2.0, 3848.098677170119, 22862.638278322018, -6686.949036949759, -18850.746017783407, -187500.02235174447, 20673.933109513895, -187500.02235174447, 5253.79988596438, 0.212, 0.904, -0.328, 192.0, 6.0, 160.0, 28.0, 64.0, 245.0, 192.0, 0.0, 0.0, 0.0, 1.741290221893297E9, 0.0, 2025-03-06 13:43:41.893
3.0, 3848.6127672925913, 22859.598441076094, -6690.771185251616, -18821.48758429141, -187500.02235174447, 20675.296565925666, -187500.02235174447, 5261.779458734925, 0.212, 0.904, -0.328, 192.0, 0.0, 0.0, 0.0, 0.0, 0.0, 0.0, 0.0, 0.0, 0.0, 1.741290221893319E9, 0.0, 2025-03-06 13:43:41.893
4.0, 3863.5437325887365, 22834.877411708523, -6686.32318810501, -18892.968463059482, -187500.02235174447, 20656.364638372022, -187500.02235174447, 5212.695027911071, 0.212, 0.904, -0.328, 192.0, 0.0, 0.0, 0.0, 0.0, 0.0, 0.0, 0.0, 0.0, 0.0, 1.741290221893338E9, 0.0, 2025-03-06 13:43:41.893
5.0, 3862.2473314103286, 22841.80645248967, -6686.2114293827335, -18952.289992843867, -187500.02235174447, 20664.366562887022, -187500.02235174447, 5188.21986773251, 0.212, 0.904, -0.328, 192.0, 0.0, 0.0, 0.0, 0.0, 0.0, 0.0, 0.0, 0.0, 0.0, 1.741290221893356E9, 0.0, 2025-03-06 13:43:41.893
6.0, 3856.4358778519486, 22859.598441076094, -6682.1657636363225, -18930.675855955586, -187500.02235174447, 20682.091496240082, -187500.02235174447, 5215.913679112635, 0.212, 0.904, -0.328, 192.0, 0.0, 0.0, 0.0, 0.0, 0.0, 0.0, 0.0, 0.0, 0.0, 1.741290221893375E9, 0.0, 2025-03-06 13:43:41.893
7.0, 3845.5729300466696, 22855.955106729878, -6688.647769528362, -18901.529181185866, -187500.02235174447, 20675.676545581406, -187500.02235174447, 5227.424827507118, 0.212, 0.904, -0.328, 192.0, 0.0, 0.0, 0.0, 0.0, 0.0, 0.0, 0.0, 0.0, 0.0, 1.741290221893394E9, 0.0, 2025-03-06 13:43:41.893
8.0, 3851.138514416041, 22827.411929060454, -6693.2522288861555, -18936.75553044743, -187500.02235174447, 20656.208176160835, -187500.02235174447, 5211.800958132859, 0.212, 0.904, -0.328, 192.0, 0.0, 0.0, 0.0, 0.0, 0.0, 0.0, 0.0, 0.0, 0.0, 1.741290221893419E9, 0.0, 2025-03-06 13:43:41.893
9.0, 3869.0869652136525, 22841.22530713383, -6673.60504550994, -19022.161546011157, -187500.02235174447, 20662.64547856396, -187500.02235174447, 5172.774812313893, 0.212, 0.904, -0.328, 192.0, 0.0, 0.0, 0.0, 0.0, 0.0, 0.0, 0.0, 0.0, 0.0, 1.741290221893438E9, 0.0, 2025-03-06 13:43:41.893
10.0, 3860.3474331316274, 22853.33995262861, -6674.029728654591, -19044.088607321813, -187500.02235174447, 20681.24212995078, -187500.02235174447, 5174.6076553592275, 0.212, 0.904, -0.328, 192.0, 0.0, 0.0, 0.0, 0.0, 0.0, 0.0, 0.0, 0.0, 0.0, 1.741290221893458E9, 0.0, 2025-03-06 13:43:41.893
11.0, 3853.396040606027, 22863.86762426706, -6678.298911845554, -18990.62323458472, -187500.02235174447, 20690.1828277329, -187500.02235174447, 5212.806786633348, 0.212, 0.904, -0.328, 192.0, 0.0, 0.0, 0.0, 0.0, 0.0, 0.0, 0.0, 0.0, 0.0, 1.741290221893477E9, 0.0, 2025-03-06 13:43:41.893
12.0, 3855.4076976070046, 22834.43037681942, -6683.03748167008, -19004.34720568028, -187500.02235174447, 20678.984603760793, -187500.02235174447, 5206.861222608236, 0.21, 0.906, -0.33, 192.0, 6.0, 144.0, 28.0, 80.0, 245.0, 176.0, 0.0, 0.0, 0.0, 1.741290221893496E9, 0.0, 2025-03-06 13:43:41.893
13.0, 3863.364918633094, 22831.23407736231, -6679.37179557941, -19088.188599132132, -187500.02235174447, 20674.670717080917, -187500.02235174447, 5159.855504018725, 0.21, 0.906, -0.33, 192.0, 0.0, 0.0, 0.0, 0.0, 0.0, 0.0, 0.0, 0.0, 0.0, 1.741290221893525E9, 0.0, 2025-03-06 13:43:41.893
14.0, 3861.4426686099378, 22848.131996170523, -6678.567132779019, -19126.41008215071, -187500.02235174447, 20673.664888580428, -187500.02235174447, 5149.998384713935, 0.21, 0.906, -0.33, 192.0, 0.0, 0.0, 0.0, 0.0, 0.0, 0.0, 0.0, 0.0, 0.0, 1.741290221893544E9, 0.0, 2025-03-06 13:43:41.893
0.0, 0.0, 0.0, 0.0, 0.0, 0.0, 0.0, 0.0, 0.0, 0.21, 0.908, -0.316, 192.0, 6.0, 144.0, 28.0, 96.0, 246.0, 32.0, 0.0, 0.0, 0.0, 1.741290221968274E9, 0.0, 2025-03-06 13:43:41.968
1.0, 3454.5515125455277, 23026.811841346247, -6687.686644516783, -19914.13026024464, -187500.02235174447, 20546.371703907455, -187500.02235174447, 4801.467633422331, 0.21, 0.908, -0.316, 192.0, 0.0, 0.0, 0.0, 0.0, 0.0, 0.0, 0.0, 0.0, 0.0, 1.741290222031683E9, 0.0, 2025-03-06 13:43:42.031
2.0, 3447.510713042106, 22998.380422399096, -6692.3134556190325, -19974.56937725179, -187500.02235174447, 20525.11519493046, -187500.02235174447, 4755.110115422024, 0.21, 0.908, -0.316, 192.0, 0.0, 0.0, 0.0, 0.0, 0.0, 0.0, 0.0, 0.0, 0.0, 1.741290222031745E9, 0.0, 2025-03-06 13:43:42.031
3.0, 3438.6370704933493, 23012.998463272867, -6692.939304463781, -19993.63541527217, -187500.02235174447, 20529.2949711436, -187500.02235174447, 4746.795266484651, 0.21, 0.908, -0.316, 192.0, 0.0, 0.0, 0.0, 0.0, 0.0, 0.0, 0.0, 0.0, 0.0, 1.741290222031764E9, 0.0, 2025-03-06 13:43:42.031
4.0, 3434.1443698578323, 23036.624257162126, -6694.459223086742, -19948.082560072253, -187500.02235174447, 20550.3503144205, -187500.02235174447, 4781.4404703903765, 0.21, 0.908, -0.316, 192.0, 0.0, 0.0, 0.0, 0.0, 0.0, 0.0, 0.0, 0.0, 0.0, 1.741290222031784E9, 0.0, 2025-03-06 13:43:42.031
5.0, 3448.3600793314076, 23034.45613794996, -6688.804231739549, -19921.84161208172, -187500.02235174447, 20553.12193073296, -187500.02235174447, 4784.010921002737, 0.21, 0.908, -0.316, 192.0, 0.0, 0.0, 0.0, 0.0, 0.0, 0.0, 0.0, 0.0, 0.0, 1.741290222031802E9, 0.0, 2025-03-06 13:43:42.031
6.0, 3447.488361297651, 23014.786602829292, -6688.111327661434, -19948.864871128186, -187500.02235174447, 20547.712808574775, -187500.02235174447, 4770.175191184901, 0.21, 0.908, -0.316, 192.0, 0.0, 0.0, 0.0, 0.0, 0.0, 0.0, 0.0, 0.0, 0.0, 1.741290222031821E9, 0.0, 2025-03-06 13:43:42.031
7.0, 3440.3358030719523, 23016.038300518787, -6690.32415036251, -19977.877435431175, -187500.02235174447, 20543.24245968371, -187500.02235174447, 4759.826333502095, 0.21, 0.908, -0.316, 192.0, 0.0, 0.0, 0.0, 0.0, 0.0, 0.0, 0.0, 0.0, 0.0, 1.74129022203184E9, 0.0, 2025-03-06 13:43:42.031
8.0, 3425.516596498084, 23027.057710535253, -6699.734234778194, -19939.454786712504, -187500.02235174447, 20540.60495383799, -187500.02235174447, 4782.5580576131415, 0.212, 0.908, -0.304, 192.0, 6.0, 160.0, 28.0, 96.0, 246.0, 128.0, 0.0, 0.0, 0.0, 1.741290222031859E9, 0.0, 2025-03-06 13:43:42.031
9.0, 3438.547663515528, 23032.04214954879, -6691.352330607454, -19910.08459449823, -187500.02235174447, 20542.616610838963, -187500.02235174447, 4781.462822134831, 0.212, 0.908, -0.304, 192.0, 0.0, 0.0, 0.0, 0.0, 0.0, 0.0, 0.0, 0.0, 0.0, 1.741290222031887E9, 0.0, 2025-03-06 13:43:42.031
10.0, 3436.379544303363, 23001.442611389473, -6699.108385933446, -19955.57039446478, -187500.02235174447, 20531.597200822496, -187500.02235174447, 4753.165513654413, 0.212, 0.908, -0.304, 192.0, 0.0, 0.0, 0.0, 0.0, 0.0, 0.0, 0.0, 0.0, 0.0, 1.741290222031906E9, 0.0, 2025-03-06 13:43:42.031
11.0, 3435.7313437141593, 22998.93921601048, -6699.711883033739, -20008.43227010158, -187500.02235174447, 20532.603029322985, -187500.02235174447, 4729.383257553966, 0.212, 0.908, -0.304, 192.0, 0.0, 0.0, 0.0, 0.0, 0.0, 0.0, 0.0, 0.0, 0.0, 1.741290222031925E9, 0.0, 2025-03-06 13:43:42.031
12.0, 3438.6147187488937, 23028.532925669304, -6691.329978862999, -20009.48280209098, -187500.02235174447, 20549.00920975318, -187500.02235174447, 4736.2452431017455, 0.212, 0.908, -0.304, 192.0, 0.0, 0.0, 0.0, 0.0, 0.0, 0.0, 0.0, 0.0, 0.0, 1.741290222031945E9, 0.0, 2025-03-06 13:43:42.031
13.0, 3424.9801546311564, 23040.267591508342, -6700.3600836229425, -19922.981551048942, -187500.02235174447, 20549.120968475458, -187500.02235174447, 4793.912743796438, 0.212, 0.908, -0.304, 192.0, 0.0, 0.0, 0.0, 0.0, 0.0, 0.0, 0.0, 0.0, 0.0, 1.741290222031964E9, 0.0, 2025-03-06 13:43:42.031
14.0, 3425.5389482425394, 22996.011137486832, -6705.880964503403, -19920.433452181038, -187500.02235174447, 20528.87028799895, -187500.02235174447, 4789.218877460823, 0.212, 0.908, -0.304, 192.0, 0.0, 0.0, 0.0, 0.0, 0.0, 0.0, 0.0, 0.0, 0.0, 1.74129022203199E9, 0.0, 2025-03-06 13:43:42.031
15.0, 3435.77604720307, 22990.803181028747, -6697.3649498659315, -19989.589749525756, -187500.02235174447, 20521.740081517706, -187500.02235174447, 4742.168455382402, 0.212, 0.908, -0.304, 192.0, 0.0, 0.0, 0.0, 0.0, 0.0, 0.0, 0.0, 0.0, 0.0, 1.74129022203201E9, 0.0, 2025-03-06 13:43:42.032
16.0, 3429.0705238664777, 23013.803126073257, -6696.493231832174, -19976.58103425277, -187500.02235174447, 20535.978142735737, -187500.02235174447, 4759.021670701703, 0.212, 0.908, -0.304, 192.0, 0.0, 0.0, 0.0, 0.0, 0.0, 0.0, 0.0, 0.0, 0.0, 1.741290222091986E9, 0.0, 2025-03-06 13:43:42.091
17.0, 3432.6244512348717, 23030.254009992364, -6695.062720187035, -19930.357626719193, -187500.02235174447, 20539.196793937303, -187500.02235174447, 4780.456993634342, 0.212, 0.908, -0.304, 192.0, 0.0, 0.0, 0.0, 0.0, 0.0, 0.0, 0.0, 0.0, 0.0, 1.741290222092019E9, 0.0, 2025-03-06 13:43:42.092
18.0, 3435.3290123139636, 23005.398870158064, -6700.963580723236, -19936.392597722126, -187500.02235174447, 20531.93247698933, -187500.02235174447, 4770.175191184901, 0.20800000000000002, 0.912, -0.3, 192.0, 6.0, 128.0, 28.0, 128.0, 246.0, 160.0, 0.0, 0.0, 0.0, 1.74129022209206E9, 0.0, 2025-03-06 13:43:42.092
19.0, 3437.5641867594945, 22994.73708805288, -6702.818775513027, -19998.888075219165, -187500.02235174447, 20519.72842451673, -187500.02235174447, 4730.813769199106, 0.20800000000000002, 0.912, -0.3, 192.0, 0.0, 0.0, 0.0, 0.0, 0.0, 0.0, 0.0, 0.0, 0.0, 1.741290222092081E9, 0.0, 2025-03-06 13:43:42.092
20.0, 3438.838236193447, 23014.160753984543, -6698.191964410778, -20026.71599706602, -187500.02235174447, 20525.62928505293, -187500.02235174447, 4712.708856190307, 0.20800000000000002, 0.912, -0.3, 192.0, 0.0, 0.0, 0.0, 0.0, 0.0, 0.0, 0.0, 0.0, 0.0, 1.7412902220921E9, 0.0, 2025-03-06 13:43:42.092
21.0, 3432.512692512595, 23036.110167039653, -6700.985932467692, -19969.964917893998, -187500.02235174447, 20535.575811335544, -187500.02235174447, 4752.517313065209, 0.20800000000000002, 0.912, -0.3, 192.0, 0.0, 0.0, 0.0, 0.0, 0.0, 0.0, 0.0, 0.0, 0.0, 1.741290222092119E9, 0.0, 2025-03-06 13:43:42.092
22.0, 3439.151160615821, 23015.390099929584, -6703.891659246881, -19966.18747308105, -187500.02235174447, 20528.378549620935, -187500.02235174447, 4752.629071787485, 0.20800000000000002, 0.912, -0.3, 192.0, 0.0, 0.0, 0.0, 0.0, 0.0, 0.0, 0.0, 0.0, 0.0, 1.741290222092138E9, 0.0, 2025-03-06 13:43:42.092
23.0, 3440.4699135386845, 22999.229788688397, -6701.7682435236275, -20011.874438747698, -187500.02235174447, 20523.52822107413, -187500.02235174447, 4736.826388457584, 0.20800000000000002, 0.912, -0.3, 192.0, 0.0, 0.0, 0.0, 0.0, 0.0, 0.0, 0.0, 0.0, 0.0, 1.741290222092157E9, 0.0, 2025-03-06 13:43:42.092
24.0, 3439.39702980483, 23006.94114052548, -6698.32607487751, -20035.835508803786, -187500.02235174447, 20526.67981704233, -187500.02235174447, 4730.2549755877235, 0.20800000000000002, 0.912, -0.3, 192.0, 0.0, 0.0, 0.0, 0.0, 0.0, 0.0, 0.0, 0.0, 0.0, 1.741290222092183E9, 0.0, 2025-03-06 13:43:42.092
25.0, 3435.7536954586144, 23030.298713481276, -6700.225973156211, -19984.15827562312, -187500.02235174447, 20534.100596201493, -187500.02235174447, 4764.453144604343, 0.20800000000000002, 0.912, -0.3, 192.0, 0.0, 0.0, 0.0, 0.0, 0.0, 0.0, 0.0, 0.0, 0.0, 1.741290222092203E9, 0.0, 2025-03-06 13:43:42.092
26.0, 3436.223082092176, 23014.764251084835, -6701.812947012538, -19950.965935106986, -187500.02235174447, 20525.897505986395, -187500.02235174447, 4780.166420956423, 0.20800000000000002, 0.912, -0.3, 192.0, 0.0, 0.0, 0.0, 0.0, 0.0, 0.0, 0.0, 0.0, 0.0, 1.741290222092221E9, 0.0, 2025-03-06 13:43:42.092
27.0, 3433.540872757539, 22984.902320492547, -6705.590391825484, -20020.54691559636, -187500.02235174447, 20511.704148257275, -187500.02235174447, 4735.7758564681835, 0.20800000000000002, 0.912, -0.3, 192.0, 0.0, 0.0, 0.0, 0.0, 0.0, 0.0, 0.0, 0.0, 0.0, 1.741290222092241E9, 0.0, 2025-03-06 13:43:42.092
28.0, 3435.8207506919803, 22996.011137486832, -6699.913048733837, -20067.01619231894, -187500.02235174447, 20522.5447443181, -187500.02235174447, 4717.358019037011, 0.21, 0.91, -0.302, 192.0, 6.0, 144.0, 28.0, 112.0, 246.0, 144.0, 0.0, 0.0, 0.0, 1.74129022209226E9, 0.0, 2025-03-06 13:43:42.092
29.0, 3430.635145978349, 23019.83809707619, -6701.812947012538, -20050.54295665538, -187500.02235174447, 20534.279410157134, -187500.02235174447, 4733.294812833645, 0.21, 0.91, -0.302, 192.0, 0.0, 0.0, 0.0, 0.0, 0.0, 0.0, 0.0, 0.0, 0.0, 1.741290222092286E9, 0.0, 2025-03-06 13:43:42.092
30.0, 3427.036515121045, 23017.446460419473, -6707.2220691707225, -19994.06009841682, -187500.02235174447, 20534.748796790696, -187500.02235174447, 4770.823391774105, 0.21, 0.91, -0.302, 192.0, 0.0, 0.0, 0.0, 0.0, 0.0, 0.0, 0.0, 0.0, 0.0, 1.741290222092305E9, 0.0, 2025-03-06 13:43:42.092
31.0, 3425.471893009173, 22980.96841346841, -6711.42419712832, -20033.645037847167, -187500.02235174447, 20515.97333144824, -187500.02235174447, 4747.555225796131, 0.21, 0.91, -0.302, 192.0, 0.0, 0.0, 0.0, 0.0, 0.0, 0.0, 0.0, 0.0, 0.0, 1.741290222152276E9, 0.0, 2025-03-06 13:43:42.152
32.0, 3439.285271082553, 22996.905207265045, -6698.549592322063, -20085.098753583283, -187500.02235174447, 20521.985950706716, -187500.02235174447, 4719.146158593436, 0.21, 0.91, -0.302, 192.0, 0.0, 0.0, 0.0, 0.0, 0.0, 0.0, 0.0, 0.0, 0.0, 1.74129022215231E9, 0.0, 2025-03-06 13:43:42.152
33.0, 3437.5865385039497, 23025.582495401206, -6697.499060332663, -20071.285375509906, -187500.02235174447, 20534.21235492377, -187500.02235174447, 4735.082952390069, 0.21, 0.91, -0.302, 192.0, 0.0, 0.0, 0.0, 0.0, 0.0, 0.0, 0.0, 0.0, 0.0, 1.741290222152353E9, 0.0, 2025-03-06 13:43:42.152
34.0, 3428.1541023438103, 23027.50474542436, -6705.858612758949, -20010.220409658006, -187500.02235174447, 20531.239572911214, -187500.02235174447, 4772.790345286173, 0.21, 0.91, -0.302, 192.0, 0.0, 0.0, 0.0, 0.0, 0.0, 0.0, 0.0, 0.0, 0.0, 1.741290222152373E9, 0.0, 2025-03-06 13:43:42.152
35.0, 3434.3008320690196, 22989.17150368351, -6709.881926760903, -20035.63434310369, -187500.02235174447, 20517.515601815656, -187500.02235174447, 4754.014879943715, 0.21, 0.91, -0.302, 192.0, 0.0, 0.0, 0.0, 0.0, 0.0, 0.0, 0.0, 0.0, 0.0, 1.741290222152392E9, 0.0, 2025-03-06 13:43:42.152
36.0, 3427.1706255877766, 22985.036430959277, -6715.626325085917, -20055.63915439119, -187500.02235174447, 20514.5428198031, -187500.02235174447, 4748.270481618701, 0.21, 0.91, -0.302, 192.0, 0.0, 0.0, 0.0, 0.0, 0.0, 0.0, 0.0, 0.0, 0.0, 1.741290222152411E9, 0.0, 2025-03-06 13:43:42.152
37.0, 3423.6837534527485, 23001.9790532564, -6711.603011083962, -20051.21350898904, -187500.02235174447, 20513.00054943568, -187500.02235174447, 4744.56009203912, 0.21, 0.91, -0.302, 192.0, 0.0, 0.0, 0.0, 0.0, 0.0, 0.0, 0.0, 0.0, 0.0, 1.74129022215243E9, 0.0, 2025-03-06 13:43:42.152
38.0, 3425.382486031352, 23018.40758543105, -6706.193888925778, -20019.406976629136, -187500.02235174447, 20515.660407025865, -187500.02235174447, 4749.075144419092, 0.21, 0.912, -0.306, 192.0, 6.0, 144.0, 28.0, 128.0, 246.0, 112.0, 0.0, 0.0, 0.0, 1.741290222152449E9, 0.0, 2025-03-06 13:43:42.152
39.0, 3428.2435093216313, 22993.440686874474, -6706.4621098592415, -20019.33992139577, -187500.02235174447, 20509.11134590046, -187500.02235174447, 4749.388068841466, 0.21, 0.912, -0.306, 192.0, 0.0, 0.0, 0.0, 0.0, 0.0, 0.0, 0.0, 0.0, 0.0, 1.74129022215247E9, 0.0, 2025-03-06 13:43:42.152
40.0, 3443.1297711288657, 22990.132628695086, -6694.928609720303, -20076.135704056705, -187500.02235174447, 20511.3912238349, -187500.02235174447, 4713.826443413072, 0.21, 0.912, -0.306, 192.0, 0.0, 0.0, 0.0, 0.0, 0.0, 0.0, 0.0, 0.0, 0.0, 1.741290222152499E9, 0.0, 2025-03-06 13:43:42.152
41.0, 3438.860587937902, 23010.539771382784, -6694.727444020205, -20077.365050001747, -187500.02235174447, 20520.220162894748, -187500.02235174447, 4717.022742870181, 0.21, 0.912, -0.306, 192.0, 0.0, 0.0, 0.0, 0.0, 0.0, 0.0, 0.0, 0.0, 0.0, 1.741290222152518E9, 0.0, 2025-03-06 13:43:42.152
42.0, 3435.150198358321, 23029.628161147615, -6696.381473109898, -20021.664502819123, -187500.02235174447, 20525.651636797385, -187500.02235174447, 4746.884673462471, 0.21, 0.912, -0.306, 192.0, 0.0, 0.0, 0.0, 0.0, 0.0, 0.0, 0.0, 0.0, 0.0, 1.741290222152538E9, 0.0, 2025-03-06 13:43:42.152
43.0, 3439.8887681828464, 23003.8789515351, -6700.628304556407, -20022.78209004189, -187500.02235174447, 20524.243476896703, -187500.02235174447, 4741.341440837556, 0.21, 0.912, -0.306, 192.0, 0.0, 0.0, 0.0, 0.0, 0.0, 0.0, 0.0, 0.0, 0.0, 1.741290222152561E9, 0.0, 2025-03-06 13:43:42.152
44.0, 3442.68273623976, 22993.9771287414, -6700.427138856308, -20073.699363911077, -187500.02235174447, 20517.850877982484, -187500.02235174447, 4715.279306802668, 0.21, 0.912, -0.306, 192.0, 0.0, 0.0, 0.0, 0.0, 0.0, 0.0, 0.0, 0.0, 0.0, 1.74129022215258E9, 0.0, 2025-03-06 13:43:42.152
45.0, 3439.642898993838, 23010.69623359397, -6698.057853944047, -20078.50498896897, -187500.02235174447, 20530.814889766563, -187500.02235174447, 4720.844891172039, 0.21, 0.912, -0.306, 192.0, 0.0, 0.0, 0.0, 0.0, 0.0, 0.0, 0.0, 0.0, 0.0, 1.741290222152605E9, 0.0, 2025-03-06 13:43:42.152
46.0, 3434.0549628800113, 23029.382291958605, -6699.488365589186, -20019.362273140225, -187500.02235174447, 20539.330904404032, -187500.02235174447, 4756.630034044985, 0.21, 0.912, -0.306, 192.0, 0.0, 0.0, 0.0, 0.0, 0.0, 0.0, 0.0, 0.0, 0.0, 1.741290222211832E9, 0.0, 2025-03-06 13:43:42.211
47.0, 3435.2619570805978, 23016.999425530368, -6699.063682444535, -20000.609159542222, -187500.02235174447, 20533.564154334566, -187500.02235174447, 4763.179095170391, 0.21, 0.912, -0.306, 192.0, 0.0, 0.0, 0.0, 0.0, 0.0, 0.0, 0.0, 0.0, 0.0, 1.741290222211892E9, 0.0, 2025-03-06 13:43:42.211
48.0, 3441.8557216949134, 23004.66126259104, -6695.174478909312, -20053.806311345856, -187500.02235174447, 20526.41159610887, -187500.02235174447, 4730.389086054455, 0.212, 0.916, -0.31, 192.0, 6.0, 160.0, 28.0, 160.0, 246.0, 80.0, 0.0, 0.0, 0.0, 1.741290222211912E9, 0.0, 2025-03-06 13:43:42.211
49.0, 3431.1268843563657, 23011.70206209446, -6701.209449912245, -20062.411732961147, -187500.02235174447, 20529.026750210138, -187500.02235174447, 4728.3774290534775, 0.212, 0.916, -0.31, 192.0, 0.0, 0.0, 0.0, 0.0, 0.0, 0.0, 0.0, 0.0, 0.0, 1.74129022221194E9, 0.0, 2025-03-06 13:43:42.211
50.0, 3427.8858814103464, 23032.51153618235, -6699.8906969893815, -20011.561514325324, -187500.02235174447, 20541.990761994217, -187500.02235174447, 4756.138295666969, 0.212, 0.916, -0.31, 192.0, 0.0, 0.0, 0.0, 0.0, 0.0, 0.0, 0.0, 0.0, 0.0, 1.74129022221196E9, 0.0, 2025-03-06 13:43:42.211
51.0, 3435.150198358321, 23023.79435584478, -6698.661351044339, -19974.032935384865, -187500.02235174447, 20545.701151573798, -187500.02235174447, 4769.661101062429, 0.212, 0.916, -0.31, 192.0, 0.0, 0.0, 0.0, 0.0, 0.0, 0.0, 0.0, 0.0, 0.0, 1.741290222211979E9, 0.0, 2025-03-06 13:43:42.211
52.0, 3435.127846613866, 22997.50870436534, -6704.94219123628, -20031.745139568466, -187500.02235174447, 20525.741043775208, -187500.02235174447, 4727.6174697419965, 0.212, 0.916, -0.31, 192.0, 0.0, 0.0, 0.0, 0.0, 0.0, 0.0, 0.0, 0.0, 0.0, 1.741290222211999E9, 0.0, 2025-03-06 13:43:42.211
53.0, 3435.77604720307, 23010.517419638327, -6699.957752222747, -20059.59541315978, -187500.02235174447, 20533.005360723182, -187500.02235174447, 4720.040228371648, 0.212, 0.916, -0.31, 192.0, 0.0, 0.0, 0.0, 0.0, 0.0, 0.0, 0.0, 0.0, 0.0, 1.741290222212018E9, 0.0, 2025-03-06 13:43:42.212
54.0, 3423.8849191528466, 23032.198611759977, -6709.054912216057, -20018.937589995574, -187500.02235174447, 20538.749759048194, -187500.02235174447, 4753.612548543519, 0.212, 0.916, -0.31, 192.0, 0.0, 0.0, 0.0, 0.0, 0.0, 0.0, 0.0, 0.0, 0.0, 1.741290222212037E9, 0.0, 2025-03-06 13:43:42.212
55.0, 3425.9189278982794, 23032.332722226707, -6711.960638995247, -19961.605365467713, -187500.02235174447, 20536.53693634712, -187500.02235174447, 4782.043967490669, 0.212, 0.916, -0.31, 192.0, 0.0, 0.0, 0.0, 0.0, 0.0, 0.0, 0.0, 0.0, 0.0, 1.741290222212063E9, 0.0, 2025-03-06 13:43:42.212
56.0, 3429.0481721220226, 23000.280320677797, -6716.1851186973, -19998.686909519067, -187500.02235174447, 20526.21043040877, -187500.02235174447, 4757.032365445181, 0.212, 0.916, -0.31, 192.0, 0.0, 0.0, 0.0, 0.0, 0.0, 0.0, 0.0, 0.0, 0.0, 1.741290222212082E9, 0.0, 2025-03-06 13:43:42.212
57.0, 3435.351364058419, 23009.93627428249, -6710.843051772482, -20043.837433318786, -187500.02235174447, 20531.664256055865, -187500.02235174447, 4734.010068656215, 0.212, 0.916, -0.31, 192.0, 0.0, 0.0, 0.0, 0.0, 0.0, 0.0, 0.0, 0.0, 0.0, 1.741290222212102E9, 0.0, 2025-03-06 13:43:42.212
58.0, 3431.0821808674555, 23029.225829747418, -6709.434891871798, -20031.476918635002, -187500.02235174447, 20535.531107846633, -187500.02235174447, 4744.671850761396, 0.21, 0.914, -0.304, 192.0, 6.0, 144.0, 28.0, 144.0, 246.0, 128.0, 0.0, 0.0, 0.0, 1.741290222212121E9, 0.0, 2025-03-06 13:43:42.212
59.0, 3428.2658610660865, 23035.998408317377, -6711.267734917133, -19987.332223335772, -187500.02235174447, 20534.860555512972, -187500.02235174447, 4761.256845147234, 0.21, 0.914, -0.304, 192.0, 0.0, 0.0, 0.0, 0.0, 0.0, 0.0, 0.0, 0.0, 0.0, 1.741290222212142E9, 0.0, 2025-03-06 13:43:42.212
60.0, 3415.8606428933913, 23002.31432942323, -6722.4883106336965, -19982.32543257778, -187500.02235174447, 20523.572924563043, -187500.02235174447, 4767.425926616898, 0.21, 0.914, -0.304, 192.0, 0.0, 0.0, 0.0, 0.0, 0.0, 0.0, 0.0, 0.0, 0.0, 1.741290222212167E9, 0.0, 2025-03-06 13:43:42.212
61.0, 3415.4359597487405, 22991.540788595772, -6724.231746701211, -20014.735462037977, -187500.02235174447, 20509.312511600558, -187500.02235174447, 4746.147065895447, 0.21, 0.914, -0.304, 192.0, 0.0, 0.0, 0.0, 0.0, 0.0, 0.0, 0.0, 0.0, 0.0, 1.741290222272126E9, 0.0, 2025-03-06 13:43:42.272
62.0, 3417.671134194271, 23013.534905139793, -6717.459168131253, -20004.185438655073, -187500.02235174447, 20517.761471004662, -187500.02235174447, 4751.1538566534355, 0.21, 0.914, -0.304, 192.0, 0.0, 0.0, 0.0, 0.0, 0.0, 0.0, 0.0, 0.0, 0.0, 1.741290222272186E9, 0.0, 2025-03-06 13:43:42.272
63.0, 3410.160948057288, 23027.50474542436, -6719.716694321239, -19948.060208327795, -187500.02235174447, 20521.4942123287, -187500.02235174447, 4773.058566219636, 0.21, 0.914, -0.304, 192.0, 0.0, 0.0, 0.0, 0.0, 0.0, 0.0, 0.0, 0.0, 0.0, 1.741290222272207E9, 0.0, 2025-03-06 13:43:42.272
64.0, 3414.4748347371624, 22999.296843921762, -6717.883851275904, -19935.811452366288, -187500.02235174447, 20523.10353792948, -187500.02235174447, 4780.345234912066, 0.21, 0.914, -0.304, 192.0, 0.0, 0.0, 0.0, 0.0, 0.0, 0.0, 0.0, 0.0, 0.0, 1.741290222272234E9, 0.0, 2025-03-06 13:43:42.272
65.0, 3418.7887214170364, 22993.93242525249, -6715.112234963445, -19966.94743239253, -187500.02235174447, 20517.090918671005, -187500.02235174447, 4761.770935269706, 0.21, 0.914, -0.304, 192.0, 0.0, 0.0, 0.0, 0.0, 0.0, 0.0, 0.0, 0.0, 0.0, 1.741290222272253E9, 0.0, 2025-03-06 13:43:42.272
66.0, 3422.2979452965196, 23018.98873078689, -6709.658409316351, -19976.849255186233, -187500.02235174447, 20523.68468328532, -187500.02235174447, 4752.003222942737, 0.21, 0.914, -0.304, 192.0, 0.0, 0.0, 0.0, 0.0, 0.0, 0.0, 0.0, 0.0, 0.0, 1.741290222272273E9, 0.0, 2025-03-06 13:43:42.272
67.0, 3421.0685993514776, 23039.060597307755, -6711.625362828418, -19916.4995451569, -187500.02235174447, 20530.211392666268, -187500.02235174447, 4781.70869132384, 0.21, 0.914, -0.304, 192.0, 0.0, 0.0, 0.0, 0.0, 0.0, 0.0, 0.0, 0.0, 0.0, 1.741290222272292E9, 0.0, 2025-03-06 13:43:42.272
68.0, 3423.460236008196, 23014.048995262267, -6714.285220418599, -19910.330463687238, -187500.02235174447, 20523.327055374033, -187500.02235174447, 4776.836011032583, 0.21, 0.916, -0.302, 192.0, 6.0, 144.0, 28.0, 160.0, 246.0, 144.0, 0.0, 0.0, 0.0, 1.741290222272311E9, 0.0, 2025-03-06 13:43:42.272
69.0, 3414.5418899705282, 22997.08402122069, -6717.347409408976, -19952.262336285396, -187500.02235174447, 20515.749814003684, -187500.02235174447, 4758.395821856955, 0.21, 0.916, -0.302, 192.0, 0.0, 0.0, 0.0, 0.0, 0.0, 0.0, 0.0, 0.0, 0.0, 1.741290222272332E9, 0.0, 2025-03-06 13:43:42.272
70.0, 3410.9209073687684, 23014.384271429095, -6714.620496585429, -19957.962031121497, -187500.02235174447, 20520.533087317122, -187500.02235174447, 4763.335557381578, 0.21, 0.916, -0.302, 192.0, 0.0, 0.0, 0.0, 0.0, 0.0, 0.0, 0.0, 0.0, 0.0, 1.741290222272351E9, 0.0, 2025-03-06 13:43:42.272
71.0, 3401.220250275165, 23028.51057392485, -6721.99657225568, -19906.016577007365, -187500.02235174447, 20520.19781115029, -187500.02235174447, 4790.403519916955, 0.21, 0.916, -0.302, 192.0, 0.0, 0.0, 0.0, 0.0, 0.0, 0.0, 0.0, 0.0, 0.0, 1.741290222272377E9, 0.0, 2025-03-06 13:43:42.272
72.0, 3416.307677782497, 23014.004291773355, -6714.955772752259, -19905.65894909608, -187500.02235174447, 20518.923761716338, -187500.02235174447, 4778.870019778016, 0.21, 0.916, -0.302, 192.0, 0.0, 0.0, 0.0, 0.0, 0.0, 0.0, 0.0, 0.0, 0.0, 1.741290222272396E9, 0.0, 2025-03-06 13:43:42.272
73.0, 3426.9247563987683, 23007.052899247756, -6703.489327846686, -19951.6588391851, -187500.02235174447, 20523.952904218782, -187500.02235174447, 4762.016804458714, 0.21, 0.916, -0.302, 192.0, 0.0, 0.0, 0.0, 0.0, 0.0, 0.0, 0.0, 0.0, 0.0, 1.741290222272416E9, 0.0, 2025-03-06 13:43:42.272
74.0, 3426.5000732541175, 23021.425070932517, -6698.795461511071, -19966.455694014516, -187500.02235174447, 20532.96065723427, -187500.02235174447, 4764.810772515628, 0.21, 0.916, -0.302, 192.0, 0.0, 0.0, 0.0, 0.0, 0.0, 0.0, 0.0, 0.0, 0.0, 1.741290222272435E9, 0.0, 2025-03-06 13:43:42.272
75.0, 3425.427189520263, 23047.442501478494, -6696.046196943069, -19928.41302495158, -187500.02235174447, 20542.795424794607, -187500.02235174447, 4789.218877460823, 0.21, 0.916, -0.302, 192.0, 0.0, 0.0, 0.0, 0.0, 0.0, 0.0, 0.0, 0.0, 0.0, 1.741290222272459E9, 0.0, 2025-03-06 13:43:42.272
76.0, 3423.77316043057, 23037.831251362713, -6700.538897578585, -19881.83198950672, -187500.02235174447, 20545.07530272905, -187500.02235174447, 4815.482177195809, 0.21, 0.916, -0.302, 192.0, 0.0, 0.0, 0.0, 0.0, 0.0, 0.0, 0.0, 0.0, 0.0, 1.741290222332424E9, 0.0, 2025-03-06 13:43:42.332
77.0, 3424.421361019774, 23003.83424804619, -6705.277467403111, -19912.297417199305, -187500.02235174447, 20526.746872275697, -187500.02235174447, 4792.638694362485, 0.21, 0.916, -0.302, 192.0, 0.0, 0.0, 0.0, 0.0, 0.0, 0.0, 0.0, 0.0, 0.0, 1.741290222332458E9, 0.0, 2025-03-06 13:43:42.332
78.0, 3426.67888720976, 23010.27155044932, -6699.197792911267, -19949.580126950757, -187500.02235174447, 20531.664256055865, -187500.02235174447, 4769.258769662234, 0.21, 0.912, -0.3, 192.0, 6.0, 144.0, 28.0, 128.0, 246.0, 160.0, 0.0, 0.0, 0.0, 1.741290222332504E9, 0.0, 2025-03-06 13:43:42.332
79.0, 3426.544776743028, 23037.495975195885, -6694.1910021532785, -19923.89797257161, -187500.02235174447, 20549.188023708826, -187500.02235174447, 4788.503621638253, 0.21, 0.912, -0.3, 192.0, 0.0, 0.0, 0.0, 0.0, 0.0, 0.0, 0.0, 0.0, 0.0, 1.741290222332525E9, 0.0, 2025-03-06 13:43:42.332
80.0, 3425.158968586799, 23040.200536274977, -6694.928609720303, -19869.247957378382, -187500.02235174447, 20549.59035510902, -187500.02235174447, 4816.040970807191, 0.21, 0.912, -0.3, 192.0, 0.0, 0.0, 0.0, 0.0, 0.0, 0.0, 0.0, 0.0, 0.0, 1.74129022233257E9, 0.0, 2025-03-06 13:43:42.332
81.0, 3420.509805740095, 23003.8789515351, -6705.948019736769, -19890.7950390333, -187500.02235174447, 20533.497099101198, -187500.02235174447, 4802.965200300837, 0.21, 0.912, -0.3, 192.0, 0.0, 0.0, 0.0, 0.0, 0.0, 0.0, 0.0, 0.0, 0.0, 1.741290222332588E9, 0.0, 2025-03-06 13:43:42.332
82.0, 3425.069561608978, 23003.722489323914, -6705.456281358753, -19933.822147109764, -187500.02235174447, 20525.91985773085, -187500.02235174447, 4775.3384441540775, 0.21, 0.912, -0.3, 192.0, 0.0, 0.0, 0.0, 0.0, 0.0, 0.0, 0.0, 0.0, 0.0, 1.741290222332601E9, 0.0, 2025-03-06 13:43:42.332
83.0, 3427.5059017546064, 23032.667998393536, -6696.649694043362, -19920.120527758663, -187500.02235174447, 20541.20845093828, -187500.02235174447, 4784.793232058672, 0.21, 0.912, -0.3, 192.0, 0.0, 0.0, 0.0, 0.0, 0.0, 0.0, 0.0, 0.0, 0.0, 1.74129022233262E9, 0.0, 2025-03-06 13:43:42.332
84.0, 3419.4145702617852, 23031.148079770577, -6703.735197035694, -19870.83493123471, -187500.02235174447, 20538.30272415909, -187500.02235174447, 4811.212994004845, 0.21, 0.912, -0.3, 192.0, 0.0, 0.0, 0.0, 0.0, 0.0, 0.0, 0.0, 0.0, 0.0, 1.741290222332633E9, 0.0, 2025-03-06 13:43:42.332
85.0, 3427.729419199159, 22999.74387881087, -6703.288162146589, -19903.915513028565, -187500.02235174447, 20533.16182293437, -187500.02235174447, 4791.4764036508095, 0.21, 0.912, -0.3, 192.0, 0.0, 0.0, 0.0, 0.0, 0.0, 0.0, 0.0, 0.0, 0.0, 1.741290222332646E9, 0.0, 2025-03-06 13:43:42.332
86.0, 3424.9578028867013, 22997.531056109794, -6704.1151766914345, -19957.872624143678, -187500.02235174447, 20526.67981704233, -187500.02235174447, 4761.636824802974, 0.21, 0.912, -0.3, 192.0, 0.0, 0.0, 0.0, 0.0, 0.0, 0.0, 0.0, 0.0, 0.0, 1.74129022233268E9, 0.0, 2025-03-06 13:43:42.332
87.0, 3424.421361019774, 23020.03926277629, -6698.0131504551355, -19960.241909055938, -187500.02235174447, 20532.82654676754, -187500.02235174447, 4764.788420771172, 0.20600000000000002, 0.914, -0.304, 192.0, 6.0, 112.0, 28.0, 144.0, 246.0, 128.0, 0.0, 0.0, 0.0, 1.741290222332693E9, 0.0, 2025-03-06 13:43:42.332
88.0, 3421.381523773852, 23038.881783352113, -6696.448528343264, -19901.970911260953, -187500.02235174447, 20542.415445138868, -187500.02235174447, 4799.008941532247, 0.20600000000000002, 0.914, -0.304, 192.0, 0.0, 0.0, 0.0, 0.0, 0.0, 0.0, 0.0, 0.0, 0.0, 1.741290222332708E9, 0.0, 2025-03-06 13:43:42.332
89.0, 3427.416494776785, 23012.41731791703, -6696.962618465736, -19922.780385348844, -187500.02235174447, 20534.83820376852, -187500.02235174447, 4778.870019778016, 0.20600000000000002, 0.914, -0.304, 192.0, 0.0, 0.0, 0.0, 0.0, 0.0, 0.0, 0.0, 0.0, 0.0, 1.741290222332722E9, 0.0, 2025-03-06 13:43:42.332
90.0, 3430.2328145781535, 23009.93627428249, -6689.877115473404, -19981.565473266302, -187500.02235174447, 20537.74393054771, -187500.02235174447, 4748.98573744127, 0.20600000000000002, 0.914, -0.304, 192.0, 0.0, 0.0, 0.0, 0.0, 0.0, 0.0, 0.0, 0.0, 0.0, 1.741290222332735E9, 0.0, 2025-03-06 13:43:42.332
91.0, 3414.5418899705282, 23024.643722134082, -6698.840164999982, -19971.730705705966, -187500.02235174447, 20536.983971236226, -187500.02235174447, 4767.694147550363, 0.20600000000000002, 0.914, -0.304, 192.0, 0.0, 0.0, 0.0, 0.0, 0.0, 0.0, 0.0, 0.0, 0.0, 1.741290222391747E9, 0.0, 2025-03-06 13:43:42.391
92.0, 3415.257145793098, 23040.64757116408, -6704.986894725192, -19919.36056844718, -187500.02235174447, 20530.390206621913, -187500.02235174447, 4791.56581062863, 0.20600000000000002, 0.914, -0.304, 192.0, 0.0, 0.0, 0.0, 0.0, 0.0, 0.0, 0.0, 0.0, 0.0, 1.741290222391765E9, 0.0, 2025-03-06 13:43:42.391
93.0, 3414.9218696262683, 23011.813820816737, -6711.0442174725795, -19930.983475563942, -187500.02235174447, 20516.95680820427, -187500.02235174447, 4777.104231966046, 0.20600000000000002, 0.914, -0.304, 192.0, 0.0, 0.0, 0.0, 0.0, 0.0, 0.0, 0.0, 0.0, 0.0, 1.741290222391792E9, 0.0, 2025-03-06 13:43:42.391
94.0, 3411.099721324411, 22999.810934044235, -6713.122929706923, -19963.102932346217, -187500.02235174447, 20511.458279068265, -187500.02235174447, 4771.4045371299435, 0.20600000000000002, 0.914, -0.304, 192.0, 0.0, 0.0, 0.0, 0.0, 0.0, 0.0, 0.0, 0.0, 0.0, 1.741290222391805E9, 0.0, 2025-03-06 13:43:42.391
95.0, 3416.4417882492294, 23012.752594083857, -6704.606915069451, -19980.537293021356, -187500.02235174447, 20522.097709428992, -187500.02235174447, 4761.905045736438, 0.20600000000000002, 0.914, -0.304, 192.0, 0.0, 0.0, 0.0, 0.0, 0.0, 0.0, 0.0, 0.0, 0.0, 1.741290222391822E9, 0.0, 2025-03-06 13:43:42.391
96.0, 3410.2280032906538, 23040.13348104161, -6702.818775513027, -19923.31682721577, -187500.02235174447, 20536.425177624846, -187500.02235174447, 4793.309246696144, 0.20600000000000002, 0.914, -0.304, 192.0, 0.0, 0.0, 0.0, 0.0, 0.0, 0.0, 0.0, 0.0, 0.0, 1.741290222391836E9, 0.0, 2025-03-06 13:43:42.391
97.0, 3423.6614017082934, 23022.162678499542, -6699.04133070008, -19909.5481526313, -187500.02235174447, 20533.83237526803, -187500.02235174447, 4791.007017017248, 0.2, 0.914, -0.3, 192.0, 6.0, 64.0, 28.0, 144.0, 246.0, 160.0, 0.0, 0.0, 0.0, 1.741290222391849E9, 0.0, 2025-03-06 13:43:42.391
98.0, 3431.9762506456677, 23006.851733547657, -6695.129775420401, -19963.058228857306, -187500.02235174447, 20530.412558366366, -187500.02235174447, 4763.916702737415, 0.2, 0.914, -0.3, 192.0, 0.0, 0.0, 0.0, 0.0, 0.0, 0.0, 0.0, 0.0, 0.0, 1.741290222391864E9, 0.0, 2025-03-06 13:43:42.391
99.0, 3426.6565354653044, 23019.301655209263, -6690.592371295974, -19985.85700820172, -187500.02235174447, 20531.15016593339, -187500.02235174447, 4759.759278268728, 0.2, 0.914, -0.3, 192.0, 0.0, 0.0, 0.0, 0.0, 0.0, 0.0, 0.0, 0.0, 0.0, 1.741290222391877E9, 0.0, 2025-03-06 13:43:42.391
100.0, 3409.6245061903605, 23041.161661286555, -6694.973313209214, -19929.28474298534, -187500.02235174447, 20534.793500279608, -187500.02235174447, 4797.600781631563, 0.2, 0.914, -0.3, 192.0, 0.0, 0.0, 0.0, 0.0, 0.0, 0.0, 0.0, 0.0, 0.0, 1.741290222391891E9, 0.0, 2025-03-06 13:43:42.391
101.0, 3411.680866680249, 23025.515440167837, -6698.348426621965, -19886.50350409788, -187500.02235174447, 20525.070491441547, -187500.02235174447, 4812.531746927709, 0.2, 0.914, -0.3, 192.0, 0.0, 0.0, 0.0, 0.0, 0.0, 0.0, 0.0, 0.0, 0.0, 1.741290222391907E9, 0.0, 2025-03-06 13:43:42.391
102.0, 3408.8868986233356, 22995.83232353119, -6704.651618558361, -19937.867812856177, -187500.02235174447, 20509.379566833923, -187500.02235174447, 4776.768955799217, 0.2, 0.914, -0.3, 192.0, 0.0, 0.0, 0.0, 0.0, 0.0, 0.0, 0.0, 0.0, 0.0, 1.741290222391921E9, 0.0, 2025-03-06 13:43:42.391
103.0, 3412.709046925193, 23004.862428291133, -6705.3445226364765, -19966.05336261432, -187500.02235174447, 20517.470898326745, -187500.02235174447, 4765.660138804929, 0.2, 0.914, -0.3, 192.0, 0.0, 0.0, 0.0, 0.0, 0.0, 0.0, 0.0, 0.0, 0.0, 1.741290222391934E9, 0.0, 2025-03-06 13:43:42.391
104.0, 3412.8431573919247, 23035.12669028362, -6701.276505145611, -19940.79589137982, -187500.02235174447, 20535.329942146534, -187500.02235174447, 4786.402557659454, 0.2, 0.914, -0.3, 192.0, 0.0, 0.0, 0.0, 0.0, 0.0, 0.0, 0.0, 0.0, 0.0, 1.741290222391947E9, 0.0, 2025-03-06 13:43:42.391
105.0, 3412.9102126252906, 23029.9857890589, -6697.94609522177, -19891.01855647785, -187500.02235174447, 20537.63217182543, -187500.02235174447, 4814.6104591620515, 0.2, 0.914, -0.3, 192.0, 0.0, 0.0, 0.0, 0.0, 0.0, 0.0, 0.0, 0.0, 0.0, 1.74129022239196E9, 0.0, 2025-03-06 13:43:42.391
106.0, 3422.4320557632514, 22997.665166576528, -6695.465051587231, -19933.41981570957, -187500.02235174447, 20527.707997287274, -187500.02235174447, 4786.3131506816335, 0.2, 0.914, -0.3, 192.0, 0.0, 0.0, 0.0, 0.0, 0.0, 0.0, 0.0, 0.0, 0.0, 1.741290222451486E9, 0.0, 2025-03-06 13:43:42.451
107.0, 3420.3980470178185, 23006.784678314292, -6694.973313209214, -19980.269072087893, -187500.02235174447, 20533.050064212093, -187500.02235174447, 4764.251978904245, 0.202, 0.916, -0.298, 192.0, 6.0, 80.0, 28.0, 160.0, 246.0, 176.0, 0.0, 0.0, 0.0, 1.741290222451537E9, 0.0, 2025-03-06 13:43:42.451
108.0, 3411.0103143465894, 23022.49795466637, -6697.342598121477, -19964.600499224725, -187500.02235174447, 20536.02284622465, -187500.02235174447, 4778.1547639554465, 0.202, 0.916, -0.298, 192.0, 0.0, 0.0, 0.0, 0.0, 0.0, 0.0, 0.0, 0.0, 0.0, 1.741290222451561E9, 0.0, 2025-03-06 13:43:42.451
109.0, 3405.556488699495, 23029.851678592167, -6703.712845291239, -19912.967969532965, -187500.02235174447, 20531.77601477814, -187500.02235174447, 4802.249944478267, 0.202, 0.916, -0.298, 192.0, 0.0, 0.0, 0.0, 0.0, 0.0, 0.0, 0.0, 0.0, 0.0, 1.741290222451575E9, 0.0, 2025-03-06 13:43:42.451
110.0, 3411.032666091045, 22996.815800287226, -6705.165708680834, -19943.835728625745, -187500.02235174447, 20518.476726827234, -187500.02235174447, 4779.071185478114, 0.202, 0.916, -0.298, 192.0, 0.0, 0.0, 0.0, 0.0, 0.0, 0.0, 0.0, 0.0, 0.0, 1.741290222451588E9, 0.0, 2025-03-06 13:43:42.451
111.0, 3410.160948057288, 23004.50480037985, -6701.254153401155, -19979.397354054137, -187500.02235174447, 20528.736177532217, -187500.02235174447, 4773.2820836641895, 0.202, 0.916, -0.298, 192.0, 0.0, 0.0, 0.0, 0.0, 0.0, 0.0, 0.0, 0.0, 0.0, 1.741290222451605E9, 0.0, 2025-03-06 13:43:42.451
112.0, 3410.742093413126, 23024.37550120062, -6695.286237631588, -19953.80460665281, -187500.02235174447, 20535.508756102176, -187500.02235174447, 4796.863174064538, 0.202, 0.916, -0.298, 192.0, 0.0, 0.0, 0.0, 0.0, 0.0, 0.0, 0.0, 0.0, 0.0, 1.741290222451618E9, 0.0, 2025-03-06 13:43:42.451
113.0, 3415.3018492820083, 23036.46779495094, -6689.899467217859, -19913.21383872197, -187500.02235174447, 20530.837241511017, -187500.02235174447, 4804.5074706682535, 0.202, 0.916, -0.298, 192.0, 0.0, 0.0, 0.0, 0.0, 0.0, 0.0, 0.0, 0.0, 0.0, 1.741290222451631E9, 0.0, 2025-03-06 13:43:42.451
114.0, 3417.1793958162543, 23011.21032371644, -6690.078281173502, -19931.542269175323, -187500.02235174447, 20526.568058320056, -187500.02235174447, 4788.145993726968, 0.202, 0.916, -0.298, 192.0, 0.0, 0.0, 0.0, 0.0, 0.0, 0.0, 0.0, 0.0, 0.0, 1.741290222451645E9, 0.0, 2025-03-06 13:43:42.451
115.0, 3415.9500498712123, 23006.181181213997, -6689.452432328753, -19971.61894698369, -187500.02235174447, 20525.741043775208, -187500.02235174447, 4770.711633051829, 0.202, 0.916, -0.298, 192.0, 0.0, 0.0, 0.0, 0.0, 0.0, 0.0, 0.0, 0.0, 0.0, 1.741290222451658E9, 0.0, 2025-03-06 13:43:42.451
116.0, 3407.903421867302, 23014.69719585147, -6695.554458565052, -19974.837598185255, -187500.02235174447, 20524.936380974817, -187500.02235174447, 4772.320958652611, 0.202, 0.916, -0.298, 192.0, 0.0, 0.0, 0.0, 0.0, 0.0, 0.0, 0.0, 0.0, 0.0, 1.741290222451671E9, 0.0, 2025-03-06 13:43:42.451
117.0, 3409.9374306127347, 23037.294809495786, -6690.346502106965, -19922.243943481917, -187500.02235174447, 20536.179308435836, -187500.02235174447, 4800.148880499468, 0.20400000000000001, 0.92, -0.298, 192.0, 6.0, 96.0, 28.0, 192.0, 246.0, 176.0, 0.0, 0.0, 0.0, 1.741290222451688E9, 0.0, 2025-03-06 13:43:42.451
118.0, 3407.0540555780003, 23015.211285973943, -6698.996627211169, -19902.08266998323, -187500.02235174447, 20527.752700776186, -187500.02235174447, 4809.357799215055, 0.20400000000000001, 0.92, -0.298, 192.0, 0.0, 0.0, 0.0, 0.0, 0.0, 0.0, 0.0, 0.0, 0.0, 1.741290222451702E9, 0.0, 2025-03-06 13:43:42.451
119.0, 3410.7197416686704, 23004.303634679753, -6697.543763821574, -19953.268164785884, -187500.02235174447, 20519.370796605446, -187500.02235174447, 4777.484211621787, 0.20400000000000001, 0.92, -0.298, 192.0, 0.0, 0.0, 0.0, 0.0, 0.0, 0.0, 0.0, 0.0, 0.0, 1.741290222451716E9, 0.0, 2025-03-06 13:43:42.451
120.0, 3418.7887214170364, 23022.542658155282, -6691.017054440625, -19963.23704281295, -187500.02235174447, 20531.440738611313, -187500.02235174447, 4774.310263909133, 0.20400000000000001, 0.92, -0.298, 192.0, 0.0, 0.0, 0.0, 0.0, 0.0, 0.0, 0.0, 0.0, 0.0, 1.741290222451729E9, 0.0, 2025-03-06 13:43:42.451
121.0, 3420.7556749291034, 23046.70489391147, -6688.670121272818, -19930.290571485828, -187500.02235174447, 20543.06364572807, -187500.02235174447, 4785.910819281437, 0.20400000000000001, 0.92, -0.298, 192.0, 0.0, 0.0, 0.0, 0.0, 0.0, 0.0, 0.0, 0.0, 0.0, 1.741290222511746E9, 0.0, 2025-03-06 13:43:42.511
122.0, 3408.8198433899697, 23026.163640757044, -6698.728406277705, -19905.65894909608, -187500.02235174447, 20530.47961359973, -187500.02235174447, 4791.878735051005, 0.20400000000000001, 0.92, -0.298, 192.0, 0.0, 0.0, 0.0, 0.0, 0.0, 0.0, 0.0, 0.0, 0.0, 1.741290222511776E9, 0.0, 2025-03-06 13:43:42.511
123.0, 3407.9928288451233, 22999.92269276651, -6704.070473202524, -19953.670496186078, -187500.02235174447, 20516.53212505962, -187500.02235174447, 4761.346252125055, 0.20400000000000001, 0.92, -0.298, 192.0, 0.0, 0.0, 0.0, 0.0, 0.0, 0.0, 0.0, 0.0, 0.0, 1.741290222511789E9, 0.0, 2025-03-06 13:43:42.511
124.0, 3409.780968401548, 23019.79339358728, -6696.403824854354, -19956.509167731903, -187500.02235174447, 20533.564154334566, -187500.02235174447, 4776.254865676745, 0.20400000000000001, 0.92, -0.298, 192.0, 0.0, 0.0, 0.0, 0.0, 0.0, 0.0, 0.0, 0.0, 0.0, 1.741290222511808E9, 0.0, 2025-03-06 13:43:42.511
125.0, 3401.8013956310033, 23036.71366413995, -6700.449490600764, -19902.239132194416, -187500.02235174447, 20535.374645635446, -187500.02235174447, 4809.603668404063, 0.20400000000000001, 0.92, -0.298, 192.0, 0.0, 0.0, 0.0, 0.0, 0.0, 0.0, 0.0, 0.0, 0.0, 1.741290222511821E9, 0.0, 2025-03-06 13:43:42.511
126.0, 3407.9257736117574, 23032.913867582545, -6697.499060332663, -19869.247957378382, -187500.02235174447, 20536.805157280585, -187500.02235174447, 4815.6609911514515, 0.20400000000000001, 0.92, -0.298, 192.0, 0.0, 0.0, 0.0, 0.0, 0.0, 0.0, 0.0, 0.0, 0.0, 1.741290222511838E9, 0.0, 2025-03-06 13:43:42.511
127.0, 3410.6303346908494, 23012.70789059495, -6699.08603418899, -19908.51997238636, -187500.02235174447, 20527.81975600955, -187500.02235174447, 4794.695054852374, 0.20600000000000002, 0.916, -0.296, 192.0, 6.0, 112.0, 28.0, 160.0, 246.0, 192.0, 0.0, 0.0, 0.0, 1.741290222511852E9, 0.0, 2025-03-06 13:43:42.511
128.0, 3405.221212532665, 23016.194762729974, -6701.343560378977, -19938.918344845577, -187500.02235174447, 20528.378549620935, -187500.02235174447, 4782.066319235125, 0.20600000000000002, 0.916, -0.296, 192.0, 0.0, 0.0, 0.0, 0.0, 0.0, 0.0, 0.0, 0.0, 0.0, 1.741290222511866E9, 0.0, 2025-03-06 13:43:42.511
129.0, 3406.159985799788, 23039.641742663593, -6694.615685297929, -19920.83578358123, -187500.02235174447, 20537.16278519187, -187500.02235174447, 4789.71061583884, 0.20600000000000002, 0.916, -0.296, 192.0, 0.0, 0.0, 0.0, 0.0, 0.0, 0.0, 0.0, 0.0, 0.0, 1.74129022251188E9, 0.0, 2025-03-06 13:43:42.511
130.0, 3402.874279364858, 23037.451271706974, -6700.270676645122, -19878.859207494166, -187500.02235174447, 20535.419349124357, -187500.02235174447, 4806.139148013491, 0.20600000000000002, 0.916, -0.296, 192.0, 0.0, 0.0, 0.0, 0.0, 0.0, 0.0, 0.0, 0.0, 0.0, 1.741290222511893E9, 0.0, 2025-03-06 13:43:42.511
131.0, 3412.6196399473715, 23018.36288194214, -6695.9567899652475, -19903.110850228175, -187500.02235174447, 20534.055892712582, -187500.02235174447, 4800.014770032736, 0.20600000000000002, 0.916, -0.296, 192.0, 0.0, 0.0, 0.0, 0.0, 0.0, 0.0, 0.0, 0.0, 0.0, 1.741290222511906E9, 0.0, 2025-03-06 13:43:42.511
132.0, 3414.6312969483492, 23022.050919777266, -6694.3698161089205, -19932.302228486806, -187500.02235174447, 20535.911087502373, -187500.02235174447, 4793.957447285348, 0.20600000000000002, 0.916, -0.296, 192.0, 0.0, 0.0, 0.0, 0.0, 0.0, 0.0, 0.0, 0.0, 0.0, 1.741290222511922E9, 0.0, 2025-03-06 13:43:42.511
133.0, 3405.847061377414, 23035.573725172726, -6698.0131504551355, -19933.218650009472, -187500.02235174447, 20529.719654288252, -187500.02235174447, 4785.597894859064, 0.20600000000000002, 0.916, -0.296, 192.0, 0.0, 0.0, 0.0, 0.0, 0.0, 0.0, 0.0, 0.0, 0.0, 1.741290222511935E9, 0.0, 2025-03-06 13:43:42.511
134.0, 3399.4991659521065, 23047.442501478494, -6696.269714387622, -19872.086628924208, -187500.02235174447, 20533.742968290208, -187500.02235174447, 4812.33058122761, 0.20600000000000002, 0.916, -0.296, 192.0, 0.0, 0.0, 0.0, 0.0, 0.0, 0.0, 0.0, 0.0, 0.0, 1.741290222511949E9, 0.0, 2025-03-06 13:43:42.511
135.0, 3400.549697941506, 23018.184067986498, -6697.722577777216, -19882.301376140284, -187500.02235174447, 20528.19973566529, -187500.02235174447, 4809.022523048226, 0.20600000000000002, 0.916, -0.296, 192.0, 0.0, 0.0, 0.0, 0.0, 0.0, 0.0, 0.0, 0.0, 0.0, 1.741290222511961E9, 0.0, 2025-03-06 13:43:42.511
136.0, 3403.902459609802, 23013.445498161975, -6696.672045787817, -19946.56264144929, -187500.02235174447, 20522.611799551465, -187500.02235174447, 4774.444374375865, 0.20600000000000002, 0.916, -0.296, 192.0, 0.0, 0.0, 0.0, 0.0, 0.0, 0.0, 0.0, 0.0, 0.0, 1.741290222572066E9, 0.0, 2025-03-06 13:43:42.572
137.0, 3401.1531950417993, 23032.064501293244, -6695.643865542873, -19950.876528129163, -187500.02235174447, 20532.15599443388, -187500.02235174447, 4778.400633144454, 0.20400000000000001, 0.92, -0.296, 192.0, 6.0, 96.0, 28.0, 192.0, 246.0, 192.0, 0.0, 0.0, 0.0, 1.741290222572093E9, 0.0, 2025-03-06 13:43:42.572
138.0, 3398.9180205962684, 23046.57078344474, -6695.509755076141, -19900.07101298225, -187500.02235174447, 20534.726445046243, -187500.02235174447, 4803.702807867862, 0.20400000000000001, 0.92, -0.296, 192.0, 0.0, 0.0, 0.0, 0.0, 0.0, 0.0, 0.0, 0.0, 0.0, 1.741290222572107E9, 0.0, 2025-03-06 13:43:42.572
139.0, 3408.6410294343273, 23018.005254030857, -6689.005397439647, -19902.08266998323, -187500.02235174447, 20532.78184327863, -187500.02235174447, 4797.779595587206, 0.20400000000000001, 0.92, -0.296, 192.0, 0.0, 0.0, 0.0, 0.0, 0.0, 0.0, 0.0, 0.0, 0.0, 1.741290222572123E9, 0.0, 2025-03-06 13:43:42.572
140.0, 3412.6196399473715, 23009.533942882295, -6686.814926483027, -19957.22442355447, -187500.02235174447, 20535.575811335544, -187500.02235174447, 4770.443412118365, 0.20400000000000001, 0.92, -0.296, 192.0, 0.0, 0.0, 0.0, 0.0, 0.0, 0.0, 0.0, 0.0, 0.0, 1.741290222572137E9, 0.0, 2025-03-06 13:43:42.572
141.0, 3404.8859363658353, 23023.302617466765, -6691.777013752105, -19953.871661886176, -187500.02235174447, 20533.273581656646, -187500.02235174447, 4783.228609946801, 0.20400000000000001, 0.92, -0.296, 192.0, 0.0, 0.0, 0.0, 0.0, 0.0, 0.0, 0.0, 0.0, 0.0, 1.74129022257215E9, 0.0, 2025-03-06 13:43:42.572
142.0, 3384.0988140224, 23033.874992594123, -6704.428101113809, -19885.36356513066, -187500.02235174447, 20527.551535076087, -187500.02235174447, 4822.232404021312, 0.20400000000000001, 0.92, -0.296, 192.0, 0.0, 0.0, 0.0, 0.0, 0.0, 0.0, 0.0, 0.0, 0.0, 1.741290222572166E9, 0.0, 2025-03-06 13:43:42.572
143.0, 3398.381578729341, 23010.65153010506, -6697.1861359102895, -19874.54532081429, -187500.02235174447, 20528.602067065487, -187500.02235174447, 4820.310153998155, 0.20400000000000001, 0.92, -0.296, 192.0, 0.0, 0.0, 0.0, 0.0, 0.0, 0.0, 0.0, 0.0, 0.0, 1.741290222572179E9, 0.0, 2025-03-06 13:43:42.572
144.0, 3403.8577561208913, 23006.65056784756, -6695.330941120499, -19931.721083130968, -187500.02235174447, 20532.714788045265, -187500.02235174447, 4793.398653673966, 0.20400000000000001, 0.92, -0.296, 192.0, 0.0, 0.0, 0.0, 0.0, 0.0, 0.0, 0.0, 0.0, 0.0, 1.741290222572193E9, 0.0, 2025-03-06 13:43:42.572
145.0, 3399.8791456078466, 23017.535867397295, -6696.403824854354, -19947.300249016316, -187500.02235174447, 20530.88194499993, -187500.02235174447, 4791.945790284371, 0.20400000000000001, 0.92, -0.296, 192.0, 0.0, 0.0, 0.0, 0.0, 0.0, 0.0, 0.0, 0.0, 0.0, 1.741290222572206E9, 0.0, 2025-03-06 13:43:42.572
146.0, 3392.614828659872, 23048.98477184591, -6693.1404701638785, -19890.50446635538, -187500.02235174447, 20539.643828826407, -187500.02235174447, 4822.85825286606, 0.20400000000000001, 0.92, -0.296, 192.0, 0.0, 0.0, 0.0, 0.0, 0.0, 0.0, 0.0, 0.0, 0.0, 1.741290222572219E9, 0.0, 2025-03-06 13:43:42.572
147.0, 3404.86358462138, 23027.974132057923, -6691.777013752105, -19879.08272493872, -187500.02235174447, 20528.602067065487, -187500.02235174447, 4812.621153905529, 0.202, 0.918, -0.29, 192.0, 6.0, 80.0, 28.0, 176.0, 246.0, 240.0, 0.0, 0.0, 0.0, 1.741290222572232E9, 0.0, 2025-03-06 13:43:42.572
148.0, 3400.125014796855, 23011.635006861092, -6693.60985679744, -19922.71333011548, -187500.02235174447, 20526.568058320056, -187500.02235174447, 4790.381168172499, 0.202, 0.918, -0.29, 192.0, 0.0, 0.0, 0.0, 0.0, 0.0, 0.0, 0.0, 0.0, 0.0, 1.74129022257225E9, 0.0, 2025-03-06 13:43:42.572
149.0, 3390.223192003154, 23010.495067893873, -6704.316342391532, -19930.782309863844, -187500.02235174447, 20520.287218128113, -187500.02235174447, 4785.799060559161, 0.202, 0.918, -0.29, 192.0, 0.0, 0.0, 0.0, 0.0, 0.0, 0.0, 0.0, 0.0, 0.0, 1.741290222572265E9, 0.0, 2025-03-06 13:43:42.572
150.0, 3400.974381086157, 23037.674789151526, -6693.632208541895, -19906.620074107657, -187500.02235174447, 20535.933439246826, -187500.02235174447, 4795.834993819594, 0.202, 0.918, -0.29, 192.0, 0.0, 0.0, 0.0, 0.0, 0.0, 0.0, 0.0, 0.0, 0.0, 1.741290222572278E9, 0.0, 2025-03-06 13:43:42.572
151.0, 3399.096834551911, 23030.32106522573, -6699.622476055918, -19869.89615796759, -187500.02235174447, 20534.59233457951, -187500.02235174447, 4813.71638938384, 0.202, 0.918, -0.29, 192.0, 0.0, 0.0, 0.0, 0.0, 0.0, 0.0, 0.0, 0.0, 0.0, 1.741290222632262E9, 0.0, 2025-03-06 13:43:42.632
152.0, 3396.347569983908, 23004.616559102127, -6702.304685390554, -19898.618149592658, -187500.02235174447, 20523.662331540865, -187500.02235174447, 4800.4618049218425, 0.202, 0.918, -0.29, 192.0, 0.0, 0.0, 0.0, 0.0, 0.0, 0.0, 0.0, 0.0, 0.0, 1.741290222632284E9, 0.0, 2025-03-06 13:43:42.632
153.0, 3398.9180205962684, 23013.758422584346, -6695.397996353865, -19929.351798218704, -187500.02235174447, 20521.158936161868, -187500.02235174447, 4783.630941346996, 0.202, 0.918, -0.29, 192.0, 0.0, 0.0, 0.0, 0.0, 0.0, 0.0, 0.0, 0.0, 0.0, 1.741290222632307E9, 0.0, 2025-03-06 13:43:42.632
154.0, 3395.2076310166876, 23037.808899618256, -6695.84503124297, -19893.32078615675, -187500.02235174447, 20527.976218220738, -187500.02235174447, 4805.1556712574575, 0.202, 0.918, -0.29, 192.0, 0.0, 0.0, 0.0, 0.0, 0.0, 0.0, 0.0, 0.0, 0.0, 1.741290222632323E9, 0.0, 2025-03-06 13:43:42.632
155.0, 3399.968552585668, 23034.36673097214, -6695.3085893760435, -19856.17218687203, -187500.02235174447, 20525.808099008573, -187500.02235174447, 4815.57158417363, 0.202, 0.918, -0.29, 192.0, 0.0, 0.0, 0.0, 0.0, 0.0, 0.0, 0.0, 0.0, 0.0, 1.741290222632344E9, 0.0, 2025-03-06 13:43:42.632
156.0, 3395.3640932278745, 23004.66126259104, -6701.2988568900655, -19881.295547639795, -187500.02235174447, 20517.649712282386, -187500.02235174447, 4799.880659566004, 0.202, 0.918, -0.29, 192.0, 0.0, 0.0, 0.0, 0.0, 0.0, 0.0, 0.0, 0.0, 0.0, 1.74129022263236E9, 0.0, 2025-03-06 13:43:42.632
157.0, 3392.7936426155143, 23002.02375674531, -6704.495156347175, -19912.342120688216, -187500.02235174447, 20513.20171513578, -187500.02235174447, 4788.99536001627, 0.20400000000000001, 0.918, -0.294, 192.0, 6.0, 96.0, 28.0, 176.0, 246.0, 208.0, 0.0, 0.0, 0.0, 1.741290222632381E9, 0.0, 2025-03-06 13:43:42.632
158.0, 3402.29313400902, 23031.97509431542, -6692.782842252594, -19905.569542118257, -187500.02235174447, 20522.43298559582, -187500.02235174447, 4794.538592641186, 0.20400000000000001, 0.918, -0.294, 192.0, 0.0, 0.0, 0.0, 0.0, 0.0, 0.0, 0.0, 0.0, 0.0, 1.741290222632395E9, 0.0, 2025-03-06 13:43:42.632
159.0, 3400.057959563489, 23038.79237637429, -6695.174478909312, -19859.726114240424, -187500.02235174447, 20527.842107754008, -187500.02235174447, 4815.437473706898, 0.20400000000000001, 0.918, -0.294, 192.0, 0.0, 0.0, 0.0, 0.0, 0.0, 0.0, 0.0, 0.0, 0.0, 1.741290222632408E9, 0.0, 2025-03-06 13:43:42.632
160.0, 3402.7625206425814, 23005.287111435788, -6699.08603418899, -19899.579274604235, -187500.02235174447, 20513.738157002706, -187500.02235174447, 4783.005092502248, 0.20400000000000001, 0.918, -0.294, 192.0, 0.0, 0.0, 0.0, 0.0, 0.0, 0.0, 0.0, 0.0, 0.0, 1.741290222632422E9, 0.0, 2025-03-06 13:43:42.632
161.0, 3390.1337850253326, 22994.200646185953, -6709.323133149521, -19929.620019152168, -187500.02235174447, 20504.57394177603, -187500.02235174447, 4770.398708629455, 0.20400000000000001, 0.918, -0.294, 192.0, 0.0, 0.0, 0.0, 0.0, 0.0, 0.0, 0.0, 0.0, 0.0, 1.741290222632435E9, 0.0, 2025-03-06 13:43:42.632
162.0, 3392.614828659872, 23017.669977864025, -6701.432967356797, -19918.153574246597, -187500.02235174447, 20517.470898326745, -187500.02235174447, 4778.870019778016, 0.20400000000000001, 0.918, -0.294, 192.0, 0.0, 0.0, 0.0, 0.0, 0.0, 0.0, 0.0, 0.0, 0.0, 1.741290222632448E9, 0.0, 2025-03-06 13:43:42.632
163.0, 3386.6245611458494, 23031.75157687087, -6708.406711626853, -19862.810654975256, -187500.02235174447, 20521.6953780288, -187500.02235174447, 4805.736816613295, 0.20400000000000001, 0.918, -0.294, 192.0, 0.0, 0.0, 0.0, 0.0, 0.0, 0.0, 0.0, 0.0, 0.0, 1.741290222632464E9, 0.0, 2025-03-06 13:43:42.632
164.0, 3399.00742757409, 23013.60196037316, -6705.56804008103, -19878.993317960896, -187500.02235174447, 20519.795479750097, -187500.02235174447, 4787.877772793505, 0.20400000000000001, 0.918, -0.294, 192.0, 0.0, 0.0, 0.0, 0.0, 0.0, 0.0, 0.0, 0.0, 0.0, 1.741290222632477E9, 0.0, 2025-03-06 13:43:42.632
165.0, 3395.118224038866, 23006.091774236178, -6706.864441259438, -19916.410138179082, -187500.02235174447, 20518.5437820606, -187500.02235174447, 4772.946807497359, 0.20400000000000001, 0.918, -0.294, 192.0, 0.0, 0.0, 0.0, 0.0, 0.0, 0.0, 0.0, 0.0, 0.0, 1.741290222632491E9, 0.0, 2025-03-06 13:43:42.632
166.0, 3394.134747282833, 23018.22877147541, -6706.149185436868, -19919.740548102924, -187500.02235174447, 20522.745910018195, -187500.02235174447, 4776.478383121298, 0.20400000000000001, 0.918, -0.294, 192.0, 0.0, 0.0, 0.0, 0.0, 0.0, 0.0, 0.0, 0.0, 0.0, 1.741290222692561E9, 0.0, 2025-03-06 13:43:42.692
167.0, 3401.6896369087267, 23045.877879366624, -6697.052025443558, -19881.295547639795, -187500.02235174447, 20531.93247698933, -187500.02235174447, 4791.319941439622, 0.20600000000000002, 0.918, -0.294, 192.0, 6.0, 112.0, 28.0, 176.0, 246.0, 208.0, 0.0, 0.0, 0.0, 1.741290222692578E9, 0.0, 2025-03-06 13:43:42.692
168.0, 3401.9131543532794, 23022.050919777266, -6699.868345244926, -19872.623070791135, -187500.02235174447, 20526.63511355342, -187500.02235174447, 4793.018674018225, 0.20600000000000002, 0.918, -0.294, 192.0, 0.0, 0.0, 0.0, 0.0, 0.0, 0.0, 0.0, 0.0, 0.0, 1.741290222692607E9, 0.0, 2025-03-06 13:43:42.692
169.0, 3403.4777764651512, 23002.001405000854, -6702.2376301571885, -19922.780385348844, -187500.02235174447, 20522.164764662357, -187500.02235174447, 4767.738851039273, 0.20600000000000002, 0.918, -0.294, 192.0, 0.0, 0.0, 0.0, 0.0, 0.0, 0.0, 0.0, 0.0, 0.0, 1.74129022269262E9, 0.0, 2025-03-06 13:43:42.692
170.0, 3403.835404376436, 23015.188934229485, -6700.538897578585, -19936.146728533116, -187500.02235174447, 20525.025787952636, -187500.02235174447, 4763.782592270683, 0.20600000000000002, 0.918, -0.294, 192.0, 0.0, 0.0, 0.0, 0.0, 0.0, 0.0, 0.0, 0.0, 0.0, 1.741290222692637E9, 0.0, 2025-03-06 13:43:42.692
171.0, 3400.706160152693, 23035.26080075035, -6702.215278412733, -19903.669643839556, -187500.02235174447, 20526.16572691986, -187500.02235174447, 4776.187810443379, 0.20600000000000002, 0.918, -0.294, 192.0, 0.0, 0.0, 0.0, 0.0, 0.0, 0.0, 0.0, 0.0, 0.0, 1.74129022269265E9, 0.0, 2025-03-06 13:43:42.692
172.0, 3403.231907276143, 23012.551428383762, -6708.227897671211, -19890.750335544388, -187500.02235174447, 20520.10840417247, -187500.02235174447, 4776.187810443379, 0.20600000000000002, 0.918, -0.294, 192.0, 0.0, 0.0, 0.0, 0.0, 0.0, 0.0, 0.0, 0.0, 0.0, 1.741290222692667E9, 0.0, 2025-03-06 13:43:42.692
173.0, 3415.324201026464, 23001.37555615611, -6701.410615612343, -19935.073844799263, -187500.02235174447, 20525.472822841744, -187500.02235174447, 4760.563941069119, 0.20600000000000002, 0.918, -0.294, 192.0, 0.0, 0.0, 0.0, 0.0, 0.0, 0.0, 0.0, 0.0, 0.0, 1.74129022269268E9, 0.0, 2025-03-06 13:43:42.692
174.0, 3410.8538521354026, 23016.37357668562, -6698.683702788795, -19946.89791761612, -187500.02235174447, 20526.97038972025, -187500.02235174447, 4769.683452806885, 0.20600000000000002, 0.918, -0.294, 192.0, 0.0, 0.0, 0.0, 0.0, 0.0, 0.0, 0.0, 0.0, 0.0, 1.741290222692693E9, 0.0, 2025-03-06 13:43:42.692
175.0, 3400.5720496859612, 23038.99354207439, -6700.203621411756, -19918.6006091357, -187500.02235174447, 20529.96552347726, -187500.02235174447, 4783.407423902443, 0.20600000000000002, 0.918, -0.294, 192.0, 0.0, 0.0, 0.0, 0.0, 0.0, 0.0, 0.0, 0.0, 0.0, 1.741290222692706E9, 0.0, 2025-03-06 13:43:42.692
176.0, 3396.548735684006, 23034.70200713897, -6701.969409223725, -19858.295602595284, -187500.02235174447, 20532.40186362289, -187500.02235174447, 4817.203261518867, 0.20600000000000002, 0.918, -0.294, 192.0, 0.0, 0.0, 0.0, 0.0, 0.0, 0.0, 0.0, 0.0, 0.0, 1.74129022269272E9, 0.0, 2025-03-06 13:43:42.692
177.0, 3403.030741576045, 23007.634044603594, -6698.504888833152, -19898.059355981273, -187500.02235174447, 20522.835316996017, -187500.02235174447, 4790.962313528337, 0.20600000000000002, 0.916, -0.292, 192.0, 6.0, 112.0, 28.0, 160.0, 246.0, 224.0, 0.0, 0.0, 0.0, 1.741290222692733E9, 0.0, 2025-03-06 13:43:42.692
178.0, 3399.253296763098, 23013.780774328803, -6697.8343364994935, -19938.38190297865, -187500.02235174447, 20518.40967159387, -187500.02235174447, 4763.670833548407, 0.20600000000000002, 0.916, -0.292, 192.0, 0.0, 0.0, 0.0, 0.0, 0.0, 0.0, 0.0, 0.0, 0.0, 1.741290222692751E9, 0.0, 2025-03-06 13:43:42.692
179.0, 3395.3417414834194, 23036.445443206485, -6698.683702788795, -19909.525800886848, -187500.02235174447, 20526.16572691986, -187500.02235174447, 4783.452127391354, 0.20600000000000002, 0.916, -0.292, 192.0, 0.0, 0.0, 0.0, 0.0, 0.0, 0.0, 0.0, 0.0, 0.0, 1.741290222692764E9, 0.0, 2025-03-06 13:43:42.692
180.0, 3399.76738688557, 23047.822481134237, -6694.883906231393, -19846.65034373407, -187500.02235174447, 20538.190965436814, -187500.02235174447, 4820.108988298058, 0.20600000000000002, 0.916, -0.292, 192.0, 0.0, 0.0, 0.0, 0.0, 0.0, 0.0, 0.0, 0.0, 0.0, 1.741290222692777E9, 0.0, 2025-03-06 13:43:42.692
181.0, 3403.4330729762405, 23013.31138769524, -6702.192926668278, -19872.958346957963, -187500.02235174447, 20528.333846132024, -187500.02235174447, 4802.182889244901, 0.20600000000000002, 0.916, -0.292, 192.0, 0.0, 0.0, 0.0, 0.0, 0.0, 0.0, 0.0, 0.0, 0.0, 1.741290222752006E9, 0.0, 2025-03-06 13:43:42.752
182.0, 3406.9870003446345, 23020.03926277629, -6698.661351044339, -19898.327576914737, -187500.02235174447, 20532.044235711604, -187500.02235174447, 4789.956485027848, 0.20600000000000002, 0.916, -0.292, 192.0, 0.0, 0.0, 0.0, 0.0, 0.0, 0.0, 0.0, 0.0, 0.0, 1.741290222752021E9, 0.0, 2025-03-06 13:43:42.752
183.0, 3408.7527881566034, 23038.12182404063, -6694.638037042384, -19892.247902422896, -187500.02235174447, 20537.2968956586, -187500.02235174447, 4788.704787338351, 0.20600000000000002, 0.916, -0.292, 192.0, 0.0, 0.0, 0.0, 0.0, 0.0, 0.0, 0.0, 0.0, 0.0, 1.741290222752041E9, 0.0, 2025-03-06 13:43:42.752
184.0, 3409.1998230457098, 23050.95172535798, -6690.055929429046, -19865.98460268791, -187500.02235174447, 20541.946058505306, -187500.02235174447, 4791.1858309728905, 0.20600000000000002, 0.916, -0.292, 192.0, 0.0, 0.0, 0.0, 0.0, 0.0, 0.0, 0.0, 0.0, 0.0, 1.741290222752054E9, 0.0, 2025-03-06 13:43:42.752
185.0, 3418.4310935057515, 23027.437690190996, -6682.635150269884, -19904.876638040143, -187500.02235174447, 20535.508756102176, -187500.02235174447, 4767.381223127988, 0.20600000000000002, 0.916, -0.292, 192.0, 0.0, 0.0, 0.0, 0.0, 0.0, 0.0, 0.0, 0.0, 0.0, 1.74129022275207E9, 0.0, 2025-03-06 13:43:42.752
186.0, 3408.6857329232375, 23020.910980810044, -6691.888772474382, -19922.28864697083, -187500.02235174447, 20532.96065723427, -187500.02235174447, 4776.433679632388, 0.20600000000000002, 0.916, -0.292, 192.0, 0.0, 0.0, 0.0, 0.0, 0.0, 0.0, 0.0, 0.0, 0.0, 1.741290222752084E9, 0.0, 2025-03-06 13:43:42.752
187.0, 3406.3835032443412, 23035.32785598372, -6694.682740531295, -19902.686167083524, -187500.02235174447, 20535.68757005782, -187500.02235174447, 4795.924400797415, 0.20400000000000001, 0.918, -0.29, 192.0, 6.0, 96.0, 28.0, 176.0, 246.0, 240.0, 0.0, 0.0, 0.0, 1.741290222752097E9, 0.0, 2025-03-06 13:43:42.752
188.0, 3406.6517241778047, 23051.912850369557, -6688.446603828264, -19849.287849579796, -187500.02235174447, 20539.196793937303, -187500.02235174447, 4816.33154348511, 0.20400000000000001, 0.918, -0.29, 192.0, 0.0, 0.0, 0.0, 0.0, 0.0, 0.0, 0.0, 0.0, 0.0, 1.741290222752114E9, 0.0, 2025-03-06 13:43:42.752
189.0, 3405.24356427712, 23018.45228891996, -6693.475746330709, -19862.385971830605, -187500.02235174447, 20528.780881021128, -187500.02235174447, 4799.612438632541, 0.20400000000000001, 0.918, -0.29, 192.0, 0.0, 0.0, 0.0, 0.0, 0.0, 0.0, 0.0, 0.0, 0.0, 1.741290222752127E9, 0.0, 2025-03-06 13:43:42.752
190.0, 3397.3310467399415, 23009.019852759822, -6701.097691189968, -19895.55596060228, -187500.02235174447, 20528.4456048543, -187500.02235174447, 4787.2519239487565, 0.20400000000000001, 0.918, -0.29, 192.0, 0.0, 0.0, 0.0, 0.0, 0.0, 0.0, 0.0, 0.0, 0.0, 1.74129022275214E9, 0.0, 2025-03-06 13:43:42.752
191.0, 3398.7839101295367, 23024.934294812, -6698.0131504551355, -19887.285815153817, -187500.02235174447, 20536.961619491773, -187500.02235174447, 4795.94675254187, 0.20400000000000001, 0.918, -0.29, 192.0, 0.0, 0.0, 0.0, 0.0, 0.0, 0.0, 0.0, 0.0, 0.0, 1.741290222752153E9, 0.0, 2025-03-06 13:43:42.752
192.0, 3398.023950818056, 23041.22871651992, -6696.739101021183, -19846.65034373407, -187500.02235174447, 20543.354218405988, -187500.02235174447, 4811.19064226039, 0.20400000000000001, 0.918, -0.29, 192.0, 0.0, 0.0, 0.0, 0.0, 0.0, 0.0, 0.0, 0.0, 0.0, 1.741290222752166E9, 0.0, 2025-03-06 13:43:42.752
193.0, 3401.220250275165, 23016.954722041457, -6696.046196943069, -19834.200422072463, -187500.02235174447, 20538.459186370277, -187500.02235174447, 4814.364589973044, 0.20400000000000001, 0.918, -0.29, 192.0, 0.0, 0.0, 0.0, 0.0, 0.0, 0.0, 0.0, 0.0, 0.0, 1.741290222752179E9, 0.0, 2025-03-06 13:43:42.752
194.0, 3395.185279272232, 22999.900341022058, -6701.030635956602, -19868.733867255913, -187500.02235174447, 20530.993703722204, -187500.02235174447, 4800.148880499468, 0.20400000000000001, 0.918, -0.29, 192.0, 0.0, 0.0, 0.0, 0.0, 0.0, 0.0, 0.0, 0.0, 0.0, 1.741290222752195E9, 0.0, 2025-03-06 13:43:42.752
195.0, 3391.027854803545, 23003.811896301737, -6707.08795870399, -19876.713440026455, -187500.02235174447, 20527.529183331633, -187500.02235174447, 4797.980761287304, 0.20400000000000001, 0.918, -0.29, 192.0, 0.0, 0.0, 0.0, 0.0, 0.0, 0.0, 0.0, 0.0, 0.0, 1.741290222752208E9, 0.0, 2025-03-06 13:43:42.752
196.0, 3394.492375194118, 23027.41533844654, -6701.969409223725, -19848.25966933485, -187500.02235174447, 20533.072415956547, -187500.02235174447, 4807.033217791703, 0.20400000000000001, 0.918, -0.29, 192.0, 0.0, 0.0, 0.0, 0.0, 0.0, 0.0, 0.0, 0.0, 0.0, 1.741290222811762E9, 0.0, 2025-03-06 13:43:42.811
197.0, 3388.300941979998, 23007.432878903495, -6710.172499438822, -19828.992465614374, -187500.02235174447, 20526.76922402015, -187500.02235174447, 4810.587145160097, 0.20400000000000001, 0.918, -0.28, 192.0, 6.0, 96.0, 28.0, 176.0, 247.0, 64.0, 0.0, 0.0, 0.0, 1.741290222811801E9, 0.0, 2025-03-06 13:43:42.811
198.0, 3385.328159967442, 22982.44362860246, -6709.859575016449, -19846.62799198961, -187500.02235174447, 20519.415500094354, -187500.02235174447, 4811.168290515935, 0.20400000000000001, 0.918, -0.28, 192.0, 0.0, 0.0, 0.0, 0.0, 0.0, 0.0, 0.0, 0.0, 0.0, 1.741290222811816E9, 0.0, 2025-03-06 13:43:42.811
199.0, 3390.7149303811707, 22990.423201373007, -6701.991760968181, -19870.11967541214, -187500.02235174447, 20520.68954952831, -187500.02235174447, 4800.99824678877, 0.20400000000000001, 0.918, -0.28, 192.0, 0.0, 0.0, 0.0, 0.0, 0.0, 0.0, 0.0, 0.0, 0.0, 1.74129022281185E9, 0.0, 2025-03-06 13:43:42.811
200.0, 3382.9588750551793, 23017.044129019276, -6700.315380134032, -19843.319933810228, -187500.02235174447, 20528.132680431925, -187500.02235174447, 4810.207165504356, 0.20400000000000001, 0.918, -0.28, 192.0, 0.0, 0.0, 0.0, 0.0, 0.0, 0.0, 0.0, 0.0, 0.0, 1.741290222811863E9, 0.0, 2025-03-06 13:43:42.811
201.0, 3369.6595871042714, 23002.31432942323, -6707.132662192901, -19797.29769197675, -187500.02235174447, 20528.4456048543, -187500.02235174447, 4828.759113402261, 0.20400000000000001, 0.918, -0.28, 192.0, 0.0, 0.0, 0.0, 0.0, 0.0, 0.0, 0.0, 0.0, 0.0, 1.74129022281188E9, 0.0, 2025-03-06 13:43:42.811
202.0, 3359.0872119769115, 22959.2201661134, -6720.1413774658895, -19829.439500503482, -187500.02235174447, 20518.76729950515, -187500.02235174447, 4810.073055037625, 0.20400000000000001, 0.918, -0.28, 192.0, 0.0, 0.0, 0.0, 0.0, 0.0, 0.0, 0.0, 0.0, 0.0, 1.741290222811894E9, 0.0, 2025-03-06 13:43:42.811
203.0, 3367.357357425375, 22962.841148715157, -6705.970371481225, -19853.46762579294, -187500.02235174447, 20528.6467705544, -187500.02235174447, 4800.506508410753, 0.20400000000000001, 0.918, -0.28, 192.0, 0.0, 0.0, 0.0, 0.0, 0.0, 0.0, 0.0, 0.0, 0.0, 1.74129022281191E9, 0.0, 2025-03-06 13:43:42.811
204.0, 3358.0813834764226, 22982.68949779147, -6703.08699644649, -19816.855468375143, -187500.02235174447, 20539.196793937303, -187500.02235174447, 4826.47923546782, 0.20400000000000001, 0.918, -0.28, 192.0, 0.0, 0.0, 0.0, 0.0, 0.0, 0.0, 0.0, 0.0, 0.0, 1.741290222811928E9, 0.0, 2025-03-06 13:43:42.811
205.0, 3357.254368931576, 22975.31342212122, -6704.986894725192, -19764.932366005465, -187500.02235174447, 20534.279410157134, -187500.02235174447, 4847.95926188937, 0.20400000000000001, 0.918, -0.28, 192.0, 0.0, 0.0, 0.0, 0.0, 0.0, 0.0, 0.0, 0.0, 0.0, 1.741290222811941E9, 0.0, 2025-03-06 13:43:42.811
206.0, 3359.668357332749, 22938.05306411422, -6701.678836545806, -19794.906055320032, -187500.02235174447, 20527.86445949846, -187500.02235174447, 4826.076904067624, 0.20400000000000001, 0.918, -0.28, 192.0, 0.0, 0.0, 0.0, 0.0, 0.0, 0.0, 0.0, 0.0, 0.0, 1.741290222811955E9, 0.0, 2025-03-06 13:43:42.811
207.0, 3357.254368931576, 22930.07349134368, -6703.489327846686, -19825.7291109239, -187500.02235174447, 20523.841145496506, -187500.02235174447, 4814.319886484133, 0.20600000000000002, 0.918, -0.28400000000000003, 192.0, 6.0, 112.0, 28.0, 176.0, 247.0, 32.0, 0.0, 0.0, 0.0, 1.741290222811968E9, 0.0, 2025-03-06 13:43:42.811
208.0, 3357.6343485873163, 22946.47967177387, -6700.85182200096, -19818.084814320187, -187500.02235174447, 20521.82948849553, -187500.02235174447, 4811.682380638406, 0.20600000000000002, 0.918, -0.28400000000000003, 192.0, 0.0, 0.0, 0.0, 0.0, 0.0, 0.0, 0.0, 0.0, 0.0, 1.741290222811982E9, 0.0, 2025-03-06 13:43:42.811
209.0, 3353.90160726328, 22953.855747444126, -6703.310513891043, -19775.996479510843, -187500.02235174447, 20523.081186185027, -187500.02235174447, 4828.245023279789, 0.20600000000000002, 0.918, -0.28400000000000003, 192.0, 0.0, 0.0, 0.0, 0.0, 0.0, 0.0, 0.0, 0.0, 0.0, 1.741290222811998E9, 0.0, 2025-03-06 13:43:42.811
210.0, 3343.977432725124, 22911.208619023397, -6715.939249508292, -19795.68836637597, -187500.02235174447, 20507.47966855522, -187500.02235174447, 4816.376246974021, 0.20600000000000002, 0.918, -0.28400000000000003, 192.0, 0.0, 0.0, 0.0, 0.0, 0.0, 0.0, 0.0, 0.0, 0.0, 1.741290222812011E9, 0.0, 2025-03-06 13:43:42.812
211.0, 3337.9648134666463, 22906.33593873214, -6722.555365867062, -19830.311218537237, -187500.02235174447, 20499.030709151117, -187500.02235174447, 4800.081825266102, 0.20600000000000002, 0.918, -0.28400000000000003, 192.0, 0.0, 0.0, 0.0, 0.0, 0.0, 0.0, 0.0, 0.0, 0.0, 1.741290222872025E9, 0.0, 2025-03-06 13:43:42.872
212.0, 3335.617880298839, 22920.685758672447, -6717.99560999818, -19833.194593571974, -187500.02235174447, 20500.81884870754, -187500.02235174447, 4798.763072343239, 0.20600000000000002, 0.918, -0.28400000000000003, 192.0, 0.0, 0.0, 0.0, 0.0, 0.0, 0.0, 0.0, 0.0, 0.0, 1.741290222872053E9, 0.0, 2025-03-06 13:43:42.872
213.0, 3341.0493542014783, 22940.35529379312, -6705.009246469646, -19792.492066918858, -187500.02235174447, 20513.24641862469, -187500.02235174447, 4813.917555083937, 0.20600000000000002, 0.918, -0.28400000000000003, 192.0, 0.0, 0.0, 0.0, 0.0, 0.0, 0.0, 0.0, 0.0, 0.0, 1.741290222872067E9, 0.0, 2025-03-06 13:43:42.872
214.0, 3339.6635460452494, 22913.667310913483, -6708.227897671211, -19781.159732480017, -187500.02235174447, 20507.81494472205, -187500.02235174447, 4823.19352903289, 0.20600000000000002, 0.918, -0.28400000000000003, 192.0, 0.0, 0.0, 0.0, 0.0, 0.0, 0.0, 0.0, 0.0, 0.0, 1.741290222872096E9, 0.0, 2025-03-06 13:43:42.872
215.0, 3338.0765721889225, 22892.231987980842, -6713.592316340485, -19838.536660496793, -187500.02235174447, 20496.303796327567, -187500.02235174447, 4791.409348417443, 0.20600000000000002, 0.918, -0.28400000000000003, 192.0, 0.0, 0.0, 0.0, 0.0, 0.0, 0.0, 0.0, 0.0, 0.0, 1.741290222872109E9, 0.0, 2025-03-06 13:43:42.872
216.0, 3341.094057690389, 22913.242627768832, -6708.674932560317, -19854.473454293427, -187500.02235174447, 20506.116212143446, -187500.02235174447, 4787.028406504203, 0.20600000000000002, 0.918, -0.28400000000000003, 192.0, 0.0, 0.0, 0.0, 0.0, 0.0, 0.0, 0.0, 0.0, 0.0, 1.741290222872126E9, 0.0, 2025-03-06 13:43:42.872
217.0, 3338.903586733769, 22941.472881015885, -6707.020903470624, -19802.30448273474, -187500.02235174447, 20523.170593162846, -187500.02235174447, 4818.700828397373, 0.20800000000000002, 0.922, -0.292, 192.0, 6.0, 128.0, 28.0, 208.0, 246.0, 224.0, 0.0, 0.0, 0.0, 1.741290222872139E9, 0.0, 2025-03-06 13:43:42.872
218.0, 3337.3166128774424, 22914.539028947238, -6714.0393512295905, -19788.20053198344, -187500.02235174447, 20512.262941868656, -187500.02235174447, 4824.400523233477, 0.20800000000000002, 0.922, -0.292, 192.0, 0.0, 0.0, 0.0, 0.0, 0.0, 0.0, 0.0, 0.0, 0.0, 1.741290222872154E9, 0.0, 2025-03-06 13:43:42.872
219.0, 3339.752953023071, 22891.494380413817, -6717.213298942244, -19838.469605263424, -187500.02235174447, 20498.42721205082, -187500.02235174447, 4796.796118831172, 0.20800000000000002, 0.922, -0.292, 192.0, 0.0, 0.0, 0.0, 0.0, 0.0, 0.0, 0.0, 0.0, 0.0, 1.74129022287217E9, 0.0, 2025-03-06 13:43:42.872
220.0, 3334.0085546980567, 22899.33984271763, -6718.66616233184, -19867.50452131087, -187500.02235174447, 20497.24256959469, -187500.02235174447, 4780.836973290083, 0.20800000000000002, 0.922, -0.292, 192.0, 0.0, 0.0, 0.0, 0.0, 0.0, 0.0, 0.0, 0.0, 0.0, 1.741290222872183E9, 0.0, 2025-03-06 13:43:42.872
221.0, 3324.062028415445, 22916.617741181584, -6726.019886257635, -19828.813651658733, -187500.02235174447, 20499.88007544042, -187500.02235174447, 4802.361703200544, 0.20800000000000002, 0.922, -0.292, 192.0, 0.0, 0.0, 0.0, 0.0, 0.0, 0.0, 0.0, 0.0, 0.0, 1.741290222872197E9, 0.0, 2025-03-06 13:43:42.872
222.0, 3324.9784499381126, 22895.76356360478, -6728.56798512554, -19813.234485773384, -187500.02235174447, 20492.124020114425, -187500.02235174447, 4800.797081088672, 0.20800000000000002, 0.922, -0.292, 192.0, 0.0, 0.0, 0.0, 0.0, 0.0, 0.0, 0.0, 0.0, 0.0, 1.74129022287221E9, 0.0, 2025-03-06 13:43:42.872
223.0, 3329.4040953402637, 22878.9997552633, -6726.1316449799115, -19846.337419311694, -187500.02235174447, 20487.430153778812, -187500.02235174447, 4788.056586749147, 0.20800000000000002, 0.922, -0.292, 192.0, 0.0, 0.0, 0.0, 0.0, 0.0, 0.0, 0.0, 0.0, 0.0, 1.741290222872223E9, 0.0, 2025-03-06 13:43:42.872
224.0, 3340.1105809343558, 22892.410801936487, -6716.52039486413, -19880.13325692812, -187500.02235174447, 20492.548703259075, -187500.02235174447, 4770.733984796284, 0.20800000000000002, 0.922, -0.292, 192.0, 0.0, 0.0, 0.0, 0.0, 0.0, 0.0, 0.0, 0.0, 0.0, 1.74129022287224E9, 0.0, 2025-03-06 13:43:42.872
225.0, 3330.8793104743136, 22917.86943887108, -6719.984915254702, -19861.380143330116, -187500.02235174447, 20499.768316718142, -187500.02235174447, 4786.3131506816335, 0.20800000000000002, 0.922, -0.292, 192.0, 0.0, 0.0, 0.0, 0.0, 0.0, 0.0, 0.0, 0.0, 0.0, 1.741290222872257E9, 0.0, 2025-03-06 13:43:42.872
226.0, 3326.6995342611713, 22906.917084087978, -6726.779845569115, -19817.973055597908, -187500.02235174447, 20492.77222070363, -187500.02235174447, 4809.670723637429, 0.20800000000000002, 0.922, -0.292, 192.0, 0.0, 0.0, 0.0, 0.0, 0.0, 0.0, 0.0, 0.0, 0.0, 1.741290222932476E9, 0.0, 2025-03-06 13:43:42.932
227.0, 3336.0425634434896, 22884.85591231059, -6720.029618743613, -19866.945727699487, -187500.02235174447, 20492.928682914815, -187500.02235174447, 4781.216952945823, 0.20800000000000002, 0.914, -0.294, 192.0, 6.0, 128.0, 28.0, 144.0, 246.0, 208.0, 0.0, 0.0, 0.0, 1.741290222932512E9, 0.0, 2025-03-06 13:43:42.932
228.0, 3330.2087581406545, 22892.567264147674, -6721.348371666476, -19884.178922674528, -187500.02235174447, 20500.461220796256, -187500.02235174447, 4783.921514024915, 0.20800000000000002, 0.914, -0.294, 192.0, 0.0, 0.0, 0.0, 0.0, 0.0, 0.0, 0.0, 0.0, 0.0, 1.741290222932527E9, 0.0, 2025-03-06 13:43:42.932
229.0, 3328.0182871840343, 22912.303854501708, -6723.382380411909, -19854.87578569362, -187500.02235174447, 20506.943226688294, -187500.02235174447, 4810.207165504356, 0.20800000000000002, 0.914, -0.294, 192.0, 0.0, 0.0, 0.0, 0.0, 0.0, 0.0, 0.0, 0.0, 0.0, 1.74129022293254E9, 0.0, 2025-03-06 13:43:42.932
230.0, 3331.1028279188668, 22916.77420339277, -6728.2997641920765, -19806.841886859165, -187500.02235174447, 20501.71291848575, -187500.02235174447, 4835.062305338658, 0.20800000000000002, 0.914, -0.294, 192.0, 0.0, 0.0, 0.0, 0.0, 0.0, 0.0, 0.0, 0.0, 0.0, 1.741290222932577E9, 0.0, 2025-03-06 13:43:42.932
231.0, 3329.292336617987, 22882.084295998135, -6736.793427085094, -19852.35003857017, -187500.02235174447, 20482.713935698743, -187500.02235174447, 4802.8087380896495, 0.20800000000000002, 0.914, -0.294, 192.0, 0.0, 0.0, 0.0, 0.0, 0.0, 0.0, 0.0, 0.0, 0.0, 1.74129022293259E9, 0.0, 2025-03-06 13:43:42.932
232.0, 3326.386609838797, 22887.47106641186, -6734.357086939465, -19886.54820758679, -187500.02235174447, 20482.333956043, -187500.02235174447, 4790.202354216856, 0.20800000000000002, 0.914, -0.294, 192.0, 0.0, 0.0, 0.0, 0.0, 0.0, 0.0, 0.0, 0.0, 0.0, 1.741290222932607E9, 0.0, 2025-03-06 13:43:42.932
233.0, 3336.3107843769535, 22922.67506392897, -6716.073359975024, -19874.21004464746, -187500.02235174447, 20495.052098638072, -187500.02235174447, 4802.249944478267, 0.20800000000000002, 0.914, -0.294, 192.0, 0.0, 0.0, 0.0, 0.0, 0.0, 0.0, 0.0, 0.0, 0.0, 1.741290222932621E9, 0.0, 2025-03-06 13:43:42.932
234.0, 3346.5255315930285, 22949.854785186624, -6708.317304649032, -19809.747613638356, -187500.02235174447, 20510.92183720134, -187500.02235174447, 4837.208072806367, 0.20800000000000002, 0.914, -0.294, 192.0, 0.0, 0.0, 0.0, 0.0, 0.0, 0.0, 0.0, 0.0, 0.0, 1.741290222932638E9, 0.0, 2025-03-06 13:43:42.932
235.0, 3351.800543284481, 22914.606084180607, -6714.285220418599, -19839.095454108174, -187500.02235174447, 20493.06279338155, -187500.02235174447, 4813.425816705921, 0.20800000000000002, 0.914, -0.294, 192.0, 0.0, 0.0, 0.0, 0.0, 0.0, 0.0, 0.0, 0.0, 0.0, 1.741290222932651E9, 0.0, 2025-03-06 13:43:42.932
236.0, 3341.8987204907803, 22912.639130668536, -6721.057798988557, -19877.249881893385, -187500.02235174447, 20492.325185814523, -187500.02235174447, 4799.098348510069, 0.20800000000000002, 0.914, -0.294, 192.0, 0.0, 0.0, 0.0, 0.0, 0.0, 0.0, 0.0, 0.0, 0.0, 1.741290222932664E9, 0.0, 2025-03-06 13:43:42.932
237.0, 3339.8200082564367, 22926.944247119936, -6722.4883106336965, -19860.17314912953, -187500.02235174447, 20492.05696488106, -187500.02235174447, 4811.794139360683, 0.212, 0.918, -0.292, 192.0, 6.0, 160.0, 28.0, 176.0, 246.0, 224.0, 0.0, 0.0, 0.0, 1.741290222932678E9, 0.0, 2025-03-06 13:43:42.932
238.0, 3348.581892082917, 22952.916974177002, -6709.434891871798, -19834.848622661666, -187500.02235174447, 20498.226046350723, -187500.02235174447, 4810.7883108601945, 0.212, 0.918, -0.292, 192.0, 0.0, 0.0, 0.0, 0.0, 0.0, 0.0, 0.0, 0.0, 0.0, 1.741290222932692E9, 0.0, 2025-03-06 13:43:42.932
239.0, 3348.9171682497467, 22929.849973899123, -6710.440720372287, -19836.525003495815, -187500.02235174447, 20493.688642226298, -187500.02235174447, 4810.631848649007, 0.212, 0.918, -0.292, 192.0, 0.0, 0.0, 0.0, 0.0, 0.0, 0.0, 0.0, 0.0, 0.0, 1.741290222932705E9, 0.0, 2025-03-06 13:43:42.932
240.0, 3354.3709938968414, 22927.033654097755, -6706.2832959035995, -19863.235338119906, -187500.02235174447, 20489.084182868504, -187500.02235174447, 4804.194546245879, 0.212, 0.918, -0.292, 192.0, 0.0, 0.0, 0.0, 0.0, 0.0, 0.0, 0.0, 0.0, 0.0, 1.741290222932726E9, 0.0, 2025-03-06 13:43:42.932
241.0, 3350.213569428154, 22944.289200817253, -6704.316342391532, -19857.49093979489, -187500.02235174447, 20492.30283407007, -187500.02235174447, 4815.973915573825, 0.212, 0.918, -0.292, 192.0, 0.0, 0.0, 0.0, 0.0, 0.0, 0.0, 0.0, 0.0, 0.0, 1.741290222992689E9, 0.0, 2025-03-06 13:43:42.992
242.0, 3344.4021158697747, 22966.03744817227, -6705.456281358753, -19804.360843224626, -187500.02235174447, 20497.15316261687, -187500.02235174447, 4838.459770495864, 0.212, 0.918, -0.292, 192.0, 0.0, 0.0, 0.0, 0.0, 0.0, 0.0, 0.0, 0.0, 0.0, 1.741290222992712E9, 0.0, 2025-03-06 13:43:42.992
243.0, 3351.577025839928, 22945.272677573288, -6703.936362735792, -19770.497950374836, -187500.02235174447, 20494.67211898233, -187500.02235174447, 4850.932043901926, 0.212, 0.918, -0.292, 192.0, 0.0, 0.0, 0.0, 0.0, 0.0, 0.0, 0.0, 0.0, 0.0, 1.741290222992726E9, 0.0, 2025-03-06 13:43:42.992
244.0, 3364.6304446018275, 22932.48747974485, -6698.884868488893, -19845.376294300117, -187500.02235174447, 20486.11140085595, -187500.02235174447, 4798.04781652067, 0.212, 0.918, -0.292, 192.0, 0.0, 0.0, 0.0, 0.0, 0.0, 0.0, 0.0, 0.0, 0.0, 1.74129022299274E9, 0.0, 2025-03-06 13:43:42.992
245.0, 3358.550770109984, 22954.593355011148, -6705.210412169745, -19862.229509619418, -187500.02235174447, 20492.995738148184, -187500.02235174447, 4792.862211807038, 0.212, 0.918, -0.292, 192.0, 0.0, 0.0, 0.0, 0.0, 0.0, 0.0, 0.0, 0.0, 0.0, 1.741290222992771E9, 0.0, 2025-03-06 13:43:42.992
246.0, 3348.872464760836, 22973.860558731623, -6711.267734917133, -19799.666976889013, -187500.02235174447, 20495.29796782708, -187500.02235174447, 4827.708581412862, 0.212, 0.918, -0.292, 192.0, 0.0, 0.0, 0.0, 0.0, 0.0, 0.0, 0.0, 0.0, 0.0, 1.741290222992784E9, 0.0, 2025-03-06 13:43:42.992
247.0, 3355.1756566972326, 22953.766340466304, -6714.464034374241, -19771.57083410869, -187500.02235174447, 20484.993813633184, -187500.02235174447, 4827.9320988574145, 0.21, 0.924, -0.296, 192.0, 6.0, 144.0, 28.0, 224.0, 246.0, 192.0, 0.0, 0.0, 0.0, 1.741290222992801E9, 0.0, 2025-03-06 13:43:42.992
248.0, 3363.557560867973, 22939.327113548174, -6711.267734917133, -19817.771889897813, -187500.02235174447, 20487.988947390193, -187500.02235174447, 4800.841784577583, 0.21, 0.924, -0.296, 192.0, 0.0, 0.0, 0.0, 0.0, 0.0, 0.0, 0.0, 0.0, 0.0, 1.741290222992816E9, 0.0, 2025-03-06 13:43:42.992
249.0, 3359.71306082166, 22949.49715727534, -6713.815833785037, -19830.177108070508, -187500.02235174447, 20490.87232242493, -187500.02235174447, 4801.422929933421, 0.21, 0.924, -0.296, 192.0, 0.0, 0.0, 0.0, 0.0, 0.0, 0.0, 0.0, 0.0, 0.0, 1.741290222992835E9, 0.0, 2025-03-06 13:43:42.992
250.0, 3359.422488143741, 22974.754628509836, -6713.145281451379, -19794.88370357558, -187500.02235174447, 20493.86745618194, -187500.02235174447, 4819.259622008756, 0.21, 0.924, -0.296, 192.0, 0.0, 0.0, 0.0, 0.0, 0.0, 0.0, 0.0, 0.0, 0.0, 1.741290222992848E9, 0.0, 2025-03-06 13:43:42.992
251.0, 3360.4506683886852, 22977.392134355563, -6711.46890061723, -19744.70403727341, -187500.02235174447, 20500.66238649635, -187500.02235174447, 4842.81836066465, 0.21, 0.924, -0.296, 192.0, 0.0, 0.0, 0.0, 0.0, 0.0, 0.0, 0.0, 0.0, 0.0, 1.741290222992861E9, 0.0, 2025-03-06 13:43:42.992
252.0, 3358.059031731967, 22947.93253516347, -6718.017961742636, -19768.57570035168, -187500.02235174447, 20488.368927045933, -187500.02235174447, 4827.9320988574145, 0.21, 0.924, -0.296, 192.0, 0.0, 0.0, 0.0, 0.0, 0.0, 0.0, 0.0, 0.0, 0.0, 1.741290222992874E9, 0.0, 2025-03-06 13:43:42.992
253.0, 3366.418584158252, 22952.805215454726, -6712.027694228613, -19817.25779977534, -187500.02235174447, 20485.373793288923, -187500.02235174447, 4792.415176917932, 0.21, 0.924, -0.296, 192.0, 0.0, 0.0, 0.0, 0.0, 0.0, 0.0, 0.0, 0.0, 0.0, 1.741290222992887E9, 0.0, 2025-03-06 13:43:42.992
254.0, 3373.772308084048, 22995.45234387545, -6697.789633010582, -19790.39100294006, -187500.02235174447, 20504.4398313093, -187500.02235174447, 4810.408331204454, 0.21, 0.924, -0.296, 192.0, 0.0, 0.0, 0.0, 0.0, 0.0, 0.0, 0.0, 0.0, 0.0, 1.7412902229929E9, 0.0, 2025-03-06 13:43:42.992
255.0, 3376.81214532997, 23003.096640479165, -6697.789633010582, -19746.268659385285, -187500.02235174447, 20501.623511507933, -187500.02235174447, 4819.885470853505, 0.21, 0.924, -0.296, 192.0, 0.0, 0.0, 0.0, 0.0, 0.0, 0.0, 0.0, 0.0, 0.0, 1.741290222992914E9, 0.0, 2025-03-06 13:43:42.992
0.0, 3381.103680265389, 22974.866387232112, -6698.259019644144, -19776.689383588957, -187500.02235174447, 20495.52148527163, -187500.02235174447, 4801.132357255502, 0.21, 0.924, -0.296, 192.0, 0.0, 0.0, 0.0, 0.0, 0.0, 0.0, 0.0, 0.0, 0.0, 1.741290223053582E9, 0.0, 2025-03-06 13:43:43.053
1.0, 3383.5623721554725, 22983.65062280305, -6697.499060332663, -19827.204326057952, -187500.02235174447, 20493.621586992933, -187500.02235174447, 4777.439508132877, 0.21, 0.92, -0.296, 192.0, 6.0, 144.0, 28.0, 192.0, 246.0, 192.0, 0.0, 0.0, 0.0, 1.741290223053606E9, 0.0, 2025-03-06 13:43:43.053
2.0, 3373.19116272821, 23003.65543409055, -6705.389226125387, -19796.336566965172, -187500.02235174447, 20496.616720749942, -187500.02235174447, 4804.820395090627, 0.21, 0.92, -0.296, 192.0, 0.0, 0.0, 0.0, 0.0, 0.0, 0.0, 0.0, 0.0, 0.0, 1.741290223053621E9, 0.0, 2025-03-06 13:43:43.053
3.0, 3377.4156424302632, 23021.022739532324, -6696.403824854354, -19733.908144701498, -187500.02235174447, 20504.685700498307, -187500.02235174447, 4833.408276248965, 0.21, 0.92, -0.296, 192.0, 0.0, 0.0, 0.0, 0.0, 0.0, 0.0, 0.0, 0.0, 0.0, 1.741290223053634E9, 0.0, 2025-03-06 13:43:43.053
4.0, 3376.0521860184895, 22990.46790486192, -6697.700226032762, -19749.19673790893, -187500.02235174447, 20493.509828270653, -187500.02235174447, 4819.170215030935, 0.21, 0.92, -0.296, 192.0, 0.0, 0.0, 0.0, 0.0, 0.0, 0.0, 0.0, 0.0, 0.0, 1.741290223053666E9, 0.0, 2025-03-06 13:43:43.053
5.0, 3383.0482820330003, 22989.283262405785, -6691.128813162901, -19788.401697683537, -187500.02235174447, 20491.408764291857, -187500.02235174447, 4798.09252000958, 0.21, 0.92, -0.296, 192.0, 0.0, 0.0, 0.0, 0.0, 0.0, 0.0, 0.0, 0.0, 0.0, 1.74129022305368E9, 0.0, 2025-03-06 13:43:43.053
6.0, 3380.768404098559, 23011.65735860555, -6689.251266628656, -19776.868197544598, -187500.02235174447, 20499.00835740666, -187500.02235174447, 4810.140110270991, 0.21, 0.92, -0.296, 192.0, 0.0, 0.0, 0.0, 0.0, 0.0, 0.0, 0.0, 0.0, 0.0, 1.741290223053693E9, 0.0, 2025-03-06 13:43:43.053
7.0, 3379.874334320347, 23029.248181491876, -6692.179345152301, -19713.389243291527, -187500.02235174447, 20503.836334209005, -187500.02235174447, 4838.951508873882, 0.21, 0.92, -0.296, 192.0, 0.0, 0.0, 0.0, 0.0, 0.0, 0.0, 0.0, 0.0, 0.0, 1.74129022305371E9, 0.0, 2025-03-06 13:43:43.053
8.0, 3377.7509185970926, 22997.68751832098, -6704.651618558361, -19708.114231600077, -187500.02235174447, 20493.420421292834, -187500.02235174447, 4831.508377970264, 0.21, 0.92, -0.296, 192.0, 0.0, 0.0, 0.0, 0.0, 0.0, 0.0, 0.0, 0.0, 0.0, 1.741290223053723E9, 0.0, 2025-03-06 13:43:43.053
9.0, 3376.320406951953, 22992.0772304627, -6705.322170892021, -19754.494101344837, -187500.02235174447, 20488.927720657317, -187500.02235174447, 4803.076959023114, 0.21, 0.92, -0.296, 192.0, 0.0, 0.0, 0.0, 0.0, 0.0, 0.0, 0.0, 0.0, 0.0, 1.741290223053739E9, 0.0, 2025-03-06 13:43:43.053
10.0, 3371.313616193964, 23008.908094037546, -6707.311476148543, -19757.28806940175, -187500.02235174447, 20492.68281372581, -187500.02235174447, 4804.976857301815, 0.21, 0.92, -0.296, 192.0, 0.0, 0.0, 0.0, 0.0, 0.0, 0.0, 0.0, 0.0, 0.0, 1.741290223053752E9, 0.0, 2025-03-06 13:43:43.053
11.0, 3367.2008952141878, 23028.287056480298, -6710.597182583473, -19698.83825765112, -187500.02235174447, 20495.029746893615, -187500.02235174447, 4834.3917530049985, 0.21, 0.918, -0.3, 192.0, 6.0, 144.0, 28.0, 176.0, 246.0, 160.0, 0.0, 0.0, 0.0, 1.741290223053765E9, 0.0, 2025-03-06 13:43:43.053
12.0, 3372.4982586500955, 23007.857562048146, -6713.3911506403865, -19670.406838703973, -187500.02235174447, 20485.418496777835, -187500.02235174447, 4838.884453640515, 0.21, 0.918, -0.3, 192.0, 0.0, 0.0, 0.0, 0.0, 0.0, 0.0, 0.0, 0.0, 0.0, 1.74129022305378E9, 0.0, 2025-03-06 13:43:43.053
13.0, 3376.1415929963105, 22993.418335130016, -6712.2735634176215, -19707.108403099588, -187500.02235174447, 20483.1833223323, -187500.02235174447, 4814.923383584426, 0.21, 0.918, -0.3, 192.0, 0.0, 0.0, 0.0, 0.0, 0.0, 0.0, 0.0, 0.0, 0.0, 1.741290223053793E9, 0.0, 2025-03-06 13:43:43.053
14.0, 3366.9550260251794, 22999.855637533146, -6718.397941398375, -19710.23764732333, -187500.02235174447, 20482.177493831816, -187500.02235174447, 4812.419988205432, 0.21, 0.918, -0.3, 192.0, 0.0, 0.0, 0.0, 0.0, 0.0, 0.0, 0.0, 0.0, 0.0, 1.741290223053806E9, 0.0, 2025-03-06 13:43:43.053
15.0, 3370.933636538224, 23029.49405068088, -6707.959676737747, -19654.917079796443, -187500.02235174447, 20496.683775983307, -187500.02235174447, 4840.382020519021, 0.21, 0.918, -0.3, 192.0, 0.0, 0.0, 0.0, 0.0, 0.0, 0.0, 0.0, 0.0, 0.0, 1.74129022311244E9, 0.0, 2025-03-06 13:43:43.112
16.0, 3370.8665813048583, 23015.45715516295, -6709.144319193879, -19588.666509230916, -187500.02235174447, 20495.901464927374, -187500.02235174447, 4879.29640761571, 0.21, 0.918, -0.3, 192.0, 0.0, 0.0, 0.0, 0.0, 0.0, 0.0, 0.0, 0.0, 0.0, 1.741290223112471E9, 0.0, 2025-03-06 13:43:43.112
17.0, 3364.295168434998, 22982.22011115791, -6718.219127442733, -19637.817995288133, -187500.02235174447, 20473.549720472067, -187500.02235174447, 4834.794084405195, 0.21, 0.918, -0.3, 192.0, 0.0, 0.0, 0.0, 0.0, 0.0, 0.0, 0.0, 0.0, 0.0, 1.741290223112485E9, 0.0, 2025-03-06 13:43:43.112
18.0, 3364.250464946087, 22997.620463087616, -6713.793482040583, -19637.438015632393, -187500.02235174447, 20477.05894435155, -187500.02235174447, 4837.543348973197, 0.21, 0.918, -0.3, 192.0, 0.0, 0.0, 0.0, 0.0, 0.0, 0.0, 0.0, 0.0, 0.0, 1.741290223112499E9, 0.0, 2025-03-06 13:43:43.112
19.0, 3371.2689127050535, 23028.89055358059, -6704.763377280638, -19597.428393057395, -187500.02235174447, 20486.513732256142, -187500.02235174447, 4849.926215401437, 0.21, 0.918, -0.3, 192.0, 0.0, 0.0, 0.0, 0.0, 0.0, 0.0, 0.0, 0.0, 0.0, 1.741290223112512E9, 0.0, 2025-03-06 13:43:43.112
20.0, 3364.0045957570787, 23021.60388488816, -6716.006304741658, -19559.095151316542, -187500.02235174447, 20480.4340577643, -187500.02235174447, 4853.144866603001, 0.21, 0.918, -0.3, 192.0, 0.0, 0.0, 0.0, 0.0, 0.0, 0.0, 0.0, 0.0, 0.0, 1.741290223112543E9, 0.0, 2025-03-06 13:43:43.112
21.0, 3378.0191395305565, 23005.26475969133, -6714.061702974046, -19566.650040942437, -187500.02235174447, 20482.311604298546, -187500.02235174447, 4854.86595092606, 0.20600000000000002, 0.918, -0.3, 192.0, 6.0, 112.0, 28.0, 176.0, 246.0, 160.0, 0.0, 0.0, 0.0, 1.74129022311256E9, 0.0, 2025-03-06 13:43:43.112
22.0, 3384.0764622779448, 23013.959588284444, -6707.557345337552, -19589.649985986947, -187500.02235174447, 20481.708107198254, -187500.02235174447, 4843.62302346504, 0.20600000000000002, 0.918, -0.3, 192.0, 0.0, 0.0, 0.0, 0.0, 0.0, 0.0, 0.0, 0.0, 0.0, 1.741290223112579E9, 0.0, 2025-03-06 13:43:43.112
23.0, 3378.577933141939, 23038.457100207463, -6700.740063278683, -19566.87355838699, -187500.02235174447, 20490.090011368993, -187500.02235174447, 4851.803761935683, 0.20600000000000002, 0.918, -0.3, 192.0, 0.0, 0.0, 0.0, 0.0, 0.0, 0.0, 0.0, 0.0, 0.0, 1.741290223112592E9, 0.0, 2025-03-06 13:43:43.112
24.0, 3376.320406951953, 23037.026588562323, -6706.618572070429, -19512.469412382772, -187500.02235174447, 20488.301871812568, -187500.02235174447, 4871.4285935674425, 0.20600000000000002, 0.918, -0.3, 192.0, 0.0, 0.0, 0.0, 0.0, 0.0, 0.0, 0.0, 0.0, 0.0, 1.741290223112608E9, 0.0, 2025-03-06 13:43:43.112
25.0, 3387.0715960349557, 23012.9314080395, -6703.735197035694, -19546.82404361058, -187500.02235174447, 20483.160970587847, -187500.02235174447, 4842.81836066465, 0.20600000000000002, 0.918, -0.3, 192.0, 0.0, 0.0, 0.0, 0.0, 0.0, 0.0, 0.0, 0.0, 0.0, 1.741290223112622E9, 0.0, 2025-03-06 13:43:43.112
26.0, 3382.578895399439, 23019.346358698174, -6707.512641848642, -19558.49165421625, -187500.02235174447, 20480.00937461965, -187500.02235174447, 4845.187645576912, 0.20600000000000002, 0.918, -0.3, 192.0, 0.0, 0.0, 0.0, 0.0, 0.0, 0.0, 0.0, 0.0, 0.0, 1.741290223112635E9, 0.0, 2025-03-06 13:43:43.112
27.0, 3381.506011665584, 23038.74767288538, -6707.691455804284, -19525.120499744477, -187500.02235174447, 20479.249415308168, -187500.02235174447, 4861.012680651269, 0.20600000000000002, 0.918, -0.3, 192.0, 0.0, 0.0, 0.0, 0.0, 0.0, 0.0, 0.0, 0.0, 0.0, 1.741290223112649E9, 0.0, 2025-03-06 13:43:43.112
28.0, 3380.2766657205425, 23052.963382358957, -6706.4621098592415, -19445.145958083387, -187500.02235174447, 20484.72559269972, -187500.02235174447, 4892.193364166423, 0.20600000000000002, 0.918, -0.3, 192.0, 0.0, 0.0, 0.0, 0.0, 0.0, 0.0, 0.0, 0.0, 0.0, 1.741290223112662E9, 0.0, 2025-03-06 13:43:43.112
29.0, 3386.959837312679, 23022.27443722182, -6703.064644702035, -19455.71833321075, -187500.02235174447, 20478.66826995233, -187500.02235174447, 4873.820230224161, 0.20600000000000002, 0.918, -0.3, 192.0, 0.0, 0.0, 0.0, 0.0, 0.0, 0.0, 0.0, 0.0, 0.0, 1.741290223112675E9, 0.0, 2025-03-06 13:43:43.112
30.0, 3390.0443780475116, 23021.64858837707, -6699.309551633543, -19496.778487775147, -187500.02235174447, 20477.72949668521, -187500.02235174447, 4849.747401445795, 0.20600000000000002, 0.918, -0.3, 192.0, 0.0, 0.0, 0.0, 0.0, 0.0, 0.0, 0.0, 0.0, 0.0, 1.741290223172088E9, 0.0, 2025-03-06 13:43:43.172
31.0, 3384.6352558893273, 23037.652437407072, -6700.963580723236, -19484.574435302547, -187500.02235174447, 20484.077392110514, -187500.02235174447, 4855.782372448727, 0.20400000000000001, 0.92, -0.296, 192.0, 6.0, 96.0, 28.0, 192.0, 246.0, 192.0, 0.0, 0.0, 0.0, 1.741290223172124E9, 0.0, 2025-03-06 13:43:43.172
32.0, 3375.9180755517577, 23053.902155626078, -6704.003417969158, -19411.03719604459, -187500.02235174447, 20492.548703259075, -187500.02235174447, 4886.046634441213, 0.20400000000000001, 0.92, -0.296, 192.0, 0.0, 0.0, 0.0, 0.0, 0.0, 0.0, 0.0, 0.0, 0.0, 1.74129022317214E9, 0.0, 2025-03-06 13:43:43.172
33.0, 3389.7538053695926, 23026.498916923872, -6697.968446966225, -19407.259751231642, -187500.02235174447, 20487.251339823168, -187500.02235174447, 4873.820230224161, 0.20400000000000001, 0.92, -0.296, 192.0, 0.0, 0.0, 0.0, 0.0, 0.0, 0.0, 0.0, 0.0, 0.0, 1.741290223172153E9, 0.0, 2025-03-06 13:43:43.172
34.0, 3387.4292239462407, 23014.898361551568, -6698.527240577608, -19464.033182148123, -187500.02235174447, 20484.457371766257, -187500.02235174447, 4838.459770495864, 0.20400000000000001, 0.92, -0.296, 192.0, 0.0, 0.0, 0.0, 0.0, 0.0, 0.0, 0.0, 0.0, 0.0, 1.741290223172166E9, 0.0, 2025-03-06 13:43:43.172
35.0, 3371.514781894062, 23024.263742478342, -6708.5184703491295, -19440.94383012579, -187500.02235174447, 20494.15802885986, -187500.02235174447, 4863.873703941548, 0.20400000000000001, 0.92, -0.296, 192.0, 0.0, 0.0, 0.0, 0.0, 0.0, 0.0, 0.0, 0.0, 0.0, 1.741290223172184E9, 0.0, 2025-03-06 13:43:43.172
36.0, 3377.6838633637267, 23052.51634746985, -6701.1200429344235, -19370.111151946923, -187500.02235174447, 20510.675968012332, -187500.02235174447, 4900.932896248448, 0.20400000000000001, 0.92, -0.296, 192.0, 0.0, 0.0, 0.0, 0.0, 0.0, 0.0, 0.0, 0.0, 0.0, 1.741290223172197E9, 0.0, 2025-03-06 13:43:43.172
37.0, 3375.9851307851236, 23021.827402332714, -6707.289124404088, -19371.519311847605, -187500.02235174447, 20494.3368428155, -187500.02235174447, 4878.87172447106, 0.20400000000000001, 0.92, -0.296, 192.0, 0.0, 0.0, 0.0, 0.0, 0.0, 0.0, 0.0, 0.0, 0.0, 1.741290223172213E9, 0.0, 2025-03-06 13:43:43.172
38.0, 3377.214476730165, 23003.253102690353, -6708.362008137943, -19422.861268861445, -187500.02235174447, 20488.234816579203, -187500.02235174447, 4847.221654322345, 0.20400000000000001, 0.92, -0.296, 192.0, 0.0, 0.0, 0.0, 0.0, 0.0, 0.0, 0.0, 0.0, 0.0, 1.741290223172231E9, 0.0, 2025-03-06 13:43:43.172
39.0, 3375.962779040668, 23025.60484714566, -6704.361045880443, -19406.388033197883, -187500.02235174447, 20508.68666275581, -187500.02235174447, 4875.876590714049, 0.20400000000000001, 0.92, -0.296, 192.0, 0.0, 0.0, 0.0, 0.0, 0.0, 0.0, 0.0, 0.0, 0.0, 1.741290223172243E9, 0.0, 2025-03-06 13:43:43.172
40.0, 3372.0512237609896, 23050.616449191148, -6705.411577869842, -19341.567974277496, -187500.02235174447, 20515.794517492595, -187500.02235174447, 4913.539280121241, 0.20400000000000001, 0.92, -0.296, 192.0, 0.0, 0.0, 0.0, 0.0, 0.0, 0.0, 0.0, 0.0, 0.0, 1.74129022317226E9, 0.0, 2025-03-06 13:43:43.172
41.0, 3384.0764622779448, 23037.36186472915, -6699.466013844731, -19342.46204405571, -187500.02235174447, 20509.826601723027, -187500.02235174447, 4891.992198466325, 0.20400000000000001, 0.924, -0.29, 192.0, 6.0, 96.0, 28.0, 224.0, 246.0, 240.0, 0.0, 0.0, 0.0, 1.741290223172273E9, 0.0, 2025-03-06 13:43:43.172
42.0, 3383.3388547109193, 23020.240428476387, -6699.354255122454, -19401.336538950985, -187500.02235174447, 20505.06568015405, -187500.02235174447, 4858.956320161381, 0.20400000000000001, 0.924, -0.29, 192.0, 0.0, 0.0, 0.0, 0.0, 0.0, 0.0, 0.0, 0.0, 0.0, 1.741290223172287E9, 0.0, 2025-03-06 13:43:43.172
43.0, 3380.3437209539084, 23025.448384934472, -6700.270676645122, -19433.232478288708, -187500.02235174447, 20509.401918578376, -187500.02235174447, 4847.57928223363, 0.20400000000000001, 0.924, -0.29, 192.0, 0.0, 0.0, 0.0, 0.0, 0.0, 0.0, 0.0, 0.0, 0.0, 1.7412902231723E9, 0.0, 2025-03-06 13:43:43.172
44.0, 3380.120203509355, 23050.236469535408, -6692.894600974871, -19419.352044981963, -187500.02235174447, 20516.755642504173, -187500.02235174447, 4855.536503259719, 0.20400000000000001, 0.924, -0.29, 192.0, 0.0, 0.0, 0.0, 0.0, 0.0, 0.0, 0.0, 0.0, 0.0, 1.741290223172313E9, 0.0, 2025-03-06 13:43:43.172
45.0, 3382.0424535325114, 23044.067388065745, -6692.425214341309, -19392.574655124507, -187500.02235174447, 20512.06177616856, -187500.02235174447, 4866.064174898169, 0.20400000000000001, 0.924, -0.29, 192.0, 0.0, 0.0, 0.0, 0.0, 0.0, 0.0, 0.0, 0.0, 0.0, 1.741290223232265E9, 0.0, 2025-03-06 13:43:43.232
46.0, 3386.356340212386, 23014.540733640282, -6691.79936549656, -19446.598821472984, -187500.02235174447, 20505.043328409593, -187500.02235174447, 4839.443247251898, 0.20400000000000001, 0.924, -0.29, 192.0, 0.0, 0.0, 0.0, 0.0, 0.0, 0.0, 0.0, 0.0, 0.0, 1.741290223232307E9, 0.0, 2025-03-06 13:43:43.232
47.0, 3379.9190378092576, 23014.31721619573, -6692.380510852398, -19483.05451667959, -187500.02235174447, 20505.222142365237, -187500.02235174447, 4831.284860525711, 0.20400000000000001, 0.924, -0.29, 192.0, 0.0, 0.0, 0.0, 0.0, 0.0, 0.0, 0.0, 0.0, 0.0, 1.741290223232321E9, 0.0, 2025-03-06 13:43:43.232
48.0, 3376.8568488188803, 23034.120861783133, -6690.346502106965, -19459.18285360132, -187500.02235174447, 20510.1395261454, -187500.02235174447, 4853.256625325278, 0.20400000000000001, 0.924, -0.29, 192.0, 0.0, 0.0, 0.0, 0.0, 0.0, 0.0, 0.0, 0.0, 0.0, 1.741290223232334E9, 0.0, 2025-03-06 13:43:43.232
49.0, 3381.394252943308, 23039.194707774488, -6688.826583484004, -19425.23055377371, -187500.02235174447, 20507.457316810767, -187500.02235174447, 4862.018509151758, 0.20400000000000001, 0.924, -0.29, 192.0, 0.0, 0.0, 0.0, 0.0, 0.0, 0.0, 0.0, 0.0, 0.0, 1.741290223232347E9, 0.0, 2025-03-06 13:43:43.232
50.0, 3381.6624738767714, 23008.192838214974, -6695.330941120499, -19469.352897328485, -187500.02235174447, 20492.615758492444, -187500.02235174447, 4836.090485583602, 0.20400000000000001, 0.924, -0.29, 192.0, 0.0, 0.0, 0.0, 0.0, 0.0, 0.0, 0.0, 0.0, 0.0, 1.741290223232361E9, 0.0, 2025-03-06 13:43:43.232
51.0, 3377.549752896995, 23003.40956490154, -6702.37174062392, -19512.469412382772, -187500.02235174447, 20487.117229356438, -187500.02235174447, 4821.137168543001, 0.20600000000000002, 0.924, -0.29, 192.0, 6.0, 112.0, 28.0, 224.0, 246.0, 240.0, 0.0, 0.0, 0.0, 1.741290223232378E9, 0.0, 2025-03-06 13:43:43.232
52.0, 3385.2387529896205, 23023.99552154488, -6695.822679498516, -19522.035959009645, -187500.02235174447, 20488.368927045933, -187500.02235174447, 4816.040970807191, 0.20600000000000002, 0.924, -0.29, 192.0, 0.0, 0.0, 0.0, 0.0, 0.0, 0.0, 0.0, 0.0, 0.0, 1.741290223232392E9, 0.0, 2025-03-06 13:43:43.232
53.0, 3382.1765639992436, 23034.500841438872, -6694.548630064563, -19497.04670870861, -187500.02235174447, 20492.72751721472, -187500.02235174447, 4824.691095911396, 0.20600000000000002, 0.924, -0.29, 192.0, 0.0, 0.0, 0.0, 0.0, 0.0, 0.0, 0.0, 0.0, 0.0, 1.74129022323241E9, 0.0, 2025-03-06 13:43:43.232
54.0, 3393.218325760165, 23008.014024259333, -6689.363025350932, -19533.882383570955, -187500.02235174447, 20489.642976479885, -187500.02235174447, 4807.726121869818, 0.20600000000000002, 0.924, -0.29, 192.0, 0.0, 0.0, 0.0, 0.0, 0.0, 0.0, 0.0, 0.0, 0.0, 1.741290223232424E9, 0.0, 2025-03-06 13:43:43.232
55.0, 3391.6984071372044, 23005.84590504717, -6688.111327661434, -19604.580951283093, -187500.02235174447, 20490.224121835723, -187500.02235174447, 4779.026481989203, 0.20600000000000002, 0.924, -0.29, 192.0, 0.0, 0.0, 0.0, 0.0, 0.0, 0.0, 0.0, 0.0, 0.0, 1.74129022323244E9, 0.0, 2025-03-06 13:43:43.232
56.0, 3376.543924396506, 23018.45228891996, -6696.001493454158, -19617.991997956276, -187500.02235174447, 20487.13958110089, -187500.02235174447, 4785.284970436689, 0.20600000000000002, 0.924, -0.29, 192.0, 0.0, 0.0, 0.0, 0.0, 0.0, 0.0, 0.0, 0.0, 0.0, 1.741290223232454E9, 0.0, 2025-03-06 13:43:43.232
57.0, 3376.4768691631402, 23038.390044974094, -6691.687606774284, -19562.604375196028, -187500.02235174447, 20497.57784576152, -187500.02235174447, 4824.244061022289, 0.20600000000000002, 0.924, -0.29, 192.0, 0.0, 0.0, 0.0, 0.0, 0.0, 0.0, 0.0, 0.0, 0.0, 1.741290223232467E9, 0.0, 2025-03-06 13:43:43.232
58.0, 3378.6226366308497, 23010.98680627189, -6693.319284119521, -19576.01542186921, -187500.02235174447, 20489.19594159078, -187500.02235174447, 4817.38207547451, 0.20600000000000002, 0.924, -0.29, 192.0, 0.0, 0.0, 0.0, 0.0, 0.0, 0.0, 0.0, 0.0, 0.0, 1.74129022323248E9, 0.0, 2025-03-06 13:43:43.232
59.0, 3381.774232599048, 22995.720564808915, -6692.760490508139, -19652.8383675621, -187500.02235174447, 20477.90831064085, -187500.02235174447, 4774.980816242793, 0.20600000000000002, 0.924, -0.29, 192.0, 0.0, 0.0, 0.0, 0.0, 0.0, 0.0, 0.0, 0.0, 0.0, 1.741290223232493E9, 0.0, 2025-03-06 13:43:43.232
60.0, 3381.126032009844, 23018.921675553524, -6687.954865450248, -19679.861626608566, -187500.02235174447, 20488.368927045933, -187500.02235174447, 4771.739813296773, 0.20600000000000002, 0.924, -0.29, 192.0, 0.0, 0.0, 0.0, 0.0, 0.0, 0.0, 0.0, 0.0, 0.0, 1.741290223292588E9, 0.0, 2025-03-06 13:43:43.292
61.0, 3384.5905524004165, 23040.42405371953, -6685.406766582342, -19648.815053560145, -187500.02235174447, 20496.683775983307, -187500.02235174447, 4791.498755395264, 0.20600000000000002, 0.918, -0.29, 192.0, 6.0, 112.0, 28.0, 176.0, 246.0, 240.0, 0.0, 0.0, 0.0, 1.741290223292646E9, 0.0, 2025-03-06 13:43:43.292
62.0, 3381.8859913213246, 23018.809916831247, -6688.7371765061835, -19654.917079796443, -187500.02235174447, 20492.10166836997, -187500.02235174447, 4786.84959254856, 0.20600000000000002, 0.918, -0.29, 192.0, 0.0, 0.0, 0.0, 0.0, 0.0, 0.0, 0.0, 0.0, 0.0, 1.741290223292662E9, 0.0, 2025-03-06 13:43:43.292
63.0, 3376.0968895074, 22991.138457195575, -6696.627342298907, -19723.626342252057, -187500.02235174447, 20480.076429853016, -187500.02235174447, 4754.685432277373, 0.20600000000000002, 0.918, -0.29, 192.0, 0.0, 0.0, 0.0, 0.0, 0.0, 0.0, 0.0, 0.0, 0.0, 1.741290223292675E9, 0.0, 2025-03-06 13:43:43.292
64.0, 3373.8617150618693, 23008.41635565953, -6693.878077730904, -19766.027601483776, -187500.02235174447, 20484.2338543217, -187500.02235174447, 4747.13054265148, 0.20600000000000002, 0.918, -0.29, 192.0, 0.0, 0.0, 0.0, 0.0, 0.0, 0.0, 0.0, 0.0, 0.0, 1.741290223292688E9, 0.0, 2025-03-06 13:43:43.292
65.0, 3366.6421016028053, 23029.76227161435, -6695.733272520694, -19730.600086522114, -187500.02235174447, 20496.124982371926, -187500.02235174447, 4783.005092502248, 0.20600000000000002, 0.918, -0.29, 192.0, 0.0, 0.0, 0.0, 0.0, 0.0, 0.0, 0.0, 0.0, 0.0, 1.741290223292701E9, 0.0, 2025-03-06 13:43:43.292
66.0, 3374.644026117805, 23010.875047549613, -6689.117156161923, -19741.41833083848, -187500.02235174447, 20488.57009274603, -187500.02235174447, 4767.761202783729, 0.20600000000000002, 0.918, -0.29, 192.0, 0.0, 0.0, 0.0, 0.0, 0.0, 0.0, 0.0, 0.0, 0.0, 1.741290223292718E9, 0.0, 2025-03-06 13:43:43.292
67.0, 3380.164906998266, 22993.26187291883, -6686.814926483027, -19821.929314366498, -187500.02235174447, 20483.1833223323, -187500.02235174447, 4730.947879665838, 0.20600000000000002, 0.918, -0.29, 192.0, 0.0, 0.0, 0.0, 0.0, 0.0, 0.0, 0.0, 0.0, 0.0, 1.741290223292732E9, 0.0, 2025-03-06 13:43:43.292
68.0, 3377.616808130361, 22997.396945643064, -6690.257095129144, -19859.21202411795, -187500.02235174447, 20485.083220611003, -187500.02235174447, 4729.986754654259, 0.20600000000000002, 0.918, -0.29, 192.0, 0.0, 0.0, 0.0, 0.0, 0.0, 0.0, 0.0, 0.0, 0.0, 1.741290223292749E9, 0.0, 2025-03-06 13:43:43.292
69.0, 3372.945293539202, 23020.46394592094, -6687.820754983516, -19869.717344011944, -187500.02235174447, 20494.225084093225, -187500.02235174447, 4729.047981387136, 0.20600000000000002, 0.918, -0.29, 192.0, 0.0, 0.0, 0.0, 0.0, 0.0, 0.0, 0.0, 0.0, 0.0, 1.741290223292762E9, 0.0, 2025-03-06 13:43:43.292
70.0, 3373.5934941284054, 23021.380367443606, -6690.927647462803, -19841.576497742713, -187500.02235174447, 20498.024880650628, -187500.02235174447, 4750.729173508785, 0.20600000000000002, 0.918, -0.29, 192.0, 0.0, 0.0, 0.0, 0.0, 0.0, 0.0, 0.0, 0.0, 0.0, 1.741290223292775E9, 0.0, 2025-03-06 13:43:43.292
71.0, 3381.1707354987548, 22996.83815203168, -6692.536973063586, -19882.770762773845, -187500.02235174447, 20487.564264245542, -187500.02235174447, 4737.765161724707, 0.20600000000000002, 0.918, -0.29, 192.0, 6.0, 112.0, 28.0, 176.0, 246.0, 240.0, 0.0, 0.0, 0.0, 1.741290223292792E9, 0.0, 2025-03-06 13:43:43.292
72.0, 3391.6537036482937, 23009.198666715463, -6682.590446780974, -19927.071920284263, -187500.02235174447, 20494.58271200451, -187500.02235174447, 4723.84002492905, 0.20600000000000002, 0.918, -0.29, 192.0, 0.0, 0.0, 0.0, 0.0, 0.0, 0.0, 0.0, 0.0, 0.0, 1.741290223292806E9, 0.0, 2025-03-06 13:43:43.292
73.0, 3388.4797559356402, 23033.42795770502, -6683.618627025918, -19927.40719645109, -187500.02235174447, 20501.71291848575, -187500.02235174447, 4729.293850576145, 0.20600000000000002, 0.918, -0.29, 192.0, 0.0, 0.0, 0.0, 0.0, 0.0, 0.0, 0.0, 0.0, 0.0, 1.741290223292819E9, 0.0, 2025-03-06 13:43:43.292
74.0, 3387.295113479509, 23039.932315341513, -6682.009301425136, -19883.865998252153, -187500.02235174447, 20506.697357499284, -187500.02235174447, 4756.920606722904, 0.20600000000000002, 0.918, -0.29, 192.0, 0.0, 0.0, 0.0, 0.0, 0.0, 0.0, 0.0, 0.0, 0.0, 1.741290223292833E9, 0.0, 2025-03-06 13:43:43.292
75.0, 3395.9228868392574, 23003.767192812826, -6679.41649906832, -19926.691940628523, -187500.02235174447, 20491.565226503044, -187500.02235174447, 4737.4745890467875, 0.20600000000000002, 0.918, -0.29, 192.0, 0.0, 0.0, 0.0, 0.0, 0.0, 0.0, 0.0, 0.0, 0.0, 1.741290223352857E9, 0.0, 2025-03-06 13:43:43.352
76.0, 3388.7703286135593, 22999.45330613295, -6683.931551448292, -19987.28751984686, -187500.02235174447, 20484.323261299523, -187500.02235174447, 4715.055789358114, 0.20600000000000002, 0.918, -0.29, 192.0, 0.0, 0.0, 0.0, 0.0, 0.0, 0.0, 0.0, 0.0, 0.0, 1.741290223352875E9, 0.0, 2025-03-06 13:43:43.352
77.0, 3376.1415929963105, 23009.690405093483, -6691.486441074186, -19983.219502355994, -187500.02235174447, 20482.266900809635, -187500.02235174447, 4729.137388364958, 0.20600000000000002, 0.918, -0.29, 192.0, 0.0, 0.0, 0.0, 0.0, 0.0, 0.0, 0.0, 0.0, 0.0, 1.741290223352897E9, 0.0, 2025-03-06 13:43:43.352
78.0, 3360.674185833238, 23016.284169707797, -6699.309551633543, -19932.726911631456, -187500.02235174447, 20481.551644987067, -187500.02235174447, 4759.155781168435, 0.20600000000000002, 0.918, -0.29, 192.0, 0.0, 0.0, 0.0, 0.0, 0.0, 0.0, 0.0, 0.0, 0.0, 1.741290223352911E9, 0.0, 2025-03-06 13:43:43.352
79.0, 3374.62167437335, 22985.75168678185, -6696.2473626431665, -19951.927060118564, -187500.02235174447, 20471.783932660095, -187500.02235174447, 4750.863283975516, 0.20600000000000002, 0.918, -0.29, 192.0, 0.0, 0.0, 0.0, 0.0, 0.0, 0.0, 0.0, 0.0, 0.0, 1.741290223352924E9, 0.0, 2025-03-06 13:43:43.352
80.0, 3374.7781365845367, 22983.136532680575, -6695.286237631588, -20013.550819581847, -187500.02235174447, 20474.063810594536, -187500.02235174447, 4724.667039473897, 0.20600000000000002, 0.918, -0.29, 192.0, 0.0, 0.0, 0.0, 0.0, 0.0, 0.0, 0.0, 0.0, 0.0, 1.741290223352938E9, 0.0, 2025-03-06 13:43:43.352
81.0, 3365.122182979844, 22999.8779892776, -6698.415481855332, -20017.641188817168, -187500.02235174447, 20480.4340577643, -187500.02235174447, 4739.039211158659, 0.2, 0.922, -0.298, 192.0, 6.0, 64.0, 28.0, 208.0, 246.0, 176.0, 0.0, 0.0, 0.0, 1.741290223352951E9, 0.0, 2025-03-06 13:43:43.352
82.0, 3369.123145237344, 23022.877934322114, -6698.1249091774125, -19959.61606021119, -187500.02235174447, 20484.323261299523, -187500.02235174447, 4775.986644743281, 0.2, 0.922, -0.298, 192.0, 0.0, 0.0, 0.0, 0.0, 0.0, 0.0, 0.0, 0.0, 0.0, 1.74129022335297E9, 0.0, 2025-03-06 13:43:43.352
83.0, 3375.314578451464, 22994.78179154179, -6697.0743771880125, -19966.746266692433, -187500.02235174447, 20478.176531574314, -187500.02235174447, 4768.722327795306, 0.2, 0.922, -0.298, 192.0, 0.0, 0.0, 0.0, 0.0, 0.0, 0.0, 0.0, 0.0, 0.0, 1.741290223352983E9, 0.0, 2025-03-06 13:43:43.352
84.0, 3375.2028197291875, 22985.863445504125, -6694.839202742482, -20025.888982521177, -187500.02235174447, 20473.32620302751, -187500.02235174447, 4741.5873100265635, 0.2, 0.922, -0.298, 192.0, 0.0, 0.0, 0.0, 0.0, 0.0, 0.0, 0.0, 0.0, 0.0, 1.741290223352998E9, 0.0, 2025-03-06 13:43:43.352
85.0, 3362.9540637676796, 23002.56019861224, -6697.722577777216, -20024.7266918095, -187500.02235174447, 20477.19305481828, -187500.02235174447, 4752.718478765307, 0.2, 0.922, -0.298, 192.0, 0.0, 0.0, 0.0, 0.0, 0.0, 0.0, 0.0, 0.0, 0.0, 1.741290223353012E9, 0.0, 2025-03-06 13:43:43.353
86.0, 3359.5565986104725, 23017.535867397295, -6698.3037231330545, -19988.941548936553, -187500.02235174447, 20476.209578062248, -187500.02235174447, 4766.017766716214, 0.2, 0.922, -0.298, 192.0, 0.0, 0.0, 0.0, 0.0, 0.0, 0.0, 0.0, 0.0, 0.0, 1.741290223353028E9, 0.0, 2025-03-06 13:43:43.353
87.0, 3360.674185833238, 23000.682652077994, -6700.695359789773, -19981.27490058838, -187500.02235174447, 20474.421438505822, -187500.02235174447, 4760.586292813575, 0.2, 0.922, -0.298, 192.0, 0.0, 0.0, 0.0, 0.0, 0.0, 0.0, 0.0, 0.0, 0.0, 1.741290223353042E9, 0.0, 2025-03-06 13:43:43.353
88.0, 3356.159133453266, 22979.627308801093, -6704.1822319248, -20012.366177125714, -187500.02235174447, 20471.783932660095, -187500.02235174447, 4757.144124167457, 0.2, 0.922, -0.298, 192.0, 0.0, 0.0, 0.0, 0.0, 0.0, 0.0, 0.0, 0.0, 0.0, 1.741290223353069E9, 0.0, 2025-03-06 13:43:43.353
89.0, 3367.491467892107, 22988.63506181658, -6694.503926575652, -20035.477880892504, -187500.02235174447, 20478.645918207876, -187500.02235174447, 4753.277272376689, 0.2, 0.922, -0.298, 192.0, 0.0, 0.0, 0.0, 0.0, 0.0, 0.0, 0.0, 0.0, 0.0, 1.741290223353083E9, 0.0, 2025-03-06 13:43:43.353
90.0, 3366.709156836171, 23009.60099811566, -6689.653598028851, -20029.10763372274, -187500.02235174447, 20481.126961842416, -187500.02235174447, 4751.51148456472, 0.2, 0.922, -0.298, 192.0, 0.0, 0.0, 0.0, 0.0, 0.0, 0.0, 0.0, 0.0, 0.0, 1.741290223413125E9, 0.0, 2025-03-06 13:43:43.413
91.0, 3359.578950354928, 22989.46207636143, -6696.850859743459, -20009.549857324346, -187500.02235174447, 20466.710086668743, -187500.02235174447, 4760.005147457737, 0.202, 0.922, -0.298, 192.0, 6.0, 80.0, 28.0, 208.0, 246.0, 176.0, 0.0, 0.0, 0.0, 1.741290223413168E9, 0.0, 2025-03-06 13:43:43.413
92.0, 3375.292226707009, 22974.06172443172, -6691.75466200765, -20078.952023858074, -187500.02235174447, 20457.545871442067, -187500.02235174447, 4719.012048126704, 0.202, 0.922, -0.298, 192.0, 0.0, 0.0, 0.0, 0.0, 0.0, 0.0, 0.0, 0.0, 0.0, 1.741290223413194E9, 0.0, 2025-03-06 13:43:43.413
93.0, 3380.835459331925, 23000.7273555669, -6683.41746132582, -20119.341626088815, -187500.02235174447, 20476.947185629273, -187500.02235174447, 4707.120920076481, 0.202, 0.922, -0.298, 192.0, 0.0, 0.0, 0.0, 0.0, 0.0, 0.0, 0.0, 0.0, 0.0, 1.741290223413208E9, 0.0, 2025-03-06 13:43:43.413
94.0, 3365.748031824593, 23021.26860872133, -6688.692473017272, -20098.4427450231, -187500.02235174447, 20482.132790342905, -187500.02235174447, 4729.673830231885, 0.202, 0.922, -0.298, 192.0, 0.0, 0.0, 0.0, 0.0, 0.0, 0.0, 0.0, 0.0, 0.0, 1.741290223413222E9, 0.0, 2025-03-06 13:43:43.413
95.0, 3366.463287647163, 23010.65153010506, -6694.146298664367, -20068.20083477507, -187500.02235174447, 20471.985098360194, -187500.02235174447, 4740.93910943736, 0.202, 0.922, -0.298, 192.0, 0.0, 0.0, 0.0, 0.0, 0.0, 0.0, 0.0, 0.0, 0.0, 1.741290223413235E9, 0.0, 2025-03-06 13:43:43.413
96.0, 3371.2689127050535, 22979.78377101228, -6694.414519597831, -20122.09089065682, -187500.02235174447, 20463.379676744902, -187500.02235174447, 4710.07135034458, 0.202, 0.922, -0.298, 192.0, 0.0, 0.0, 0.0, 0.0, 0.0, 0.0, 0.0, 0.0, 0.0, 1.741290223413248E9, 0.0, 2025-03-06 13:43:43.413
97.0, 3357.299072420487, 22979.40379135654, -6701.924705734815, -20147.527175846957, -187500.02235174447, 20462.91029011134, -187500.02235174447, 4715.234603313756, 0.202, 0.922, -0.298, 192.0, 0.0, 0.0, 0.0, 0.0, 0.0, 0.0, 0.0, 0.0, 0.0, 1.741290223413265E9, 0.0, 2025-03-06 13:43:43.413
98.0, 3362.28351143402, 22999.207436943943, -6700.404787111854, -20137.670056542167, -187500.02235174447, 20468.25235703616, -187500.02235174447, 4724.108245862513, 0.202, 0.922, -0.298, 192.0, 0.0, 0.0, 0.0, 0.0, 0.0, 0.0, 0.0, 0.0, 0.0, 1.741290223413278E9, 0.0, 2025-03-06 13:43:43.413
99.0, 3358.5954735988944, 23009.288073693286, -6705.769205781127, -20083.31061402686, -187500.02235174447, 20474.913176883838, -187500.02235174447, 4751.869112476005, 0.202, 0.922, -0.298, 192.0, 0.0, 0.0, 0.0, 0.0, 0.0, 0.0, 0.0, 0.0, 0.0, 1.741290223413294E9, 0.0, 2025-03-06 13:43:43.413
100.0, 3362.99876725659, 22981.01311695732, -6704.629266813907, -20111.40675680718, -187500.02235174447, 20465.95012735726, -187500.02235174447, 4733.026591900181, 0.202, 0.922, -0.298, 192.0, 0.0, 0.0, 0.0, 0.0, 0.0, 0.0, 0.0, 0.0, 0.0, 1.741290223413308E9, 0.0, 2025-03-06 13:43:43.413
101.0, 3365.7256800801374, 22982.26481464682, -6705.903316247859, -20153.51744336098, -187500.02235174447, 20458.842272620474, -187500.02235174447, 4711.859489901005, 0.202, 0.916, -0.296, 192.0, 6.0, 80.0, 28.0, 160.0, 246.0, 192.0, 0.0, 0.0, 0.0, 1.741290223413321E9, 0.0, 2025-03-06 13:43:43.413
102.0, 3368.5867033704167, 23004.102468979654, -6701.2988568900655, -20163.866301043785, -187500.02235174447, 20463.267918022626, -187500.02235174447, 4702.449405485321, 0.202, 0.916, -0.296, 192.0, 0.0, 0.0, 0.0, 0.0, 0.0, 0.0, 0.0, 0.0, 0.0, 1.741290223413338E9, 0.0, 2025-03-06 13:43:43.413
103.0, 3360.897703277791, 23025.068405278733, -6704.249287158166, -20101.661396224667, -187500.02235174447, 20475.33786002849, -187500.02235174447, 4741.028516415181, 0.202, 0.916, -0.296, 192.0, 0.0, 0.0, 0.0, 0.0, 0.0, 0.0, 0.0, 0.0, 0.0, 1.741290223413352E9, 0.0, 2025-03-06 13:43:43.413
104.0, 3355.0191944860453, 22986.422239115505, -6717.95090650927, -20086.10458208377, -187500.02235174447, 20459.937508098785, -187500.02235174447, 4755.423039844399, 0.202, 0.916, -0.296, 192.0, 0.0, 0.0, 0.0, 0.0, 0.0, 0.0, 0.0, 0.0, 0.0, 1.741290223413365E9, 0.0, 2025-03-06 13:43:43.413
105.0, 3368.6090551148723, 22985.416410615017, -6705.9927232256805, -20132.909134973186, -187500.02235174447, 20454.729551640696, -187500.02235174447, 4726.254013330223, 0.202, 0.916, -0.296, 192.0, 0.0, 0.0, 0.0, 0.0, 0.0, 0.0, 0.0, 0.0, 0.0, 1.741290223472703E9, 0.0, 2025-03-06 13:43:43.472
106.0, 3368.5419998815064, 23012.26085570584, -6696.180307409801, -20124.527230802447, -187500.02235174447, 20465.883072123896, -187500.02235174447, 4738.346307080545, 0.202, 0.916, -0.296, 192.0, 0.0, 0.0, 0.0, 0.0, 0.0, 0.0, 0.0, 0.0, 0.0, 1.741290223472743E9, 0.0, 2025-03-06 13:43:43.472
107.0, 3364.6304446018275, 23033.27149549383, -6694.995664953669, -20068.40200047517, -187500.02235174447, 20471.560415215543, -187500.02235174447, 4766.2412841607675, 0.202, 0.916, -0.296, 192.0, 0.0, 0.0, 0.0, 0.0, 0.0, 0.0, 0.0, 0.0, 0.0, 1.741290223472761E9, 0.0, 2025-03-06 13:43:43.472
108.0, 3359.668357332749, 23002.98488175689, -6703.332865635499, -20053.672200879122, -187500.02235174447, 20454.550737685055, -187500.02235174447, 4767.627092316997, 0.202, 0.916, -0.296, 192.0, 0.0, 0.0, 0.0, 0.0, 0.0, 0.0, 0.0, 0.0, 0.0, 1.741290223472791E9, 0.0, 2025-03-06 13:43:43.472
109.0, 3371.6265406163384, 22992.926596752, -6693.94513296427, -20097.772192689445, -187500.02235174447, 20463.133807555892, -187500.02235174447, 4743.777780983184, 0.202, 0.916, -0.296, 192.0, 0.0, 0.0, 0.0, 0.0, 0.0, 0.0, 0.0, 0.0, 0.0, 1.741290223472805E9, 0.0, 2025-03-06 13:43:43.472
110.0, 3368.6984620926933, 23007.611692859136, -6690.681778273795, -20097.54867524489, -187500.02235174447, 20473.214444305235, -187500.02235174447, 4749.365717097011, 0.202, 0.916, -0.296, 192.0, 0.0, 0.0, 0.0, 0.0, 0.0, 0.0, 0.0, 0.0, 0.0, 1.741290223472818E9, 0.0, 2025-03-06 13:43:43.472
111.0, 3360.674185833238, 23028.398815202574, -6688.893638717371, -20032.30393317985, -187500.02235174447, 20481.976328131717, -187500.02235174447, 4782.938037268882, 0.20600000000000002, 0.92, -0.3, 192.0, 6.0, 112.0, 28.0, 192.0, 246.0, 160.0, 0.0, 0.0, 0.0, 1.741290223472831E9, 0.0, 2025-03-06 13:43:43.472
112.0, 3363.7363748236153, 23008.237541703886, -6690.257095129144, -20003.269017132407, -187500.02235174447, 20481.216368820234, -187500.02235174447, 4790.336464683588, 0.20600000000000002, 0.92, -0.3, 192.0, 0.0, 0.0, 0.0, 0.0, 0.0, 0.0, 0.0, 0.0, 0.0, 1.741290223472845E9, 0.0, 2025-03-06 13:43:43.472
113.0, 3363.3340434234196, 22993.530093852296, -6688.446603828264, -20024.905505765142, -187500.02235174447, 20481.238720564692, -187500.02235174447, 4785.128508225502, 0.20600000000000002, 0.92, -0.3, 192.0, 0.0, 0.0, 0.0, 0.0, 0.0, 0.0, 0.0, 0.0, 0.0, 1.741290223472864E9, 0.0, 2025-03-06 13:43:43.472
114.0, 3363.0658224899557, 22997.486352620883, -6685.429118326798, -20040.551726883856, -187500.02235174447, 20476.72366818472, -187500.02235174447, 4773.505601108743, 0.20600000000000002, 0.92, -0.3, 192.0, 0.0, 0.0, 0.0, 0.0, 0.0, 0.0, 0.0, 0.0, 0.0, 1.741290223472877E9, 0.0, 2025-03-06 13:43:43.472
115.0, 3360.4059648997745, 23023.32496921122, -6681.405804324842, -19996.809362984823, -187500.02235174447, 20490.24647358018, -187500.02235174447, 4792.124604240013, 0.20600000000000002, 0.92, -0.3, 192.0, 0.0, 0.0, 0.0, 0.0, 0.0, 0.0, 0.0, 0.0, 0.0, 1.741290223472893E9, 0.0, 2025-03-06 13:43:43.472
116.0, 3359.221322443643, 23007.857562048146, -6685.965560193725, -19943.94748734802, -187500.02235174447, 20488.033650879104, -187500.02235174447, 4812.017656805237, 0.20600000000000002, 0.92, -0.3, 192.0, 0.0, 0.0, 0.0, 0.0, 0.0, 0.0, 0.0, 0.0, 0.0, 1.741290223472907E9, 0.0, 2025-03-06 13:43:43.472
117.0, 3362.909360278769, 22985.997555970855, -6685.831449726993, -19967.550929492823, -187500.02235174447, 20483.093915354482, -187500.02235174447, 4796.214973475334, 0.20600000000000002, 0.92, -0.3, 192.0, 0.0, 0.0, 0.0, 0.0, 0.0, 0.0, 0.0, 0.0, 0.0, 1.741290223472923E9, 0.0, 2025-03-06 13:43:43.472
118.0, 3366.0833079914223, 23001.93434976749, -6684.959731693236, -19976.066944130296, -187500.02235174447, 20483.71976419923, -187500.02235174447, 4792.7728048292165, 0.20600000000000002, 0.92, -0.3, 192.0, 0.0, 0.0, 0.0, 0.0, 0.0, 0.0, 0.0, 0.0, 0.0, 1.741290223472936E9, 0.0, 2025-03-06 13:43:43.472
119.0, 3370.1513254822885, 23030.54458267028, -6680.645845013362, -19941.645257669123, -187500.02235174447, 20490.82761893602, -187500.02235174447, 4801.892316566982, 0.20600000000000002, 0.92, -0.3, 192.0, 0.0, 0.0, 0.0, 0.0, 0.0, 0.0, 0.0, 0.0, 0.0, 1.741290223472949E9, 0.0, 2025-03-06 13:43:43.472
120.0, 3368.162020225766, 23028.89055358059, -6682.746908992161, -19900.406289149083, -187500.02235174447, 20499.701261484774, -187500.02235174447, 4816.733874885306, 0.20600000000000002, 0.92, -0.3, 192.0, 0.0, 0.0, 0.0, 0.0, 0.0, 0.0, 0.0, 0.0, 0.0, 1.741290223532226E9, 0.0, 2025-03-06 13:43:43.532
121.0, 3365.457459146674, 22993.37363164111, -6692.246400385667, -19925.596705150212, -187500.02235174447, 20488.078354368015, -187500.02235174447, 4802.294647967177, 0.214, 0.924, -0.294, 192.0, 6.0, 176.0, 28.0, 224.0, 246.0, 208.0, 0.0, 0.0, 0.0, 1.741290223532248E9, 0.0, 2025-03-06 13:43:43.532
122.0, 3370.8218778159476, 23004.84007654668, -6682.635150269884, -19942.338161747237, -187500.02235174447, 20499.030709151117, -187500.02235174447, 4796.371435686521, 0.214, 0.924, -0.294, 192.0, 0.0, 0.0, 0.0, 0.0, 0.0, 0.0, 0.0, 0.0, 0.0, 1.741290223532267E9, 0.0, 2025-03-06 13:43:43.532
123.0, 3367.089136491911, 23027.0353587908, -6683.439813070276, -19918.488850413425, -187500.02235174447, 20502.15995337486, -187500.02235174447, 4805.535650913197, 0.214, 0.924, -0.294, 192.0, 0.0, 0.0, 0.0, 0.0, 0.0, 0.0, 0.0, 0.0, 0.0, 1.741290223532296E9, 0.0, 2025-03-06 13:43:43.532
124.0, 3370.5089533935734, 23032.60094316017, -6685.585580537985, -19870.07497192323, -187500.02235174447, 20504.037499909104, -187500.02235174447, 4819.505491197764, 0.214, 0.924, -0.294, 192.0, 0.0, 0.0, 0.0, 0.0, 0.0, 0.0, 0.0, 0.0, 0.0, 1.74129022353231E9, 0.0, 2025-03-06 13:43:43.532
125.0, 3372.319444694453, 23001.9790532564, -6689.318321862022, -19887.88931225411, -187500.02235174447, 20494.560360260053, -187500.02235174447, 4805.267429979734, 0.214, 0.924, -0.294, 192.0, 0.0, 0.0, 0.0, 0.0, 0.0, 0.0, 0.0, 0.0, 0.0, 1.741290223532323E9, 0.0, 2025-03-06 13:43:43.532
126.0, 3366.150363224788, 22999.78858229978, -6688.893638717371, -19913.526763144346, -187500.02235174447, 20492.839275936996, -187500.02235174447, 4797.37726418701, 0.214, 0.924, -0.294, 192.0, 0.0, 0.0, 0.0, 0.0, 0.0, 0.0, 0.0, 0.0, 0.0, 1.741290223532336E9, 0.0, 2025-03-06 13:43:43.532
