%OpenBCI Raw EXG Data
%Number of channels = 16
%Sample Rate = 125 Hz
%Board = OpenBCI_GUI$BoardCytonSerialDaisy
Sample Index, EXG Channel 0, EXG Channel 1, EXG Channel 2, EXG Channel 3, EXG Channel 4, EXG Channel 5, EXG Channel 6, EXG Channel 7, EXG Channel 8, EXG Channel 9, EXG Channel 10, EXG Channel 11, EXG Channel 12, EXG Channel 13, EXG Channel 14, EXG Channel 15, Accel Channel 0, Accel Channel 1, Accel Channel 2, Not Used, Digital Channel 0 (D11), Digital Channel 1 (D12), Digital Channel 2 (D13), Digital Channel 3 (D17), Not Used, Digital Channel 4 (D18), Analog Channel 0, Analog Channel 1, Analog Channel 2, Timestamp, Marker Channel, Timestamp (Formatted)
0.0, -20604.597998213532, -11826.173880836235, 32189.551852888093, -17507.27206555272, -44276.90586768459, 40895.69042869692, -36450.464898403276, 52878.57238990932, 0.0, 0.0, 0.0, 0.0, 0.0, 0.0, 0.0, 0.0, 0.0, 0.0, 0.0, 192.0, 0.0, 0.0, 0.0, 0.0, 0.0, 0.0, 0.0, 0.0, 0.0, 1.7447417548281178E9, 0.0, 2025-04-15 13:29:14.828
84.0, -20619.618370487497, -11830.040732627003, 32208.99787056421, -17513.9328854004, -44239.77962014433, 40932.704917514915, -36444.92166577836, 52911.00477111397, -9820.171871205792, -23547.09339703243, -9866.484685717189, 9170.920750012488, 5534.202520156207, 4081.9873311504525, 26234.868316038646, -187500.02235174447, 0.0, 0.0, 0.0, 192.0, 0.0, 0.0, 0.0, 0.0, 0.0, 0.0, 0.0, 0.0, 0.0, 1.7447417548281727E9, 0.0, 2025-04-15 13:29:14.828
0.0, -10371.231779006932, -5942.770057054765, 16102.66609223677, -8771.472724851696, -21942.86399398613, 20475.67313619532, -18137.837128381387, 26584.717820253114, -4913.226355698866, -11776.463601167632, -4931.800655341227, 4581.2805987931015, 2763.2344082873356, 2045.0728589383198, 13142.669277509365, -93750.01117587223, -0.108, 0.932, 0.312, 192.0, 126.0, 80.0, 14.5, 16.0, 4.5, 96.0, 0.0, 0.0, 0.0, 1.744741754904763E9, 0.0, 2025-04-15 13:29:14.904
2.0, -20745.793967937705, -11909.076501020969, 32195.832693080032, -17544.018333437245, -44061.12212671305, 40897.92560314245, -36280.0104951871, 53108.393026398786, -9829.447845154744, -23548.389798210836, -9895.631360486908, 9101.339769523116, 5502.70891221868, 4048.482066211947, 25663.088341127437, -187500.02235174447, -0.108, 0.932, 0.312, 192.0, 0.0, 0.0, 0.0, 0.0, 0.0, 0.0, 0.0, 0.0, 0.0, 1.744741754910772E9, 0.0, 2025-04-15 13:29:14.910
4.0, -20771.96786069487, -11909.478832421164, 32196.90557681389, -17559.28457490022, -43885.77269146117, 40956.598932337634, -36292.01338195961, 53195.229553607656, -9854.66061290033, -23575.010725857108, -9893.709110463753, 9083.838353614612, 5505.011141897577, 4051.1642755465837, 25694.201969409227, -187500.02235174447, -0.108, 0.932, 0.312, 192.0, 0.0, 0.0, 0.0, 0.0, 0.0, 0.0, 0.0, 0.0, 0.0, 1.744741754919799E9, 0.0, 2025-04-15 13:29:14.919
6.0, -20760.47906404484, -11902.102756750914, 32180.074713239042, -17545.56060380466, -44052.472001608854, 40906.64278348003, -36284.54789931153, 53118.1383869813, -9843.216519739213, -23568.685182176254, -9909.131814137914, 9089.51569670626, 5486.503897488582, 4043.3635167316816, 25669.883271441853, -187500.02235174447, -0.108, 0.932, 0.312, 192.0, 0.0, 0.0, 0.0, 0.0, 0.0, 0.0, 0.0, 0.0, 0.0, 1.7447417549278607E9, 0.0, 2025-04-15 13:29:14.927
8.0, -20771.096142661114, -11913.859774334405, 32201.018297793664, -17548.22046139484, -43910.09138942855, 40974.25681045733, -36277.97648644167, 53192.077957639456, -9850.547891920554, -23576.508292735612, -9902.515697779143, 9091.303836262685, 5495.80222318199, 4049.666708668078, 25671.202024364713, -187500.02235174447, -0.112, 0.93, 0.318, 192.0, 126.0, 64.0, 14.5, 8.0, 4.5, 120.0, 0.0, 0.0, 0.0, 1.744741754935886E9, 0.0, 2025-04-15 13:29:14.935
10.0, -20768.48098855984, -11914.887954579348, 32172.22925093523, -17556.267089398752, -44011.12127436653, 40925.28413835575, -36303.14455069835, 53124.93331729571, -9855.62173791191, -23579.414019514803, -9908.394206570889, 9085.782955382223, 5487.465022500161, 4041.9777085754527, 25678.488693057145, -187500.02235174447, -0.112, 0.93, 0.318, 192.0, 0.0, 0.0, 0.0, 0.0, 0.0, 0.0, 0.0, 0.0, 0.0, 1.7447417549439452E9, 0.0, 2025-04-15 13:29:14.943
12.0, -20766.29051760322, -11910.127033010369, 32198.738419859223, -17560.469217356353, -43895.69686599933, 40967.19365920945, -36294.47207384969, 53182.690224968224, -9848.983269808683, -23574.63074620137, -9901.91220067885, 9094.611894442069, 5490.393101023806, 4035.8086271057878, 25637.674407681752, -187500.02235174447, -0.112, 0.93, 0.318, 192.0, 0.0, 0.0, 0.0, 0.0, 0.0, 0.0, 0.0, 0.0, 0.0, 1.744741754951974E9, 0.0, 2025-04-15 13:29:14.951
14.0, -20764.904709446993, -11907.44482367573, 32176.923117270842, -17563.62081332455, -43993.97748636932, 40918.19863536342, -36295.88023375037, 53114.09272123489, -9853.408915210834, -23580.19633057074, -9898.58179075501, 9092.577885696637, 5489.320217289951, 4045.8892638551315, 25661.479015526656, -187500.02235174447, -0.112, 0.93, 0.318, 192.0, 0.0, 0.0, 0.0, 0.0, 0.0, 0.0, 0.0, 0.0, 0.0, 1.7447417549590228E9, 0.0, 2025-04-15 13:29:14.959
16.0, -20760.210843111377, -11882.299111163511, 32207.790876363622, -17555.596537065096, -43935.237101940766, 40960.71165331741, -36275.3613323404, 53168.07218409445, -9840.4225516823, -23570.361563010403, -9903.454471046267, 9085.246513515296, 5493.030606869532, 4040.569548674768, 25619.703605139686, -187500.02235174447, -0.112, 0.93, 0.318, 192.0, 0.0, 0.0, 0.0, 0.0, 0.0, 0.0, 0.0, 0.0, 0.0, 1.74474175496703E9, 0.0, 2025-04-15 13:29:14.967
18.0, -20764.792950724717, -11908.361245198399, 32183.27101269615, -17558.010525466267, -44000.817120172636, 40926.62524302307, -36299.1659401853, 53118.719532337134, -9843.32827846149, -23569.311031021003, -9891.250418573669, 9087.9957780833, 5495.645760970803, 4062.1166303296845, 25676.879367456364, -187500.02235174447, -0.114, 0.932, 0.314, 192.0, 126.0, 56.0, 14.5, 16.0, 4.5, 104.0, 0.0, 0.0, 0.0, 1.7447417549761076E9, 0.0, 2025-04-15 13:29:14.976
20.0, -20773.130151406545, -11911.468137677686, 32195.028030279642, -17562.078542957133, -43962.282712731685, 40958.72234806089, -36289.42057960279, 53151.35307924188, -9857.812208868529, -23576.6647549468, -9916.4408345748, 9076.730498877823, 5481.921789875244, 4041.508321941891, 25611.701680624687, -187500.02235174447, -0.114, 0.932, 0.314, 192.0, 0.0, 0.0, 0.0, 0.0, 0.0, 0.0, 0.0, 0.0, 0.0, 1.7447417549841208E9, 0.0, 2025-04-15 13:29:14.984
22.0, -20756.25458434279, -11901.298093950521, 32176.632544592925, -17550.679153284927, -43998.87251840503, 40933.80015299322, -36278.065893419494, 53110.91877352224, -9854.347688477956, -23571.99324035564, -9899.565267511043, 9085.291217004207, 5493.432938269728, 4065.8493716537205, 25685.84241698294, -187500.02235174447, -0.114, 0.932, 0.314, 192.0, 0.0, 0.0, 0.0, 0.0, 0.0, 0.0, 0.0, 0.0, 0.0, 1.7447417549911628E9, 0.0, 2025-04-15 13:29:14.991
24.0, -20784.238968400834, -11911.490489422142, 32180.901727783887, -17570.952185505892, -43976.543125694174, 40953.84966776963, -36273.64024801734, 53163.35596601439, -9850.100857031448, -23566.22649028617, -9916.507889808165, 9086.185286782418, 5489.521382990049, 4046.0457260663184, 25621.581151673934, -187500.02235174447, -0.114, 0.932, 0.314, 192.0, 0.0, 0.0, 0.0, 0.0, 0.0, 0.0, 0.0, 0.0, 0.0, 1.7447417549991944E9, 0.0, 2025-04-15 13:29:14.999
26.0, -20778.338107864634, -11908.607114387407, 32160.740454285202, -17558.166987677454, -43943.14961947795, 40943.41140310901, -36280.70339926522, 53149.52023619655, -9868.675156673808, -23593.47326677719, -9909.377683326922, 9069.287367974206, 5478.300807273485, 4053.4665052254804, 25700.23694041216, -187500.02235174447, -0.114, 0.932, 0.314, 192.0, 0.0, 0.0, 0.0, 0.0, 0.0, 0.0, 0.0, 0.0, 0.0, 1.744741755008248E9, 0.0, 2025-04-15 13:29:15.008
28.0, -20771.58788103913, -11910.484660921653, 32178.37598066044, -17547.03581893871, -44025.40403907347, 40937.97992920637, -36265.43715780225, 53158.48328572313, -9852.604252410443, -23569.735714165654, -9919.81594798755, 9074.65178664348, 5478.949007862689, 4034.5122259273803, 25605.68906136621, -187500.02235174447, -0.112, 0.926, 0.32, 192.0, 126.0, 64.0, 14.0, 120.0, 5.0, 0.0, 0.0, 0.0, 0.0, 1.7447417550152805E9, 0.0, 2025-04-15 13:29:15.015
30.0, -20770.716163005374, -11911.065806277491, 32164.65200956488, -17548.354571861575, -43979.71707340683, 40945.04308045424, -36277.19417538574, 53162.059564835974, -9859.130961791392, -23582.23033931617, -9892.859744174451, 9076.708147133368, 5492.784737680524, 4065.648205953623, 25687.541149561544, -187500.02235174447, -0.112, 0.926, 0.32, 192.0, 0.0, 0.0, 0.0, 0.0, 0.0, 0.0, 0.0, 0.0, 0.0, 1.74474175502332E9, 0.0, 2025-04-15 13:29:15.023
32.0, -20782.45082884441, -11920.878222093372, 32177.37015215995, -17549.785083506715, -44075.38253967554, 40930.06741166919, -36275.51779455159, 53149.25201526309, -9845.071714529004, -23572.864958389397, -9918.474843320233, 9081.200847768885, 5477.496144473093, 4035.2721852388604, 25600.97284328614, -187500.02235174447, -0.112, 0.926, 0.32, 192.0, 0.0, 0.0, 0.0, 0.0, 0.0, 0.0, 0.0, 0.0, 0.0, 1.7447417550313904E9, 0.0, 2025-04-15 13:29:15.031
34.0, -20781.802628255205, -11905.075538763469, 32166.998942732687, -17547.706371272372, -43969.43527095739, 40952.0168247243, -36299.63532681887, 53165.23351254863, -9866.305871761546, -23586.968909140698, -9898.402976799367, 9082.519600691749, 5484.581647465426, 4060.6637669400893, 25681.550882047522, -187500.02235174447, -0.112, 0.926, 0.32, 192.0, 0.0, 0.0, 0.0, 0.0, 0.0, 0.0, 0.0, 0.0, 0.0, 1.744741755040406E9, 0.0, 2025-04-15 13:29:15.040
36.0, -20765.575261780654, -11896.894800292826, 32182.198128962296, -17536.798719978182, -44105.602098179115, 40914.935280672944, -36281.37395159888, 53117.892517792294, -9852.38073496589, -23566.80763564201, -9918.720712509241, 9097.472917732348, 5472.690519415202, 4027.247908979405, 25593.082677493418, -187500.02235174447, -0.112, 0.926, 0.32, 192.0, 0.0, 0.0, 0.0, 0.0, 0.0, 0.0, 0.0, 0.0, 0.0, 1.7447417550474331E9, 0.0, 2025-04-15 13:29:15.047
38.0, -20771.76669499477, -11913.904477823315, 32178.37598066044, -17547.214632894353, -43953.36436669402, 40958.92351376099, -36299.724733796684, 53163.91475962577, -9858.259243757635, -23584.420810272793, -9887.025938871615, 9103.910220135478, 5491.823612668945, 4056.5286942158577, 25684.07662917097, -187500.02235174447, -0.11, 0.93, 0.318, 192.0, 126.0, 72.0, 14.5, 8.0, 4.5, 120.0, 0.0, 0.0, 0.0, 1.7447417550565195E9, 0.0, 2025-04-15 13:29:15.056
40.0, -20754.86877618656, -11902.996826529125, 32191.94348954481, -17536.15051938898, -44096.41553120798, 40911.649574238014, -36285.17374815628, 53099.27351466102, -9856.04642105656, -23571.501501977626, -9904.884982691407, 9096.556496209681, 5477.719661917647, 4025.7056386119893, 25598.335337440414, -187500.02235174447, -0.11, 0.93, 0.318, 192.0, 0.0, 0.0, 0.0, 0.0, 0.0, 0.0, 0.0, 0.0, 0.0, 1.7447417550635848E9, 0.0, 2025-04-15 13:29:15.063
42.0, -20756.880433187536, -11890.97158801217, 32205.71216412928, -17544.197147392886, -43928.15159894843, 40960.041100983755, -36281.88804172135, 53151.442486219705, -9844.602327895444, -23565.824158885975, -9869.770392152119, 9106.70418819239, 5507.067502387465, 4060.9766913624635, 25676.36527733389, -187500.02235174447, -0.11, 0.93, 0.318, 192.0, 0.0, 0.0, 0.0, 0.0, 0.0, 0.0, 0.0, 0.0, 0.0, 1.744741755071568E9, 0.0, 2025-04-15 13:29:15.071
44.0, -20745.324581304143, -11889.719890322673, 32197.03968728062, -17539.43622582391, -44078.02004552127, 40903.558242745195, -36261.056215889, 53103.45329087416, -9848.71504887522, -23561.353809994915, -9901.44281404529, 9092.8461066301, 5486.950932377688, 4033.685211382534, 25621.89407609631, -187500.02235174447, -0.11, 0.93, 0.318, 192.0, 0.0, 0.0, 0.0, 0.0, 0.0, 0.0, 0.0, 0.0, 0.0, 1.7447417550796096E9, 0.0, 2025-04-15 13:29:15.079
46.0, -20738.70846494537, -11887.21649494368, 32208.595539164013, -17545.739417760306, -43908.392656849945, 40958.16355444951, -36252.16022159579, 53182.422004034765, -9837.13684524737, -23563.723094907178, -9872.117325319925, 9098.925781121943, 5518.891575204322, 4064.32945303076, 25679.248652368624, -187500.02235174447, -0.11, 0.93, 0.318, 192.0, 0.0, 0.0, 0.0, 0.0, 0.0, 0.0, 0.0, 0.0, 0.0, 1.7447417550866404E9, 0.0, 2025-04-15 13:29:15.086
48.0, -20729.521897974242, -11889.228151944657, 32192.636393622925, -17549.785083506715, -44102.741074888836, 40885.07335008065, -36249.545067494524, 53117.15491022527, -9839.416723181812, -23550.692027889734, -9895.452546531265, 9093.986045597321, 5498.931467405733, 4044.9504905880085, 25640.043692594016, -187500.02235174447, -0.11, 0.928, 0.319, 192.0, 126.0, 72.0, 14.0, 120.0, 5.0, 0.0, 0.0, 0.0, 0.0, 1.7447417550956848E9, 0.0, 2025-04-15 13:29:15.095
50.0, -20739.15549983448, -11894.704329336206, 32200.437152437826, -17565.788932536714, -43955.13015450599, 40947.21119966641, -36261.4585472892, 53208.52884155856, -9844.870548828907, -23568.305202520514, -9883.650825458864, 9117.298915064206, 5514.510633291082, 4059.903807628609, 25686.736486761154, -187500.02235174447, -0.11, 0.928, 0.319, 192.0, 0.0, 0.0, 0.0, 0.0, 0.0, 0.0, 0.0, 0.0, 0.0, 1.7447417551037288E9, 0.0, 2025-04-15 13:29:15.103
52.0, -20732.67349394244, -11912.78689060055, 32176.45373063728, -17559.731609789327, -44146.438735298965, 40890.01308560528, -36265.481861291155, 53135.12571276733, -9850.883168087385, -23564.103074562918, -9906.606067014465, 9102.18913581242, 5489.744900434602, 4044.548159187813, 25657.187480591238, -187500.02235174447, -0.11, 0.928, 0.319, 192.0, 0.0, 0.0, 0.0, 0.0, 0.0, 0.0, 0.0, 0.0, 0.0, 1.744741755110777E9, 0.0, 2025-04-15 13:29:15.110
54.0, -20748.25265982779, -11915.111472023902, 32185.103855741487, -17569.320508160654, -43997.442006759884, 40961.650426584536, -36275.67425676277, 53219.615306808395, -9860.740287392175, -23575.390705512847, -9902.403939056867, 9096.064757831664, 5493.969380136655, 4056.6851564270446, 25676.298222100526, -187500.02235174447, -0.11, 0.928, 0.319, 192.0, 0.0, 0.0, 0.0, 0.0, 0.0, 0.0, 0.0, 0.0, 0.0, 1.7447417551188183E9, 0.0, 2025-04-15 13:29:15.118
56.0, -20730.393616007997, -11909.434128932255, 32168.407102633373, -17552.51199633026, -44165.21420064142, 40907.29098406923, -36275.98718118515, 53119.09951199288, -9858.527464691098, -23566.651173430822, -9915.211488629757, 9096.064757831664, 5477.9431793622, 4051.4771999689583, 25659.109730614393, -187500.02235174447, -0.11, 0.928, 0.319, 192.0, 0.0, 0.0, 0.0, 0.0, 0.0, 0.0, 0.0, 0.0, 0.0, 1.7447417551278472E9, 0.0, 2025-04-15 13:29:15.127
58.0, -20722.190525792903, -11882.96966349717, 32190.356515688483, -17554.90363298698, -44038.81508574666, 40966.52310687579, -36271.20390787171, 53184.94775115821, -9854.168874522315, -23543.293600475026, -9906.606067014465, 9106.36891202556, 5493.1647173362635, 4067.1234210876733, 25652.583021233444, -187500.02235174447, -0.112, 0.927, 0.3205, 192.0, 126.0, 56.0, 14.0, 120.0, 5.0, 8.0, 0.0, 0.0, 0.0, 1.7447417551358793E9, 0.0, 2025-04-15 13:29:15.135
60.0, -20736.786214922216, -11922.062864549502, 32171.446939879293, -17557.407028365975, -44163.64957852955, 40917.28221384075, -36294.293259894046, 53100.16758443923, -9853.386563466378, -23562.33728675095, -9903.141546623892, 9100.870382889556, 5491.778909180035, 4071.6384734676453, 25659.780282948053, -187500.02235174447, -0.112, 0.927, 0.3205, 192.0, 0.0, 0.0, 0.0, 0.0, 0.0, 0.0, 0.0, 0.0, 0.0, 1.74474175514295E9, 0.0, 2025-04-15 13:29:15.142
62.0, -20743.20116558089, -11927.717855896695, 32191.787027333623, -17568.0464587267, -44060.518629612765, 40965.561981864215, -36283.89969872233, 53153.45414322068, -9856.180531523292, -23577.38001076937, -9915.323247352035, 9081.55847568017, 5496.4504237711935, 4054.829961637254, 25629.560724444476, -187500.02235174447, -0.112, 0.927, 0.3205, 192.0, 0.0, 0.0, 0.0, 0.0, 0.0, 0.0, 0.0, 0.0, 0.0, 1.7447417551509614E9, 0.0, 2025-04-15 13:29:15.150
64.0, -20740.2954388017, -11933.55166119953, 32171.402236390382, -17560.402162122984, -44137.766258450305, 40924.27830985526, -36277.48474806365, 53106.38136939781, -9860.069735058516, -23588.555882997025, -9910.830546716517, 9087.526391449737, 5493.947028392199, 4057.199246549517, 25664.85412893941, -187500.02235174447, -0.112, 0.927, 0.3205, 192.0, 0.0, 0.0, 0.0, 0.0, 0.0, 0.0, 0.0, 0.0, 0.0, 1.7447417551600394E9, 0.0, 2025-04-15 13:29:15.160
66.0, -20743.156462091978, -11923.091044794446, 32198.112571014473, -17559.61985106705, -44069.36992041706, 40956.040138726254, -36277.75296899712, 53159.15383805679, -9845.541101162566, -23583.750257939133, -9909.712959493752, 9103.463185246372, 5502.7312639631355, 4048.8620458676874, 25622.810497618975, -187500.02235174447, -0.112, 0.927, 0.3205, 192.0, 0.0, 0.0, 0.0, 0.0, 0.0, 0.0, 0.0, 0.0, 0.0, 1.7447417551670249E9, 0.0, 2025-04-15 13:29:15.167
68.0, -20725.58799095011, -11905.701387608218, 32174.88910852541, -17556.580013821127, -44120.04132509724, 40923.31718484368, -36286.09016967895, 53100.636971072796, -9837.561528392022, -23580.173978826282, -9892.658578474353, 9096.914124120965, 5504.385293052828, 4065.4917437424356, 25688.6140332954, -187500.02235174447, -0.112, 0.9255, 0.32025000000000003, 192.0, 126.0, 64.0, 14.0, 112.0, 5.0, 0.0, 0.0, 0.0, 0.0, 1.744741755175084E9, 0.0, 2025-04-15 13:29:15.175
70.0, -20727.91257237346, -11903.533268396053, 32194.156312245887, -17568.113513960066, -44118.76727566329, 40938.82929549567, -36289.75585576962, 53123.72632309513, -9827.682057342776, -23564.818330385486, -9905.689645491797, 9107.598257970603, 5508.855641943889, 4049.286729012338, 25625.872686609353, -187500.02235174447, -0.112, 0.9255, 0.32025000000000003, 192.0, 0.0, 0.0, 0.0, 0.0, 0.0, 0.0, 0.0, 0.0, 0.0, 1.7447417551831071E9, 0.0, 2025-04-15 13:29:15.183
72.0, -20735.355703277077, -11917.570163913986, 32171.536346857116, -17588.230083969844, -44118.02966809627, 40927.34049884564, -36288.45945459121, 53120.30650619346, -9841.495435416155, -23589.964042897707, -9895.430194786812, 9089.739214150812, 5505.704045975691, 4065.3352815312487, 25695.543074076544, -187500.02235174447, -0.112, 0.9255, 0.32025000000000003, 192.0, 0.0, 0.0, 0.0, 0.0, 0.0, 0.0, 0.0, 0.0, 0.0, 1.7447417551921785E9, 0.0, 2025-04-15 13:29:15.192
74.0, -20718.56954319114, -11904.539096896542, 32211.121286287464, -17579.28938618772, -44160.05094767224, 40939.09751642913, -36249.4556605167, 53160.673756679746, -9833.113531245415, -23580.062220104006, -9915.166785140847, 9096.534144465226, 5500.809013939978, 4039.22844400745, 25616.797878360496, -187500.02235174447, -0.112, 0.9255, 0.32025000000000003, 192.0, 0.0, 0.0, 0.0, 0.0, 0.0, 0.0, 0.0, 0.0, 0.0, 1.7447417551991801E9, 0.0, 2025-04-15 13:29:15.199
76.0, -20720.312979258655, -11915.133823768358, 32182.980440018233, -17585.637281613028, -44129.987851379854, 40939.1645716625, -36277.2612306191, 53167.602797460895, -9832.644144611853, -23581.962118382708, -9888.38939528339, 9097.830545643634, 5514.287115846529, 4072.2866740568493, 25708.060050971515, -187500.02235174447, -0.112, 0.9255, 0.32025000000000003, 192.0, 0.0, 0.0, 0.0, 0.0, 0.0, 0.0, 0.0, 0.0, 0.0, 1.7447417552072434E9, 0.0, 2025-04-15 13:29:15.207
78.0, -20731.66766544195, -11920.02885580407, 32186.489663897715, -17591.538142149227, -44201.1334539811, 40929.7097837579, -36281.12808240987, 53171.49200099611, -9828.173795720792, -23583.079705605473, -9921.045293932593, 9081.13379253552, 5496.361016793373, 4037.5297114288464, 25616.5967126604, -187500.02235174447, -0.109, 0.92675, 0.319125, 192.0, 126.0, 88.0, 14.5, 0.0, 4.5, 120.0, 0.0, 0.0, 0.0, 1.7447417552152853E9, 0.0, 2025-04-15 13:29:15.215
80.0, -20735.62392421054, -11916.899611580326, 32165.970762487745, -17596.209656740386, -44124.690487943946, 40935.565940805194, -36303.97156524319, 53165.7476026711, -9851.956051821238, -23597.496580779145, -9907.47778504822, 9071.589597653103, 5496.830403426934, 4060.686118684545, 25696.057164199017, -187500.02235174447, -0.109, 0.92675, 0.319125, 192.0, 0.0, 0.0, 0.0, 0.0, 0.0, 0.0, 0.0, 0.0, 0.0, 1.744741755222305E9, 0.0, 2025-04-15 13:29:15.222
82.0, -20736.517993988753, -11912.608076644907, 32179.158291716376, -17587.89480780301, -44227.15088452708, 40920.70203074241, -36290.56051857001, 53138.21025350216, -9842.970650550205, -23588.533531252568, -9932.176462671336, 9068.527408662727, 5488.984941123122, 4034.333411971738, 25596.92717753973, -187500.02235174447, -0.109, 0.92675, 0.319125, 192.0, 0.0, 0.0, 0.0, 0.0, 0.0, 0.0, 0.0, 0.0, 0.0, 1.7447417552323644E9, 0.0, 2025-04-15 13:29:15.232
84.0, -20741.614191724562, -11918.821861603483, 32171.692809068303, -17588.81122932568, -44098.85187135361, 40955.68251081497, -36310.81119904652, 53177.750489443606, -9843.3729819504, -23593.495618521647, -9901.554572767565, 9075.009414554765, 5509.99558091111, 4065.670557698078, 25682.64611752583, -187500.02235174447, -0.109, 0.92675, 0.319125, 192.0, 0.0, 0.0, 0.0, 0.0, 0.0, 0.0, 0.0, 0.0, 0.0, 1.744741755241412E9, 0.0, 2025-04-15 13:29:15.241
86.0, -20715.95438908987, -11909.2106114877, 32183.360419673973, -17568.538197104717, -44242.73005041243, 40915.6058330066, -36286.15722491231, 53118.384256170306, -9833.962897534717, -23581.33626953796, -9929.360142869968, 9082.810173369668, 5490.504859746082, 4031.5841474037347, 25591.00396525907, -187500.02235174447, -0.109, 0.92675, 0.319125, 192.0, 0.0, 0.0, 0.0, 0.0, 0.0, 0.0, 0.0, 0.0, 0.0, 1.744741755247435E9, 0.0, 2025-04-15 13:29:15.247
88.0, -20717.071976312636, -11904.427338174264, 32189.50714939918, -17571.175702950444, -44118.07437158518, 40951.03334796827, -36298.674201807284, 53148.0450210625, -9823.278763685079, -23577.782342169565, -9891.71980520723, 9110.526336494248, 5517.237546114629, 4071.0349763673516, 25670.37500981987, -187500.02235174447, -0.1085, 0.926375, 0.31656249999999997, 192.0, 126.0, 80.0, 14.0, 120.0, 4.5, 104.0, 0.0, 0.0, 0.0, 1.7447417552544603E9, 0.0, 2025-04-15 13:29:15.254
90.0, -20733.142880576, -11918.397178458832, 32181.03583825062, -17583.75973507878, -44243.691175424006, 40917.595138263125, -36297.75778028462, 53111.70108457817, -9827.436188153766, -23580.732772437666, -9919.078340420525, 9090.119193806553, 5496.048092370998, 4037.1720835175615, 25601.55398864198, -187500.02235174447, -0.1085, 0.926375, 0.31656249999999997, 192.0, 0.0, 0.0, 0.0, 0.0, 0.0, 0.0, 0.0, 0.0, 0.0, 1.744741755263579E9, 0.0, 2025-04-15 13:29:15.263
92.0, -20734.86396489906, -11904.472041663175, 32181.438169650817, -17584.899674046002, -44063.04437673621, 40969.920572033, -36305.80440828853, 53176.252922565094, -9842.300098216547, -23598.994147657653, -9898.201811099269, 9092.354368252083, 5504.8993831753, 4048.258548767394, 25671.157320875805, -187500.02235174447, -0.1085, 0.926375, 0.31656249999999997, 192.0, 0.0, 0.0, 0.0, 0.0, 0.0, 0.0, 0.0, 0.0, 0.0, 1.7447417552715888E9, 0.0, 2025-04-15 13:29:15.271
94.0, -20718.793060635693, -11908.852983576417, 32182.6451638514, -17568.448790126895, -44233.29761425229, 40913.840045194636, -36287.565384813, 53115.81380555795, -9837.025086525093, -23589.449952775238, -9920.352389854479, 9078.585693667614, 5484.872220143345, 4025.0127345338747, 25604.370308443347, -187500.02235174447, -0.1085, 0.926375, 0.31656249999999997, 192.0, 0.0, 0.0, 0.0, 0.0, 0.0, 0.0, 0.0, 0.0, 0.0, 1.7447417552786074E9, 0.0, 2025-04-15 13:29:15.278
96.0, -20729.43249099642, -11914.105643523413, 32197.017335536166, -17579.199979209898, -44068.02881574975, 40971.68635984497, -36297.355448884424, 53197.375321075364, -9825.491586386155, -23586.5665777405, -9887.808249927552, 9092.577885696637, 5515.203537369196, 4058.450944239014, 25665.122349872872, -187500.02235174447, -0.1085, 0.926375, 0.31656249999999997, 192.0, 0.0, 0.0, 0.0, 0.0, 0.0, 0.0, 0.0, 0.0, 0.0, 1.744741755286664E9, 0.0, 2025-04-15 13:29:15.286
98.0, -20714.501525700274, -11913.457442934208, 32186.75788483118, -17567.308851159676, -44249.70379468248, 40911.67192598247, -36273.32732359497, 53127.23554697461, -9832.621792867398, -23582.297394549536, -9909.645904260386, 9078.049251800687, 5488.2920370450065, 4033.260528237883, 25618.60836966138, -187500.02235174447, -0.10525000000000001, 0.9261874999999999, 0.31528124999999996, 192.0, 126.0, 104.0, 14.0, 120.0, 4.5, 104.0, 0.0, 0.0, 0.0, 1.744741755295836E9, 0.0, 2025-04-15 13:29:15.295
100.0, -20725.118604316547, -11905.142593996834, 32199.99011754872, -17581.301043188698, -44097.3096009862, 40973.027464512284, -36271.67329450528, 53219.43649285275, -9830.587784121964, -23588.33236555247, -9887.472973760721, 9090.007435084277, 5509.839118699922, 4052.907711614098, 25656.516928257577, -187500.02235174447, -0.10525000000000001, 0.9261874999999999, 0.31528124999999996, 192.0, 0.0, 0.0, 0.0, 0.0, 0.0, 0.0, 0.0, 0.0, 0.0, 1.7447417553027403E9, 0.0, 2025-04-15 13:29:15.302
102.0, -20716.513182701252, -11911.825765588972, 32184.723876085747, -17576.98715650882, -44279.72218748596, 40912.14131261603, -36272.187384627745, 53137.4949976796, -9827.95027827624, -23585.694859706746, -9902.649808245875, 9083.816001870156, 5490.951894635188, 4041.3965632196146, 25639.7531199161, -187500.02235174447, -0.10525000000000001, 0.9261874999999999, 0.31528124999999996, 192.0, 0.0, 0.0, 0.0, 0.0, 0.0, 0.0, 0.0, 0.0, 0.0, 1.7447417553107748E9, 0.0, 2025-04-15 13:29:15.310
104.0, -20732.606438709074, -11906.662512619796, 32209.75782987569, -17586.978386280345, -44141.9683864079, 40974.54738313525, -36270.98039042716, 53216.12843467337, -9826.072731741993, -23589.829932430977, -9892.81504068554, 9081.983158824822, 5509.392083810817, 4058.450944239014, 25646.771567675063, -187500.02235174447, -0.10525000000000001, 0.9261874999999999, 0.31528124999999996, 192.0, 0.0, 0.0, 0.0, 0.0, 0.0, 0.0, 0.0, 0.0, 0.0, 1.7447417553188424E9, 0.0, 2025-04-15 13:29:15.318
106.0, -20728.784290407217, -11913.479794678664, 32184.65682085238, -17586.307833946685, -44276.92821942904, 40913.974155661366, -36287.40892260181, 53130.9906400431, -9835.929851046783, -23596.80367670103, -9905.175555369326, 9080.306777990672, 5492.024778369043, 4044.2128830209836, 25650.571364232466, -187500.02235174447, -0.10525000000000001, 0.9261874999999999, 0.31528124999999996, 192.0, 0.0, 0.0, 0.0, 0.0, 0.0, 0.0, 0.0, 0.0, 0.0, 1.7447417553278863E9, 0.0, 2025-04-15 13:29:15.327
108.0, -20741.18950857991, -11922.17462327178, 32202.56056816108, -17591.29227296022, -44147.73513647737, 40966.83603129817, -36283.27384987758, 53192.23441985064, -9828.821996309996, -23594.00970864412, -9902.783918712606, 9077.781030867223, 5501.501918018093, 4047.967976089475, 25631.97471284565, -187500.02235174447, -0.10262500000000001, 0.92509375, 0.313640625, 192.0, 126.0, 112.0, 14.0, 112.0, 4.5, 96.0, 0.0, 0.0, 0.0, 1.7447417553349047E9, 0.0, 2025-04-15 13:29:15.334
110.0, -20748.476177272343, -11931.003562331625, 32172.31865791305, -17591.42638342695, -44215.706791365956, 40917.12575162957, -36295.52260583909, 53132.53291041052, -9842.255394727636, -23602.682185492777, -9909.802366471573, 9071.477838930827, 5488.381444022828, 4047.386830733637, 25661.4566637822, -187500.02235174447, -0.10262500000000001, 0.92509375, 0.313640625, 192.0, 0.0, 0.0, 0.0, 0.0, 0.0, 0.0, 0.0, 0.0, 0.0, 1.7447417553429613E9, 0.0, 2025-04-15 13:29:15.342
112.0, -20740.38484577952, -11912.988056300648, 32207.097972285508, -17581.0998774886, -44116.42034249548, 40952.79913578023, -36270.60041077142, 53185.37243430286, -9833.158234734325, -23601.452839547735, -9912.708093250763, 9071.41078369746, 5496.8974586603, 4029.3266212137487, 25626.252666265093, -187500.02235174447, -0.10262500000000001, 0.92509375, 0.313640625, 192.0, 0.0, 0.0, 0.0, 0.0, 0.0, 0.0, 0.0, 0.0, 0.0, 1.7447417553519852E9, 0.0, 2025-04-15 13:29:15.351
114.0, -20753.39356105251, -11926.220289018189, 32170.061131723065, -17590.040575270723, -44147.51161903282, 40920.99260342033, -36300.46234136371, 53141.20538725918, -9843.70825811723, -23605.34204308296, -9900.772261711629, 9074.428269198927, 5502.820670940956, 4043.810551620788, 25675.27004185558, -187500.02235174447, -0.10262500000000001, 0.92509375, 0.313640625, 192.0, 0.0, 0.0, 0.0, 0.0, 0.0, 0.0, 0.0, 0.0, 0.0, 1.7447417553590243E9, 0.0, 2025-04-15 13:29:15.359
116.0, -20749.77257845075, -11914.530326668064, 32199.811303593076, -17583.111534489577, -44098.181319019954, 40942.070298441686, -36284.27967837807, 53176.99053013212, -9836.958031291728, -23596.58015925648, -9919.055988676071, 9071.835466842113, 5499.80318543949, 4032.3441067152153, 25610.91936956875, -187500.02235174447, -0.10262500000000001, 0.92509375, 0.313640625, 192.0, 0.0, 0.0, 0.0, 0.0, 0.0, 0.0, 0.0, 0.0, 0.0, 1.7447417553670547E9, 0.0, 2025-04-15 13:29:15.367
118.0, -20748.185604594422, -11925.594440173441, 32180.83467255052, -17579.557607121184, -44135.46402877141, 40918.28804234124, -36281.977448699174, 53153.968233343156, -9837.159196991826, -23599.396479057847, -9903.923857679827, 9076.998719811287, 5500.13846160632, 4055.7016796710113, 25694.447838598233, -187500.02235174447, -0.10262500000000001, 0.92509375, 0.313640625, 192.0, 0.0, 0.0, 0.0, 0.0, 0.0, 0.0, 0.0, 0.0, 0.0, 1.7447417553750892E9, 0.0, 2025-04-15 13:29:15.375
120.0, -20740.16132833497, -11924.968591328692, 32211.121286287464, -17568.18056919343, -44152.2725406018, 40936.08003092767, -36257.25641933161, 53194.60370476291, -9834.14171149036, -23599.038851146564, -9922.38639859991, 9076.596388411092, 5493.298827802995, 4026.800874090299, 25627.660826165775, -187500.02235174447, -0.108, 0.928, 0.314, 192.0, 126.0, 80.0, 14.5, 0.0, 4.5, 104.0, 0.0, 0.0, 0.0, 1.7447417553821285E9, 0.0, 2025-04-15 13:29:15.382
122.0, -20741.167156835458, -11913.412739445299, 32187.85312030949, -17564.067848213657, -44151.2220086124, 40931.83319948116, -36270.55570728251, 53188.52403027106, -9831.414798666812, -23600.067031391507, -9897.44185178779, 9084.643016415002, 5501.524269762549, 4058.1156680721842, 25709.42350738329, -187500.02235174447, -0.108, 0.928, 0.314, 192.0, 0.0, 0.0, 0.0, 0.0, 0.0, 0.0, 0.0, 0.0, 0.0, 1.7447417553901715E9, 0.0, 2025-04-15 13:29:15.390
124.0, -20734.3945782655, -11893.407928157798, 32214.786972378133, -17557.787008021714, -44212.7340093534, 40934.40365009352, -36260.13979436634, 53196.77182397507, -9822.719970073696, -23577.581176469466, -9915.43500607431, 9103.440833501916, 5495.3328365484285, 4038.7814091183436, 25628.957227344185, -187500.02235174447, -0.108, 0.928, 0.314, 192.0, 0.0, 0.0, 0.0, 0.0, 0.0, 0.0, 0.0, 0.0, 0.0, 1.7447417553992395E9, 0.0, 2025-04-15 13:29:15.399
126.0, -20743.849366170092, -11916.519631924586, 32189.261280210172, -17569.38756339402, -44156.139392392564, 40940.97506296338, -36284.03380918906, 53180.96914064517, -9832.75590333413, -23590.835760931466, -9893.753813952662, 9089.895676361999, 5501.725435462647, 4064.865894897687, 25712.88802777386, -187500.02235174447, -0.108, 0.928, 0.314, 192.0, 0.0, 0.0, 0.0, 0.0, 0.0, 0.0, 0.0, 0.0, 0.0, 1.744741755407252E9, 0.0, 2025-04-15 13:29:15.407
128.0, -20746.77744469374, -11916.07259703548, 32200.839483838023, -17564.939566247413, -44219.79716060128, 40937.465839083896, -36262.3079135785, 53180.14212610032, -9831.459502155722, -23589.47230451969, -9920.397093343388, 9082.139621036009, 5484.1793160652305, 4030.645374136612, 25618.004872561083, -187500.02235174447, -0.108, 0.928, 0.314, 192.0, 0.0, 0.0, 0.0, 0.0, 0.0, 0.0, 0.0, 0.0, 0.0, 1.7447417554142964E9, 0.0, 2025-04-15 13:29:15.414
130.0, -20743.20116558089, -11912.87629757837, 32191.809379078077, -17561.966784234857, -44123.90817688801, 40957.24713292684, -36277.03771317455, 53187.92053317077, -9837.270955714102, -23598.48005753518, -9891.362177295945, 9086.833487371623, 5500.071406372954, 4059.412069250592, 25707.098925959937, -187500.02235174447, -0.112, 0.928, 0.318, 192.0, 126.0, 64.0, 14.5, 0.0, 4.5, 120.0, 0.0, 0.0, 0.0, 1.7447417554223354E9, 0.0, 2025-04-15 13:29:15.422
132.0, -20751.761883707273, -11915.245582490634, 32194.089257012518, -17570.348688405596, -44229.631928161616, 40928.301623857216, -36282.73740801065, 53146.65921290627, -9833.381752178879, -23585.828970173476, -9918.720712509241, 9070.248492985786, 5485.967455621655, 4030.51126366988, 25614.808573103976, -187500.02235174447, -0.112, 0.928, 0.318, 192.0, 0.0, 0.0, 0.0, 0.0, 0.0, 0.0, 0.0, 0.0, 0.0, 1.744741755431376E9, 0.0, 2025-04-15 13:29:15.431
134.0, -20749.303191817187, -11918.911268581303, 32189.931832543833, -17570.751019805793, -44096.48258644135, 40959.07997597218, -36282.58094579947, 53176.20821907619, -9848.446827941756, -23602.704537237234, -9899.3864535554, 9072.953054064878, 5491.309522546473, 4052.281862769349, 25698.33704213346, -187500.02235174447, -0.112, 0.928, 0.318, 192.0, 0.0, 0.0, 0.0, 0.0, 0.0, 0.0, 0.0, 0.0, 0.0, 1.744741755438412E9, 0.0, 2025-04-15 13:29:15.438
136.0, -20754.444093041908, -11926.846137862938, 32188.635431365423, -17570.348688405596, -44231.21890201794, 40919.51738828628, -36272.36619858339, 53128.174320241735, -9834.499339401644, -23593.38385979937, -9924.375703856434, 9082.765469880756, 5484.916923632255, 4030.9582985589864, 25614.07096553695, -187500.02235174447, -0.112, 0.928, 0.318, 192.0, 0.0, 0.0, 0.0, 0.0, 0.0, 0.0, 0.0, 0.0, 0.0, 1.7447417554464395E9, 0.0, 2025-04-15 13:29:15.446
138.0, -20759.562642522174, -11925.147405284335, 32189.50714939918, -17566.593595337104, -44086.46900492538, 40967.01484525381, -36271.09214914944, 53186.42296629226, -9835.840444068963, -23606.90666519483, -9898.090052376992, 9083.883057103521, 5505.99461865361, 4052.5277319583574, 25693.151437419827, -187500.02235174447, -0.112, 0.928, 0.318, 192.0, 0.0, 0.0, 0.0, 0.0, 0.0, 0.0, 0.0, 0.0, 0.0, 1.7447417554555056E9, 0.0, 2025-04-15 13:29:15.455
140.0, -20759.0485523997, -11929.796568131038, 32183.807454563077, -17563.732572046825, -44263.38306228913, 40909.16853060348, -36256.33999780894, 53134.00812554457, -9831.504205644633, -23598.05537439053, -9927.795520758096, 9068.303891218173, 5489.61078996787, 4026.5997083902016, 25620.77648887354, -187500.02235174447, -0.106, 0.928, 0.312, 192.0, 126.0, 88.0, 14.5, 0.0, 4.5, 96.0, 0.0, 0.0, 0.0, 1.744741755463595E9, 0.0, 2025-04-15 13:29:15.463
142.0, -20789.73749753684, -11954.60700447643, 32184.165082474363, -17587.157200235986, -44087.11720551458, 40964.46674638591, -36275.00370442912, 53213.736798016645, -9839.595537137453, -23620.205953145738, -9911.702264750274, 9062.827713826622, 5506.821633198457, 4047.364478989182, 25685.440085582744, -187500.02235174447, -0.106, 0.928, 0.312, 192.0, 0.0, 0.0, 0.0, 0.0, 0.0, 0.0, 0.0, 0.0, 0.0, 1.7447417554705865E9, 0.0, 2025-04-15 13:29:15.470
144.0, -20799.415802885986, -11967.36985056041, 32178.644201593903, -17582.932720533936, -44255.26937905185, 40899.356114787595, -36275.11546315139, 53136.28800347901, -9861.94728159276, -23612.38284258638, -9942.368858142956, 9053.082353244108, 5481.720624175146, 4022.4869874104247, 25633.852259379895, -187500.02235174447, -0.106, 0.928, 0.312, 192.0, 0.0, 0.0, 0.0, 0.0, 0.0, 0.0, 0.0, 0.0, 0.0, 1.74474175547862E9, 0.0, 2025-04-15 13:29:15.478
146.0, -20814.279712948766, -11969.180341861289, 32198.626661136946, -17592.074584016154, -44097.68958064194, 40947.14414443304, -36270.66746600479, 53212.39569334933, -9872.989043353682, -23611.689938508265, -9928.309610880568, 9052.925891032923, 5498.193859838708, 4040.480141696947, 25682.5120070591, -187500.02235174447, -0.106, 0.928, 0.312, 192.0, 0.0, 0.0, 0.0, 0.0, 0.0, 0.0, 0.0, 0.0, 0.0, 1.7447417554866676E9, 0.0, 2025-04-15 13:29:15.486
148.0, -20819.845297318137, -11976.51171404263, 32180.7452655727, -17588.498304903307, -44268.59101874722, 40880.02185583375, -36264.721901979676, 53149.67669840774, -9879.359290523445, -23609.879447207386, -9951.264852436168, 9038.911347259444, 5481.22888579713, 4020.676496109545, 25651.01839912157, -187500.02235174447, -0.106, 0.928, 0.312, 192.0, 0.0, 0.0, 0.0, 0.0, 0.0, 0.0, 0.0, 0.0, 0.0, 1.7447417554947088E9, 0.0, 2025-04-15 13:29:15.494
150.0, -20827.243724732845, -11995.957731718747, 32199.56543440407, -17589.9511682929, -44126.925662389476, 40935.45418208292, -36262.7102449787, 53230.657068569315, -9884.701357448264, -23611.466421063713, -9933.852843505483, 9049.93075727591, 5501.926601162744, 4035.0486677943077, 25670.464416797688, -187500.02235174447, -0.106, 0.928, 0.32, 192.0, 126.0, 88.0, 14.5, 0.0, 5.0, 0.0, 0.0, 0.0, 0.0, 1.744741755502733E9, 0.0, 2025-04-15 13:29:15.502
152.0, -20815.866686805093, -11997.388243363886, 32174.46442538076, -17580.29521468821, -44297.491824327924, 40877.80903313268, -36268.85697470391, 53141.36184947036, -9886.24362781568, -23613.85805772043, -9948.046201234603, 9042.55468160566, 5484.849868398889, 4032.5452724153133, 25655.041713123526, -187500.02235174447, -0.106, 0.928, 0.32, 192.0, 0.0, 0.0, 0.0, 0.0, 0.0, 0.0, 0.0, 0.0, 0.0, 1.7447417555107713E9, 0.0, 2025-04-15 13:29:15.510
154.0, -20832.83166084667, -11995.42128985182, 32189.015411021166, -17587.514828147272, -44156.31820634821, 40949.08874620065, -36276.92595445227, 53213.98266720566, -9884.164915581336, -23612.42754607529, -9934.72456153924, 9051.785952065702, 5500.272572073051, 4038.870816096165, 25651.08545435494, -187500.02235174447, -0.106, 0.928, 0.32, 192.0, 0.0, 0.0, 0.0, 0.0, 0.0, 0.0, 0.0, 0.0, 0.0, 1.744741755519835E9, 0.0, 2025-04-15 13:29:15.519
156.0, -20826.05908227671, -11995.42128985182, 32158.8405560065, -17586.777220580247, -44280.728015986446, 40895.95864963039, -36286.04546619004, 53125.24624171809, -9889.395223783878, -23608.739508240167, -9945.095770966504, 9055.40693466746, 5475.752708405579, 4031.092409025718, 25642.368274017368, -187500.02235174447, -0.106, 0.928, 0.32, 192.0, 0.0, 0.0, 0.0, 0.0, 0.0, 0.0, 0.0, 0.0, 0.0, 1.7447417555268717E9, 0.0, 2025-04-15 13:29:15.526
158.0, -20828.54012591125, -11985.251246124655, 32182.242832451208, -17586.263130457777, -44162.68845351797, 40951.413327624, -36266.86766944738, 53211.009885193096, -9884.231970814702, -23611.935807697275, -9942.435913376321, 9055.518693389737, 5483.687577687214, 4028.253737479894, 25617.06609929396, -187500.02235174447, -0.106, 0.928, 0.32, 192.0, 0.0, 0.0, 0.0, 0.0, 0.0, 0.0, 0.0, 0.0, 0.0, 1.7447417555349064E9, 0.0, 2025-04-15 13:29:15.534
160.0, -20818.995931028836, -11974.74592623066, 32158.527631584126, -17579.11057223208, -44247.53567547032, 40916.276385340265, -36277.32828585247, 53153.52119845405, -9894.647883730875, -23613.634540275878, -9941.497140109199, 9042.26410892774, 5471.215304281152, 4035.026316049852, 25650.996047377117, -187500.02235174447, -0.106, 0.926, 0.314, 192.0, 126.0, 88.0, 14.0, 120.0, 4.5, 104.0, 0.0, 0.0, 0.0, 1.7447417555429513E9, 0.0, 2025-04-15 13:29:15.542
162.0, -20823.2651142198, -11974.634167508384, 32183.539233629614, -17583.15623797849, -44168.74577626536, 40966.813679553714, -36276.456567818714, 53203.4102920783, -9882.332072536, -23600.826990702986, -9938.323192396545, 9045.728629318313, 5476.937350861711, 4032.5676241597685, 25614.62975914833, -187500.02235174447, -0.106, 0.926, 0.314, 192.0, 0.0, 0.0, 0.0, 0.0, 0.0, 0.0, 0.0, 0.0, 0.0, 1.7447417555509896E9, 0.0, 2025-04-15 13:29:15.550
164.0, -20814.83850656015, -11976.198789620255, 32160.494585096192, -17584.407935667987, -44226.413276960055, 40927.76518199029, -36300.10471345243, 53130.677715620724, -9883.784935925596, -23611.175848385796, -9926.700285279785, 9043.7840275507, 5473.8528101268785, 4039.7425341299218, 25678.265175612592, -187500.02235174447, -0.106, 0.926, 0.314, 192.0, 0.0, 0.0, 0.0, 0.0, 0.0, 0.0, 0.0, 0.0, 0.0, 1.744741755559017E9, 0.0, 2025-04-15 13:29:15.559
166.0, -20812.13394548106, -11956.216330077212, 32191.116474999963, -17583.983252523336, -44199.904108036055, 40951.34627239064, -36288.28064063557, 53164.6970706817, -9864.696546160763, -23599.374127313393, -9932.668201049353, 9057.105667246064, 5476.602074694882, 4020.4976821539026, 25608.25951197857, -187500.02235174447, -0.106, 0.926, 0.314, 192.0, 0.0, 0.0, 0.0, 0.0, 0.0, 0.0, 0.0, 0.0, 0.0, 1.7447417555670955E9, 0.0, 2025-04-15 13:29:15.567
168.0, -20809.07175649068, -11963.234777836178, 32169.971724745243, -17583.647976356504, -44206.900204050566, 40931.85555122561, -36289.264117391605, 53131.169453998744, -9872.85493288695, -23608.96302568472, -9910.29410484959, 9057.97738527982, 5484.291074787507, 4042.827074864754, 25681.014440180596, -187500.02235174447, -0.106, 0.926, 0.314, 192.0, 0.0, 0.0, 0.0, 0.0, 0.0, 0.0, 0.0, 0.0, 0.0, 1.7447417555740895E9, 0.0, 2025-04-15 13:29:15.574
170.0, -20811.910428036503, -11957.803303933539, 32195.47506516875, -17586.06196475768, -44213.35985819815, 40941.377394363575, -36287.788902257555, 53142.74765762659, -9866.708203161741, -23603.44214480426, -9933.62932606093, 9052.277690443718, 5482.458231742172, 4017.1449204856067, 25603.83386657642, -187500.02235174447, -0.106, 0.924, 0.312, 192.0, 126.0, 88.0, 14.0, 112.0, 4.5, 96.0, 0.0, 0.0, 0.0, 1.7447417555821552E9, 0.0, 2025-04-15 13:29:15.582
172.0, -20791.860913260094, -11942.291193281555, 32186.08733249752, -17568.0464587267, -44208.151901740064, 40923.94303368843, -36280.4128265873, 53108.48243337661, -9870.977386352704, -23605.587912271967, -9914.742101996197, 9052.322393932629, 5492.002426624587, 4039.60842366319, 25682.422600081278, -187500.02235174447, -0.106, 0.924, 0.312, 192.0, 0.0, 0.0, 0.0, 0.0, 0.0, 0.0, 0.0, 0.0, 0.0, 1.7447417555901897E9, 0.0, 2025-04-15 13:29:15.590
174.0, -20799.058174974703, -11939.921908369293, 32211.568321176568, -17567.37590639304, -44252.92244588405, 40946.20537116592, -36260.877401933365, 53150.63782341932, -9850.682002387286, -23586.09719110694, -9923.369875355946, 9065.711088861357, 5492.583571980425, 4026.4655979234694, 25603.3421281984, -187500.02235174447, -0.106, 0.924, 0.312, 192.0, 0.0, 0.0, 0.0, 0.0, 0.0, 0.0, 0.0, 0.0, 0.0, 1.744741755599234E9, 0.0, 2025-04-15 13:29:15.599
176.0, -20798.857009274605, -11943.922870626793, 32194.402181434893, -17573.56733960716, -44148.7186132334, 40962.81271729621, -36287.163053412805, 53169.078012594946, -9860.986156581183, -23611.57817978599, -9897.821831443529, 9075.299987232684, 5493.745862692102, 4046.3362987442374, 25706.070745714995, -187500.02235174447, -0.106, 0.924, 0.312, 192.0, 0.0, 0.0, 0.0, 0.0, 0.0, 0.0, 0.0, 0.0, 0.0, 1.744741755606269E9, 0.0, 2025-04-15 13:29:15.606
178.0, -20786.63060505755, -11938.089065323957, 32214.742268889222, -17557.71995278835, -44250.866085394155, 40937.7117082729, -36258.99985539912, 53136.15389301228, -9846.725743618697, -23591.014574887107, -9920.642962532398, 9071.880170331022, 5481.899438130789, 4027.4043711905924, 25617.870762094353, -187500.02235174447, -0.106, 0.924, 0.312, 192.0, 0.0, 0.0, 0.0, 0.0, 0.0, 0.0, 0.0, 0.0, 0.0, 1.7447417556143012E9, 0.0, 2025-04-15 13:29:15.614
180.0, -20783.031974200247, -11935.36215250041, 32203.85696933949, -17555.03774345371, -44140.87315092959, 40969.920572033, -36263.738425223644, 53171.35789052938, -9847.418647696812, -23600.692880236256, -9888.568209239033, 9075.523504677238, 5500.026702884043, 4054.1370575591395, 25713.268007429604, -187500.02235174447, -0.107, 0.924, 0.315, 192.0, 126.0, 80.0, 14.0, 112.0, 4.5, 120.0, 0.0, 0.0, 0.0, 1.7447417556233485E9, 0.0, 2025-04-15 13:29:15.623
182.0, -20783.456657344897, -11925.63914366235, 32199.61013789298, -17554.1436736755, -44254.71058544047, 40942.09265018614, -36255.24476233063, 53140.28896573651, -9844.110589517426, -23586.454819018225, -9910.517622294143, 9075.612911655058, 5478.233752040119, 4023.7833885888326, 25617.222561505147, -187500.02235174447, -0.107, 0.924, 0.315, 192.0, 0.0, 0.0, 0.0, 0.0, 0.0, 0.0, 0.0, 0.0, 0.0, 1.7447417556303692E9, 0.0, 2025-04-15 13:29:15.630
184.0, -20777.53344506424, -11922.040512805048, 32198.313736714572, -17552.71316203036, -44103.702199900414, 40979.84474657116, -36264.67719849077, 53177.81754467697, -9847.686868630275, -23596.468400534202, -9886.131869093404, 9082.56430418066, 5492.404758024783, 4052.997118591919, 25691.408001352313, -187500.02235174447, -0.107, 0.924, 0.315, 192.0, 0.0, 0.0, 0.0, 0.0, 0.0, 0.0, 0.0, 0.0, 0.0, 1.7447417556384027E9, 0.0, 2025-04-15 13:29:15.638
186.0, -20786.317680635177, -11941.039495592058, 32190.401219177395, -17552.869624241546, -44237.27622476533, 40938.02463269528, -36270.60041077142, 53134.00812554457, -9838.902633059339, -23586.14189459585, -9909.914125193849, 9077.758679122768, 5478.032586340021, 4029.192510747017, 25598.715317096154, -187500.02235174447, -0.107, 0.924, 0.315, 192.0, 0.0, 0.0, 0.0, 0.0, 0.0, 0.0, 0.0, 0.0, 0.0, 1.7447417556464624E9, 0.0, 2025-04-15 13:29:15.646
188.0, -20793.53729409424, -11936.300925767533, 32190.28946045512, -17557.2952696437, -44058.75284180079, 40980.515298904815, -36284.12321616688, 53190.66979773877, -9857.342822234968, -23602.302205837037, -9889.641092972886, 9073.17657150943, 5494.930505148233, 4054.4946854704244, 25665.144701617326, -187500.02235174447, -0.107, 0.924, 0.315, 192.0, 0.0, 0.0, 0.0, 0.0, 0.0, 0.0, 0.0, 0.0, 0.0, 1.7447417556555257E9, 0.0, 2025-04-15 13:29:15.655
190.0, -20778.181645653447, -11928.880146608371, 32187.674306353845, -17545.627659038026, -44230.28012875082, 40919.58444351965, -36276.43421607426, 53118.36190442585, -9838.701467359242, -23582.967946883196, -9906.896639692384, 9079.792687868201, 5481.519458475049, 4032.3441067152153, 25596.480142650624, -187500.02235174447, -0.1085, 0.922, 0.3155, 192.0, 126.0, 72.0, 14.0, 96.0, 4.5, 112.0, 0.0, 0.0, 0.0, 1.7447417556625917E9, 0.0, 2025-04-15 13:29:15.662
192.0, -20797.73942205184, -11932.009390832114, 32202.247643738705, -17550.90267072948, -44050.12506844105, 40980.939982049465, -36267.873497947876, 53208.93117295876, -9854.90648208934, -23602.458668048224, -9886.064813860037, 9089.873324617545, 5498.082101116432, 4051.320737757771, 25667.916317929783, -187500.02235174447, -0.1085, 0.922, 0.3155, 192.0, 0.0, 0.0, 0.0, 0.0, 0.0, 0.0, 0.0, 0.0, 0.0, 1.744741755670605E9, 0.0, 2025-04-15 13:29:15.670
194.0, -20809.563494868697, -11956.059867866024, 32188.45661740978, -17548.62279279504, -44240.450172477984, 40916.969289418375, -36261.36914031138, 53121.0888172494, -9841.227214482691, -23584.644327717346, -9910.651732760874, 9077.244589000296, 5491.868316157856, 4033.260528237883, 25618.764831872562, -187500.02235174447, -0.1085, 0.922, 0.3155, 192.0, 0.0, 0.0, 0.0, 0.0, 0.0, 0.0, 0.0, 0.0, 0.0, 1.7447417556786385E9, 0.0, 2025-04-15 13:29:15.678
196.0, -20864.392324017565, -11988.380490348398, 32192.770504089654, -17569.164045949467, -44072.09683324061, 40981.94581054996, -36270.33218983796, 53195.18485011874, -9871.267959030623, -23612.29343560856, -9909.556497282565, 9062.067754515143, 5508.855641943889, 4049.622005179168, 25665.301163828513, -187500.02235174447, -0.1085, 0.922, 0.3155, 192.0, 0.0, 0.0, 0.0, 0.0, 0.0, 0.0, 0.0, 0.0, 0.0, 1.7447417556866813E9, 0.0, 2025-04-15 13:29:15.686
198.0, -20927.938333504004, -12065.896340119403, 32158.326465884027, -17583.066831000666, -44228.60374791667, 40909.52615851476, -36288.37004761339, 53112.32693342292, -9917.938401453304, -23631.33712188448, -9951.957756514283, 9032.809321023145, 5477.965531106655, 4026.6667636235675, 25633.673445424254, -187500.02235174447, -0.1085, 0.922, 0.3155, 192.0, 0.0, 0.0, 0.0, 0.0, 0.0, 0.0, 0.0, 0.0, 0.0, 1.7447417556947212E9, 0.0, 2025-04-15 13:29:15.694
200.0, -21013.992549656934, -12152.88932953946, 32173.883280024922, -17603.608084155094, -44084.79262409123, 40961.27044692879, -36267.24764910313, 53198.984646676145, -9954.639965848919, -23649.7326075712, -9972.431954435344, 9011.910439957433, 5487.710891689168, 4030.2653944808717, 25638.903753626797, -187500.02235174447, -0.10725, 0.921, 0.31675, 192.0, 126.0, 88.0, 14.0, 96.0, 4.5, 120.0, 0.0, 0.0, 0.0, 1.744741755702746E9, 0.0, 2025-04-15 13:29:15.702
202.0, -21114.553047961363, -12279.489610134318, 32128.46453529174, -17619.34371225163, -44233.252910763375, 40889.007257104786, -36289.64409704734, 53110.1364624663, -10026.679638228374, -23695.397221493393, -10025.874975427983, 8958.042735820143, 5447.813027836446, 4006.1925657025063, 25619.904770839785, -187500.02235174447, -0.10725, 0.921, 0.31675, 192.0, 0.0, 0.0, 0.0, 0.0, 0.0, 0.0, 0.0, 0.0, 0.0, 1.7447417557118337E9, 0.0, 2025-04-15 13:29:15.711
204.0, -21160.687048517117, -12335.771302672782, 32153.163212914853, -17613.19698252642, -44130.278424057775, 40939.566903062696, -36262.687893234244, 53177.594027232415, -10067.13629569248, -23703.086221586018, -10049.992507695259, 8929.588965128538, 5448.662394125748, 4015.848519307199, 25598.916482796252, -187500.02235174447, -0.10725, 0.921, 0.31675, 192.0, 0.0, 0.0, 0.0, 0.0, 0.0, 0.0, 0.0, 0.0, 0.0, 1.7447417557178323E9, 0.0, 2025-04-15 13:29:15.717
206.0, -21168.308993376373, -12372.696384512948, 32125.961139912743, -17608.01137781279, -44278.29167584082, 40893.969344373865, -36261.145622866825, 53109.68942757719, -10083.877752289505, -23699.912273873364, -10060.408420611433, 8932.829968074557, 5439.945213788177, 4014.3286006842377, 25611.679328880233, -187500.02235174447, -0.10725, 0.921, 0.31675, 192.0, 0.0, 0.0, 0.0, 0.0, 0.0, 0.0, 0.0, 0.0, 0.0, 1.7447417557268808E9, 0.0, 2025-04-15 13:29:15.726
208.0, -21177.987298725522, -12374.797448491747, 32146.837669234, -17615.365101738586, -44185.84486077367, 40950.29574040124, -36269.92985843776, 53180.745623200615, -10089.689205847884, -23712.384547279424, -10068.052717215147, 8925.364485426484, 5439.297013198974, 4012.540461127813, 25594.40143041628, -187500.02235174447, -0.10725, 0.921, 0.31675, 192.0, 0.0, 0.0, 0.0, 0.0, 0.0, 0.0, 0.0, 0.0, 0.0, 1.7447417557349164E9, 0.0, 2025-04-15 13:29:15.734
210.0, -21154.31680134735, -12352.736276714359, 32117.35571829745, -17616.192116283433, -44260.70085295449, 40916.58930976264, -36295.813178517004, 53133.02464878853, -10088.057528502648, -23714.64207346941, -10059.491999088765, 8923.86691854798, 5427.718809571124, 4016.764940829866, 25631.214753534172, -187500.02235174447, -0.108625, 0.9195, 0.31937499999999996, 192.0, 126.0, 72.0, 14.0, 88.0, 5.0, 8.0, 0.0, 0.0, 0.0, 1.7447417557419448E9, 0.0, 2025-04-15 13:29:15.741
212.0, -21131.09333885829, -12290.91135155098, 32138.902799952368, -17617.71203490639, -44183.341465394675, 40954.520220103295, -36289.93466972526, 53180.611512733885, -10072.388955639477, -23698.481762228224, -10058.955557221838, 8934.819273331079, 5429.372838660817, 4003.197431945495, 25576.408276129758, -187500.02235174447, -0.108625, 0.9195, 0.31937499999999996, 192.0, 0.0, 0.0, 0.0, 0.0, 0.0, 0.0, 0.0, 0.0, 0.0, 1.7447417557500577E9, 0.0, 2025-04-15 13:29:15.750
214.0, -21103.332472244798, -12284.76462182577, 32122.228398588708, -17606.67027314547, -44208.509529651354, 40931.296757614225, -36290.62757380338, 53142.367677970855, -10069.840856771572, -23694.771372648644, -10039.777760479185, 8946.9115670814, 5429.8869287832895, 4020.6317926206343, 25639.037864093527, -187500.02235174447, -0.108625, 0.9195, 0.31937499999999996, 192.0, 0.0, 0.0, 0.0, 0.0, 0.0, 0.0, 0.0, 0.0, 0.0, 1.7447417557590456E9, 0.0, 2025-04-15 13:29:15.759
216.0, -21069.089599739265, -12240.195243381888, 32150.65981753586, -17596.433174184942, -44184.883735762094, 40953.38028113607, -36280.54693705403, 53185.283027325044, -10046.326821604589, -23681.941471331298, -10043.398743080943, 8966.648157435437, 5437.195949220175, 4006.9525250139864, 25576.765904041044, -187500.02235174447, -0.108625, 0.9195, 0.31937499999999996, 192.0, 0.0, 0.0, 0.0, 0.0, 0.0, 0.0, 0.0, 0.0, 0.0, 1.744741755766079E9, 0.0, 2025-04-15 13:29:15.766
218.0, -21023.313227094797, -12192.295455014164, 32138.545172041082, -17583.849142056602, -44183.65438981705, 40944.88661824306, -36271.80740497201, 53160.15966655727, -10028.17720510688, -23667.010506035153, -10009.155870575414, 8974.15834357242, 5441.241614966585, 4037.619118406668, 25654.41586427878, -187500.02235174447, -0.108625, 0.9195, 0.31937499999999996, 192.0, 0.0, 0.0, 0.0, 0.0, 0.0, 0.0, 0.0, 0.0, 0.0, 1.7447417557741127E9, 0.0, 2025-04-15 13:29:15.774
220.0, -21007.309378064798, -12155.45978015182, 32158.37116937294, -17590.82288632666, -44211.594070386185, 40955.32488290368, -36267.091186891936, 53177.81754467697, -9992.973207589772, -23636.142746942372, -10010.944010131838, 8982.383785531973, 5447.36599294734, 4026.3314874567377, 25587.450037890678, -187500.02235174447, -0.1063125, 0.91675, 0.3196875, 192.0, 126.0, 96.0, 14.0, 72.0, 5.0, 0.0, 0.0, 0.0, 0.0, 1.7447417557821586E9, 0.0, 2025-04-15 13:29:15.782
222.0, -20990.389107512132, -12124.748483270227, 32131.50437253766, -17593.43804042793, -44148.13746787757, 40957.180077693476, -36280.94926845423, 53178.26457956607, -9998.44938498132, -23650.000828504664, -9989.665149410386, 8985.53538150017, 5448.84120808139, 4049.063211567785, 25682.489655314646, -187500.02235174447, -0.1063125, 0.91675, 0.3196875, 192.0, 0.0, 0.0, 0.0, 0.0, 0.0, 0.0, 0.0, 0.0, 0.0, 1.7447417557912376E9, 0.0, 2025-04-15 13:29:15.791
224.0, -20963.075275787745, -12093.947779410813, 32148.31288436805, -17592.029880527243, -44228.290823494295, 40935.834161738654, -36273.260268361606, 53154.70584091018, -9978.981015560748, -23624.29632238106, -10004.529059473165, 9000.287532840674, 5440.12402774382, 4016.764940829866, 25589.59580535839, -187500.02235174447, -0.1063125, 0.91675, 0.3196875, 192.0, 0.0, 0.0, 0.0, 0.0, 0.0, 0.0, 0.0, 0.0, 0.0, 1.7447417557982347E9, 0.0, 2025-04-15 13:29:15.798
226.0, -20944.120996489644, -12086.079965362545, 32144.557791299558, -17584.47499090135, -44165.25890413033, 40940.170400162984, -36280.74810275413, 53161.54547471351, -9972.722527113263, -23631.24771490666, -9975.494143425722, 9018.101873171554, 5454.295033728485, 4044.190531276528, 25662.41778879378, -187500.02235174447, -0.1063125, 0.91675, 0.3196875, 192.0, 0.0, 0.0, 0.0, 0.0, 0.0, 0.0, 0.0, 0.0, 0.0, 1.7447417558062778E9, 0.0, 2025-04-15 13:29:15.806
228.0, -20924.1385369466, -12056.083924303524, 32152.760881514656, -17584.698508345904, -44285.51128929988, 40930.7603157473, -36255.93766640874, 53155.219931032654, -9948.694401823808, -23604.604435515936, -9986.938236586839, 9021.342876117573, 5446.404867935761, 4022.285821710327, 25567.042895202983, -187500.02235174447, -0.1063125, 0.91675, 0.3196875, 192.0, 0.0, 0.0, 0.0, 0.0, 0.0, 0.0, 0.0, 0.0, 0.0, 1.744741755814332E9, 0.0, 2025-04-15 13:29:15.814
230.0, -20912.962664718947, -12045.57860440953, 32142.054395920564, -17595.136773006532, -44169.55043906575, 40963.93030451898, -36275.78601548505, 53179.35981504439, -9955.936367027327, -23628.811374761033, -9963.804181075595, 9013.095082413565, 5455.07734478442, 4047.073906311263, 25658.528585258555, -187500.02235174447, -0.10815625000000001, 0.917375, 0.31784375, 192.0, 126.0, 72.0, 14.0, 88.0, 4.5, 112.0, 0.0, 0.0, 0.0, 1.7447417558223493E9, 0.0, 2025-04-15 13:29:15.822
232.0, -20902.837324480693, -12035.028581026625, 32140.467422064237, -17600.970578309367, -44302.02922845235, 40928.078106412664, -36272.72382649468, 53127.61552663035, -9938.099674951993, -23612.00286293064, -9985.708890641796, 9002.343893330562, 5446.2037022356635, 4013.255716950383, 25567.087598691895, -187500.02235174447, -0.10815625000000001, 0.917375, 0.31784375, 192.0, 0.0, 0.0, 0.0, 0.0, 0.0, 0.0, 0.0, 0.0, 0.0, 1.7447417558303888E9, 0.0, 2025-04-15 13:29:15.830
234.0, -20889.314519085234, -12009.592295836484, 32139.729814497212, -17603.473973688364, -44159.69331976096, 40962.74566206284, -36288.50415808012, 53155.86813162186, -9937.339715640512, -23620.38476710138, -9960.87610255195, 9016.090216170576, 5464.956815833666, 4038.7367056294333, 25649.118500842873, -187500.02235174447, -0.10815625000000001, 0.917375, 0.31784375, 192.0, 0.0, 0.0, 0.0, 0.0, 0.0, 0.0, 0.0, 0.0, 0.0, 1.7447417558384871E9, 0.0, 2025-04-15 13:29:15.838
236.0, -20860.21254780442, -12000.539839332085, 32146.480041322717, -17592.09693576061, -44308.60064132221, 40928.234568623855, -36273.528489295066, 53108.46008163215, -9914.451529318278, -23595.32846156698, -9976.209399248291, 9018.325390616106, 5458.251292497074, 4015.446187907003, 25578.889319764297, -187500.02235174447, -0.10815625000000001, 0.917375, 0.31784375, 192.0, 0.0, 0.0, 0.0, 0.0, 0.0, 0.0, 0.0, 0.0, 0.0, 1.7447417558465016E9, 0.0, 2025-04-15 13:29:15.846
238.0, -20849.416655232508, -11985.2288943802, 32157.41004436136, -17594.309758461688, -44119.46017974141, 40990.59593565416, -36262.46437578969, 53179.11394585537, -9921.514680566153, -23607.890141950866, -9946.369820400456, 9024.270954641219, 5472.84698162639, 4035.1380747721287, 25652.337152044434, -187500.02235174447, -0.10815625000000001, 0.917375, 0.31784375, 192.0, 0.0, 0.0, 0.0, 0.0, 0.0, 0.0, 0.0, 0.0, 0.0, 1.7447417558535297E9, 0.0, 2025-04-15 13:29:15.853
240.0, -20833.12223352459, -11976.779934976094, 32156.22540190523, -17587.11249674708, -44256.23050406343, 40941.95853971941, -36253.61308498539, 53132.53291041052, -9900.146412866881, -23586.90185390733, -9962.328965941544, 9030.708257044347, 5462.676937899225, 4017.547251885802, 25592.389773415303, -187500.02235174447, -0.10815625000000001, 0.917375, 0.31784375, 192.0, 0.0, 0.0, 0.0, 0.0, 0.0, 0.0, 0.0, 0.0, 0.0, 1.7447417558625853E9, 0.0, 2025-04-15 13:29:15.862
242.0, -20808.468259390385, -11947.297984039544, 32179.247698694195, -17578.752944320793, -44096.527289930265, 40998.21788051342, -36247.7569279381, 53201.644504266325, -9889.954017395261, -23582.297394549536, -9930.835358004017, 9035.156254190953, 5488.9402376342105, 4043.251758009405, 25646.436291508235, -187500.02235174447, -0.108, 0.922, 0.316, 192.0, 126.0, 80.0, 14.0, 104.0, 4.5, 112.0, 0.0, 0.0, 0.0, 1.744741755870594E9, 0.0, 2025-04-15 13:29:15.870
244.0, -20802.098012220624, -11970.409687806332, 32155.51014608266, -17581.703374588895, -44261.70668145498, 40936.90704547251, -36254.23893383014, 53132.95759355517, -9888.545857494577, -23578.207025314216, -9944.626384332942, 9048.366135164038, 5473.741051404602, 4028.477254924447, 25610.897017824296, -187500.02235174447, -0.108, 0.922, 0.316, 192.0, 0.0, 0.0, 0.0, 0.0, 0.0, 0.0, 0.0, 0.0, 0.0, 1.7447417558776417E9, 0.0, 2025-04-15 13:29:15.877
246.0, -20792.97850048286, -11956.685716710774, 32178.107759726976, -17586.464296157872, -44096.7061038859, 40991.3782467101, -36260.944457166726, 53206.1595566463, -9889.708148206253, -23589.315842308504, -9929.717770781252, 9064.12411500503, 5486.570952721948, 4045.9563190884974, 25651.867765410872, -187500.02235174447, -0.108, 0.922, 0.316, 192.0, 0.0, 0.0, 0.0, 0.0, 0.0, 0.0, 0.0, 0.0, 0.0, 1.7447417558866887E9, 0.0, 2025-04-15 13:29:15.886
248.0, -20763.429494312943, -11939.586632202463, 32178.97947776073, -17566.235967425822, -44288.59583003472, 40929.82154248018, -36257.18936409824, 53122.005238772064, -9873.346671264968, -23570.13804556585, -9929.069570192049, 9069.332071463117, 5476.51266771706, 4037.0826765397405, 25635.774509403054, -187500.02235174447, -0.108, 0.922, 0.316, 192.0, 0.0, 0.0, 0.0, 0.0, 0.0, 0.0, 0.0, 0.0, 0.0, 1.7447417558947165E9, 0.0, 2025-04-15 13:29:15.894
250.0, -20763.63066001304, -11924.476852950675, 32199.431323937337, -17579.401144909996, -44152.20548536843, 40995.93800257898, -36254.75302395261, 53217.26837364059, -9865.098877560958, -23569.825121143476, -9904.01326465765, 9080.17266752394, 5496.875106915844, 4054.315871514782, 25641.295390283514, -187500.02235174447, -0.108, 0.922, 0.316, 192.0, 0.0, 0.0, 0.0, 0.0, 0.0, 0.0, 0.0, 0.0, 0.0, 1.7447417559027517E9, 0.0, 2025-04-15 13:29:15.902
252.0, -20745.235174326324, -11923.225155261178, 32179.270050438652, -17573.254415184787, -44297.40241735011, 40933.7107460154, -36253.27780881856, 53140.93716632571, -9867.043479328571, -23566.38295249736, -9910.919953694338, 9081.469068702349, 5479.351339262884, 4047.3421272447263, 25643.01647460657, -187500.02235174447, -0.112, 0.928, 0.316, 192.0, 126.0, 64.0, 14.5, 0.0, 4.5, 112.0, 0.0, 0.0, 0.0, 1.7447417559118147E9, 0.0, 2025-04-15 13:29:15.911
254.0, -20746.91155516047, -11914.999713301626, 32196.21267273577, -17584.944377534914, -44172.94790422296, 40987.8243193417, -36266.398282813825, 53198.26939085357, -9863.824828127006, -23561.46556871719, -9900.995779156183, 9083.9948158258, 5496.584534237925, 4051.99129009143, 25633.6510936798, -187500.02235174447, -0.112, 0.928, 0.316, 192.0, 0.0, 0.0, 0.0, 0.0, 0.0, 0.0, 0.0, 0.0, 0.0, 1.7447417559188416E9, 0.0, 2025-04-15 13:29:15.918
0.0, -20736.830918411128, -11912.45161443372, 32179.00182950519, -17577.367136164565, -44267.4957832689, 40947.457068855416, -36259.402186799314, 53129.291907464496, -9858.862740857929, -23554.71534189169, -9900.057005889059, 9082.251379758285, 5493.365883036361, 4056.461638982492, 25663.80359695001, -187500.02235174447, -0.112, 0.928, 0.316, 192.0, 0.0, 0.0, 0.0, 0.0, 0.0, 0.0, 0.0, 0.0, 0.0, 1.7447417559268742E9, 0.0, 2025-04-15 13:29:15.926
2.0, -20732.91936313145, -11907.35541669791, 32210.271919998162, -17580.38462166603, -44180.23457291539, 41004.83399687219, -36251.087337861936, 53181.304416811996, -9853.56537742202, -23552.90485059081, -9900.414633800345, 9087.682853660925, 5498.730301705636, 4050.1360953016397, 25633.628741935343, -187500.02235174447, -0.112, 0.928, 0.316, 192.0, 0.0, 0.0, 0.0, 0.0, 0.0, 0.0, 0.0, 0.0, 0.0, 1.7447417559339185E9, 0.0, 2025-04-15 13:29:15.933
4.0, -20718.927171102427, -11902.370977684377, 32182.555756873582, -17574.439057640917, -44246.90982662557, 40965.137298719565, -36262.84435544543, 53106.04609323098, -9853.721839633208, -23556.32466749247, -9894.804345942062, 9080.910275090966, 5495.645760970803, 4062.2060373075055, 25677.16994013428, -187500.02235174447, -0.112, 0.928, 0.316, 192.0, 0.0, 0.0, 0.0, 0.0, 0.0, 0.0, 0.0, 0.0, 0.0, 1.7447417559419472E9, 0.0, 2025-04-15 13:29:15.941
6.0, -20717.58606643511, -11893.318521179977, 32220.41961198087, -17565.76658079226, -44212.488140164394, 41002.01767707082, -36239.73265167864, 53170.97791087365, -9830.096045743949, -23536.833946327442, -9895.29608432008, 9108.46997600436, 5509.9508774221995, 4058.2721302833716, 25611.83579109142, -187500.02235174447, -0.108, 0.924, 0.316, 192.0, 126.0, 80.0, 14.0, 112.0, 4.5, 112.0, 0.0, 0.0, 0.0, 1.744741755949992E9, 0.0, 2025-04-15 13:29:15.949
8.0, -20720.178868791925, -11904.047358518525, 32185.148559230398, -17576.450714641895, -44206.050837761264, 40977.90014480354, -36271.427425316266, 53131.70589586567, -9849.318545975513, -23561.063237316997, -9889.551685995066, 9101.8985631345, 5496.584534237925, 4068.889208899642, 25687.518797817087, -187500.02235174447, -0.108, 0.924, 0.316, 192.0, 0.0, 0.0, 0.0, 0.0, 0.0, 0.0, 0.0, 0.0, 0.0, 1.744741755958037E9, 0.0, 2025-04-15 13:29:15.958
10.0, -20719.53066820272, -11889.049337989014, 32211.41185896538, -17569.99106049431, -44209.202433729464, 40995.49096768987, -36253.16605009628, 53155.42109673275, -9832.510034145122, -23540.879612073855, -9901.822793701029, 9109.47580450485, 5498.953819150188, 4053.2429877809273, 25594.580244371922, -187500.02235174447, -0.108, 0.924, 0.316, 192.0, 0.0, 0.0, 0.0, 0.0, 0.0, 0.0, 0.0, 0.0, 0.0, 1.744741755966066E9, 0.0, 2025-04-15 13:29:15.966
12.0, -20710.209990764855, -11884.243712931122, 32191.94348954481, -17567.666479070962, -44193.46680563293, 40968.31124643222, -36280.47988182067, 53126.40853242976, -9841.09310401596, -23553.03896105754, -9883.919046392328, 9110.36987428306, 5502.843022685412, 4072.152563590117, 25676.834663967453, -187500.02235174447, -0.108, 0.924, 0.316, 192.0, 0.0, 0.0, 0.0, 0.0, 0.0, 0.0, 0.0, 0.0, 0.0, 1.7447417559741063E9, 0.0, 2025-04-15 13:29:15.974
14.0, -20709.89706634248, -11892.044471746025, 32212.08241129904, -17570.259281427774, -44228.022602560835, 40970.81464181121, -36261.2573815891, 53157.320995011454, -9833.247641712147, -23541.013722540585, -9897.978293654716, 9097.830545643634, 5497.635066227325, 4052.237159280439, 25578.53169185301, -187500.02235174447, -0.108, 0.924, 0.316, 192.0, 0.0, 0.0, 0.0, 0.0, 0.0, 0.0, 0.0, 0.0, 0.0, 1.7447417559832003E9, 0.0, 2025-04-15 13:29:15.983
16.0, -20706.00786280726, -11879.840419273427, 32195.56447214657, -17569.63343258303, -44171.092709433164, 40969.80881331072, -36274.17668988427, 53155.55520719948, -9829.961935277217, -23548.881536588855, -9873.883113131895, 9106.078339347641, 5506.240487842619, 4079.8415636827426, 25660.51789051508, -187500.02235174447, -0.11, 0.928, 0.318, 192.0, 126.0, 72.0, 14.5, 0.0, 4.5, 120.0, 0.0, 0.0, 0.0, 1.7447417559891973E9, 0.0, 2025-04-15 13:29:15.989
18.0, -20705.471420940332, -11879.415736128776, 32207.813228108076, -17564.29136565821, -44252.92244588405, 40965.22670569739, -36249.63447447235, 53164.160628814774, -9824.75397881913, -23539.024417284065, -9899.095880877481, 9106.19009806992, 5500.406682539783, 4054.0923540702292, 25567.802854514463, -187500.02235174447, -0.11, 0.928, 0.318, 192.0, 0.0, 0.0, 0.0, 0.0, 0.0, 0.0, 0.0, 0.0, 0.0, 1.7447417559982228E9, 0.0, 2025-04-15 13:29:15.998
20.0, -20704.86792384004, -11882.20970418569, 32195.586823891026, -17566.77240929275, -44152.18313362398, 40983.733950106376, -36274.13198639536, 53181.013844134075, -9833.046476012049, -23546.244030743128, -9869.770392152119, 9101.496231734303, 5510.71083673368, 4085.8541829412206, 25667.64809699632, -187500.02235174447, -0.11, 0.928, 0.318, 192.0, 0.0, 0.0, 0.0, 0.0, 0.0, 0.0, 0.0, 0.0, 0.0, 1.744741756006282E9, 0.0, 2025-04-15 13:29:16.006
22.0, -20694.273196968225, -11878.432259372743, 32208.5508356751, -17559.37398187804, -44287.9029259566, 40947.14414443304, -36254.21658208568, 53135.46098893416, -9823.61403985191, -23536.118690504874, -9897.330093065511, 9094.231914786329, 5490.393101023806, 4049.42083947907, 25566.931136480707, -187500.02235174447, -0.11, 0.928, 0.318, 192.0, 0.0, 0.0, 0.0, 0.0, 0.0, 0.0, 0.0, 0.0, 0.0, 1.744741756014322E9, 0.0, 2025-04-15 13:29:16.014
24.0, -20702.252769738767, -11886.233018187646, 32193.731629101236, -17571.309813417174, -44147.2210463549, 40990.01479029832, -36267.1135386364, 53178.55515224399, -9825.603345108431, -23541.93014406325, -9864.875360116406, 9104.670179446957, 5513.594211768414, 4085.161278863106, 25654.32645730096, -187500.02235174447, -0.11, 0.928, 0.318, 192.0, 0.0, 0.0, 0.0, 0.0, 0.0, 0.0, 0.0, 0.0, 0.0, 1.7447417560223444E9, 0.0, 2025-04-15 13:29:16.022
26.0, -20692.440353922888, -11866.339965622421, 32197.486722169728, -17560.245699911797, -44295.30135337131, 40941.779725763765, -36255.93766640874, 53112.014009000544, -9826.676228842287, -23535.55989689349, -9903.096843134981, 9094.611894442069, 5491.08600510192, 4054.1147058146844, 25575.000116229072, -187500.02235174447, -0.10200000000000001, 0.93, 0.32, 192.0, 126.0, 104.0, 14.5, 8.0, 5.0, 0.0, 0.0, 0.0, 0.0, 1.7447417560303853E9, 0.0, 2025-04-15 13:29:16.030
28.0, -20697.737717358796, -11867.703422034196, 32205.198074006807, -17563.106723202076, -44144.13650562007, 40990.81945309871, -36257.63639898734, 53167.4016317608, -9825.759807319619, -23537.83977482793, -9868.988081096182, 9116.874231919555, 5515.80703446949, 4091.7773952218768, 25648.962038631686, -187500.02235174447, -0.10200000000000001, 0.93, 0.32, 192.0, 0.0, 0.0, 0.0, 0.0, 0.0, 0.0, 0.0, 0.0, 0.0, 1.7447417560384712E9, 0.0, 2025-04-15 13:29:16.038
30.0, -20695.793115591183, -11873.693689548218, 32191.22823372224, -17563.978441235835, -44282.38204507614, 40943.83608625366, -36259.402186799314, 53107.72247406513, -9831.593612622453, -23540.924315562763, -9898.894715177383, 9097.65173168799, 5492.315351046962, 4058.5627029612906, 25574.21780517314, -187500.02235174447, -0.10200000000000001, 0.93, 0.32, 192.0, 0.0, 0.0, 0.0, 0.0, 0.0, 0.0, 0.0, 0.0, 0.0, 1.744741756045482E9, 0.0, 2025-04-15 13:29:16.045
32.0, -20708.891237841992, -11879.907474506794, 32197.374963447448, -17574.506112874285, -44105.15506329001, 40999.24606075836, -36265.28069559106, 53169.681509695234, -9822.876432284884, -23543.159490008296, -9876.319453277523, 9103.70905443538, 5511.694313489713, 4082.3896625506477, 25636.08743382543, -187500.02235174447, -0.10200000000000001, 0.93, 0.32, 192.0, 0.0, 0.0, 0.0, 0.0, 0.0, 0.0, 0.0, 0.0, 0.0, 1.7447417560545104E9, 0.0, 2025-04-15 13:29:16.054
34.0, -20721.922304859436, -11899.442899160731, 32173.391541646906, -17582.798610067202, -44245.30050102479, 40944.238417653854, -36274.19904162872, 53091.69627329067, -9842.702429616742, -23548.166280766283, -9911.366988583444, 9084.50890594827, 5482.815859653457, 4055.9475488600197, 25604.191494487703, -187500.02235174447, -0.10200000000000001, 0.93, 0.32, 192.0, 0.0, 0.0, 0.0, 0.0, 0.0, 0.0, 0.0, 0.0, 0.0, 1.744741756062615E9, 0.0, 2025-04-15 13:29:16.062
36.0, -20710.34410123159, -11883.439050130732, 32203.85696933949, -17568.38173489353, -44099.99181032083, 41007.18093004, -36248.22631457166, 53173.28014055254, -9849.117380275415, -23561.934955350753, -9897.486555276699, 9077.155182022474, 5501.054883128987, 4069.895037400131, 25644.335227529435, -187500.02235174447, -0.10200000000000001, 0.928, 0.318, 192.0, 126.0, 104.0, 14.5, 0.0, 4.5, 120.0, 0.0, 0.0, 0.0, 1.7447417560696096E9, 0.0, 2025-04-15 13:29:16.069
38.0, -20717.675473412928, -11894.63727410284, 32192.32346920055, -17569.47697037184, -44273.19547810501, 40947.70293804442, -36258.217544343184, 53116.05967474695, -9832.733551589674, -23547.22750749916, -9901.599276256477, 9088.576923439137, 5496.986865638121, 4064.664729197589, 25616.820230104953, -187500.02235174447, -0.10200000000000001, 0.928, 0.318, 192.0, 0.0, 0.0, 0.0, 0.0, 0.0, 0.0, 0.0, 0.0, 0.0, 1.7447417560776515E9, 0.0, 2025-04-15 13:29:16.077
40.0, -20724.11277581606, -11883.506105364098, 32215.837504367533, -17568.38173489353, -44113.87224362758, 41001.36947648162, -36246.03584361504, 53192.16736461728, -9837.539176647566, -23558.336324493448, -9891.943322651783, 9084.218333270352, 5505.636990742325, 4072.2643223123937, 25647.710340942187, -187500.02235174447, -0.10200000000000001, 0.928, 0.318, 192.0, 0.0, 0.0, 0.0, 0.0, 0.0, 0.0, 0.0, 0.0, 0.0, 1.7447417560866947E9, 0.0, 2025-04-15 13:29:16.086
42.0, -20706.633711652008, -11877.87346576136, 32200.50420767119, -17557.071752199146, -44289.892231213125, 40937.21996989488, -36248.22631457166, 53104.86145077485, -9829.112568987915, -23543.18184175275, -9899.967598911238, 9090.901504862488, 5493.522345247548, 4066.7434414319328, 25635.953323358695, -187500.02235174447, -0.10200000000000001, 0.928, 0.318, 192.0, 0.0, 0.0, 0.0, 0.0, 0.0, 0.0, 0.0, 0.0, 0.0, 1.7447417560937428E9, 0.0, 2025-04-15 13:29:16.093
44.0, -20715.820278623138, -11876.889989005327, 32211.680079898844, -17569.074638971644, -44155.84881971464, 40989.321886220205, -36235.12819232085, 53183.80781219099, -9826.810339309019, -23547.026341799065, -9886.154220837858, 9117.969467397865, 5510.353208822395, 4075.058290369307, 25634.343997757915, -187500.02235174447, -0.10200000000000001, 0.928, 0.318, 192.0, 0.0, 0.0, 0.0, 0.0, 0.0, 0.0, 0.0, 0.0, 0.0, 1.744741756101764E9, 0.0, 2025-04-15 13:29:16.101
46.0, -20717.206086779366, -11883.282587919544, 32181.058189995074, -17570.035763983222, -44271.83202169323, 40939.63395829606, -36247.17578258226, 53109.51061362155, -9837.963859792217, -23550.84849010092, -9893.61970348593, 9096.645903187502, 5500.160813350775, 4071.3702525341814, 25637.920276870762, -187500.02235174447, -0.10400000000000001, 0.926, 0.318, 192.0, 126.0, 96.0, 14.0, 120.0, 4.5, 120.0, 0.0, 0.0, 0.0, 1.744741756109839E9, 0.0, 2025-04-15 13:29:16.109
48.0, -20720.62590368103, -11873.671337803762, 32209.13198103094, -17572.00271749529, -44158.93336044948, 40988.09254027517, -36245.141773836825, 53171.17907657374, -9833.158234734325, -23547.51808017708, -9894.513773264143, 9088.286350761218, 5505.636990742325, 4066.609330965201, 25600.324642696934, -187500.02235174447, -0.10400000000000001, 0.926, 0.318, 192.0, 0.0, 0.0, 0.0, 0.0, 0.0, 0.0, 0.0, 0.0, 0.0, 1.7447417561188464E9, 0.0, 2025-04-15 13:29:16.118
50.0, -20721.47526997033, -11884.958968753692, 32175.02321899214, -17578.350612920596, -44228.20141651647, 40951.860362513115, -36260.76564321109, 53113.7350933236, -9840.668420871309, -23542.153661507808, -9892.39035754089, 9098.322284021651, 5502.239525585119, 4075.326511302771, 25628.68900641072, -187500.02235174447, -0.10400000000000001, 0.926, 0.318, 192.0, 0.0, 0.0, 0.0, 0.0, 0.0, 0.0, 0.0, 0.0, 0.0, 1.7447417561258707E9, 0.0, 2025-04-15 13:29:16.125
52.0, -20735.981552121826, -11897.49829739312, 32195.072733768553, -17592.320453205164, -44122.1647408205, 40990.305362976236, -36259.1563176103, 53164.85353289289, -9839.707295859731, -23546.89223133233, -9904.125023379926, 9094.187211297418, 5499.445557528205, 4059.836752395243, 25585.10310472287, -187500.02235174447, -0.10400000000000001, 0.926, 0.318, 192.0, 0.0, 0.0, 0.0, 0.0, 0.0, 0.0, 0.0, 0.0, 0.0, 1.7447417561339092E9, 0.0, 2025-04-15 13:29:16.133
54.0, -20736.272124799743, -11894.972550269671, 32161.94744848579, -17589.57118863716, -44140.94020616296, 40955.10136545913, -36275.13781489585, 53108.70595082116, -9854.526502433599, -23565.33242050796, -9903.588581512999, 9077.244589000296, 5492.628275469337, 4059.546179717324, 25627.63847442132, -187500.02235174447, -0.10400000000000001, 0.926, 0.318, 192.0, 0.0, 0.0, 0.0, 0.0, 0.0, 0.0, 0.0, 0.0, 0.0, 1.7447417561419563E9, 0.0, 2025-04-15 13:29:16.141
56.0, -20733.925191631937, -11889.675186833761, 32190.08829475502, -17574.662575085473, -44098.3601329756, 40995.71448513443, -36249.14273609433, 53176.56584698747, -9848.446827941756, -23557.911641348797, -9916.954924697271, 9074.65178664348, 5491.890667902311, 4048.102086556207, 25551.39667408427, -187500.02235174447, -0.10400000000000001, 0.927, 0.316, 192.0, 126.0, 96.0, 14.5, 0.0, 4.5, 104.0, 0.0, 0.0, 0.0, 1.7447417561500008E9, 0.0, 2025-04-15 13:29:16.150
58.0, -20721.25175252578, -11886.903570521305, 32174.486777125214, -17557.89876674399, -44134.905235160026, 40971.46284240042, -36252.42844252926, 53143.75348612708, -9844.065886028515, -23553.731865135655, -9894.938456408794, 9082.519600691749, 5494.975208637144, 4078.098127615229, 25624.26336100857, -187500.02235174447, -0.10400000000000001, 0.927, 0.316, 192.0, 0.0, 0.0, 0.0, 0.0, 0.0, 0.0, 0.0, 0.0, 0.0, 1.7447417561580403E9, 0.0, 2025-04-15 13:29:16.158
60.0, -20725.3421217611, -11881.516800107574, 32197.88905356992, -17559.262223155765, -44175.11602343512, 40978.280124459285, -36253.00958788509, 53160.65140493529, -9830.990115522161, -23537.750367850113, -9906.382549569911, 9097.897600877, 5495.46694701516, 4065.290578042338, 25561.834938744898, -187500.02235174447, -0.10400000000000001, 0.927, 0.316, 192.0, 0.0, 0.0, 0.0, 0.0, 0.0, 0.0, 0.0, 0.0, 0.0, 1.744741756166076E9, 0.0, 2025-04-15 13:29:16.166
62.0, -20730.170098563445, -11897.006559015103, 32187.339030187017, -17562.86085401307, -44156.0723371592, 40979.15184249304, -36245.03001511455, 53156.2481112776, -9838.589708636966, -23554.26830700258, -9886.95888363825, 9094.27661827524, 5500.317275561962, 4086.0553486413182, 25650.906640399295, -187500.02235174447, -0.10400000000000001, 0.927, 0.316, 192.0, 0.0, 0.0, 0.0, 0.0, 0.0, 0.0, 0.0, 0.0, 0.0, 1.7447417561741111E9, 0.0, 2025-04-15 13:29:16.174
64.0, -20735.400406765988, -11908.048320776024, 32197.598480892004, -17568.113513960066, -44222.99346005839, 40972.91570579001, -36236.44694524371, 53157.03042233353, -9840.288441215569, -23550.692027889734, -9915.055026418571, 9091.594408940604, 5488.403795767284, 4056.6181011936787, 25573.457845861656, -187500.02235174447, -0.10400000000000001, 0.927, 0.316, 192.0, 0.0, 0.0, 0.0, 0.0, 0.0, 0.0, 0.0, 0.0, 0.0, 1.7447417561812155E9, 0.0, 2025-04-15 13:29:16.181
66.0, -20750.800758695696, -11908.249486476123, 32172.98921024671, -17580.026993754745, -44127.73032518987, 40989.053665286745, -36261.436195544746, 53173.72717544165, -9853.341859977469, -23568.193443798238, -9893.574999997021, 9088.398109483494, 5495.377540037339, 4082.546124761835, 25665.21175685069, -187500.02235174447, -0.10700000000000001, 0.9265000000000001, 0.317, 192.0, 126.0, 72.0, 14.0, 120.0, 4.5, 120.0, 0.0, 0.0, 0.0, 1.744741756190205E9, 0.0, 2025-04-15 13:29:16.190
68.0, -20729.81247065216, -11883.975491997659, 32200.7500768602, -17561.117417945556, -44227.597919416185, 40970.9711040224, -36235.66463418778, 53140.75835237007, -9847.038668041072, -23553.307181991004, -9924.666276534352, 9063.65472837147, 5478.859600884867, 4049.644356923623, 25572.384962127802, -187500.02235174447, -0.10700000000000001, 0.9265000000000001, 0.317, 192.0, 0.0, 0.0, 0.0, 0.0, 0.0, 0.0, 0.0, 0.0, 0.0, 1.7447417561982644E9, 0.0, 2025-04-15 13:29:16.198
70.0, -20728.87369738504, -11883.506105364098, 32200.906539071388, -17559.038705711213, -44117.15795006251, 40996.027409556795, -36246.97461688216, 53156.60573918888, -9838.545005148055, -23556.816405870486, -9886.24362781568, 9079.055080301176, 5507.603944254392, 4093.1855551225613, 25661.836643437942, -187500.02235174447, -0.10700000000000001, 0.9265000000000001, 0.317, 192.0, 0.0, 0.0, 0.0, 0.0, 0.0, 0.0, 0.0, 0.0, 0.0, 1.7447417562063E9, 0.0, 2025-04-15 13:29:16.206
72.0, -20719.82124088064, -11886.747108310117, 32208.12615253045, -17553.830749253124, -44237.253873020876, 40962.58919985166, -36246.527581993054, 53123.52515739503, -9825.17866196378, -23542.93597256374, -9908.081282148514, 9085.648844915491, 5491.04130161301, 4063.5024384859134, 25570.619174315834, -187500.02235174447, -0.10700000000000001, 0.9265000000000001, 0.317, 192.0, 0.0, 0.0, 0.0, 0.0, 0.0, 0.0, 0.0, 0.0, 0.0, 1.7447417562133508E9, 0.0, 2025-04-15 13:29:16.213
74.0, -20722.52580195973, -11862.473113831653, 32198.13492275893, -17569.320508160654, -44094.22506025137, 41001.704752648446, -36265.6606752468, 53160.18201830173, -9824.798682308041, -23532.676521858757, -9881.259188802147, 9109.27463880475, 5508.162737865775, 4095.957171435019, 25639.395492004813, -187500.02235174447, -0.10700000000000001, 0.9265000000000001, 0.317, 192.0, 0.0, 0.0, 0.0, 0.0, 0.0, 0.0, 0.0, 0.0, 0.0, 1.7447417562223675E9, 0.0, 2025-04-15 13:29:16.222
76.0, -20734.349874776588, -11917.12312902488, 32200.817132093565, -17563.732572046825, -44252.631873206126, 40951.88271425757, -36229.36144225138, 53119.74771258208, -9825.603345108431, -23546.91458307679, -9913.468052562244, 9088.08518506112, 5485.855696899378, 4057.6015779497125, 25553.520089807524, -187500.02235174447, -0.10750000000000001, 0.9272500000000001, 0.3185, 192.0, 126.0, 80.0, 14.5, 0.0, 5.0, 0.0, 0.0, 0.0, 0.0, 1.7447417562304466E9, 0.0, 2025-04-15 13:29:16.230
78.0, -20763.697715246406, -11930.489472209154, 32185.55089063059, -17592.85689507209, -44062.64204533602, 40997.83790085768, -36262.41967230078, 53192.413233806285, -9837.18154873628, -23591.551016754034, -9893.664406974842, 9073.958882565366, 5497.031569127032, 4070.6773484560667, 25642.994122862117, -187500.02235174447, -0.10750000000000001, 0.9272500000000001, 0.3185, 192.0, 0.0, 0.0, 0.0, 0.0, 0.0, 0.0, 0.0, 0.0, 0.0, 1.7447417562384455E9, 0.0, 2025-04-15 13:29:16.238
80.0, -20746.73274120483, -11925.348570984432, 32184.098027240998, -17577.791819309215, -44242.30536726778, 40928.636900024045, -36253.72484370766, 53108.8847647768, -9824.955144519228, -23588.511179508114, -9928.913107980861, 9063.498266160283, 5471.349414747884, 4031.9864788039304, 25556.24700263107, -187500.02235174447, -0.10750000000000001, 0.9272500000000001, 0.3185, 192.0, 0.0, 0.0, 0.0, 0.0, 0.0, 0.0, 0.0, 0.0, 0.0, 1.744741756245504E9, 0.0, 2025-04-15 13:29:16.245
82.0, -20758.24388959931, -11920.989980815648, 32198.179626247842, -17578.395316409507, -44102.048170810725, 40976.939019791964, -36247.53341049355, 53189.08282388244, -9820.12716771688, -23588.57823474148, -9900.146412866881, 9076.46227794436, 5498.7973569390015, 4063.6589006971003, 25604.41501193226, -187500.02235174447, -0.10750000000000001, 0.9272500000000001, 0.3185, 192.0, 0.0, 0.0, 0.0, 0.0, 0.0, 0.0, 0.0, 0.0, 0.0, 1.7447417562546103E9, 0.0, 2025-04-15 13:29:16.254
84.0, -20749.81728193966, -11916.78785285805, 32176.118454470452, -17586.888979302523, -44274.82715545025, 40910.08495212614, -36269.37106482638, 53113.17629971222, -9826.340952675457, -23593.786191199564, -9925.24742189019, 9059.005565524765, 5477.406737495272, 4035.94273757252, 25560.3820753553, -187500.02235174447, -0.10750000000000001, 0.9272500000000001, 0.3185, 192.0, 0.0, 0.0, 0.0, 0.0, 0.0, 0.0, 0.0, 0.0, 0.0, 1.7447417562616377E9, 0.0, 2025-04-15 13:29:16.261
86.0, -20763.071866401657, -11923.560431428008, 32191.94348954481, -17595.852028829104, -44111.52531045977, 40965.38316790857, -36263.26903859008, 53177.81754467697, -9821.110644472916, -23586.030135873574, -9907.611895514954, 9077.736327378312, 5497.165679593763, 4054.4276302370586, 25591.987442015106, -187500.02235174447, -0.10575000000000001, 0.930625, 0.31825000000000003, 192.0, 126.0, 96.0, 14.5, 24.0, 4.5, 120.0, 0.0, 0.0, 0.0, 1.7447417562696204E9, 0.0, 2025-04-15 13:29:16.269
88.0, -20755.896956431505, -11917.2125360027, 32175.984344003722, -17593.348633450107, -44255.8952278966, 40908.14035035853, -36252.98723614064, 53116.014971258046, -9834.812263824018, -23600.737583725167, -9929.941288225806, 9049.528425875715, 5473.2046095376745, 4031.4947404259137, 25575.178930184717, -187500.02235174447, -0.10575000000000001, 0.930625, 0.31825000000000003, 192.0, 0.0, 0.0, 0.0, 0.0, 0.0, 0.0, 0.0, 0.0, 0.0, 1.744741756277691E9, 0.0, 2025-04-15 13:29:16.277
90.0, -20767.92219494846, -11929.237774519655, 32198.827826837045, -17601.86464808758, -44108.887804614045, 40961.04692948424, -36256.16118385329, 53185.081861624945, -9824.150481718836, -23592.981528399174, -9908.885944948906, 9062.380678937518, 5498.238563327618, 4047.029202822352, 25593.373250171335, -187500.02235174447, -0.10575000000000001, 0.930625, 0.31825000000000003, 192.0, 0.0, 0.0, 0.0, 0.0, 0.0, 0.0, 0.0, 0.0, 0.0, 1.7447417562857168E9, 0.0, 2025-04-15 13:29:16.285
92.0, -20758.802683210695, -11912.719835367185, 32184.65682085238, -17585.14554323501, -44259.42680352054, 40907.71566721388, -36250.19326808373, 53100.45815711715, -9830.677191099787, -23599.128258124383, -9923.213413144758, 9053.037649755199, 5476.6691299282475, 4036.948566073009, 25596.860122306363, -187500.02235174447, -0.10575000000000001, 0.930625, 0.31825000000000003, 192.0, 0.0, 0.0, 0.0, 0.0, 0.0, 0.0, 0.0, 0.0, 0.0, 1.7447417562937496E9, 0.0, 2025-04-15 13:29:16.293
94.0, -20767.72102924836, -11917.033722047057, 32207.455600196794, -17590.599368882104, -44134.614662482105, 40969.02650225479, -36241.38668076834, 53177.594027232415, -9821.825900295486, -23589.226435330682, -9912.886907206406, 9067.275710973228, 5498.909115661278, 4048.32560400076, 25603.431535176223, -187500.02235174447, -0.10575000000000001, 0.930625, 0.31825000000000003, 192.0, 0.0, 0.0, 0.0, 0.0, 0.0, 0.0, 0.0, 0.0, 0.0, 1.7447417563017964E9, 0.0, 2025-04-15 13:29:16.301
96.0, -20760.009677411283, -11908.808280087505, 32181.147596972896, -17575.690755330415, -44232.85057936318, 40927.85458896811, -36253.79189894103, 53110.047055488474, -9831.146577733347, -23595.6190342449, -9915.233840374212, 9055.921024789934, 5481.586513708415, 4043.9223103430645, 25638.92610537125, -187500.02235174447, -0.105875, 0.9323125000000001, 0.318125, 192.0, 126.0, 88.0, 14.5, 24.0, 4.5, 120.0, 0.0, 0.0, 0.0, 1.7447417563098812E9, 0.0, 2025-04-15 13:29:16.309
98.0, -20768.05630541519, -11911.915172566793, 32203.0523065391, -17583.469162400863, -44132.804171181226, 40978.39188318156, -36250.7073582062, 53169.078012594946, -9826.966801520206, -23589.740525453155, -9909.310628093557, 9075.545856421693, 5488.18027832273, 4045.2410632659276, 25602.35865144237, -187500.02235174447, -0.105875, 0.9323125000000001, 0.318125, 192.0, 0.0, 0.0, 0.0, 0.0, 0.0, 0.0, 0.0, 0.0, 0.0, 1.7447417563168554E9, 0.0, 2025-04-15 13:29:16.316
100.0, -20762.870700701562, -11923.627486661373, 32180.7452655727, -17578.44001989842, -44217.20435824447, 40937.08585942815, -36267.22529735867, 53098.781776283, -9823.502281129633, -23588.980566141676, -9900.772261711629, 9072.79659185369, 5488.359092278372, 4056.5957494492236, 25637.339131514924, -187500.02235174447, -0.105875, 0.9323125000000001, 0.318125, 192.0, 0.0, 0.0, 0.0, 0.0, 0.0, 0.0, 0.0, 0.0, 0.0, 1.7447417563259692E9, 0.0, 2025-04-15 13:29:16.325
102.0, -20766.961069936882, -11921.951105827226, 32202.202940249797, -17585.458467657383, -44162.710805262424, 40971.66400810051, -36250.19326808373, 53139.39489595829, -9833.42645566779, -23598.636519746367, -9915.613820029954, 9059.609062625059, 5480.51362997456, 4035.9203858280644, 25579.91750000924, -187500.02235174447, -0.105875, 0.9323125000000001, 0.318125, 192.0, 0.0, 0.0, 0.0, 0.0, 0.0, 0.0, 0.0, 0.0, 0.0, 1.744741756334954E9, 0.0, 2025-04-15 13:29:16.334
104.0, -20760.54611927821, -11909.255314976612, 32175.872585281442, -17579.982290265834, -44215.013887287845, 40944.57369382068, -36267.292352592034, 53108.99652349908, -9825.357475919423, -23594.836723188964, -9892.837392429996, 9065.576978394625, 5489.163755078764, 4054.4276302370586, 25642.435329250733, -187500.02235174447, -0.105875, 0.9323125000000001, 0.318125, 192.0, 0.0, 0.0, 0.0, 0.0, 0.0, 0.0, 0.0, 0.0, 0.0, 1.7447417563420277E9, 0.0, 2025-04-15 13:29:16.342
106.0, -20776.415857841475, -11917.704274380718, 32198.93958555932, -17582.23981645582, -44206.22965171691, 40966.031368497774, -36257.569343753974, 53156.49398046661, -9821.37886540638, -23584.823141672987, -9904.281485591113, 9069.577940652125, 5491.443633013205, 4037.4626561954806, 25570.328601637913, -187500.02235174447, -0.1039375, 0.9311562500000001, 0.3170625, 192.0, 126.0, 104.0, 14.5, 8.0, 4.5, 112.0, 0.0, 0.0, 0.0, 1.7447417563490384E9, 0.0, 2025-04-15 13:29:16.349
108.0, -20773.130151406545, -11908.562410898498, 32175.51495737016, -17569.253452927285, -44211.236442474896, 40950.3627956346, -36257.099957120416, 53130.09657026489, -9838.075618514493, -23601.56459827001, -9895.72076746473, 9056.613928868048, 5484.55929572097, 4056.6628046825895, 25645.341056029923, -187500.02235174447, -0.1039375, 0.9311562500000001, 0.3170625, 192.0, 0.0, 0.0, 0.0, 0.0, 0.0, 0.0, 0.0, 0.0, 0.0, 1.7447417563580704E9, 0.0, 2025-04-15 13:29:16.358
110.0, -20774.583014796142, -11910.663474877296, 32204.48281818424, -17554.61306030906, -44265.17120184555, 40960.08580447266, -36238.927988878255, 53144.13346578282, -9820.998885750638, -23569.9145281213, -9908.617724015443, 9074.897655832488, 5487.196801566697, 4046.8727406111648, 25569.568642326434, -187500.02235174447, -0.1039375, 0.9311562500000001, 0.3170625, 192.0, 0.0, 0.0, 0.0, 0.0, 0.0, 0.0, 0.0, 0.0, 0.0, 1.7447417563661249E9, 0.0, 2025-04-15 13:29:16.366
112.0, -20798.49938136332, -11934.69160016675, 32169.167061944852, -17575.310775674676, -44212.59989888667, 40963.48326962987, -36277.21652713019, 53147.91091059577, -9847.843330841462, -23594.5685022555, -9891.451584273766, 9076.976368066833, 5494.416415025761, 4066.676386198567, 25660.89787017082, -187500.02235174447, -0.1039375, 0.9311562500000001, 0.3170625, 192.0, 0.0, 0.0, 0.0, 0.0, 0.0, 0.0, 0.0, 0.0, 0.0, 1.744741756373175E9, 0.0, 2025-04-15 13:29:16.373
114.0, -20796.48772436234, -11932.188204787757, 32185.975573775242, -17571.399220394997, -44278.02345490736, 40960.734005061866, -36240.090279589924, 53148.156779784775, -9846.94926106325, -23593.361508054913, -9927.236727146714, 9053.305870688662, 5480.379519507828, 4033.6628596380783, 25558.459825332146, -187500.02235174447, -0.1039375, 0.9311562500000001, 0.3170625, 192.0, 0.0, 0.0, 0.0, 0.0, 0.0, 0.0, 0.0, 0.0, 0.0, 1.7447417563812015E9, 0.0, 2025-04-15 13:29:16.381
116.0, -20810.390509413544, -11947.074466594991, 32165.076692709532, -17588.09597350311, -44177.619418814116, 40976.13435699158, -36260.34096006644, 53155.17522754374, -9853.967708822216, -23607.15253438384, -9899.654674488864, 9065.331109205617, 5495.377540037339, 4064.6870809420448, 25659.199137592215, -187500.02235174447, -0.1039375, 0.9311562500000001, 0.3170625, 192.0, 0.0, 0.0, 0.0, 0.0, 0.0, 0.0, 0.0, 0.0, 0.0, 1.7447417563902357E9, 0.0, 2025-04-15 13:29:16.390
118.0, -20816.514887394296, -11959.077353367491, 32180.56645161706, -17587.04544151371, -44295.43546383804, 40933.97896694887, -36250.9085239063, 53101.84396527338, -9861.746115892664, -23608.270121606605, -9937.429122618332, 9047.717934574835, 5470.455344969671, 4022.6881531105228, 25557.16342415374, -187500.02235174447, -0.098, 0.934, 0.316, 192.0, 126.0, 120.0, 14.5, 24.0, 4.5, 112.0, 0.0, 0.0, 0.0, 1.744741756397303E9, 0.0, 2025-04-15 13:29:16.397
120.0, -20844.946306341448, -11973.628339007895, 32184.053323752087, -17584.497342645805, -44181.598029327164, 40975.128528491085, -36247.42165177127, 53143.485265193616, -9852.492493688165, -23599.888217435866, -9893.798517441573, 9065.196998738886, 5502.306580818485, 4064.8435431532316, 25656.628686979853, -187500.02235174447, -0.098, 0.934, 0.316, 192.0, 0.0, 0.0, 0.0, 0.0, 0.0, 0.0, 0.0, 0.0, 0.0, 1.744741756405311E9, 0.0, 2025-04-15 13:29:16.405
122.0, -20912.873257741125, -12048.417275955353, 32174.911460269865, -17589.90646480399, -44330.12537123268, 40930.06741166919, -36248.96392213868, 53097.12774719331, -9887.025938871615, -23617.702557766745, -9946.280413422635, 9035.424475124417, 5465.470905956138, 4024.7892170893215, 25573.189624928193, -187500.02235174447, -0.098, 0.934, 0.316, 192.0, 0.0, 0.0, 0.0, 0.0, 0.0, 0.0, 0.0, 0.0, 0.0, 1.7447417564133584E9, 0.0, 2025-04-15 13:29:16.413
124.0, -21012.986721156445, -12151.034134749669, 32164.65200956488, -17601.61877889857, -44191.05281723176, 40968.44535689895, -36262.57613451197, 53143.86524484936, -9946.772151800651, -23655.02997100711, -9958.037431006125, 9006.50131779925, 5470.611807180859, 4049.8231708792655, 25642.88236413984, -187500.02235174447, -0.098, 0.934, 0.316, 192.0, 0.0, 0.0, 0.0, 0.0, 0.0, 0.0, 0.0, 0.0, 0.0, 1.744741756422403E9, 0.0, 2025-04-15 13:29:16.422
126.0, -21097.40925996414, -12260.982365725324, 32136.98054992921, -17618.62845642906, -44326.43733339755, 40925.977042433864, -36270.46630030469, 53098.06652046043, -9998.158812303402, -23677.471122440234, -10016.956629390315, 8962.848360878035, 5435.74308583058, 4019.8941850536094, 25561.119682922326, -187500.02235174447, -0.098, 0.934, 0.316, 192.0, 0.0, 0.0, 0.0, 0.0, 0.0, 0.0, 0.0, 0.0, 0.0, 1.7447417564294639E9, 0.0, 2025-04-15 13:29:16.429
128.0, -21150.517004789952, -12335.637192206048, 32126.654043990857, -17627.278581533265, -44159.715671505415, 40963.70678707442, -36285.33021036747, 53143.060582048965, -10062.129504934492, -23725.50502127469, -10032.759312720218, 8934.819273331079, 5431.965641017633, 4029.5724904027575, 25609.31004396797, -187500.02235174447, -0.098, 0.93, 0.318, 192.0, 126.0, 120.0, 14.5, 8.0, 4.5, 120.0, 0.0, 0.0, 0.0, 1.744741756437488E9, 0.0, 2025-04-15 13:29:16.437
130.0, -21165.693839275104, -12367.711945499415, 32120.79788694357, -17615.230991271852, -44364.99409258296, 40906.486321268836, -36276.30010560752, 53063.35426132134, -10050.283080373178, -23712.54100949061, -10060.430772355887, 8933.455816919306, 5421.460321123639, 4008.025408747841, 25525.647464471756, -187500.02235174447, -0.098, 0.93, 0.318, 192.0, 0.0, 0.0, 0.0, 0.0, 0.0, 0.0, 0.0, 0.0, 0.0, 1.744741756445547E9, 0.0, 2025-04-15 13:29:16.445
132.0, -21198.237979202033, -12388.901399243046, 32106.336308280985, -17637.02394211578, -44184.30259040625, 40969.473537143895, -36296.79665527304, 53142.144160526295, -10079.742679565274, -23744.973390695264, -10059.022612455203, 8909.04771197411, 5432.278565440008, 4021.5705658877573, 25580.051610475974, -187500.02235174447, -0.098, 0.93, 0.318, 192.0, 0.0, 0.0, 0.0, 0.0, 0.0, 0.0, 0.0, 0.0, 0.0, 1.7447417564536092E9, 0.0, 2025-04-15 13:29:16.453
134.0, -21210.263217718988, -12409.30854193074, 32088.812540628023, -17636.2639828043, -44350.80073485384, 40907.536853258236, -36289.688800536256, 53063.66718574372, -10087.163458724435, -23737.46320455828, -10090.583275626097, 8891.009854198677, 5406.886983738778, 3998.4365103765144, 25531.593028496867, -187500.02235174447, -0.098, 0.93, 0.318, 192.0, 0.0, 0.0, 0.0, 0.0, 0.0, 0.0, 0.0, 0.0, 0.0, 1.7447417564616559E9, 0.0, 2025-04-15 13:29:16.461
136.0, -21204.988206027534, -12398.557352847738, 32109.398497271362, -17643.59535498564, -44190.78459629829, 40957.62711258258, -36292.6168790599, 53134.90219532278, -10095.098328006068, -23752.304762876603, -10077.99924349776, 8880.795106982601, 5421.795597290468, 4010.5288041268354, 25555.82231948642, -187500.02235174447, -0.098, 0.93, 0.318, 192.0, 0.0, 0.0, 0.0, 0.0, 0.0, 0.0, 0.0, 0.0, 0.0, 1.744741756469656E9, 0.0, 2025-04-15 13:29:16.469
138.0, -21170.231243399532, -12368.918939700001, 32102.69297393477, -17625.78101465476, -44368.99505484045, 40889.18607106043, -36286.13487316786, 53042.678897700185, -10074.400612640455, -23729.17070736536, -10077.37339465301, 8901.358711881485, 5414.173652431208, 4004.3150191682603, 25535.303418076448, -187500.02235174447, -0.10400000000000001, 0.924, 0.322, 192.0, 126.0, 96.0, 14.0, 112.0, 5.0, 8.0, 0.0, 0.0, 0.0, 1.744741756477723E9, 0.0, 2025-04-15 13:29:16.477
140.0, -21159.681220016628, -12328.931668869456, 32128.956273669755, -17632.017151357788, -44205.46969240543, 40963.662083585514, -36273.99787592863, 53145.005183816575, -10064.632900313485, -23726.488498030725, -10054.954594964338, 8920.38004641295, 5435.139588730287, 4018.2401559639165, 25549.072092660917, -187500.02235174447, -0.10400000000000001, 0.924, 0.322, 192.0, 0.0, 0.0, 0.0, 0.0, 0.0, 0.0, 0.0, 0.0, 0.0, 1.7447417564847353E9, 0.0, 2025-04-15 13:29:16.484
142.0, -21129.104033601765, -12310.603238416104, 32105.710459436235, -17630.29606703473, -44313.00393497991, 40901.41247527748, -36292.01338195961, 53066.39409856726, -10062.88946424597, -23717.279579315138, -10054.149932163946, 8923.15166272541, 5421.527376357005, 4010.551155871291, 25569.099255692872, -187500.02235174447, -0.10400000000000001, 0.924, 0.322, 192.0, 0.0, 0.0, 0.0, 0.0, 0.0, 0.0, 0.0, 0.0, 0.0, 1.7447417564938025E9, 0.0, 2025-04-15 13:29:16.493
144.0, -21102.773678633414, -12267.844351273103, 32142.255561620663, -17625.982180354855, -44200.79817781427, 40944.0149002093, -36269.058140404006, 53131.99646854359, -10035.665039499407, -23705.83548615402, -10040.850644213038, 8931.287697707141, 5437.978260276111, 4007.7571878143776, 25552.24604037357, -187500.02235174447, -0.10400000000000001, 0.924, 0.322, 192.0, 0.0, 0.0, 0.0, 0.0, 0.0, 0.0, 0.0, 0.0, 0.0, 1.7447417565018349E9, 0.0, 2025-04-15 13:29:16.501
146.0, -21082.433591179084, -12257.584900568118, 32119.456782276247, -17628.57498271167, -44302.900946486116, 40909.14617885902, -36267.98525667015, 53079.96160745163, -10023.058655626613, -23702.795648908097, -10031.977001664281, 8934.796921586623, 5437.732391087102, 4014.172138473051, 25597.463619406655, -187500.02235174447, -0.10400000000000001, 0.924, 0.322, 192.0, 0.0, 0.0, 0.0, 0.0, 0.0, 0.0, 0.0, 0.0, 0.0, 1.7447417565088696E9, 0.0, 2025-04-15 13:29:16.508
148.0, -21067.815550305313, -12234.1379206345, 32137.539343540593, -17640.510814250807, -44226.413276960055, 40944.05960369821, -36263.09022463444, 53127.950802797175, -10015.12378634498, -23708.383585021926, -10037.006144166726, 8933.880500063957, 5438.469998654127, 3996.5366120978133, 25551.419025828724, -187500.02235174447, -0.108, 0.926, 0.324, 192.0, 126.0, 80.0, 14.0, 120.0, 5.0, 16.0, 0.0, 0.0, 0.0, 1.7447417565168853E9, 0.0, 2025-04-15 13:29:16.516
150.0, -21036.679570279073, -12200.185620806888, 32110.53843623858, -17633.71588393639, -44293.62497253716, 40905.793417190725, -36284.72671326718, 53066.84113345637, -10008.686483941852, -23701.968634363253, -10026.165548105902, 8938.261441977196, 5436.1677689752305, 4005.2314406909277, 25592.5909391154, -187500.02235174447, -0.108, 0.926, 0.324, 192.0, 0.0, 0.0, 0.0, 0.0, 0.0, 0.0, 0.0, 0.0, 0.0, 1.7447417565269608E9, 0.0, 2025-04-15 13:29:16.526
152.0, -21017.88175319216, -12160.913605798914, 32135.997073173177, -17627.81502340019, -44247.53567547032, 40940.72919377437, -36268.901678192815, 53116.640820102795, -9980.4562306948, -23683.34963123198, -10022.343399804044, 8952.901834595423, 5440.749876588568, 3993.586181829713, 25524.038138870972, -187500.02235174447, -0.108, 0.926, 0.324, 192.0, 0.0, 0.0, 0.0, 0.0, 0.0, 0.0, 0.0, 0.0, 0.0, 1.744741756533997E9, 0.0, 2025-04-15 13:29:16.533
154.0, -20991.685508690538, -12136.0137624757, 32110.94076763878, -17620.461299474395, -44267.27226582435, 40911.35900156009, -36287.25246039063, 53080.25218012955, -9982.758460373696, -23688.669346412345, -10003.143251316937, 8967.475171980283, 5433.284393940496, 4011.4452256495033, 25583.471427377634, -187500.02235174447, -0.108, 0.926, 0.324, 192.0, 0.0, 0.0, 0.0, 0.0, 0.0, 0.0, 0.0, 0.0, 0.0, 1.7447417565420125E9, 0.0, 2025-04-15 13:29:16.542
156.0, -20979.369697495666, -12126.715436782293, 32132.957235927253, -17626.943305366436, -44263.36071054467, 40925.507655800306, -36278.37881784187, 53109.26474443254, -9954.930538526838, -23666.5858228905, -10007.278324041168, 8972.817238905101, 5436.301879441962, 3998.9953039878974, 25515.20919981113, -187500.02235174447, -0.108, 0.926, 0.324, 192.0, 0.0, 0.0, 0.0, 0.0, 0.0, 0.0, 0.0, 0.0, 0.0, 1.74474175654906E9, 0.0, 2025-04-15 13:29:16.549
158.0, -20953.016990782857, -12093.992482899725, 32117.73569795319, -17616.30387500571, -44241.83598063421, 40909.59321374813, -36288.23593714666, 53087.3823866108, -9954.528207126643, -23668.843349080485, -9983.808992363096, 8975.767669173201, 5443.968527790133, 4017.323734441249, 25602.604520631376, -187500.02235174447, -0.108, 0.93, 0.32, 192.0, 126.0, 80.0, 14.5, 8.0, 5.0, 0.0, 0.0, 0.0, 0.0, 1.7447417565570831E9, 0.0, 2025-04-15 13:29:16.557
160.0, -20944.65743835657, -12070.590206455017, 32135.97472142872, -17612.682892403947, -44273.41899554956, 40917.41632430748, -36267.31470433649, 53099.20645942765, -9937.250308662691, -23654.40412216236, -9993.509649456699, 8986.518858256204, 5439.297013198974, 3996.5366120978133, 25510.895313131252, -187500.02235174447, -0.108, 0.93, 0.32, 192.0, 0.0, 0.0, 0.0, 0.0, 0.0, 0.0, 0.0, 0.0, 0.0, 1.7447417565661433E9, 0.0, 2025-04-15 13:29:16.566
162.0, -20925.99373173639, -12066.902168619892, 32121.870770677422, -17608.43606095744, -44209.22478547392, 40923.540702288235, -36273.75200673962, 53104.973209497126, -9933.852843505483, -23662.048418766073, -9961.501951396698, 8991.123317613998, 5456.038469795999, 4025.0127345338747, 25614.92033182625, -187500.02235174447, -0.108, 0.93, 0.32, 192.0, 0.0, 0.0, 0.0, 0.0, 0.0, 0.0, 0.0, 0.0, 0.0, 1.744741756573158E9, 0.0, 2025-04-15 13:29:16.573
164.0, -20908.984054205903, -12045.310383476066, 32143.55196279907, -17597.707223618894, -44306.96896397698, 40908.74384745883, -36261.23502984465, 53093.55146808046, -9914.809157229562, -23640.099005710963, -9976.2541027372, 8998.678207239891, 5449.779981348513, 3996.4025016310816, 25530.788365696477, -187500.02235174447, -0.108, 0.93, 0.32, 192.0, 0.0, 0.0, 0.0, 0.0, 0.0, 0.0, 0.0, 0.0, 0.0, 1.7447417565822341E9, 0.0, 2025-04-15 13:29:16.582
166.0, -20905.675996026515, -12040.370647951442, 32135.013596417142, -17602.468145187875, -44197.3336574237, 40938.784592006756, -36266.107710135904, 53129.67188712024, -9909.042407160094, -23654.381770417902, -9942.592375587508, 9005.473137554305, 5456.709022129658, 4028.4325514355364, 25630.857125622886, -187500.02235174447, -0.108, 0.93, 0.32, 192.0, 0.0, 0.0, 0.0, 0.0, 0.0, 0.0, 0.0, 0.0, 0.0, 1.7447417565892472E9, 0.0, 2025-04-15 13:29:16.589
168.0, -20902.010309935846, -12034.827415326527, 32142.903762209866, -17597.52840966325, -44330.46064739951, 40915.13644637304, -36242.973654624664, 53106.627238586814, -9897.62066574343, -23635.405139375347, -9964.83236132054, 9005.07080615411, 5447.433048180706, 4000.9175540110537, 25540.24315360107, -187500.02235174447, -0.11, 0.928, 0.32, 192.0, 126.0, 72.0, 14.5, 0.0, 5.0, 0.0, 0.0, 0.0, 0.0, 1.7447417565983024E9, 0.0, 2025-04-15 13:29:16.598
170.0, -20901.85384772466, -12039.47657817323, 32131.906703937853, -17611.0065115698, -44192.95271551046, 40954.5649235922, -36258.351654809914, 53152.76123914257, -9914.049197918082, -23654.11354948444, -9942.570023843053, 9007.93182944439, 5459.7041558866695, 4027.136150257129, 25627.79493663251, -187500.02235174447, -0.11, 0.928, 0.32, 192.0, 0.0, 0.0, 0.0, 0.0, 0.0, 0.0, 0.0, 0.0, 0.0, 1.744741756605333E9, 0.0, 2025-04-15 13:29:16.605
172.0, -20882.921920171015, -12011.223973181723, 32143.97664594372, -17595.852028829104, -44359.87554310269, 40904.318202056675, -36242.906599391295, 53092.34447387987, -9903.879154190918, -23646.178680202804, -9971.604939890498, 9003.237963108773, 5436.078361997409, 3993.005036473875, 25534.185830853683, -187500.02235174447, -0.11, 0.928, 0.32, 192.0, 0.0, 0.0, 0.0, 0.0, 0.0, 0.0, 0.0, 0.0, 0.0, 1.744741756613424E9, 0.0, 2025-04-15 13:29:16.613
174.0, -20876.88694916808, -12005.881906256904, 32151.352721613974, -17593.19217123892, -44212.30932620875, 40952.977949735876, -36258.68693097674, 53152.71653565366, -9889.641092972886, -23639.271991166115, -9935.43981736181, 9019.241812138775, 5457.133705274308, 4032.0535340372962, 25610.897017824296, -187500.02235174447, -0.11, 0.928, 0.32, 192.0, 0.0, 0.0, 0.0, 0.0, 0.0, 0.0, 0.0, 0.0, 0.0, 1.7447417566214E9, 0.0, 2025-04-15 13:29:16.621
176.0, -20852.41178898952, -11993.856667739949, 32149.385768101904, -17584.318528690164, -44401.047456389366, 40892.96351587338, -36256.07177687547, 53080.498049318565, -9878.845200400972, -23618.01548218912, -9956.20458796079, 9020.73937901728, 5442.381553933806, 4004.940868013009, 25532.48709827508, -187500.02235174447, -0.11, 0.928, 0.32, 192.0, 0.0, 0.0, 0.0, 0.0, 0.0, 0.0, 0.0, 0.0, 0.0, 1.744741756629464E9, 0.0, 2025-04-15 13:29:16.629
178.0, -20846.957963342426, -11989.296911871066, 32157.96883797274, -17591.24756947131, -44237.94677709899, 40948.32878688917, -36265.772433969076, 53148.20148327369, -9880.05219460156, -23621.591761301966, -9926.700285279785, 9039.31367865964, 5464.532132689015, 4031.673554381556, 25586.757133812564, -187500.02235174447, -0.108, 0.928, 0.322, 192.0, 126.0, 80.0, 14.5, 0.0, 5.0, 8.0, 0.0, 0.0, 0.0, 1.74474175663851E9, 0.0, 2025-04-15 13:29:16.638
180.0, -20838.59841091614, -11978.948054188259, 32153.40908210386, -17588.29713920321, -44396.75592145394, 40894.41637926297, -36269.77339622658, 53073.278435859494, -9868.988081096182, -23612.271083864103, -9940.40190463089, 9038.17373969242, 5453.1327430168085, 4010.3723419156486, 25522.18294408118, -187500.02235174447, -0.108, 0.928, 0.322, 192.0, 0.0, 0.0, 0.0, 0.0, 0.0, 0.0, 0.0, 0.0, 0.0, 1.7447417566456428E9, 0.0, 2025-04-15 13:29:16.645
182.0, -20844.275754007787, -11975.79645822006, 32167.17775668833, -17603.496325432818, -44182.26858166082, 40956.82244978219, -36274.55666954001, 53152.11303855337, -9874.598368954465, -23634.756938786144, -9920.017113687649, 9027.668419798425, 5466.253217012074, 4015.513243140369, 25568.24988940357, -187500.02235174447, -0.108, 0.928, 0.322, 192.0, 0.0, 0.0, 0.0, 0.0, 0.0, 0.0, 0.0, 0.0, 0.0, 1.7447417566536095E9, 0.0, 2025-04-15 13:29:16.653
184.0, -20817.87834380607, -11970.610853506429, 32163.087387453008, -17592.72278460536, -44319.2624234274, 40898.41734152047, -36267.91820143678, 53087.94118022218, -9862.126095548403, -23614.7744792431, -9928.019038202649, 9020.73937901728, 5455.859655840356, 4003.1750802010397, 25536.041025643473, -187500.02235174447, -0.108, 0.928, 0.322, 192.0, 0.0, 0.0, 0.0, 0.0, 0.0, 0.0, 0.0, 0.0, 0.0, 1.7447417566606157E9, 0.0, 2025-04-15 13:29:16.660
186.0, -20818.951227539925, -11957.691545211263, 32182.443998151306, -17598.131906763545, -44143.06362188621, 40945.89244674354, -36271.71799799419, 53157.23158803363, -9863.33308974899, -23621.90468572434, -9911.322285094535, 9029.613021566036, 5470.231827525119, 4011.355818671682, 25556.314057864438, -187500.02235174447, -0.108, 0.928, 0.322, 192.0, 0.0, 0.0, 0.0, 0.0, 0.0, 0.0, 0.0, 0.0, 0.0, 1.744741756669664E9, 0.0, 2025-04-15 13:29:16.669
188.0, -20811.664558847497, -11973.874208196905, 32148.759919257158, -17601.261150987288, -44283.2537631099, 40892.51648098427, -36261.07856763346, 53093.75263378056, -9863.735421149186, -23610.214723374218, -9922.051122433082, 9045.013373495744, 5461.872275098834, 4006.8184145472546, 25547.842746715876, -187500.02235174447, -0.107, 0.927, 0.322, 192.0, 126.0, 88.0, 14.0, 120.0, 5.0, 8.0, 0.0, 0.0, 0.0, 1.744741756677705E9, 0.0, 2025-04-15 13:29:16.677
190.0, -20805.137849466544, -11964.553530759042, 32172.139843957408, -17605.798555111713, -44152.49605804635, 40955.079013714676, -36248.561590738485, 53176.94582664321, -9860.51676994762, -23619.66951127881, -9917.848994475484, 9045.907443273956, 5468.309577501962, 4006.997228502897, 25552.089578162384, -187500.02235174447, -0.107, 0.927, 0.322, 192.0, 0.0, 0.0, 0.0, 0.0, 0.0, 0.0, 0.0, 0.0, 0.0, 1.7447417566857407E9, 0.0, 2025-04-15 13:29:16.685
192.0, -20791.72680279336, -11968.152161616346, 32151.84445999199, -17602.021110298767, -44295.16724290458, 40902.217138077875, -36265.75008222462, 53097.91005824925, -9854.772371622608, -23613.545133298056, -9919.63713403191, 9040.900652515968, 5459.659452397758, 4008.5618506147684, 25570.01567721554, -187500.02235174447, -0.107, 0.927, 0.322, 192.0, 0.0, 0.0, 0.0, 0.0, 0.0, 0.0, 0.0, 0.0, 0.0, 1.744741756692773E9, 0.0, 2025-04-15 13:29:16.692
194.0, -20792.3079481492, -11946.2698037946, 32177.12428297094, -17609.352482480106, -44200.41819815853, 40958.09649921614, -36245.633512214845, 53175.18003883124, -9849.385601208878, -23604.38091807138, -9917.692532264296, 9061.419553925938, 5473.495182215594, 4019.961240286975, 25540.645485001267, -187500.02235174447, -0.107, 0.927, 0.322, 192.0, 0.0, 0.0, 0.0, 0.0, 0.0, 0.0, 0.0, 0.0, 0.0, 1.7447417567018244E9, 0.0, 2025-04-15 13:29:16.701
196.0, -20778.02518344226, -11957.89271091136, 32154.101986181973, -17606.782031867748, -44290.87570796916, 40915.158798117496, -36257.05525363151, 53111.544622366986, -9862.081392059492, -23608.806563473532, -9922.945192211293, 9033.54692859017, 5455.9490628181775, 4024.588051389224, 25590.534578625513, -187500.02235174447, -0.107, 0.927, 0.322, 192.0, 0.0, 0.0, 0.0, 0.0, 0.0, 0.0, 0.0, 0.0, 0.0, 1.7447417567098782E9, 0.0, 2025-04-15 13:29:16.709
198.0, -20780.975613710358, -11952.3718300309, 32174.28561142512, -17618.427290728963, -44214.07511402072, 40955.146068948045, -36250.997930884114, 53165.345271270904, -9852.023107054605, -23606.794906472554, -9926.767340513152, 9034.9327367464, 5466.499086201083, 4018.3072111972824, 25542.880659446797, -187500.02235174447, -0.1065, 0.9235, 0.32, 192.0, 126.0, 88.0, 14.0, 96.0, 4.5, 120.0, 0.0, 0.0, 0.0, 1.7447417567168996E9, 0.0, 2025-04-15 13:29:16.716
200.0, -20772.25843337279, -11962.698335969251, 32154.30315188207, -17613.979293582357, -44247.602730703686, 40922.15489413201, -36269.41576831529, 53101.19576468418, -9851.598423909954, -23605.140877382863, -9911.903430450373, 9048.187321208397, 5471.639987425803, 4033.0817142822407, 25601.48693340861, -187500.02235174447, -0.1065, 0.9235, 0.32, 192.0, 0.0, 0.0, 0.0, 0.0, 0.0, 0.0, 0.0, 0.0, 0.0, 1.744741756724947E9, 0.0, 2025-04-15 13:29:16.724
202.0, -20770.067962416168, -11943.811111904515, 32192.9493180453, -17606.916142334478, -44208.88950930709, 40948.03821421125, -36248.561590738485, 53131.99646854359, -9842.545967405555, -23596.267234834104, -9919.63713403191, 9050.310736931651, 5473.070499070943, 4016.3626094296706, 25537.873868688806, -187500.02235174447, -0.1065, 0.9235, 0.32, 192.0, 0.0, 0.0, 0.0, 0.0, 0.0, 0.0, 0.0, 0.0, 0.0, 1.7447417567339957E9, 0.0, 2025-04-15 13:29:16.733
204.0, -20752.745360463305, -11938.781969402073, 32178.063056238065, -17591.58284563814, -44203.0333522598, 40928.52514130177, -36272.29914335003, 53100.01112222805, -9847.32924071899, -23598.122429623894, -9895.988988398194, 9057.284481201707, 5479.708967174169, 4043.139999287129, 25620.284750495524, -187500.02235174447, -0.1065, 0.9235, 0.32, 192.0, 0.0, 0.0, 0.0, 0.0, 0.0, 0.0, 0.0, 0.0, 0.0, 1.7447417567410128E9, 0.0, 2025-04-15 13:29:16.741
206.0, -20763.720066990863, -11948.862606151415, 32192.12230350045, -17588.47595315885, -44202.45220690396, 40944.931321731965, -36266.21946885818, 53119.68065734871, -9828.218499209703, -23579.548129981536, -9904.460299546756, 9074.65178664348, 5482.257066042074, 4030.578318903246, 25542.120700135318, -187500.02235174447, -0.1065, 0.9235, 0.32, 192.0, 0.0, 0.0, 0.0, 0.0, 0.0, 0.0, 0.0, 0.0, 0.0, 1.744741756749072E9, 0.0, 2025-04-15 13:29:16.749
208.0, -20752.67830522994, -11938.334934512966, 32173.100968968985, -17575.869569286057, -44157.07816565969, 40940.25980714081, -36270.868631704885, 53107.09662522038, -9844.781141851085, -23592.445086532247, -9887.964712138739, 9074.852952343577, 5479.373691007339, 4051.5666069467793, 25618.16133477227, -187500.02235174447, -0.10325000000000001, 0.92275, 0.32, 192.0, 126.0, 112.0, 14.0, 104.0, 5.0, 0.0, 0.0, 0.0, 0.0, 1.7447417567570937E9, 0.0, 2025-04-15 13:29:16.757
210.0, -20753.77354070825, -11943.006449104125, 32190.46827441076, -17577.545950120206, -44213.71748610944, 40939.1645716625, -36253.97071289668, 53129.426017931226, -9827.682057342776, -23578.609356714413, -9907.589543770498, 9078.60804541207, 5473.294016515496, 4029.5277869138467, 25519.456031257636, -187500.02235174447, -0.10325000000000001, 0.92275, 0.32, 192.0, 0.0, 0.0, 0.0, 0.0, 0.0, 0.0, 0.0, 0.0, 0.0, 1.7447417567651293E9, 0.0, 2025-04-15 13:29:16.765
212.0, -20754.33233431963, -11944.593422960452, 32180.7452655727, -17584.944377534914, -44145.92464517649, 40950.29574040124, -36260.02803564406, 53141.92064308174, -9830.85600505543, -23590.29931906454, -9883.42730801431, 9078.65274890098, 5488.51555448956, 4059.032089594852, 25608.818305589954, -187500.02235174447, -0.10325000000000001, 0.92275, 0.32, 192.0, 0.0, 0.0, 0.0, 0.0, 0.0, 0.0, 0.0, 0.0, 0.0, 1.7447417567731607E9, 0.0, 2025-04-15 13:29:16.773
214.0, -20750.57724125114, -11944.79458866055, 32182.26518419566, -17599.517714919773, -44246.8427713922, 40925.53000754476, -36261.59265775593, 53127.816692330445, -9828.419664909801, -23589.651118475333, -9914.809157229562, 9065.062888272154, 5468.466039713149, 4021.302344954294, 25517.511429490023, -187500.02235174447, -0.10325000000000001, 0.92275, 0.32, 192.0, 0.0, 0.0, 0.0, 0.0, 0.0, 0.0, 0.0, 0.0, 0.0, 1.7447417567812276E9, 0.0, 2025-04-15 13:29:16.781
216.0, -20763.2506803573, -11945.398085760842, 32176.476082381738, -17603.406918454995, -44119.14725531903, 40953.894371258546, -36276.18834688525, 53168.161591072276, -9841.338973204967, -23603.86682794891, -9893.083261619004, 9062.648899870981, 5486.302731788484, 4047.833865622743, 25614.518000426055, -187500.02235174447, -0.10325000000000001, 0.92275, 0.32, 192.0, 0.0, 0.0, 0.0, 0.0, 0.0, 0.0, 0.0, 0.0, 0.0, 1.7447417567892683E9, 0.0, 2025-04-15 13:29:16.789
218.0, -20750.331372062134, -11939.251356035633, 32191.407047677883, -17592.700432860904, -44266.24408557941, 40914.801170206214, -36257.03290188705, 53134.05282903348, -9842.925947061294, -23572.484978733657, -9917.111386908458, 9055.071658500632, 5471.841153125901, 4025.973859545453, 25534.699920976152, -187500.02235174447, -0.10362500000000001, 0.922375, 0.317, 192.0, 126.0, 96.0, 14.0, 104.0, 4.5, 104.0, 0.0, 0.0, 0.0, 1.7447417567963057E9, 0.0, 2025-04-15 13:29:16.796
220.0, -20767.832787970638, -11938.536100213063, 32178.644201593903, -17605.86561034508, -44125.98688912236, 40958.18590619396, -36271.87446020538, 53181.68439646774, -9845.786970351573, -23581.448028260234, -9888.948188894772, 9058.51382714675, 5484.671054443247, 4058.2944820278267, 25614.786221359518, -187500.02235174447, -0.10362500000000001, 0.922375, 0.317, 192.0, 0.0, 0.0, 0.0, 0.0, 0.0, 0.0, 0.0, 0.0, 0.0, 1.744741756805375E9, 0.0, 2025-04-15 13:29:16.805
222.0, -20752.47713952984, -11938.022010090592, 32178.487739382716, -17600.791764353726, -44288.23820212343, 40913.393010305525, -36254.015416385584, 53119.54654688198, -9853.185397766281, -23573.110827578406, -9929.606012058975, 9049.081390986608, 5454.965586062144, 4026.1526735010953, 25525.133374349283, -187500.02235174447, -0.10362500000000001, 0.922375, 0.317, 192.0, 0.0, 0.0, 0.0, 0.0, 0.0, 0.0, 0.0, 0.0, 0.0, 1.7447417568133945E9, 0.0, 2025-04-15 13:29:16.813
224.0, -20739.803700423683, -11930.020085575592, 32197.84435008101, -17596.38847069603, -44151.57963652368, 40976.804909325234, -36244.381814525346, 53181.013844134075, -9838.187377236769, -23563.544280951533, -9894.759642453151, 9071.254321486274, 5490.460156257172, 4063.2789210413603, 25601.330471197423, -187500.02235174447, -0.10362500000000001, 0.922375, 0.317, 192.0, 0.0, 0.0, 0.0, 0.0, 0.0, 0.0, 0.0, 0.0, 0.0, 1.744741756821458E9, 0.0, 2025-04-15 13:29:16.821
226.0, -20749.68317147293, -11930.623582675886, 32178.59949810499, -17601.66348238748, -44307.32659188826, 40941.55620831921, -36251.444965773226, 53110.337628166395, -9833.024124267593, -23558.62689717137, -9913.736273495708, 9061.196036481386, 5477.831420639923, 4042.201226020006, 25554.548270052466, -187500.02235174447, -0.10362500000000001, 0.922375, 0.317, 192.0, 0.0, 0.0, 0.0, 0.0, 0.0, 0.0, 0.0, 0.0, 0.0, 1.7447417568284748E9, 0.0, 2025-04-15 13:29:16.828
228.0, -20751.761883707273, -11935.988001345158, 32179.582974861027, -17609.48659294684, -44106.45146446842, 40996.85442410164, -36257.05525363151, 53168.76508817257, -9862.148447292859, -23576.798865413533, -9906.67312224783, 9064.414687682949, 5477.9431793622, 4057.847447138721, 25616.93198882723, -187500.02235174447, -0.1068125, 0.9261874999999999, 0.3165, 192.0, 126.0, 72.0, 14.5, 8.0, 4.5, 112.0, 0.0, 0.0, 0.0, 1.7447417568375387E9, 0.0, 2025-04-15 13:29:16.837
230.0, -20739.088444601115, -11926.332047740467, 32162.573297330535, -17604.457450444395, -44273.57545776075, 40927.809885479204, -36263.22433510117, 53087.136517421786, -9840.534310404577, -23562.51610070659, -9921.134700910414, 9062.425382426427, 5470.053013569476, 4039.250795751905, 25558.59393579888, -187500.02235174447, -0.1068125, 0.9261874999999999, 0.3165, 192.0, 0.0, 0.0, 0.0, 0.0, 0.0, 0.0, 0.0, 0.0, 0.0, 1.7447417568456163E9, 0.0, 2025-04-15 13:29:16.845
232.0, -20747.35859004958, -11924.342742483943, 32181.326410928537, -17608.01137781279, -44092.99571430632, 40989.031313542284, -36252.31668380698, 53169.32388178395, -9836.46629291371, -23570.09334207694, -9901.286351834102, 9067.968615051344, 5490.013121368065, 4053.7794296478546, 25589.886378036306, -187500.02235174447, -0.1068125, 0.9261874999999999, 0.3165, 192.0, 0.0, 0.0, 0.0, 0.0, 0.0, 0.0, 0.0, 0.0, 0.0, 1.7447417568526337E9, 0.0, 2025-04-15 13:29:16.852
234.0, -20746.35276154909, -11919.939448826248, 32159.734625784713, -17604.72567137786, -44221.3394309687, 40929.86624596909, -36259.066910632486, 53100.055825716954, -9847.440999441267, -23570.540376966048, -9913.19983162878, 9056.882149801511, 5467.147286790287, 4040.256624252394, 25578.53169185301, -187500.02235174447, -0.1068125, 0.9261874999999999, 0.3165, 192.0, 0.0, 0.0, 0.0, 0.0, 0.0, 0.0, 0.0, 0.0, 0.0, 1.744741756860648E9, 0.0, 2025-04-15 13:29:16.860
236.0, -20746.419816782454, -11916.631390646862, 32189.574204632547, -17603.04929054371, -44066.5536006157, 40977.363702936615, -36262.15145136732, 53173.63776846383, -9848.290365730569, -23573.982545612165, -9901.264000089646, 9069.063850529654, 5481.340644519406, 4049.2420255234274, 25587.472389635135, -187500.02235174447, -0.1068125, 0.9261874999999999, 0.3165, 192.0, 0.0, 0.0, 0.0, 0.0, 0.0, 0.0, 0.0, 0.0, 0.0, 1.7447417568697095E9, 0.0, 2025-04-15 13:29:16.869
238.0, -20733.43345325392, -11918.240716247645, 32171.51399511266, -17593.080412516643, -44219.66305013455, 40916.63401325155, -36263.93959092374, 53104.61558158584, -9837.919156303305, -23552.6589814018, -9898.537087266099, 9066.158123750463, 5471.818801381445, 4049.733763901444, 25571.96027898315, -187500.02235174447, -0.10840625000000001, 0.92509375, 0.31625000000000003, 192.0, 126.0, 72.0, 14.0, 112.0, 4.5, 112.0, 0.0, 0.0, 0.0, 1.7447417568767264E9, 0.0, 2025-04-15 13:29:16.876
240.0, -20743.379979536534, -11924.298038995033, 32191.854082566988, -17598.44483118592, -44109.62541218107, 40961.40455739553, -36245.54410523702, 53180.611512733885, -9837.762694092118, -23565.19831004123, -9897.95594191026, 9068.639167385003, 5480.021891596543, 4048.1467900451175, 25558.258659632047, -187500.02235174447, -0.10840625000000001, 0.92509375, 0.31625000000000003, 192.0, 0.0, 0.0, 0.0, 0.0, 0.0, 0.0, 0.0, 0.0, 0.0, 1.7447417568847969E9, 0.0, 2025-04-15 13:29:16.884
242.0, -20749.3478953061, -11929.997733831136, 32158.192355417297, -17608.123136535065, -44231.39771597359, 40910.15200735951, -36267.1135386364, 53114.42799740172, -9832.37592367839, -23559.65507741631, -9900.682854733808, 9063.520617904738, 5472.84698162639, 4054.2711680258717, 25580.72216280963, -187500.02235174447, -0.10840625000000001, 0.92509375, 0.31625000000000003, 192.0, 0.0, 0.0, 0.0, 0.0, 0.0, 0.0, 0.0, 0.0, 0.0, 1.7447417568928332E9, 0.0, 2025-04-15 13:29:16.892
244.0, -20754.91347967547, -11928.254297763622, 32188.501320898693, -17613.755776137805, -44154.77593598079, 40943.76903102029, -36255.15535535281, 53179.60568423339, -9836.421589424801, -23567.165263553296, -9914.38447408491, 9062.581844637614, 5478.3678625068505, 4041.3742114751594, 25532.24122908607, -187500.02235174447, -0.10840625000000001, 0.92509375, 0.31625000000000003, 192.0, 0.0, 0.0, 0.0, 0.0, 0.0, 0.0, 0.0, 0.0, 0.0, 1.7447417569008732E9, 0.0, 2025-04-15 13:29:16.900
246.0, -20753.572375008152, -11919.738283126151, 32158.862907750954, -17618.606104684604, -44219.66305013455, 40891.77887341724, -36275.80836722951, 53126.341477196394, -9843.864720328418, -23566.98644959765, -9906.315494336546, 9068.594463896092, 5480.334816018917, 4054.7629064038883, 25586.175988456725, -187500.02235174447, -0.10840625000000001, 0.92509375, 0.31625000000000003, 192.0, 0.0, 0.0, 0.0, 0.0, 0.0, 0.0, 0.0, 0.0, 0.0, 1.7447417569088993E9, 0.0, 2025-04-15 13:29:16.908
248.0, -20766.782255981238, -11925.594440173441, 32180.052361494585, -17632.911221136, -44152.76427897981, 40908.8556061811, -36270.60041077142, 53157.455105478184, -9844.982307551183, -23570.428618243768, -9923.034599189115, 9049.148446219975, 5473.316368259951, 4028.7901793468213, 25538.589124511378, -187500.02235174447, -0.10840625000000001, 0.92509375, 0.31625000000000003, 192.0, 0.0, 0.0, 0.0, 0.0, 0.0, 0.0, 0.0, 0.0, 0.0, 1.744741756916932E9, 0.0, 2025-04-15 13:29:16.916
250.0, -20763.071866401657, -11931.562355943008, 32155.73366352721, -17623.903468120512, -44163.291950618266, 40883.218155290866, -36267.22529735867, 53119.72536083763, -9857.745153635164, -23586.924205651787, -9921.849956732984, 9039.961879248844, 5466.9237693457335, 4036.032144550341, 25603.744459598598, -187500.02235174447, -0.10200000000000001, 0.934, 0.308, 192.0, 126.0, 104.0, 14.5, 24.0, 4.5, 80.0, 0.0, 0.0, 0.0, 1.744741756925998E9, 0.0, 2025-04-15 13:29:16.925
252.0, -20766.894014703514, -11938.781969402073, 32170.262297423164, -17620.617761685582, -44136.78278169427, 40906.24045207983, -36257.05525363151, 53162.081916580435, -9839.66259237082, -23560.169167538785, -9929.561308570064, 9055.228120711818, 5472.690519415202, 4024.2751269668493, 25534.92343842071, -187500.02235174447, -0.10200000000000001, 0.934, 0.308, 192.0, 0.0, 0.0, 0.0, 0.0, 0.0, 0.0, 0.0, 0.0, 0.0, 1.7447417569320347E9, 0.0, 2025-04-15 13:29:16.932
254.0, -20763.63066001304, -11939.072542079992, 32142.277913365117, -17621.86945937508, -44104.93154584546, 40889.16371931598, -36281.776282999075, 53121.42409341623, -9860.449714714256, -23579.90575789282, -9918.564250298054, 9042.062943227642, 5467.951949590677, 4040.9495283305087, 25617.40137546079, -187500.02235174447, -0.10200000000000001, 0.934, 0.308, 192.0, 0.0, 0.0, 0.0, 0.0, 0.0, 0.0, 0.0, 0.0, 0.0, 1.7447417569410567E9, 0.0, 2025-04-15 13:29:16.941
0.0, -20749.3478953061, -11912.943352811737, 32176.431378892827, -17600.590598653627, -44142.61658699711, 40904.76523694578, -36230.680195174245, 53146.36864022835, -9842.56831915001, -23560.437388472248, -9930.947116726295, 9055.071658500632, 5466.029699567521, 4024.1857199890283, 25533.85055468685, -187500.02235174447, -0.10200000000000001, 0.934, 0.308, 192.0, 0.0, 0.0, 0.0, 0.0, 0.0, 0.0, 0.0, 0.0, 0.0, 1.7447417569490943E9, 0.0, 2025-04-15 13:29:16.949
