%OpenBCI Raw EXG Data
%Number of channels = 8
%Sample Rate = 250 Hz
%Board = OpenBCI_GUI$BoardCytonSerial
Sample Index, EXG Channel 0, EXG Channel 1, EXG Channel 2, EXG Channel 3, EXG Channel 4, EXG Channel 5, EXG Channel 6, EXG Channel 7, Accel Channel 0, Accel Channel 1, Accel Channel 2, Not Used, Digital Channel 0 (D11), Digital Channel 1 (D12), Digital Channel 2 (D13), Digital Channel 3 (D17), Not Used, Digital Channel 4 (D18), Analog Channel 0, Analog Channel 1, Analog Channel 2, Timestamp, Marker Channel, Timestamp (Formatted)
25.0, -27031.618598892524, 11962.608928991429, -25812.39799408889, -2023.8834051946885, -187500.02235174447, -16377.994880437242, -3603.592944573515, -36691.81903503168, 0.0, 0.0, 0.0, 192.0, 0.0, 0.0, 0.0, 0.0, 0.0, 0.0, 0.0, 0.0, 0.0, 1.741025871251059E9, 0.0, 2025-03-03 12:17:51.251
26.0, -26997.75570604273, 12078.39096526992, -25809.313453354058, -2023.704591239046, -187500.02235174447, -16375.111505402507, -3596.9991799592, -36683.88416575005, 0.0, 0.0, 0.0, 192.0, 0.0, 0.0, 0.0, 0.0, 0.0, 0.0, 0.0, 0.0, 0.0, 1.741025871251092E9, 0.0, 2025-03-03 12:17:51.251
27.0, -27021.91794179892, 12132.661000807406, -25814.00731968967, -2024.9562889285432, -187500.02235174447, -16379.917130460399, -3597.75913927068, -36693.38365714355, 0.0, 0.0, 0.0, 192.0, 0.0, 0.0, 0.0, 0.0, 0.0, 0.0, 0.0, 0.0, 0.0, 1.741025871251113E9, 0.0, 2025-03-03 12:17:51.251
28.0, -27057.680732927412, 12012.90035401587, -25805.62541551893, -2018.675448736602, -187500.02235174447, -16374.99974668023, -3596.350979369996, -36688.3098111522, 0.0, 0.0, 0.0, 192.0, 0.0, 0.0, 0.0, 0.0, 0.0, 0.0, 0.0, 0.0, 0.0, 1.741025871251134E9, 0.0, 2025-03-03 12:17:51.251
29.0, -27039.620523407524, 11967.101629626946, -25797.332918326014, -2016.3955708021608, -187500.02235174447, -16364.494426786236, -3593.9369909688226, -36685.38173262856, 0.0, 0.0, 0.0, 192.0, 0.0, 0.0, 0.0, 0.0, 0.0, 0.0, 0.0, 0.0, 0.0, 1.741025871251155E9, 0.0, 2025-03-03 12:17:51.251
30.0, -27009.53507537068, 12040.795331096093, -25800.66332824985, -2027.772608729912, -187500.02235174447, -16377.726659503778, -3604.822290518557, -36700.49151188034, 0.0, 0.0, 0.0, 192.0, 0.0, 0.0, 0.0, 0.0, 0.0, 0.0, 0.0, 0.0, 0.0, 1.741025871251175E9, 0.0, 2025-03-03 12:17:51.251
31.0, -27015.01125276223, 12128.503576338719, -25802.71968873974, -2032.35471634325, -187500.02235174447, -16383.851037484532, -3605.828119019046, -36699.44097989094, 0.058, 0.974, -0.15, 192.0, 1.0, 208.0, 30.0, 112.0, 251.0, 80.0, 0.0, 0.0, 0.0, 1.741025871251212E9, 0.0, 2025-03-03 12:17:51.251
32.0, -27056.36198000455, 12022.511604131652, -25803.032613162115, -2025.0680476508198, -187500.02235174447, -16383.426354339881, -3609.76202604318, -36691.304944909214, 0.058, 0.974, -0.15, 192.0, 0.0, 0.0, 0.0, 0.0, 0.0, 0.0, 0.0, 0.0, 0.0, 1.741025871251239E9, 0.0, 2025-03-03 12:17:51.251
33.0, -27038.614694907035, 11960.50786501263, -25792.81786594604, -2023.838701705778, -187500.02235174447, -16376.877293214477, -3594.8534124914904, -36688.80154953022, 0.058, 0.974, -0.15, 192.0, 0.0, 0.0, 0.0, 0.0, 0.0, 0.0, 0.0, 0.0, 0.0, 1.741025871251274E9, 0.0, 2025-03-03 12:17:51.251
34.0, -27005.57881660209, 12026.736083833704, -25781.86551116294, -2029.6948587530685, -187500.02235174447, -16375.245615869238, -3573.6192552589487, -36693.964802499395, 0.058, 0.974, -0.15, 192.0, 0.0, 0.0, 0.0, 0.0, 0.0, 0.0, 0.0, 0.0, 0.0, 1.7410258712513E9, 0.0, 2025-03-03 12:17:51.251
35.0, -26997.75570604273, 12135.343210142042, -25790.80620894506, -2043.4635333375377, -187500.02235174447, -16385.415659596405, -3576.6590925048704, -36713.321413197686, 0.058, 0.974, -0.15, 192.0, 0.0, 0.0, 0.0, 0.0, 0.0, 0.0, 0.0, 0.0, 0.0, 1.741025871251331E9, 0.0, 2025-03-03 12:17:51.251
36.0, -27063.11220683005, 12041.175310751834, -25810.028709176626, -2050.7949055188783, -187500.02235174447, -16398.20085742484, -3609.76202604318, -36724.7655063588, 0.058, 0.974, -0.15, 192.0, 0.0, 0.0, 0.0, 0.0, 0.0, 0.0, 0.0, 0.0, 0.0, 1.741025871251352E9, 0.0, 2025-03-03 12:17:51.251
37.0, -27064.74388417529, 11960.284347568077, -25808.598197531486, -2048.246806650973, -187500.02235174447, -16384.700403773833, -3616.221680190764, -36702.79374155924, 0.058, 0.974, -0.15, 192.0, 0.0, 0.0, 0.0, 0.0, 0.0, 0.0, 0.0, 0.0, 0.0, 1.741025871251378E9, 0.0, 2025-03-03 12:17:51.251
38.0, -27033.8314215936, 11986.748813003162, -25803.837275962505, -2042.2118356480405, -187500.02235174447, -16375.62559552498, -3608.443273120317, -36701.586747358655, 0.058, 0.974, -0.15, 192.0, 0.0, 0.0, 0.0, 0.0, 0.0, 0.0, 0.0, 0.0, 0.0, 1.741025871251408E9, 0.0, 2025-03-03 12:17:51.251
39.0, -27011.882008538487, 12123.005047202712, -25815.05785167907, -2051.5325130859032, -187500.02235174447, -16388.34373812005, -3604.7105317962805, -36733.88501809657, 0.058, 0.974, -0.15, 192.0, 0.0, 0.0, 0.0, 0.0, 0.0, 0.0, 0.0, 0.0, 0.0, 1.741025871251428E9, 0.0, 2025-03-03 12:17:51.251
40.0, -27073.572823235136, 12072.087773333524, -25826.30077914009, -2048.4032688621605, -187500.02235174447, -16390.33304337657, -3614.567651101071, -36702.25729969231, 0.058, 0.974, -0.15, 192.0, 0.0, 0.0, 0.0, 0.0, 0.0, 0.0, 0.0, 0.0, 0.0, 1.74102587125145E9, 0.0, 2025-03-03 12:17:51.251
41.0, -27083.184073350916, 11974.097725641457, -25820.556380815076, -2039.1719984021186, -187500.02235174447, -16381.77232525019, -3605.515194596672, -36685.18056692846, 0.056, 0.962, -0.14, 192.0, 1.0, 192.0, 30.0, 16.0, 251.0, 160.0, 0.0, 0.0, 0.0, 1.741025871251476E9, 0.0, 2025-03-03 12:17:51.251
42.0, -27046.191936277384, 11990.123926415912, -25807.525313797632, -2025.5597860288367, -187500.02235174447, -16376.698479258834, -3595.479261336239, -36695.93175601146, 0.056, 0.962, -0.14, 192.0, 0.0, 0.0, 0.0, 0.0, 0.0, 0.0, 0.0, 0.0, 0.0, 1.7410258712515E9, 0.0, 2025-03-03 12:17:51.251
43.0, -27008.90922652593, 12129.062369950101, -25801.06565965005, -2022.6317075051913, -187500.02235174447, -16370.507046044713, -3582.8505257189904, -36661.800642228205, 0.056, 0.962, -0.14, 192.0, 0.0, 0.0, 0.0, 0.0, 0.0, 0.0, 0.0, 0.0, 0.0, 1.741025871251521E9, 0.0, 2025-03-03 12:17:51.251
0.0, 0.0, 0.0, 0.0, 0.0, 0.0, 0.0, 0.0, 0.0, 0.062, 0.9520000000000001, -0.194, 192.0, 1.0, 240.0, 29.0, 192.0, 249.0, 240.0, 0.0, 0.0, 0.0, 1.741025871359473E9, 0.0, 2025-03-03 12:17:51.359
1.0, -27683.686039887198, 5661.629815295913, -26670.19089105021, -4428.171149274248, -187500.02235174447, -16926.48433762602, -4614.160014886858, -36833.52909487833, 0.062, 0.9520000000000001, -0.194, 192.0, 0.0, 0.0, 0.0, 0.0, 0.0, 0.0, 0.0, 0.0, 0.0, 1.741025871419168E9, 0.0, 2025-03-03 12:17:51.419
2.0, -27756.418616344767, 5550.988680242143, -26677.7457806761, -4432.730905143131, -187500.02235174447, -16923.466852124555, -4607.72271248373, -36803.2871846303, 0.062, 0.9520000000000001, -0.194, 192.0, 0.0, 0.0, 0.0, 0.0, 0.0, 0.0, 0.0, 0.0, 0.0, 1.741025871419195E9, 0.0, 2025-03-03 12:17:51.419
3.0, -27772.64598281932, 5482.748804420091, -26666.212280537165, -4421.2644602375585, -187500.02235174447, -16912.514497341454, -4591.584752986998, -36772.59823949316, 0.062, 0.9520000000000001, -0.194, 192.0, 0.0, 0.0, 0.0, 0.0, 0.0, 0.0, 0.0, 0.0, 0.0, 1.741025871419217E9, 0.0, 2025-03-03 12:17:51.419
4.0, -27744.639247016818, 5518.176319381752, -26680.450341755193, -4437.380067989835, -187500.02235174447, -16919.130613700225, -4621.3125731125565, -36796.514606060344, 0.062, 0.9520000000000001, -0.194, 192.0, 0.0, 0.0, 0.0, 0.0, 0.0, 0.0, 0.0, 0.0, 0.0, 1.741025871419239E9, 0.0, 2025-03-03 12:17:51.419
5.0, -27797.657584864806, 5608.142090814364, -26683.93721389022, -4447.416001250267, -187500.02235174447, -16921.92458175714, -4623.614802791453, -36812.22788241242, 0.062, 0.9520000000000001, -0.194, 192.0, 0.0, 0.0, 0.0, 0.0, 0.0, 0.0, 0.0, 0.0, 0.0, 1.741025871419284E9, 0.0, 2025-03-03 12:17:51.419
6.0, -27774.67999156475, 5540.058677203498, -26677.254042298086, -4435.726038900142, -187500.02235174447, -16921.25402942348, -4600.033712391104, -36805.36589686464, 0.062, 0.9520000000000001, -0.194, 192.0, 0.0, 0.0, 0.0, 0.0, 0.0, 0.0, 0.0, 0.0, 0.0, 1.741025871419319E9, 0.0, 2025-03-03 12:17:51.419
7.0, -27723.33803455091, 5456.50785642956, -26673.767170163057, -4430.719248142153, -187500.02235174447, -16924.78560504742, -4613.712979997752, -36813.8372080132, 0.062, 0.9520000000000001, -0.194, 192.0, 0.0, 0.0, 0.0, 0.0, 0.0, 0.0, 0.0, 0.0, 0.0, 1.74102587141934E9, 0.0, 2025-03-03 12:17:51.419
8.0, -27728.367177053355, 5471.3270630034285, -26693.928443661745, -4453.428620508745, -187500.02235174447, -16949.08195127034, -4642.189102433813, -36849.8458683307, 0.064, 0.9560000000000001, -0.22, 192.0, 2.0, 0.0, 29.0, 224.0, 249.0, 32.0, 0.0, 0.0, 0.0, 1.741025871419366E9, 0.0, 2025-03-03 12:17:51.419
9.0, -27717.481877503622, 5590.8194888615, -26686.351202291396, -4444.286757026524, -187500.02235174447, -16930.507651627977, -4639.439837865811, -36782.29889658676, 0.064, 0.9560000000000001, -0.22, 192.0, 0.0, 0.0, 0.0, 0.0, 0.0, 0.0, 0.0, 0.0, 0.0, 1.741025871419389E9, 0.0, 2025-03-03 12:17:51.419
10.0, -27802.664375622797, 5542.919700493777, -26699.918711175767, -4458.904797900295, -187500.02235174447, -16940.476529655043, -4653.856713039483, -36797.498082816375, 0.064, 0.9560000000000001, -0.22, 192.0, 0.0, 0.0, 0.0, 0.0, 0.0, 0.0, 0.0, 0.0, 0.0, 1.741025871419418E9, 0.0, 2025-03-03 12:17:51.419
11.0, -27830.22407653619, 5448.662394125748, -26696.409487296285, -4458.88244615584, -187500.02235174447, -16939.738922088018, -4649.58752984852, -36803.84597824168, 0.064, 0.9560000000000001, -0.22, 192.0, 0.0, 0.0, 0.0, 0.0, 0.0, 0.0, 0.0, 0.0, 0.0, 1.741025871419439E9, 0.0, 2025-03-03 12:17:51.419
12.0, -27782.748971313118, 5471.617635681348, -26681.165597577765, -4447.348946016901, -187500.02235174447, -16934.93329703013, -4648.067611225559, -36816.3406033922, 0.064, 0.9560000000000001, -0.22, 192.0, 0.0, 0.0, 0.0, 0.0, 0.0, 0.0, 0.0, 0.0, 0.0, 1.741025871419464E9, 0.0, 2025-03-03 12:17:51.419
13.0, -27720.588769982907, 5608.924401870299, -26678.393981265304, -4451.618129207865, -187500.02235174447, -16939.269535454456, -4643.820779779051, -36817.36878363715, 0.064, 0.9560000000000001, -0.22, 192.0, 0.0, 0.0, 0.0, 0.0, 0.0, 0.0, 0.0, 0.0, 0.0, 1.741025871419485E9, 0.0, 2025-03-03 12:17:51.419
14.0, -27734.53625852302, 5627.051666623553, -26685.23361506863, -4461.9446351462175, -187500.02235174447, -16951.31712571587, -4658.103544485992, -36820.788600538806, 0.064, 0.9560000000000001, -0.22, 192.0, 0.0, 0.0, 0.0, 0.0, 0.0, 0.0, 0.0, 0.0, 0.0, 1.741025871419507E9, 0.0, 2025-03-03 12:17:51.419
15.0, -27771.68485780774, 5524.926546207255, -26686.75353369159, -4462.88340841334, -187500.02235174447, -16954.759294361986, -4671.425184181355, -36820.74389704989, 0.064, 0.9560000000000001, -0.22, 192.0, 0.0, 0.0, 0.0, 0.0, 0.0, 0.0, 0.0, 0.0, 0.0, 1.741025871419528E9, 0.0, 2025-03-03 12:17:51.419
16.0, -27765.180500171246, 5529.486302076138, -26686.842940669412, -4475.087460885938, -187500.02235174447, -16962.716515388074, -4686.892591344427, -36840.16756298156, 0.064, 0.9560000000000001, -0.22, 192.0, 0.0, 0.0, 0.0, 0.0, 0.0, 0.0, 0.0, 0.0, 0.0, 1.741025871479524E9, 0.0, 2025-03-03 12:17:51.479
17.0, -27739.878325447837, 5642.764942975634, -26678.215167309663, -4474.640425996831, -187500.02235174447, -16963.27530899946, -4682.0646145420815, -36849.10826076368, 0.064, 0.9560000000000001, -0.22, 192.0, 0.0, 0.0, 0.0, 0.0, 0.0, 0.0, 0.0, 0.0, 0.0, 1.741025871479552E9, 0.0, 2025-03-03 12:17:51.479
18.0, -27735.63149400133, 5685.546181863092, -26668.22393753814, -4472.4499550402115, -187500.02235174447, -16946.06446576887, -4673.280378971145, -36825.10248721868, 0.066, 0.9580000000000001, -0.232, 192.0, 2.0, 16.0, 29.0, 240.0, 248.0, 192.0, 0.0, 0.0, 0.0, 1.741025871479574E9, 0.0, 2025-03-03 12:17:51.479
19.0, -27788.06868649348, 5582.549343413037, -26674.102446329885, -4465.342100303424, -187500.02235174447, -16953.21702399457, -4691.407643724399, -36837.66416760256, 0.066, 0.9580000000000001, -0.232, 192.0, 0.0, 0.0, 0.0, 0.0, 0.0, 0.0, 0.0, 0.0, 0.0, 1.741025871479597E9, 0.0, 2025-03-03 12:17:51.479
20.0, -27787.465189393188, 5557.113058222897, -26674.504777730082, -4464.403327036301, -187500.02235174447, -16959.207291508592, -4700.6165624399855, -36858.96538006847, 0.066, 0.9580000000000001, -0.232, 192.0, 0.0, 0.0, 0.0, 0.0, 0.0, 0.0, 0.0, 0.0, 0.0, 1.741025871479631E9, 0.0, 2025-03-03 12:17:51.479
21.0, -27718.644168215298, 5665.2060944087625, -26661.630172923826, -4447.59481520591, -187500.02235174447, -16952.032381538436, -4702.561164207597, -36842.33568219372, 0.066, 0.9580000000000001, -0.232, 192.0, 0.0, 0.0, 0.0, 0.0, 0.0, 0.0, 0.0, 0.0, 0.0, 1.741025871479656E9, 0.0, 2025-03-03 12:17:51.479
22.0, -27744.795709228005, 5717.710342134278, -26667.128702059832, -4452.512198986077, -187500.02235174447, -16946.802073335897, -4706.02568459817, -36857.266647489865, 0.066, 0.9580000000000001, -0.232, 192.0, 0.0, 0.0, 0.0, 0.0, 0.0, 0.0, 0.0, 0.0, 0.0, 1.741025871479681E9, 0.0, 2025-03-03 12:17:51.479
23.0, -27794.371878429876, 5604.096425067953, -26661.76428339056, -4460.312957800979, -187500.02235174447, -16950.333648959833, -4704.036379341648, -36871.12472905216, 0.066, 0.9580000000000001, -0.232, 192.0, 0.0, 0.0, 0.0, 0.0, 0.0, 0.0, 0.0, 0.0, 0.0, 1.741025871479705E9, 0.0, 2025-03-03 12:17:51.479
24.0, -27807.067669280492, 5552.754468054112, -26663.015981080054, -4464.671547969764, -187500.02235174447, -16941.92939304464, -4710.920716633883, -36831.91976927755, 0.066, 0.9580000000000001, -0.232, 192.0, 0.0, 0.0, 0.0, 0.0, 0.0, 0.0, 0.0, 0.0, 0.0, 1.741025871479726E9, 0.0, 2025-03-03 12:17:51.479
25.0, -27787.800465560016, 5617.172195574307, -26660.624344423337, -4458.591873477921, -187500.02235174447, -16946.623259380252, -4710.428978255865, -36812.40669636807, 0.066, 0.9580000000000001, -0.232, 192.0, 0.0, 0.0, 0.0, 0.0, 0.0, 0.0, 0.0, 0.0, 0.0, 1.741025871479755E9, 0.0, 2025-03-03 12:17:51.479
26.0, -27782.257232935102, 5705.7968623396, -26656.51162344356, -4449.248844295603, -187500.02235174447, -16954.111093772783, -4709.669018944385, -36835.65251060158, 0.066, 0.9580000000000001, -0.232, 192.0, 0.0, 0.0, 0.0, 0.0, 0.0, 0.0, 0.0, 0.0, 0.0, 1.741025871479776E9, 0.0, 2025-03-03 12:17:51.479
27.0, -27825.999596834135, 5610.801948404544, -26667.553385204483, -4449.673527440254, -187500.02235174447, -16962.492997943522, -4716.978039381271, -36847.76715609636, 0.066, 0.9580000000000001, -0.232, 192.0, 0.0, 0.0, 0.0, 0.0, 0.0, 0.0, 0.0, 0.0, 0.0, 1.741025871479798E9, 0.0, 2025-03-03 12:17:51.479
28.0, -27821.819820620993, 5545.043116217032, -26662.099559557388, -4447.483056483634, -187500.02235174447, -16953.440541439122, -4720.55431849412, -36837.82062981375, 0.078, 0.96, -0.24, 192.0, 2.0, 112.0, 30.0, 0.0, 248.0, 128.0, 0.0, 0.0, 0.0, 1.741025871479825E9, 0.0, 2025-03-03 12:17:51.479
29.0, -27733.418671300256, 5602.375340744894, -26639.770166846534, -4438.855283123885, -187500.02235174447, -16933.860413296272, -4712.440635256843, -36813.12195219063, 0.078, 0.96, -0.24, 192.0, 0.0, 0.0, 0.0, 0.0, 0.0, 0.0, 0.0, 0.0, 0.0, 1.741025871479849E9, 0.0, 2025-03-03 12:17:51.479
30.0, -27750.20483138619, 5705.707455361779, -26655.036408309512, -4453.674489697753, -187500.02235174447, -16936.028532508437, -4725.359943552011, -36825.951853507984, 0.078, 0.96, -0.24, 192.0, 0.0, 0.0, 0.0, 0.0, 0.0, 0.0, 0.0, 0.0, 0.0, 1.74102587147987E9, 0.0, 2025-03-03 12:17:51.479
31.0, -27813.862599594904, 5651.21390237974, -26665.206452036677, -4453.629786208843, -187500.02235174447, -16945.97505879105, -4732.378391310977, -36839.63112111463, 0.078, 0.96, -0.24, 192.0, 0.0, 0.0, 0.0, 0.0, 0.0, 0.0, 0.0, 0.0, 0.0, 1.741025871539857E9, 0.0, 2025-03-03 12:17:51.539
32.0, -27826.960721845713, 5554.229683188162, -26668.84978638289, -4481.189487122237, -187500.02235174447, -16956.05569554039, -4738.480417547276, -36829.304615176276, 0.078, 0.96, -0.24, 192.0, 0.0, 0.0, 0.0, 0.0, 0.0, 0.0, 0.0, 0.0, 0.0, 1.741025871539891E9, 0.0, 2025-03-03 12:17:51.539
33.0, -27784.872387036372, 5593.926381340788, -26666.882832870822, -4474.618074252377, -187500.02235174447, -16945.684486113132, -4743.643670516452, -36839.27349320334, 0.078, 0.96, -0.24, 192.0, 0.0, 0.0, 0.0, 0.0, 0.0, 0.0, 0.0, 0.0, 0.0, 1.741025871539913E9, 0.0, 2025-03-03 12:17:51.539
34.0, -27737.084357390926, 5721.733656136234, -26664.62530668084, -4469.611283494387, -187500.02235174447, -16958.961422319582, -4760.407478857932, -36843.25210371639, 0.078, 0.96, -0.24, 192.0, 0.0, 0.0, 0.0, 0.0, 0.0, 0.0, 0.0, 0.0, 0.0, 1.741025871539934E9, 0.0, 2025-03-03 12:17:51.539
35.0, -27815.69544264024, 5671.844562511988, -26677.879891142835, -4499.830841997962, -187500.02235174447, -16975.568768449877, -4750.259786875223, -36855.925542822544, 0.078, 0.96, -0.24, 192.0, 0.0, 0.0, 0.0, 0.0, 0.0, 0.0, 0.0, 0.0, 0.0, 1.741025871539955E9, 0.0, 2025-03-03 12:17:51.539
36.0, -27842.673998197795, 5585.097442280941, -26657.18217577722, -4472.874638184862, -187500.02235174447, -16939.06836975436, -4736.4240570573875, -36860.17237426906, 0.078, 0.96, -0.24, 192.0, 0.0, 0.0, 0.0, 0.0, 0.0, 0.0, 0.0, 0.0, 0.0, 1.741025871539993E9, 0.0, 2025-03-03 12:17:51.539
37.0, -27794.997727274626, 5610.354913515439, -26638.831393579414, -4433.40145747679, -187500.02235174447, -16923.243334680003, -4742.07904840458, -36799.82266423973, 0.078, 0.96, -0.24, 192.0, 0.0, 0.0, 0.0, 0.0, 0.0, 0.0, 0.0, 0.0, 0.0, 1.741025871540019E9, 0.0, 2025-03-03 12:17:51.540
38.0, -27788.426314404765, 5712.390626953916, -26632.014111520544, -4461.0058618790945, -187500.02235174447, -16942.845814567307, -4743.2860426051675, -36794.79352173728, 0.07200000000000001, 0.9540000000000001, -0.244, 192.0, 2.0, 64.0, 29.0, 208.0, 248.0, 96.0, 0.0, 0.0, 0.0, 1.74102587154004E9, 0.0, 2025-03-03 12:17:51.540
39.0, -27774.188253186734, 5701.818251826555, -26644.8887163268, -4476.875600442362, -187500.02235174447, -16965.085800300338, -4756.3171096226115, -36828.76817330935, 0.07200000000000001, 0.9540000000000001, -0.244, 192.0, 0.0, 0.0, 0.0, 0.0, 0.0, 0.0, 0.0, 0.0, 0.0, 1.741025871540068E9, 0.0, 2025-03-03 12:17:51.540
40.0, -27832.012216092615, 5593.524049940593, -26650.744873374093, -4471.667643984276, -187500.02235174447, -16953.038210038925, -4764.810772515628, -36842.022757771345, 0.07200000000000001, 0.9540000000000001, -0.244, 192.0, 0.0, 0.0, 0.0, 0.0, 0.0, 0.0, 0.0, 0.0, 0.0, 1.741025871540089E9, 0.0, 2025-03-03 12:17:51.540
41.0, -27764.06291294848, 5599.91664885481, -26632.70701559866, -4472.785231207041, -187500.02235174447, -16953.373486205757, -4763.089688192569, -36848.884743319126, 0.07200000000000001, 0.9540000000000001, -0.244, 192.0, 0.0, 0.0, 0.0, 0.0, 0.0, 0.0, 0.0, 0.0, 0.0, 1.74102587154012E9, 0.0, 2025-03-03 12:17:51.540
42.0, -27724.097993862393, 5705.260420472672, -26641.468899425137, -4478.060242898493, -187500.02235174447, -16959.319050230868, -4784.770880314217, -36871.48235696344, 0.07200000000000001, 0.9540000000000001, -0.244, 192.0, 0.0, 0.0, 0.0, 0.0, 0.0, 0.0, 0.0, 0.0, 0.0, 1.741025871540141E9, 0.0, 2025-03-03 12:17:51.540
43.0, -27778.63625033334, 5736.7540284102, -26641.35714070286, -4488.789080237041, -187500.02235174447, -16962.045963054414, -4783.340368669077, -36870.38712148513, 0.07200000000000001, 0.9540000000000001, -0.244, 192.0, 0.0, 0.0, 0.0, 0.0, 0.0, 0.0, 0.0, 0.0, 0.0, 1.741025871540167E9, 0.0, 2025-03-03 12:17:51.540
44.0, -27835.879067883383, 5626.135245100885, -26638.51846915704, -4491.22542038267, -187500.02235174447, -16967.41038172369, -4774.332615653589, -36873.49401396442, 0.07200000000000001, 0.9540000000000001, -0.244, 192.0, 0.0, 0.0, 0.0, 0.0, 0.0, 0.0, 0.0, 0.0, 0.0, 1.741025871540188E9, 0.0, 2025-03-03 12:17:51.540
45.0, -27813.259102494612, 5586.706767881724, -26638.540820901493, -4488.69967325922, -187500.02235174447, -16964.54935843341, -4784.592066358575, -36833.774964067336, 0.07200000000000001, 0.9540000000000001, -0.244, 192.0, 0.0, 0.0, 0.0, 0.0, 0.0, 0.0, 0.0, 0.0, 0.0, 1.741025871540208E9, 0.0, 2025-03-03 12:17:51.540
46.0, -27810.2639687376, 5655.036050681598, -26646.118062271842, -4496.567487307488, -187500.02235174447, -16951.339477460322, -4794.538592641186, -36837.418298413555, 0.07200000000000001, 0.9540000000000001, -0.244, 192.0, 0.0, 0.0, 0.0, 0.0, 0.0, 0.0, 0.0, 0.0, 0.0, 1.741025871599096E9, 0.0, 2025-03-03 12:17:51.599
47.0, -27762.40888385879, 5739.905624378398, -26633.55638188796, -4487.425623825267, -187500.02235174447, -16953.708762372586, -4780.5016971232535, -36828.96933900945, 0.07200000000000001, 0.9540000000000001, -0.244, 192.0, 0.0, 0.0, 0.0, 0.0, 0.0, 0.0, 0.0, 0.0, 0.0, 1.741025871599128E9, 0.0, 2025-03-03 12:17:51.599
48.0, -27859.46015828373, 5617.172195574307, -26676.248213797597, -4526.898804533339, -187500.02235174447, -16986.051736599416, -4804.462767179342, -36857.57957191224, 0.066, 0.9520000000000001, -0.246, 192.0, 2.0, 16.0, 29.0, 192.0, 248.0, 80.0, 0.0, 0.0, 0.0, 1.741025871599149E9, 0.0, 2025-03-03 12:17:51.599
49.0, -27873.161777634836, 5569.67473860678, -26669.252117783086, -4512.70544680422, -187500.02235174447, -16987.057565099905, -4800.394749688477, -36852.21515324296, 0.066, 0.9520000000000001, -0.246, 192.0, 0.0, 0.0, 0.0, 0.0, 0.0, 0.0, 0.0, 0.0, 0.0, 1.741025871599173E9, 0.0, 2025-03-03 12:17:51.599
50.0, -27748.148470896303, 5651.102143657464, -26634.31634119944, -4500.3896356093455, -187500.02235174447, -16959.40845720869, -4794.493889152275, -36844.414394428066, 0.066, 0.9520000000000001, -0.246, 192.0, 0.0, 0.0, 0.0, 0.0, 0.0, 0.0, 0.0, 0.0, 0.0, 1.741025871599194E9, 0.0, 2025-03-03 12:17:51.599
51.0, -27743.611066771875, 5736.575214454558, -26637.780861590014, -4495.8745832293735, -187500.02235174447, -16958.69320138612, -4804.641581134985, -36859.658284146586, 0.066, 0.9520000000000001, -0.246, 192.0, 0.0, 0.0, 0.0, 0.0, 0.0, 0.0, 0.0, 0.0, 0.0, 1.741025871599227E9, 0.0, 2025-03-03 12:17:51.599
52.0, -27830.08996606946, 5649.246948867673, -26666.45814972617, -4515.857042772418, -187500.02235174447, -16994.83597217035, -4830.770770403239, -36895.82340667527, 0.066, 0.9520000000000001, -0.246, 192.0, 0.0, 0.0, 0.0, 0.0, 0.0, 0.0, 0.0, 0.0, 0.0, 1.741025871599257E9, 0.0, 2025-03-03 12:17:51.599
53.0, -27869.406684566344, 5584.762166114112, -26661.51841420155, -4504.4129496113, -187500.02235174447, -16967.34332649032, -4844.315927543155, -36864.53096443784, 0.066, 0.9520000000000001, -0.246, 192.0, 0.0, 0.0, 0.0, 0.0, 0.0, 0.0, 0.0, 0.0, 0.0, 1.741025871599278E9, 0.0, 2025-03-03 12:17:51.599
54.0, -27837.354283017434, 5642.407315064349, -26640.30660871346, -4484.788117979541, -187500.02235174447, -16934.955648774583, -4826.389828489999, -36865.089758049224, 0.066, 0.9520000000000001, -0.246, 192.0, 0.0, 0.0, 0.0, 0.0, 0.0, 0.0, 0.0, 0.0, 0.0, 1.741025871599303E9, 0.0, 2025-03-03 12:17:51.599
55.0, -27689.09516204538, 5760.0668978770855, -26610.93641649919, -4483.4246615677675, -187500.02235174447, -16934.530965629932, -4816.867985352038, -36855.25499048889, 0.066, 0.9520000000000001, -0.246, 192.0, 0.0, 0.0, 0.0, 0.0, 0.0, 0.0, 0.0, 0.0, 0.0, 1.741025871599328E9, 0.0, 2025-03-03 12:17:51.599
56.0, -27697.208845282657, 5708.277905974139, -26627.61081786285, -4492.767690750085, -187500.02235174447, -16948.45610242559, -4835.799912905683, -36858.943028324014, 0.066, 0.9520000000000001, -0.246, 192.0, 0.0, 0.0, 0.0, 0.0, 0.0, 0.0, 0.0, 0.0, 0.0, 1.741025871599358E9, 0.0, 2025-03-03 12:17:51.599
57.0, -27793.366049929387, 5615.741683929167, -26648.241477995096, -4503.004789710616, -187500.02235174447, -16947.182052991637, -4843.444209509398, -36876.422092488065, 0.066, 0.9500000000000001, -0.246, 192.0, 2.0, 16.0, 29.0, 176.0, 248.0, 80.0, 0.0, 0.0, 0.0, 1.741025871599379E9, 0.0, 2025-03-03 12:17:51.599
58.0, -27750.830680230938, 5648.68815525629, -26639.233724979607, -4507.9668769796945, -187500.02235174447, -16956.614489151776, -4843.57831997613, -36875.90800236559, 0.066, 0.9500000000000001, -0.246, 192.0, 0.0, 0.0, 0.0, 0.0, 0.0, 0.0, 0.0, 0.0, 0.0, 1.741025871599407E9, 0.0, 2025-03-03 12:17:51.599
59.0, -27678.634545640296, 5788.230095890773, -26633.399919676773, -4516.371132894889, -187500.02235174447, -16965.801056122906, -4844.047706609691, -36890.36958102818, 0.066, 0.9500000000000001, -0.246, 192.0, 0.0, 0.0, 0.0, 0.0, 0.0, 0.0, 0.0, 0.0, 0.0, 1.741025871599428E9, 0.0, 2025-03-03 12:17:51.599
60.0, -27782.83837829094, 5744.443028502826, -26652.08597804141, -4527.502301633633, -187500.02235174447, -16972.5065794595, -4855.536503259719, -36881.026551845855, 0.066, 0.9500000000000001, -0.246, 192.0, 0.0, 0.0, 0.0, 0.0, 0.0, 0.0, 0.0, 0.0, 0.0, 1.741025871599449E9, 0.0, 2025-03-03 12:17:51.599
61.0, -27846.674960455297, 5648.822265723022, -26648.17442276173, -4515.99115323915, -187500.02235174447, -16952.255898982992, -4836.7386861728055, -36874.49984246491, 0.066, 0.9500000000000001, -0.246, 192.0, 0.0, 0.0, 0.0, 0.0, 0.0, 0.0, 0.0, 0.0, 0.0, 1.741025871658824E9, 0.0, 2025-03-03 12:17:51.658
62.0, -27809.794582104038, 5663.954396719265, -26633.60108537687, -4503.004789710616, -187500.02235174447, -16953.84287283932, -4829.228500035822, -36878.321990766766, 0.066, 0.9500000000000001, -0.246, 192.0, 0.0, 0.0, 0.0, 0.0, 0.0, 0.0, 0.0, 0.0, 0.0, 1.741025871658851E9, 0.0, 2025-03-03 12:17:51.658
63.0, -27652.371245905313, 5796.768462272699, -26621.64290209328, -4489.83961222644, -187500.02235174447, -16947.78555009193, -4846.618157222051, -36873.87399362016, 0.066, 0.9500000000000001, -0.246, 192.0, 0.0, 0.0, 0.0, 0.0, 0.0, 0.0, 0.0, 0.0, 0.0, 1.741025871658874E9, 0.0, 2025-03-03 12:17:51.658
64.0, -27642.223553922602, 5802.937543742364, -26639.14431800179, -4506.625772312376, -187500.02235174447, -16964.705820644598, -4864.38779406402, -36891.35305778421, 0.066, 0.9500000000000001, -0.246, 192.0, 0.0, 0.0, 0.0, 0.0, 0.0, 0.0, 0.0, 0.0, 0.0, 1.741025871658895E9, 0.0, 2025-03-03 12:17:51.658
65.0, -27744.214563872167, 5681.656978327868, -26644.821661093436, -4505.016446711594, -187500.02235174447, -16953.21702399457, -4850.932043901926, -36875.57272619876, 0.066, 0.9500000000000001, -0.246, 192.0, 0.0, 0.0, 0.0, 0.0, 0.0, 0.0, 0.0, 0.0, 0.0, 1.741025871658917E9, 0.0, 2025-03-03 12:17:51.658
66.0, -27740.63828475932, 5669.944664233287, -26644.50873667106, -4499.830841997962, -187500.02235174447, -16942.219965722557, -4859.91744517296, -36873.15873779759, 0.066, 0.9500000000000001, -0.246, 192.0, 0.0, 0.0, 0.0, 0.0, 0.0, 0.0, 0.0, 0.0, 0.0, 1.741025871658959E9, 0.0, 2025-03-03 12:17:51.658
67.0, -27690.548025434975, 5764.850171190521, -26656.779844377023, -4516.617002083898, -187500.02235174447, -16961.64363165422, -4888.326512375655, -36895.39872353062, 0.06, 0.9480000000000001, -0.25, 192.0, 1.0, 224.0, 29.0, 160.0, 248.0, 48.0, 0.0, 0.0, 0.0, 1.741025871658985E9, 0.0, 2025-03-03 12:17:51.658
68.0, -27742.87345920485, 5786.374901100981, -26671.353181761886, -4516.75111255063, -187500.02235174447, -16965.331669489344, -4893.400358367009, -36902.573633500775, 0.06, 0.9480000000000001, -0.25, 192.0, 0.0, 0.0, 0.0, 0.0, 0.0, 0.0, 0.0, 0.0, 0.0, 1.741025871659012E9, 0.0, 2025-03-03 12:17:51.659
69.0, -27776.44577937672, 5682.618103339446, -26687.401734280797, -4537.828807571985, -187500.02235174447, -16976.194617294626, -4898.54125959173, -36921.03617442086, 0.06, 0.9480000000000001, -0.25, 192.0, 0.0, 0.0, 0.0, 0.0, 0.0, 0.0, 0.0, 0.0, 0.0, 1.741025871659037E9, 0.0, 2025-03-03 12:17:51.659
70.0, -27768.913241495284, 5632.773713204112, -26704.23259785564, -4541.986232040672, -187500.02235174447, -16981.64844294172, -4911.572326609174, -36954.74260505946, 0.06, 0.9480000000000001, -0.25, 192.0, 0.0, 0.0, 0.0, 0.0, 0.0, 0.0, 0.0, 0.0, 0.0, 1.741025871659058E9, 0.0, 2025-03-03 12:17:51.659
71.0, -27726.891961919304, 5718.827929357044, -26684.428952268237, -4521.623792841887, -187500.02235174447, -16954.714590873074, -4899.860012514593, -36908.31803182579, 0.06, 0.9480000000000001, -0.25, 192.0, 0.0, 0.0, 0.0, 0.0, 0.0, 0.0, 0.0, 0.0, 0.0, 1.741025871659086E9, 0.0, 2025-03-03 12:17:51.659
72.0, -27702.685022674206, 5800.81412801911, -26678.41633300976, -4522.741380064653, -187500.02235174447, -16953.664058883674, -4899.100053203113, -36886.50272923741, 0.06, 0.9480000000000001, -0.25, 192.0, 0.0, 0.0, 0.0, 0.0, 0.0, 0.0, 0.0, 0.0, 0.0, 1.741025871659108E9, 0.0, 2025-03-03 12:17:51.659
73.0, -27767.370971127868, 5681.947551005787, -26705.73016473415, -4546.255415231635, -187500.02235174447, -16963.49882644401, -4921.451797658419, -36908.47449403697, 0.06, 0.9480000000000001, -0.25, 192.0, 0.0, 0.0, 0.0, 0.0, 0.0, 0.0, 0.0, 0.0, 0.0, 1.741025871659129E9, 0.0, 2025-03-03 12:17:51.659
74.0, -27823.540904944053, 5617.619230463413, -26716.81662998398, -4542.299156463046, -187500.02235174447, -16958.4026287082, -4933.141760008545, -36941.219799664, 0.06, 0.9480000000000001, -0.25, 192.0, 0.0, 0.0, 0.0, 0.0, 0.0, 0.0, 0.0, 0.0, 0.0, 1.741025871659154E9, 0.0, 2025-03-03 12:17:51.659
75.0, -27693.09612430288, 5689.837716798511, -26690.70979246018, -4517.175795695281, -187500.02235174447, -16934.218041207558, -4930.2136814849, -36905.92639516907, 0.06, 0.9480000000000001, -0.25, 192.0, 0.0, 0.0, 0.0, 0.0, 0.0, 0.0, 0.0, 0.0, 0.0, 1.741025871659176E9, 0.0, 2025-03-03 12:17:51.659
76.0, -27708.854104143873, 5782.910380710409, -26711.22869387015, -4529.379848167879, -187500.02235174447, -16942.890518056218, -4939.757876367316, -36908.094514381235, 0.06, 0.9480000000000001, -0.25, 192.0, 0.0, 0.0, 0.0, 0.0, 0.0, 0.0, 0.0, 0.0, 0.0, 1.741025871719228E9, 0.0, 2025-03-03 12:17:51.719
77.0, -27771.81896827447, 5699.963057036764, -26727.27724638906, -4538.745229094652, -187500.02235174447, -16951.138311760227, -4950.8443416171485, -36918.42102031958, 0.054, 0.9540000000000001, -0.248, 192.0, 1.0, 176.0, 29.0, 208.0, 248.0, 64.0, 0.0, 0.0, 0.0, 1.741025871719257E9, 0.0, 2025-03-03 12:17:51.719
78.0, -27800.317442454987, 5626.224652078707, -26721.33168236395, -4522.204938197725, -187500.02235174447, -16937.257878453478, -4951.760763139816, -36918.644537764136, 0.054, 0.9540000000000001, -0.248, 192.0, 0.0, 0.0, 0.0, 0.0, 0.0, 0.0, 0.0, 0.0, 0.0, 1.741025871719285E9, 0.0, 2025-03-03 12:17:51.719
79.0, -27739.40893881428, 5674.727937546723, -26714.223827627164, -4531.950298780239, -187500.02235174447, -16942.35407618929, -4958.063955076213, -36945.354872388234, 0.054, 0.9540000000000001, -0.248, 192.0, 0.0, 0.0, 0.0, 0.0, 0.0, 0.0, 0.0, 0.0, 0.0, 1.741025871719308E9, 0.0, 2025-03-03 12:17:51.719
80.0, -27660.641391353776, 5794.555639571624, -26686.105333102387, -4504.547060078033, -187500.02235174447, -16918.86239276676, -4941.2777949902775, -36910.888482438146, 0.054, 0.9540000000000001, -0.248, 192.0, 0.0, 0.0, 0.0, 0.0, 0.0, 0.0, 0.0, 0.0, 0.0, 1.741025871719329E9, 0.0, 2025-03-03 12:17:51.719
81.0, -27710.39637451129, 5733.222452786262, -26691.112123860377, -4490.152536648815, -187500.02235174447, -16917.051901465882, -4933.275870475277, -36906.03815389134, 0.054, 0.9540000000000001, -0.248, 192.0, 0.0, 0.0, 0.0, 0.0, 0.0, 0.0, 0.0, 0.0, 0.0, 1.741025871719351E9, 0.0, 2025-03-03 12:17:51.719
82.0, -27769.44968336221, 5632.796064948567, -26710.356975836396, -4510.984362481161, -187500.02235174447, -16928.563049860364, -4948.251539260333, -36921.84083722125, 0.054, 0.9540000000000001, -0.248, 192.0, 0.0, 0.0, 0.0, 0.0, 0.0, 0.0, 0.0, 0.0, 0.0, 1.741025871719384E9, 0.0, 2025-03-03 12:17:51.719
83.0, -27750.338941852922, 5660.065193184041, -26719.72235676317, -4528.597537111943, -187500.02235174447, -16935.603849363786, -4950.374954983587, -36929.30631986932, 0.054, 0.9540000000000001, -0.248, 192.0, 0.0, 0.0, 0.0, 0.0, 0.0, 0.0, 0.0, 0.0, 0.0, 1.741025871719413E9, 0.0, 2025-03-03 12:17:51.719
84.0, -27693.3866969808, 5772.472116049781, -26712.770964237567, -4515.812339283507, -187500.02235174447, -16929.144195216202, -4960.366184755109, -36921.930244199066, 0.054, 0.9540000000000001, -0.248, 192.0, 0.0, 0.0, 0.0, 0.0, 0.0, 0.0, 0.0, 0.0, 0.0, 1.741025871719434E9, 0.0, 2025-03-03 12:17:51.719
85.0, -27751.411825586776, 5737.893967377421, -26719.208266640697, -4510.760845036608, -187500.02235174447, -16934.44155865211, -4969.999786615346, -36922.82431397728, 0.054, 0.9540000000000001, -0.248, 192.0, 0.0, 0.0, 0.0, 0.0, 0.0, 0.0, 0.0, 0.0, 0.0, 1.74102587171946E9, 0.0, 2025-03-03 12:17:51.719
86.0, -27787.599299859918, 5620.144977586863, -26725.57851381046, -4521.959069008716, -187500.02235174447, -16953.82052109486, -4970.55858022673, -36936.950616473034, 0.054, 0.9540000000000001, -0.248, 192.0, 0.0, 0.0, 0.0, 0.0, 0.0, 0.0, 0.0, 0.0, 0.0, 1.741025871719482E9, 0.0, 2025-03-03 12:17:51.719
87.0, -27734.424499800745, 5624.4141607778265, -26709.57466478046, -4509.039760713549, -187500.02235174447, -16948.83608208133, -4975.4983157513525, -36946.51716309991, 0.056, 0.9500000000000001, -0.246, 192.0, 1.0, 192.0, 29.0, 176.0, 248.0, 80.0, 0.0, 0.0, 0.0, 1.741025871719509E9, 0.0, 2025-03-03 12:17:51.719
88.0, -27692.894958602785, 5713.776435110144, -26712.94977819321, -4516.080560216971, -187500.02235174447, -16951.54064316042, -4979.543981497763, -36947.34417764475, 0.056, 0.9500000000000001, -0.246, 192.0, 0.0, 0.0, 0.0, 0.0, 0.0, 0.0, 0.0, 0.0, 0.0, 1.741025871719533E9, 0.0, 2025-03-03 12:17:51.719
89.0, -27733.798650955996, 5700.723016348245, -26717.37542359536, -4532.956127280728, -187500.02235174447, -16965.756352633995, -4979.007539630836, -36933.44139259355, 0.056, 0.9500000000000001, -0.246, 192.0, 0.0, 0.0, 0.0, 0.0, 0.0, 0.0, 0.0, 0.0, 0.0, 1.741025871719558E9, 0.0, 2025-03-03 12:17:51.719
90.0, -27785.83351204795, 5561.516351880593, -26720.079984674452, -4533.984307525672, -187500.02235174447, -16964.281137499947, -4984.818993189215, -36926.333537856764, 0.056, 0.9500000000000001, -0.246, 192.0, 0.0, 0.0, 0.0, 0.0, 0.0, 0.0, 0.0, 0.0, 0.0, 1.741025871719579E9, 0.0, 2025-03-03 12:17:51.719
91.0, -27773.338886897433, 5525.261822374085, -26727.67957778926, -4538.901691305839, -187500.02235174447, -16973.244187026525, -4993.290304337776, -36930.13333441417, 0.056, 0.9500000000000001, -0.246, 192.0, 0.0, 0.0, 0.0, 0.0, 0.0, 0.0, 0.0, 0.0, 0.0, 1.741025871779501E9, 0.0, 2025-03-03 12:17:51.779
92.0, -27740.995912670605, 5621.7766549321, -26712.43568807074, -4528.75399932313, -187500.02235174447, -16961.665983398674, -4981.4885832653745, -36924.54539830034, 0.056, 0.9500000000000001, -0.246, 192.0, 0.0, 0.0, 0.0, 0.0, 0.0, 0.0, 0.0, 0.0, 0.0, 1.741025871779529E9, 0.0, 2025-03-03 12:17:51.779
93.0, -27701.43332498471, 5659.461696083748, -26695.828341940447, -4528.821054556496, -187500.02235174447, -16959.92254733116, -4977.800545430248, -36907.35690681421, 0.056, 0.9500000000000001, -0.246, 192.0, 0.0, 0.0, 0.0, 0.0, 0.0, 0.0, 0.0, 0.0, 0.0, 1.74102587177955E9, 0.0, 2025-03-03 12:17:51.779
94.0, -27754.988104699627, 5542.964403982688, -26707.76417347958, -4533.246699958647, -187500.02235174447, -16966.225739267556, -4980.013368131325, -36903.08772362325, 0.056, 0.9500000000000001, -0.246, 192.0, 0.0, 0.0, 0.0, 0.0, 0.0, 0.0, 0.0, 0.0, 0.0, 1.741025871779571E9, 0.0, 2025-03-03 12:17:51.779
95.0, -27753.91522096577, 5483.75463292058, -26709.41820256927, -4535.995964526649, -187500.02235174447, -16969.533797446944, -4982.852039677148, -36896.85158692022, 0.056, 0.9500000000000001, -0.246, 192.0, 0.0, 0.0, 0.0, 0.0, 0.0, 0.0, 0.0, 0.0, 0.0, 1.741025871779592E9, 0.0, 2025-03-03 12:17:51.779
96.0, -27710.86576114485, 5563.237436203652, -26720.32585386346, -4551.843351345462, -187500.02235174447, -16974.78645739394, -4989.289342080277, -36898.77383694337, 0.056, 0.9500000000000001, -0.246, 192.0, 0.0, 0.0, 0.0, 0.0, 0.0, 0.0, 0.0, 0.0, 0.0, 1.741025871779614E9, 0.0, 2025-03-03 12:17:51.779
97.0, -27718.979444382127, 5636.282937083595, -26720.34820560792, -4551.597482156454, -187500.02235174447, -16980.12852431876, -4984.014330388824, -36901.590156744736, 0.058, 0.9560000000000001, -0.242, 192.0, 1.0, 208.0, 29.0, 224.0, 248.0, 112.0, 0.0, 0.0, 0.0, 1.741025871779646E9, 0.0, 2025-03-03 12:17:51.779
98.0, -27762.990029214627, 5537.354116124406, -26713.553275293503, -4545.026069286593, -187500.02235174447, -16965.51048344499, -4961.0590888332235, -36860.060615546776, 0.058, 0.9560000000000001, -0.242, 192.0, 0.0, 0.0, 0.0, 0.0, 0.0, 0.0, 0.0, 0.0, 0.0, 1.741025871779679E9, 0.0, 2025-03-03 12:17:51.779
99.0, -27737.710206235675, 5474.948045605189, -26710.20051362521, -4546.143656509359, -187500.02235174447, -16949.841910581818, -4953.325385251687, -36841.01692927086, 0.058, 0.9560000000000001, -0.242, 192.0, 0.0, 0.0, 0.0, 0.0, 0.0, 0.0, 0.0, 0.0, 0.0, 1.7410258717797E9, 0.0, 2025-03-03 12:17:51.779
100.0, -27756.01628494457, 5513.169528623764, -26719.074156173963, -4548.892921077361, -187500.02235174447, -16959.207291508592, -4952.833646873671, -36829.371670409644, 0.058, 0.9560000000000001, -0.242, 192.0, 0.0, 0.0, 0.0, 0.0, 0.0, 0.0, 0.0, 0.0, 0.0, 1.741025871779725E9, 0.0, 2025-03-03 12:17:51.779
101.0, -27690.168045779235, 5613.841785650467, -26708.32296709096, -4548.155313510337, -187500.02235174447, -16962.895329343715, -4953.861827118615, -36809.50096958887, 0.058, 0.9560000000000001, -0.242, 192.0, 0.0, 0.0, 0.0, 0.0, 0.0, 0.0, 0.0, 0.0, 0.0, 1.741025871779745E9, 0.0, 2025-03-03 12:17:51.779
102.0, -27698.86287437235, 5534.71661027868, -26708.9041124468, -4544.75784835313, -187500.02235174447, -16948.03141928094, -4949.7267543943835, -36801.677859029514, 0.058, 0.9560000000000001, -0.242, 192.0, 0.0, 0.0, 0.0, 0.0, 0.0, 0.0, 0.0, 0.0, 0.0, 1.741025871779775E9, 0.0, 2025-03-03 12:17:51.779
103.0, -27702.729726163117, 5456.776077363023, -26697.817647196967, -4537.448827916244, -187500.02235174447, -16949.43957918162, -4946.821027615193, -36784.3329053322, 0.058, 0.9560000000000001, -0.242, 192.0, 0.0, 0.0, 0.0, 0.0, 0.0, 0.0, 0.0, 0.0, 0.0, 1.741025871779796E9, 0.0, 2025-03-03 12:17:51.779
104.0, -27673.292478715477, 5494.75169119259, -26696.52124601856, -4539.795761084051, -187500.02235174447, -16956.45802694059, -4959.226245787889, -36790.926669946515, 0.058, 0.9560000000000001, -0.242, 192.0, 0.0, 0.0, 0.0, 0.0, 0.0, 0.0, 0.0, 0.0, 0.0, 1.74102587177982E9, 0.0, 2025-03-03 12:17:51.779
105.0, -27650.85132728235, 5598.866116865411, -26696.633004740837, -4543.752019852641, -187500.02235174447, -16964.348192733312, -4965.417679002008, -36808.271623643835, 0.058, 0.9560000000000001, -0.242, 192.0, 0.0, 0.0, 0.0, 0.0, 0.0, 0.0, 0.0, 0.0, 0.0, 1.741025871779841E9, 0.0, 2025-03-03 12:17:51.779
106.0, -27704.92019711974, 5551.502770364616, -26704.769039722567, -4549.608176899931, -187500.02235174447, -16963.230605510547, -4949.927920094481, -36819.22397842693, 0.058, 0.9560000000000001, -0.242, 192.0, 0.0, 0.0, 0.0, 0.0, 0.0, 0.0, 0.0, 0.0, 0.0, 1.741025871839747E9, 0.0, 2025-03-03 12:17:51.839
107.0, -27722.019281628047, 5450.003498793066, -26701.729202476647, -4552.268034490113, -187500.02235174447, -16955.11692227327, -4945.2117020144115, -36792.91597520304, 0.058, 0.9520000000000001, -0.23800000000000002, 192.0, 1.0, 208.0, 29.0, 192.0, 248.0, 144.0, 0.0, 0.0, 0.0, 1.741025871839782E9, 0.0, 2025-03-03 12:17:51.839
108.0, -27682.52374917552, 5473.9422171047, -26687.066458113964, -4547.820037343507, -187500.02235174447, -16949.596041392808, -4948.542111938252, -36780.510757030344, 0.058, 0.9520000000000001, -0.23800000000000002, 192.0, 0.0, 0.0, 0.0, 0.0, 0.0, 0.0, 0.0, 0.0, 0.0, 1.741025871839807E9, 0.0, 2025-03-03 12:17:51.839
109.0, -27645.88924001327, 5600.2295732771845, -26684.227786568143, -4537.895862805351, -187500.02235174447, -16948.746675103506, -4947.022193315291, -36773.62641973811, 0.058, 0.9520000000000001, -0.23800000000000002, 192.0, 0.0, 0.0, 0.0, 0.0, 0.0, 0.0, 0.0, 0.0, 0.0, 1.741025871839827E9, 0.0, 2025-03-03 12:17:51.839
110.0, -27706.462467487156, 5575.240322976151, -26693.503760517095, -4551.083392033982, -187500.02235174447, -16959.74373337552, -4942.462437446408, -36791.46311181344, 0.058, 0.9520000000000001, -0.23800000000000002, 192.0, 0.0, 0.0, 0.0, 0.0, 0.0, 0.0, 0.0, 0.0, 0.0, 1.741025871839849E9, 0.0, 2025-03-03 12:17:51.839
111.0, -27720.544066493996, 5456.105525029365, -26680.964431877666, -4539.505188406132, -187500.02235174447, -16950.803035593395, -4946.128123537079, -36778.58850700718, 0.058, 0.9520000000000001, -0.23800000000000002, 192.0, 0.0, 0.0, 0.0, 0.0, 0.0, 0.0, 0.0, 0.0, 0.0, 1.74102587183987E9, 0.0, 2025-03-03 12:17:51.839
112.0, -27703.176761052226, 5454.965586062144, -26676.784655664524, -4539.236967472669, -187500.02235174447, -16947.226756480548, -4955.940539352959, -36783.70705648745, 0.058, 0.9520000000000001, -0.23800000000000002, 192.0, 0.0, 0.0, 0.0, 0.0, 0.0, 0.0, 0.0, 0.0, 0.0, 1.74102587183991E9, 0.0, 2025-03-03 12:17:51.839
113.0, -27655.679304084697, 5568.24422696164, -26671.777864906537, -4535.079543003982, -187500.02235174447, -16939.940087788116, -4973.285493050277, -36774.8781174276, 0.058, 0.9520000000000001, -0.23800000000000002, 192.0, 0.0, 0.0, 0.0, 0.0, 0.0, 0.0, 0.0, 0.0, 0.0, 1.741025871839936E9, 0.0, 2025-03-03 12:17:51.839
114.0, -27653.265315683522, 5607.896221625355, -26670.772036406048, -4541.360383195923, -187500.02235174447, -16946.1985762356, -4972.838458161171, -36793.51947230333, 0.058, 0.9520000000000001, -0.23800000000000002, 192.0, 0.0, 0.0, 0.0, 0.0, 0.0, 0.0, 0.0, 0.0, 0.0, 1.741025871839963E9, 0.0, 2025-03-03 12:17:51.839
115.0, -27709.479952988622, 5501.256048829085, -26679.66803069926, -4564.3156247515235, -187500.02235174447, -16952.099436771805, -4978.649911719551, -36797.207510138454, 0.058, 0.9520000000000001, -0.23800000000000002, 192.0, 0.0, 0.0, 0.0, 0.0, 0.0, 0.0, 0.0, 0.0, 0.0, 1.741025871839988E9, 0.0, 2025-03-03 12:17:51.839
116.0, -27704.517865719543, 5489.454327756683, -26674.214205052165, -4539.460484917222, -187500.02235174447, -16948.54550940341, -4981.019196631813, -36791.32900134671, 0.058, 0.9520000000000001, -0.23800000000000002, 192.0, 0.0, 0.0, 0.0, 0.0, 0.0, 0.0, 0.0, 0.0, 0.0, 1.74102587184001E9, 0.0, 2025-03-03 12:17:51.840
117.0, -27642.782347533983, 5587.444375448749, -26656.42221646574, -4530.2739179460905, -187500.02235174447, -16940.54358488841, -4980.058071620235, -36779.728445974404, 0.06, 0.9500000000000001, -0.234, 192.0, 1.0, 224.0, 29.0, 176.0, 248.0, 176.0, 0.0, 0.0, 0.0, 1.741025871840039E9, 0.0, 2025-03-03 12:17:51.840
118.0, -27640.256600410536, 5653.516132058637, -26662.837167124413, -4538.856987816928, -187500.02235174447, -16945.326858201846, -4985.534249011785, -36781.87421344211, 0.06, 0.9500000000000001, -0.234, 192.0, 0.0, 0.0, 0.0, 0.0, 0.0, 0.0, 0.0, 0.0, 0.0, 1.741025871840063E9, 0.0, 2025-03-03 12:17:51.840
119.0, -27692.000888824572, 5543.836122016445, -26671.353181761886, -4543.461447174722, -187500.02235174447, -16947.383218691735, -4988.395272302065, -36785.13756813259, 0.06, 0.9500000000000001, -0.234, 192.0, 0.0, 0.0, 0.0, 0.0, 0.0, 0.0, 0.0, 0.0, 0.0, 1.741025871840083E9, 0.0, 2025-03-03 12:17:51.840
120.0, -27672.443112426176, 5495.489298759616, -26678.1481120763, -4547.663575132319, -187500.02235174447, -16953.97698330605, -4997.045397406268, -36798.32509736122, 0.06, 0.9500000000000001, -0.234, 192.0, 0.0, 0.0, 0.0, 0.0, 0.0, 0.0, 0.0, 0.0, 0.0, 1.741025871840108E9, 0.0, 2025-03-03 12:17:51.840
121.0, -27662.496586143567, 5573.765107842101, -26680.65150745529, -4550.792819356063, -187500.02235174447, -16958.246166497014, -5002.141595142079, -36801.00730669586, 0.06, 0.9500000000000001, -0.234, 192.0, 0.0, 0.0, 0.0, 0.0, 0.0, 0.0, 0.0, 0.0, 0.0, 1.741025871900036E9, 0.0, 2025-03-03 12:17:51.900
122.0, -27646.26921966901, 5662.345071118483, -26678.461036498673, -4552.245682745657, -187500.02235174447, -16957.374448463255, -5008.288324867288, -36806.371725365134, 0.06, 0.9500000000000001, -0.234, 192.0, 0.0, 0.0, 0.0, 0.0, 0.0, 0.0, 0.0, 0.0, 0.0, 1.741025871900067E9, 0.0, 2025-03-03 12:17:51.900
123.0, -27705.970729109136, 5559.48234313516, -26687.647603469803, -4551.508075178633, -187500.02235174447, -16955.27338448446, -5012.490452824885, -36824.32017616274, 0.06, 0.9500000000000001, -0.234, 192.0, 0.0, 0.0, 0.0, 0.0, 0.0, 0.0, 0.0, 0.0, 0.0, 1.741025871900088E9, 0.0, 2025-03-03 12:17:51.900
124.0, -27706.395412253787, 5509.369732066361, -26685.591242979914, -4546.925967565295, -187500.02235174447, -16954.312259472877, -5024.046304708279, -36803.98008870841, 0.06, 0.9500000000000001, -0.234, 192.0, 0.0, 0.0, 0.0, 0.0, 0.0, 0.0, 0.0, 0.0, 0.0, 1.741025871900109E9, 0.0, 2025-03-03 12:17:51.900
125.0, -27662.608344865843, 5559.303529179518, -26686.842940669412, -4544.713144864219, -187500.02235174447, -16952.993506550018, -5023.643973308083, -36798.07922817221, 0.06, 0.9500000000000001, -0.234, 192.0, 0.0, 0.0, 0.0, 0.0, 0.0, 0.0, 0.0, 0.0, 0.0, 1.741025871900131E9, 0.0, 2025-03-03 12:17:51.900
126.0, -27663.256545455046, 5653.158504147352, -26686.261795313574, -4550.748115867152, -187500.02235174447, -16957.910890330182, -5022.70520004096, -36806.25996664286, 0.06, 0.9500000000000001, -0.234, 192.0, 0.0, 0.0, 0.0, 0.0, 0.0, 0.0, 0.0, 0.0, 0.0, 1.741025871900152E9, 0.0, 2025-03-03 12:17:51.900
127.0, -27716.230179814123, 5584.806869603022, -26689.011059881577, -4551.731592623186, -187500.02235174447, -16955.78747460693, -5021.5205575848295, -36821.90618776157, 0.058, 0.9580000000000001, -0.24, 192.0, 1.0, 208.0, 29.0, 240.0, 248.0, 128.0, 0.0, 0.0, 0.0, 1.741025871900173E9, 0.0, 2025-03-03 12:17:51.900
128.0, -27691.375039979823, 5509.9508774221995, -26682.372591778352, -4539.728705850685, -187500.02235174447, -16953.30643097239, -5035.870377525137, -36798.32509736122, 0.058, 0.9580000000000001, -0.24, 192.0, 0.0, 0.0, 0.0, 0.0, 0.0, 0.0, 0.0, 0.0, 0.0, 1.741025871900211E9, 0.0, 2025-03-03 12:17:51.900
129.0, -27639.988379477072, 5547.255938918107, -26675.175330063743, -4535.034839515071, -187500.02235174447, -16952.322954216357, -5043.1793979620215, -36783.32707683171, 0.058, 0.9580000000000001, -0.24, 192.0, 0.0, 0.0, 0.0, 0.0, 0.0, 0.0, 0.0, 0.0, 0.0, 1.741025871900238E9, 0.0, 2025-03-03 12:17:51.900
130.0, -27603.37622205928, 5651.839751224488, -26664.334734002918, -4522.294345175546, -187500.02235174447, -16953.1499687612, -5021.475854095919, -36801.43198984051, 0.058, 0.9580000000000001, -0.24, 192.0, 0.0, 0.0, 0.0, 0.0, 0.0, 0.0, 0.0, 0.0, 0.0, 1.741025871900259E9, 0.0, 2025-03-03 12:17:51.900
131.0, -27670.364400191833, 5604.901087868344, -26677.14228357581, -4531.078580746482, -187500.02235174447, -16963.342364232823, -5038.440828137497, -36810.506798089365, 0.058, 0.9580000000000001, -0.24, 192.0, 0.0, 0.0, 0.0, 0.0, 0.0, 0.0, 0.0, 0.0, 0.0, 1.741025871900283E9, 0.0, 2025-03-03 12:17:51.900
132.0, -27705.25547328657, 5516.276421103051, -26675.46590274166, -4534.587804625965, -187500.02235174447, -16965.756352633995, -5049.4602381539635, -36801.09671367368, 0.058, 0.9580000000000001, -0.24, 192.0, 0.0, 0.0, 0.0, 0.0, 0.0, 0.0, 0.0, 0.0, 0.0, 1.741025871900304E9, 0.0, 2025-03-03 12:17:51.900
133.0, -27676.75699910605, 5543.433790616249, -26665.877004370333, -4518.695714318242, -187500.02235174447, -16947.919660558662, -5051.069563754745, -36790.94902169097, 0.058, 0.9580000000000001, -0.24, 192.0, 0.0, 0.0, 0.0, 0.0, 0.0, 0.0, 0.0, 0.0, 0.0, 1.741025871900333E9, 0.0, 2025-03-03 12:17:51.900
134.0, -27617.52487629949, 5664.289672886094, -26661.540765946003, -4517.980458495672, -187500.02235174447, -16944.72336110155, -5060.189075492511, -36789.943193190484, 0.058, 0.9580000000000001, -0.24, 192.0, 0.0, 0.0, 0.0, 0.0, 0.0, 0.0, 0.0, 0.0, 0.0, 1.741025871900354E9, 0.0, 2025-03-03 12:17:51.900
135.0, -27671.23611822559, 5660.020489695131, -26676.292917286508, -4537.962918038716, -187500.02235174447, -16962.537701432433, -5074.1142122881665, -36802.81779799674, 0.058, 0.9580000000000001, -0.24, 192.0, 0.0, 0.0, 0.0, 0.0, 0.0, 0.0, 0.0, 0.0, 0.0, 1.741025871900378E9, 0.0, 2025-03-03 12:17:51.900
136.0, -27690.548025434975, 5560.57757861347, -26664.446492725194, -4543.640261130365, -187500.02235174447, -16968.483265457544, -5063.474781927441, -36811.400867867575, 0.058, 0.9580000000000001, -0.24, 192.0, 0.0, 0.0, 0.0, 0.0, 0.0, 0.0, 0.0, 0.0, 0.0, 1.741025871959429E9, 0.0, 2025-03-03 12:17:51.959
137.0, -27643.78817603447, 5561.270482691584, -26652.354198974874, -4524.238946943158, -187500.02235174447, -16962.02361130996, -5064.435906939019, -36819.648661571584, 0.058, 0.9580000000000001, -0.244, 192.0, 1.0, 208.0, 29.0, 240.0, 248.0, 96.0, 0.0, 0.0, 0.0, 1.741025871959465E9, 0.0, 2025-03-03 12:17:51.959
138.0, -27615.80379197643, 5681.1205364609405, -26651.258963496563, -4514.962972994205, -187500.02235174447, -16943.248145967504, -5068.52627617434, -36776.35333256165, 0.058, 0.9580000000000001, -0.244, 192.0, 0.0, 0.0, 0.0, 0.0, 0.0, 0.0, 0.0, 0.0, 0.0, 1.741025871959489E9, 0.0, 2025-03-03 12:17:51.959
139.0, -27627.404347348733, 5706.5344699066245, -26644.8887163268, -4518.4721968736885, -187500.02235174447, -16942.48818665602, -5063.251264482888, -36771.346541803665, 0.058, 0.9580000000000001, -0.244, 192.0, 0.0, 0.0, 0.0, 0.0, 0.0, 0.0, 0.0, 0.0, 0.0, 1.74102587195951E9, 0.0, 2025-03-03 12:17:51.959
140.0, -27657.42274015221, 5602.1071198114305, -26649.51552742905, -4531.950298780239, -187500.02235174447, -16949.97602104855, -5073.600122165695, -36774.74400696087, 0.058, 0.9580000000000001, -0.244, 192.0, 0.0, 0.0, 0.0, 0.0, 0.0, 0.0, 0.0, 0.0, 0.0, 1.741025871959531E9, 0.0, 2025-03-03 12:17:51.959
141.0, -27653.66764708372, 5584.918628325299, -26665.27350727004, -4535.750095337641, -187500.02235174447, -16965.93516658964, -5109.631134227649, -36808.85276899967, 0.058, 0.9580000000000001, -0.244, 192.0, 0.0, 0.0, 0.0, 0.0, 0.0, 0.0, 0.0, 0.0, 0.0, 1.741025871959552E9, 0.0, 2025-03-03 12:17:51.959
142.0, -27632.768766018005, 5672.626873567924, -26666.502853215083, -4528.083446989471, -187500.02235174447, -16957.97794556355, -5108.602953982706, -36820.788600538806, 0.058, 0.9580000000000001, -0.244, 192.0, 0.0, 0.0, 0.0, 0.0, 0.0, 0.0, 0.0, 0.0, 0.0, 1.741025871959573E9, 0.0, 2025-03-03 12:17:51.959
143.0, -27654.449958139656, 5728.506234706192, -26668.827434638435, -4533.13494123637, -187500.02235174447, -16962.82827411035, -5106.524241748362, -36799.241518883886, 0.058, 0.9580000000000001, -0.244, 192.0, 0.0, 0.0, 0.0, 0.0, 0.0, 0.0, 0.0, 0.0, 0.0, 1.741025871959611E9, 0.0, 2025-03-03 12:17:51.959
144.0, -27660.931964031693, 5620.033218864586, -26650.543707673995, -4518.136920706859, -187500.02235174447, -16949.26076522598, -5101.986837623935, -36782.812986709236, 0.058, 0.9580000000000001, -0.244, 192.0, 0.0, 0.0, 0.0, 0.0, 0.0, 0.0, 0.0, 0.0, 0.0, 1.741025871959641E9, 0.0, 2025-03-03 12:17:51.959
145.0, -27644.324617901402, 5584.672759136291, -26656.84689961039, -4518.405141640323, -187500.02235174447, -16950.154835004192, -5111.285163317342, -36783.014152409334, 0.058, 0.9580000000000001, -0.244, 192.0, 0.0, 0.0, 0.0, 0.0, 0.0, 0.0, 0.0, 0.0, 0.0, 1.741025871959663E9, 0.0, 2025-03-03 12:17:51.959
146.0, -27645.509260357532, 5655.371326848427, -26670.883795128324, -4524.864795787907, -187500.02235174447, -16953.529948416945, -5131.692306005038, -36798.16863515003, 0.058, 0.9580000000000001, -0.244, 192.0, 0.0, 0.0, 0.0, 0.0, 0.0, 0.0, 0.0, 0.0, 0.0, 1.741025871959688E9, 0.0, 2025-03-03 12:17:51.959
147.0, -27635.540382330466, 5741.000859856708, -26665.385265992318, -4523.188414953758, -187500.02235174447, -16947.003239035992, -5135.8050269848145, -36806.52818757632, 0.068, 0.9520000000000001, -0.246, 192.0, 2.0, 32.0, 29.0, 192.0, 248.0, 80.0, 0.0, 0.0, 0.0, 1.741025871959709E9, 0.0, 2025-03-03 12:17:51.959
148.0, -27670.31969670292, 5648.509341300648, -26668.51451021606, -4530.3856766683675, -187500.02235174447, -16947.897308814205, -5136.028544429368, -36797.207510138454, 0.068, 0.9520000000000001, -0.246, 192.0, 0.0, 0.0, 0.0, 0.0, 0.0, 0.0, 0.0, 0.0, 0.0, 1.741025871959739E9, 0.0, 2025-03-03 12:17:51.959
149.0, -27661.75897857654, 5584.2033725027295, -26652.108329785864, -4523.836615542962, -187500.02235174447, -16940.744750588507, -5123.042180900834, -36785.271678599325, 0.068, 0.9520000000000001, -0.246, 192.0, 0.0, 0.0, 0.0, 0.0, 0.0, 0.0, 0.0, 0.0, 0.0, 1.74102587195976E9, 0.0, 2025-03-03 12:17:51.959
150.0, -27649.152594703748, 5632.438437037282, -26664.46884446965, -4528.776351067585, -187500.02235174447, -16949.707800115088, -5149.171370169088, -36820.60978658316, 0.068, 0.9520000000000001, -0.246, 192.0, 0.0, 0.0, 0.0, 0.0, 0.0, 0.0, 0.0, 0.0, 0.0, 1.741025871959785E9, 0.0, 2025-03-03 12:17:51.959
151.0, -27618.016614677505, 5760.469229277281, -26658.05389381098, -4532.062057502515, -187500.02235174447, -16945.79624483541, -5157.6426813176495, -36828.3434901647, 0.068, 0.9520000000000001, -0.246, 192.0, 0.0, 0.0, 0.0, 0.0, 0.0, 0.0, 0.0, 0.0, 0.0, 1.741025872019201E9, 0.0, 2025-03-03 12:17:52.019
152.0, -27651.879507527294, 5684.786222551611, -26651.191908263198, -4530.005697012627, -187500.02235174447, -16942.376427933745, -5154.0664022048, -36813.74780103538, 0.068, 0.9520000000000001, -0.246, 192.0, 0.0, 0.0, 0.0, 0.0, 0.0, 0.0, 0.0, 0.0, 0.0, 1.741025872019237E9, 0.0, 2025-03-03 12:17:52.019
153.0, -27670.94554554767, 5605.996323346654, -26655.41638796525, -4533.649031358842, -187500.02235174447, -16953.753465861497, -5156.390983628152, -36806.19291140949, 0.068, 0.9520000000000001, -0.246, 192.0, 0.0, 0.0, 0.0, 0.0, 0.0, 0.0, 0.0, 0.0, 0.0, 1.741025872019258E9, 0.0, 2025-03-03 12:17:52.019
154.0, -27642.20120217815, 5652.331489602505, -26650.297838484985, -4530.296269690546, -187500.02235174447, -16950.98184954904, -5155.407506872119, -36832.00917625537, 0.068, 0.9520000000000001, -0.246, 192.0, 0.0, 0.0, 0.0, 0.0, 0.0, 0.0, 0.0, 0.0, 0.0, 1.741025872019279E9, 0.0, 2025-03-03 12:17:52.019
155.0, -27632.65700729573, 5767.465325291792, -26652.08597804141, -4521.735551564164, -187500.02235174447, -16942.465834911567, -5171.1207832242, -36824.76721105185, 0.068, 0.9520000000000001, -0.246, 192.0, 0.0, 0.0, 0.0, 0.0, 0.0, 0.0, 0.0, 0.0, 0.0, 1.7410258720193E9, 0.0, 2025-03-03 12:17:52.019
156.0, -27659.52380413101, 5729.735580651233, -26658.635039166813, -4524.4624643877105, -187500.02235174447, -16938.15194823169, -5169.422050645596, -36831.2939204328, 0.068, 0.9520000000000001, -0.246, 192.0, 0.0, 0.0, 0.0, 0.0, 0.0, 0.0, 0.0, 0.0, 0.0, 1.741025872019325E9, 0.0, 2025-03-03 12:17:52.019
157.0, -27703.534388963508, 5631.276146325606, -26666.100521814886, -4536.532406393577, -187500.02235174447, -16947.62908788074, -5178.161582727621, -36862.38519697013, 0.05, 0.9480000000000001, -0.242, 192.0, 1.0, 144.0, 29.0, 160.0, 248.0, 112.0, 0.0, 0.0, 0.0, 1.741025872019347E9, 0.0, 2025-03-03 12:17:52.019
158.0, -27623.917475213704, 5657.673556527324, -26653.69530364219, -4527.457598144722, -187500.02235174447, -16943.605773878786, -5180.553219384339, -36847.00719678488, 0.05, 0.9480000000000001, -0.242, 192.0, 0.0, 0.0, 0.0, 0.0, 0.0, 0.0, 0.0, 0.0, 0.0, 1.741025872019386E9, 0.0, 2025-03-03 12:17:52.019
159.0, -27586.50065499552, 5766.705365980311, -26650.878983840823, -4526.719990577697, -187500.02235174447, -16943.4493116676, -5188.532792154884, -36842.71566184946, 0.05, 0.9480000000000001, -0.242, 192.0, 0.0, 0.0, 0.0, 0.0, 0.0, 0.0, 0.0, 0.0, 0.0, 1.741025872019411E9, 0.0, 2025-03-03 12:17:52.019
160.0, -27632.500545084542, 5754.993051885731, -26659.864385111858, -4541.807418085029, -187500.02235174447, -16940.25301221049, -5184.8224025753025, -36872.86816511967, 0.05, 0.9480000000000001, -0.242, 192.0, 0.0, 0.0, 0.0, 0.0, 0.0, 0.0, 0.0, 0.0, 0.0, 1.741025872019436E9, 0.0, 2025-03-03 12:17:52.019
161.0, -27656.059283740437, 5653.359669847449, -26667.151053804286, -4547.373002454401, -187500.02235174447, -16947.539680902923, -5199.93218182709, -36889.02847636086, 0.05, 0.9480000000000001, -0.242, 192.0, 0.0, 0.0, 0.0, 0.0, 0.0, 0.0, 0.0, 0.0, 0.0, 1.741025872019463E9, 0.0, 2025-03-03 12:17:52.019
162.0, -27650.538402859976, 5646.788256977589, -26676.203510308686, -4538.23113897218, -187500.02235174447, -16945.885651813227, -5213.879670367202, -36819.60395808268, 0.05, 0.9480000000000001, -0.242, 192.0, 0.0, 0.0, 0.0, 0.0, 0.0, 0.0, 0.0, 0.0, 0.0, 1.741025872019483E9, 0.0, 2025-03-03 12:17:52.019
163.0, -27609.210027362114, 5743.414848257881, -26674.66123994127, -4534.923080792794, -187500.02235174447, -16943.717532601062, -5223.55797571635, -36824.65545232957, 0.05, 0.9480000000000001, -0.242, 192.0, 0.0, 0.0, 0.0, 0.0, 0.0, 0.0, 0.0, 0.0, 0.0, 1.74102587201951E9, 0.0, 2025-03-03 12:17:52.019
164.0, -27580.242166548036, 5782.888028965954, -26645.89454482729, -4518.248679429135, -187500.02235174447, -16932.20638420658, -5208.537603442383, -36840.74870833739, 0.05, 0.9480000000000001, -0.242, 192.0, 0.0, 0.0, 0.0, 0.0, 0.0, 0.0, 0.0, 0.0, 0.0, 1.741025872019532E9, 0.0, 2025-03-03 12:17:52.019
165.0, -27633.193449162656, 5674.3032544020725, -26664.98293459212, -4532.866720302906, -187500.02235174447, -16936.11793948626, -5214.907850612146, -36832.7467838224, 0.05, 0.9480000000000001, -0.242, 192.0, 0.0, 0.0, 0.0, 0.0, 0.0, 0.0, 0.0, 0.0, 0.0, 1.741025872019553E9, 0.0, 2025-03-03 12:17:52.019
166.0, -27622.196390890647, 5659.752268761667, -26656.153995532277, -4525.714162077208, -187500.02235174447, -16930.239430694513, -5206.481242952495, -36811.959661478955, 0.05, 0.9480000000000001, -0.242, 192.0, 0.0, 0.0, 0.0, 0.0, 0.0, 0.0, 0.0, 0.0, 0.0, 1.741025872079538E9, 0.0, 2025-03-03 12:17:52.079
167.0, -27620.899989712238, 5742.699592435311, -26656.51162344356, -4524.194243454247, -187500.02235174447, -16934.709779585573, -5218.640591936182, -36827.494123875396, 0.044, 0.9540000000000001, -0.234, 192.0, 1.0, 96.0, 29.0, 208.0, 248.0, 176.0, 0.0, 0.0, 0.0, 1.74102587207961E9, 0.0, 2025-03-03 12:17:52.079
168.0, -27556.16933776967, 5811.095930468551, -26651.862460596858, -4530.296269690546, -187500.02235174447, -16933.145157473704, -5224.69791468357, -36835.808972812774, 0.044, 0.9540000000000001, -0.234, 192.0, 0.0, 0.0, 0.0, 0.0, 0.0, 0.0, 0.0, 0.0, 0.0, 1.741025872079634E9, 0.0, 2025-03-03 12:17:52.079
169.0, -27584.01961136098, 5699.046635514097, -26660.736103145613, -4541.89682506285, -187500.02235174447, -16929.144195216202, -5235.22558632202, -36848.3483014522, 0.044, 0.9540000000000001, -0.234, 192.0, 0.0, 0.0, 0.0, 0.0, 0.0, 0.0, 0.0, 0.0, 0.0, 1.741025872079656E9, 0.0, 2025-03-03 12:17:52.079
170.0, -27609.612358762308, 5652.286786113595, -26662.010152579565, -4550.457543189233, -187500.02235174447, -16932.16168071767, -5230.442313008584, -36850.49406891991, 0.044, 0.9540000000000001, -0.234, 192.0, 0.0, 0.0, 0.0, 0.0, 0.0, 0.0, 0.0, 0.0, 0.0, 1.741025872079677E9, 0.0, 2025-03-03 12:17:52.079
171.0, -27580.599794459322, 5723.477092203748, -26646.94507681669, -4547.440057687767, -187500.02235174447, -16930.418244650155, -5223.580327460805, -36842.73801359392, 0.044, 0.9540000000000001, -0.234, 192.0, 0.0, 0.0, 0.0, 0.0, 0.0, 0.0, 0.0, 0.0, 0.0, 1.741025872079698E9, 0.0, 2025-03-03 12:17:52.079
172.0, -27549.21794524407, 5813.53227061418, -26646.788614605503, -4539.035801772571, -187500.02235174447, -16936.654381353186, -5227.447179251573, -36848.884743319126, 0.044, 0.9540000000000001, -0.234, 192.0, 0.0, 0.0, 0.0, 0.0, 0.0, 0.0, 0.0, 0.0, 0.0, 1.741025872079719E9, 0.0, 2025-03-03 12:17:52.079
173.0, -27629.46070783862, 5705.2380687282175, -26661.361951990362, -4553.18445601278, -187500.02235174447, -16944.879823312738, -5229.8388159082915, -36851.14226950911, 0.044, 0.9540000000000001, -0.234, 192.0, 0.0, 0.0, 0.0, 0.0, 0.0, 0.0, 0.0, 0.0, 0.0, 1.741025872079741E9, 0.0, 2025-03-03 12:17:52.079
174.0, -27631.673530539698, 5639.009849907142, -26662.07720781293, -4553.6314909018865, -187500.02235174447, -16945.5503756464, -5237.550167745372, -36843.92265605005, 0.044, 0.9540000000000001, -0.234, 192.0, 0.0, 0.0, 0.0, 0.0, 0.0, 0.0, 0.0, 0.0, 0.0, 1.741025872079786E9, 0.0, 2025-03-03 12:17:52.079
175.0, -27583.50552123851, 5696.900868046388, -26650.27548674053, -4538.61111862792, -187500.02235174447, -16934.48626214102, -5229.011801363445, -36842.46979266045, 0.044, 0.9540000000000001, -0.234, 192.0, 0.0, 0.0, 0.0, 0.0, 0.0, 0.0, 0.0, 0.0, 0.0, 1.741025872079811E9, 0.0, 2025-03-03 12:17:52.079
176.0, -27558.06923604837, 5795.047377949641, -26649.336713473407, -4537.739400594163, -187500.02235174447, -16926.529041114933, -5230.442313008584, -36831.62919659963, 0.044, 0.9540000000000001, -0.234, 192.0, 0.0, 0.0, 0.0, 0.0, 0.0, 0.0, 0.0, 0.0, 0.0, 1.741025872079833E9, 0.0, 2025-03-03 12:17:52.079
177.0, -27639.004902721037, 5708.210850740773, -26668.805082893978, -4551.172799011802, -187500.02235174447, -16939.62716336574, -5239.718286957537, -36845.28611246182, 0.042, 0.9560000000000001, -0.23, 192.0, 1.0, 80.0, 29.0, 224.0, 248.0, 208.0, 0.0, 0.0, 0.0, 1.741025872079859E9, 0.0, 2025-03-03 12:17:52.079
178.0, -27659.85908029784, 5632.594899248469, -26677.432856253727, -4557.788915370574, -187500.02235174447, -16944.701009357097, -5256.459743554562, -36854.67384513305, 0.042, 0.9560000000000001, -0.23, 192.0, 0.0, 0.0, 0.0, 0.0, 0.0, 0.0, 0.0, 0.0, 0.0, 1.741025872079888E9, 0.0, 2025-03-03 12:17:52.079
179.0, -27611.31109134091, 5685.546181863092, -26663.239498524606, -4540.1310372508815, -187500.02235174447, -16929.010084749472, -5253.933996431112, -36846.493106662405, 0.042, 0.9560000000000001, -0.23, 192.0, 0.0, 0.0, 0.0, 0.0, 0.0, 0.0, 0.0, 0.0, 0.0, 1.741025872079909E9, 0.0, 2025-03-03 12:17:52.079
180.0, -27554.314142979878, 5810.492433368258, -26667.03929508201, -4548.04355478806, -187500.02235174447, -16934.374503418745, -5259.141952889198, -36874.20926978699, 0.042, 0.9560000000000001, -0.23, 192.0, 0.0, 0.0, 0.0, 0.0, 0.0, 0.0, 0.0, 0.0, 0.0, 1.74102587207993E9, 0.0, 2025-03-03 12:17:52.079
181.0, -27589.764009685998, 5780.116412653496, -26672.247251540095, -4559.4429444602665, -187500.02235174447, -16945.103340757294, -5273.648235040693, -36891.26365080639, 0.042, 0.9560000000000001, -0.23, 192.0, 0.0, 0.0, 0.0, 0.0, 0.0, 0.0, 0.0, 0.0, 0.0, 1.74102587213997E9, 0.0, 2025-03-03 12:17:52.139
182.0, -27615.84849546534, 5683.690987073301, -26658.724446144635, -4536.979441282683, -187500.02235174447, -16932.094625484304, -5265.6463105256935, -36839.720528092446, 0.042, 0.9560000000000001, -0.23, 192.0, 0.0, 0.0, 0.0, 0.0, 0.0, 0.0, 0.0, 0.0, 0.0, 1.741025872140015E9, 0.0, 2025-03-03 12:17:52.140
183.0, -27610.88640819626, 5700.723016348245, -26660.22201302314, -4543.237929730169, -187500.02235174447, -16930.01591324996, -5256.504447043472, -36837.37359492464, 0.042, 0.9560000000000001, -0.23, 192.0, 0.0, 0.0, 0.0, 0.0, 0.0, 0.0, 0.0, 0.0, 0.0, 1.741025872140037E9, 0.0, 2025-03-03 12:17:52.140
184.0, -27568.663962920185, 5819.455482894836, -26644.955771560166, -4536.666516860309, -187500.02235174447, -16924.651494580685, -5255.856246454268, -36852.863353832174, 0.042, 0.9560000000000001, -0.23, 192.0, 0.0, 0.0, 0.0, 0.0, 0.0, 0.0, 0.0, 0.0, 0.0, 1.741025872140059E9, 0.0, 2025-03-03 12:17:52.140
185.0, -27588.825236418874, 5817.175604960395, -26642.27356222553, -4527.65876384482, -187500.02235174447, -16923.60096259129, -5250.581234762816, -36830.10927797667, 0.042, 0.9560000000000001, -0.23, 192.0, 0.0, 0.0, 0.0, 0.0, 0.0, 0.0, 0.0, 0.0, 0.0, 1.74102587214008E9, 0.0, 2025-03-03 12:17:52.140
186.0, -27602.482152281067, 5696.967923279753, -26646.788614605503, -4535.034839515071, -187500.02235174447, -16926.3949306482, -5277.582142064827, -36849.3988334416, 0.042, 0.9560000000000001, -0.23, 192.0, 0.0, 0.0, 0.0, 0.0, 0.0, 0.0, 0.0, 0.0, 0.0, 1.741025872140105E9, 0.0, 2025-03-03 12:17:52.140
187.0, -27600.202274346626, 5701.661789615368, -26655.483443198616, -4546.523636165099, -187500.02235174447, -16934.039227251917, -5295.150613206699, -36848.48241191893, 0.042, 0.96, -0.234, 192.0, 1.0, 80.0, 30.0, 0.0, 248.0, 176.0, 0.0, 0.0, 0.0, 1.741025872140127E9, 0.0, 2025-03-03 12:17:52.140
188.0, -27566.898175108217, 5799.473023351792, -26651.08014954092, -4542.857950074429, -187500.02235174447, -16932.87693654024, -5303.376055166252, -36864.41920571557, 0.042, 0.96, -0.234, 192.0, 0.0, 0.0, 0.0, 0.0, 0.0, 0.0, 0.0, 0.0, 0.0, 1.741025872140149E9, 0.0, 2025-03-03 12:17:52.140
189.0, -27615.110887898314, 5835.5487389026575, -26658.344466488896, -4544.646089630854, -187500.02235174447, -16933.68159934063, -5294.614171339771, -36867.99548482841, 0.042, 0.96, -0.234, 192.0, 0.0, 0.0, 0.0, 0.0, 0.0, 0.0, 0.0, 0.0, 0.0, 1.741025872140187E9, 0.0, 2025-03-03 12:17:52.140
190.0, -27670.76673159203, 5708.032036785131, -26651.571887918937, -4543.774371597096, -187500.02235174447, -16933.726302829542, -5272.597703051294, -36862.13932778112, 0.042, 0.96, -0.234, 192.0, 0.0, 0.0, 0.0, 0.0, 0.0, 0.0, 0.0, 0.0, 0.0, 1.741025872140216E9, 0.0, 2025-03-03 12:17:52.140
191.0, -27587.08180035136, 5685.367367907449, -26638.116137756842, -4531.100932490937, -187500.02235174447, -16925.43380563662, -5283.19242992311, -36846.96249329597, 0.042, 0.96, -0.234, 192.0, 0.0, 0.0, 0.0, 0.0, 0.0, 0.0, 0.0, 0.0, 0.0, 1.741025872140237E9, 0.0, 2025-03-03 12:17:52.140
192.0, -27557.041055803427, 5777.903589952421, -26650.789576863, -4539.907519806328, -187500.02235174447, -16925.724378314542, -5294.725930062048, -36863.18985977052, 0.042, 0.96, -0.234, 192.0, 0.0, 0.0, 0.0, 0.0, 0.0, 0.0, 0.0, 0.0, 0.0, 1.741025872140261E9, 0.0, 2025-03-03 12:17:52.140
193.0, -27558.13629128174, 5852.044326310674, -26644.754605860067, -4540.1310372508815, -187500.02235174447, -16934.374503418745, -5297.408139396684, -36877.71849366647, 0.042, 0.96, -0.234, 192.0, 0.0, 0.0, 0.0, 0.0, 0.0, 0.0, 0.0, 0.0, 0.0, 1.741025872140283E9, 0.0, 2025-03-03 12:17:52.140
194.0, -27587.975870129572, 5745.247691303217, -26647.70503612817, -4540.578072139987, -187500.02235174447, -16933.25691619598, -5295.955276007089, -36870.476528462954, 0.042, 0.96, -0.234, 192.0, 0.0, 0.0, 0.0, 0.0, 0.0, 0.0, 0.0, 0.0, 0.0, 1.741025872140316E9, 0.0, 2025-03-03 12:17:52.140
195.0, -27581.98560261555, 5701.527679148636, -26649.78374836251, -4538.789932583562, -187500.02235174447, -16934.598020863297, -5307.019389512467, -36883.261726291385, 0.042, 0.96, -0.234, 192.0, 0.0, 0.0, 0.0, 0.0, 0.0, 0.0, 0.0, 0.0, 0.0, 1.741025872140336E9, 0.0, 2025-03-03 12:17:52.140
196.0, -27542.288904462923, 5788.610075546512, -26650.163728018255, -4540.913348306817, -187500.02235174447, -16937.839023809316, -5310.52861339195, -36893.25295606291, 0.042, 0.96, -0.234, 192.0, 0.0, 0.0, 0.0, 0.0, 0.0, 0.0, 0.0, 0.0, 0.0, 1.741025872200295E9, 0.0, 2025-03-03 12:17:52.200
197.0, -27542.959456796583, 5887.02480638323, -26657.964486833156, -4552.089220534471, -187500.02235174447, -16943.35990468978, -5309.455729658095, -36894.594060730225, 0.042, 0.964, -0.23, 192.0, 1.0, 80.0, 30.0, 32.0, 248.0, 208.0, 0.0, 0.0, 0.0, 1.741025872200337E9, 0.0, 2025-03-03 12:17:52.200
198.0, -27619.692995511654, 5795.76263377221, -26661.004324079076, -4548.624700143898, -187500.02235174447, -16938.82250056535, -5308.293438946419, -36881.47358673497, 0.042, 0.964, -0.23, 192.0, 0.0, 0.0, 0.0, 0.0, 0.0, 0.0, 0.0, 0.0, 0.0, 1.74102587220036E9, 0.0, 2025-03-03 12:17:52.200
199.0, -27639.496641099053, 5717.598583412002, -26664.044161325, -4557.252473503647, -187500.02235174447, -16945.706837857586, -5318.552889651405, -36888.40262751611, 0.042, 0.964, -0.23, 192.0, 0.0, 0.0, 0.0, 0.0, 0.0, 0.0, 0.0, 0.0, 0.0, 1.741025872200381E9, 0.0, 2025-03-03 12:17:52.200
200.0, -27593.139123098746, 5768.627616003468, -26658.433873466718, -4559.644110160364, -187500.02235174447, -16950.847739082306, -5335.495511948528, -36897.58919448724, 0.042, 0.964, -0.23, 192.0, 0.0, 0.0, 0.0, 0.0, 0.0, 0.0, 0.0, 0.0, 0.0, 1.741025872200401E9, 0.0, 2025-03-03 12:17:52.200
201.0, -27562.293715750424, 5870.573922464124, -26652.309495485963, -4555.062002547026, -187500.02235174447, -16946.73501810253, -5340.681116662159, -36898.28209856535, 0.042, 0.964, -0.23, 192.0, 0.0, 0.0, 0.0, 0.0, 0.0, 0.0, 0.0, 0.0, 0.0, 1.741025872200421E9, 0.0, 2025-03-03 12:17:52.200
202.0, -27630.08655668337, 5794.198011660339, -26662.054856068477, -4561.56636018352, -187500.02235174447, -16960.615451409274, -5348.2360062880525, -36908.00510740341, 0.042, 0.964, -0.23, 192.0, 0.0, 0.0, 0.0, 0.0, 0.0, 0.0, 0.0, 0.0, 0.0, 1.741025872200443E9, 0.0, 2025-03-03 12:17:52.200
203.0, -27645.84453652436, 5715.676333388846, -26657.56215543296, -4552.782124612585, -187500.02235174447, -16957.665021141176, -5342.648070174226, -36898.61737473218, 0.042, 0.964, -0.23, 192.0, 0.0, 0.0, 0.0, 0.0, 0.0, 0.0, 0.0, 0.0, 0.0, 1.741025872200464E9, 0.0, 2025-03-03 12:17:52.200
204.0, -27615.982605932073, 5746.052354103608, -26654.9917048206, -4550.524598422599, -187500.02235174447, -16958.91671883067, -5354.606253457815, -36918.17515113058, 0.042, 0.964, -0.23, 192.0, 0.0, 0.0, 0.0, 0.0, 0.0, 0.0, 0.0, 0.0, 0.0, 1.741025872200505E9, 0.0, 2025-03-03 12:17:52.200
205.0, -27571.569689699376, 5868.986948607797, -26659.305591500473, -4555.889017091873, -187500.02235174447, -16965.398724722712, -5369.447811776139, -36912.09547663874, 0.042, 0.964, -0.23, 192.0, 0.0, 0.0, 0.0, 0.0, 0.0, 0.0, 0.0, 0.0, 0.0, 1.741025872200535E9, 0.0, 2025-03-03 12:17:52.200
206.0, -27626.443222337155, 5826.853910309543, -26663.75358864708, -4555.777258369596, -187500.02235174447, -16964.45995145559, -5368.039651875455, -36903.42299979008, 0.042, 0.964, -0.23, 192.0, 0.0, 0.0, 0.0, 0.0, 0.0, 0.0, 0.0, 0.0, 0.0, 1.741025872200556E9, 0.0, 2025-03-03 12:17:52.200
207.0, -27636.456803853132, 5725.712266649279, -26662.18896653521, -4554.95024382475, -187500.02235174447, -16966.516311945477, -5360.1494860827315, -36899.93612765505, 0.044, 0.96, -0.228, 192.0, 1.0, 96.0, 30.0, 0.0, 248.0, 224.0, 0.0, 0.0, 0.0, 1.741025872200581E9, 0.0, 2025-03-03 12:17:52.200
208.0, -27609.835876206864, 5735.949365609809, -26657.271582755042, -4561.096973549959, -187500.02235174447, -16965.219910767068, -5364.955111140623, -36906.66400273609, 0.044, 0.96, -0.228, 192.0, 0.0, 0.0, 0.0, 0.0, 0.0, 0.0, 0.0, 0.0, 0.0, 1.741025872200604E9, 0.0, 2025-03-03 12:17:52.200
209.0, -27572.12848331076, 5854.324204245116, -26663.08303631342, -4567.489572464177, -187500.02235174447, -16969.04205906893, -5371.34771005484, -36924.54539830034, 0.044, 0.96, -0.228, 192.0, 0.0, 0.0, 0.0, 0.0, 0.0, 0.0, 0.0, 0.0, 0.0, 1.741025872200631E9, 0.0, 2025-03-03 12:17:52.200
210.0, -27587.68529745165, 5871.423288753425, -26655.75166413208, -4556.716031636719, -187500.02235174447, -16962.291832243423, -5365.692718707647, -36906.39578180263, 0.044, 0.96, -0.228, 192.0, 0.0, 0.0, 0.0, 0.0, 0.0, 0.0, 0.0, 0.0, 0.0, 1.741025872200652E9, 0.0, 2025-03-03 12:17:52.200
211.0, -27636.85913525333, 5752.288490806639, -26657.383341477318, -4562.035746817082, -187500.02235174447, -16966.56101543439, -5374.901637423234, -36911.33551732725, 0.044, 0.96, -0.228, 192.0, 0.0, 0.0, 0.0, 0.0, 0.0, 0.0, 0.0, 0.0, 0.0, 1.741025872260472E9, 0.0, 2025-03-03 12:17:52.260
212.0, -27625.303283369936, 5738.810388900089, -26642.40767269226, -4548.892921077361, -187500.02235174447, -16956.54743391841, -5373.426422289183, -36907.84864519223, 0.044, 0.96, -0.228, 192.0, 0.0, 0.0, 0.0, 0.0, 0.0, 0.0, 0.0, 0.0, 0.0, 1.741025872260502E9, 0.0, 2025-03-03 12:17:52.260
213.0, -27565.758236140995, 5850.032669309696, -26628.013149263043, -4542.4779704186885, -187500.02235174447, -16949.819558837364, -5380.333111325874, -36889.78843567234, 0.044, 0.96, -0.228, 192.0, 0.0, 0.0, 0.0, 0.0, 0.0, 0.0, 0.0, 0.0, 0.0, 1.741025872260524E9, 0.0, 2025-03-03 12:17:52.260
214.0, -27572.106131566303, 5907.923687448942, -26631.768242331535, -4546.076601275993, -187500.02235174447, -16954.334611217335, -5383.641169505259, -36900.24905207742, 0.044, 0.96, -0.228, 192.0, 0.0, 0.0, 0.0, 0.0, 0.0, 0.0, 0.0, 0.0, 0.0, 1.741025872260546E9, 0.0, 2025-03-03 12:17:52.260
215.0, -27656.1263389738, 5793.393348859948, -26653.047103052988, -4553.877360090895, -187500.02235174447, -16961.710686887585, -5406.21643140512, -36933.888427482656, 0.044, 0.96, -0.228, 192.0, 0.0, 0.0, 0.0, 0.0, 0.0, 0.0, 0.0, 0.0, 0.0, 1.741025872260567E9, 0.0, 2025-03-03 12:17:52.260
216.0, -27611.691070996654, 5773.768517228189, -26633.9363615437, -4535.593633126454, -187500.02235174447, -16944.499843657, -5393.945323699156, -36902.707743967505, 0.044, 0.96, -0.228, 192.0, 0.0, 0.0, 0.0, 0.0, 0.0, 0.0, 0.0, 0.0, 0.0, 1.741025872260587E9, 0.0, 2025-03-03 12:17:52.260
217.0, -27549.50851792199, 5865.120096817029, -26632.259980709554, -4531.5032638911325, -187500.02235174447, -16941.594116877808, -5405.568230815916, -36900.49492126643, 0.044, 0.962, -0.232, 192.0, 1.0, 96.0, 30.0, 16.0, 248.0, 192.0, 0.0, 0.0, 0.0, 1.741025872260608E9, 0.0, 2025-03-03 12:17:52.260
218.0, -27576.330611268357, 5943.060629732684, -26653.605896664372, -4544.668441375308, -187500.02235174447, -16948.344343703313, -5420.610954834337, -36907.71453472549, 0.044, 0.962, -0.232, 192.0, 0.0, 0.0, 0.0, 0.0, 0.0, 0.0, 0.0, 0.0, 0.0, 1.741025872260632E9, 0.0, 2025-03-03 12:17:52.260
219.0, -27635.316864885914, 5832.4418464233695, -26665.318210758953, -4557.453639203744, -187500.02235174447, -16955.742771118017, -5422.555556601948, -36917.951633686025, 0.044, 0.962, -0.232, 192.0, 0.0, 0.0, 0.0, 0.0, 0.0, 0.0, 0.0, 0.0, 0.0, 1.74102587226067E9, 0.0, 2025-03-03 12:17:52.260
220.0, -27612.719251241597, 5793.326293626582, -26649.470823940137, -4556.760735125629, -187500.02235174447, -16956.748599618506, -5415.626515820803, -36915.224720862476, 0.044, 0.962, -0.232, 192.0, 0.0, 0.0, 0.0, 0.0, 0.0, 0.0, 0.0, 0.0, 0.0, 1.741025872260696E9, 0.0, 2025-03-03 12:17:52.260
221.0, -27581.963250871093, 5857.5652071911345, -26636.439756922693, -4551.083392033982, -187500.02235174447, -16953.41818969467, -5413.413693119728, -36913.81656096179, 0.044, 0.962, -0.232, 192.0, 0.0, 0.0, 0.0, 0.0, 0.0, 0.0, 0.0, 0.0, 0.0, 1.741025872260721E9, 0.0, 2025-03-03 12:17:52.260
222.0, -27512.62813957073, 5966.351147455114, -26632.79642257648, -4549.585825155476, -187500.02235174447, -16954.535776917433, -5419.448664122661, -36919.65036626463, 0.044, 0.962, -0.232, 192.0, 0.0, 0.0, 0.0, 0.0, 0.0, 0.0, 0.0, 0.0, 0.0, 1.741025872260742E9, 0.0, 2025-03-03 12:17:52.260
223.0, -27577.381143257757, 5872.16089632045, -26642.206506992163, -4561.186380527781, -187500.02235174447, -16962.22477701006, -5423.203757191152, -36927.47347682399, 0.044, 0.962, -0.232, 192.0, 0.0, 0.0, 0.0, 0.0, 0.0, 0.0, 0.0, 0.0, 0.0, 1.741025872260766E9, 0.0, 2025-03-03 12:17:52.260
224.0, -27591.59685273133, 5785.816107489599, -26640.396015691284, -4564.248569518158, -187500.02235174447, -16957.910890330182, -5424.790731047479, -36934.514276327405, 0.044, 0.962, -0.232, 192.0, 0.0, 0.0, 0.0, 0.0, 0.0, 0.0, 0.0, 0.0, 0.0, 1.741025872260811E9, 0.0, 2025-03-03 12:17:52.260
225.0, -27563.03132331745, 5829.424360921903, -26640.060739524455, -4567.109592808437, -187500.02235174447, -16956.770951362963, -5436.860673053346, -36933.24022689345, 0.044, 0.962, -0.232, 192.0, 0.0, 0.0, 0.0, 0.0, 0.0, 0.0, 0.0, 0.0, 0.0, 1.741025872260834E9, 0.0, 2025-03-03 12:17:52.260
226.0, -27530.64364560171, 5947.061591990184, -26645.22399249363, -4581.884095893395, -187500.02235174447, -16972.59598643732, -5454.339737217395, -36955.03317773738, 0.044, 0.962, -0.232, 192.0, 0.0, 0.0, 0.0, 0.0, 0.0, 0.0, 0.0, 0.0, 0.0, 1.741025872319737E9, 0.0, 2025-03-03 12:17:52.319
227.0, -27575.391838001233, 5883.381472037015, -26650.700169885182, -4581.593523215476, -187500.02235174447, -16978.87682662926, -5464.018042566543, -36964.55502087534, 0.038, 0.964, -0.234, 192.0, 1.0, 48.0, 30.0, 32.0, 248.0, 176.0, 0.0, 0.0, 0.0, 1.741025872319807E9, 0.0, 2025-03-03 12:17:52.319
228.0, -27594.435524277156, 5779.065880664097, -26652.756530375067, -4586.667369206831, -187500.02235174447, -16980.150876063213, -5458.743030875091, -36969.539459888874, 0.038, 0.964, -0.234, 192.0, 0.0, 0.0, 0.0, 0.0, 0.0, 0.0, 0.0, 0.0, 0.0, 1.741025872319831E9, 0.0, 2025-03-03 12:17:52.319
229.0, -27569.960364098595, 5798.333084384571, -26647.57092566144, -4582.800517416063, -187500.02235174447, -16981.067297585883, -5448.751801103568, -36995.489835201486, 0.038, 0.964, -0.234, 192.0, 0.0, 0.0, 0.0, 0.0, 0.0, 0.0, 0.0, 0.0, 0.0, 1.741025872319853E9, 0.0, 2025-03-03 12:17:52.319
230.0, -27514.639796571708, 5913.489271818313, -26644.08405352641, -4577.570209213521, -187500.02235174447, -16979.83795164084, -5469.516571702549, -36986.97382056401, 0.038, 0.964, -0.234, 192.0, 0.0, 0.0, 0.0, 0.0, 0.0, 0.0, 0.0, 0.0, 0.0, 1.741025872319875E9, 0.0, 2025-03-03 12:17:52.319
231.0, -27548.569744654866, 5905.509699047769, -26637.803213334468, -4565.388508485378, -187500.02235174447, -16962.157721776694, -5454.518551173038, -36897.63389797615, 0.038, 0.964, -0.234, 192.0, 0.0, 0.0, 0.0, 0.0, 0.0, 0.0, 0.0, 0.0, 0.0, 1.741025872319896E9, 0.0, 2025-03-03 12:17:52.319
232.0, -27584.377239272268, 5793.728625026778, -26644.151108759776, -4573.748060911663, -187500.02235174447, -16966.11398054528, -5470.276531014029, -36908.40743880361, 0.038, 0.964, -0.234, 192.0, 0.0, 0.0, 0.0, 0.0, 0.0, 0.0, 0.0, 0.0, 0.0, 1.741025872319917E9, 0.0, 2025-03-03 12:17:52.319
233.0, -27567.345209997322, 5783.647988277435, -26651.102501285375, -4584.923933139316, -187500.02235174447, -16968.34915499081, -5475.752708405579, -36939.43166010758, 0.038, 0.964, -0.234, 192.0, 0.0, 0.0, 0.0, 0.0, 0.0, 0.0, 0.0, 0.0, 0.0, 1.741025872319941E9, 0.0, 2025-03-03 12:17:52.319
234.0, -27521.25591293048, 5890.489326773802, -26643.972294804134, -4572.675177177808, -187500.02235174447, -16967.92447184616, -5476.266798528051, -36955.1225847152, 0.038, 0.964, -0.234, 192.0, 0.0, 0.0, 0.0, 0.0, 0.0, 0.0, 0.0, 0.0, 0.0, 1.741025872319962E9, 0.0, 2025-03-03 12:17:52.319
235.0, -27544.702892864098, 5907.431949070925, -26651.951867574677, -4579.76068017014, -187500.02235174447, -16970.74079164753, -5476.870295628345, -36963.43743365257, 0.038, 0.964, -0.234, 192.0, 0.0, 0.0, 0.0, 0.0, 0.0, 0.0, 0.0, 0.0, 0.0, 1.741025872319988E9, 0.0, 2025-03-03 12:17:52.319
236.0, -27603.242111592546, 5794.712101782811, -26647.392111705794, -4572.4293079888, -187500.02235174447, -16973.26653877098, -5479.328987518428, -36968.623038366204, 0.038, 0.964, -0.234, 192.0, 0.0, 0.0, 0.0, 0.0, 0.0, 0.0, 0.0, 0.0, 0.0, 1.741025872320021E9, 0.0, 2025-03-03 12:17:52.320
237.0, -27561.712570394586, 5785.726700511778, -26630.337730686395, -4556.313700236524, -187500.02235174447, -16960.235471753535, -5474.210438038163, -36955.50256437094, 0.044, 0.9580000000000001, -0.232, 192.0, 1.0, 96.0, 29.0, 240.0, 248.0, 192.0, 0.0, 0.0, 0.0, 1.741025872320042E9, 0.0, 2025-03-03 12:17:52.320
238.0, -27492.623328283233, 5891.271637829738, -26632.79642257648, -4559.845275860462, -187500.02235174447, -16956.279212984948, -5488.560257978471, -36948.95350324554, 0.044, 0.9580000000000001, -0.232, 192.0, 0.0, 0.0, 0.0, 0.0, 0.0, 0.0, 0.0, 0.0, 0.0, 1.741025872320068E9, 0.0, 2025-03-03 12:17:52.320
239.0, -27521.72529956404, 5940.668993075967, -26643.882887826312, -4571.0658515770265, -187500.02235174447, -16954.960460062084, -5484.983978865621, -36949.08761371227, 0.044, 0.9580000000000001, -0.232, 192.0, 0.0, 0.0, 0.0, 0.0, 0.0, 0.0, 0.0, 0.0, 0.0, 1.741025872320089E9, 0.0, 2025-03-03 12:17:52.320
240.0, -27585.89715789523, 5837.560395903635, -26651.08014954092, -4560.180552027292, -187500.02235174447, -16957.620317652265, -5481.497106730593, -36953.379148647684, 0.044, 0.9580000000000001, -0.232, 192.0, 0.0, 0.0, 0.0, 0.0, 0.0, 0.0, 0.0, 0.0, 0.0, 1.741025872320119E9, 0.0, 2025-03-03 12:17:52.320
241.0, -27601.252806336022, 5801.931715241875, -26658.23270776662, -4567.646034675364, -187500.02235174447, -16962.940032832626, -5487.04033935551, -36956.97777950499, 0.044, 0.9580000000000001, -0.232, 192.0, 0.0, 0.0, 0.0, 0.0, 0.0, 0.0, 0.0, 0.0, 0.0, 1.741025872379525E9, 0.0, 2025-03-03 12:17:52.379
242.0, -27546.111052764783, 5879.313454546149, -26642.139451758798, -4564.919121851816, -187500.02235174447, -16953.26172748348, -5488.672016700747, -36954.18381144808, 0.044, 0.9580000000000001, -0.232, 192.0, 0.0, 0.0, 0.0, 0.0, 0.0, 0.0, 0.0, 0.0, 0.0, 1.741025872379597E9, 0.0, 2025-03-03 12:17:52.379
243.0, -27526.799145555397, 5959.042127018229, -26644.46403318215, -4569.6576916763415, -187500.02235174447, -16953.619355394763, -5489.074348100942, -36957.17894520509, 0.044, 0.9580000000000001, -0.232, 192.0, 0.0, 0.0, 0.0, 0.0, 0.0, 0.0, 0.0, 0.0, 0.0, 1.741025872379629E9, 0.0, 2025-03-03 12:17:52.379
244.0, -27579.146931069725, 5843.662422139933, -26654.209393764664, -4572.675177177808, -187500.02235174447, -16957.799131607906, -5488.247333556096, -36955.010825992926, 0.044, 0.9580000000000001, -0.232, 192.0, 0.0, 0.0, 0.0, 0.0, 0.0, 0.0, 0.0, 0.0, 0.0, 1.74102587237966E9, 0.0, 2025-03-03 12:17:52.379
245.0, -27590.16634108619, 5792.365168615004, -26659.28323975602, -4576.09499407947, -187500.02235174447, -16959.78843686443, -5506.173432609253, -36962.9233435301, 0.044, 0.9580000000000001, -0.232, 192.0, 0.0, 0.0, 0.0, 0.0, 0.0, 0.0, 0.0, 0.0, 0.0, 1.741025872379691E9, 0.0, 2025-03-03 12:17:52.379
246.0, -27559.29858199341, 5849.742096631778, -26663.463015969162, -4581.928799382305, -187500.02235174447, -16969.3549834913, -5521.126749649853, -36978.904840815645, 0.044, 0.9580000000000001, -0.232, 192.0, 0.0, 0.0, 0.0, 0.0, 0.0, 0.0, 0.0, 0.0, 0.0, 1.741025872379722E9, 0.0, 2025-03-03 12:17:52.379
247.0, -27538.690273605618, 5941.160731453983, -26663.306553757975, -4584.342787783478, -187500.02235174447, -16968.438561968633, -5522.020819428065, -36986.79500660837, 0.042, 0.964, -0.234, 192.0, 1.0, 80.0, 30.0, 32.0, 248.0, 176.0, 0.0, 0.0, 0.0, 1.741025872379752E9, 0.0, 2025-03-03 12:17:52.379
248.0, -27604.69497498214, 5850.032669309696, -26676.784655664524, -4597.731482712207, -187500.02235174447, -16977.669832428674, -5531.632069543847, -36991.488872943984, 0.042, 0.964, -0.234, 192.0, 0.0, 0.0, 0.0, 0.0, 0.0, 0.0, 0.0, 0.0, 0.0, 1.741025872379786E9, 0.0, 2025-03-03 12:17:52.379
249.0, -27617.99426293305, 5779.289398108649, -26674.03539109652, -4594.378721043911, -187500.02235174447, -16980.396745252223, -5538.203482413707, -36975.552079147354, 0.042, 0.964, -0.234, 192.0, 0.0, 0.0, 0.0, 0.0, 0.0, 0.0, 0.0, 0.0, 0.0, 1.741025872379816E9, 0.0, 2025-03-03 12:17:52.379
250.0, -27564.7077041516, 5819.567241617113, -26660.669047912248, -4581.414709259833, -187500.02235174447, -16968.21504452408, -5533.084932933442, -36945.287817154865, 0.042, 0.964, -0.234, 192.0, 0.0, 0.0, 0.0, 0.0, 0.0, 0.0, 0.0, 0.0, 0.0, 1.741025872379856E9, 0.0, 2025-03-03 12:17:52.379
251.0, -27511.130572692226, 5947.955661768397, -26654.65642865377, -4585.058043606048, -187500.02235174447, -16968.706782902096, -5531.185034654741, -36942.270331653395, 0.042, 0.964, -0.234, 192.0, 0.0, 0.0, 0.0, 0.0, 0.0, 0.0, 0.0, 0.0, 0.0, 1.741025872379899E9, 0.0, 2025-03-03 12:17:52.379
252.0, -27581.762085170998, 5897.753643721777, -26663.17244329124, -4593.730520454707, -187500.02235174447, -16984.442410998632, -5547.010069729098, -36955.614323093214, 0.042, 0.964, -0.234, 192.0, 0.0, 0.0, 0.0, 0.0, 0.0, 0.0, 0.0, 0.0, 0.0, 1.74102587237993E9, 0.0, 2025-03-03 12:17:52.379
253.0, -27609.23237910657, 5794.533287827169, -26663.820643880445, -4591.517697753632, -187500.02235174447, -16983.391879009232, -5551.502770364616, -36974.2780297134, 0.042, 0.964, -0.234, 192.0, 0.0, 0.0, 0.0, 0.0, 0.0, 0.0, 0.0, 0.0, 0.0, 1.741025872379967E9, 0.0, 2025-03-03 12:17:52.379
254.0, -27589.071105607884, 5811.855889780032, -26666.23463228162, -4596.6585989783525, -187500.02235174447, -16989.046870356426, -5560.555226869014, -36986.9291170751, 0.042, 0.964, -0.234, 192.0, 0.0, 0.0, 0.0, 0.0, 0.0, 0.0, 0.0, 0.0, 0.0, 1.741025872379998E9, 0.0, 2025-03-03 12:17:52.379
255.0, -27515.131534949727, 5937.942080252419, -26639.345483701883, -4583.202848816258, -187500.02235174447, -16981.044945841426, -5548.753505796612, -36958.36358766122, 0.042, 0.964, -0.234, 192.0, 0.0, 0.0, 0.0, 0.0, 0.0, 0.0, 0.0, 0.0, 0.0, 1.741025872380042E9, 0.0, 2025-03-03 12:17:52.380
0.0, -27555.387026713735, 5929.940155737419, -26646.676855883226, -4589.461337263744, -187500.02235174447, -16990.99147212404, -5552.352136653917, -36964.95735227554, 0.042, 0.964, -0.234, 192.0, 0.0, 0.0, 0.0, 0.0, 0.0, 0.0, 0.0, 0.0, 0.0, 1.741025872439921E9, 0.0, 2025-03-03 12:17:52.439
1.0, -27589.093457352337, 5817.15325321594, -26649.113196028855, -4595.7198257112295, -187500.02235174447, -16986.25290229951, -5552.374488398372, -36960.77757606239, 0.052000000000000005, 0.96, -0.23, 192.0, 1.0, 160.0, 30.0, 0.0, 248.0, 208.0, 0.0, 0.0, 0.0, 1.741025872439988E9, 0.0, 2025-03-03 12:17:52.439
2.0, -27597.877692923274, 5810.984171746275, -26641.75947210306, -4592.635284976397, -187500.02235174447, -16976.35107950581, -5558.834142545956, -36964.77853831989, 0.052000000000000005, 0.96, -0.23, 192.0, 0.0, 0.0, 0.0, 0.0, 0.0, 0.0, 0.0, 0.0, 0.0, 1.741025872440022E9, 0.0, 2025-03-03 12:17:52.440
3.0, -27506.816686012353, 5917.691399775911, -26626.73909982909, -4577.324340024512, -187500.02235174447, -16971.478399214557, -5566.031404260565, -36962.45395689654, 0.052000000000000005, 0.96, -0.23, 192.0, 0.0, 0.0, 0.0, 0.0, 0.0, 0.0, 0.0, 0.0, 0.0, 1.741025872440053E9, 0.0, 2025-03-03 12:17:52.440
4.0, -27520.31713966336, 5945.519321622768, -26632.975236532122, -4579.961845870238, -187500.02235174447, -16970.807846880896, -5572.178133985774, -36968.354817432744, 0.052000000000000005, 0.96, -0.23, 192.0, 0.0, 0.0, 0.0, 0.0, 0.0, 0.0, 0.0, 0.0, 0.0, 1.741025872440083E9, 0.0, 2025-03-03 12:17:52.440
5.0, -27589.13816084125, 5821.981230018286, -26629.443660908182, -4567.176648041803, -187500.02235174447, -16971.187826536636, -5564.757354826612, -36965.11381448672, 0.052000000000000005, 0.96, -0.23, 192.0, 0.0, 0.0, 0.0, 0.0, 0.0, 0.0, 0.0, 0.0, 0.0, 1.741025872440112E9, 0.0, 2025-03-03 12:17:52.440
6.0, -27567.88165186425, 5810.827709535088, -26635.769204589036, -4572.965749855727, -187500.02235174447, -16978.161570806693, -5573.2286659751735, -36974.52389890241, 0.052000000000000005, 0.96, -0.23, 192.0, 0.0, 0.0, 0.0, 0.0, 0.0, 0.0, 0.0, 0.0, 0.0, 1.741025872440142E9, 0.0, 2025-03-03 12:17:52.440
7.0, -27524.698081576596, 5907.990742682307, -26640.17249824673, -4580.6323982038975, -187500.02235174447, -16983.101306331315, -5580.224761989684, -36976.42379718111, 0.052000000000000005, 0.96, -0.23, 192.0, 0.0, 0.0, 0.0, 0.0, 0.0, 0.0, 0.0, 0.0, 0.0, 1.741025872440172E9, 0.0, 2025-03-03 12:17:52.440
8.0, -27539.83021257284, 5967.669900377978, -26640.284256969007, -4580.766508670629, -187500.02235174447, -16977.69218417313, -5583.9127998248105, -36959.548230117354, 0.052000000000000005, 0.96, -0.23, 192.0, 0.0, 0.0, 0.0, 0.0, 0.0, 0.0, 0.0, 0.0, 0.0, 1.741025872440202E9, 0.0, 2025-03-03 12:17:52.440
9.0, -27605.723155227086, 5852.357250733048, -26635.433928422204, -4574.887999878883, -187500.02235174447, -16970.114942802782, -5584.695110880746, -36975.86500356973, 0.052000000000000005, 0.96, -0.23, 192.0, 0.0, 0.0, 0.0, 0.0, 0.0, 0.0, 0.0, 0.0, 0.0, 1.74102587244024E9, 0.0, 2025-03-03 12:17:52.440
10.0, -27533.25879970298, 5821.310677684627, -26614.46799212313, -4560.158200282836, -187500.02235174447, -16957.64266939672, -5586.416195203805, -36969.98649477798, 0.052000000000000005, 0.96, -0.23, 192.0, 0.0, 0.0, 0.0, 0.0, 0.0, 0.0, 0.0, 0.0, 0.0, 1.741025872440278E9, 0.0, 2025-03-03 12:17:52.440
11.0, -27498.613595797255, 5907.722521748844, -26623.788669560992, -4579.872438892417, -187500.02235174447, -16966.18103577865, -5599.357855243427, -36960.44229989556, 0.05, 0.96, -0.23, 192.0, 1.0, 144.0, 30.0, 0.0, 248.0, 208.0, 0.0, 0.0, 0.0, 1.741025872440336E9, 0.0, 2025-03-03 12:17:52.440
12.0, -27508.671880802143, 5981.37151972908, -26631.45531790916, -4580.967674370727, -187500.02235174447, -16970.606681180798, -5603.314114012017, -36950.20520093503, 0.05, 0.96, -0.23, 192.0, 0.0, 0.0, 0.0, 0.0, 0.0, 0.0, 0.0, 0.0, 0.0, 1.741025872440376E9, 0.0, 2025-03-03 12:17:52.440
13.0, -27597.385954545254, 5868.674024185422, -26646.27452448303, -4589.282523308101, -187500.02235174447, -16981.3578702638, -5608.812643148022, -36972.64635236816, 0.05, 0.96, -0.23, 192.0, 0.0, 0.0, 0.0, 0.0, 0.0, 0.0, 0.0, 0.0, 0.0, 1.741025872440397E9, 0.0, 2025-03-03 12:17:52.440
14.0, -27581.091532837338, 5826.518634142713, -26635.724501100125, -4575.826773146006, -187500.02235174447, -16976.97692835056, -5607.069207080509, -36983.174024006614, 0.05, 0.96, -0.23, 192.0, 0.0, 0.0, 0.0, 0.0, 0.0, 0.0, 0.0, 0.0, 0.0, 1.74102587244043E9, 0.0, 2025-03-03 12:17:52.440
15.0, -27507.39783136819, 5887.874172672531, -26621.821716048922, -4563.0862788064815, -187500.02235174447, -16964.12467528876, -5606.175137302296, -36958.140070216665, 0.05, 0.96, -0.23, 192.0, 0.0, 0.0, 0.0, 0.0, 0.0, 0.0, 0.0, 0.0, 0.0, 1.741025872500111E9, 0.0, 2025-03-03 12:17:52.500
16.0, -27487.616537525242, 5995.6766361804775, -26621.866419537833, -4566.148467796858, -187500.02235174447, -16964.728172389052, -5613.685323439279, -36966.119642987214, 0.05, 0.96, -0.23, 192.0, 0.0, 0.0, 0.0, 0.0, 0.0, 0.0, 0.0, 0.0, 0.0, 1.741025872500139E9, 0.0, 2025-03-03 12:17:52.500
17.0, -27547.563916154377, 5914.74096950781, -26622.536971871494, -4562.102802050448, -187500.02235174447, -16956.83800659633, -5610.041989093064, -36950.20520093503, 0.05, 0.96, -0.23, 192.0, 0.0, 0.0, 0.0, 0.0, 0.0, 0.0, 0.0, 0.0, 0.0, 1.741025872500174E9, 0.0, 2025-03-03 12:17:52.500
18.0, -27562.003143072507, 5836.621622636512, -26625.152125972763, -4561.923988094805, -187500.02235174447, -16961.911852587684, -5614.758207173134, -36942.560904331316, 0.05, 0.96, -0.23, 192.0, 0.0, 0.0, 0.0, 0.0, 0.0, 0.0, 0.0, 0.0, 0.0, 1.741025872500196E9, 0.0, 2025-03-03 12:17:52.500
19.0, -27535.35986368178, 5873.054966098663, -26624.03453875, -4559.934682838283, -187500.02235174447, -16966.337497989833, -5622.44720726576, -36930.08863092525, 0.05, 0.96, -0.23, 192.0, 0.0, 0.0, 0.0, 0.0, 0.0, 0.0, 0.0, 0.0, 0.0, 1.741025872500217E9, 0.0, 2025-03-03 12:17:52.500
20.0, -27507.710755790566, 5988.501726210324, -26627.722576585125, -4567.064889319527, -187500.02235174447, -16969.243224769023, -5631.790236448078, -36951.88158176918, 0.05, 0.96, -0.23, 192.0, 0.0, 0.0, 0.0, 0.0, 0.0, 0.0, 0.0, 0.0, 0.0, 1.741025872500238E9, 0.0, 2025-03-03 12:17:52.500
21.0, -27556.7057796366, 5955.577606627657, -26636.0374255225, -4571.736403910685, -187500.02235174447, -16965.48813170053, -5647.21294012224, -36963.63859935267, 0.054, 0.9580000000000001, -0.222, 192.0, 1.0, 176.0, 29.0, 240.0, 249.0, 16.0, 0.0, 0.0, 0.0, 1.741025872500259E9, 0.0, 2025-03-03 12:17:52.500
22.0, -27554.470605191065, 5866.505904973257, -26622.626378849316, -4566.506095708143, -187500.02235174447, -16954.178149006148, -5649.0681349120305, -36964.04093075287, 0.054, 0.9580000000000001, -0.222, 192.0, 0.0, 0.0, 0.0, 0.0, 0.0, 0.0, 0.0, 0.0, 0.0, 1.741025872500282E9, 0.0, 2025-03-03 12:17:52.500
23.0, -27548.83796558833, 5882.912085403453, -26622.179343960208, -4559.197075271258, -187500.02235174447, -16951.49593967151, -5654.4102018368485, -36967.03606450988, 0.054, 0.9580000000000001, -0.222, 192.0, 0.0, 0.0, 0.0, 0.0, 0.0, 0.0, 0.0, 0.0, 0.0, 1.741025872500303E9, 0.0, 2025-03-03 12:17:52.500
24.0, -27497.227787641026, 6006.494880496845, -26615.45146887916, -4561.4993049501545, -187500.02235174447, -16951.98767804953, -5662.032146696109, -36975.64148612517, 0.054, 0.9580000000000001, -0.222, 192.0, 0.0, 0.0, 0.0, 0.0, 0.0, 0.0, 0.0, 0.0, 0.0, 1.741025872500325E9, 0.0, 2025-03-03 12:17:52.500
25.0, -27504.469752844543, 6012.127520099583, -26632.37173943183, -4581.638226704386, -187500.02235174447, -16967.298623001414, -5674.839696268999, -36992.047666555365, 0.054, 0.9580000000000001, -0.222, 192.0, 0.0, 0.0, 0.0, 0.0, 0.0, 0.0, 0.0, 0.0, 0.0, 1.741025872500352E9, 0.0, 2025-03-03 12:17:52.500
26.0, -27568.79807338692, 5894.110309375562, -26630.717710342135, -4578.777203414107, -187500.02235174447, -16969.712611402585, -5670.5481613335805, -36987.35380021975, 0.054, 0.9580000000000001, -0.222, 192.0, 0.0, 0.0, 0.0, 0.0, 0.0, 0.0, 0.0, 0.0, 0.0, 1.741025872500384E9, 0.0, 2025-03-03 12:17:52.500
27.0, -27570.83208213235, 5892.098652374584, -26630.203620219665, -4566.4837439636885, -187500.02235174447, -16968.863245113283, -5675.174972435829, -36990.103064787756, 0.054, 0.9580000000000001, -0.222, 192.0, 0.0, 0.0, 0.0, 0.0, 0.0, 0.0, 0.0, 0.0, 0.0, 1.741025872500405E9, 0.0, 2025-03-03 12:17:52.500
28.0, -27507.77781102393, 6007.5677642307, -26615.429117134707, -4550.681060633786, -187500.02235174447, -16951.54064316042, -5670.011719466654, -36966.45491915404, 0.054, 0.9580000000000001, -0.222, 192.0, 0.0, 0.0, 0.0, 0.0, 0.0, 0.0, 0.0, 0.0, 0.0, 1.741025872500431E9, 0.0, 2025-03-03 12:17:52.500
29.0, -27500.98288070952, 6039.5307588017895, -26633.042291765487, -4574.083337078493, -187500.02235174447, -16963.49882644401, -5662.278015885117, -36981.162367005636, 0.054, 0.9580000000000001, -0.222, 192.0, 0.0, 0.0, 0.0, 0.0, 0.0, 0.0, 0.0, 0.0, 0.0, 1.741025872500452E9, 0.0, 2025-03-03 12:17:52.500
30.0, -27593.139123098746, 5911.343504350603, -26647.392111705794, -4591.741215198185, -187500.02235174447, -16971.098419558813, -5674.526771846625, -36984.51512867393, 0.054, 0.9580000000000001, -0.222, 192.0, 0.0, 0.0, 0.0, 0.0, 0.0, 0.0, 0.0, 0.0, 0.0, 1.741025872560309E9, 0.0, 2025-03-03 12:17:52.560
31.0, -27574.721285667576, 5890.265809329249, -26644.553440159973, -4575.647959190364, -187500.02235174447, -16961.911852587684, -5684.428594640326, -36960.08467198428, 0.048, 0.9580000000000001, -0.228, 192.0, 1.0, 128.0, 29.0, 240.0, 248.0, 224.0, 0.0, 0.0, 0.0, 1.741025872560336E9, 0.0, 2025-03-03 12:17:52.560
32.0, -27497.11602891875, 5995.028435591274, -26629.55541963046, -4570.61881668792, -187500.02235174447, -16960.59309966482, -5679.332396904516, -36970.99232327847, 0.048, 0.9580000000000001, -0.228, 192.0, 0.0, 0.0, 0.0, 0.0, 0.0, 0.0, 0.0, 0.0, 0.0, 1.741025872560372E9, 0.0, 2025-03-03 12:17:52.560
33.0, -27487.862406714252, 6068.543323104778, -26615.8314485349, -4571.222313788213, -187500.02235174447, -16967.74565789052, -5659.752268761667, -36989.58897466528, 0.048, 0.9580000000000001, -0.228, 192.0, 0.0, 0.0, 0.0, 0.0, 0.0, 0.0, 0.0, 0.0, 0.0, 1.741025872560393E9, 0.0, 2025-03-03 12:17:52.560
34.0, -27569.02159083147, 5948.246234446316, -26637.065605767442, -4583.873401149917, -187500.02235174447, -16974.294719015925, -5674.638530568902, -36982.347009461766, 0.048, 0.9580000000000001, -0.228, 192.0, 0.0, 0.0, 0.0, 0.0, 0.0, 0.0, 0.0, 0.0, 0.0, 1.741025872560414E9, 0.0, 2025-03-03 12:17:52.560
35.0, -27569.69214316513, 5914.36098985207, -26644.776957604525, -4593.305837310057, -187500.02235174447, -16984.39770750972, -5692.072891244041, -37013.61709995474, 0.048, 0.9580000000000001, -0.228, 192.0, 0.0, 0.0, 0.0, 0.0, 0.0, 0.0, 0.0, 0.0, 0.0, 1.74102587256044E9, 0.0, 2025-03-03 12:17:52.560
36.0, -27540.143136995215, 5993.463813479401, -26635.41157667775, -4590.266000064135, -187500.02235174447, -16979.390916751734, -5701.147699492896, -37005.07873357281, 0.048, 0.9580000000000001, -0.228, 192.0, 0.0, 0.0, 0.0, 0.0, 0.0, 0.0, 0.0, 0.0, 0.0, 1.741025872560461E9, 0.0, 2025-03-03 12:17:52.560
37.0, -27470.495101272478, 6084.569523879233, -26626.9849690181, -4587.04734886257, -187500.02235174447, -16964.54935843341, -5701.1924029818065, -36972.065207012325, 0.048, 0.9580000000000001, -0.228, 192.0, 0.0, 0.0, 0.0, 0.0, 0.0, 0.0, 0.0, 0.0, 0.0, 1.741025872560482E9, 0.0, 2025-03-03 12:17:52.560
38.0, -27541.797166084907, 5986.42301397598, -26641.871230825334, -4590.534220997599, -187500.02235174447, -16974.56293994939, -5710.423673441848, -36986.593840908274, 0.048, 0.9580000000000001, -0.228, 192.0, 0.0, 0.0, 0.0, 0.0, 0.0, 0.0, 0.0, 0.0, 0.0, 1.741025872560503E9, 0.0, 2025-03-03 12:17:52.560
39.0, -27556.7057796366, 5930.789522026721, -26636.70797785616, -4582.465241249232, -187500.02235174447, -16969.64555616922, -5703.025246027141, -36996.1827392796, 0.048, 0.9580000000000001, -0.228, 192.0, 0.0, 0.0, 0.0, 0.0, 0.0, 0.0, 0.0, 0.0, 0.0, 1.741025872560524E9, 0.0, 2025-03-03 12:17:52.560
40.0, -27518.283130917924, 5994.089662324151, -26627.722576585125, -4575.357386512445, -187500.02235174447, -16960.83896885383, -5696.386777923915, -36997.21091952454, 0.048, 0.9580000000000001, -0.228, 192.0, 0.0, 0.0, 0.0, 0.0, 0.0, 0.0, 0.0, 0.0, 0.0, 1.74102587256055E9, 0.0, 2025-03-03 12:17:52.560
41.0, -27486.230729369014, 6113.82795737123, -26625.59916086187, -4569.52358120961, -187500.02235174447, -16960.16841652017, -5705.349827450494, -36998.9320038476, 0.05, 0.9500000000000001, -0.224, 192.0, 1.0, 144.0, 29.0, 176.0, 249.0, 0.0, 0.0, 0.0, 0.0, 1.741025872560581E9, 0.0, 2025-03-03 12:17:52.560
42.0, -27543.02651202995, 6040.916566958019, -26643.346445959385, -4583.426366260811, -187500.02235174447, -16973.17713179316, -5713.441158943315, -37003.17883529411, 0.05, 0.9500000000000001, -0.224, 192.0, 0.0, 0.0, 0.0, 0.0, 0.0, 0.0, 0.0, 0.0, 0.0, 1.741025872560604E9, 0.0, 2025-03-03 12:17:52.560
43.0, -27570.720323410074, 5950.727278080854, -26647.727387872626, -4589.237819819191, -187500.02235174447, -16981.089649330337, -5718.783225868133, -37004.5869951948, 0.05, 0.9500000000000001, -0.224, 192.0, 0.0, 0.0, 0.0, 0.0, 0.0, 0.0, 0.0, 0.0, 0.0, 1.741025872560631E9, 0.0, 2025-03-03 12:17:52.560
44.0, -27573.3578292558, 5974.487182436846, -26646.453338438674, -4583.895752894372, -187500.02235174447, -16985.001204610016, -5729.154435295396, -37015.42759125562, 0.05, 0.9500000000000001, -0.224, 192.0, 0.0, 0.0, 0.0, 0.0, 0.0, 0.0, 0.0, 0.0, 0.0, 1.741025872560652E9, 0.0, 2025-03-03 12:17:52.560
45.0, -27500.424087098134, 6093.107890261161, -26633.60108537687, -4567.958959097738, -187500.02235174447, -16961.487169443033, -5736.999897599208, -37018.02039361243, 0.05, 0.9500000000000001, -0.224, 192.0, 0.0, 0.0, 0.0, 0.0, 0.0, 0.0, 0.0, 0.0, 0.0, 1.741025872620716E9, 0.0, 2025-03-03 12:17:52.620
46.0, -27515.377404138733, 6066.218741681426, -26641.267733725042, -4578.888962136383, -187500.02235174447, -16974.6076434383, -5744.644194202923, -37037.53346652192, 0.05, 0.9500000000000001, -0.224, 192.0, 0.0, 0.0, 0.0, 0.0, 0.0, 0.0, 0.0, 0.0, 0.0, 1.741025872620777E9, 0.0, 2025-03-03 12:17:52.620
47.0, -27575.056561834404, 5974.196609758927, -26654.835242609413, -4590.355407041956, -187500.02235174447, -16978.49684697352, -5754.322499552071, -37011.337222020295, 0.05, 0.9500000000000001, -0.224, 192.0, 0.0, 0.0, 0.0, 0.0, 0.0, 0.0, 0.0, 0.0, 0.0, 1.741025872620812E9, 0.0, 2025-03-03 12:17:52.620
48.0, -27546.73690160953, 5979.113993539095, -26643.86053608186, -4590.645979719875, -187500.02235174447, -16970.69608815862, -5750.6121099724905, -37004.22936728351, 0.05, 0.9500000000000001, -0.224, 192.0, 0.0, 0.0, 0.0, 0.0, 0.0, 0.0, 0.0, 0.0, 0.0, 1.741025872620834E9, 0.0, 2025-03-03 12:17:52.620
49.0, -27495.21613064005, 6090.850364071174, -26647.95090531718, -4603.073549637026, -187500.02235174447, -16978.4074399957, -5759.239883332239, -37024.01066112646, 0.05, 0.9500000000000001, -0.224, 192.0, 0.0, 0.0, 0.0, 0.0, 0.0, 0.0, 0.0, 0.0, 0.0, 1.741025872620855E9, 0.0, 2025-03-03 12:17:52.620
50.0, -27524.20634319858, 6087.274084958325, -26643.301742470474, -4600.748968213674, -187500.02235174447, -16978.83212314035, -5747.460514004292, -37044.551914280884, 0.05, 0.9500000000000001, -0.224, 192.0, 0.0, 0.0, 0.0, 0.0, 0.0, 0.0, 0.0, 0.0, 0.0, 1.741025872620876E9, 0.0, 2025-03-03 12:17:52.620
51.0, -27579.07987583636, 5980.94683658443, -26642.497079670084, -4591.629456475908, -187500.02235174447, -16970.852550369807, -5745.985298870242, -37013.08065808781, 0.052000000000000005, 0.9520000000000001, -0.23, 192.0, 1.0, 160.0, 29.0, 192.0, 248.0, 208.0, 0.0, 0.0, 0.0, 1.741025872620897E9, 0.0, 2025-03-03 12:17:52.620
52.0, -27552.056616789894, 5971.3802899575585, -26636.59621913388, -4593.439947776788, -187500.02235174447, -16965.622242167265, -5743.079572091052, -37005.8833963732, 0.052000000000000005, 0.9520000000000001, -0.23, 192.0, 0.0, 0.0, 0.0, 0.0, 0.0, 0.0, 0.0, 0.0, 0.0, 1.74102587262092E9, 0.0, 2025-03-03 12:17:52.620
53.0, -27475.166615863636, 6075.91939877503, -26634.65161736627, -4601.978314158716, -187500.02235174447, -16970.27140501397, -5766.99593865823, -37017.86393140125, 0.052000000000000005, 0.9520000000000001, -0.23, 192.0, 0.0, 0.0, 0.0, 0.0, 0.0, 0.0, 0.0, 0.0, 0.0, 1.741025872620941E9, 0.0, 2025-03-03 12:17:52.620
54.0, -27536.87978230474, 6100.640428142599, -26652.354198974874, -4613.556517786565, -187500.02235174447, -16981.514332474988, -5782.463345821303, -37034.71714672055, 0.052000000000000005, 0.9520000000000001, -0.23, 192.0, 0.0, 0.0, 0.0, 0.0, 0.0, 0.0, 0.0, 0.0, 0.0, 1.741025872620967E9, 0.0, 2025-03-03 12:17:52.620
55.0, -27565.445311718624, 5995.654284436022, -26634.763376088547, -4595.317494311034, -187500.02235174447, -16979.659137685197, -5775.735470740256, -37042.07087064634, 0.052000000000000005, 0.9520000000000001, -0.23, 192.0, 0.0, 0.0, 0.0, 0.0, 0.0, 0.0, 0.0, 0.0, 0.0, 1.741025872620993E9, 0.0, 2025-03-03 12:17:52.620
56.0, -27530.509535134977, 5971.693214379932, -26618.401899147262, -4572.80928764454, -187500.02235174447, -16972.707745159598, -5771.354528827015, -37039.165143867154, 0.052000000000000005, 0.9520000000000001, -0.23, 192.0, 0.0, 0.0, 0.0, 0.0, 0.0, 0.0, 0.0, 0.0, 0.0, 1.741025872621019E9, 0.0, 2025-03-03 12:17:52.621
57.0, -27515.869142516753, 6071.806677795253, -26623.967483516633, -4583.76164242764, -187500.02235174447, -16974.205312038102, -5777.724775996778, -37018.24391105699, 0.052000000000000005, 0.9520000000000001, -0.23, 192.0, 0.0, 0.0, 0.0, 0.0, 0.0, 0.0, 0.0, 0.0, 0.0, 1.741025872621046E9, 0.0, 2025-03-03 12:17:52.621
58.0, -27556.45991044759, 6135.844425659708, -26633.37756793232, -4587.5614389850425, -187500.02235174447, -16974.272367271467, -5781.14459289844, -37030.26914957394, 0.052000000000000005, 0.9520000000000001, -0.23, 192.0, 0.0, 0.0, 0.0, 0.0, 0.0, 0.0, 0.0, 0.0, 0.0, 1.741025872621067E9, 0.0, 2025-03-03 12:17:52.621
59.0, -27528.274360689447, 6034.747485488354, -26620.79353580398, -4584.0969185944705, -187500.02235174447, -16977.40161149521, -5762.994976400731, -37030.71618446305, 0.052000000000000005, 0.9520000000000001, -0.23, 192.0, 0.0, 0.0, 0.0, 0.0, 0.0, 0.0, 0.0, 0.0, 0.0, 1.741025872621092E9, 0.0, 2025-03-03 12:17:52.621
60.0, -27497.607767296766, 5987.764118643298, -26626.895562040278, -4595.317494311034, -187500.02235174447, -16986.387012766245, -5780.541095798147, -37034.0912978758, 0.052000000000000005, 0.9520000000000001, -0.23, 192.0, 0.0, 0.0, 0.0, 0.0, 0.0, 0.0, 0.0, 0.0, 0.0, 1.741025872680006E9, 0.0, 2025-03-03 12:17:52.680
61.0, -27514.93036924963, 6039.284889612782, -26641.155975002763, -4608.393264817389, -187500.02235174447, -16993.31605354739, -5800.881183252476, -37038.673405489135, 0.05, 0.9560000000000001, -0.234, 192.0, 1.0, 144.0, 29.0, 224.0, 248.0, 176.0, 0.0, 0.0, 0.0, 1.741025872680033E9, 0.0, 2025-03-03 12:17:52.680
62.0, -27495.86433122925, 6144.628661230643, -26636.70797785616, -4596.6585989783525, -187500.02235174447, -16992.44433551363, -5804.3233518985935, -37038.22637060003, 0.05, 0.9560000000000001, -0.234, 192.0, 0.0, 0.0, 0.0, 0.0, 0.0, 0.0, 0.0, 0.0, 0.0, 1.741025872680056E9, 0.0, 2025-03-03 12:17:52.680
63.0, -27525.770965310454, 6058.261520655336, -26631.634131864805, -4592.322360554023, -187500.02235174447, -16987.37048952228, -5788.632427290968, -37019.83088491332, 0.05, 0.9560000000000001, -0.234, 192.0, 0.0, 0.0, 0.0, 0.0, 0.0, 0.0, 0.0, 0.0, 0.0, 1.741025872680094E9, 0.0, 2025-03-03 12:17:52.680
64.0, -27562.427826217157, 5989.395795988536, -26636.8867918118, -4601.128947869414, -187500.02235174447, -16986.007033110505, -5777.300092852127, -37002.77650389392, 0.05, 0.9560000000000001, -0.234, 192.0, 0.0, 0.0, 0.0, 0.0, 0.0, 0.0, 0.0, 0.0, 0.0, 1.741025872680115E9, 0.0, 2025-03-03 12:17:52.680
65.0, -27491.461037571557, 6046.772724005309, -26625.710919584148, -4608.4603200507545, -187500.02235174447, -16984.621224954277, -5768.918188681387, -36991.84650085527, 0.05, 0.9560000000000001, -0.234, 192.0, 0.0, 0.0, 0.0, 0.0, 0.0, 0.0, 0.0, 0.0, 0.0, 1.741025872680136E9, 0.0, 2025-03-03 12:17:52.680
66.0, -27465.19773783657, 6154.59753925771, -26629.398957419275, -4607.6333055059085, -187500.02235174447, -16980.776724907962, -5767.912360180898, -36987.91259383113, 0.05, 0.9560000000000001, -0.234, 192.0, 0.0, 0.0, 0.0, 0.0, 0.0, 0.0, 0.0, 0.0, 0.0, 1.741025872680157E9, 0.0, 2025-03-03 12:17:52.680
67.0, -27539.517288150466, 6078.065166242739, -26640.351312202372, -4603.76645371514, -187500.02235174447, -16978.988585351537, -5772.829743961066, -36961.24696269596, 0.05, 0.9560000000000001, -0.234, 192.0, 0.0, 0.0, 0.0, 0.0, 0.0, 0.0, 0.0, 0.0, 0.0, 1.741025872680178E9, 0.0, 2025-03-03 12:17:52.680
68.0, -27553.80005285741, 5979.493973194835, -26649.42612045123, -4608.683837495308, -187500.02235174447, -16996.579408237863, -5767.219456102784, -36978.97189604901, 0.05, 0.9560000000000001, -0.234, 192.0, 0.0, 0.0, 0.0, 0.0, 0.0, 0.0, 0.0, 0.0, 0.0, 1.741025872680199E9, 0.0, 2025-03-03 12:17:52.680
69.0, -27513.991595982505, 5999.074101337684, -26631.52237314253, -4601.665389736341, -187500.02235174447, -16986.83404765535, -5749.181598327351, -36935.006014705425, 0.05, 0.9560000000000001, -0.234, 192.0, 0.0, 0.0, 0.0, 0.0, 0.0, 0.0, 0.0, 0.0, 0.0, 1.741025872680221E9, 0.0, 2025-03-03 12:17:52.680
70.0, -27487.77299973643, 6116.264297516858, -26632.70701559866, -4602.1794798588135, -187500.02235174447, -16985.627053454766, -5759.753973454711, -36915.850569707225, 0.05, 0.9560000000000001, -0.234, 192.0, 0.0, 0.0, 0.0, 0.0, 0.0, 0.0, 0.0, 0.0, 0.0, 1.741025872680242E9, 0.0, 2025-03-03 12:17:52.680
71.0, -27502.97218596604, 6092.862021072152, -26634.159878988252, -4614.003552675671, -187500.02235174447, -16994.478344259067, -5758.591682743035, -36916.275252851876, 0.062, 0.96, -0.23, 192.0, 1.0, 240.0, 30.0, 0.0, 248.0, 208.0, 0.0, 0.0, 0.0, 1.74102587268027E9, 0.0, 2025-03-03 12:17:52.680
72.0, -27486.990688680493, 5990.133403555561, -26625.666216095236, -4616.953982943772, -187500.02235174447, -16997.920512905184, -5751.036793117141, -36911.7602004719, 0.062, 0.96, -0.23, 192.0, 0.0, 0.0, 0.0, 0.0, 0.0, 0.0, 0.0, 0.0, 0.0, 1.741025872680306E9, 0.0, 2025-03-03 12:17:52.680
73.0, -27497.719526019042, 5991.18393554496, -26623.140468971786, -4597.619723989931, -187500.02235174447, -16995.730041948562, -5743.772476169166, -36914.88944469565, 0.062, 0.96, -0.23, 192.0, 0.0, 0.0, 0.0, 0.0, 0.0, 0.0, 0.0, 0.0, 0.0, 1.741025872680327E9, 0.0, 2025-03-03 12:17:52.680
74.0, -27456.368798776723, 6116.756035894876, -26608.991814731577, -4600.078415880014, -187500.02235174447, -16987.996338367026, -5746.611147714991, -36906.86516843619, 0.062, 0.96, -0.23, 192.0, 0.0, 0.0, 0.0, 0.0, 0.0, 0.0, 0.0, 0.0, 0.0, 1.741025872680353E9, 0.0, 2025-03-03 12:17:52.680
75.0, -27473.311421073846, 6120.5334807078225, -26597.391259359272, -4592.478822765211, -187500.02235174447, -16986.476419744067, -5741.894929634921, -36909.48032253746, 0.062, 0.96, -0.23, 192.0, 0.0, 0.0, 0.0, 0.0, 0.0, 0.0, 0.0, 0.0, 0.0, 1.741025872739982E9, 0.0, 2025-03-03 12:17:52.739
76.0, -27511.130572692226, 6004.706740940421, -26585.321317353406, -4582.353482526956, -187500.02235174447, -16971.63486142574, -5728.170958539362, -36886.61448795968, 0.062, 0.96, -0.23, 192.0, 0.0, 0.0, 0.0, 0.0, 0.0, 0.0, 0.0, 0.0, 0.0, 1.741025872740036E9, 0.0, 2025-03-03 12:17:52.740
77.0, -27511.152924436683, 6010.317028798703, -26589.769314500012, -4591.070662864526, -187500.02235174447, -16969.734963147042, -5740.129141822951, -36874.00810408689, 0.062, 0.96, -0.23, 192.0, 0.0, 0.0, 0.0, 0.0, 0.0, 0.0, 0.0, 0.0, 0.0, 1.741025872740062E9, 0.0, 2025-03-03 12:17:52.740
78.0, -27499.261796386458, 6109.581125924722, -26598.374736115307, -4603.297067081579, -187500.02235174447, -16978.720364418074, -5774.90845619541, -36896.47160726447, 0.062, 0.96, -0.23, 192.0, 0.0, 0.0, 0.0, 0.0, 0.0, 0.0, 0.0, 0.0, 0.0, 1.741025872740093E9, 0.0, 2025-03-03 12:17:52.740
79.0, -27475.92657517512, 6144.114571108172, -26594.351422113352, -4605.554593271565, -187500.02235174447, -16977.736887662042, -5748.667508204879, -36898.9079474101, 0.062, 0.96, -0.23, 192.0, 0.0, 0.0, 0.0, 0.0, 0.0, 0.0, 0.0, 0.0, 0.0, 1.741025872740115E9, 0.0, 2025-03-03 12:17:52.740
80.0, -27513.58926458231, 6025.359752817125, -26600.520503583015, -4618.697419011285, -187500.02235174447, -16979.592082451833, -5753.808409429599, -36914.01772666189, 0.062, 0.96, -0.23, 192.0, 0.0, 0.0, 0.0, 0.0, 0.0, 0.0, 0.0, 0.0, 0.0, 1.741025872740136E9, 0.0, 2025-03-03 12:17:52.740
81.0, -27543.182974241136, 5982.265589507293, -26606.376660630307, -4621.53609055711, -187500.02235174447, -16989.918588390185, -5764.738412468245, -36908.094514381235, 0.06, 0.96, -0.23, 192.0, 1.0, 224.0, 30.0, 0.0, 248.0, 208.0, 0.0, 0.0, 0.0, 1.741025872740157E9, 0.0, 2025-03-03 12:17:52.740
82.0, -27518.573703595845, 6065.637596325588, -26597.257148892542, -4608.907354939861, -187500.02235174447, -16983.83891389834, -5775.958988184809, -36906.73105796946, 0.06, 0.96, -0.23, 192.0, 0.0, 0.0, 0.0, 0.0, 0.0, 0.0, 0.0, 0.0, 0.0, 1.741025872740181E9, 0.0, 2025-03-03 12:17:52.740
83.0, -27480.262813599446, 6162.063021905783, -26582.72851499659, -4591.584752986998, -187500.02235174447, -16968.326803246357, -5765.341909568538, -36873.22579303096, 0.06, 0.96, -0.23, 192.0, 0.0, 0.0, 0.0, 0.0, 0.0, 0.0, 0.0, 0.0, 0.0, 1.741025872740202E9, 0.0, 2025-03-03 12:17:52.740
84.0, -27508.269549401946, 6067.559846348745, -26593.83733199088, -4609.57790727352, -187500.02235174447, -16976.865169628283, -5772.494467794236, -36894.14702584112, 0.06, 0.96, -0.23, 192.0, 0.0, 0.0, 0.0, 0.0, 0.0, 0.0, 0.0, 0.0, 0.0, 1.741025872740223E9, 0.0, 2025-03-03 12:17:52.740
85.0, -27502.413392354658, 6006.025493863284, -26584.181378386187, -4605.91222118285, -187500.02235174447, -16973.221835282067, -5769.409927059403, -36903.84768293473, 0.06, 0.96, -0.23, 192.0, 0.0, 0.0, 0.0, 0.0, 0.0, 0.0, 0.0, 0.0, 0.0, 1.741025872740244E9, 0.0, 2025-03-03 12:17:52.740
86.0, -27463.275487813415, 6057.814485766231, -26581.946203940657, -4618.071570166537, -187500.02235174447, -16969.3549834913, -5768.672319492379, -36902.2607090784, 0.06, 0.96, -0.23, 192.0, 0.0, 0.0, 0.0, 0.0, 0.0, 0.0, 0.0, 0.0, 0.0, 1.74102587274027E9, 0.0, 2025-03-03 12:17:52.740
87.0, -27459.38628427819, 6160.207827115993, -26582.616756274314, -4614.919974198338, -187500.02235174447, -16967.298623001414, -5770.795735215633, -36902.841854434235, 0.06, 0.96, -0.23, 192.0, 0.0, 0.0, 0.0, 0.0, 0.0, 0.0, 0.0, 0.0, 0.0, 1.741025872740295E9, 0.0, 2025-03-03 12:17:52.740
88.0, -27484.979031679515, 6070.242055683381, -26586.751828998546, -4609.466148551243, -187500.02235174447, -16972.037192825937, -5781.14459289844, -36911.42492430507, 0.06, 0.96, -0.23, 192.0, 0.0, 0.0, 0.0, 0.0, 0.0, 0.0, 0.0, 0.0, 0.0, 1.741025872740324E9, 0.0, 2025-03-03 12:17:52.740
89.0, -27501.16169466516, 5994.916676868997, -26592.07154417891, -4617.490424810699, -187500.02235174447, -16976.01580333898, -5791.538154070157, -36920.253863364924, 0.06, 0.96, -0.23, 192.0, 0.0, 0.0, 0.0, 0.0, 0.0, 0.0, 0.0, 0.0, 0.0, 1.741025872740349E9, 0.0, 2025-03-03 12:17:52.740
90.0, -27501.027584198426, 6039.798979735253, -26590.305756366943, -4626.118198170448, -187500.02235174447, -16977.02163183947, -5799.7188925408, -36929.127505913675, 0.06, 0.96, -0.23, 192.0, 0.0, 0.0, 0.0, 0.0, 0.0, 0.0, 0.0, 0.0, 0.0, 1.741025872800195E9, 0.0, 2025-03-03 12:17:52.800
91.0, -27464.370723291722, 6135.64325995961, -26573.810168958924, -4621.513738812654, -187500.02235174447, -16977.02163183947, -5804.457462365325, -36949.80286953484, 0.054, 0.9540000000000001, -0.23, 192.0, 1.0, 176.0, 29.0, 208.0, 248.0, 208.0, 0.0, 0.0, 0.0, 1.741025872800241E9, 0.0, 2025-03-03 12:17:52.800
92.0, -27532.923523536152, 6081.373224422125, -26589.724611011105, -4634.835378508017, -187500.02235174447, -16988.5104284895, -5806.603229833035, -36950.942808502055, 0.054, 0.9540000000000001, -0.23, 192.0, 0.0, 0.0, 0.0, 0.0, 0.0, 0.0, 0.0, 0.0, 0.0, 1.741025872800265E9, 0.0, 2025-03-03 12:17:52.800
93.0, -27530.77775606844, 5985.931275597964, -26586.26009062053, -4630.253270894679, -187500.02235174447, -16987.973986622572, -5810.492433368258, -36921.930244199066, 0.054, 0.9540000000000001, -0.23, 192.0, 0.0, 0.0, 0.0, 0.0, 0.0, 0.0, 0.0, 0.0, 0.0, 1.741025872800286E9, 0.0, 2025-03-03 12:17:52.800
94.0, -27479.94988917707, 6006.606639219122, -26568.892785178756, -4610.471977051732, -187500.02235174447, -16980.709669674598, -5814.739264814766, -36918.39866857513, 0.054, 0.9540000000000001, -0.23, 192.0, 0.0, 0.0, 0.0, 0.0, 0.0, 0.0, 0.0, 0.0, 0.0, 1.741025872800313E9, 0.0, 2025-03-03 12:17:52.800
95.0, -27450.087958584783, 6134.123341336649, -26561.606116486328, -4609.890831695894, -187500.02235174447, -16968.080934057347, -5818.919041027909, -36931.80971524832, 0.054, 0.9540000000000001, -0.23, 192.0, 0.0, 0.0, 0.0, 0.0, 0.0, 0.0, 0.0, 0.0, 0.0, 1.741025872800334E9, 0.0, 2025-03-03 12:17:52.800
96.0, -27528.11789847826, 6103.523803177333, -26574.145445125752, -4612.282468352612, -187500.02235174447, -16966.56101543439, -5818.404950905437, -36922.73490699946, 0.054, 0.9540000000000001, -0.23, 192.0, 0.0, 0.0, 0.0, 0.0, 0.0, 0.0, 0.0, 0.0, 0.0, 1.741025872800355E9, 0.0, 2025-03-03 12:17:52.800
97.0, -27502.525151076934, 6005.556107229723, -26547.45746224612, -4606.113386882947, -187500.02235174447, -16953.440541439122, -5802.222287919794, -36910.0614678933, 0.054, 0.9540000000000001, -0.23, 192.0, 0.0, 0.0, 0.0, 0.0, 0.0, 0.0, 0.0, 0.0, 0.0, 1.741025872800377E9, 0.0, 2025-03-03 12:17:52.800
98.0, -27447.495156227968, 6015.323819556692, -26552.2183838151, -4617.959811444261, -187500.02235174447, -16966.73982939003, -5798.020159962197, -36927.54053205735, 0.054, 0.9540000000000001, -0.23, 192.0, 0.0, 0.0, 0.0, 0.0, 0.0, 0.0, 0.0, 0.0, 0.0, 1.741025872800398E9, 0.0, 2025-03-03 12:17:52.800
99.0, -27435.358158988736, 6127.998963355895, -26555.995828628045, -4626.72169527074, -187500.02235174447, -16968.17034103517, -5809.151328700939, -36920.34327034274, 0.054, 0.9540000000000001, -0.23, 192.0, 0.0, 0.0, 0.0, 0.0, 0.0, 0.0, 0.0, 0.0, 0.0, 1.741025872800419E9, 0.0, 2025-03-03 12:17:52.800
100.0, -27467.589374493287, 6136.134998337627, -26561.49435776405, -4625.939384214805, -187500.02235174447, -16968.818541624372, -5816.393293904459, -36920.99147093195, 0.054, 0.9540000000000001, -0.23, 192.0, 0.0, 0.0, 0.0, 0.0, 0.0, 0.0, 0.0, 0.0, 0.0, 1.74102587280044E9, 0.0, 2025-03-03 12:17:52.800
101.0, -27517.925503006638, 6013.066293366706, -26558.231003073575, -4613.064779408548, -187500.02235174447, -16970.584329436344, -5812.7723113027, -36934.2684071384, 0.054, 0.9560000000000001, -0.232, 192.0, 1.0, 176.0, 29.0, 224.0, 248.0, 192.0, 0.0, 0.0, 0.0, 1.741025872800461E9, 0.0, 2025-03-03 12:17:52.800
102.0, -27453.507775486443, 5993.039130334751, -26549.9161541362, -4614.3835323314115, -187500.02235174447, -16964.102323544303, -5817.600288105045, -36929.0157471914, 0.054, 0.9560000000000001, -0.232, 192.0, 0.0, 0.0, 0.0, 0.0, 0.0, 0.0, 0.0, 0.0, 0.0, 1.741025872800494E9, 0.0, 2025-03-03 12:17:52.800
103.0, -27416.13565875717, 6096.505355418367, -26543.54590696644, -4616.641058521397, -187500.02235174447, -16958.69320138612, -5803.7198547983, -36921.55026454333, 0.054, 0.9560000000000001, -0.232, 192.0, 0.0, 0.0, 0.0, 0.0, 0.0, 0.0, 0.0, 0.0, 0.0, 1.741025872800521E9, 0.0, 2025-03-03 12:17:52.800
104.0, -27450.266772540424, 6142.862873418674, -26557.135767595264, -4620.686724267808, -187500.02235174447, -16962.113018287782, -5816.572107860102, -36930.87094198119, 0.054, 0.9560000000000001, -0.232, 192.0, 0.0, 0.0, 0.0, 0.0, 0.0, 0.0, 0.0, 0.0, 0.0, 1.741025872800541E9, 0.0, 2025-03-03 12:17:52.800
105.0, -27515.10918320527, 6037.742619245365, -26556.24169781705, -4608.683837495308, -187500.02235174447, -16960.079009542347, -5816.4156456489145, -36916.63288076316, 0.054, 0.9560000000000001, -0.232, 192.0, 0.0, 0.0, 0.0, 0.0, 0.0, 0.0, 0.0, 0.0, 0.0, 1.741025872860358E9, 0.0, 2025-03-03 12:17:52.860
106.0, -27501.519322576445, 6003.633857206566, -26545.53521222296, -4598.379683301411, -187500.02235174447, -16952.21119549408, -5807.966686244808, -36906.418133547086, 0.054, 0.9560000000000001, -0.232, 192.0, 0.0, 0.0, 0.0, 0.0, 0.0, 0.0, 0.0, 0.0, 0.0, 1.741025872860402E9, 0.0, 2025-03-03 12:17:52.860
107.0, -27465.331848303304, 6083.518991889834, -26552.687770448658, -4615.523471298632, -187500.02235174447, -16966.91864334567, -5834.274689468705, -36937.28589263986, 0.054, 0.9560000000000001, -0.232, 192.0, 0.0, 0.0, 0.0, 0.0, 0.0, 0.0, 0.0, 0.0, 0.0, 1.741025872860424E9, 0.0, 2025-03-03 12:17:52.860
108.0, -27464.01309538044, 6170.333167354246, -26550.765520425502, -4619.2562126226685, -187500.02235174447, -16973.825332382363, -5841.449599438858, -36916.38701157415, 0.054, 0.9560000000000001, -0.232, 192.0, 0.0, 0.0, 0.0, 0.0, 0.0, 0.0, 0.0, 0.0, 0.0, 1.741025872860446E9, 0.0, 2025-03-03 12:17:52.860
109.0, -27497.831284741318, 6071.24788418387, -26549.714988436102, -4616.663410265853, -187500.02235174447, -16970.62903292525, -5822.316506185116, -36913.03424990586, 0.054, 0.9560000000000001, -0.232, 192.0, 0.0, 0.0, 0.0, 0.0, 0.0, 0.0, 0.0, 0.0, 0.0, 1.741025872860471E9, 0.0, 2025-03-03 12:17:52.860
110.0, -27487.750647991976, 6011.322857299192, -26542.71889242159, -4612.126006141425, -187500.02235174447, -16968.77383813546, -5822.271802696205, -36917.28108135237, 0.054, 0.9560000000000001, -0.232, 192.0, 0.0, 0.0, 0.0, 0.0, 0.0, 0.0, 0.0, 0.0, 0.0, 1.741025872860492E9, 0.0, 2025-03-03 12:17:52.860
111.0, -27439.247362523958, 6083.720157589932, -26529.598418426325, -4616.909279454861, -187500.02235174447, -16964.705820644598, -5822.338857929571, -36929.8651134807, 0.05, 0.9580000000000001, -0.24, 192.0, 1.0, 144.0, 29.0, 240.0, 248.0, 128.0, 0.0, 0.0, 0.0, 1.741025872860513E9, 0.0, 2025-03-03 12:17:52.860
112.0, -27411.017109276905, 6202.899659025629, -26538.82968888637, -4631.572023817543, -187500.02235174447, -16979.70384117411, -5841.091971527573, -36940.01280546341, 0.05, 0.9580000000000001, -0.24, 192.0, 0.0, 0.0, 0.0, 0.0, 0.0, 0.0, 0.0, 0.0, 0.0, 1.741025872860536E9, 0.0, 2025-03-03 12:17:52.860
113.0, -27500.73701152051, 6115.906669605573, -26546.339875023354, -4622.094884168492, -187500.02235174447, -16969.623204424763, -5838.230948237294, -36903.49005502344, 0.05, 0.9580000000000001, -0.24, 192.0, 0.0, 0.0, 0.0, 0.0, 0.0, 0.0, 0.0, 0.0, 0.0, 1.741025872860558E9, 0.0, 2025-03-03 12:17:52.860
114.0, -27549.93320106664, 6010.9428776434515, -26567.752846211537, -4641.987936733715, -187500.02235174447, -16982.207236553102, -5853.854817611554, -36911.648441749625, 0.05, 0.9580000000000001, -0.24, 192.0, 0.0, 0.0, 0.0, 0.0, 0.0, 0.0, 0.0, 0.0, 0.0, 1.741025872860579E9, 0.0, 2025-03-03 12:17:52.860
115.0, -27492.82449398333, 6044.604604793144, -26563.72953220958, -4650.436896137821, -187500.02235174447, -16981.93901561964, -5863.823695638621, -36917.392840074644, 0.05, 0.9580000000000001, -0.24, 192.0, 0.0, 0.0, 0.0, 0.0, 0.0, 0.0, 0.0, 0.0, 0.0, 1.7410258728606E9, 0.0, 2025-03-03 12:17:52.860
116.0, -27416.359176201724, 6171.674272021565, -26547.859793646312, -4627.682820282319, -187500.02235174447, -16972.618338181775, -5865.567131706135, -36922.24316862144, 0.05, 0.9580000000000001, -0.24, 192.0, 0.0, 0.0, 0.0, 0.0, 0.0, 0.0, 0.0, 0.0, 0.0, 1.741025872860621E9, 0.0, 2025-03-03 12:17:52.860
117.0, -27498.658299286166, 6124.310925520769, -26560.466177519105, -4636.332945386523, -187500.02235174447, -16978.206274295604, -5859.4427537253805, -36937.91174148461, 0.05, 0.9580000000000001, -0.24, 192.0, 0.0, 0.0, 0.0, 0.0, 0.0, 0.0, 0.0, 0.0, 0.0, 1.741025872860646E9, 0.0, 2025-03-03 12:17:52.860
118.0, -27569.468625720576, 6021.984639404373, -26570.055075890432, -4648.536997859121, -187500.02235174447, -16992.556094235908, -5867.891713129487, -36953.401500392145, 0.05, 0.9580000000000001, -0.24, 192.0, 0.0, 0.0, 0.0, 0.0, 0.0, 0.0, 0.0, 0.0, 0.0, 1.741025872860676E9, 0.0, 2025-03-03 12:17:52.860
119.0, -27483.68263050111, 6058.753259033354, -26550.74316868105, -4631.214395906258, -187500.02235174447, -16985.180018565658, -5866.997643351275, -36940.191619419056, 0.05, 0.9580000000000001, -0.24, 192.0, 0.0, 0.0, 0.0, 0.0, 0.0, 0.0, 0.0, 0.0, 0.0, 1.741025872860696E9, 0.0, 2025-03-03 12:17:52.860
