%OpenBCI Raw EXG Data
%Number of channels = 16
%Sample Rate = 125 Hz
%Board = OpenBCI_GUI$BoardCytonSerialDaisy
Sample Index, EXG Channel 0, EXG Channel 1, EXG Channel 2, EXG Channel 3, EXG Channel 4, EXG Channel 5, EXG Channel 6, EXG Channel 7, EXG Channel 8, EXG Channel 9, EXG Channel 10, EXG Channel 11, EXG Channel 12, EXG Channel 13, EXG Channel 14, EXG Channel 15, Accel Channel 0, Accel Channel 1, Accel Channel 2, Not Used, Digital Channel 0 (D11), Digital Channel 1 (D12), Digital Channel 2 (D13), Digital Channel 3 (D17), Not Used, Digital Channel 4 (D18), Analog Channel 0, Analog Channel 1, Analog Channel 2, Timestamp, Marker Channel, Timestamp (Formatted)
86.0, -52862.590892623775, -43349.71080418954, -64245.03794253325, -65238.95296322739, -62942.33357218905, -54413.06435025506, -57341.85812972285, -48369.97966408487, -26932.779184911156, -47431.69813534, -53389.04152977962, 2442013.7336270493, -52449.351841134056, -57675.30145350713, -47168.819268801126, -4892.34982637761, 0.0, 0.0, 0.0, 192.0, 0.0, 0.0, 0.0, 0.0, 0.0, 0.0, 0.0, 0.0, 0.0, 1.741802130601668E9, 0.0, 2025-03-12 12:55:30.601
88.0, -52860.623939111705, -43346.22393205451, -64239.405302930514, -65233.99087595831, -62934.778682563156, -54407.25289669668, -57337.99127793209, -48371.58898968565, -26942.815118171588, -47443.05282152329, -53398.33985547303, 2442400.5082131037, -52457.51022786024, -57682.43165998837, -47172.01556825824, -4901.223468926367, 0.0, 0.0, 0.0, 192.0, 0.0, 0.0, 0.0, 0.0, 0.0, 0.0, 0.0, 0.0, 0.0, 1.741802130602214E9, 0.0, 2025-03-12 12:55:30.602
90.0, -52856.04183149837, -43346.84978089926, -64237.661866863, -65233.47678583584, -62935.09160698552, -54410.60565836498, -57346.216719891636, -48371.34312049665, -26927.727690664255, -47426.26666143735, -53385.10762275549, 2442317.35972373, -52438.69005902887, -57663.36562196799, -47155.00589072775, -4885.018454196269, 0.0, 0.0, 0.0, 192.0, 0.0, 0.0, 0.0, 0.0, 0.0, 0.0, 0.0, 0.0, 0.0, 1.741802130602564E9, 0.0, 2025-03-12 12:55:30.602
92.0, -52877.834782342296, -43358.04800487137, -64251.72111412539, -65246.23963191982, -62951.00604903771, -54419.591059636005, -57354.28569964, -48380.03794908976, -26954.37097005498, -47446.74085935842, -53409.44867246732, 2442166.6195591236, -52464.036937241195, -57687.371395512986, -47177.91642879444, -4907.951344007414, 0.0, 0.0, 0.0, 192.0, 0.0, 0.0, 0.0, 0.0, 0.0, 0.0, 0.0, 0.0, 0.0, 1.741802130602895E9, 0.0, 2025-03-12 12:55:30.602
94.0, -52871.75510785045, -43361.91485666214, -64254.73859962686, -65247.513681353776, -62957.01866829618, -54423.07793177103, -57363.5393218445, -48390.967952128405, -26951.7111124648, -47445.89149306912, -53406.051207310105, 2442042.1650459967, -52462.27114942922, -57684.2645030337, -47180.44217591789, -4907.325495162666, 0.024, 0.962, -0.21, 192.0, 0.0, 96.0, 15.0, 8.0, 124.5, 56.0, 0.0, 0.0, 0.0, 1.741802130603228E9, 0.0, 2025-03-12 12:55:30.603
96.0, -52867.329462448295, -43358.53974324939, -64248.569518157194, -65243.91505049647, -62952.88359557195, -54421.58036489253, -57347.37901060331, -48382.76486191331, -26959.735388724257, -47453.91576932857, -53408.152271288905, 2441911.273230466, -52468.797858810176, -57692.51229673771, -47187.080644021116, -4914.992143510836, 0.024, 0.962, -0.21, 192.0, 0.0, 0.0, 0.0, 0.0, 0.0, 0.0, 0.0, 0.0, 0.0, 1.74180213060358E9, 0.0, 2025-03-12 12:55:30.603
98.0, -52854.70072683105, -43345.553379720855, -64236.14194824004, -65234.86259399207, -62938.64553435392, -54412.37144617694, -57341.90283321177, -48365.97870182738, -26944.424443772372, -47438.91774879906, -53391.924904814354, 2442192.905210603, -52453.62102432502, -57678.74362215324, -47172.32849268061, -4900.441157870431, 0.024, 0.962, -0.21, 192.0, 0.0, 0.0, 0.0, 0.0, 0.0, 0.0, 0.0, 0.0, 0.0, 1.741802130603914E9, 0.0, 2025-03-12 12:55:30.603
100.0, -52846.69880231605, -43336.21035053854, -64227.89415453603, -65227.06183517717, -62936.14213897492, -54406.62704785193, -57338.21479537664, -48362.64829190353, -26928.353539509004, -47430.46878939495, -53373.03768074962, 2442286.7825373155, -52439.40531485144, -57670.65229066042, -47159.36448089653, -4891.835736255138, 0.024, 0.962, -0.21, 192.0, 0.0, 0.0, 0.0, 0.0, 0.0, 0.0, 0.0, 0.0, 0.0, 1.741802130604238E9, 0.0, 2025-03-12 12:55:30.604
102.0, -52860.8251048118, -43351.61070246824, -64243.71918961039, -65245.77024528626, -62952.05658102711, -54423.56967014905, -57350.86588273834, -48384.48594623637, -26941.161089081896, -47440.59412963321, -53390.02500653565, 2442155.890721785, -52451.318794646126, -57683.57159895559, -47173.06610024763, -4903.346884649621, 0.024, 0.962, -0.21, 192.0, 0.0, 0.0, 0.0, 0.0, 0.0, 0.0, 0.0, 0.0, 0.0, 1.741802130604562E9, 0.0, 2025-03-12 12:55:30.604
0.0, -26458.721036758547, -21665.56825227359, -32100.45779948924, -32589.02222979334, -31440.679006657483, -27188.393734502046, -28640.161888618695, -24143.281476888835, -13474.123296037114, -23724.83446894103, -26698.89053093082, 1221028.0562672683, -26230.397967147586, -28845.641475396333, -23590.18756034226, -2456.9037505273523, 0.03, 0.974, -0.20600000000000002, 192.0, 0.0, 120.0, 15.0, 56.0, 124.5, 72.0, 0.0, 0.0, 0.0, 1.74180213078522E9, 0.0, 2025-03-12 12:55:30.785
2.0, -52923.3429340533, -43348.23558905549, -64209.498668849315, -65189.0862213476, -62881.53682727061, -54385.482297597206, -57263.00117528453, -48292.262648613774, -26846.74732050268, -47384.066567905735, -53412.980248091255, 2441942.923300615, -52384.91176186941, -57612.67186554335, -47124.80868396863, -4850.86498866856, 0.03, 0.974, -0.20600000000000002, 192.0, 0.0, 0.0, 0.0, 0.0, 0.0, 0.0, 0.0, 0.0, 0.0, 1.741802130785665E9, 0.0, 2025-03-12 12:55:30.785
4.0, -52947.63928027621, -43377.31520859185, -64237.19248022944, -65211.5944280141, -62895.81959197755, -54404.72714957323, -57279.161486525714, -48303.81850049717, -26866.930945745822, -47389.20746913046, -53413.20376553581, 2442368.858142955, -52384.956465358315, -57608.78266200813, -47128.80964622613, -4858.017546894258, 0.03, 0.974, -0.20600000000000002, 192.0, 0.0, 0.0, 0.0, 0.0, 0.0, 0.0, 0.0, 0.0, 0.0, 1.741802130786027E9, 0.0, 2025-03-12 12:55:30.786
6.0, -52955.01535594647, -43379.4386243151, -64243.18274774346, -65215.72950073833, -62900.26758912416, -54408.61635310845, -57283.09539354985, -48300.89042197352, -26896.83757982702, -47428.43478064952, -53425.54192847513, 2442318.432607464, -52402.435529522365, -57630.396798896414, -47143.74061152228, -4878.335282604133, 0.03, 0.974, -0.20600000000000002, 192.0, 0.0, 0.0, 0.0, 0.0, 0.0, 0.0, 0.0, 0.0, 0.0, 1.741802130786366E9, 0.0, 2025-03-12 12:55:30.786
8.0, -52954.52361756845, -43382.92549645013, -64237.170128484984, -65211.795593714196, -62901.11695541346, -54408.05755949707, -57278.80385861443, -48298.968171950364, -26895.27295771515, -47390.32505635322, -53415.72951265926, 2442204.1704898085, -52398.5686777316, -57626.485243616735, -47134.01760268422, -4873.127326146046, 0.058, 0.9440000000000001, -0.192, 192.0, 0.5, 104.0, 14.5, 64.0, 125.0, 0.0, 0.0, 0.0, 0.0, 1.741802130786692E9, 0.0, 2025-03-12 12:55:30.786
10.0, -52974.17080094467, -43398.41525535766, -64244.12152101059, -65227.508870066275, -62919.44538586681, -54421.93799280382, -57290.560876197924, -48324.67267807397, -26904.70539387529, -47401.85855649216, -53426.413646508896, 2442068.987139343, -52411.2197650933, -57641.01387751268, -47145.97578596781, -4879.698739015906, 0.058, 0.9440000000000001, -0.192, 192.0, 0.0, 0.0, 0.0, 0.0, 0.0, 0.0, 0.0, 0.0, 0.0, 1.74180213078704E9, 0.0, 2025-03-12 12:55:30.787
12.0, -52962.32437638335, -43405.947793239095, -64235.69491335093, -65225.31839910965, -62917.724301543756, -54411.45502465428, -57293.75717565503, -48306.34424762062, -26892.233120469227, -47381.13848938209, -53416.84709988202, 2441941.3139750143, -52407.75524470273, -57634.1518919649, -47137.504474819245, -4869.238122610823, 0.058, 0.9440000000000001, -0.192, 192.0, 0.0, 0.0, 0.0, 0.0, 0.0, 0.0, 0.0, 0.0, 0.0, 1.741802130787363E9, 0.0, 2025-03-12 12:55:30.787
14.0, -52974.237856178035, -43400.04693270289, -64237.28188720726, -65227.1959456439, -62922.77579579065, -54421.75917884817, -57297.17699255669, -48326.21494844138, -26899.56449265057, -47387.352274340665, -53429.87816689946, 2441965.453859026, -52419.75813147523, -57657.26359573169, -47149.172085424914, -4869.349881333099, 0.058, 0.9440000000000001, -0.192, 192.0, 0.0, 0.0, 0.0, 0.0, 0.0, 0.0, 0.0, 0.0, 0.0, 1.74180213078769E9, 0.0, 2025-03-12 12:55:30.787
16.0, -52960.044498448915, -43397.23061290153, -64222.19445969993, -65217.27177110574, -62911.10818518498, -54411.54443163209, -57280.14496328175, -48315.86609075857, -26888.746248334202, -47375.259980590345, -53424.60315520802, 2442311.995305061, -52414.125491872495, -57654.04494453013, -47141.348974865556, -4864.7901254642165, 0.058, 0.9440000000000001, -0.192, 192.0, 0.0, 0.0, 0.0, 0.0, 0.0, 0.0, 0.0, 0.0, 0.0, 1.74180213084691E9, 0.0, 2025-03-12 12:55:30.846
18.0, -52958.010489703476, -43396.60476405678, -64213.27611366226, -65214.634265260014, -62905.6990630268, -54399.9885797487, -57271.87481783329, -48298.16350914997, -26872.876509770933, -47365.51462000783, -53415.99773359272, 2442202.5611642078, -52401.384997532965, -57646.40064792641, -47128.831997970585, -4848.048668867191, 0.08600000000000001, 0.97, -0.188, 192.0, 1.0, 88.0, 15.0, 40.0, 125.0, 16.0, 0.0, 0.0, 0.0, 1.741802130847296E9, 0.0, 2025-03-12 12:55:30.847
20.0, -52957.11641992527, -43403.153825182184, -64214.93014275195, -65218.38935832851, -62908.29186538362, -54404.928315273326, -57284.48120170608, -48301.27040162926, -26869.74726554719, -47354.2269890579, -53413.71785565828, 2442084.0075116167, -52402.23436382227, -57648.76993283867, -47126.5744717806, -4847.132247344523, 0.08600000000000001, 0.97, -0.188, 192.0, 0.0, 0.0, 0.0, 0.0, 0.0, 0.0, 0.0, 0.0, 0.0, 1.741802130847648E9, 0.0, 2025-03-12 12:55:30.847
22.0, -52979.44581263612, -43424.56679637037, -64231.17986097096, -65241.143434184014, -62922.239353923724, -54426.63185913943, -57295.165335555714, -48323.53273910675, -26881.548986619593, -47378.836259703196, -53429.07350409908, 2441939.7046494135, -52412.00207614924, -57662.829180101064, -47139.247910886756, -4864.141924875013, 0.08600000000000001, 0.97, -0.188, 192.0, 0.0, 0.0, 0.0, 0.0, 0.0, 0.0, 0.0, 0.0, 0.0, 1.741802130847974E9, 0.0, 2025-03-12 12:55:30.847
24.0, -52946.43228607563, -43394.32488612233, -64205.654168803005, -65213.20375361488, -62896.959530944776, -54405.10712922897, -57277.68627139166, -48304.82432899765, -26873.23413768222, -47350.49424773386, -53417.607059193506, 2441816.32302002, -52405.11773885701, -57661.46572368929, -47131.17893113839, -4862.107916129579, 0.08600000000000001, 0.97, -0.188, 192.0, 0.0, 0.0, 0.0, 0.0, 0.0, 0.0, 0.0, 0.0, 0.0, 1.741802130848297E9, 0.0, 2025-03-12 12:55:30.848
26.0, -52948.26512912096, -43395.800101256384, -64208.47048860437, -65216.93649493891, -62897.63008327843, -54405.15183271788, -57278.49093419206, -48303.12559641905, -26846.188526891296, -47344.45927673093, -53391.790794347624, 2442177.884838329, -52376.52985769867, -57636.72234257726, -47106.99434363775, -4842.460732753365, 0.08600000000000001, 0.97, -0.188, 192.0, 0.0, 0.0, 0.0, 0.0, 0.0, 0.0, 0.0, 0.0, 0.0, 1.741802130848664E9, 0.0, 2025-03-12 12:55:30.848
28.0, -52949.00273668799, -43397.565889068355, -64208.8057647712, -65213.114346637056, -62899.26176062367, -54397.68635006981, -57273.66295738971, -48292.195593380406, -26870.350762647482, -47341.151218551546, -53413.38257949145, 2442292.6833978514, -52400.31211379911, -57650.89334856193, -47127.06621015861, -4863.516076030263, 0.08600000000000001, 0.974, -0.194, 192.0, 1.0, 88.0, 15.0, 56.0, 124.5, 120.0, 0.0, 0.0, 0.0, 1.741802130848987E9, 0.0, 2025-03-12 12:55:30.848
30.0, -52961.4526583496, -43415.87196777725, -64220.02634048776, -65224.6925502649, -62911.756385774184, -54409.82334730904, -57287.990425585565, -48309.04880869971, -26865.679248056324, -47346.33682326518, -53409.31456200058, 2442192.905210603, -52390.23147704977, -57648.88169156095, -47119.958355421826, -4860.7444597178055, 0.08600000000000001, 0.974, -0.194, 192.0, 0.0, 0.0, 0.0, 0.0, 0.0, 0.0, 0.0, 0.0, 0.0, 1.7418021309073E9, 0.0, 2025-03-12 12:55:30.907
32.0, -52971.04155672092, -43426.8019708159, -64226.553049868715, -65235.980181214836, -62914.17037417536, -54417.780568335125, -57290.71733840911, -48318.07891345965, -26885.102913987987, -47361.53600949478, -53423.61967845198, 2442054.5032089357, -52405.25184932374, -57662.31508997859, -47132.92236720591, -4882.224486139356, 0.08600000000000001, 0.974, -0.194, 192.0, 0.0, 0.0, 0.0, 0.0, 0.0, 0.0, 0.0, 0.0, 0.0, 1.741802130907716E9, 0.0, 2025-03-12 12:55:30.907
34.0, -52980.09401322532, -43428.36659292777, -64238.57828838567, -65240.27171615025, -62928.050807482105, -54436.46662669977, -57308.44227176217, -48339.5589398812, -26885.102913987987, -47370.96844565492, -53430.61577446649, 2441938.0953238127, -52407.0176371357, -57666.94190108084, -47137.81739924162, -4893.512117089286, 0.08600000000000001, 0.974, -0.194, 192.0, 0.0, 0.0, 0.0, 0.0, 0.0, 0.0, 0.0, 0.0, 0.0, 1.741802130908054E9, 0.0, 2025-03-12 12:55:30.908
36.0, -52980.161068458685, -43421.92929052464, -64235.09141625064, -65237.41069285997, -62922.798147535104, -54423.86024282697, -57301.71439668112, -48313.31799189067, -26890.959071035275, -47381.47376554892, -53441.72459146078, 2441811.4950432177, -52422.28387859868, -57661.711592878295, -47149.37325112501, -4904.933858505948, 0.08600000000000001, 0.974, -0.194, 192.0, 0.0, 0.0, 0.0, 0.0, 0.0, 0.0, 0.0, 0.0, 0.0, 1.741802130908388E9, 0.0, 2025-03-12 12:55:30.908
38.0, -52969.99102473152, -43413.748552054, -64229.59288711463, -65228.984085200325, -62916.27143815416, -54419.1440247469, -57289.15271629724, -48313.18388142394, -26872.049495226085, -47373.784765456294, -53429.02880061016, 2442135.505930842, -52408.69401796985, -57642.19851996881, -47136.18572189638, -4893.400358367009, 0.074, 0.978, -0.196, 192.0, 1.0, 40.0, 15.0, 72.0, 124.5, 112.0, 0.0, 0.0, 0.0, 1.741802130908712E9, 0.0, 2025-03-12 12:55:30.908
40.0, -52980.0046062475, -43423.80683705889, -64235.24787846183, -65237.72361728235, -62920.47356611176, -54432.1974435088, -57299.00983560203, -48325.61145134109, -26878.88912902941, -47392.739044754395, -53438.05890537011, 2442342.036049609, -52421.56862277611, -57647.36177293799, -47143.718259777816, -4901.49168985983, 0.074, 0.978, -0.196, 192.0, 0.0, 0.0, 0.0, 0.0, 0.0, 0.0, 0.0, 0.0, 0.0, 1.741802130909069E9, 0.0, 2025-03-12 12:55:30.909
42.0, -52977.32239691287, -43423.73978182552, -64233.95147728342, -65235.80136725919, -62918.5513160886, -54428.978792307236, -57300.507402480536, -48322.28104141725, -26876.408085394873, -47382.680759749506, -53438.72945770377, 2442221.3366295504, -52419.288744841666, -57648.926395049864, -47143.4276870999, -4903.950381749914, 0.074, 0.978, -0.196, 192.0, 0.0, 0.0, 0.0, 0.0, 0.0, 0.0, 0.0, 0.0, 0.0, 1.741802130909391E9, 0.0, 2025-03-12 12:55:30.909
44.0, -52981.4574696371, -43425.84084580432, -64226.93302952445, -65234.572021314154, -62916.517307343165, -54429.805806852084, -57300.39564375826, -48324.24799492932, -26874.865815027457, -47386.25703886236, -53433.85677741251, 2442118.3397911, -52414.72898897278, -57644.83602581454, -47138.42089634191, -4902.274000915766, 0.074, 0.978, -0.196, 192.0, 0.0, 0.0, 0.0, 0.0, 0.0, 0.0, 0.0, 0.0, 0.0, 1.741802130909709E9, 0.0, 2025-03-12 12:55:30.909
46.0, -52991.13577498624, -43434.043936019414, -64234.242049961336, -65239.601163816595, -62926.530888859146, -54437.53951043362, -57310.00689387404, -48329.63476534304, -26889.84148381251, -47397.27644887882, -53447.2678240857, 2441979.9377894327, -52427.871814712504, -57656.548339909124, -47151.071983703616, -4913.852204543616, 0.074, 0.978, -0.196, 192.0, 0.0, 0.0, 0.0, 0.0, 0.0, 0.0, 0.0, 0.0, 0.0, 1.741802130966192E9, 0.0, 2025-03-12 12:55:30.966
48.0, -52978.17176320217, -43417.97303175605, -64223.73673006734, -65224.893715965, -62916.00321722069, -54426.54245216161, -57292.103146565336, -48331.266442688284, -26882.778332564634, -47391.688512764995, -53439.757637948715, 2441875.868067249, -52420.85336695354, -57647.04884851562, -47141.57249231011, -4904.509175361297, 0.068, 0.974, -0.2, 192.0, 1.0, 16.0, 15.0, 56.0, 124.5, 96.0, 0.0, 0.0, 0.0, 1.741802130966613E9, 0.0, 2025-03-12 12:55:30.966
50.0, -52980.4069376477, -43418.755342811986, -64232.45391040491, -65229.051140433694, -62924.09454871352, -54424.351981204985, -57293.26543727701, -48319.04003847123, -26875.424608638838, -47386.927591196014, -53431.9121756449, 2441902.1537187286, -52413.45493953883, -57638.17520596686, -47137.1244951635, -4899.301218903211, 0.068, 0.974, -0.2, 192.0, 0.0, 0.0, 0.0, 0.0, 0.0, 0.0, 0.0, 0.0, 0.0, 1.74180213096696E9, 0.0, 2025-03-12 12:55:30.966
52.0, -52962.48083859454, -43400.73983678101, -64216.38300614155, -65207.99579715679, -62906.391967104915, -54406.15766121837, -57276.591035913356, -48302.94678246341, -26876.02810573913, -47386.34644584018, -53432.04628611163, 2442408.018399241, -52413.87962268348, -57637.92933677785, -47140.790181254175, -4895.881402001548, 0.068, 0.974, -0.2, 192.0, 0.0, 0.0, 0.0, 0.0, 0.0, 0.0, 0.0, 0.0, 0.0, 1.741802130967295E9, 0.0, 2025-03-12 12:55:30.967
54.0, -52964.33603338433, -43402.48327284852, -64216.31595090818, -65208.33107332362, -62904.559124059575, -54406.85056529648, -57274.4676201901, -48307.32772437665, -26866.66272481236, -47385.78765222879, -53419.57401270557, 2442329.6978866695, -52397.76401493121, -57626.57465059456, -47126.663878758416, -4879.922256460459, 0.068, 0.974, -0.2, 192.0, 0.0, 0.0, 0.0, 0.0, 0.0, 0.0, 0.0, 0.0, 0.0, 1.741802130967618E9, 0.0, 2025-03-12 12:55:30.967
56.0, -52980.09401322532, -43417.21307244457, -64234.13029123906, -65224.021997931246, -62920.67473181185, -54421.60271663698, -57288.9739023416, -48319.15179719351, -26873.03297198212, -47398.70696052396, -53424.82667265257, 2442205.7798154093, -52398.9710091318, -57632.60962159749, -47133.50351256174, -4890.2711141432665, 0.068, 0.974, -0.2, 192.0, 0.0, 0.0, 0.0, 0.0, 0.0, 0.0, 0.0, 0.0, 0.0, 1.741802130967943E9, 0.0, 2025-03-12 12:55:30.967
58.0, -52972.74028929952, -43413.77090379845, -64228.27413419177, -65219.90927695147, -62910.77290901815, -54413.600792121986, -57277.93214058068, -48311.14987267851, -26884.097085487498, -47403.087902437204, -53436.78485593616, 2442057.7218601373, -52405.721235957295, -57636.632935599446, -47141.14780916546, -4889.913486231982, 0.062, 0.97, -0.194, 192.0, 0.5, 120.0, 15.0, 40.0, 124.5, 120.0, 0.0, 0.0, 0.0, 1.741802130968273E9, 0.0, 2025-03-12 12:55:30.968
60.0, -52945.426457575144, -43385.115967406746, -64200.93795072293, -65191.54491323768, -62881.78269645962, -54386.756347031165, -57252.51820713499, -48289.15575613448, -26863.064093955054, -47398.8410709907, -53414.88014636996, 2441960.6258822237, -52379.68145366686, -57617.656304556884, -47119.57837576609, -4868.9028464439925, 0.062, 0.97, -0.194, 192.0, 0.0, 0.0, 0.0, 0.0, 0.0, 0.0, 0.0, 0.0, 0.0, 1.741802131026289E9, 0.0, 2025-03-12 12:55:31.026
62.0, -52936.93279468212, -43375.70588299107, -64198.97099721086, -65187.298081791174, -62877.82643769103, -54382.57657081802, -57246.21501519859, -48285.73593923282, -26857.811434008057, -47387.285219107296, -53414.030780080655, 2441858.7019275073, -52377.40157573242, -57606.97217070725, -47113.56575650761, -4857.883436427526, 0.062, 0.97, -0.194, 192.0, 0.0, 0.0, 0.0, 0.0, 0.0, 0.0, 0.0, 0.0, 0.0, 1.741802131026689E9, 0.0, 2025-03-12 12:55:31.026
64.0, -52932.46244579106, -43370.40851955516, -64199.06040418868, -65187.298081791174, -62874.80895218956, -54384.923503985825, -57236.871986016275, -48299.03522718373, -26840.98057043321, -47393.56605929924, -53402.921963086366, 2442144.0890007126, -52364.057584292605, -57595.68453975732, -47103.57452673608, -4844.181817076423, 0.062, 0.97, -0.194, 192.0, 0.0, 0.0, 0.0, 0.0, 0.0, 0.0, 0.0, 0.0, 0.0, 1.741802131027012E9, 0.0, 2025-03-12 12:55:31.027
66.0, -52933.736495225014, -43368.59802825428, -64203.84367750212, -65190.49438124829, -62875.43480103431, -54381.61544580644, -57237.67664881667, -48283.56782002066, -26834.92324768582, -47399.176347157525, -53400.396215962915, 2442352.2284450806, -52362.98470055875, -57593.58347577852, -47100.40057902344, -4843.086581598113, 0.065, 0.971, -0.191, 192.0, 1.0, 16.0, 15.0, 48.0, 125.0, 16.0, 0.0, 0.0, 0.0, 1.741802131027338E9, 0.0, 2025-03-12 12:55:31.027
68.0, -52924.438169531604, -43349.93432163409, -64187.07986916064, -65171.40599148345, -62858.51453048165, -54366.34920434347, -57215.838994483835, -48266.98282563482, -26838.588933776493, -47416.11896945465, -53408.66636141138, 2442221.873071417, -52369.62316866197, -57593.762289734164, -47103.46276801381, -4837.923328628937, 0.065, 0.971, -0.191, 192.0, 0.0, 0.0, 0.0, 0.0, 0.0, 0.0, 0.0, 0.0, 0.0, 1.741802131027716E9, 0.0, 2025-03-12 12:55:31.027
70.0, -52922.2924020639, -43350.29194954538, -64189.11387790607, -65172.59063393959, -62862.5378444836, -54375.75928875915, -57225.87492774426, -48280.662093241466, -26824.239113836185, -47411.268640907845, -53391.36611120297, 2442132.2872796403, -52357.3073574671, -57580.887684927904, -47088.95648586232, -4825.808683134161, 0.065, 0.971, -0.191, 192.0, 0.0, 0.0, 0.0, 0.0, 0.0, 0.0, 0.0, 0.0, 0.0, 1.741802131028053E9, 0.0, 2025-03-12 12:55:31.028
72.0, -52915.20689907156, -43348.45910650004, -64187.21397962737, -65168.34380249307, -62865.33181254051, -54369.344338100476, -57226.120796933275, -48274.291846071705, -26829.089442382985, -47429.55236787228, -53399.546849673614, 2442005.1505571785, -52359.02844179016, -57583.30167332908, -47093.49388998674, -4825.719276156339, 0.065, 0.971, -0.191, 192.0, 0.0, 0.0, 0.0, 0.0, 0.0, 0.0, 0.0, 0.0, 0.0, 1.741802131028404E9, 0.0, 2025-03-12 12:55:31.028
74.0, -52905.86386988925, -43332.45525747004, -64175.61342425507, -65152.60817439654, -62850.020867588624, -54353.832227448496, -57207.41238682418, -48268.97213089134, -26821.40044229036, -47423.51739686935, -53390.18146874684, 2441891.42488139, -52350.87005506397, -57572.304615057066, -47083.815584637596, -4814.051665550669, 0.065, 0.971, -0.191, 192.0, 0.0, 0.0, 0.0, 0.0, 0.0, 0.0, 0.0, 0.0, 0.0, 1.741802131028744E9, 0.0, 2025-03-12 12:55:31.028
76.0, -52904.05337858837, -43325.10153354425, -64175.07698238814, -65150.194185995366, -62851.853710633965, -54353.36284081493, -57212.687398515634, -48264.65824421147, -26811.766840430122, -47419.91876601205, -53384.861753566474, 2442079.1795348143, -52342.242281704224, -57558.51358872814, -47077.04300606764, -4802.048778778169, 0.0665, 0.9695, -0.1895, 192.0, 1.0, 16.0, 15.0, 32.0, 125.0, 16.0, 0.0, 0.0, 0.0, 1.741802131085212E9, 0.0, 2025-03-12 12:55:31.085
78.0, -52909.59661121328, -43323.29104224337, -64176.32868007764, -65149.41187493943, -62856.0334868471, -54354.25691059315, -57222.61157305379, -48265.99934887879, -26807.967043872723, -47428.27831843833, -53378.26798895216, 2442480.4380512764, -52340.76706657017, -57556.97131836073, -47075.500735700225, -4800.774729344217, 0.0665, 0.9695, -0.1895, 192.0, 0.0, 0.0, 0.0, 0.0, 0.0, 0.0, 0.0, 0.0, 0.0, 1.741802131085621E9, 0.0, 2025-03-12 12:55:31.085
80.0, -52921.2418700745, -43340.233664540494, -64189.69502326191, -65167.15916003694, -62872.0373358771, -54375.60282654796, -57227.46190160059, -48291.65915151348, -26825.155535358852, -47441.10821975568, -53398.40691070639, 2442344.7182589434, -52355.943901055325, -57571.63406272341, -47094.41031150941, -4816.24213650729, 0.0665, 0.9695, -0.1895, 192.0, 0.0, 0.0, 0.0, 0.0, 0.0, 0.0, 0.0, 0.0, 0.0, 1.741802131085954E9, 0.0, 2025-03-12 12:55:31.085
82.0, -52927.00862014397, -43345.46397274303, -64192.04195642972, -65171.24952927227, -62875.345394056494, -54381.2354661507, -57235.195605182125, -48289.401625323495, -26828.82122144952, -47454.29574898431, -53392.10371877, 2442219.7273039497, -52356.94972955582, -57576.32792905902, -47090.14112831845, -4819.706656897862, 0.0665, 0.9695, -0.1895, 192.0, 0.0, 0.0, 0.0, 0.0, 0.0, 0.0, 0.0, 0.0, 0.0, 1.741802131086294E9, 0.0, 2025-03-12 12:55:31.086
84.0, -52915.005733371465, -43331.60589118074, -64179.07794464564, -65158.441979699375, -62860.4367805048, -54366.52801829911, -57222.09748293132, -48277.77871820673, -26840.757052988658, -47471.43953698153, -53407.23584976624, 2442077.0337673468, -52366.06924129358, -57583.704004729276, -47098.500680744735, -4828.312078513155, 0.0665, 0.9695, -0.1895, 192.0, 0.0, 0.0, 0.0, 0.0, 0.0, 0.0, 0.0, 0.0, 0.0, 1.741802131086625E9, 0.0, 2025-03-12 12:55:31.086
86.0, -52911.27299204743, -43326.174417278104, -64175.18874111042, -65154.57512790861, -62855.60880370245, -54369.18787588929, -57218.09652067382, -48290.31804684616, -26821.579256246005, -47457.134420530136, -53386.31461695607, 2442004.0776734445, -52347.003203273205, -57564.39209751989, -47076.12658454497, -4811.145938771479, 0.07225000000000001, 0.96675, -0.18875, 192.0, 1.0, 56.0, 15.0, 16.0, 125.0, 16.0, 0.0, 0.0, 0.0, 1.74180213108695E9, 0.0, 2025-03-12 12:55:31.086
88.0, -52930.406085301176, -43337.305586016846, -64187.45984881638, -65164.40989546894, -62865.39886777388, -54373.34530035798, -57232.62515456977, -48281.019721152756, -26836.376111075417, -47474.27820852736, -53401.82672760806, 2441873.722299781, -52359.18490400135, -57575.56796974754, -47088.420043995386, -4826.613345934552, 0.07225000000000001, 0.96675, -0.18875, 192.0, 0.0, 0.0, 0.0, 0.0, 0.0, 0.0, 0.0, 0.0, 0.0, 1.741802131087295E9, 0.0, 2025-03-12 12:55:31.087
90.0, -52931.21074810156, -43341.26184478543, -64191.37140409606, -65166.37684898101, -62876.68649872381, -54378.66501553834, -57245.63386984276, -48288.84283171211, -26840.801756477566, -47477.049824839814, -53401.513803185684, 2442197.1967455386, -52363.923473825875, -57573.57866449102, -47090.11877657399, -4822.657087165962, 0.07225000000000001, 0.96675, -0.18875, 192.0, 0.0, 0.0, 0.0, 0.0, 0.0, 0.0, 0.0, 0.0, 0.0, 1.741802131146886E9, 0.0, 2025-03-12 12:55:31.146
92.0, -52931.88130043523, -43346.313339032335, -64191.93019770744, -65168.12028504852, -62881.15684761487, -54379.35791961646, -57245.38800065375, -48294.60958178158, -26844.758015246156, -47484.939990632534, -53404.12895728695, 2442382.2691896283, -52370.11490703999, -57574.80801043606, -47095.974933621284, -4825.898090111982, 0.07225000000000001, 0.96675, -0.18875, 192.0, 0.0, 0.0, 0.0, 0.0, 0.0, 0.0, 0.0, 0.0, 0.0, 1.741802131147284E9, 0.0, 2025-03-12 12:55:31.147
94.0, -52928.70735272257, -43334.712783660034, -64181.871912702554, -65159.04547679967, -62872.99846088868, -54371.40069859037, -57238.0119249835, -48281.73497697532, -26851.01650369364, -47495.646476226626, -53411.12505330146, 2442261.033327703, -52380.03908157815, -57582.69817622878, -47099.50650924522, -4833.5647384601525, 0.07225000000000001, 0.96675, -0.18875, 192.0, 0.0, 0.0, 0.0, 0.0, 0.0, 0.0, 0.0, 0.0, 0.0, 1.741802131147606E9, 0.0, 2025-03-12 12:55:31.147
96.0, -52918.917288651144, -43323.98394632148, -64170.24900558579, -65147.62373538301, -62856.92755662532, -54361.07419265201, -57222.92449747617, -48269.262703569264, -26830.162326116842, -47470.67957767005, -53388.795660590615, 2442180.0306057967, -52361.80005810262, -57562.46984749674, -47077.378282234466, -4813.291706239189, 0.075125, 0.965375, -0.185375, 192.0, 1.0, 56.0, 15.0, 16.0, 125.0, 40.0, 0.0, 0.0, 0.0, 1.741802131147941E9, 0.0, 2025-03-12 12:55:31.147
98.0, -52940.531425539426, -43343.72053667552, -64186.18579938243, -65163.35936347954, -62869.53394049811, -54377.4356695933, -57236.536709849446, -48286.83117471113, -26843.908648956854, -47486.81753716678, -53401.67026539687, 2442068.450697476, -52371.29954949612, -57572.14815284588, -47082.85445962602, -4821.830072621116, 0.075125, 0.965375, -0.185375, 192.0, 0.0, 0.0, 0.0, 0.0, 0.0, 0.0, 0.0, 0.0, 0.0, 1.741802131148275E9, 0.0, 2025-03-12 12:55:31.148
100.0, -52932.37303881324, -43340.4795337295, -64185.738764493326, -65163.71699139083, -62871.590300988, -54381.011948706146, -57242.6610878302, -48289.6474945125, -26849.40717809286, -47491.176127335566, -53405.00067532071, 2441939.168207546, -52376.21693327629, -57574.29392031359, -47088.12947131747, -4830.390790747499, 0.075125, 0.965375, -0.185375, 192.0, 0.0, 0.0, 0.0, 0.0, 0.0, 0.0, 0.0, 0.0, 0.0, 1.741802131148605E9, 0.0, 2025-03-12 12:55:31.148
102.0, -52934.742323725506, -43340.43483024059, -64185.20232262639, -65162.018258812226, -62873.6913649668, -54384.67763479682, -57243.13047446376, -48305.4501778424, -26848.200183892273, -47493.478357014465, -53402.05024505261, 2442215.972210881, -52377.17805828787, -57578.09371687099, -47091.281067285665, -4837.476293739831, 0.075125, 0.965375, -0.185375, 192.0, 0.0, 0.0, 0.0, 0.0, 0.0, 0.0, 0.0, 0.0, 0.0, 1.741802131148926E9, 0.0, 2025-03-12 12:55:31.148
104.0, -52932.61890800225, -43336.322109260815, -64180.64256675751, -65155.55860466464, -62868.66222246435, -54373.54646605808, -57240.7611895515, -48285.355959577086, -26848.80368099257, -47491.869031413684, -53403.79368112012, 2442390.8522594995, -52376.283988509655, -57574.13745810241, -47089.26941028469, -4836.2916512837, 0.075125, 0.965375, -0.185375, 192.0, 0.0, 0.0, 0.0, 0.0, 0.0, 0.0, 0.0, 0.0, 0.0, 1.74180213114926E9, 0.0, 2025-03-12 12:55:31.149
106.0, -52937.603347015785, -43339.272539528916, -64182.56481678067, -65161.2806512452, -62876.462981279255, -54381.28016963961, -57248.42783789967, -48288.149927634, -26846.79202399159, -47481.56487721978, -53399.412739206884, 2442286.2460954483, -52374.1605727864, -57568.97420513323, -47085.760186405205, -4831.307212270166, 0.0755625, 0.9626874999999999, -0.1836875, 192.0, 1.0, 48.0, 15.0, 0.0, 125.0, 40.0, 0.0, 0.0, 0.0, 1.741802131205767E9, 0.0, 2025-03-12 12:55:31.205
108.0, -52959.396297859705, -43360.216124083534, -64202.32375887916, -65180.6372619435, -62895.30550185508, -54398.96039950376, -57267.069192775394, -48305.87486098705, -26865.27691665613, -47502.12848211867, -53415.81891963708, 2442134.969488975, -52390.902029383426, -57586.565028019555, -47103.75334069173, -4848.138075845012, 0.0755625, 0.9626874999999999, -0.1836875, 192.0, 0.0, 0.0, 0.0, 0.0, 0.0, 0.0, 0.0, 0.0, 0.0, 1.741802131206176E9, 0.0, 2025-03-12 12:55:31.206
110.0, -52939.346783083296, -43353.89058040269, -64191.81843898517, -65174.378773496006, -62886.744783728696, -54390.71260579975, -57264.05170727393, -48295.25778237078, -26870.864852769955, -47515.226604369476, -53419.19403304983, 2441997.6403710414, -52392.69016893985, -57593.38231007842, -47109.542442505655, -4853.234273580822, 0.0755625, 0.9626874999999999, -0.1836875, 192.0, 0.0, 0.0, 0.0, 0.0, 0.0, 0.0, 0.0, 0.0, 0.0, 1.741802131206527E9, 0.0, 2025-03-12 12:55:31.206
112.0, -52926.65099223268, -43334.39985923766, -64172.23831084232, -65155.1786250089, -62864.16952182884, -54373.68057652481, -57229.42885511266, -48280.237410096815, -26856.067997940543, -47495.78058669336, -53401.75967237469, 2441893.5706488574, -52376.4628024653, -57579.32306281604, -47090.74462541874, -4837.4986454842865, 0.0755625, 0.9626874999999999, -0.1836875, 192.0, 0.0, 0.0, 0.0, 0.0, 0.0, 0.0, 0.0, 0.0, 0.0, 1.741802131206874E9, 0.0, 2025-03-12 12:55:31.206
114.0, -52918.82788167333, -43329.97421383551, -64167.72325846234, -65152.921098818915, -62863.16369332835, -54372.36182360195, -57236.447302871624, -48282.763157220266, -26834.006826163153, -47476.20045855051, -53382.89480005441, 2442243.330746094, -52354.08870626554, -57560.346431773476, -47070.65040715342, -4820.153691786968, 0.0755625, 0.9626874999999999, -0.1836875, 192.0, 0.0, 0.0, 0.0, 0.0, 0.0, 0.0, 0.0, 0.0, 0.0, 1.741802131207203E9, 0.0, 2025-03-12 12:55:31.207
116.0, -52930.875471934734, -43339.540760462376, -64179.99436616831, -65164.78987512468, -62874.5407312561, -54381.10135568397, -57249.85834954481, -48292.97790443634, -26852.134090916406, -47493.65717097011, -53397.13286127244, 2442346.327584544, -52373.73588964175, -57579.5912837495, -47091.39282600795, -4838.504473984775, 0.07278125, 0.9643437499999999, -0.18384375, 192.0, 1.0, 24.0, 15.0, 24.0, 125.0, 32.0, 0.0, 0.0, 0.0, 1.741802131207522E9, 0.0, 2025-03-12 12:55:31.207
118.0, -52928.21561434455, -43336.322109260815, -64173.26649108726, -65153.0775610301, -62866.35999278546, -54371.95949220175, -57232.78161678096, -48279.07511938514, -26851.485890327203, -47487.57749647826, -53398.74218687322, 2442232.6019087555, -52369.35494772851, -57574.048051124584, -47085.760186405205, -4832.000116348281, 0.07278125, 0.9643437499999999, -0.18384375, 192.0, 0.0, 0.0, 0.0, 0.0, 0.0, 0.0, 0.0, 0.0, 0.0, 1.741802131207872E9, 0.0, 2025-03-12 12:55:31.207
120.0, -52908.41196875715, -43319.08891428577, -64156.34622053459, -65137.78896782267, -62852.32309726752, -54354.90511118235, -57222.76803526498, -48265.88759015651, -26840.55588728856, -47479.284999285344, -53383.9006285549, 2442126.386419104, -52361.17420925787, -57565.6884986983, -47072.75147113222, -4825.473406967331, 0.07278125, 0.9643437499999999, -0.18384375, 192.0, 0.0, 0.0, 0.0, 0.0, 0.0, 0.0, 0.0, 0.0, 0.0, 1.741802131266138E9, 0.0, 2025-03-12 12:55:31.266
122.0, -52903.00284659897, -43316.65257414014, -64155.7427234343, -65140.71704634632, -62847.62923093191, -54353.36284081493, -57215.32490436136, -48261.48429649881, -26828.553000516058, -47470.83603988124, -53376.18927671782, 2442031.9726505247, -52349.5065986522, -57553.283280525604, -47063.07316578307, -4811.928249827415, 0.07278125, 0.9643437499999999, -0.18384375, 192.0, 0.0, 0.0, 0.0, 0.0, 0.0, 0.0, 0.0, 0.0, 0.0, 1.741802131266542E9, 0.0, 2025-03-12 12:55:31.266
124.0, -52910.46832924704, -43326.86732135622, -64163.02939212673, -65151.28942147368, -62850.62436468892, -54364.27049210912, -57219.34821836332, -48265.909941900965, -26831.346968572972, -47470.120784058665, -53377.19510521831, 2441924.6842771396, -52348.344307940526, -57558.111257327946, -47060.70388087081, -4817.5385376856975, 0.07278125, 0.9643437499999999, -0.18384375, 192.0, 0.0, 0.0, 0.0, 0.0, 0.0, 0.0, 0.0, 0.0, 0.0, 1.741802131266878E9, 0.0, 2025-03-12 12:55:31.266
126.0, -52907.71906467904, -43325.74973413345, -64166.002174139285, -65150.395351695464, -62856.189949058295, -54364.67282350932, -57229.27239290147, -48267.36280529056, -26833.716253485236, -47483.57653422076, -53379.56439013057, 2442328.6250029355, -52352.79230508713, -57564.839132409, -47071.47742169827, -4823.95348834437, 0.07139062500000001, 0.963171875, -0.182921875, 192.0, 1.0, 24.0, 15.0, 8.0, 125.0, 40.0, 0.0, 0.0, 0.0, 1.741802131267213E9, 0.0, 2025-03-12 12:55:31.267
128.0, -52930.16021611216, -43345.620434954224, -64190.27616861775, -65175.5857676966, -62877.91584466885, -54390.71260579975, -57260.296614205436, -48297.448253327406, -26845.160346646353, -47486.59401972223, -53391.924904814354, 2442379.0505384267, -52366.98566281625, -57575.47856276972, -47087.66008468391, -4839.867930396549, 0.07139062500000001, 0.963171875, -0.182921875, 192.0, 0.0, 0.0, 0.0, 0.0, 0.0, 0.0, 0.0, 0.0, 0.0, 1.741802131267565E9, 0.0, 2025-03-12 12:55:31.267
130.0, -52924.48287302052, -43347.162705321636, -64188.309215105684, -65178.357384009054, -62874.563083000554, -54389.885591254904, -57249.254852444516, -48287.7475962338, -26851.105910671464, -47498.373389050175, -53400.86560259648, 2442237.429885558, -52371.99245357424, -57585.42508905233, -47097.11487258851, -4850.2391398238115, 0.07139062500000001, 0.963171875, -0.182921875, 192.0, 0.0, 0.0, 0.0, 0.0, 0.0, 0.0, 0.0, 0.0, 0.0, 1.741802131267885E9, 0.0, 2025-03-12 12:55:31.267
132.0, -52927.3438963108, -43351.074260601315, -64185.20232262639, -65176.16691305243, -62872.81964693304, -54391.51726860014, -57241.67761107417, -48293.64845677, -26857.722027030235, -47499.35686580621, -53405.11243404299, 2442115.6575817657, -52376.19458153184, -57586.96735941975, -47093.873869642484, -4853.122514858546, 0.07139062500000001, 0.963171875, -0.182921875, 192.0, 0.0, 0.0, 0.0, 0.0, 0.0, 0.0, 0.0, 0.0, 0.0, 1.741802131268231E9, 0.0, 2025-03-12 12:55:31.268
134.0, -52931.38956205721, -43356.796307181874, -64186.81164822718, -65180.79372415468, -62872.327908555024, -54398.96039950376, -57237.14020694974, -48299.77283475076, -26854.771596762133, -47496.764063449395, -53401.580858419045, 2442004.0776734445, -52371.16543902939, -57584.30750182957, -47087.66008468391, -4848.160427589468, 0.07139062500000001, 0.963171875, -0.182921875, 192.0, 0.0, 0.0, 0.0, 0.0, 0.0, 0.0, 0.0, 0.0, 0.0, 1.741802131268571E9, 0.0, 2025-03-12 12:55:31.268
136.0, -52936.86573944876, -43360.61845548373, -64191.32670060715, -65184.63822420099, -62875.94889115678, -54397.46283262526, -57250.21597745609, -48294.94485794841, -26866.6403730679, -47510.15275837812, -53414.25429752521, 2441872.6494160476, -52382.27425602368, -57597.78560373612, -47092.488061486256, -4859.090430628113, 0.06769531250000001, 0.9635859375, -0.1814609375, 192.0, 1.0, 0.0, 15.0, 16.0, 125.0, 48.0, 0.0, 0.0, 0.0, 1.741802131326108E9, 0.0, 2025-03-12 12:55:31.326
138.0, -52950.880283222235, -43369.469746288036, -64203.64251180203, -65191.433154515405, -62885.11310638346, -54401.352036160475, -57256.69798334813, -48300.06340742867, -26872.22830918173, -47511.89619444564, -53421.74213191774, 2442213.8264434133, -52388.4656892378, -57599.05965317007, -47099.193584822846, -4856.162352104468, 0.06769531250000001, 0.9635859375, -0.1814609375, 192.0, 0.0, 0.0, 0.0, 0.0, 0.0, 0.0, 0.0, 0.0, 0.0, 1.741802131326532E9, 0.0, 2025-03-12 12:55:31.326
140.0, -52954.367155357264, -43365.78170845291, -64204.71539553588, -65190.62849171502, -62882.29678658209, -54402.35786466097, -57246.885567532256, -48305.11490167557, -26878.665611584856, -47518.288793359854, -53431.39808552243, 2442373.149677891, -52395.75235793023, -57604.06644392806, -47103.44041626935, -4860.878570184537, 0.06769531250000001, 0.9635859375, -0.1814609375, 192.0, 0.0, 0.0, 0.0, 0.0, 0.0, 0.0, 0.0, 0.0, 0.0, 1.74180213132685E9, 0.0, 2025-03-12 12:55:31.326
142.0, -52939.90557669468, -43371.570810266836, -64195.37236635356, -65189.80147717017, -62878.36287955796, -54402.402568149875, -57246.729105321065, -48303.729093519345, -26873.03297198212, -47512.23147061247, -53420.42337899487, 2442260.496885836, -52388.041006093146, -57600.266647370656, -47101.40640752392, -4861.10208762909, 0.06769531250000001, 0.9635859375, -0.1814609375, 192.0, 0.0, 0.0, 0.0, 0.0, 0.0, 0.0, 0.0, 0.0, 0.0, 1.741802131327184E9, 0.0, 2025-03-12 12:55:31.327
144.0, -52946.58874828682, -43373.58246726781, -64195.640587287024, -65192.10370684907, -62878.631100491424, -54399.31802741504, -57254.507512391516, -48293.98373293683, -26882.241890697707, -47525.64251728565, -53424.62550695247, 2442137.6516983095, -52393.38307301797, -57609.564973064065, -47104.31213430311, -4864.074869641647, 0.06769531250000001, 0.9635859375, -0.1814609375, 192.0, 0.0, 0.0, 0.0, 0.0, 0.0, 0.0, 0.0, 0.0, 0.0, 1.741802131327519E9, 0.0, 2025-03-12 12:55:31.327
146.0, -52951.66259427817, -43387.52995580792, -64211.84560201712, -65210.05215764668, -62894.61259777696, -54417.06531251256, -57276.61338765781, -48313.094474446116, -26880.498454630193, -47524.81550274081, -53426.30188778662, 2442019.6344875856, -52391.952561372826, -57608.246220141205, -47109.676552972385, -4868.276997599244, 0.06484765625, 0.96179296875, -0.18373046875, 192.0, 0.5, 120.0, 15.0, 0.0, 125.0, 24.0, 0.0, 0.0, 0.0, 1.741802131327839E9, 0.0, 2025-03-12 12:55:31.327
148.0, -52947.77339074295, -43374.32007483484, -64198.52396232176, -65196.752869695774, -62884.93429242782, -54407.31995193005, -57266.08571601936, -48307.84181449912, -26891.674326857847, -47532.23628189997, -53436.36017279151, 2441886.5969045875, -52400.55798298812, -57618.930353990836, -47116.315021075614, -4880.0563669271905, 0.06484765625, 0.96179296875, -0.18373046875, 192.0, 0.0, 0.0, 0.0, 0.0, 0.0, 0.0, 0.0, 0.0, 0.0, 1.74180213132818E9, 0.0, 2025-03-12 12:55:31.328
150.0, -52926.85215793278, -43356.21516182604, -64187.66101451648, -65182.693622433384, -62871.143266098894, -54395.898210513384, -57263.47056191809, -48297.24708762731, -26865.36632363395, -47505.52594727588, -53407.459367210795, 2441811.4950432177, -52379.994378089235, -57594.052862412085, -47097.80777666662, -4861.482067284831, 0.06484765625, 0.96179296875, -0.18373046875, 192.0, 0.0, 0.0, 0.0, 0.0, 0.0, 0.0, 0.0, 0.0, 0.0, 1.74180213138527E9, 0.0, 2025-03-12 12:55:31.385
152.0, -52952.04257393391, -43376.71171149155, -64204.62598855806, -65199.85976217506, -62884.93429242782, -54412.751425832685, -57264.94577705214, -48308.6017738106, -26866.014524223152, -47511.69502874554, -53411.68384691285, 2442233.6747924895, -52381.98368334576, -57598.25499036968, -47100.64644821244, -4862.443192296409, 0.06484765625, 0.96179296875, -0.18373046875, 192.0, 0.0, 0.0, 0.0, 0.0, 0.0, 0.0, 0.0, 0.0, 0.0, 1.741802131385668E9, 0.0, 2025-03-12 12:55:31.385
154.0, -52959.396297859705, -43393.69903727758, -64215.80186078571, -65210.946227424894, -62896.62425477794, -54427.570632406554, -57267.225654986585, -48327.46664613088, -26891.60727162448, -47535.633747057174, -53433.879129156965, 2442259.960443969, -52404.55894524562, -57619.578554580046, -47118.03610539867, -4883.744404762317, 0.06484765625, 0.96179296875, -0.18373046875, 192.0, 0.0, 0.0, 0.0, 0.0, 0.0, 0.0, 0.0, 0.0, 0.0, 1.741802131386021E9, 0.0, 2025-03-12 12:55:31.386
156.0, -52958.52457982595, -43392.11206342126, -64210.61625607208, -65202.58667499861, -62890.343414586, -54418.831100324525, -57260.87775956128, -48321.72224780587, -26899.452733928294, -47539.85822675923, -53444.13857986195, 2442133.896605241, -52407.263506324714, -57621.88078425894, -47121.701791489344, -4887.723015275361, 0.061423828124999996, 0.964896484375, -0.179865234375, 192.0, 0.5, 104.0, 15.0, 32.0, 125.0, 64.0, 0.0, 0.0, 0.0, 1.741802131386361E9, 0.0, 2025-03-12 12:55:31.386
158.0, -52970.99685323201, -43402.662086804165, -64220.76394805479, -65210.83446870262, -62902.56981880306, -54425.49192017221, -57272.72418412259, -48325.410285640995, -26900.14563800641, -47537.533645335876, -53440.33878330455, 2442008.36920838, -52409.47632902579, -57619.287981902125, -47118.28197458768, -4882.671521028462, 0.061423828124999996, 0.964896484375, -0.179865234375, 192.0, 0.0, 0.0, 0.0, 0.0, 0.0, 0.0, 0.0, 0.0, 0.0, 1.741802131386698E9, 0.0, 2025-03-12 12:55:31.386
160.0, -52954.68007977964, -43385.69711276259, -64204.89420949152, -65195.05413711717, -62891.773926231144, -54407.05173099658, -57268.52205616499, -48310.45696860039, -26903.587806652526, -47539.25472965893, -53444.45150428433, 2441875.331625382, -52412.784387205174, -57623.467758115265, -47124.60751826853, -4885.264323385278, 0.061423828124999996, 0.964896484375, -0.179865234375, 192.0, 0.0, 0.0, 0.0, 0.0, 0.0, 0.0, 0.0, 0.0, 0.0, 1.741802131387041E9, 0.0, 2025-03-12 12:55:31.387
162.0, -52931.21074810156, -43360.238475827995, -64180.553159779694, -65168.52261644872, -62865.890606151894, -54379.536733572095, -57241.09646571833, -48278.561029262666, -26871.714219059257, -47503.827214697274, -53412.689675413334, 2442175.7390708616, -52385.090575825045, -57590.36482457696, -47092.77863416418, -4852.4072590359765, 0.061423828124999996, 0.964896484375, -0.179865234375, 192.0, 0.0, 0.0, 0.0, 0.0, 0.0, 0.0, 0.0, 0.0, 0.0, 1.741802131387364E9, 0.0, 2025-03-12 12:55:31.387
164.0, -52933.736495225014, -43369.469746288036, -64182.54246503621, -65181.68779393289, -62874.25015857818, -54395.898210513384, -57252.20528271262, -48302.544451063215, -26873.36824814895, -47510.532738033864, -53419.88693712794, 2442374.7590034916, -52381.44724147883, -57594.052862412085, -47094.27620104268, -4854.798895692694, 0.061423828124999996, 0.964896484375, -0.179865234375, 192.0, 0.0, 0.0, 0.0, 0.0, 0.0, 0.0, 0.0, 0.0, 0.0, 1.741802131387694E9, 0.0, 2025-03-12 12:55:31.387
166.0, -52952.71312626757, -43382.54551679439, -64198.83688674413, -65192.70720394936, -62884.77783021663, -54408.43753915281, -57264.25287297403, -48308.02062845476, -26868.830844024524, -47506.08474088726, -53410.09687305652, 2442264.7884207712, -52379.860267622505, -57595.371615334945, -47089.64938994043, -4858.241064338811, 0.057711914062499994, 0.9684482421875, -0.17793261718749998, 192.0, 0.5, 88.0, 15.0, 48.0, 125.0, 64.0, 0.0, 0.0, 0.0, 1.741802131446228E9, 0.0, 2025-03-12 12:55:31.446
168.0, -52953.875416979245, -43386.859403474264, -64204.246008902315, -65200.39620404199, -62894.5455425436, -54418.51817590215, -57270.645471888245, -48320.157625693995, -26902.22435024075, -47535.34317437925, -53443.62448973948, 2442096.882116423, -52412.80673894963, -57619.89147900242, -47119.55602402163, -4884.325550118155, 0.057711914062499994, 0.9684482421875, -0.17793261718749998, 192.0, 0.0, 0.0, 0.0, 0.0, 0.0, 0.0, 0.0, 0.0, 0.0, 1.74180213144665E9, 0.0, 2025-03-12 12:55:31.446
170.0, -52947.61692853176, -43385.98768544051, -64202.65903504599, -65198.138677852, -62893.07032740955, -54407.67757984133, -57274.221751001096, -48310.45696860039, -26888.813303567567, -47523.87672947368, -53428.00062036522, 2441981.5471150335, -52402.74845394474, -57611.35311262049, -47109.22951808328, -4875.854238969593, 0.057711914062499994, 0.9684482421875, -0.17793261718749998, 192.0, 0.0, 0.0, 0.0, 0.0, 0.0, 0.0, 0.0, 0.0, 0.0, 1.741802131446966E9, 0.0, 2025-03-12 12:55:31.446
172.0, -52937.603347015785, -43376.644656258184, -64200.71443327838, -65192.61779697154, -62892.55623728708, -54405.2412396957, -57268.5667596539, -48306.903041232, -26889.88618730142, -47522.915604462105, -53434.035591368156, 2441859.238369374, -52408.04581738065, -57611.241353898215, -47119.19839611035, -4875.340148847121, 0.057711914062499994, 0.9684482421875, -0.17793261718749998, 192.0, 0.0, 0.0, 0.0, 0.0, 0.0, 0.0, 0.0, 0.0, 0.0, 1.741802131447295E9, 0.0, 2025-03-12 12:55:31.447
174.0, -52921.35362879677, -43365.24526658598, -64184.12943889254, -65176.77041015273, -62876.530036512624, -54391.494916855685, -57245.36564890929, -48299.48226207284, -26874.307021416073, -47506.95645892101, -53415.9083266149, 2442047.529464666, -52390.499697983236, -57596.4444990688, -47099.75237843423, -4857.995195149803, 0.057711914062499994, 0.9684482421875, -0.17793261718749998, 192.0, 0.0, 0.0, 0.0, 0.0, 0.0, 0.0, 0.0, 0.0, 0.0, 1.741802131447616E9, 0.0, 2025-03-12 12:55:31.447
176.0, -52925.935736410116, -43371.2355341, -64187.70571800539, -65183.00654685576, -62880.508647025665, -54393.39481513439, -57244.89626227573, -48296.12950040454, -26876.631602839425, -47505.66005774261, -53418.59053594954, 2442402.653980572, -52392.08667183956, -57593.136440889415, -47097.80777666662, -4855.6929654709065, 0.05485595703125, 0.97422412109375, -0.17996630859374999, 192.0, 0.5, 80.0, 15.0, 80.0, 125.0, 40.0, 0.0, 0.0, 0.0, 1.741802131447976E9, 0.0, 2025-03-12 12:55:31.447
178.0, -52925.98043989902, -43377.717539992045, -64196.17702915395, -65190.583788226104, -62885.35897557247, -54400.726187315726, -57256.00507927002, -48301.94095396292, -26880.02906799663, -47507.22467985448, -53423.5079197297, 2442288.3918629163, -52389.13624157146, -57595.75159499069, -47096.533727232665, -4853.681308469929, 0.05485595703125, 0.97422412109375, -0.17996630859374999, 192.0, 0.0, 0.0, 0.0, 0.0, 0.0, 0.0, 0.0, 0.0, 0.0, 1.74180213144833E9, 0.0, 2025-03-12 12:55:31.448
180.0, -52932.23892834651, -43381.137356893705, -64199.82036350016, -65194.294177805685, -62894.277321610134, -54405.755329818174, -57267.11389626431, -48303.77379700825, -26894.758867592678, -47526.00014519694, -53442.17162634988, 2442141.943233245, -52406.45884352432, -57614.05767369958, -47116.00209665324, -4869.707509244384, 0.05485595703125, 0.97422412109375, -0.17996630859374999, 192.0, 0.0, 0.0, 0.0, 0.0, 0.0, 0.0, 0.0, 0.0, 0.0, 1.741802131505805E9, 0.0, 2025-03-12 12:55:31.505
182.0, -52916.77152118344, -43373.023673656426, -64198.00987219928, -65190.248512059276, -62886.09658313949, -54403.341341417, -57252.3617449238, -48301.27040162926, -26888.41097216737, -47522.84854922874, -53429.408780265905, 2442029.826883057, -52404.33542780107, -57612.38129286544, -47110.97295415079, -4864.723070230851, 0.05485595703125, 0.97422412109375, -0.17996630859374999, 192.0, 0.0, 0.0, 0.0, 0.0, 0.0, 0.0, 0.0, 0.0, 0.0, 1.741802131506208E9, 0.0, 2025-03-12 12:55:31.506
184.0, -52900.56650645334, -43358.897371160674, -64189.69502326191, -65181.39722125498, -62877.0441266351, -54397.10520471397, -57249.813646055896, -48301.02453244025, -26877.480969128726, -47509.05752289981, -53419.57401270557, 2441922.5385096716, -52395.08180559657, -57602.68063577183, -47102.680456957874, -4858.308119572177, 0.05485595703125, 0.97422412109375, -0.17996630859374999, 192.0, 0.0, 0.0, 0.0, 0.0, 0.0, 0.0, 0.0, 0.0, 0.0, 1.741802131506536E9, 0.0, 2025-03-12 12:55:31.506
186.0, -52876.09134627478, -43342.91587387513, -64176.395735311, -65169.0814100601, -62859.81093166005, -54387.5386580871, -57236.246137171525, -48295.77187249326, -26865.858062011965, -47494.50653725941, -53410.96859109028, 2441890.351997656, -52382.25190427923, -57591.77298447764, -47093.806814409116, -4856.072945126646, 0.051427978515625, 0.975112060546875, -0.181983154296875, 192.0, 0.5, 64.0, 15.0, 64.0, 125.0, 32.0, 0.0, 0.0, 0.0, 1.741802131506872E9, 0.0, 2025-03-12 12:55:31.506
188.0, -52892.54223019388, -43365.133507863706, -64192.779563996744, -65189.197980069875, -62879.54752201409, -54402.9390100168, -57255.93802403665, -48297.96234344987, -26858.616096808448, -47493.79128143684, -53403.748977631214, 2442394.070910701, -52376.440450720846, -57585.15686811887, -47087.302456772624, -4847.802799678183, 0.051427978515625, 0.975112060546875, -0.181983154296875, 192.0, 0.0, 0.0, 0.0, 0.0, 0.0, 0.0, 0.0, 0.0, 0.0, 1.741802131507214E9, 0.0, 2025-03-12 12:55:31.507
190.0, -52887.826012113816, -43365.334673563804, -64188.48802906132, -65189.66736670344, -62873.803123689075, -54398.89334427039, -57258.93315779366, -48287.05469215569, -26887.159274477875, -47516.8135782258, -53431.152216333416, 2442294.292723452, -52401.742625444254, -57611.35311262049, -47108.53661400516, -4871.383890078532, 0.051427978515625, 0.975112060546875, -0.181983154296875, 192.0, 0.0, 0.0, 0.0, 0.0, 0.0, 0.0, 0.0, 0.0, 0.0, 1.741802131507555E9, 0.0, 2025-03-12 12:55:31.507
192.0, -52883.04273880038, -43368.64273174319, -64189.51620930627, -65193.467163260844, -62871.61265273245, -54404.838908295504, -57250.21597745609, -48300.53279406224, -26873.74822780469, -47510.10805488921, -53420.669248183876, 2442195.0509780706, -52386.11875606999, -57600.132536903926, -47095.52789873218, -4863.851352197094, 0.051427978515625, 0.975112060546875, -0.181983154296875, 192.0, 0.0, 0.0, 0.0, 0.0, 0.0, 0.0, 0.0, 0.0, 0.0, 1.741802131507867E9, 0.0, 2025-03-12 12:55:31.507
194.0, -52890.15059353717, -43371.99549341149, -64195.12649716455, -65196.261131317755, -62877.80408594658, -54411.03034150963, -57259.38019268277, -48301.8515469851, -26880.297288930095, -47514.84662471374, -53426.79362616463, 2442074.351558012, -52395.2159160633, -57609.11793817496, -47097.74072143325, -4868.321701088154, 0.051427978515625, 0.975112060546875, -0.181983154296875, 192.0, 0.0, 0.0, 0.0, 0.0, 0.0, 0.0, 0.0, 0.0, 0.0, 1.741802131508194E9, 0.0, 2025-03-12 12:55:31.508
196.0, -52890.30705574835, -43365.96052240855, -64192.24312212982, -65188.61683471404, -62876.26181557916, -54404.86126003996, -57255.200416469626, -48295.52600330424, -26891.6966786023, -47528.280023131374, -53438.841216426044, 2441927.902928341, -52406.1682708464, -57619.69031330232, -47114.437474541366, -4881.4645268278755, 0.0497139892578125, 0.9775560302734375, -0.1809915771484375, 192.0, 0.5, 64.0, 15.0, 80.0, 125.0, 48.0, 0.0, 0.0, 0.0, 1.741802131565659E9, 0.0, 2025-03-12 12:55:31.565
198.0, -52861.47330540101, -43331.80705688084, -64161.93415664842, -65156.72089537632, -62851.54078621159, -54372.00419569066, -57218.074168929365, -48266.13345934552, -26851.441186838292, -47483.129499331655, -53396.23879149423, 2442109.7567212293, -52369.95844482881, -57579.97126340524, -47076.260695011704, -4843.667726953951, 0.0497139892578125, 0.9775560302734375, -0.1809915771484375, 192.0, 0.0, 0.0, 0.0, 0.0, 0.0, 0.0, 0.0, 0.0, 0.0, 1.741802131566109E9, 0.0, 2025-03-12 12:55:31.566
200.0, -52890.32940749281, -43359.21029558305, -64193.271302374764, -65184.28059628971, -62883.90611218287, -54400.34620765999, -57247.936099521656, -48295.32483760415, -26866.50626260117, -47496.51819426039, -53407.7052363998, 2442356.5199800157, -52384.062395580106, -57590.968321677254, -47089.89525912944, -4852.183741591423, 0.0497139892578125, 0.9775560302734375, -0.1809915771484375, 192.0, 0.0, 0.0, 0.0, 0.0, 0.0, 0.0, 0.0, 0.0, 0.0, 1.74180213156644E9, 0.0, 2025-03-12 12:55:31.566
202.0, -52905.39448325569, -43369.78267071041, -64202.25670364579, -65195.41176502845, -62892.198609375795, -54410.20332696478, -57256.318003692395, -48309.808768011186, -26887.293384944605, -47522.89325271765, -53426.2124808088, 2442208.462024744, -52400.11094809901, -57608.55914456358, -47114.146901863445, -4876.569494792163, 0.0497139892578125, 0.9775560302734375, -0.1809915771484375, 192.0, 0.0, 0.0, 0.0, 0.0, 0.0, 0.0, 0.0, 0.0, 0.0, 1.74180213156677E9, 0.0, 2025-03-12 12:55:31.566
204.0, -52907.65200944567, -43375.57177252433, -64209.61042757159, -65204.441869788396, -62895.126687899436, -54414.31604794456, -57263.42585842918, -48315.262593658284, -26888.70154484529, -47510.97977292297, -53426.4583499978, 2442081.861744149, -52394.63477070747, -57611.08489168702, -47112.31405881811, -4874.2449133688115, 0.0497139892578125, 0.9775560302734375, -0.1809915771484375, 192.0, 0.0, 0.0, 0.0, 0.0, 0.0, 0.0, 0.0, 0.0, 0.0, 1.741802131567095E9, 0.0, 2025-03-12 12:55:31.567
206.0, -52919.47608226253, -43375.10238589077, -64206.905866492496, -65204.777145955224, -62894.009100676674, -54409.08573974201, -57257.94968103763, -48303.39381735252, -26904.7500973642, -47533.28681388937, -53445.345574062536, 2441934.876672611, -52408.13522435847, -57627.15579595039, -47128.206149125836, -4889.309989131688, 0.04985699462890625, 0.9757780151367188, -0.17849578857421874, 192.0, 0.5, 72.0, 15.0, 56.0, 125.0, 64.0, 0.0, 0.0, 0.0, 1.741802131567432E9, 0.0, 2025-03-12 12:55:31.567
208.0, -52901.102948320266, -43355.70107170357, -64193.11484016357, -65186.672232946425, -62881.02273714814, -54389.50561159916, -57240.80589304041, -48285.11009038807, -26885.147617476898, -47508.92341243308, -53425.564280219594, 2441840.462904032, -52389.24800029374, -57604.602885794986, -47107.508433760224, -4866.690023742917, 0.04985699462890625, 0.9757780151367188, -0.17849578857421874, 192.0, 0.0, 0.0, 0.0, 0.0, 0.0, 0.0, 0.0, 0.0, 0.0, 1.741802131567782E9, 0.0, 2025-03-12 12:55:31.567
210.0, -52907.1379193232, -43358.11506010474, -64192.19841864091, -65183.23006430031, -62877.66997547984, -54390.53379184411, -57245.23153844256, -48285.199497365895, -26874.910518516364, -47502.150833863125, -53418.52348071617, 2442197.1967455386, -52378.42975597737, -57595.75159499069, -47100.51233774571, -4856.207055593379, 0.04985699462890625, 0.9757780151367188, -0.17849578857421874, 192.0, 0.0, 0.0, 0.0, 0.0, 0.0, 0.0, 0.0, 0.0, 0.0, 1.741802131627208E9, 0.0, 2025-03-12 12:55:31.627
212.0, -52899.96300935304, -43353.175324580116, -64191.103183162595, -65177.306852019654, -62877.021774890636, -54393.05953896756, -57242.34816340783, -48295.30248585969, -26872.541233604104, -47509.68337174456, -53415.43893998134, 2442297.511374654, -52375.881657109465, -57598.85848746997, -47098.43362551137, -4853.658956725473, 0.04985699462890625, 0.9757780151367188, -0.17849578857421874, 192.0, 0.0, 0.0, 0.0, 0.0, 0.0, 0.0, 0.0, 0.0, 0.0, 1.741802131627603E9, 0.0, 2025-03-12 12:55:31.627
214.0, -52901.68409367611, -43345.50867623195, -64187.59395928311, -65168.857892615546, -62868.68457420881, -54384.029434207616, -57232.44634061412, -48286.27238109975, -26867.44503586829, -47496.02645588237, -53414.030780080655, 2442188.6136756674, -52372.595950674535, -57592.13061238893, -47098.277163300176, -4850.954395646381, 0.04985699462890625, 0.9757780151367188, -0.17849578857421874, 192.0, 0.0, 0.0, 0.0, 0.0, 0.0, 0.0, 0.0, 0.0, 0.0, 1.741802131627923E9, 0.0, 2025-03-12 12:55:31.627
216.0, -52897.37020699623, -43340.0772023293, -64185.33643309313, -65169.66255541594, -62863.521321239634, -54379.827306250016, -57218.632962540745, -48270.00031113629, -26855.017465951143, -47490.21500232399, -53402.72079738627, 2442090.44481402, -52364.70578488181, -57580.418298294346, -47088.50945097321, -4839.19737806289, 0.05392849731445312, 0.9728890075683594, -0.17724789428710935, 192.0, 0.5, 104.0, 15.0, 40.0, 125.0, 64.0, 0.0, 0.0, 0.0, 1.741802131628264E9, 0.0, 2025-03-12 12:55:31.628
218.0, -52916.413893272154, -43355.56696123684, -64198.61336929958, -65188.147448080475, -62875.52420801213, -54395.562934346555, -57225.09261668833, -48289.245163112304, -26859.577221820025, -47498.03811288335, -53412.89084111343, 2441968.1360683604, -52368.818505861585, -57590.141307132406, -47097.13722433296, -4845.478218254831, 0.05392849731445312, 0.9728890075683594, -0.17724789428710935, 192.0, 0.0, 0.0, 0.0, 0.0, 0.0, 0.0, 0.0, 0.0, 0.0, 1.741802131628632E9, 0.0, 2025-03-12 12:55:31.628
220.0, -52882.66275914464, -43323.26869049892, -64162.26943281525, -65155.782122109194, -62843.22593727421, -54360.76126822964, -57196.70590123009, -48250.19666554889, -26851.575297305026, -47486.52696448886, -53402.87725959746, 2441913.955439801, -52358.201427245316, -57584.463964040755, -47088.643561439945, -4836.984555361814, 0.05392849731445312, 0.9728890075683594, -0.17724789428710935, 192.0, 0.0, 0.0, 0.0, 0.0, 0.0, 0.0, 0.0, 0.0, 0.0, 1.741802131628973E9, 0.0, 2025-03-12 12:55:31.628
222.0, -52905.6850559336, -43340.323071518316, -64182.2518923583, -65174.22231128482, -62862.98487937271, -54382.88949524039, -57217.56007880689, -48278.53867751821, -26835.012654663642, -47474.613484694186, -53391.83549783653, 2442403.1904224386, -52340.87882529245, -57570.11414410045, -47071.76799437618, -4816.66681965194, 0.05392849731445312, 0.9728890075683594, -0.17724789428710935, 192.0, 0.0, 0.0, 0.0, 0.0, 0.0, 0.0, 0.0, 0.0, 0.0, 1.741802131629307E9, 0.0, 2025-03-12 12:55:31.629
224.0, -52928.86381493376, -43360.41728978363, -64201.92142747896, -65188.41566901394, -62881.58153075952, -54395.00414073517, -57232.02165746947, -48292.03913116922, -26862.348838132482, -47498.239278583445, -53419.23873653874, 2442296.974932787, -52370.137258784445, -57594.23167636772, -47098.29951504464, -4839.063267596158, 0.05392849731445312, 0.9728890075683594, -0.17724789428710935, 192.0, 0.0, 0.0, 0.0, 0.0, 0.0, 0.0, 0.0, 0.0, 0.0, 1.741802131629642E9, 0.0, 2025-03-12 12:55:31.629
226.0, -52919.967820640544, -43353.84587691377, -64198.56866581067, -65185.68875619039, -62880.62040574794, -54393.21600117874, -57232.111064447294, -48286.6970642444, -26862.102968943476, -47504.92245017558, -53425.497224986226, 2442162.328024188, -52373.422965219375, -57598.88083921443, -47101.04877961264, -4841.633718208518, 0.05496424865722656, 0.9694445037841797, -0.17362394714355467, 192.0, 0.5, 96.0, 15.0, 24.0, 125.0, 88.0, 0.0, 0.0, 0.0, 1.741802131686072E9, 0.0, 2025-03-12 12:55:31.686
228.0, -52916.27978280542, -43347.25211229946, -64194.90297972, -65181.21840729933, -62876.12770511243, -54388.25391390967, -57237.453131372116, -48288.93223868993, -26849.02719843712, -47498.77572045037, -53406.677056154855, 2442058.258302004, -52363.90112208141, -57590.5436385326, -47094.589125465056, -4834.995250105292, 0.05496424865722656, 0.9694445037841797, -0.17362394714355467, 192.0, 0.0, 0.0, 0.0, 0.0, 0.0, 0.0, 0.0, 0.0, 0.0, 1.74180213168647E9, 0.0, 2025-03-12 12:55:31.686
230.0, -52923.20882358657, -43353.77882168041, -64202.10024143461, -65189.42149751443, -62882.07326913754, -54396.70287331377, -57238.50366336152, -48299.66107602848, -26860.158367175864, -47501.6143919962, -53422.59149820704, 2441930.0486958087, -52375.14404954244, -57598.85848746997, -47110.63767798396, -4847.62398572254, 0.05496424865722656, 0.9694445037841797, -0.17362394714355467, 192.0, 0.0, 0.0, 0.0, 0.0, 0.0, 0.0, 0.0, 0.0, 0.0, 1.741802131686823E9, 0.0, 2025-03-12 12:55:31.686
232.0, -52912.47998624802, -43345.28515878739, -64184.71058424838, -65174.7811048962, -62866.00236487417, -54382.062480695546, -57215.39195959472, -48267.228694823825, -26847.820204236534, -47491.176127335566, -53406.52059394367, 2441928.9758120747, -52359.98956680174, -57587.86142919796, -47097.00311386622, -4836.492816983798, 0.05496424865722656, 0.9694445037841797, -0.17362394714355467, 192.0, 0.0, 0.0, 0.0, 0.0, 0.0, 0.0, 0.0, 0.0, 0.0, 1.741802131687162E9, 0.0, 2025-03-12 12:55:31.687
234.0, -52934.69762023659, -43367.88277243171, -64203.88838099103, -65196.0376138732, -62881.06744063705, -54400.167393704345, -57233.96625923709, -48288.775776478746, -26858.66080029736, -47500.69797047353, -53419.77517840567, 2442387.0971664307, -52363.69995638132, -57591.01302516616, -47100.08765460106, -4839.733819929817, 0.05496424865722656, 0.9694445037841797, -0.17362394714355467, 192.0, 0.0, 0.0, 0.0, 0.0, 0.0, 0.0, 0.0, 0.0, 0.0, 1.741802131687483E9, 0.0, 2025-03-12 12:55:31.687
236.0, -52928.28266957792, -43364.73117646351, -64195.81940124267, -65191.74607893778, -62874.92071091184, -54396.41230063586, -57230.68055280216, -48283.456061298384, -26864.36049513346, -47509.39279906664, -53422.50209122922, 2442293.7562815854, -52366.851552349515, -57598.7467287477, -47102.09931160204, -4849.501532256786, 0.05248212432861328, 0.9697222518920898, -0.16881197357177735, 192.0, 0.5, 72.0, 15.0, 40.0, 125.0, 112.0, 0.0, 0.0, 0.0, 1.741802131687792E9, 0.0, 2025-03-12 12:55:31.687
238.0, -52940.77729472844, -43374.54359227939, -64204.04484320222, -65200.463259275355, -62882.81087670456, -54405.062425740056, -57241.11881746278, -48291.43563406893, -26865.07575095603, -47506.04003739834, -53421.51861447318, 2442178.957722063, -52368.84085760604, -57598.25499036968, -47100.2664685567, -4848.272186311744, 0.05248212432861328, 0.9697222518920898, -0.16881197357177735, 192.0, 0.0, 0.0, 0.0, 0.0, 0.0, 0.0, 0.0, 0.0, 0.0, 1.741802131688146E9, 0.0, 2025-03-12 12:55:31.688
240.0, -52936.753980726484, -43368.50862127646, -64196.89228497652, -65192.28252080471, -62879.7933912031, -54401.59790534949, -57234.256831915, -48293.871974214555, -26878.330335418028, -47517.6182410262, -53431.73336168926, 2442045.3836971982, -52382.63188393496, -57610.190821908815, -47107.866061671506, -4858.062250383169, 0.05248212432861328, 0.9697222518920898, -0.16881197357177735, 192.0, 0.0, 0.0, 0.0, 0.0, 0.0, 0.0, 0.0, 0.0, 0.0, 1.741802131746252E9, 0.0, 2025-03-12 12:55:31.746
242.0, -52940.039687161414, -43369.603856754766, -64198.76983151077, -65192.72955569382, -62879.83809469201, -54399.69800707079, -57239.956526751106, -48291.79326198021, -26863.332314888517, -47502.50846177441, -53417.741169660236, 2441948.824161151, -52368.93026458386, -57598.07617641404, -47095.12556733198, -4843.53361648722, 0.05248212432861328, 0.9697222518920898, -0.16881197357177735, 192.0, 0.0, 0.0, 0.0, 0.0, 0.0, 0.0, 0.0, 0.0, 0.0, 1.741802131746638E9, 0.0, 2025-03-12 12:55:31.746
244.0, -52933.42357080264, -43366.943999164585, -64194.65711053099, -65189.77912542572, -62876.530036512624, -54399.49684137069, -57245.8126837984, -48292.88849745852, -26879.246756940694, -47521.61920328369, -53430.50401574421, 2441978.864905699, -52385.78347990316, -57615.711702789275, -47112.49287277376, -4863.001985907792, 0.05248212432861328, 0.9697222518920898, -0.16881197357177735, 192.0, 0.0, 0.0, 0.0, 0.0, 0.0, 0.0, 0.0, 0.0, 0.0, 1.741802131746964E9, 0.0, 2025-03-12 12:55:31.746
246.0, -52944.15240814119, -43372.97897016752, -64202.435517601436, -65195.88115166201, -62880.82157144804, -54403.184879205815, -57252.78642806845, -48292.50851780278, -26860.784216020613, -47500.09447337323, -53414.8577946255, 2442394.607352568, -52366.73979362724, -57593.96345543426, -47093.02450335318, -4843.62302346504, 0.05224106216430664, 0.9708611259460449, -0.1684059867858887, 192.0, 0.5, 80.0, 15.0, 48.0, 125.0, 96.0, 0.0, 0.0, 0.0, 1.741802131747307E9, 0.0, 2025-03-12 12:55:31.747
248.0, -52928.21561434455, -43358.36092929375, -64184.57647378165, -65182.58186371111, -62865.622385218434, -54392.56780058954, -57237.229613927564, -48292.955552691885, -26875.178739449828, -47517.35002009273, -53425.988963364245, 2442268.54351384, -52384.42002349139, -57608.89442073041, -47108.11193086051, -4861.124439373546, 0.05224106216430664, 0.9708611259460449, -0.1684059867858887, 192.0, 0.0, 0.0, 0.0, 0.0, 0.0, 0.0, 0.0, 0.0, 0.0, 1.741802131747652E9, 0.0, 2025-03-12 12:55:31.747
250.0, -52959.99979496, -43380.60091502678, -64211.733843294845, -65207.97344541234, -62890.58928377501, -54421.20038523679, -57261.59301538385, -48317.27425065926, -26862.237079410206, -47500.474453028975, -53414.25429752521, 2442173.5933033936, -52373.40061347492, -57596.980940935726, -47100.19941332334, -4860.185666106423, 0.05224106216430664, 0.9708611259460449, -0.1684059867858887, 192.0, 0.0, 0.0, 0.0, 0.0, 0.0, 0.0, 0.0, 0.0, 0.0, 1.741802131747985E9, 0.0, 2025-03-12 12:55:31.747
252.0, -52957.33993736982, -43377.31520859185, -64207.41995661497, -65201.55849475366, -62894.3443768435, -54406.91762052985, -57259.62606187178, -48291.1003579021, -26889.483855901228, -47527.40830509762, -53443.22215833928, 2442014.8065107833, -52404.268372567705, -57620.02558946915, -47124.294593846156, -4877.463564570376, 0.05224106216430664, 0.9708611259460449, -0.1684059867858887, 192.0, 0.0, 0.0, 0.0, 0.0, 0.0, 0.0, 0.0, 0.0, 0.0, 1.741802131748317E9, 0.0, 2025-03-12 12:55:31.748
254.0, -52946.78991398691, -43366.63107474221, -64199.61919780007, -65194.80826792816, -62884.88958893891, -54399.94387625979, -57252.1605792237, -48296.30831436018, -26876.430437139326, -47511.98560142346, -53427.799454665124, 2441901.6172768613, -52389.73973867175, -57608.648551541395, -47114.68334373037, -4866.690023742917, 0.05224106216430664, 0.9708611259460449, -0.1684059867858887, 192.0, 0.0, 0.0, 0.0, 0.0, 0.0, 0.0, 0.0, 0.0, 0.0, 1.741802131748642E9, 0.0, 2025-03-12 12:55:31.748
0.0, -52949.47212332155, -43367.25692358696, -64198.32279662166, -65192.52838999372, -62884.80018196109, -54397.14990820288, -57249.52307337798, -48293.49199455881, -26869.344934146993, -47502.24024084095, -53423.35145751852, 2442057.1854182705, -52383.145974057436, -57598.47850781423, -47109.7212564613, -4860.543294017708, 0.05112053108215332, 0.9684305629730224, -0.16720299339294437, 192.0, 0.5, 72.0, 15.0, 24.0, 125.0, 104.0, 0.0, 0.0, 0.0, 1.741802131806699E9, 0.0, 2025-03-12 12:55:31.806
2.0, -52949.47212332155, -43367.14516486468, -64199.9544739669, -65191.231988815314, -62887.7953157181, -54401.01675999365, -57253.07700074637, -48300.3986835955, -26870.484873114216, -47505.74946472043, -53419.417550494385, 2442357.056421883, -52385.42585199188, -57602.993560194205, -47109.45303552783, -4860.856218440083, 0.05112053108215332, 0.9684305629730224, -0.16720299339294437, 192.0, 0.0, 0.0, 0.0, 0.0, 0.0, 0.0, 0.0, 0.0, 0.0, 1.741802131807095E9, 0.0, 2025-03-12 12:55:31.807
4.0, -52960.312719382375, -43378.05281615887, -64209.43161361595, -65201.022052886736, -62899.23940887921, -54408.50459438618, -57270.6678236327, -48305.51723307577, -26882.018373253155, -47518.020572426394, -53434.661440212905, 2442222.945955151, -52397.3169800421, -57614.86233649997, -47124.76398047972, -4872.613236023573, 0.05112053108215332, 0.9684305629730224, -0.16720299339294437, 192.0, 0.0, 0.0, 0.0, 0.0, 0.0, 0.0, 0.0, 0.0, 0.0, 1.741802131807436E9, 0.0, 2025-03-12 12:55:31.807
6.0, -52974.12609745575, -43393.76609251095, -64224.96607601239, -65219.395186828995, -62913.05278695259, -54426.98948705071, -57281.35195748234, -48329.50065487631, -26883.024201753644, -47519.272270115885, -53434.862605913, 2442096.882116423, -52399.48509925426, -57616.78458652313, -47125.03220141318, -4874.311968602177, 0.05112053108215332, 0.9684305629730224, -0.16720299339294437, 192.0, 0.0, 0.0, 0.0, 0.0, 0.0, 0.0, 0.0, 0.0, 0.0, 1.741802131807785E9, 0.0, 2025-03-12 12:55:31.807
8.0, -52975.82483003436, -43402.05858970387, -64233.124462738575, -65232.31449512416, -62925.14508070292, -54442.76981863616, -57298.00400710154, -48337.30141369122, -26902.38081245194, -47546.58610184027, -53458.354289335526, 2441934.876672611, -52419.82518670859, -57643.36081068049, -47151.49666684827, -4902.341056149132, 0.05112053108215332, 0.9684305629730224, -0.16720299339294437, 192.0, 0.0, 0.0, 0.0, 0.0, 0.0, 0.0, 0.0, 0.0, 0.0, 1.741802131808107E9, 0.0, 2025-03-12 12:55:31.808
10.0, -52943.61596627426, -43367.01105439795, -64192.399584341, -65191.99194812679, -62884.26374009416, -54405.01772225115, -57264.074059018385, -48307.03715169873, -26884.879396543434, -47531.67748828858, -53441.568129249594, 2441820.6145549556, -52403.57546848959, -57630.64266808542, -47132.65414627244, -4890.025244954258, 0.053560265541076665, 0.9652152814865111, -0.16460149669647217, 192.0, 0.5, 96.0, 15.0, 8.0, 125.0, 120.0, 0.0, 0.0, 0.0, 1.741802131808434E9, 0.0, 2025-03-12 12:55:31.808
12.0, -52970.54981834291, -43393.96725821105, -64215.086604963144, -65217.62939901703, -62902.055728680585, -54432.756237120186, -57262.48708516206, -48327.73486706435, -26865.343971889495, -47513.10318864622, -53420.26691678369, 2442238.502769292, -52378.65327342192, -57608.17916490784, -47108.31309656061, -4868.053480154691, 0.053560265541076665, 0.9652152814865111, -0.16460149669647217, 192.0, 0.0, 0.0, 0.0, 0.0, 0.0, 0.0, 0.0, 0.0, 0.0, 1.741802131808775E9, 0.0, 2025-03-12 12:55:31.808
14.0, -52956.602329802794, -43387.86523197475, -64203.93308447994, -65207.28054133422, -62891.43865006431, -54419.05461776908, -57251.89235829024, -48311.17222442296, -26901.285576973627, -47541.53460759337, -53453.25809159972, 2442279.808793045, -52411.35387556003, -57640.58919436803, -47135.2245968848, -4896.239029912834, 0.053560265541076665, 0.9652152814865111, -0.16460149669647217, 192.0, 0.0, 0.0, 0.0, 0.0, 0.0, 0.0, 0.0, 0.0, 0.0, 1.741802131866999E9, 0.0, 2025-03-12 12:55:31.866
16.0, -52959.820981004355, -43391.37445585423, -64204.89420949152, -65205.984140155815, -62891.43865006431, -54410.47154789824, -57256.9662042816, -48297.38119809404, -26877.972707506742, -47518.869938715696, -53431.68865820034, 2442197.1967455386, -52383.011863590706, -57613.52123183265, -47110.88354717297, -4864.991291164314, 0.053560265541076665, 0.9652152814865111, -0.16460149669647217, 192.0, 0.0, 0.0, 0.0, 0.0, 0.0, 0.0, 0.0, 0.0, 0.0, 1.741802131867416E9, 0.0, 2025-03-12 12:55:31.867
18.0, -52954.233044890534, -43386.70294126307, -64201.98848271233, -65202.25139883178, -62886.00717616167, -54408.86222229746, -57257.03325951496, -48300.8010149957, -26878.732666818225, -47520.814540483305, -53431.88982390044, 2442077.0337673468, -52387.90689562642, -57611.800147509595, -47111.44234078436, -4864.320738830655, 0.053560265541076665, 0.9652152814865111, -0.16460149669647217, 192.0, 0.0, 0.0, 0.0, 0.0, 0.0, 0.0, 0.0, 0.0, 0.0, 1.741802131867746E9, 0.0, 2025-03-12 12:55:31.867
20.0, -52961.96674847207, -43392.22382214354, -64205.587113569636, -65208.53223902372, -62889.35993782997, -54415.00895202267, -57267.44917243114, -48305.405474353494, -26887.85217855599, -47539.92528199259, -53448.072486886085, 2441948.824161151, -52394.72417768528, -57627.02168548366, -47125.43453281338, -4877.284750614733, 0.053780132770538336, 0.9666076407432556, -0.1653007483482361, 192.0, 0.5, 88.0, 15.0, 32.0, 125.0, 104.0, 0.0, 0.0, 0.0, 1.741802131868075E9, 0.0, 2025-03-12 12:55:31.868
22.0, -52945.40410583068, -43383.70780750606, -64196.10997392058, -65202.1396401095, -62881.46977203724, -54411.11974848744, -57257.03325951496, -48300.91277371797, -26877.16804470635, -47525.19548239654, -53431.39808552243, 2441847.9730901686, -52385.85053513653, -57618.97505747975, -47113.54340476316, -4869.05930865518, 0.053780132770538336, 0.9666076407432556, -0.1653007483482361, 192.0, 0.0, 0.0, 0.0, 0.0, 0.0, 0.0, 0.0, 0.0, 0.0, 1.741802131868421E9, 0.0, 2025-03-12 12:55:31.868
24.0, -52928.3944283002, -43361.3337113063, -64174.00409865429, -65178.69266017588, -62858.96156537075, -54389.57266683253, -57235.262660415494, -48283.18784036492, -26861.141843931895, -47510.24216535594, -53417.942335360334, 2442136.0423727087, -52367.72327038328, -57607.01687419616, -47097.20427956632, -4856.609386993574, 0.053780132770538336, 0.9666076407432556, -0.1653007483482361, 192.0, 0.0, 0.0, 0.0, 0.0, 0.0, 0.0, 0.0, 0.0, 0.0, 1.741802131868748E9, 0.0, 2025-03-12 12:55:31.868
26.0, -52941.76077148447, -43374.63299925721, -64187.92923544994, -65190.09204984809, -62869.757457942665, -54399.407434392866, -57237.229613927564, -48289.245163112304, -26855.039817695597, -47501.659095485105, -53410.72272190127, 2442376.904770959, -52362.91764532538, -57596.10922290197, -47087.570677706084, -4844.271224054244, 0.053780132770538336, 0.9666076407432556, -0.1653007483482361, 192.0, 0.0, 0.0, 0.0, 0.0, 0.0, 0.0, 0.0, 0.0, 0.0, 1.741802131869091E9, 0.0, 2025-03-12 12:55:31.869
28.0, -52948.26512912096, -43380.01976967094, -64193.53952330822, -65196.6411109735, -62874.719545211745, -54404.1907077063, -57233.6086313258, -48296.30831436018, -26869.724913802733, -47516.54535729234, -53426.23483255325, 2442235.820559957, -52376.015767576195, -57610.5484498201, -47098.5677359781, -4857.928139916437, 0.053780132770538336, 0.9666076407432556, -0.1653007483482361, 192.0, 0.0, 0.0, 0.0, 0.0, 0.0, 0.0, 0.0, 0.0, 0.0, 1.741802131869419E9, 0.0, 2025-03-12 12:55:31.869
30.0, -52954.88124547974, -43385.29478136239, -64203.15077342401, -65202.38550929851, -62882.49795228219, -54407.87874554143, -57246.48323613206, -48309.674657544456, -26878.710315073768, -47521.999182939435, -53434.61673672399, 2442115.1211398984, -52387.30339852612, -57618.84094701302, -47109.00600063873, -4867.0252999097465, 0.05289006638526917, 0.9673038203716278, -0.16465037417411804, 192.0, 0.5, 80.0, 15.0, 32.0, 125.0, 112.0, 0.0, 0.0, 0.0, 1.741802131925763E9, 0.0, 2025-03-12 12:55:31.925
32.0, -52961.09503043831, -43391.128586665225, -64211.7561950393, -65210.029805902224, -62894.3443768435, -54414.04782701109, -57260.788352583455, -48301.42686384045, -26880.431399396828, -47530.69401153255, -53438.4612367703, 2441988.520859304, -52390.54440147214, -57620.182051680335, -47115.89033793096, -4872.8367534681265, 0.05289006638526917, 0.9673038203716278, -0.16465037417411804, 192.0, 0.0, 0.0, 0.0, 0.0, 0.0, 0.0, 0.0, 0.0, 0.0, 1.741802131926201E9, 0.0, 2025-03-12 12:55:31.926
34.0, -52954.925948968645, -43379.99741792648, -64201.027357700754, -65199.23391333031, -62884.82253370554, -54404.570687362044, -57256.72033509259, -48292.955552691885, -26875.357553405473, -47514.73486599146, -53431.57689947807, 2441876.9409509827, -52389.13624157146, -57614.7505777777, -47114.079846630084, -4865.863009198071, 0.05289006638526917, 0.9673038203716278, -0.16465037417411804, 192.0, 0.0, 0.0, 0.0, 0.0, 0.0, 0.0, 0.0, 0.0, 0.0, 1.741802131926524E9, 0.0, 2025-03-12 12:55:31.926
36.0, -52955.708260024585, -43385.29478136239, -64203.24018040183, -65205.44769828889, -62887.16946687335, -54415.835966567516, -57264.834018329864, -48308.51236683278, -26871.22248068124, -47510.823310711785, -53428.62646920997, 2441920.392742204, -52381.42488973438, -57606.99452245171, -47108.08957911606, -4864.320738830655, 0.05289006638526917, 0.9673038203716278, -0.16465037417411804, 192.0, 0.0, 0.0, 0.0, 0.0, 0.0, 0.0, 0.0, 0.0, 0.0, 1.741802131926855E9, 0.0, 2025-03-12 12:55:31.926
38.0, -52945.851140719795, -43379.036292914905, -64193.31600586367, -65197.803401685174, -62881.06744063705, -54410.62801010943, -57261.972995039585, -48304.71257027538, -26885.974632021742, -47527.69887777554, -53439.5117687597, 2442330.7707704036, -52395.439433507854, -57625.90409826089, -47122.528806034185, -4882.716224517372, 0.05289006638526917, 0.9673038203716278, -0.16465037417411804, 192.0, 0.0, 0.0, 0.0, 0.0, 0.0, 0.0, 0.0, 0.0, 0.0, 1.741802131927197E9, 0.0, 2025-03-12 12:55:31.927
40.0, -52952.44490533411, -43385.78651974041, -64200.46856408937, -65204.48657327731, -62886.25304535068, -54420.52983290313, -57271.7183556221, -48314.770855280265, -26870.08254171402, -47511.73973223445, -53424.40198950792, 2442251.377374098, -52378.31799725509, -57611.64368529841, -47106.21203258181, -4865.594788264607, 0.05244503319263459, 0.9676519101858139, -0.165325187087059, 192.0, 0.5, 80.0, 15.0, 32.0, 125.0, 104.0, 0.0, 0.0, 0.0, 1.741802131927551E9, 0.0, 2025-03-12 12:55:31.927
42.0, -52969.94632124261, -43398.906993735676, -64214.37134914057, -65217.85291646158, -62897.74184200071, -54432.398609208896, -57269.43847768766, -48327.86897753108, -26884.36530642096, -47529.88934873216, -53440.27172807119, 2442115.6575817657, -52395.595895719045, -57629.54743260711, -47121.18770136687, -4882.559762306186, 0.05244503319263459, 0.9676519101858139, -0.165325187087059, 192.0, 0.0, 0.0, 0.0, 0.0, 0.0, 0.0, 0.0, 0.0, 0.0, 1.741802131928129E9, 0.0, 2025-03-12 12:55:31.928
44.0, -52970.795687531914, -43398.52701407993, -64213.90196250701, -65215.43892806041, -62898.50180131219, -54429.40347545189, -57260.45307641663, -48327.51134961979, -26893.864797814465, -47542.04869771584, -53448.363059564006, 2441970.818277695, -52405.94475340185, -57637.68346758884, -47128.206149125836, -4889.377044365054, 0.05244503319263459, 0.9676519101858139, -0.165325187087059, 192.0, 0.0, 0.0, 0.0, 0.0, 0.0, 0.0, 0.0, 0.0, 0.0, 1.741802131986078E9, 0.0, 2025-03-12 12:55:31.986
46.0, -52945.71703025306, -43372.80015621187, -64187.07986916064, -65186.64988120197, -62875.30069056758, -54399.29567567059, -57243.5104541195, -48293.2014218809, -26879.157349962876, -47520.322802105286, -53431.0628093556, 2441873.1858579144, -52394.34419802955, -57620.71849354726, -47116.85146294254, -4875.787183736227, 0.05244503319263459, 0.9676519101858139, -0.165325187087059, 192.0, 0.0, 0.0, 0.0, 0.0, 0.0, 0.0, 0.0, 0.0, 0.0, 1.74180213198647E9, 0.0, 2025-03-12 12:55:31.986
48.0, -52934.89878593669, -43365.62524624172, -64181.246063857805, -65180.681965432406, -62870.62917597642, -54392.03135872261, -57243.242233186036, -48279.99154090781, -26864.22638466673, -47503.044903641334, -53414.589573692036, 2442159.1093729865, -52379.07795656657, -57602.79239449411, -47099.50650924522, -4853.323680558644, 0.05244503319263459, 0.9676519101858139, -0.165325187087059, 192.0, 0.0, 0.0, 0.0, 0.0, 0.0, 0.0, 0.0, 0.0, 0.0, 1.741802131986832E9, 0.0, 2025-03-12 12:55:31.986
50.0, -52951.170855900156, -43377.7398917365, -64192.51134306328, -65194.450640016876, -62880.12866736993, -54409.465719397755, -57250.774771067474, -48310.88165174504, -26864.60636432247, -47503.000200152426, -53414.70133241431, 2442346.327584544, -52377.53568619915, -57604.312313117065, -47100.40057902344, -4857.794029449705, 0.0512225165963173, 0.9708259550929069, -0.16666259354352952, 192.0, 0.5, 72.0, 15.0, 56.0, 125.0, 96.0, 0.0, 0.0, 0.0, 1.741802131987175E9, 0.0, 2025-03-12 12:55:31.987
52.0, -52954.90359722419, -43378.7904237259, -64195.573532053655, -65196.08231736211, -62884.17433311634, -54408.81751880855, -57258.061439759906, -48305.58428830913, -26878.486797629215, -47511.49386304544, -53427.68769594285, 2442208.998466611, -52388.532744471166, -57613.63299055493, -47110.54827100614, -4874.379023835543, 0.0512225165963173, 0.9708259550929069, -0.16666259354352952, 192.0, 0.0, 0.0, 0.0, 0.0, 0.0, 0.0, 0.0, 0.0, 0.0, 1.74180213198751E9, 0.0, 2025-03-12 12:55:31.987
54.0, -52982.73151907105, -43413.18975844261, -64220.42867188796, -65222.07739616364, -62907.710720027775, -54432.264498742166, -57287.78925988547, -48320.13527394954, -26890.46733265726, -47527.78828475336, -53438.30477455912, 2442077.5702092135, -52399.66391320991, -57622.59604008151, -47120.2712798442, -4877.105936659091, 0.0512225165963173, 0.9708259550929069, -0.16666259354352952, 192.0, 0.0, 0.0, 0.0, 0.0, 0.0, 0.0, 0.0, 0.0, 0.0, 1.741802131987848E9, 0.0, 2025-03-12 12:55:31.987
56.0, -52968.67227180866, -43401.611554814765, -64210.258628160795, -65211.639131503005, -62894.567894288055, -54420.306315458576, -57262.62119562879, -48309.808768011186, -26911.165048022875, -47544.46268611702, -53454.018050911196, 2441913.955439801, -52414.125491872495, -57637.16937746637, -47130.24015787127, -4892.282771144244, 0.0512225165963173, 0.9708259550929069, -0.16666259354352952, 192.0, 0.0, 0.0, 0.0, 0.0, 0.0, 0.0, 0.0, 0.0, 0.0, 1.74180213198819E9, 0.0, 2025-03-12 12:55:31.988
58.0, -52942.92306219615, -43368.91095267665, -64181.737802235824, -65179.47497123182, -62863.72248693973, -54392.45604186726, -57240.60472734031, -48279.90213392999, -26880.85608254148, -47512.20911886801, -53425.698390686324, 2442044.847255331, -52385.35879675851, -57606.346321862504, -47104.155672091925, -4863.292558585711, 0.0512225165963173, 0.9708259550929069, -0.16666259354352952, 192.0, 0.0, 0.0, 0.0, 0.0, 0.0, 0.0, 0.0, 0.0, 0.0, 1.741802131988566E9, 0.0, 2025-03-12 12:55:31.988
60.0, -52952.17668440064, -43379.170403381635, -64193.80774424169, -65192.99777662728, -62875.5912632455, -54405.91179202936, -57252.13822747925, -48295.347189348606, -26871.78127429262, -47500.58621175125, -53415.55069870361, 2442354.374212548, -52378.47445946628, -57596.60096127999, -47095.59495396554, -4855.938834659914, 0.05161125829815865, 0.9724129775464534, -0.16233129677176478, 192.0, 0.5, 80.0, 15.0, 56.0, 125.5, 8.0, 0.0, 0.0, 0.0, 1.741802132046907E9, 0.0, 2025-03-12 12:55:32.046
62.0, -52968.04642296391, -43393.855499488775, -64206.01179671429, -65203.16782035444, -62892.93621694282, -54416.305353201074, -57254.17223622468, -48309.115863933075, -26887.22632971124, -47520.30045036083, -53432.38156227846, 2442212.7535596793, -52389.024482849185, -57611.75544402069, -47111.95643090683, -4869.305177844189, 0.05161125829815865, 0.9724129775464534, -0.16233129677176478, 192.0, 0.0, 0.0, 0.0, 0.0, 0.0, 0.0, 0.0, 0.0, 0.0, 1.741802132047331E9, 0.0, 2025-03-12 12:55:32.047
64.0, -52951.86375997827, -43378.87983070372, -64190.834962229135, -65186.828695157616, -62880.28512958111, -54401.55320186057, -57243.64456458623, -48297.82823298314, -26897.88811181642, -47523.09441841774, -53436.471931513785, 2442072.2057905444, -52403.486061511765, -57619.913830746875, -47123.154654878934, -4877.843544226115, 0.05161125829815865, 0.9724129775464534, -0.16233129677176478, 192.0, 0.0, 0.0, 0.0, 0.0, 0.0, 0.0, 0.0, 0.0, 0.0, 1.741802132047652E9, 0.0, 2025-03-12 12:55:32.047
66.0, -52951.61789078926, -43375.79528996888, -64184.93410169293, -65178.55854970915, -62877.33469931301, -54387.87393425393, -57240.940003507145, -48276.527020517235, -26872.78710279311, -47499.40156929512, -53411.795605635125, 2441997.1039291746, -52375.591084431544, -57589.6942722433, -47097.159576077414, -4846.238177566312, 0.05161125829815865, 0.9724129775464534, -0.16233129677176478, 192.0, 0.0, 0.0, 0.0, 0.0, 0.0, 0.0, 0.0, 0.0, 0.0, 1.741802132047976E9, 0.0, 2025-03-12 12:55:32.047
68.0, -52939.279727849935, -43366.27344683093, -64174.45113354339, -65169.61785192703, -62866.15882708536, -54382.37540511792, -57239.64360232873, -48280.371520563545, -26876.51984411715, -47499.93801116205, -53412.24264052423, 2441900.0079512605, -52379.52499145568, -57592.35412983348, -47097.5172039887, -4849.43447702342, 0.05161125829815865, 0.9724129775464534, -0.16233129677176478, 192.0, 0.0, 0.0, 0.0, 0.0, 0.0, 0.0, 0.0, 0.0, 0.0, 1.741802132048313E9, 0.0, 2025-03-12 12:55:32.048
70.0, -52948.57805354334, -43384.64658077319, -64185.69406100441, -65187.253378302266, -62875.345394056494, -54399.56389660405, -57245.969146009586, -48293.22377362535, -26876.542195861603, -47505.63770599815, -53412.9578963468, 2442274.444374376, -52374.13822104195, -57593.762289734164, -47094.87969814297, -4851.58024449113, 0.051805629149079324, 0.9722064887732267, -0.16016564838588238, 192.0, 0.5, 80.0, 15.0, 48.0, 125.5, 8.0, 0.0, 0.0, 0.0, 1.741802132048661E9, 0.0, 2025-03-12 12:55:32.048
72.0, -52950.50030356649, -43382.478461561026, -64182.74363073631, -65186.828695157616, -62872.685536466306, -54403.05076873908, -57249.36661116679, -48289.111052645574, -26886.198149466294, -47513.08083690177, -53418.72464641627, 2442237.966327425, -52382.20720079031, -57607.955647463285, -47099.59591622304, -4863.605483008085, 0.051805629149079324, 0.9722064887732267, -0.16016564838588238, 192.0, 0.0, 0.0, 0.0, 0.0, 0.0, 0.0, 0.0, 0.0, 0.0, 1.74180213204901E9, 0.0, 2025-03-12 12:55:32.049
74.0, -52934.89878593669, -43370.67674048862, -64169.37728755204, -65174.110552562546, -62860.950870627275, -54388.5891900765, -57236.581413338354, -48274.11303211606, -26876.36338190596, -47509.772778722385, -53412.354399246506, 2442126.922860971, -52375.2111047758, -57601.317179360056, -47093.739759175754, -4854.508323014775, 0.051805629149079324, 0.9722064887732267, -0.16016564838588238, 192.0, 0.0, 0.0, 0.0, 0.0, 0.0, 0.0, 0.0, 0.0, 0.0, 1.74180213204933E9, 0.0, 2025-03-12 12:55:32.049
76.0, -52954.63537629073, -43393.989609955504, -64188.04099417222, -65194.718860950336, -62878.18406560231, -54412.550260132586, -57259.55900663841, -48296.50948006028, -26870.8425010255, -47507.09056938774, -53407.884050355446, 2442024.462464388, -52376.61926467649, -57597.00329268018, -47091.8175091526, -4852.429610780431, 0.051805629149079324, 0.9722064887732267, -0.16016564838588238, 192.0, 0.0, 0.0, 0.0, 0.0, 0.0, 0.0, 0.0, 0.0, 0.0, 1.74180213210762E9, 0.0, 2025-03-12 12:55:32.107
78.0, -52954.724783268546, -43391.195641898594, -64184.84469471511, -65193.17659058292, -62871.992632388195, -54413.22081246624, -57251.17710246767, -48294.989561437316, -26890.824960568545, -47529.26349988741, -53426.34659127553, 2441869.430764846, -52392.04196835065, -57615.66699930037, -47108.760131449715, -4875.854238969593, 0.051805629149079324, 0.9722064887732267, -0.16016564838588238, 192.0, 0.0, 0.0, 0.0, 0.0, 0.0, 0.0, 0.0, 0.0, 0.0, 1.741802132108034E9, 0.0, 2025-03-12 12:55:32.108
80.0, -52942.543082540404, -43379.55038303738, -64174.09350563211, -65186.35930852406, -62866.71762069674, -54412.37144617694, -57252.875835046274, -48298.208212638885, -26885.259376199174, -47516.746522992435, -53421.54096621764, 2442082.398186016, -52389.091538082546, -57609.20734515278, -47101.83109066857, -4874.691948257917, 0.05090281457453966, 0.9711032443866133, -0.15708282419294117, 192.0, 0.5, 72.0, 15.0, 40.0, 125.5, 24.0, 0.0, 0.0, 0.0, 1.741802132108374E9, 0.0, 2025-03-12 12:55:32.108
82.0, -52935.85991094827, -43370.25205734397, -64165.15280784998, -65178.40208749796, -62857.933385125805, -54401.776719305126, -57236.89433776073, -48296.17420389345, -26862.862928254955, -47498.12751986117, -53396.216439749776, 2442349.009793879, -52366.49392443823, -57592.62235076694, -47087.0118840947, -4866.265340598266, 0.05090281457453966, 0.9711032443866133, -0.15708282419294117, 192.0, 0.0, 0.0, 0.0, 0.0, 0.0, 0.0, 0.0, 0.0, 0.0, 1.741802132108713E9, 0.0, 2025-03-12 12:55:32.108
84.0, -52956.468219336064, -43387.39584534119, -64182.31894759166, -65190.315567292644, -62874.38426904491, -54418.58523113552, -57250.19362571164, -48303.81850049717, -26875.60342259448, -47505.2130228535, -53408.219326522274, 2442230.9925831547, -52376.88748560995, -57600.02077818165, -47091.05754984111, -4871.138020889523, 0.05090281457453966, 0.9711032443866133, -0.15708282419294117, 192.0, 0.0, 0.0, 0.0, 0.0, 0.0, 0.0, 0.0, 0.0, 0.0, 1.741802132109047E9, 0.0, 2025-03-12 12:55:32.109
86.0, -52972.44971662161, -43405.72427579454, -64200.75913676729, -65207.41465180095, -62897.02658617814, -54424.95547830528, -57271.94187306665, -48307.9535732214, -26890.377925679437, -47522.71443876201, -53422.03270459565, 2442085.0803953507, -52389.49386948274, -57615.06350220007, -47107.10610236003, -4877.195343636911, 0.05090281457453966, 0.9711032443866133, -0.15708282419294117, 192.0, 0.0, 0.0, 0.0, 0.0, 0.0, 0.0, 0.0, 0.0, 0.0, 1.741802132109369E9, 0.0, 2025-03-12 12:55:32.109
88.0, -52951.68494602263, -43378.45514755907, -64181.76015398028, -65184.12413407852, -62877.13353361291, -54403.72132107274, -57252.78642806845, -48290.80978522418, -26898.871588572456, -47529.330555120774, -53431.28632680015, 2441950.4334867517, -52399.17217483189, -57624.42888312684, -47116.538538520166, -4883.3420733621215, 0.05090281457453966, 0.9711032443866133, -0.15708282419294117, 192.0, 0.0, 0.0, 0.0, 0.0, 0.0, 0.0, 0.0, 0.0, 0.0, 1.741802132109686E9, 0.0, 2025-03-12 12:55:32.109
90.0, -52942.78895172942, -43372.39782481168, -64177.35686032258, -65179.36321250954, -62872.4396672773, -54399.00510299267, -57245.6115180983, -48286.384139822025, -26875.60342259448, -47500.608563495705, -53407.9064020999, 2441867.284997378, -52373.020633819186, -57602.010083438174, -47097.584259222065, -4862.197323107401, 0.048451407287269835, 0.9725516221933066, -0.1555414120964706, 192.0, 0.5, 56.0, 15.0, 56.0, 125.5, 24.0, 0.0, 0.0, 0.0, 1.741802132167055E9, 0.0, 2025-03-12 12:55:32.167
92.0, -52957.54110306992, -43386.099444162784, -64192.86897097457, -65194.96473013935, -62887.32592908454, -54416.55122239009, -57256.63092811477, -48312.13334943454, -26873.636469082412, -47500.58621175125, -53405.648875909916, 2442152.6720705833, -52369.06437505059, -57599.97607469274, -47097.36074177751, -4861.2138463513675, 0.048451407287269835, 0.9725516221933066, -0.1555414120964706, 192.0, 0.0, 0.0, 0.0, 0.0, 0.0, 0.0, 0.0, 0.0, 0.0, 1.741802132167488E9, 0.0, 2025-03-12 12:55:32.167
94.0, -52978.507039369, -43405.85838626127, -64218.171145697976, -65216.891791450005, -62909.521211328654, -54435.1478737769, -57276.725146380086, -48321.2528611723, -26906.71705087627, -47535.16436042361, -53441.03168738267, 2442302.339351456, -52399.88743065446, -57632.07317973056, -47131.2236346273, -4891.858087999593, 0.048451407287269835, 0.9725516221933066, -0.1555414120964706, 192.0, 0.0, 0.0, 0.0, 0.0, 0.0, 0.0, 0.0, 0.0, 0.0, 1.741802132167821E9, 0.0, 2025-03-12 12:55:32.167
96.0, -52944.018297674455, -43373.47070854554, -64183.50359004779, -65181.68779393289, -62879.458115036265, -54400.68148382682, -57244.359820408805, -48288.5969625231, -26891.249643713196, -47517.394723581645, -53429.98992562174, 2442192.905210603, -52387.616322948496, -57617.79041502362, -47116.71735247581, -4874.848410469104, 0.048451407287269835, 0.9725516221933066, -0.1555414120964706, 192.0, 0.0, 0.0, 0.0, 0.0, 0.0, 0.0, 0.0, 0.0, 0.0, 1.741802132168171E9, 0.0, 2025-03-12 12:55:32.168
98.0, -52934.518806280954, -43363.18890609609, -64179.904959190484, -65178.60325319806, -62869.91392015385, -54397.373425647434, -57232.73691329204, -48293.04495966971, -26867.333277146015, -47497.36756054969, -53411.12505330146, 2442113.5118142976, -52364.03523254815, -57592.73410948922, -47094.63382895396, -4849.903863656982, 0.048451407287269835, 0.9725516221933066, -0.1555414120964706, 192.0, 0.0, 0.0, 0.0, 0.0, 0.0, 0.0, 0.0, 0.0, 0.0, 1.74180213216849E9, 0.0, 2025-03-12 12:55:32.168
100.0, -52956.57997805834, -43387.88758371921, -64204.737747280335, -65201.82671568713, -62890.388118074916, -54417.4452921683, -57247.46671288809, -48314.86026225809, -26878.531501118126, -47510.62214501169, -53425.6089837085, 2441979.9377894327, -52376.32869199857, -57610.30258063109, -47109.56479425011, -4866.15358187599, 0.04922570364363492, 0.9712758110966533, -0.15577070604823529, 192.0, 0.5, 72.0, 15.0, 40.0, 125.5, 16.0, 0.0, 0.0, 0.0, 1.741802132168822E9, 0.0, 2025-03-12 12:55:32.168
102.0, -52949.91915821066, -43379.48332780401, -64204.06719494668, -65194.69650920588, -62886.00717616167, -54406.06825424055, -57241.074113973875, -48294.02843642574, -26876.89982377289, -47510.2645171004, -53429.20761456581, 2441854.946834439, -52378.31799725509, -57606.771005007155, -47108.51426226071, -4859.693927728406, 0.04922570364363492, 0.9712758110966533, -0.15577070604823529, 192.0, 0.0, 0.0, 0.0, 0.0, 0.0, 0.0, 0.0, 0.0, 0.0, 1.741802132169169E9, 0.0, 2025-03-12 12:55:32.169
104.0, -52956.22235014705, -43378.72336849253, -64207.5540670817, -65192.28252080471, -62886.387155817414, -54403.654265839374, -57242.52697736347, -48293.22377362535, -26878.643259840403, -47509.63866825565, -53435.62256522448, 2441987.44797557, -52383.43654673536, -57604.55818230608, -47113.85632918553, -4855.938834659914, 0.04922570364363492, 0.9712758110966533, -0.15577070604823529, 192.0, 0.0, 0.0, 0.0, 0.0, 0.0, 0.0, 0.0, 0.0, 0.0, 1.741802132169493E9, 0.0, 2025-03-12 12:55:32.169
106.0, -52948.913329710165, -43373.87303994573, -64204.29071239123, -65189.86853240354, -62882.65441449338, -54402.402568149875, -57234.212128426094, -48301.4492155849, -26868.294402157593, -47503.35782806371, -53429.364076777, 2442403.1904224386, -52377.133354798956, -57598.67967351433, -47105.496776759246, -4849.926215401437, 0.04922570364363492, 0.9712758110966533, -0.15577070604823529, 192.0, 0.0, 0.0, 0.0, 0.0, 0.0, 0.0, 0.0, 0.0, 0.0, 1.741802132226789E9, 0.0, 2025-03-12 12:55:32.226
108.0, -52944.10770465228, -43369.603856754766, -64196.93698846543, -65186.269901546235, -62874.45132427828, -54393.886553512406, -57225.56200332189, -48281.93614267542, -26874.195262693796, -47511.225642111975, -53438.95297514832, 2442272.835048775, -52381.44724147883, -57604.044092183605, -47110.25769832823, -4851.870817169049, 0.04922570364363492, 0.9712758110966533, -0.15577070604823529, 192.0, 0.0, 0.0, 0.0, 0.0, 0.0, 0.0, 0.0, 0.0, 0.0, 1.741802132227185E9, 0.0, 2025-03-12 12:55:32.227
110.0, -52924.28170732042, -43350.29194954538, -64182.587168525126, -65172.30006126167, -62859.7885799156, -54381.59309406199, -57210.519279303466, -48273.822459438146, -26853.542250817092, -47490.63968546864, -53414.14253880293, 2442185.395024466, -52358.69316562333, -57586.5426762751, -47090.74462541874, -4832.022468092736, 0.053612851821817464, 0.9726379055483266, -0.15488535302411766, 192.0, 0.5, 104.0, 15.0, 56.0, 125.5, 24.0, 0.0, 0.0, 0.0, 1.741802132227715E9, 0.0, 2025-03-12 12:55:32.227
112.0, -52948.75686749898, -43371.146127122185, -64205.54241008072, -65193.84714291658, -62878.92167316934, -54399.38508264841, -57232.17811968066, -48289.401625323495, -26858.41493110835, -47495.3112000598, -53425.966611619784, 2442070.060023077, -52362.872941836475, -57590.78950772161, -47099.90884064542, -4835.218767549845, 0.053612851821817464, 0.9726379055483266, -0.15488535302411766, 192.0, 0.0, 0.0, 0.0, 0.0, 0.0, 0.0, 0.0, 0.0, 0.0, 1.741802132228218E9, 0.0, 2025-03-12 12:55:32.228
114.0, -52949.986213444026, -43382.36670283874, -64211.26445666128, -65200.99970114228, -62885.895417439395, -54408.14696647489, -57235.86615751579, -48302.43269234094, -26868.473216113238, -47506.93410717656, -53433.610908223505, 2441927.902928341, -52374.674662908874, -57602.39006309391, -47109.743608205754, -4845.813494421661, 0.053612851821817464, 0.9726379055483266, -0.15488535302411766, 192.0, 0.0, 0.0, 0.0, 0.0, 0.0, 0.0, 0.0, 0.0, 0.0, 1.741802132228561E9, 0.0, 2025-03-12 12:55:32.228
116.0, -52934.92113768114, -43368.84389744329, -64197.94281696592, -65187.8345236581, -62869.086905609, -54395.80880353556, -57225.539651577434, -48294.989561437316, -26873.569413849047, -47517.037095670355, -53440.875225171476, 2441819.005229355, -52377.40157573242, -57610.77196726465, -47114.75039896374, -4852.340203802611, 0.053612851821817464, 0.9726379055483266, -0.15488535302411766, 192.0, 0.0, 0.0, 0.0, 0.0, 0.0, 0.0, 0.0, 0.0, 0.0, 1.741802132228889E9, 0.0, 2025-03-12 12:55:32.228
118.0, -52928.170910855646, -43358.29387406038, -64185.76111623778, -65173.752924651264, -62857.866329892444, -54375.625178292416, -57209.692264758625, -48254.84582839559, -26848.64721878138, -47490.93025814656, -53414.790739392134, 2442300.7300258554, -52353.39580218742, -57583.92752217383, -47084.307323015615, -4820.779540631716, 0.053612851821817464, 0.9726379055483266, -0.15488535302411766, 192.0, 0.0, 0.0, 0.0, 0.0, 0.0, 0.0, 0.0, 0.0, 0.0, 1.741802132229231E9, 0.0, 2025-03-12 12:55:32.229
120.0, -52958.926911226146, -43385.183022640114, -64215.89126776353, -65203.54780001019, -62889.27053085215, -54410.382140920425, -57247.19849195463, -48304.399645853, -26867.802663779577, -47508.49872928843, -53434.88495765746, 2442255.6689090338, -52371.813639618595, -57598.724377003244, -47106.21203258181, -4835.19641580539, 0.05680642591090873, 0.9703189527741634, -0.15544267651205884, 192.0, 0.5, 112.0, 15.0, 32.0, 125.5, 16.0, 0.0, 0.0, 0.0, 1.741802132287144E9, 0.0, 2025-03-12 12:55:32.287
122.0, -52958.502228081496, -43386.12179590724, -64214.5054596073, -65206.05119538918, -62889.06936515205, -54415.835966567516, -57238.36955289478, -48306.99244820982, -26886.823998311043, -47521.440389328054, -53454.085106144565, 2442097.41855829, -52390.94673287234, -57618.25980165718, -47122.685268245375, -4862.8008202076935, 0.05680642591090873, 0.9703189527741634, -0.15544267651205884, 192.0, 0.0, 0.0, 0.0, 0.0, 0.0, 0.0, 0.0, 0.0, 0.0, 1.741802132287569E9, 0.0, 2025-03-12 12:55:32.287
124.0, -52937.96097492707, -43369.00035965447, -64195.90880822049, -65187.253378302266, -62870.29389980959, -54399.675655326326, -57223.237421898535, -48292.73203524733, -26868.45086436878, -47508.05169439932, -53436.538986747146, 2441995.494603574, -52374.49584895323, -57603.060615427574, -47103.529823247176, -4848.160427589468, 0.05680642591090873, 0.9703189527741634, -0.15544267651205884, 192.0, 0.0, 0.0, 0.0, 0.0, 0.0, 0.0, 0.0, 0.0, 0.0, 1.741802132287911E9, 0.0, 2025-03-12 12:55:32.287
126.0, -52932.32833532433, -43359.09853686077, -64182.453058058396, -65174.91521536294, -62859.72152468223, -54378.486201582695, -57220.97989570855, -48265.39585177849, -26857.722027030235, -47499.915659417595, -53425.87720464197, 2441903.7630443294, -52362.9623488143, -57591.68357749982, -47091.68339868586, -4835.3305262721215, 0.05680642591090873, 0.9703189527741634, -0.15544267651205884, 192.0, 0.0, 0.0, 0.0, 0.0, 0.0, 0.0, 0.0, 0.0, 0.0, 1.741802132288238E9, 0.0, 2025-03-12 12:55:32.288
128.0, -52930.9425271681, -43359.67968221661, -64180.5978632686, -65176.815113641635, -62857.240481047695, -54385.14702143038, -57211.74862524851, -48278.628084496035, -26850.65887578236, -47494.97592389297, -53419.01521909419, 2441938.0953238127, -52358.3578894565, -57587.54850477559, -47084.59789569353, -4827.708581412862, 0.05680642591090873, 0.9703189527741634, -0.15544267651205884, 192.0, 0.0, 0.0, 0.0, 0.0, 0.0, 0.0, 0.0, 0.0, 0.0, 1.74180213228856E9, 0.0, 2025-03-12 12:55:32.288
130.0, -52931.88130043523, -43365.42408054163, -64181.58134002463, -65180.77137241023, -62861.91199563885, -54389.14798368788, -57217.20245089561, -48283.03137815373, -26851.687056027302, -47493.8583366702, -53416.84709988202, 2442357.056421883, -52358.246130734224, -57589.917789687854, -47080.97691309177, -4830.681363425418, 0.057403212955454364, 0.9701594763870817, -0.1567213382560294, 192.0, 0.5, 104.0, 15.0, 40.0, 125.5, 8.0, 0.0, 0.0, 0.0, 1.741802132288871E9, 0.0, 2025-03-12 12:55:32.288
132.0, -52938.89974819419, -43371.347292822276, -64188.66684301697, -65188.639186458495, -62869.958623642764, -54396.50170761367, -57232.15576793621, -48287.21115436687, -26860.69480904279, -47507.58230776576, -53426.05601859761, 2442235.2841180903, -52368.77380237267, -57602.16654564936, -47092.42100625289, -4842.90776764247, 0.057403212955454364, 0.9701594763870817, -0.1567213382560294, 192.0, 0.0, 0.0, 0.0, 0.0, 0.0, 0.0, 0.0, 0.0, 0.0, 1.741802132289214E9, 0.0, 2025-03-12 12:55:32.289
134.0, -52944.599443030296, -43379.21510687055, -64193.56187505268, -65196.6411109735, -62872.193798088294, -54409.108091486465, -57248.964279766595, -48303.3491138636, -26873.345896404495, -47516.59006078125, -53439.44471352634, 2442106.001628161, -52382.162497301404, -57616.0469789561, -47104.89327965895, -4858.218712594356, 0.057403212955454364, 0.9701594763870817, -0.1567213382560294, 192.0, 0.0, 0.0, 0.0, 0.0, 0.0, 0.0, 0.0, 0.0, 0.0, 1.741802132289564E9, 0.0, 2025-03-12 12:55:32.289
136.0, -52950.0979721663, -43381.22676387153, -64193.271302374764, -65194.85297141707, -62872.551425999576, -54403.36369316145, -57242.10229421882, -48282.74080547581, -26859.6889805423, -47504.43071179756, -53426.860681398, 2442003.004789711, -52369.287892495144, -57601.183068893326, -47093.62800045348, -4850.663822968462, 0.057403212955454364, 0.9701594763870817, -0.1567213382560294, 192.0, 0.0, 0.0, 0.0, 0.0, 0.0, 0.0, 0.0, 0.0, 0.0, 1.741802132347418E9, 0.0, 2025-03-12 12:55:32.347
138.0, -52925.846329432294, -43359.165592094134, -64165.04104912771, -65171.651860672464, -62846.42223673133, -54384.52117258563, -57208.3064566024, -48268.9944826358, -26867.288573657104, -47513.058485157315, -53431.19691982233, 2441878.5502765835, -52378.47445946628, -57609.31910387506, -47094.03033185367, -4852.362555547065, 0.057403212955454364, 0.9701594763870817, -0.1567213382560294, 192.0, 0.0, 0.0, 0.0, 0.0, 0.0, 0.0, 0.0, 0.0, 0.0, 1.741802132347795E9, 0.0, 2025-03-12 12:55:32.347
140.0, -52948.53335005443, -43385.02656042893, -64190.27616861775, -65198.56336099665, -62873.64666147789, -54414.33839968901, -57245.544462864935, -48302.76796850777, -26849.250715881673, -47493.72422620347, -53410.72272190127, 2442110.293163096, -52357.24030223374, -57591.54946703309, -47076.77478513418, -4840.762000174761, 0.05370160647772718, 0.9720797381935409, -0.15736066912801472, 192.0, 0.5, 72.0, 15.0, 56.0, 125.5, 8.0, 0.0, 0.0, 0.0, 1.741802132348141E9, 0.0, 2025-03-12 12:55:32.348
142.0, -52951.170855900156, -43385.92063020714, -64188.64449127251, -65193.735384194304, -62872.327908555024, -54409.756292075675, -57241.8117215409, -48292.03913116922, -26882.174835464342, -47526.894214975146, -53442.551606005625, 2442319.505491198, -52388.35393051552, -57622.707798803785, -47109.16246284991, -4876.413032580976, 0.05370160647772718, 0.9720797381935409, -0.15736066912801472, 192.0, 0.0, 0.0, 0.0, 0.0, 0.0, 0.0, 0.0, 0.0, 0.0, 1.741802132348483E9, 0.0, 2025-03-12 12:55:32.348
144.0, -52946.611100031274, -43383.931324950616, -64189.71737500637, -65192.50603824927, -62873.64666147789, -54410.33743743151, -57239.263622672996, -48297.649419027504, -26876.095160972498, -47516.1653776366, -53433.05211461212, 2442215.972210881, -52378.519162955185, -57612.850679498995, -47095.39378826544, -4861.05738414018, 0.05370160647772718, 0.9720797381935409, -0.15736066912801472, 192.0, 0.0, 0.0, 0.0, 0.0, 0.0, 0.0, 0.0, 0.0, 0.0, 1.74180213234882E9, 0.0, 2025-03-12 12:55:32.348
146.0, -52945.13588489722, -43377.11404289175, -64183.68240400343, -65185.01820385674, -62869.31042305356, -54399.83211753752, -57238.30249766142, -48287.70289274489, -26876.788065050612, -47513.79609272434, -53432.44861751183, 2442107.0745118945, -52378.98854958875, -57610.682560286834, -47097.159576077414, -4859.895093428504, 0.05370160647772718, 0.9720797381935409, -0.15736066912801472, 192.0, 0.0, 0.0, 0.0, 0.0, 0.0, 0.0, 0.0, 0.0, 0.0, 1.741802132349149E9, 0.0, 2025-03-12 12:55:32.349
148.0, -52954.76948675746, -43390.63684828721, -64195.05944193119, -65195.56822723964, -62880.933330170315, -54411.05269325408, -57249.27720418897, -48300.33162836214, -26870.663687069857, -47505.45889204251, -53424.022009852175, 2442004.6141153118, -52370.27136925118, -57601.74186250471, -47088.59885795103, -4849.255663067778, 0.05370160647772718, 0.9720797381935409, -0.15736066912801472, 192.0, 0.0, 0.0, 0.0, 0.0, 0.0, 0.0, 0.0, 0.0, 0.0, 1.741802132349481E9, 0.0, 2025-03-12 12:55:32.349
150.0, -52944.644146519204, -43375.10238589077, -64179.7484969793, -65181.12900032151, -62863.70013519528, -54401.217925693745, -57231.68638130264, -48288.32874158964, -26886.13109423293, -47519.719305005, -53438.88591991495, 2441931.6580214095, -52382.78834614615, -57615.68935104482, -47102.836919169065, -4866.064174898169, 0.05385080323886359, 0.9710398690967704, -0.15468033456400737, 192.0, 0.5, 88.0, 15.0, 40.0, 125.5, 32.0, 0.0, 0.0, 0.0, 1.741802132407527E9, 0.0, 2025-03-12 12:55:32.407
152.0, -52961.58676881633, -43399.13051118023, -64204.35776762459, -65205.17947735542, -62889.44934480779, -54419.09932125799, -57268.276186975985, -48304.69021853092, -26876.229271439228, -47511.82913921227, -53429.31937328808, 2442399.43532937, -52373.26650300819, -57606.07810092904, -47093.248020797735, -4856.050593382191, 0.05385080323886359, 0.9710398690967704, -0.15468033456400737, 192.0, 0.0, 0.0, 0.0, 0.0, 0.0, 0.0, 0.0, 0.0, 0.0, 1.741802132407946E9, 0.0, 2025-03-12 12:55:32.407
154.0, -52958.05519319239, -43393.83314774432, -64200.44621234491, -65202.36315755406, -62883.05674589357, -54420.373370691945, -57256.9662042816, -48315.977849480856, -26899.09510601701, -47538.62888081418, -53455.3144520896, 2442285.1732117147, -52396.51231724171, -57630.77677855215, -47121.7241432338, -4881.263361127778, 0.05385080323886359, 0.9710398690967704, -0.15468033456400737, 192.0, 0.0, 0.0, 0.0, 0.0, 0.0, 0.0, 0.0, 0.0, 0.0, 1.741802132408296E9, 0.0, 2025-03-12 12:55:32.408
156.0, -52949.986213444026, -43377.292856847394, -64189.11387790607, -65190.7849539262, -62869.73510619821, -54408.683408341814, -57228.08775044534, -48288.88753520102, -26873.256489426672, -47509.07987464427, -53427.173605820375, 2442194.514536204, -52375.56873268709, -57607.50861257418, -47094.61147720951, -4861.906750429482, 0.05385080323886359, 0.9710398690967704, -0.15468033456400737, 192.0, 0.0, 0.0, 0.0, 0.0, 0.0, 0.0, 0.0, 0.0, 0.0, 1.741802132408644E9, 0.0, 2025-03-12 12:55:32.408
158.0, -52959.53040832644, -43393.18494715512, -64206.81645951467, -65208.66634949045, -62890.29871109709, -54423.659077126875, -57256.7650385815, -48307.32772437665, -26881.817207553057, -47521.95447945053, -53441.25520482722, 2442064.695604407, -52384.956465358315, -57619.24327841321, -47110.41416053941, -4869.618102266562, 0.05385080323886359, 0.9710398690967704, -0.15468033456400737, 192.0, 0.0, 0.0, 0.0, 0.0, 0.0, 0.0, 0.0, 0.0, 0.0, 1.74180213240897E9, 0.0, 2025-03-12 12:55:32.408
160.0, -52940.531425539426, -43369.71561547704, -64182.453058058396, -65183.85591314506, -62867.67874570832, -54401.62025709394, -57238.81658778389, -48285.37831132154, -26874.441131882806, -47513.460816557505, -53431.152216333416, 2441945.6055099494, -52380.776689145176, -57612.20247890979, -47102.188718579855, -4862.3314335741325, 0.053925401619431795, 0.9735199345483851, -0.15734016728200367, 192.0, 0.5, 88.0, 15.0, 64.0, 125.5, 0.0, 0.0, 0.0, 0.0, 1.741802132409299E9, 0.0, 2025-03-12 12:55:32.409
162.0, -52934.18353011412, -43362.183077595604, -64177.71448823387, -65174.55758745165, -62862.31432703905, -54394.11007095696, -57227.7077707896, -48283.99250316531, -26865.858062011965, -47507.15762462111, -53422.72560867377, 2441846.3637645678, -52372.12656404097, -57601.92067646035, -47096.08669234356, -4852.608424736074, 0.053925401619431795, 0.9735199345483851, -0.15734016728200367, 192.0, 0.0, 0.0, 0.0, 0.0, 0.0, 0.0, 0.0, 0.0, 0.0, 1.741802132409643E9, 0.0, 2025-03-12 12:55:32.409
164.0, -52939.056210405375, -43364.73117646351, -64183.50359004779, -65177.84329388658, -62863.588376473, -54396.90403901387, -57228.24421265653, -48291.86031721358, -26854.615134550946, -47494.75240644842, -53410.78977713463, 2442271.762165041, -52363.141162769934, -57590.18601062131, -47084.0614538266, -4844.584148476619, 0.053925401619431795, 0.9735199345483851, -0.15734016728200367, 192.0, 0.0, 0.0, 0.0, 0.0, 0.0, 0.0, 0.0, 0.0, 0.0, 1.741802132409984E9, 0.0, 2025-03-12 12:55:32.409
166.0, -52949.33801285482, -43374.856516701766, -64193.4501163304, -65185.062907345644, -62873.33373705552, -54401.217925693745, -57242.817550041385, -48285.199497365895, -26865.545137589594, -47503.40253155262, -53426.07837034207, 2442364.030166153, -52373.87000010849, -57596.46685081325, -47096.37726502148, -4849.657994467973, 0.053925401619431795, 0.9735199345483851, -0.15734016728200367, 192.0, 0.0, 0.0, 0.0, 0.0, 0.0, 0.0, 0.0, 0.0, 0.0, 1.741802132467801E9, 0.0, 2025-03-12 12:55:32.467
168.0, -52936.01637315946, -43365.37937705271, -64182.07307840265, -65177.239796786285, -62860.25796654916, -54391.785489533606, -57226.36666612228, -48281.95849441987, -26868.249698668686, -47507.15762462111, -53424.446692996826, 2442234.7476762235, -52376.48515420975, -57598.9925979367, -47098.23245981127, -4851.4684857688535, 0.053925401619431795, 0.9735199345483851, -0.15734016728200367, 192.0, 0.0, 0.0, 0.0, 0.0, 0.0, 0.0, 0.0, 0.0, 0.0, 1.741802132468193E9, 0.0, 2025-03-12 12:55:32.468
170.0, -52949.22625413254, -43382.70197900558, -64199.3062733777, -65196.551703995676, -62875.65831847886, -54413.377274677434, -57250.05951524491, -48303.170299907964, -26874.59759409399, -47509.92924093357, -53431.68865820034, 2442108.6838374953, -52374.94288384234, -57603.060615427574, -47102.121663346494, -4857.905788171982, 0.0589627008097159, 0.9727599672741926, -0.16167008364100183, 192.0, 1.0, 0.0, 15.0, 48.0, 125.0, 104.0, 0.0, 0.0, 0.0, 1.741802132468514E9, 0.0, 2025-03-12 12:55:32.468
172.0, -52938.27389934944, -43368.37451080972, -64184.30825284818, -65179.72084042083, -62867.5893387305, -54399.250972181675, -57241.99053549654, -48283.389006065016, -26869.12141670244, -47507.314086832295, -53425.00548660821, 2441993.3488361062, -52373.780593130665, -57604.02174043915, -47100.9146691459, -4856.140000360012, 0.0589627008097159, 0.9727599672741926, -0.16167008364100183, 192.0, 0.0, 0.0, 0.0, 0.0, 0.0, 0.0, 0.0, 0.0, 0.0, 1.741802132468862E9, 0.0, 2025-03-12 12:55:32.468
174.0, -52949.85210297729, -43375.258848101956, -64194.36653785307, -65187.320433535635, -62881.58153075952, -54411.87970779893, -57253.76990482449, -48303.5502795637, -26874.754056305177, -47514.82427296928, -53431.17456807788, 2441871.5765323136, -52380.2625990227, -57606.346321862504, -47109.60949773902, -4857.615215494063, 0.0589627008097159, 0.9727599672741926, -0.16167008364100183, 192.0, 0.0, 0.0, 0.0, 0.0, 0.0, 0.0, 0.0, 0.0, 0.0, 1.741802132469199E9, 0.0, 2025-03-12 12:55:32.469
176.0, -52935.18935861461, -43360.305531061356, -64176.149866121996, -65172.27770951721, -62859.87798689342, -54393.752443045676, -57220.33169511935, -48282.964322920365, -26863.153500932873, -47498.0604646278, -53418.210556293794, 2442070.5964649436, -52374.540552442144, -57597.42797582484, -47096.01963711019, -4849.009793878769, 0.0589627008097159, 0.9727599672741926, -0.16167008364100183, 192.0, 0.0, 0.0, 0.0, 0.0, 0.0, 0.0, 0.0, 0.0, 0.0, 1.741802132469548E9, 0.0, 2025-03-12 12:55:32.469
178.0, -52947.43811457612, -43370.81085095535, -64186.43166857144, -65180.30198577666, -62873.378440544424, -54401.53085011612, -57237.497834861024, -48288.32874158964, -26862.79587302159, -47495.80293843782, -53418.83640513854, 2442400.5082131037, -52372.64065416344, -57591.393004821904, -47090.14112831845, -4843.198340320389, 0.0589627008097159, 0.9727599672741926, -0.16167008364100183, 192.0, 0.0, 0.0, 0.0, 0.0, 0.0, 0.0, 0.0, 0.0, 0.0, 1.741802132469884E9, 0.0, 2025-03-12 12:55:32.469
180.0, -52936.79868421539, -43362.22778108451, -64178.116819634066, -65173.32824150661, -62868.975146886725, -54394.37829189042, -57237.654297072215, -48290.80978522418, -26866.528614345625, -47502.083778629756, -53421.228041795264, 2442273.371490642, -52377.692148410344, -57598.63497002542, -47098.05364585562, -4851.714354957861, 0.06048135040485795, 0.9733799836370962, -0.1648350418205009, 192.0, 0.5, 120.0, 15.0, 56.0, 125.0, 96.0, 0.0, 0.0, 0.0, 1.741802132528102E9, 0.0, 2025-03-12 12:55:32.528
182.0, -52945.80643723088, -43371.45905154456, -64185.13526739303, -65181.21840729933, -62876.70885046826, -54399.07215822604, -57250.88652978975, -48293.29082885871, -26859.241945653197, -47492.1596040916, -53415.774216148166, 2442169.3017684584, -52371.478363451766, -57588.040243153606, -47092.197488808335, -4843.53361648722, 0.06048135040485795, 0.9733799836370962, -0.1648350418205009, 192.0, 0.0, 0.0, 0.0, 0.0, 0.0, 0.0, 0.0, 0.0, 0.0, 1.741802132528521E9, 0.0, 2025-03-12 12:55:32.528
184.0, -52950.63441403323, -43381.07030166034, -64191.50551456279, -65190.29321554819, -62882.14032437091, -54414.494861900195, -57265.05753577442, -48308.89234648852, -26875.759884805666, -47511.225642111975, -53431.19691982233, 2442033.0455342587, -52385.04587233614, -57606.703949773786, -47108.2683930717, -4862.420840551954, 0.06048135040485795, 0.9733799836370962, -0.1648350418205009, 192.0, 0.0, 0.0, 0.0, 0.0, 0.0, 0.0, 0.0, 0.0, 0.0, 1.741802132528852E9, 0.0, 2025-03-12 12:55:32.528
186.0, -52941.82782671784, -43381.18206038261, -64185.42584007095, -65187.20867481336, -62872.484370766215, -54411.18680372081, -57249.18779721115, -48307.97592496585, -26871.80362603708, -47513.30435434632, -53428.02297210968, 2441920.929184071, -52376.59691293203, -57607.039225940614, -47104.96033489232, -4864.34309057511, 0.06048135040485795, 0.9733799836370962, -0.1648350418205009, 192.0, 0.0, 0.0, 0.0, 0.0, 0.0, 0.0, 0.0, 0.0, 0.0, 1.741802132529188E9, 0.0, 2025-03-12 12:55:32.529
188.0, -52957.183475158636, -43384.53482205091, -64189.87383721756, -65189.2873870477, -62873.601957988976, -54414.33839968901, -57249.321907677884, -48309.92052673346, -26879.80555055208, -47518.154682893124, -53436.22606232477, 2442065.7684881412, -52382.721290912785, -57614.61646731097, -47105.541480248154, -4864.588959764119, 0.06048135040485795, 0.9733799836370962, -0.1648350418205009, 192.0, 0.0, 0.0, 0.0, 0.0, 0.0, 0.0, 0.0, 0.0, 0.0, 1.741802132529527E9, 0.0, 2025-03-12 12:55:32.529
190.0, -52956.93760596962, -43393.40846459967, -64197.2052093989, -65197.75869819626, -62882.45324879328, -54416.48416715672, -57263.76113459601, -48305.36077086458, -26872.675344070834, -47509.79513046684, -53427.88886164295, 2442442.887120591, -52379.97202634478, -57608.69325503031, -47099.975895878786, -4860.699756228895, 0.06124067520242897, 0.9726899918185481, -0.16641752091025047, 192.0, 0.5, 120.0, 15.0, 48.0, 125.0, 96.0, 0.0, 0.0, 0.0, 1.741802132529863E9, 0.0, 2025-03-12 12:55:32.529
192.0, -52964.805420017896, -43396.62711580123, -64200.960302467385, -65204.46422153285, -62888.19764711829, -54424.62020213845, -57266.64450963074, -48314.212061668884, -26894.289480959116, -47535.18671216807, -53449.79357120914, 2442287.855421049, -52401.27323881069, -57632.74373206422, -47120.42774205539, -4879.698739015906, 0.06124067520242897, 0.9726899918185481, -0.16641752091025047, 192.0, 0.0, 0.0, 0.0, 0.0, 0.0, 0.0, 0.0, 0.0, 0.0, 1.741802132530206E9, 0.0, 2025-03-12 12:55:32.530
194.0, -52950.23208263303, -43381.897316205184, -64184.93410169293, -65190.80730567066, -62871.94792889928, -54410.784472320614, -57246.28207043196, -48301.56097430718, -26873.725876060234, -47515.33836309175, -53429.52053898818, 2442189.1501175347, -52381.5142967122, -57612.11307193197, -47096.33256153257, -4863.158448118978, 0.06124067520242897, 0.9726899918185481, -0.16641752091025047, 192.0, 0.0, 0.0, 0.0, 0.0, 0.0, 0.0, 0.0, 0.0, 0.0, 1.741802132530532E9, 0.0, 2025-03-12 12:55:32.530
196.0, -52956.42351584715, -43390.54744130939, -64193.204247141395, -65197.82575342963, -62878.698155724785, -54413.667847355355, -57256.85444555932, -48305.09254993112, -26882.93479477582, -47524.54728180734, -53440.71876296029, 2442069.5235812096, -52390.499697983236, -57617.96922897926, -47104.915631403404, -4872.792049979216, 0.06124067520242897, 0.9726899918185481, -0.16641752091025047, 192.0, 0.0, 0.0, 0.0, 0.0, 0.0, 0.0, 0.0, 0.0, 0.0, 1.741802132587512E9, 0.0, 2025-03-12 12:55:32.587
198.0, -52966.615911318775, -43397.81175825736, -64203.73191877984, -65204.12894536602, -62888.555275029576, -54423.90494631588, -57256.54152113695, -48309.741712777824, -26880.69962033029, -47523.049714928835, -53437.88009141447, 2441957.407231022, -52386.96812235929, -57615.82346151155, -47102.836919169065, -4867.829962710138, 0.06124067520242897, 0.9726899918185481, -0.16641752091025047, 192.0, 0.0, 0.0, 0.0, 0.0, 0.0, 0.0, 0.0, 0.0, 0.0, 1.741802132587944E9, 0.0, 2025-03-12 12:55:32.587
200.0, -52958.0998966813, -43386.76999649644, -64193.494819819316, -65198.71982320784, -62885.31427208356, -54423.592021893506, -57263.55996889591, -48315.17318668046, -26895.205902481786, -47534.53851157886, -53456.85672245702, 2441815.7865781533, -52406.212974335314, -57636.968211766274, -47124.51811129071, -4890.852259499105, 0.060620337601214484, 0.970344995909274, -0.16320876045512522, 192.0, 0.5, 112.0, 15.0, 32.0, 125.5, 0.0, 0.0, 0.0, 0.0, 1.741802132588291E9, 0.0, 2025-03-12 12:55:32.588
202.0, -52952.04257393391, -43386.81469998535, -64191.661976773976, -65197.40107028498, -62885.44838255029, -54419.97103929175, -57262.82236132889, -48309.04880869971, -26868.808492280066, -47512.007953167915, -53424.446692996826, 2442237.429885558, -52384.196506046836, -57613.968266721764, -47102.74751219124, -4868.478163299342, 0.060620337601214484, 0.970344995909274, -0.16320876045512522, 192.0, 0.0, 0.0, 0.0, 0.0, 0.0, 0.0, 0.0, 0.0, 0.0, 1.741802132588665E9, 0.0, 2025-03-12 12:55:32.588
204.0, -52958.90455948169, -43388.11110116376, -64195.305311120195, -65200.35150055308, -62887.080059895525, -54424.508443416176, -57266.55510265292, -48311.28398314524, -26876.542195861603, -47524.1673021516, -53433.14152158994, 2442303.41223519, -52388.75626191572, -57620.20440342479, -47110.66002972842, -4867.651148754496, 0.060620337601214484, 0.970344995909274, -0.16320876045512522, 192.0, 0.0, 0.0, 0.0, 0.0, 0.0, 0.0, 0.0, 0.0, 0.0, 1.741802132589083E9, 0.0, 2025-03-12 12:55:32.589
206.0, -52959.91038798218, -43390.368627353746, -64196.44525008742, -65202.49726802079, -62886.23069360622, -54423.726132360236, -57258.44141941565, -48314.12265469106, -26883.292422687107, -47525.75427600793, -53438.6624024704, 2442171.983977793, -52399.32863704308, -57625.79233953862, -47116.51618677571, -4877.44121282592, 0.060620337601214484, 0.970344995909274, -0.16320876045512522, 192.0, 0.0, 0.0, 0.0, 0.0, 0.0, 0.0, 0.0, 0.0, 0.0, 1.741802132589412E9, 0.0, 2025-03-12 12:55:32.589
208.0, -52965.16304792918, -43400.359857125266, -64201.161468167484, -65205.00066339978, -62887.504743040176, -54424.44138818281, -57261.838884572855, -48314.45793085789, -26885.70641108828, -47526.38012485267, -53444.25033858423, 2442046.456580932, -52397.13816608646, -57621.21023192528, -47115.01861989721, -4874.356672091088, 0.060620337601214484, 0.970344995909274, -0.16320876045512522, 192.0, 0.0, 0.0, 0.0, 0.0, 0.0, 0.0, 0.0, 0.0, 0.0, 1.741802132589747E9, 0.0, 2025-03-12 12:55:32.589
210.0, -52959.619815304264, -43397.02944720143, -64198.456907088395, -65205.64886398899, -62883.81670520505, -54421.60271663698, -57260.09544850534, -48305.80780575369, -26886.37696342194, -47521.68625851706, -53439.37765829297, 2441919.8563003372, -52392.82427940658, -57620.09264470251, -47109.78831169466, -4871.473297056353, 0.05831016880060724, 0.971172497954637, -0.16460438022756263, 192.0, 0.5, 96.0, 15.0, 48.0, 125.0, 104.0, 0.0, 0.0, 0.0, 1.741802132647333E9, 0.0, 2025-03-12 12:55:32.647
212.0, -52965.140696184724, -43392.98378145502, -64199.5521425667, -65203.458393032364, -62882.63206274892, -54417.66880961285, -57261.1683322392, -48305.15960516448, -26892.657803613878, -47531.00693595492, -53447.35723106351, 2441799.6933221454, -52399.52980274318, -57625.39000813842, -47120.159521121925, -4878.044709926214, 0.05831016880060724, 0.971172497954637, -0.16460438022756263, 192.0, 0.0, 0.0, 0.0, 0.0, 0.0, 0.0, 0.0, 0.0, 0.0, 1.74180213264776E9, 0.0, 2025-03-12 12:55:32.647
214.0, -52951.23791113352, -43387.19467964109, -64195.81940124267, -65200.39620404199, -62877.647623735385, -54417.48999565721, -57255.35687868082, -48306.254840642796, -26882.800684309088, -47520.83689222776, -53434.39321927944, 2442211.6806759457, -52390.87967763897, -57616.40460686739, -47112.85050068504, -4873.507305801786, 0.05831016880060724, 0.971172497954637, -0.16460438022756263, 192.0, 0.0, 0.0, 0.0, 0.0, 0.0, 0.0, 0.0, 0.0, 0.0, 1.741802132648075E9, 0.0, 2025-03-12 12:55:32.648
216.0, -52962.1008589388, -43393.47551983303, -64201.98848271233, -65206.56528551165, -62887.571798273544, -54422.38502769292, -57260.90011130573, -48307.3500761211, -26880.297288930095, -47519.92047070509, -53433.253280312216, 2442206.8526991433, -52387.92924737087, -57613.096548688, -47109.43068378338, -4868.679328999439, 0.05831016880060724, 0.971172497954637, -0.16460438022756263, 192.0, 0.0, 0.0, 0.0, 0.0, 0.0, 0.0, 0.0, 0.0, 0.0, 1.741802132648395E9, 0.0, 2025-03-12 12:55:32.648
