%OpenBCI Raw EXG Data
%Number of channels = 16
%Sample Rate = 125 Hz
%Board = OpenBCI_GUI$BoardCytonSerialDaisy
Sample Index, EXG Channel 0, EXG Channel 1, EXG Channel 2, EXG Channel 3, EXG Channel 4, EXG Channel 5, EXG Channel 6, EXG Channel 7, EXG Channel 8, EXG Channel 9, EXG Channel 10, EXG Channel 11, EXG Channel 12, EXG Channel 13, EXG Channel 14, EXG Channel 15, Accel Channel 0, Accel Channel 1, Accel Channel 2, Not Used, Digital Channel 0 (D11), Digital Channel 1 (D12), Digital Channel 2 (D13), Digital Channel 3 (D17), Not Used, Digital Channel 4 (D18), Analog Channel 0, Analog Channel 1, Analog Channel 2, Timestamp, Marker Channel, Timestamp (Formatted)
192.0, -33364.51600367022, -21326.112309230844, -35506.617785289025, -21429.109147680898, -43405.5454618389, -32441.32190243267, -42246.51810485341, -15900.71808108307, -29427.367976590154, -31055.42433922581, -37040.48389679002, -17281.40768783184, -26401.27705350841, -41237.49330490748, -39447.00681531511, -187500.02235174447, 0.0, 0.0, 0.0, 192.0, 0.0, 0.0, 0.0, 0.0, 0.0, 0.0, 0.0, 0.0, 0.0, 1.741901254477303E9, 0.0, 2025-03-13 16:27:34.477
194.0, -33355.508250654726, -21326.089957486387, -35503.957927698844, -21444.19657518823, -43403.06441820436, -32458.152766007515, -42245.28875890836, -15901.165115972177, -29421.60122652069, -31056.251353770658, -37039.299254333884, -17280.60302503145, -26400.382983730196, -41238.45442991906, -39445.19632401423, -187500.02235174447, -0.08, 0.914, -0.366, 192.0, 126.5, 64.0, 14.0, 72.0, 122.0, 72.0, 0.0, 0.0, 0.0, 1.741901254479437E9, 0.0, 2025-03-13 16:27:34.479
196.0, -33356.98346578878, -21320.010282994543, -35501.90156720896, -21420.23550513214, -43402.21505191506, -32431.218913938872, -42240.349023383744, -15892.827915290347, -29419.008424163872, -31046.282475743592, -37029.82211468484, -17269.002469659146, -26389.0282975469, -41226.473894891016, -39442.1117832794, -187500.02235174447, -0.08, 0.914, -0.366, 192.0, 0.0, 0.0, 0.0, 0.0, 0.0, 0.0, 0.0, 0.0, 0.0, 1.741901254481524E9, 0.0, 2025-03-13 16:27:34.481
198.0, -33354.63653262097, -21324.659445841247, -35499.73344799679, -21448.152833956818, -43400.96335422556, -32463.85246084362, -42244.52879959688, -15904.495525896016, -29420.416584064555, -31053.457385713744, -37037.15348686618, -17276.46795230722, -26394.12449528271, -41238.834409574796, -39444.6598821473, -187500.02235174447, -0.08, 0.914, -0.366, 192.0, 0.0, 0.0, 0.0, 0.0, 0.0, 0.0, 0.0, 0.0, 0.0, 1.74190125448345E9, 0.0, 2025-03-13 16:27:34.483
200.0, -33365.96886705981, -21327.74398657608, -35509.05412543465, -21422.56008655549, -43409.45701711858, -32438.55028612021, -42250.94375025556, -15904.517877640472, -29423.63523526612, -31047.48946994418, -37035.879437432224, -17272.3775830719, -26395.622062161216, -41231.16776122663, -39441.888265834845, -187500.02235174447, -0.08, 0.914, -0.366, 192.0, 0.0, 0.0, 0.0, 0.0, 0.0, 0.0, 0.0, 0.0, 0.0, 1.741901254485321E9, 0.0, 2025-03-13 16:27:34.485
202.0, -33358.570439645104, -21331.208506966654, -35504.092038165574, -21447.214060689697, -43408.942926996104, -32463.51718467679, -42253.8718287792, -15914.307941711897, -29421.087136398215, -31049.94816183426, -37038.06990838885, -17276.84793196296, -26390.861140592235, -41239.63907237519, -39450.60544617241, -187500.02235174447, -0.08, 0.914, -0.366, 192.0, 0.0, 0.0, 0.0, 0.0, 0.0, 0.0, 0.0, 0.0, 0.0, 1.741901254487207E9, 0.0, 2025-03-13 16:27:34.487
204.0, -33358.03399777818, -21320.36791090583, -35497.58768052908, -21413.32881609545, -43405.187833927615, -32430.235437182837, -42240.281968150375, -15895.286607180431, -29424.48460155542, -31046.79656586606, -37035.1418298652, -17272.869321449914, -26396.762001128438, -41231.19011297108, -39445.2633792476, -187500.02235174447, -0.08, 0.916, -0.37, 192.0, 126.5, 64.0, 14.0, 80.0, 122.0, 56.0, 0.0, 0.0, 0.0, 1.741901254489094E9, 0.0, 2025-03-13 16:27:34.489
206.0, -33360.470337923805, -21334.248344212574, -35506.9307097114, -21452.39966540333, -43413.1003514648, -32470.22270801338, -42262.74547132796, -15920.119395270276, -29420.237770108914, -31048.361187977935, -37032.727841464024, -17272.55639702754, -26396.27026275042, -41234.67698510611, -39447.63266415986, -187500.02235174447, -0.08, 0.916, -0.37, 192.0, 0.0, 0.0, 0.0, 0.0, 0.0, 0.0, 0.0, 0.0, 0.0, 1.741901254491159E9, 0.0, 2025-03-13 16:27:34.491
208.0, -33345.6734830944, -21309.50496310055, -35487.41763680192, -21409.9537026827, -43396.78357801242, -32425.206294680393, -42234.02347970289, -15890.637444333726, -29415.96858691795, -31049.23290601169, -37032.79489669739, -17273.18224587229, -26399.399506974165, -41237.91798805213, -39447.409146715305, -187500.02235174447, -0.08, 0.916, -0.37, 192.0, 0.0, 0.0, 0.0, 0.0, 0.0, 0.0, 0.0, 0.0, 0.0, 1.741901254493128E9, 0.0, 2025-03-13 16:27:34.493
0.0, -16651.513177336834, -10661.580939481371, -17715.053882009255, -10647.700506174626, -21678.264043124207, -16204.67945393079, -21073.582300374783, -7919.04424655965, -14702.19519164505, -15512.200058960923, -18503.891647325952, -8622.498348057074, -13191.306673444114, -20606.11791683649, -19712.8528014246, -93750.01117587223, -0.08, 0.914, -0.37, 192.0, 126.5, 64.0, 14.0, 72.0, 122.0, 56.0, 0.0, 0.0, 0.0, 1.741901254650968E9, 0.0, 2025-03-13 16:27:34.650
2.0, -33303.51809305169, -21318.17743994921, -35426.28561571665, -21276.69260224016, -43353.443545513575, -32395.322012343648, -42138.8944553011, -15830.42184477113, -29371.48861545189, -30994.068800695994, -36964.68913134207, -17277.406725574343, -26395.644413905673, -41170.125147119186, -39376.59882028089, -187500.02235174447, -0.08, 0.914, -0.37, 192.0, 0.0, 0.0, 0.0, 0.0, 0.0, 0.0, 0.0, 0.0, 0.0, 1.741901254653083E9, 0.0, 2025-03-13 16:27:34.653
4.0, -33292.34222082403, -21315.204657936654, -35416.76377257869, -21294.618701293315, -43348.52616173341, -32421.026518467253, -42146.20347573799, -15840.390722798196, -29366.347714227166, -31004.484713612168, -36955.5249161154, -17273.204597616746, -26395.666765650127, -41187.872432216696, -39367.25579109857, -187500.02235174447, -0.08, 0.914, -0.37, 192.0, 0.0, 0.0, 0.0, 0.0, 0.0, 0.0, 0.0, 0.0, 0.0, 1.741901254654999E9, 0.0, 2025-03-13 16:27:34.654
6.0, -33286.41900854337, -21300.944244974165, -35407.420743396375, -21263.817997433904, -43344.0334610979, -32396.685468755422, -42135.7428593329, -15826.957324380557, -29364.24665024837, -30998.382687375866, -36946.98654973347, -17261.581690499985, -26400.47239070802, -41172.9191151761, -39368.17221262124, -187500.02235174447, -0.08, 0.914, -0.37, 192.0, 0.0, 0.0, 0.0, 0.0, 0.0, 0.0, 0.0, 0.0, 0.0, 1.74190125465685E9, 0.0, 2025-03-13 16:27:34.656
8.0, -33276.74070319423, -21302.039480452477, -35407.57720560756, -21293.88109372629, -43342.737059919484, -32424.17811443545, -42141.28609195782, -15839.116673364244, -29351.66261812003, -30996.84041700845, -36939.56577057431, -17257.916004409315, -26380.288765464877, -41171.13097561967, -39363.388939307806, -187500.02235174447, -0.084, 0.908, -0.374, 192.0, 126.5, 48.0, 14.0, 48.0, 122.0, 40.0, 0.0, 0.0, 0.0, 1.741901254658731E9, 0.0, 2025-03-13 16:27:34.658
10.0, -33273.32088629257, -21289.36604134632, -35402.99509799422, -21256.330163041373, -43334.04223132637, -32394.964384432365, -42130.08786798571, -15824.185708068098, -29345.04650176126, -30996.728658286174, -36930.803886747824, -17252.64099271786, -26380.065248020324, -41170.594533752745, -39357.152802604774, -187500.02235174447, -0.084, 0.908, -0.374, 192.0, 0.0, 0.0, 0.0, 0.0, 0.0, 0.0, 0.0, 0.0, 0.0, 1.741901254660736E9, 0.0, 2025-03-13 16:27:34.660
12.0, -33261.98855185373, -21289.34368960186, -35397.67538281386, -21285.70035525565, -43329.7283446465, -32422.769954534764, -42136.63692911112, -15833.79695818388, -29340.732615081386, -31003.814161278508, -36928.59106404675, -17254.295021807557, -26379.729971853492, -41178.574106523294, -39350.156706590264, -187500.02235174447, -0.084, 0.908, -0.374, 192.0, 0.0, 0.0, 0.0, 0.0, 0.0, 0.0, 0.0, 0.0, 0.0, 1.741901254662597E9, 0.0, 2025-03-13 16:27:34.662
14.0, -33265.36366526648, -21282.369945331808, -35397.563624091585, -21262.141616599754, -43331.18120803609, -32392.08100939763, -42125.75162956138, -15822.017588855933, -29331.74721381035, -31001.109600199416, -36923.69603201104, -17250.048190361045, -26367.34710542525, -41177.456519300526, -39343.49588674258, -187500.02235174447, -0.084, 0.908, -0.374, 192.0, 0.0, 0.0, 0.0, 0.0, 0.0, 0.0, 0.0, 0.0, 0.0, 1.741901254664474E9, 0.0, 2025-03-13 16:27:34.664
16.0, -33256.42296748435, -21284.515712799515, -35391.32748738855, -21282.906387198735, -43330.443600469065, -32413.359870119082, -42129.46201914096, -15826.242068557987, -29326.919237008005, -31002.00366997763, -36920.946767443034, -17251.679867706283, -26359.635753588173, -41180.183432124075, -39344.34525303188, -187500.02235174447, -0.084, 0.908, -0.374, 192.0, 0.0, 0.0, 0.0, 0.0, 0.0, 0.0, 0.0, 0.0, 0.0, 1.741901254711208E9, 0.0, 2025-03-13 16:27:34.711
18.0, -33261.07213033106, -21280.11241914182, -35385.15840591889, -21254.20674731812, -43328.16372253463, -32377.12769235703, -42118.55436784677, -15808.248914271464, -29318.62673981509, -30991.587757061454, -36919.203331375524, -17244.996696114147, -26350.13626219467, -41172.22621109799, -39332.23060753711, -187500.02235174447, -0.08, 0.908, -0.374, 192.0, 126.5, 64.0, 14.0, 48.0, 122.0, 40.0, 0.0, 0.0, 0.0, 1.741901254713285E9, 0.0, 2025-03-13 16:27:34.713
20.0, -33259.351046008, -21289.388393090772, -35391.03691471063, -21279.531273785982, -43344.43579249809, -32406.609643293577, -42137.441591911505, -15826.957324380557, -29323.70058580644, -30990.69368728324, -36929.909816969615, -17250.78579792807, -26346.470576103995, -41167.95702790702, -39334.286968026994, -187500.02235174447, -0.08, 0.908, -0.374, 192.0, 0.0, 0.0, 0.0, 0.0, 0.0, 0.0, 0.0, 0.0, 0.0, 1.741901254715334E9, 0.0, 2025-03-13 16:27:34.715
22.0, -33270.7504356802, -21290.237759380074, -35397.74243804722, -21268.310698069417, -43354.33761529179, -32398.630070523035, -42146.29288271581, -15831.964115138546, -29330.56257135422, -31001.80250427753, -36949.55700034583, -17265.135617868378, -26356.12652970869, -41183.64795251464, -39341.64069195279, -187500.02235174447, -0.08, 0.908, -0.374, 192.0, 0.0, 0.0, 0.0, 0.0, 0.0, 0.0, 0.0, 0.0, 0.0, 1.741901254717219E9, 0.0, 2025-03-13 16:27:34.717
24.0, -33245.67177840135, -21269.227119592088, -35379.83869073852, -21272.177549860186, -43344.636958198185, -32400.574672290644, -42135.407583166074, -15822.218754556032, -29321.71128054992, -30988.525568071076, -36937.732927528974, -17249.4223415163, -26342.827241757783, -41168.89580117414, -39335.71747967214, -187500.02235174447, -0.08, 0.908, -0.374, 192.0, 0.0, 0.0, 0.0, 0.0, 0.0, 0.0, 0.0, 0.0, 0.0, 1.741901254719081E9, 0.0, 2025-03-13 16:27:34.719
26.0, -33242.22960975523, -21257.514805497507, -35373.311981357576, -21256.598383974837, -43336.14329530517, -32381.329820314626, -42126.131609217126, -15809.41120498314, -29305.148637908536, -30979.093131910937, -36928.76987800239, -17241.107492578925, -26329.55030555133, -41163.754899949425, -39328.60962493534, -187500.02235174447, -0.08, 0.908, -0.374, 192.0, 0.0, 0.0, 0.0, 0.0, 0.0, 0.0, 0.0, 0.0, 0.0, 1.741901254720975E9, 0.0, 2025-03-13 16:27:34.720
28.0, -33246.85642085748, -21266.656668979726, -35374.51897555816, -21266.83548293537, -43343.944054120075, -32400.84289322411, -42140.950815790995, -15824.208059812554, -29310.60246355563, -30979.718980755686, -36927.808752990815, -17240.213422800713, -26329.751471251428, -41166.30299881733, -39325.21215977814, -187500.02235174447, -0.082, 0.912, -0.368, 192.0, 126.5, 56.0, 14.0, 64.0, 122.0, 64.0, 0.0, 0.0, 0.0, 1.74190125472285E9, 0.0, 2025-03-13 16:27:34.722
30.0, -33257.58525819603, -21272.378715560284, -35379.302248871594, -21266.008468390522, -43352.95180713556, -32399.41238157897, -42148.148077505604, -15829.617181970738, -29312.345899623146, -30987.005649448118, -36934.581331560774, -17249.55645198303, -26329.68441601806, -41168.33700756276, -39333.99639534907, -187500.02235174447, -0.082, 0.912, -0.368, 192.0, 0.0, 0.0, 0.0, 0.0, 0.0, 0.0, 0.0, 0.0, 0.0, 1.741901254771477E9, 0.0, 2025-03-13 16:27:34.771
32.0, -33242.07314754405, -21259.79468343195, -35363.81248996407, -21257.78302643097, -43341.842990141275, -32400.12763740154, -42142.47073441395, -15826.46558600254, -29315.877475247085, -30980.389533089347, -36929.46278208051, -17245.063751347512, -26337.999264955433, -41158.166963835596, -39334.3316715159, -187500.02235174447, -0.082, 0.912, -0.368, 192.0, 0.0, 0.0, 0.0, 0.0, 0.0, 0.0, 0.0, 0.0, 0.0, 1.741901254773434E9, 0.0, 2025-03-13 16:27:34.773
34.0, -33240.57558066554, -21257.671267708694, -35362.06905389656, -21257.73832294206, -43345.86630414323, -32396.998393177797, -42140.50378090188, -15823.001065611967, -29297.414934327, -30972.588774274445, -36918.75629648642, -17241.576879212487, -26312.384165809653, -41152.13199283266, -39326.530912701004, -187500.02235174447, -0.082, 0.912, -0.368, 192.0, 0.0, 0.0, 0.0, 0.0, 0.0, 0.0, 0.0, 0.0, 0.0, 1.741901254775321E9, 0.0, 2025-03-13 16:27:34.775
36.0, -33238.16159226437, -21257.24658456404, -35362.62784750794, -21261.225195077088, -43340.25601628495, -32395.187901876918, -42138.96151053447, -15819.961228366046, -29302.622890785085, -30971.381780073858, -36917.88457845266, -17239.92285012279, -26313.54645652133, -41149.85211489822, -39331.53770345899, -187500.02235174447, -0.08, 0.908, -0.369, 192.0, 126.5, 72.0, 14.0, 32.0, 122.0, 56.0, 0.0, 0.0, 0.0, 1.741901254777208E9, 0.0, 2025-03-13 16:27:34.777
38.0, -33238.899199831394, -21258.230061320075, -35367.38876907692, -21269.294174825453, -43346.69331868808, -32403.748620003298, -42147.365766449664, -15825.70562669106, -29298.08548666066, -30977.908489454807, -36925.50652331192, -17247.634201959874, -26315.915741433593, -41157.1611353351, -39333.05762208195, -187500.02235174447, -0.08, 0.908, -0.369, 192.0, 0.0, 0.0, 0.0, 0.0, 0.0, 0.0, 0.0, 0.0, 0.0, 1.741901254779246E9, 0.0, 2025-03-13 16:27:34.779
40.0, -33249.91860984786, -21266.053171879434, -35374.4519203248, -21268.377753302786, -43352.05773735735, -32396.618413522057, -42149.22096123946, -15827.158490080654, -29308.14377166555, -30976.053294665016, -36925.998261689936, -17246.74013218166, -26321.615436269694, -41151.796716665835, -39335.3822035053, -187500.02235174447, -0.08, 0.908, -0.369, 192.0, 0.0, 0.0, 0.0, 0.0, 0.0, 0.0, 0.0, 0.0, 0.0, 1.741901254781213E9, 0.0, 2025-03-13 16:27:34.781
42.0, -33256.06533957307, -21276.089105139865, -35378.38582734893, -21284.895692455255, -43356.2822170594, -32411.549378818203, -42153.69131013052, -15835.987429140501, -29320.258417160323, -30994.47113209619, -36944.371395632195, -17264.867396934915, -26335.07118643179, -41177.14359487815, -39346.28985479949, -187500.02235174447, -0.08, 0.908, -0.369, 192.0, 0.0, 0.0, 0.0, 0.0, 0.0, 0.0, 0.0, 0.0, 0.0, 1.741901254783098E9, 0.0, 2025-03-13 16:27:34.783
44.0, -33265.98951411123, -21282.21348312062, -35382.29738262861, -21268.109532369323, -43349.57669372281, -32395.61258502157, -42146.00231003789, -15825.70562669106, -29325.600484085142, -30988.525568071076, -36940.14691593014, -17254.295021807557, -26331.852535230224, -41156.44587951254, -39346.513372244044, -187500.02235174447, -0.08, 0.908, -0.369, 192.0, 0.0, 0.0, 0.0, 0.0, 0.0, 0.0, 0.0, 0.0, 0.0, 1.741901254784971E9, 0.0, 2025-03-13 16:27:34.784
46.0, -33271.10806359149, -21292.07060242541, -35387.281821642144, -21283.621643021303, -43351.208371068045, -32415.37152712006, -42153.55719966379, -15835.160414595655, -29320.772507282796, -30994.38172511837, -36940.035157207865, -17257.759542198128, -26329.058567173313, -41164.00076913843, -39338.51144772905, -187500.02235174447, -0.081, 0.91, -0.3675, 192.0, 126.5, 56.0, 14.0, 64.0, 122.0, 72.0, 0.0, 0.0, 0.0, 1.741901254830898E9, 0.0, 2025-03-13 16:27:34.830
48.0, -33261.74268266471, -21273.943337672157, -35373.28962961312, -21260.308773554418, -43328.74486789046, -32385.956631416877, -42124.3434696607, -15805.097318303266, -29333.55770511123, -30996.572196074987, -36941.10804094172, -17256.954879397737, -26342.02257895739, -41159.37395803618, -39341.73009893061, -187500.02235174447, -0.081, 0.91, -0.3675, 192.0, 0.0, 0.0, 0.0, 0.0, 0.0, 0.0, 0.0, 0.0, 0.0, 1.741901254833014E9, 0.0, 2025-03-13 16:27:34.833
50.0, -33261.54151696462, -21282.034669164976, -35376.66474302587, -21278.54779702995, -43333.55049294836, -32409.023631694752, -42136.41341166657, -15818.106033576256, -29309.149600166038, -30984.859881980406, -36924.813619233806, -17242.873280390893, -26314.664043744095, -41152.19904806603, -39322.82052312142, -187500.02235174447, -0.081, 0.91, -0.3675, 192.0, 0.0, 0.0, 0.0, 0.0, 0.0, 0.0, 0.0, 0.0, 0.0, 1.741901254834928E9, 0.0, 2025-03-13 16:27:34.834
52.0, -33273.365589781475, -21283.062849409922, -35387.48298734224, -21264.35443930083, -43340.43483024059, -32391.723381486343, -42143.99065303691, -15823.492803989984, -29326.38279514108, -30993.889986740352, -36936.190657161555, -17250.919908394804, -26334.35593060922, -41163.97841739398, -39341.08189834141, -187500.02235174447, -0.081, 0.91, -0.3675, 192.0, 0.0, 0.0, 0.0, 0.0, 0.0, 0.0, 0.0, 0.0, 0.0, 1.741901254836831E9, 0.0, 2025-03-13 16:27:34.836
54.0, -33261.31799952006, -21280.73826798657, -35381.62683029495, -21287.644957023258, -43341.48536222999, -32415.438582353425, -42150.29384497331, -15829.79599592638, -29317.978539225882, -30989.821969249486, -36932.32380537079, -17248.75178918264, -26327.136317150154, -41162.704367960025, -39341.26071229705, -187500.02235174447, -0.081, 0.91, -0.3675, 192.0, 0.0, 0.0, 0.0, 0.0, 0.0, 0.0, 0.0, 0.0, 0.0, 1.741901254838696E9, 0.0, 2025-03-13 16:27:34.838
56.0, -33258.76990065216, -21268.15423585823, -35378.43053083784, -21261.091084610354, -43339.406649995646, -32385.30843082767, -42133.038298253814, -15811.936952106591, -29324.058213717726, -30993.062972195505, -36936.905912984126, -17249.824672916493, -26333.64067478665, -41170.326312819285, -39344.009976865054, -187500.02235174447, -0.0835, 0.912, -0.36775, 192.0, 126.5, 40.0, 14.0, 72.0, 122.0, 64.0, 0.0, 0.0, 0.0, 1.741901254840564E9, 0.0, 2025-03-13 16:27:34.840
58.0, -33247.3481592355, -21266.768427702, -35370.786234234125, -21278.704259241138, -43331.31531850283, -32405.156779903984, -42130.445495896995, -15815.289713774886, -29308.233178643368, -30978.959021444207, -36923.85249422223, -17239.207594300224, -26317.25684610091, -41152.981359121964, -39334.577540704915, -187500.02235174447, -0.0835, 0.912, -0.36775, 192.0, 0.0, 0.0, 0.0, 0.0, 0.0, 0.0, 0.0, 0.0, 0.0, 1.741901254842626E9, 0.0, 2025-03-13 16:27:34.842
60.0, -33256.13239480643, -21263.169796844697, -35378.38582734893, -21249.53523272696, -43337.015013338925, -32379.519329013747, -42130.53490287482, -15809.120632305221, -29313.530542079276, -30978.5119865551, -36926.758221001415, -17238.157062310824, -26323.694148504037, -41154.747146933936, -39330.531874958506, -187500.02235174447, -0.0835, 0.912, -0.36775, 192.0, 0.0, 0.0, 0.0, 0.0, 0.0, 0.0, 0.0, 0.0, 0.0, 1.741901254890602E9, 0.0, 2025-03-13 16:27:34.890
62.0, -33255.752415150695, -21271.797570204446, -35385.67249604136, -21281.811151720423, -43344.30168203136, -32418.545474832714, -42139.31913844575, -15825.303295290863, -29319.163181682015, -30987.43033259277, -36934.69309028305, -17248.79649267155, -26330.22085788499, -41167.37588255118, -39336.90212212827, -187500.02235174447, -0.0835, 0.912, -0.36775, 192.0, 0.0, 0.0, 0.0, 0.0, 0.0, 0.0, 0.0, 0.0, 0.0, 1.741901254892615E9, 0.0, 2025-03-13 16:27:34.892
64.0, -33264.46959548826, -21272.31166032692, -35395.28374615714, -21264.73441895657, -43353.19767632457, -32402.60868103608, -42140.61553962416, -15821.347036522275, -29324.237027673367, -30996.348678630435, -36943.36556713171, -17257.401914286842, -26331.427852085573, -41177.925905934084, -39347.80977342246, -187500.02235174447, -0.0835, 0.912, -0.36775, 192.0, 0.0, 0.0, 0.0, 0.0, 0.0, 0.0, 0.0, 0.0, 0.0, 1.74190125489451E9, 0.0, 2025-03-13 16:27:34.894
66.0, -33245.00122606769, -21264.91323291221, -35384.57726056305, -21278.793666218957, -43351.834219912795, -32414.030422452743, -42140.727298346435, -15822.844603400781, -29315.09516419115, -30978.98137318866, -36931.92147397059, -17247.50009149314, -26324.051776415323, -41161.05033887033, -39347.161572833254, -187500.02235174447, -0.08475, 0.915, -0.367875, 192.0, 126.5, 40.0, 14.0, 88.0, 122.0, 64.0, 0.0, 0.0, 0.0, 1.741901254896378E9, 0.0, 2025-03-13 16:27:34.896
68.0, -33260.62509544195, -21271.417590548706, -35383.437321595826, -21257.224232819586, -43344.81577215383, -32393.98090767633, -42136.65928085557, -15814.954437608058, -29319.833734015672, -30987.072704681483, -36938.49288684045, -17252.998620629147, -26332.00899744141, -41173.14263262065, -39346.06633735494, -187500.02235174447, -0.08475, 0.915, -0.367875, 192.0, 0.0, 0.0, 0.0, 0.0, 0.0, 0.0, 0.0, 0.0, 0.0, 1.741901254898417E9, 0.0, 2025-03-13 16:27:34.898
70.0, -33242.00609231068, -21260.35347704333, -35367.70169349929, -21266.50020676854, -43321.88288234269, -32400.708782757378, -42121.66126032606, -15803.443289213574, -29317.531504336777, -30978.333172599458, -36928.74752625794, -17242.068617590503, -26323.82825897077, -41154.99301612294, -39335.3822035053, -187500.02235174447, -0.08475, 0.915, -0.367875, 192.0, 0.0, 0.0, 0.0, 0.0, 0.0, 0.0, 0.0, 0.0, 0.0, 1.741901254900312E9, 0.0, 2025-03-13 16:27:34.900
72.0, -33260.58039195304, -21274.457427794627, -35385.33721987453, -21254.787892673958, -43335.539798204874, -32386.493073283804, -42131.04899299729, -15808.94181834958, -29310.62481530009, -30973.862823708398, -36926.17707564558, -17236.03364658757, -26321.861305458704, -41150.34385327624, -39324.07222081092, -187500.02235174447, -0.08475, 0.915, -0.367875, 192.0, 0.0, 0.0, 0.0, 0.0, 0.0, 0.0, 0.0, 0.0, 0.0, 1.741901254902172E9, 0.0, 2025-03-13 16:27:34.902
74.0, -33253.18196453834, -21274.30096558344, -35377.40235059289, -21275.105628383833, -43321.011164308926, -32394.18207337643, -42118.17438819104, -15801.632797912695, -29324.61700732911, -30986.04452443654, -36935.430697850075, -17247.209518815223, -26330.489078818453, -41156.84821091273, -39335.11398257184, -187500.02235174447, -0.08475, 0.915, -0.367875, 192.0, 0.0, 0.0, 0.0, 0.0, 0.0, 0.0, 0.0, 0.0, 0.0, 1.741901254904043E9, 0.0, 2025-03-13 16:27:34.904
76.0, -33287.73776146624, -21305.727518287604, -35404.47031312827, -21279.374811574795, -43343.49701923097, -32401.915776957965, -42140.12380124615, -15821.503498733462, -29327.008643985828, -30998.583853075965, -36947.522991600395, -17262.18518760028, -26333.238343386456, -41169.16402210761, -39337.8855988843, -187500.02235174447, -0.085375, 0.9145000000000001, -0.3669375, 192.0, 126.5, 40.0, 14.0, 72.0, 122.0, 72.0, 0.0, 0.0, 0.0, 1.741901254950853E9, 0.0, 2025-03-13 16:27:34.950
78.0, -33281.903956163405, -21304.676986298204, -35397.92125200287, -21291.154180902744, -43331.96351909203, -32410.208274150882, -42132.45715289797, -15821.615257455738, -29350.72384485291, -31015.839399795463, -36960.91168652912, -17282.83819947698, -26349.845689516747, -41186.03958917136, -39350.49198275709, -187500.02235174447, -0.085375, 0.9145000000000001, -0.3669375, 192.0, 0.0, 0.0, 0.0, 0.0, 0.0, 0.0, 0.0, 0.0, 0.0, 1.741901254952996E9, 0.0, 2025-03-13 16:27:34.952
80.0, -33280.16052009589, -21302.486515341585, -35395.82018802407, -21276.983174918078, -43332.72347840351, -32403.905082214485, -42130.06551624126, -15814.350940507764, -29336.66459759052, -31010.139704959358, -36953.35679690323, -17278.390202330374, -26344.883602247668, -41171.33214131977, -39337.05858433945, -187500.02235174447, -0.085375, 0.9145000000000001, -0.3669375, 192.0, 0.0, 0.0, 0.0, 0.0, 0.0, 0.0, 0.0, 0.0, 0.0, 1.741901254954894E9, 0.0, 2025-03-13 16:27:34.954
82.0, -33285.390828298434, -21312.12011720182, -35398.547100847616, -21283.755753488036, -43329.683641157586, -32409.202445650393, -42131.56308311976, -15817.994274853978, -29340.307931936735, -31008.23980668066, -36952.79800329185, -17275.171551128813, -26344.682436547573, -41171.75682446442, -39345.10521234336, -187500.02235174447, -0.085375, 0.9145000000000001, -0.3669375, 192.0, 0.0, 0.0, 0.0, 0.0, 0.0, 0.0, 0.0, 0.0, 0.0, 1.741901254956834E9, 0.0, 2025-03-13 16:27:34.956
84.0, -33292.25281384621, -21317.0822044709, -35406.660784084896, -21289.20957913513, -43343.184094808596, -32417.696108543412, -42138.73799308992, -15825.593867968782, -29337.75983306883, -31015.481771884177, -36959.57058186181, -17283.37464134391, -26340.1673841676, -41181.9715716805, -39344.144087331784, -187500.02235174447, -0.085375, 0.9145000000000001, -0.3669375, 192.0, 0.0, 0.0, 0.0, 0.0, 0.0, 0.0, 0.0, 0.0, 0.0, 1.741901254958725E9, 0.0, 2025-03-13 16:27:34.958
86.0, -33293.571566769075, -21313.684739313692, -35407.063115485085, -21283.666346510214, -43341.842990141275, -32409.872997984054, -42139.22973146793, -15823.984542368002, -29352.176708242503, -31013.51481837211, -36963.79506156386, -17282.189998887778, -26352.72906455148, -41180.183432124075, -39352.347177546886, -187500.02235174447, -0.0846875, 0.9112500000000001, -0.36446875, 192.0, 126.5, 48.0, 14.0, 48.0, 122.0, 88.0, 0.0, 0.0, 0.0, 1.741901254960601E9, 0.0, 2025-03-13 16:27:34.960
88.0, -33289.0565143891, -21311.382509634794, -35403.710353816794, -21285.856817466836, -43339.8313331403, -32412.756373018787, -42140.70494660198, -15823.93983887909, -29343.45952790493, -31012.71015557172, -36963.05745399684, -17280.334804097987, -26351.455015117528, -41184.7208362485, -39347.295683299984, -187500.02235174447, -0.0846875, 0.9112500000000001, -0.36446875, 192.0, 0.0, 0.0, 0.0, 0.0, 0.0, 0.0, 0.0, 0.0, 0.0, 1.741901254962614E9, 0.0, 2025-03-13 16:27:34.962
90.0, -33283.17800559736, -21301.70420428565, -35394.76965603467, -21274.21155860562, -43331.069449313814, -32401.669907768955, -42124.96931850545, -15811.132289306199, -29343.548934882754, -31001.13195194387, -36956.70955857153, -17272.399934816352, -26353.60078258524, -41171.779176208875, -39342.64652045328, -187500.02235174447, -0.0846875, 0.9112500000000001, -0.36446875, 192.0, 0.0, 0.0, 0.0, 0.0, 0.0, 0.0, 0.0, 0.0, 0.0, 1.741901255011115E9, 0.0, 2025-03-13 16:27:35.011
92.0, -33281.412217785386, -21304.565227575928, -35395.52961534615, -21288.293157612465, -43339.38429825119, -32415.818562009164, -42135.407583166074, -15821.682312689105, -29333.24478068886, -31004.75293454563, -36955.770785304405, -17274.948033684257, -26344.391863869652, -41174.14846112114, -39334.868113382836, -187500.02235174447, -0.0846875, 0.9112500000000001, -0.36446875, 192.0, 0.0, 0.0, 0.0, 0.0, 0.0, 0.0, 0.0, 0.0, 0.0, 1.741901255013092E9, 0.0, 2025-03-13 16:27:35.013
94.0, -33277.4559590168, -21293.769335004014, -35390.2546036547, -21269.562395758916, -43338.1773040506, -32404.50857931478, -42135.34052793271, -15818.284847531897, -29337.26809469081, -30999.723792043187, -36948.05943346732, -17263.772161456607, -26346.78350052637, -41169.141670363155, -39343.49588674258, -187500.02235174447, -0.0846875, 0.9112500000000001, -0.36446875, 192.0, 0.0, 0.0, 0.0, 0.0, 0.0, 0.0, 0.0, 0.0, 0.0, 1.741901255014999E9, 0.0, 2025-03-13 16:27:35.014
96.0, -33276.89716540541, -21297.34561411686, -35389.11466468748, -21287.667308767715, -43337.61851043922, -32422.32291964566, -42139.45324891248, -15826.80086216937, -29325.80164978524, -30997.779190275574, -36940.526895585885, -17258.78772244307, -26341.106157434722, -41173.81318495431, -39340.14312507428, -187500.02235174447, -0.08434375, 0.912625, -0.362234375, 192.0, 126.5, 48.0, 14.0, 72.0, 122.0, 96.0, 0.0, 0.0, 0.0, 1.741901255016899E9, 0.0, 2025-03-13 16:27:35.016
98.0, -33275.176081082354, -21286.773238989503, -35385.4489785968, -21266.008468390522, -43334.73513540449, -32399.434733323425, -42131.87600754214, -15814.641513185683, -29339.90560053654, -30999.254405409625, -36945.64544506615, -17262.341649811468, -26351.142090695157, -41172.829708198275, -39340.67956694121, -187500.02235174447, -0.08434375, 0.912625, -0.362234375, 192.0, 0.0, 0.0, 0.0, 0.0, 0.0, 0.0, 0.0, 0.0, 0.0, 1.741901255018874E9, 0.0, 2025-03-13 16:27:35.018
100.0, -33262.54734546511, -21285.812113977925, -35382.43149309534, -21290.528332057995, -43333.461085970535, -32421.31709114517, -42133.15005697609, -15820.94470512208, -29320.593693327155, -30995.365201874403, -36934.02253794939, -17260.777027699594, -26336.859325988215, -41170.125147119186, -39337.79619190648, -187500.02235174447, -0.08434375, 0.912625, -0.362234375, 192.0, 0.0, 0.0, 0.0, 0.0, 0.0, 0.0, 0.0, 0.0, 0.0, 1.741901255020753E9, 0.0, 2025-03-13 16:27:35.020
102.0, -33275.86898516047, -21291.44475358066, -35391.79687402211, -21272.91515742721, -43333.751658648456, -32404.28506187023, -42140.660243113074, -15819.961228366046, -29330.33905390967, -31001.199007177238, -36941.91270374211, -17266.722591724705, -26348.146956938144, -41175.8695454442, -39343.40647976476, -187500.02235174447, -0.08434375, 0.912625, -0.362234375, 192.0, 0.0, 0.0, 0.0, 0.0, 0.0, 0.0, 0.0, 0.0, 0.0, 1.741901255022623E9, 0.0, 2025-03-13 16:27:35.022
104.0, -33262.14501406491, -21289.50015181305, -35382.96793496227, -21289.723669257604, -43327.47081845651, -32421.384146378536, -42127.67387958454, -15814.328588763308, -29322.918274750507, -30998.69561179824, -36938.04585195135, -17265.694411479762, -26337.619285299694, -41170.97451340849, -39337.036232595, -187500.02235174447, -0.08434375, 0.912625, -0.362234375, 192.0, 0.0, 0.0, 0.0, 0.0, 0.0, 0.0, 0.0, 0.0, 0.0, 1.741901255024562E9, 0.0, 2025-03-13 16:27:35.024
106.0, -33273.81262467058, -21291.288291369474, -35390.88045249945, -21267.886014924767, -43328.78957137938, -32399.7476577458, -42128.59030110721, -15811.735786406492, -29326.56160909672, -30995.812236763508, -36939.25284615193, -17265.56030101303, -26336.904029477126, -41169.78987095236, -39334.91281687174, -187500.02235174447, -0.088171875, 0.9123125000000001, -0.3601171875, 192.0, 126.5, 16.0, 14.0, 64.0, 122.0, 104.0, 0.0, 0.0, 0.0, 1.741901255071481E9, 0.0, 2025-03-13 16:27:35.071
108.0, -33279.13233985095, -21307.40389912175, -35400.782275293146, -21302.218294408118, -43339.98779535148, -32440.40548091, -42144.504743159385, -15836.143891351689, -29332.596580099653, -31008.351565402936, -36949.333482901275, -17281.005356431648, -26345.688265048062, -41180.38459782417, -39345.23932281009, -187500.02235174447, -0.088171875, 0.9123125000000001, -0.3601171875, 192.0, 0.0, 0.0, 0.0, 0.0, 0.0, 0.0, 0.0, 0.0, 0.0, 1.741901255073598E9, 0.0, 2025-03-13 16:27:35.073
110.0, -33291.358744068, -21310.35432938985, -35408.5606823636, -21283.152256387744, -43345.17340006511, -32423.462858612882, -42147.298711216295, -15833.841661672792, -29349.00276052985, -31025.137725488872, -36962.900991785646, -17295.735156027695, -26367.235346702975, -41198.422455599604, -39356.16932584874, -187500.02235174447, -0.088171875, 0.9123125000000001, -0.3601171875, 192.0, 0.0, 0.0, 0.0, 0.0, 0.0, 0.0, 0.0, 0.0, 0.0, 1.741901255075465E9, 0.0, 2025-03-13 16:27:35.075
112.0, -33273.81262467058, -21302.441811852674, -35397.76478979168, -21295.713936771626, -43335.00335633795, -32436.76214656379, -42143.78948733681, -15834.713379706549, -29335.56936211221, -31012.553693360533, -36948.23824742297, -17281.83237097649, -26347.25288715993, -41182.88799320316, -39347.67566295572, -187500.02235174447, -0.088171875, 0.9123125000000001, -0.3601171875, 192.0, 0.0, 0.0, 0.0, 0.0, 0.0, 0.0, 0.0, 0.0, 0.0, 1.741901255077338E9, 0.0, 2025-03-13 16:27:35.077
114.0, -33281.747493952214, -21300.228989151597, -35400.31288865959, -21271.05996263742, -43333.14816154816, -32408.55424506119, -42139.81087682377, -15820.251801043965, -29336.10580397914, -31014.475943383688, -36951.300436413345, -17282.435868076787, -26348.281067404878, -41187.13482464967, -39347.80977342246, -187500.02235174447, -0.088171875, 0.9123125000000001, -0.3601171875, 192.0, 0.0, 0.0, 0.0, 0.0, 0.0, 0.0, 0.0, 0.0, 0.0, 1.741901255079215E9, 0.0, 2025-03-13 16:27:35.079
116.0, -33276.718351449774, -21304.96755897612, -35398.65885956989, -21290.26011112453, -43332.09762955876, -32428.492001115326, -42137.88862680062, -15830.623010471227, -29336.374024912602, -31008.19510319175, -36950.316959657306, -17280.13363839789, -26346.82820401528, -41178.8199757123, -39350.380224034816, -187500.02235174447, -0.0870859375, 0.91415625, -0.35705859375, 192.0, 126.5, 40.0, 14.0, 80.0, 122.0, 120.0, 0.0, 0.0, 0.0, 1.74190125508109E9, 0.0, 2025-03-13 16:27:35.081
118.0, -33282.172177096865, -21301.25716939654, -35397.72008630277, -21270.747038215046, -43333.55049294836, -32408.73305901683, -42138.6485861121, -15822.911658634146, -29338.81036505823, -31012.620748593898, -36955.480212626484, -17284.156952399844, -26346.291762148354, -41184.00558042593, -39345.93222688821, -187500.02235174447, -0.0870859375, 0.91415625, -0.35705859375, 192.0, 0.0, 0.0, 0.0, 0.0, 0.0, 0.0, 0.0, 0.0, 0.0, 1.7419012550831E9, 0.0, 2025-03-13 16:27:35.083
120.0, -33264.89427863291, -21292.160009403233, -35385.13605417443, -21280.671212753205, -43318.19484450756, -32416.35500387609, -42129.886702285614, -15820.207097555054, -29332.730690566386, -31004.03767872306, -36943.27616015389, -17273.294004594565, -26335.49586957644, -41172.002693653434, -39341.8865611418, -187500.02235174447, -0.0870859375, 0.91415625, -0.35705859375, 192.0, 0.0, 0.0, 0.0, 0.0, 0.0, 0.0, 0.0, 0.0, 0.0, 1.741901255131749E9, 0.0, 2025-03-13 16:27:35.131
122.0, -33281.72514220776, -21301.368928118816, -35400.357592148495, -21266.522558512996, -43332.99169933697, -32410.208274150882, -42138.559179134274, -15826.219716813532, -29324.61700732911, -31003.70240255623, -36943.03029096488, -17272.019955160613, -26334.9147242206, -41173.09792913174, -39336.052755838966, -187500.02235174447, -0.0870859375, 0.91415625, -0.35705859375, 192.0, 0.0, 0.0, 0.0, 0.0, 0.0, 0.0, 0.0, 0.0, 0.0, 1.741901255133711E9, 0.0, 2025-03-13 16:27:35.133
124.0, -33275.13137759345, -21301.391279863274, -35398.748266547715, -21279.06188715242, -43326.464989956025, -32418.299605643704, -42135.0946587437, -15822.0846440893, -29338.76566156932, -31006.250501424136, -36949.98168349048, -17275.32801334, -26346.761148781916, -41172.67324598709, -39349.463802512146, -187500.02235174447, -0.0870859375, 0.91415625, -0.35705859375, 192.0, 0.0, 0.0, 0.0, 0.0, 0.0, 0.0, 0.0, 0.0, 0.0, 1.74190125513573E9, 0.0, 2025-03-13 16:27:35.135
126.0, -33277.210089827786, -21300.541913573972, -35396.98247873574, -21268.64597423625, -43325.30269924435, -32402.496922313803, -42132.92653953154, -15817.390777753686, -29331.74721381035, -31007.345736902447, -36950.40636663513, -17278.926644197305, -26348.43752961606, -41177.50122278943, -39345.619302465835, -187500.02235174447, -0.08554296875, 0.915078125, -0.358529296875, 192.0, 126.5, 48.0, 14.0, 80.0, 122.0, 96.0, 0.0, 0.0, 0.0, 1.741901255137624E9, 0.0, 2025-03-13 16:27:35.137
128.0, -33266.101272833504, -21292.294119869963, -35386.36540011947, -21265.82965443488, -43312.271632226904, -32399.568843790155, -42117.749705046386, -15810.685254417092, -29326.673367818996, -30992.101847183927, -36935.16247691661, -17263.07925737849, -26340.860288245713, -41155.57416147878, -39339.56197971845, -187500.02235174447, -0.08554296875, 0.915078125, -0.358529296875, 192.0, 0.0, 0.0, 0.0, 0.0, 0.0, 0.0, 0.0, 0.0, 0.0, 1.74190125513966E9, 0.0, 2025-03-13 16:27:35.139
130.0, -33278.39473228392, -21305.056965953943, -35402.726877060755, -21274.1221516278, -43331.13650454718, -32411.03528869573, -42141.04022276881, -15828.633705214705, -29326.159277696526, -31001.13195194387, -36943.49967759844, -17274.70216449525, -26342.581372568773, -41169.92398141909, -39335.762183161045, -187500.02235174447, -0.08554296875, 0.915078125, -0.358529296875, 192.0, 0.0, 0.0, 0.0, 0.0, 0.0, 0.0, 0.0, 0.0, 0.0, 1.741901255141524E9, 0.0, 2025-03-13 16:27:35.141
132.0, -33287.58129925505, -21315.472878870118, -35408.87360678597, -21285.11920989981, -43335.47274297151, -32424.46868711337, -42145.62233038215, -15837.909679163657, -29344.89003955007, -31015.861751539916, -36952.70859631403, -17285.654519278352, -26360.574526855296, -41187.26893511641, -39353.91179965875, -187500.02235174447, -0.08554296875, 0.915078125, -0.358529296875, 192.0, 0.0, 0.0, 0.0, 0.0, 0.0, 0.0, 0.0, 0.0, 0.0, 1.741901255143431E9, 0.0, 2025-03-13 16:27:35.143
134.0, -33276.98657238323, -21307.090974699375, -35398.70356305881, -21275.01622140601, -43326.107362044735, -32413.203407907895, -42138.089792500716, -15827.314952291841, -29330.629626587586, -31010.765553804107, -36947.3218259003, -17281.40768783184, -26352.706712807027, -41182.93269669208, -39343.83116290941, -187500.02235174447, -0.08554296875, 0.915078125, -0.358529296875, 192.0, 0.0, 0.0, 0.0, 0.0, 0.0, 0.0, 0.0, 0.0, 0.0, 1.741901255145324E9, 0.0, 2025-03-13 16:27:35.145
136.0, -33271.48804324723, -21298.03851819498, -35388.354705376, -21263.460369522618, -43316.04907703985, -32399.971175190352, -42127.450362139985, -15819.625952199216, -29334.18355395598, -31001.824856021984, -36940.34808163024, -17271.863492949426, -26355.07599771929, -41174.57314426579, -39343.227665809114, -187500.02235174447, -0.08477148437500001, 0.9155390625, -0.3622646484375, 192.0, 126.5, 48.0, 14.0, 80.0, 122.0, 72.0, 0.0, 0.0, 0.0, 1.741901255191274E9, 0.0, 2025-03-13 16:27:35.191
138.0, -33270.79513916912, -21300.363099618327, -35388.71233328728, -21271.395238804253, -43318.88774858567, -32409.31420437267, -42134.021775009845, -15822.777548167414, -29319.833734015672, -30998.025059464584, -36934.53662807186, -17267.75077196965, -26343.430738858075, -41169.409891296615, -39330.174247047216, -187500.02235174447, -0.08477148437500001, 0.9155390625, -0.3622646484375, 192.0, 0.0, 0.0, 0.0, 0.0, 0.0, 0.0, 0.0, 0.0, 0.0, 1.741901255193401E9, 0.0, 2025-03-13 16:27:35.193
140.0, -33274.39377002642, -21300.810134507436, -35393.920289745365, -21264.019163134, -43324.69920214405, -32404.620338037057, -42144.03535652583, -15828.767815681436, -29330.160239954024, -30998.98618447616, -36937.6211688067, -17267.84017894747, -26351.142090695157, -41168.649931985135, -39343.652348953765, -187500.02235174447, -0.08477148437500001, 0.9155390625, -0.3622646484375, 192.0, 0.0, 0.0, 0.0, 0.0, 0.0, 0.0, 0.0, 0.0, 0.0, 1.741901255195285E9, 0.0, 2025-03-13 16:27:35.195
142.0, -33266.81652865607, -21300.541913573972, -35391.975687977756, -21276.44673305115, -43324.54273993287, -32416.8020387652, -42139.78852507932, -15829.103091848267, -29323.454716617434, -31002.40600137782, -36937.867037995704, -17269.74007722617, -26350.158613939122, -41171.33214131977, -39343.18296232021, -187500.02235174447, -0.08477148437500001, 0.9155390625, -0.3622646484375, 192.0, 0.0, 0.0, 0.0, 0.0, 0.0, 0.0, 0.0, 0.0, 0.0, 1.741901255197205E9, 0.0, 2025-03-13 16:27:35.197
144.0, -33274.05849385959, -21301.033651951988, -35395.395504879416, -21258.945317142647, -43329.10249580175, -32395.769047232756, -42134.73703083242, -15823.291638289886, -29326.025167229793, -30995.23109140767, -36933.68726178256, -17263.61569924542, -26345.084767947767, -41162.01146388191, -39344.144087331784, -187500.02235174447, -0.08477148437500001, 0.9155390625, -0.3622646484375, 192.0, 0.0, 0.0, 0.0, 0.0, 0.0, 0.0, 0.0, 0.0, 0.0, 1.741901255199082E9, 0.0, 2025-03-13 16:27:35.199
146.0, -33275.13137759345, -21310.890771256778, -35398.614156080985, -21283.26401511002, -43334.31045225984, -32418.120791688063, -42145.82349608225, -15832.74642619448, -29326.785126541276, -31006.80929503552, -36943.70084329854, -17277.652594763353, -26350.471538361497, -41177.68003674508, -39349.821430423435, -187500.02235174447, -0.0843857421875, 0.91576953125, -0.36313232421874997, 192.0, 126.5, 48.0, 14.0, 80.0, 122.0, 80.0, 0.0, 0.0, 0.0, 1.741901255201051E9, 0.0, 2025-03-13 16:27:35.201
148.0, -33284.87673817596, -21312.07541371291, -35405.90082477341, -21268.06482888041, -43337.305586016846, -32404.106247914584, -42138.33566168972, -15828.723112192525, -29342.207830215437, -31015.28060618408, -36954.094404470256, -17287.576769301508, -26361.0215617444, -41186.71014150502, -39356.728119460124, -187500.02235174447, -0.0843857421875, 0.91576953125, -0.36313232421874997, 192.0, 0.0, 0.0, 0.0, 0.0, 0.0, 0.0, 0.0, 0.0, 0.0, 1.741901255203063E9, 0.0, 2025-03-13 16:27:35.203
150.0, -33276.91951714987, -21311.60602707935, -35402.81628403858, -21281.453523809138, -43338.1773040506, -32428.424945881958, -42146.874028071645, -15839.362542553252, -29330.026129487294, -31005.244672923647, -36945.488982854964, -17278.680775008295, -26352.259677917922, -41170.303961074824, -39350.29081705699, -187500.02235174447, -0.0843857421875, 0.91576953125, -0.36313232421874997, 192.0, 0.0, 0.0, 0.0, 0.0, 0.0, 0.0, 0.0, 0.0, 0.0, 1.741901255250825E9, 0.0, 2025-03-13 16:27:35.250
152.0, -33287.760113210694, -21316.143431203775, -35411.64522309843, -21271.88697718227, -43342.53589421939, -32415.349175375602, -42149.80210659529, -15836.590926240795, -29342.61016161563, -31018.5216091301, -36955.45786088203, -17288.828466991006, -26367.391808914163, -41187.15717639413, -39356.99634039358, -187500.02235174447, -0.0843857421875, 0.91576953125, -0.36313232421874997, 192.0, 0.0, 0.0, 0.0, 0.0, 0.0, 0.0, 0.0, 0.0, 0.0, 1.74190125525276E9, 0.0, 2025-03-13 16:27:35.252
154.0, -33273.11972059247, -21309.32614914491, -35402.63747008294, -21293.25524488154, -43329.10249580175, -32432.314149417183, -42137.732164589426, -15831.651190716171, -29335.502306878843, -31013.917149772307, -36952.485078869475, -17283.75462099965, -26363.480253634483, -41179.49052804596, -39355.051738625974, -187500.02235174447, -0.0843857421875, 0.91576953125, -0.36313232421874997, 192.0, 0.0, 0.0, 0.0, 0.0, 0.0, 0.0, 0.0, 0.0, 0.0, 1.741901255254667E9, 0.0, 2025-03-13 16:27:35.254
156.0, -33281.143996851926, -21309.572018333914, -35406.97370850727, -21266.9695934021, -43333.23756852598, -32406.967271204863, -42132.837132553715, -15824.431577257106, -29335.23408594538, -31011.726678815685, -36949.624055579196, -17279.641900019873, -26359.769864054902, -41179.31171409032, -39348.65913971176, -187500.02235174447, -0.08419287109375001, 0.9148847656250001, -0.362566162109375, 192.0, 126.5, 48.0, 14.0, 72.0, 122.0, 88.0, 0.0, 0.0, 0.0, 1.741901255256569E9, 0.0, 2025-03-13 16:27:35.256
158.0, -33271.17511882485, -21308.27561715551, -35404.64912708392, -21294.149314659753, -43328.52135044591, -32435.689262829932, -42134.647623854595, -15831.092397104789, -29334.42942314499, -31012.75485906063, -36950.540477101866, -17280.290100609076, -26361.736817566973, -41187.045417671856, -39349.21793332314, -187500.02235174447, -0.08419287109375001, 0.9148847656250001, -0.362566162109375, 192.0, 0.0, 0.0, 0.0, 0.0, 0.0, 0.0, 0.0, 0.0, 0.0, 1.74190125525861E9, 0.0, 2025-03-13 16:27:35.258
160.0, -33280.24992707371, -21308.11915494432, -35409.54415911963, -21265.695543968148, -43337.77497265041, -32410.677660784444, -42136.30165294429, -15825.884440646701, -29333.825926044698, -31011.749030560142, -36952.8203550363, -17279.306623853045, -26362.250907689442, -41179.31171409032, -39349.15087808977, -187500.02235174447, -0.08419287109375001, 0.9148847656250001, -0.362566162109375, 192.0, 0.0, 0.0, 0.0, 0.0, 0.0, 0.0, 0.0, 0.0, 0.0, 1.741901255260488E9, 0.0, 2025-03-13 16:27:35.260
162.0, -33267.218860056266, -21306.17455317671, -35401.29636541562, -21277.87724469629, -43330.10832430224, -32422.5017336013, -42136.63692911112, -15827.449062758573, -29330.964902754415, -31005.51289385711, -36946.94184624456, -17273.04813540556, -26359.07695997679, -41173.58966750976, -39350.536686246, -187500.02235174447, -0.08419287109375001, 0.9148847656250001, -0.362566162109375, 192.0, 0.0, 0.0, 0.0, 0.0, 0.0, 0.0, 0.0, 0.0, 0.0, 1.741901255262353E9, 0.0, 2025-03-13 16:27:35.262
164.0, -33275.86898516047, -21305.660463054235, -35406.83959804053, -21258.386523531262, -43336.36681274972, -32406.430829337936, -42139.45324891248, -15825.549164479873, -29328.886190520072, -31007.032812480073, -36945.980721232976, -17272.109362138435, -26361.35683791123, -41181.52453679139, -39348.10034610037, -187500.02235174447, -0.08419287109375001, 0.9148847656250001, -0.362566162109375, 192.0, 0.0, 0.0, 0.0, 0.0, 0.0, 0.0, 0.0, 0.0, 0.0, 1.741901255264283E9, 0.0, 2025-03-13 16:27:35.264
166.0, -33270.3034007911, -21311.136640445788, -35410.37117366448, -21289.097820412855, -43341.641824441176, -32445.166402478982, -42152.50666767439, -15851.767760725948, -29334.98821675637, -31013.291300927558, -36945.53368634387, -17273.294004594565, -26370.297535693353, -41180.20578386853, -39362.964256163155, -187500.02235174447, -0.08209643554687501, 0.9144423828125001, -0.3592830810546875, 192.0, 126.5, 64.0, 14.0, 72.0, 122.0, 112.0, 0.0, 0.0, 0.0, 1.741901255310998E9, 0.0, 2025-03-13 16:27:35.310
168.0, -33272.53857523663, -21305.369890376318, -35407.688964329835, -21271.86462543781, -43347.34151927728, -32426.010957480787, -42162.83317361274, -15850.918394436647, -29335.167030712015, -31021.4720393982, -36949.71346255702, -17279.530141297597, -26378.232404974988, -41197.3272201213, -39365.825279453435, -187500.02235174447, -0.08209643554687501, 0.9144423828125001, -0.3592830810546875, 192.0, 0.0, 0.0, 0.0, 0.0, 0.0, 0.0, 0.0, 0.0, 0.0, 1.741901255313186E9, 0.0, 2025-03-13 16:27:35.313
170.0, -33263.73198792124, -21302.017128708023, -35401.51988286017, -21280.15712263073, -43338.691394173075, -32431.777707550256, -42152.283150229836, -15845.41986530064, -29328.41680388651, -31006.27285316859, -36938.76110777391, -17267.951937669746, -26362.87675653419, -41181.1222053912, -39359.3432735614, -187500.02235174447, -0.08209643554687501, 0.9144423828125001, -0.3592830810546875, 192.0, 0.0, 0.0, 0.0, 0.0, 0.0, 0.0, 0.0, 0.0, 0.0, 1.741901255315063E9, 0.0, 2025-03-13 16:27:35.315
172.0, -33285.882566676446, -21318.378605649308, -35417.47902840126, -21274.993869661557, -43349.263769300436, -32425.8544952696, -42153.8477723417, -15848.683219991115, -29334.116498722615, -31018.253388196637, -36949.28877941237, -17280.759487242638, -26373.35972468373, -41192.543946807855, -39362.85249744088, -187500.02235174447, -0.08209643554687501, 0.9144423828125001, -0.3592830810546875, 192.0, 0.0, 0.0, 0.0, 0.0, 0.0, 0.0, 0.0, 0.0, 0.0, 1.741901255316917E9, 0.0, 2025-03-13 16:27:35.316
174.0, -33268.403502512396, -21307.850934010858, -35403.15156020541, -21278.190169118665, -43334.73513540449, -32425.541570847225, -42141.53196114683, -15832.902888405668, -29341.090242992672, -31017.515780629612, -36948.66293056762, -17281.18417038729, -26377.159521241134, -41190.71110376252, -39364.97591316413, -187500.02235174447, -0.08209643554687501, 0.9144423828125001, -0.3592830810546875, 192.0, 0.0, 0.0, 0.0, 0.0, 0.0, 0.0, 0.0, 0.0, 0.0, 1.741901255318783E9, 0.0, 2025-03-13 16:27:35.318
176.0, -33265.2519065442, -21300.161933918233, -35398.457693869794, -21259.749979943037, -43332.05292606985, -32405.581463048635, -42131.67484184204, -15824.94566737958, -29323.208847428425, -31004.060030467517, -36938.24701765144, -17271.41645806032, -26365.49191063546, -41176.04835939984, -39351.02842462402, -187500.02235174447, -0.08304821777343752, 0.9122211914062501, -0.36164154052734376, 192.0, 126.5, 48.0, 14.0, 56.0, 122.0, 80.0, 0.0, 0.0, 0.0, 1.741901255320682E9, 0.0, 2025-03-13 16:27:35.320
178.0, -33259.12752856345, -21295.73628851608, -35392.13215018894, -21263.750942200535, -43326.71085914503, -32412.979890463343, -42129.17144646304, -15826.264420302443, -29325.511077107323, -30995.99105071915, -36931.586197803765, -17266.32026032451, -26360.909803022125, -41171.39919655314, -39346.42396526623, -187500.02235174447, -0.08304821777343752, 0.9122211914062501, -0.36164154052734376, 192.0, 0.0, 0.0, 0.0, 0.0, 0.0, 0.0, 0.0, 0.0, 0.0, 1.741901255322741E9, 0.0, 2025-03-13 16:27:35.322
180.0, -33270.437511257835, -21303.35823337534, -35398.97178399227, -21266.656668979726, -43329.817751624316, -32420.22185566686, -42135.42993491053, -15834.400455284174, -29321.957149738926, -31000.12612344338, -36936.749450772935, -17274.45629530624, -26361.580355355785, -41174.90842043262, -39345.8875233993, -187500.02235174447, -0.08304821777343752, 0.9122211914062501, -0.36164154052734376, 192.0, 0.0, 0.0, 0.0, 0.0, 0.0, 0.0, 0.0, 0.0, 0.0, 1.741901255371285E9, 0.0, 2025-03-13 16:27:35.371
182.0, -33267.88941238992, -21301.346576374362, -35397.04953396911, -21269.741209714557, -43330.018917324414, -32421.76412603428, -42137.642757611604, -15836.099187862777, -29331.18842019897, -31002.27189091109, -36933.486096082466, -17270.455333048743, -26368.330582181286, -41180.317542590805, -39352.615398480346, -187500.02235174447, -0.08304821777343752, 0.9122211914062501, -0.36164154052734376, 192.0, 0.0, 0.0, 0.0, 0.0, 0.0, 0.0, 0.0, 0.0, 0.0, 1.741901255373352E9, 0.0, 2025-03-13 16:27:35.373
184.0, -33259.26163903018, -21294.283425126487, -35393.62971706745, -21269.294174825453, -43324.96742307752, -32418.478419599345, -42135.273472699344, -15831.584135482806, -29321.75598403883, -31007.74806830264, -36931.653253037126, -17270.70120223775, -26361.088616977766, -41182.50801354743, -39351.3860525353, -187500.02235174447, -0.08304821777343752, 0.9122211914062501, -0.36164154052734376, 192.0, 0.0, 0.0, 0.0, 0.0, 0.0, 0.0, 0.0, 0.0, 0.0, 1.74190125537527E9, 0.0, 2025-03-13 16:27:35.375
186.0, -33258.0993483185, -21291.802381491947, -35389.91932748787, -21257.023067119488, -43322.35226897625, -32405.4473525819, -42132.546559875795, -15828.901926148168, -29322.627702072587, -30997.33215538647, -36921.57261628778, -17260.12882711039, -26363.055570489832, -41170.750995963936, -39343.808811164956, -187500.02235174447, -0.08552410888671876, 0.912110595703125, -0.3628207702636719, 192.0, 126.5, 32.0, 14.0, 64.0, 122.0, 80.0, 0.0, 0.0, 0.0, 1.741901255377161E9, 0.0, 2025-03-13 16:27:35.377
188.0, -33256.244153528714, -21291.78002974749, -35387.17006291987, -21266.92488991319, -43326.263824255926, -32409.94005321742, -42131.67484184204, -15828.141966836689, -29313.2176176569, -30997.175693175283, -36922.73490699946, -17263.95097541225, -26357.221765186998, -41177.322408833796, -39344.21114256515, -187500.02235174447, -0.08552410888671876, 0.912110595703125, -0.3628207702636719, 192.0, 0.0, 0.0, 0.0, 0.0, 0.0, 0.0, 0.0, 0.0, 0.0, 1.741901255379264E9, 0.0, 2025-03-13 16:27:35.379
190.0, -33268.69407519032, -21297.099744927855, -35395.70842930179, -21250.831633905367, -43329.01308882393, -32397.132503644527, -42131.27251044184, -15825.437405757595, -29325.019338729304, -30994.113504184905, -36927.76404950191, -17262.90044342285, -26359.83691928827, -41171.28743783086, -39347.04981411098, -187500.02235174447, -0.08552410888671876, 0.912110595703125, -0.3628207702636719, 192.0, 0.0, 0.0, 0.0, 0.0, 0.0, 0.0, 0.0, 0.0, 0.0, 1.741901255381125E9, 0.0, 2025-03-13 16:27:35.381
192.0, -33258.14405180741, -21294.775163504502, -35393.33914438953, -21266.54491025745, -43322.687545143075, -32411.862303240578, -42131.33956567521, -15827.359655780752, -29324.549952095742, -30999.634385065365, -36934.40251760513, -17268.667193492318, -26367.011829258423, -41175.89189718865, -39342.71357568665, -187500.02235174447, -0.08552410888671876, 0.912110595703125, -0.3628207702636719, 192.0, 0.0, 0.0, 0.0, 0.0, 0.0, 0.0, 0.0, 0.0, 0.0, 1.741901255383028E9, 0.0, 2025-03-13 16:27:35.383
194.0, -33271.3539327805, -21302.68768104168, -35403.46448462778, -21247.88120363727, -43330.22008302451, -32396.7972274777, -42139.31913844575, -15830.980638382513, -29323.27590266179, -30992.79475126204, -36926.55705530132, -17258.60890848743, -26362.74264606746, -41167.35353080673, -39340.45604949666, -187500.02235174447, -0.08552410888671876, 0.912110595703125, -0.3628207702636719, 192.0, 0.0, 0.0, 0.0, 0.0, 0.0, 0.0, 0.0, 0.0, 0.0, 1.741901255384895E9, 0.0, 2025-03-13 16:27:35.384
196.0, -33263.240249543225, -21300.40780310724, -35403.41978113887, -21270.724686470592, -43330.7788766359, -32417.383184121038, -42141.26374021337, -15837.46264427455, -29333.736519066875, -31009.692670070253, -36942.918532242606, -17274.83627496198, -26381.875739321204, -41186.91130720512, -39354.0906136144, -187500.02235174447, -0.08276205444335938, 0.9120552978515626, -0.36341038513183593, 192.0, 126.5, 64.0, 14.0, 64.0, 122.0, 80.0, 0.0, 0.0, 0.0, 1.74190125543167E9, 0.0, 2025-03-13 16:27:35.431
198.0, -33259.90983961938, -21285.387430833274, -35393.24973741171, -21244.036703590955, -43327.20259752305, -32387.208329106372, -42129.03733599631, -15818.79893765437, -29329.46733587591, -30995.588719318956, -36932.569674559796, -17260.21823408821, -26371.169253727112, -41170.63923724166, -39351.87779091332, -187500.02235174447, -0.08276205444335938, 0.9120552978515626, -0.36341038513183593, 192.0, 0.0, 0.0, 0.0, 0.0, 0.0, 0.0, 0.0, 0.0, 0.0, 1.741901255433785E9, 0.0, 2025-03-13 16:27:35.433
200.0, -33258.52403146315, -21295.423364093705, -35393.62971706745, -21264.91323291221, -43327.98490857898, -32413.628091052546, -42145.17529549304, -15833.819309928336, -29320.48193460488, -30993.308841384514, -36927.62993903517, -17253.982097385182, -26367.324753680798, -41171.55565876432, -39345.84281991039, -187500.02235174447, -0.08276205444335938, 0.9120552978515626, -0.36341038513183593, 192.0, 0.0, 0.0, 0.0, 0.0, 0.0, 0.0, 0.0, 0.0, 0.0, 1.741901255435692E9, 0.0, 2025-03-13 16:27:35.435
202.0, -33281.36751429648, -21307.470954355118, -35403.777409050155, -21249.82580540488, -43331.58353943629, -32390.44933205239, -42137.441591911505, -15826.622048213727, -29335.971693512405, -31006.09403921295, -36936.23536065047, -17263.973327156702, -26380.780503842892, -41177.34476057825, -39348.12269784483, -187500.02235174447, -0.08276205444335938, 0.9120552978515626, -0.36341038513183593, 192.0, 0.0, 0.0, 0.0, 0.0, 0.0, 0.0, 0.0, 0.0, 0.0, 1.741901255437595E9, 0.0, 2025-03-13 16:27:35.437
204.0, -33267.554136223094, -21304.565227575928, -35395.954298490804, -21277.02787840699, -43323.53691143238, -32414.74567827531, -42140.81670532426, -15831.897059905179, -29332.842449288662, -31009.938539259263, -36934.42486934958, -17264.777989957096, -26377.494797407962, -41176.45069080004, -39346.33455828841, -187500.02235174447, -0.08276205444335938, 0.9120552978515626, -0.36341038513183593, 192.0, 0.0, 0.0, 0.0, 0.0, 0.0, 0.0, 0.0, 0.0, 0.0, 1.741901255439497E9, 0.0, 2025-03-13 16:27:35.439
206.0, -33266.302438533596, -21294.998680949055, -35395.66372581288, -21246.294229780942, -43328.0296120679, -32386.001334905784, -42128.16561796256, -15816.988446353489, -29329.623798087097, -31005.75876304612, -36930.78153500337, -17262.431056789286, -26370.722218838004, -41173.63437099867, -39344.59112222089, -187500.02235174447, -0.0803810272216797, 0.9110276489257814, -0.36370519256591793, 192.0, 126.5, 72.0, 14.0, 56.0, 122.0, 80.0, 0.0, 0.0, 0.0, 1.741901255441371E9, 0.0, 2025-03-13 16:27:35.441
208.0, -33247.92930459134, -21286.59442503386, -35383.169100662366, -21262.096913110843, -43315.91496657312, -32397.423076322448, -42122.93530976002, -15816.675521931116, -29313.575245568187, -30989.777265760575, -36919.426848820076, -17252.752751440137, -26346.090596448255, -41151.77436492138, -39334.10815407135, -187500.02235174447, -0.0803810272216797, 0.9110276489257814, -0.36370519256591793, 192.0, 0.0, 0.0, 0.0, 0.0, 0.0, 0.0, 0.0, 0.0, 0.0, 1.741901255443442E9, 0.0, 2025-03-13 16:27:35.443
210.0, -33262.92732512085, -21289.388393090772, -35389.49464434322, -21246.24952629203, -43331.360021991735, -32373.104378355074, -42118.33085040222, -15805.857277614747, -29320.303120649234, -30996.952175730727, -36933.28493038237, -17260.32999281049, -26354.763073296916, -41164.872487172186, -39335.65042443877, -187500.02235174447, -0.0803810272216797, 0.9110276489257814, -0.36370519256591793, 192.0, 0.0, 0.0, 0.0, 0.0, 0.0, 0.0, 0.0, 0.0, 0.0, 1.741901255491902E9, 0.0, 2025-03-13 16:27:35.491
212.0, -33243.57071442255, -21276.78200921798, -35370.20508887829, -21249.87050889379, -43312.986888049476, -32383.609698249067, -42116.81093177926, -15802.03512931289, -29302.33231810717, -30978.17671038827, -36919.15862788661, -17240.70516117873, -26322.263636858897, -41146.02996659636, -39317.27729049651, -187500.02235174447, -0.0803810272216797, 0.9110276489257814, -0.36370519256591793, 192.0, 0.0, 0.0, 0.0, 0.0, 0.0, 0.0, 0.0, 0.0, 0.0, 1.741901255493886E9, 0.0, 2025-03-13 16:27:35.493
214.0, -33262.07795883155, -21282.906387198735, -35386.83478675303, -21243.790834401945, -43332.76818189242, -32373.39495103299, -42121.8400742817, -15806.214905526032, -29311.876512989584, -30984.211681391203, -36936.615340306205, -17248.952954882738, -26337.73104402197, -41157.98814987995, -39321.52412194302, -187500.02235174447, -0.0803810272216797, 0.9110276489257814, -0.36370519256591793, 192.0, 0.0, 0.0, 0.0, 0.0, 0.0, 0.0, 0.0, 0.0, 0.0, 1.741901255495779E9, 0.0, 2025-03-13 16:27:35.495
216.0, -33249.69509240331, -21276.15616037323, -35375.07776916955, -21254.899651396234, -43329.59423417976, -32384.615526749556, -42123.404696393576, -15805.052614814356, -29308.166123410003, -30972.119387640883, -36935.45304959453, -17245.376675769887, -26330.466727073996, -41139.99499559343, -39326.70972665665, -187500.02235174447, -0.07719051361083984, 0.9115138244628906, -0.36485259628295896, 192.0, 126.5, 88.0, 14.0, 64.0, 122.0, 72.0, 0.0, 0.0, 0.0, 1.741901255497646E9, 0.0, 2025-03-13 16:27:35.497
218.0, -33269.096406590514, -21286.706183756138, -35380.84451923901, -21240.952162856123, -43338.423173239615, -32373.8419859221, -42131.56308311976, -15808.181859038099, -29306.64620478704, -30976.410922576302, -36942.44914560904, -17250.696390950252, -26328.410366584107, -41149.203914309015, -39320.20536902015, -187500.02235174447, -0.07719051361083984, 0.9115138244628906, -0.36485259628295896, 192.0, 0.0, 0.0, 0.0, 0.0, 0.0, 0.0, 0.0, 0.0, 0.0, 1.741901255499676E9, 0.0, 2025-03-13 16:27:35.499
220.0, -33253.98662733872, -21278.704259241138, -35364.55009753109, -21251.658648450215, -43327.582577178786, -32384.7943407052, -42126.86921678415, -15809.634722427694, -29312.144733923047, -30981.015381934096, -36941.242151408456, -17254.2726700631, -26335.182945154065, -41151.90847538811, -39323.15579928825, -187500.02235174447, -0.07719051361083984, 0.9115138244628906, -0.36485259628295896, 192.0, 0.0, 0.0, 0.0, 0.0, 0.0, 0.0, 0.0, 0.0, 0.0, 1.741901255501561E9, 0.0, 2025-03-13 16:27:35.501
222.0, -33259.70867391928, -21277.474913296093, -35364.19246961981, -21239.275782021974, -43336.21035053854, -32375.607773734067, -42124.656394083075, -15805.164373536632, -29295.38092558157, -30974.779245231064, -36930.82623849228, -17250.02583861659, -26314.932264677558, -41149.33802477575, -39313.07516253891, -187500.02235174447, -0.07719051361083984, 0.9115138244628906, -0.36485259628295896, 192.0, 0.0, 0.0, 0.0, 0.0, 0.0, 0.0, 0.0, 0.0, 0.0, 1.741901255503431E9, 0.0, 2025-03-13 16:27:35.503
224.0, -33250.857383114984, -21273.74217197206, -35355.0953096265, -21247.367113514796, -43328.498998701456, -32378.915831913455, -42121.48244637042, -15805.119670047721, -29302.041745429247, -30975.51685279809, -36929.194561147044, -17252.21630957321, -26322.129526392167, -41150.70148118752, -39314.371563717315, -187500.02235174447, -0.07719051361083984, 0.9115138244628906, -0.36485259628295896, 192.0, 0.0, 0.0, 0.0, 0.0, 0.0, 0.0, 0.0, 0.0, 0.0, 1.741901255505297E9, 0.0, 2025-03-13 16:27:35.505
226.0, -33254.65717967239, -21272.825750449392, -35358.49277478371, -21242.91911636819, -43340.8818651297, -32381.530986014724, -42125.46105688346, -15806.483126459496, -29301.102972162127, -30976.52268129858, -36932.03323269287, -17258.251280576143, -26318.463840301498, -41156.66939695709, -39312.471665438614, -187500.02235174447, -0.07759525680541993, 0.9117569122314453, -0.3664262981414795, 192.0, 126.5, 72.0, 14.0, 64.0, 122.0, 64.0, 0.0, 0.0, 0.0, 1.741901255551269E9, 0.0, 2025-03-13 16:27:35.551
228.0, -33248.66691215836, -21267.796607946948, -35357.75516721668, -21241.68977042315, -43332.16468479213, -32384.74963721629, -42132.32304243124, -15811.400510239662, -29298.28665236076, -30962.239916591636, -36919.18097963107, -17247.231870559677, -26311.49009603144, -41128.61795766568, -39311.33172647139, -187500.02235174447, -0.07759525680541993, 0.9117569122314453, -0.3664262981414795, 192.0, 0.0, 0.0, 0.0, 0.0, 0.0, 0.0, 0.0, 0.0, 0.0, 1.741901255553408E9, 0.0, 2025-03-13 16:27:35.553
230.0, -33254.81364188357, -21272.512826027018, -35367.075844654544, -21249.624639704783, -43338.981966850995, -32388.683544240423, -42135.42993491053, -15814.641513185683, -29299.47129481689, -30975.494501053632, -36929.39572684714, -17260.352344554944, -26319.53672403535, -41150.8132399098, -39315.80207536246, -187500.02235174447, -0.07759525680541993, 0.9117569122314453, -0.3664262981414795, 192.0, 0.0, 0.0, 0.0, 0.0, 0.0, 0.0, 0.0, 0.0, 0.0, 1.741901255555318E9, 0.0, 2025-03-13 16:27:35.555
232.0, -33249.739795892216, -21267.707200969126, -35363.20899286377, -21244.193165802142, -43332.276443514405, -32379.78754994721, -42125.639870839106, -15805.991388081478, -29306.154466409025, -30971.091207395937, -36926.40059309013, -17253.445655518255, -26324.096479904234, -41144.2641787844, -39316.91966258522, -187500.02235174447, -0.07759525680541993, 0.9117569122314453, -0.3664262981414795, 192.0, 0.0, 0.0, 0.0, 0.0, 0.0, 0.0, 0.0, 0.0, 0.0, 1.741901255557227E9, 0.0, 2025-03-13 16:27:35.557
234.0, -33244.3977289674, -21265.427323034684, -35363.96895217526, -21250.317543782898, -43337.171475550116, -32385.196672105394, -42128.43383889602, -15806.952513093058, -29294.30804184771, -30971.5605940295, -36923.673680266584, -17250.60698397243, -26320.184924624555, -41148.04162359734, -39316.047944551465, -187500.02235174447, -0.07759525680541993, 0.9117569122314453, -0.3664262981414795, 192.0, 0.0, 0.0, 0.0, 0.0, 0.0, 0.0, 0.0, 0.0, 0.0, 1.741901255559093E9, 0.0, 2025-03-13 16:27:35.559
236.0, -33245.09063304551, -21263.393314289253, -35361.979646918735, -21239.320485510885, -43328.00726032344, -32373.126730099528, -42122.19770219299, -15799.107050789244, -29296.722030248886, -30964.18451835925, -36915.69410749604, -17241.73334142367, -26313.97113966598, -41140.84436188273, -39318.66309865274, -187500.02235174447, -0.07579762840270995, 0.9118784561157227, -0.36721314907073976, 192.0, 126.5, 88.0, 14.0, 64.0, 122.0, 64.0, 0.0, 0.0, 0.0, 1.741901255560933E9, 0.0, 2025-03-13 16:27:35.560
238.0, -33246.2976272461, -21268.891843425256, -35366.40529232089, -21254.944354885145, -43328.32018474581, -32388.258861095772, -42124.81285629426, -15808.450079971562, -29295.00094592583, -30968.69957073922, -36922.95842444401, -17248.707085693728, -26319.73788973545, -41144.95708286251, -39320.29477599797, -187500.02235174447, -0.07579762840270995, 0.9118784561157227, -0.36721314907073976, 192.0, 0.0, 0.0, 0.0, 0.0, 0.0, 0.0, 0.0, 0.0, 0.0, 1.741901255562972E9, 0.0, 2025-03-13 16:27:35.562
240.0, -33247.39286272441, -21262.946279400145, -35362.94077193031, -21237.755863399016, -43327.783742878884, -32369.6398579645, -42120.163693447554, -15801.252818256953, -29305.08158267517, -30968.431349805756, -36923.74073549995, -17248.46121650472, -26324.722328748983, -41141.514914216394, -39326.84383712338, -187500.02235174447, -0.07579762840270995, 0.9118784561157227, -0.36721314907073976, 192.0, 0.0, 0.0, 0.0, 0.0, 0.0, 0.0, 0.0, 0.0, 0.0, 1.741901255611117E9, 0.0, 2025-03-13 16:27:35.611
242.0, -33241.827278355035, -21262.476892766583, -35355.698806726796, -21245.53427046946, -43322.061696298326, -32382.31329707066, -42120.56602484775, -15805.298484003364, -29290.687059245953, -30960.719997968674, -36915.69410749604, -17238.805262900027, -26316.38512806715, -41134.13883854614, -39317.34434572987, -187500.02235174447, -0.07579762840270995, 0.9118784561157227, -0.36721314907073976, 192.0, 0.0, 0.0, 0.0, 0.0, 0.0, 0.0, 0.0, 0.0, 0.0, 1.741901255613074E9, 0.0, 2025-03-13 16:27:35.613
244.0, -33250.90208660389, -21261.716933455104, -35358.31396082806, -21226.602342915816, -43329.549530690856, -32367.807014919166, -42121.34833590369, -15800.425803712107, -29299.404239583524, -30966.01736140458, -36917.88457845266, -17237.620620443897, -26320.74371823594, -41140.01734733789, -39317.56786317442, -187500.02235174447, -0.07579762840270995, 0.9118784561157227, -0.36721314907073976, 192.0, 0.0, 0.0, 0.0, 0.0, 0.0, 0.0, 0.0, 0.0, 0.0, 1.741901255614973E9, 0.0, 2025-03-13 16:27:35.614
246.0, -33235.412327696366, -21255.21257581861, -35349.6414839794, -21247.702389681624, -43317.323126473806, -32381.82155869264, -42115.782751534316, -15797.385966466185, -29293.14575113604, -30966.08441663795, -36915.358831329206, -17237.352399510433, -26316.474535044974, -41139.99499559343, -39317.81373236344, -187500.02235174447, -0.07589881420135497, 0.9129392280578614, -0.3686065745353699, 192.0, 126.5, 80.0, 14.0, 72.0, 122.0, 56.0, 0.0, 0.0, 0.0, 1.741901255616848E9, 0.0, 2025-03-13 16:27:35.616
248.0, -33245.738833634714, -21260.35347704333, -35354.82708869303, -21227.317598738384, -43321.94993757605, -32359.69333168189, -42114.28518465581, -15793.07207978631, -29291.7152394909, -30961.010570646595, -36908.34038357024, -17233.329085508478, -26313.792325710336, -41134.54116994634, -39308.78362760349, -187500.02235174447, -0.07589881420135497, 0.9129392280578614, -0.3686065745353699, 192.0, 0.0, 0.0, 0.0, 0.0, 0.0, 0.0, 0.0, 0.0, 0.0, 1.741901255618896E9, 0.0, 2025-03-13 16:27:35.618
250.0, -33246.096461546, -21272.244605093554, -35358.42571955034, -21259.325296798386, -43324.20746376603, -32393.93620418742, -42124.83520803871, -15808.673597416115, -29295.93971919295, -30974.26515510859, -36917.59400577474, -17246.404856014833, -26314.574636766272, -41148.42160325308, -39319.31129924194, -187500.02235174447, -0.07589881420135497, 0.9129392280578614, -0.3686065745353699, 192.0, 0.0, 0.0, 0.0, 0.0, 0.0, 0.0, 0.0, 0.0, 0.0, 1.741901255620796E9, 0.0, 2025-03-13 16:27:35.620
252.0, -33253.42783372734, -21265.516730012507, -35360.012693406665, -21234.179584286165, -43320.49707418645, -32365.92946838492, -42116.22978642342, -15794.323777475809, -29300.007736683816, -30973.23697486365, -36919.85153196473, -17245.980172870182, -26317.0109769119, -41142.54309446133, -39316.182055018195, -187500.02235174447, -0.07589881420135497, 0.9129392280578614, -0.3686065745353699, 192.0, 0.0, 0.0, 0.0, 0.0, 0.0, 0.0, 0.0, 0.0, 0.0, 1.74190125562277E9, 0.0, 2025-03-13 16:27:35.622
254.0, -33246.74466213521, -21267.461331780116, -35358.693940483805, -21253.02210486199, -43319.35713521924, -32386.828349450632, -42119.202568435976, -15803.398585724663, -29298.4654663164, -30971.515890540588, -36919.18097963107, -17245.153158325335, -26317.279197845364, -41140.106754315704, -39315.39974396226, -187500.02235174447, -0.07589881420135497, 0.9129392280578614, -0.3686065745353699, 192.0, 0.0, 0.0, 0.0, 0.0, 0.0, 0.0, 0.0, 0.0, 0.0, 1.74190125562463E9, 0.0, 2025-03-13 16:27:35.624
0.0, -33258.23345878523, -21269.428285292182, -35366.65116150989, -21230.223325517574, -43331.11415280273, -32364.051921850674, -42121.88477777062, -15799.352919978253, -29305.305100119724, -30970.241841106636, -36924.34423260024, -17247.74596068215, -26320.363738580196, -41142.69955667252, -39314.14804627276, -187500.02235174447, -0.07694940710067749, 0.9124696140289308, -0.3693032872676849, 192.0, 126.5, 72.0, 14.0, 64.0, 122.0, 56.0, 0.0, 0.0, 0.0, 1.741901255671477E9, 0.0, 2025-03-13 16:27:35.671
2.0, -33238.563923664566, -21260.934622399167, -35353.37422530344, -21248.954087371123, -43324.788609121875, -32381.08395112562, -42114.463998611456, -15801.588094423783, -29305.550969308733, -30966.531451527055, -36923.07018316629, -17248.192995571255, -26320.609607769205, -41144.174771806574, -39318.7301538861, -187500.02235174447, -0.07694940710067749, 0.9124696140289308, -0.3693032872676849, 192.0, 0.0, 0.0, 0.0, 0.0, 0.0, 0.0, 0.0, 0.0, 0.0, 1.741901255673538E9, 0.0, 2025-03-13 16:27:35.673
4.0, -33253.53959244962, -21264.466198023107, -35367.38876907692, -21230.603305173317, -43328.968385335014, -32360.967381115843, -42119.58254809172, -15796.938931577079, -29306.914425720504, -30967.179652116258, -36926.08766866776, -17248.50591999363, -26325.39288108264, -41145.40411775161, -39318.774857375014, -187500.02235174447, -0.07694940710067749, 0.9124696140289308, -0.3693032872676849, 192.0, 0.0, 0.0, 0.0, 0.0, 0.0, 0.0, 0.0, 0.0, 0.0, 1.741901255675423E9, 0.0, 2025-03-13 16:27:35.675
6.0, -33236.798135852594, -21258.34182004235, -35354.625922992935, -21234.693674408638, -43318.88774858567, -32372.009142876763, -42116.07332421224, -15800.336396734287, -29296.74438199334, -30952.51690775358, -36911.20140686052, -17231.69740816324, -26318.88852344615, -41120.616033150676, -39313.36573521683, -187500.02235174447, -0.07694940710067749, 0.9124696140289308, -0.3693032872676849, 192.0, 0.0, 0.0, 0.0, 0.0, 0.0, 0.0, 0.0, 0.0, 0.0, 1.741901255677268E9, 0.0, 2025-03-13 16:27:35.677
8.0, -33256.15474655089, -21270.165892859208, -35368.57341153305, -21231.162098784698, -43331.360021991735, -32368.388160275004, -42123.2929376713, -15805.924332848113, -29307.540274565254, -30972.208794618702, -36929.351023358235, -17250.159949083325, -26326.577523538774, -41145.87350438518, -39317.56786317442, -187500.02235174447, -0.07694940710067749, 0.9124696140289308, -0.3693032872676849, 192.0, 0.0, 0.0, 0.0, 0.0, 0.0, 0.0, 0.0, 0.0, 0.0, 1.741901255679141E9, 0.0, 2025-03-13 16:27:35.679
10.0, -33241.4472986993, -21261.87339566629, -35360.95146667379, -21243.366151257294, -43321.61466140922, -32385.21902384985, -42119.71665855845, -15805.834925870291, -29309.686042032965, -30966.956134671706, -36927.83110473527, -17246.02487635909, -26325.43758457155, -41135.59170193574, -39316.58438641839, -187500.02235174447, -0.07847470355033875, 0.9122348070144655, -0.36765164363384245, 192.0, 126.5, 64.0, 14.0, 64.0, 122.0, 72.0, 0.0, 0.0, 0.0, 1.741901255680974E9, 0.0, 2025-03-13 16:27:35.680
12.0, -33257.562906451574, -21274.993869661557, -35372.887298212925, -21234.358398241806, -43336.29975751636, -32381.374523803537, -42135.25112095489, -15819.827117899315, -29302.220559384892, -30968.006666661106, -36923.65132852213, -17245.93546938127, -26326.68928226105, -41140.59849269372, -39315.73502012909, -187500.02235174447, -0.07847470355033875, 0.9122348070144655, -0.36765164363384245, 192.0, 0.0, 0.0, 0.0, 0.0, 0.0, 0.0, 0.0, 0.0, 0.0, 1.741901255682945E9, 0.0, 2025-03-13 16:27:35.682
14.0, -33246.40938596838, -21271.372887059795, -35366.09236789851, -21258.92296539819, -43328.76721963492, -32399.770009490254, -42132.904187787084, -15821.436443500095, -29319.699623548942, -30986.93859421475, -36934.0672414383, -17262.56516725602, -26341.463785346008, -41159.6645307141, -39336.09745932787, -187500.02235174447, -0.07847470355033875, 0.9122348070144655, -0.36765164363384245, 192.0, 0.0, 0.0, 0.0, 0.0, 0.0, 0.0, 0.0, 0.0, 0.0, 1.741901255731658E9, 0.0, 2025-03-13 16:27:35.731
16.0, -33245.93999933481, -21265.673192223694, -35366.65116150989, -21233.553735441415, -43321.77112362041, -32377.462968523858, -42124.18700744951, -15809.232391027499, -29295.962070937407, -30972.722884741175, -36915.69410749604, -17246.22604205919, -26323.06829965929, -41149.47213524248, -39314.796246861966, -187500.02235174447, -0.07847470355033875, 0.9122348070144655, -0.36765164363384245, 192.0, 0.0, 0.0, 0.0, 0.0, 0.0, 0.0, 0.0, 0.0, 0.0, 1.741901255733681E9, 0.0, 2025-03-13 16:27:35.733
18.0, -33240.97791206573, -21266.1202271128, -35362.96312367477, -21242.270915778987, -43323.33574573228, -32381.55333775918, -42121.46009462597, -15807.712472404537, -29307.204998398425, -30972.879346952363, -36919.98564243146, -17247.902422893338, -26329.572657295783, -41144.82297239578, -39324.67571791121, -187500.02235174447, -0.07847470355033875, 0.9122348070144655, -0.36765164363384245, 192.0, 0.0, 0.0, 0.0, 0.0, 0.0, 0.0, 0.0, 0.0, 0.0, 1.741901255735651E9, 0.0, 2025-03-13 16:27:35.735
20.0, -33253.96427559427, -21279.397163319252, -35373.647257524404, -21245.601325702828, -43332.56701619232, -32385.777817461232, -42129.73024007443, -15814.663864930139, -29301.974690195882, -30977.729675499166, -36923.964252944505, -17250.02583861659, -26327.06926191679, -41149.02510035338, -39318.01489806353, -187500.02235174447, -0.07723735177516938, 0.9131174035072327, -0.36482582181692125, 192.0, 126.5, 80.0, 14.0, 72.0, 122.0, 88.0, 0.0, 0.0, 0.0, 1.741901255737514E9, 0.0, 2025-03-13 16:27:35.737
22.0, -33246.23057201273, -21271.082314381878, -35366.40529232089, -21246.24952629203, -43328.52135044591, -32383.69910522689, -42127.89739702909, -15811.959303851047, -29317.643263059053, -30981.84239647894, -36930.44625883654, -17252.84215841796, -26339.87681148968, -41156.53528649036, -39332.767049404036, -187500.02235174447, -0.07723735177516938, 0.9131174035072327, -0.36482582181692125, 192.0, 0.0, 0.0, 0.0, 0.0, 0.0, 0.0, 0.0, 0.0, 0.0, 1.741901255739519E9, 0.0, 2025-03-13 16:27:35.739
24.0, -33236.14993526339, -21261.605174732827, -35358.068091639056, -21238.00173258802, -43317.90427182964, -32374.199613833385, -42124.90226327208, -15803.376233980207, -29298.6666320165, -30969.526585284068, -36917.54930228583, -17241.152196067833, -26322.10717464771, -41144.5100479734, -39318.149008530265, -187500.02235174447, -0.07723735177516938, 0.9131174035072327, -0.36482582181692125, 192.0, 0.0, 0.0, 0.0, 0.0, 0.0, 0.0, 0.0, 0.0, 0.0, 1.741901255741397E9, 0.0, 2025-03-13 16:27:35.741
26.0, -33242.92251383335, -21266.477855024084, -35355.31882707105, -21231.698540651625, -43314.14917876115, -32367.941125385896, -42112.02765846583, -15797.944760077567, -29305.103934419625, -30965.100939881915, -36915.582348773765, -17237.575916954986, -26324.118831648688, -41136.53047520286, -39313.11986602782, -187500.02235174447, -0.07723735177516938, 0.9131174035072327, -0.36482582181692125, 192.0, 0.0, 0.0, 0.0, 0.0, 0.0, 0.0, 0.0, 0.0, 0.0, 1.74190125574326E9, 0.0, 2025-03-13 16:27:35.743
28.0, -33241.22378125475, -21267.662497480214, -35351.04964388009, -21238.091139565844, -43311.26580372641, -32377.954706901874, -42116.699173056986, -15802.638626413183, -29298.554873294222, -30971.761759729598, -36917.77281973038, -17244.59436471395, -26319.67083450208, -41146.29818752983, -39310.99645030456, -187500.02235174447, -0.07723735177516938, 0.9131174035072327, -0.36482582181692125, 192.0, 0.0, 0.0, 0.0, 0.0, 0.0, 0.0, 0.0, 0.0, 0.0, 1.741901255745161E9, 0.0, 2025-03-13 16:27:35.745
30.0, -33254.38895873892, -21272.378715560284, -35364.75126323119, -21228.457537705606, -43325.66032715563, -32373.39495103299, -42127.53976911781, -15808.338321249286, -29311.85416124513, -30970.018323662083, -36922.131409899164, -17244.616716458408, -26332.478384074973, -41143.37010900618, -39309.65534563725, -187500.02235174447, -0.0786186758875847, 0.9165587017536163, -0.3634129109084606, 192.0, 126.5, 64.0, 14.0, 96.0, 122.0, 88.0, 0.0, 0.0, 0.0, 1.741901255791954E9, 0.0, 2025-03-13 16:27:35.791
32.0, -33248.398691224895, -21273.58570976087, -35364.30422834209, -21245.556622213917, -43321.994641064965, -32390.31522158566, -42129.819647052245, -15815.401472497164, -29308.255530387825, -30977.148530143328, -36927.89815996864, -17251.07637060599, -26324.699977004526, -41145.89585612963, -39321.144142287274, -187500.02235174447, -0.0786186758875847, 0.9165587017536163, -0.3634129109084606, 192.0, 0.0, 0.0, 0.0, 0.0, 0.0, 0.0, 0.0, 0.0, 0.0, 1.741901255794052E9, 0.0, 2025-03-13 16:27:35.794
34.0, -33264.067264088066, -21281.9229104427, -35372.77553949065, -21232.570258685384, -43334.511617959935, -32377.12769235703, -42133.21711220946, -15815.624989941716, -29316.235103158368, -30975.874480709375, -36929.753354758424, -17249.064713605014, -26333.841840486748, -41143.0124810949, -39326.50856095655, -187500.02235174447, -0.0786186758875847, 0.9165587017536163, -0.3634129109084606, 192.0, 0.0, 0.0, 0.0, 0.0, 0.0, 0.0, 0.0, 0.0, 0.0, 1.741901255795952E9, 0.0, 2025-03-13 16:27:35.795
36.0, -33248.51044994718, -21275.59736676185, -35360.05739689558, -21242.762654157003, -43324.74390563297, -32387.16362561746, -42125.81868479475, -15814.283885274397, -29314.42461185749, -30981.060085423003, -36933.08376468227, -17253.020972373604, -26331.092575918745, -41152.087289343755, -39325.346270244874, -187500.02235174447, -0.0786186758875847, 0.9165587017536163, -0.3634129109084606, 192.0, 0.0, 0.0, 0.0, 0.0, 0.0, 0.0, 0.0, 0.0, 0.0, 1.741901255797837E9, 0.0, 2025-03-13 16:27:35.797
38.0, -33261.94384836481, -21283.487532554573, -35368.88633595542, -21231.162098784698, -43334.91394936013, -32370.757445187268, -42131.652490097586, -15812.674559673616, -29316.14569618055, -30974.108692897404, -36928.993395446945, -17247.768312426604, -26332.858363730713, -41139.704422915514, -39322.97698533261, -187500.02235174447, -0.0786186758875847, 0.9165587017536163, -0.3634129109084606, 192.0, 0.0, 0.0, 0.0, 0.0, 0.0, 0.0, 0.0, 0.0, 0.0, 1.741901255799751E9, 0.0, 2025-03-13 16:27:35.799
40.0, -33260.87096463096, -21292.65174778125, -35371.9485249458, -21261.135788099265, -43334.086934815285, -32401.6475560245, -42137.88862680062, -15826.309123791352, -29315.966882224904, -30988.190291904248, -36935.855380994726, -17261.51463526662, -26336.948732966037, -41159.93275164757, -39327.35792724585, -187500.02235174447, -0.07830933794379236, 0.9172793508768082, -0.3647064554542303, 192.0, 126.5, 72.0, 14.0, 88.0, 122.0, 72.0, 0.0, 0.0, 0.0, 1.741901255801663E9, 0.0, 2025-03-13 16:27:35.801
42.0, -33269.63284845744, -21290.908311713734, -35374.60838253598, -21237.420587232184, -43334.846894126764, -32381.41922729245, -42134.513513387865, -15818.910696376646, -29327.835658530672, -30996.393382119346, -36943.79025027636, -17268.55543477004, -26343.184869669065, -41165.364225550205, -39331.358889503346, -187500.02235174447, -0.07830933794379236, 0.9172793508768082, -0.3647064554542303, 192.0, 0.0, 0.0, 0.0, 0.0, 0.0, 0.0, 0.0, 0.0, 0.0, 1.741901255803681E9, 0.0, 2025-03-13 16:27:35.803
44.0, -33251.61734242646, -21282.124076142798, -35366.42764406534, -21255.346686285342, -43326.91202484513, -32399.635899023524, -42133.61944360965, -15822.576382467316, -29312.949396723438, -30982.356486601413, -36934.33546237177, -17259.860606176928, -26331.986645696958, -41152.15434457712, -39328.87784586881, -187500.02235174447, -0.07830933794379236, 0.9172793508768082, -0.3647064554542303, 192.0, 0.0, 0.0, 0.0, 0.0, 0.0, 0.0, 0.0, 0.0, 0.0, 1.741901255851973E9, 0.0, 2025-03-13 16:27:35.851
46.0, -33255.93122910634, -21276.714953984614, -35365.757091731684, -21229.44101446164, -43326.64380391166, -32371.18212833192, -42124.589338849706, -15808.539486949383, -29315.810420013717, -30981.171844145283, -36933.463744338005, -17258.98888814317, -26337.30636087732, -41150.34385327624, -39323.245206266074, -187500.02235174447, -0.07830933794379236, 0.9172793508768082, -0.3647064554542303, 192.0, 0.0, 0.0, 0.0, 0.0, 0.0, 0.0, 0.0, 0.0, 0.0, 1.741901255853949E9, 0.0, 2025-03-13 16:27:35.853
48.0, -33233.803002095585, -21266.231985835075, -35349.06033862357, -21243.38850300175, -43311.489321170964, -32381.55333775918, -42112.966431732944, -15801.610446168239, -29301.92998670697, -30969.191309117236, -36919.002165675425, -17248.617678715906, -26321.056642658314, -41141.40315549412, -39319.601871919855, -187500.02235174447, -0.07830933794379236, 0.9172793508768082, -0.3647064554542303, 192.0, 0.0, 0.0, 0.0, 0.0, 0.0, 0.0, 0.0, 0.0, 0.0, 1.741901255855845E9, 0.0, 2025-03-13 16:27:35.855
50.0, -33252.51141220467, -21271.998735904544, -35367.27701035464, -21227.49641269403, -43319.87122534171, -32367.427035263427, -42120.29780391429, -15804.538524691883, -29303.025222185282, -30969.50423353961, -36920.63384302066, -17244.974344369693, -26324.45410781552, -41140.86671362719, -39314.34921197286, -187500.02235174447, -0.07615466897189618, 0.9156396754384042, -0.36235322772711515, 192.0, 126.5, 88.0, 14.0, 72.0, 122.0, 96.0, 0.0, 0.0, 0.0, 1.741901255857739E9, 0.0, 2025-03-13 16:27:35.857
52.0, -33234.697071873794, -21264.376791045284, -35354.82708869303, -21245.891898380745, -43306.05784726833, -32381.68744822591, -42111.42416136553, -15801.297521745864, -29302.064097173705, -30967.380817816356, -36919.24803486443, -17243.499129235643, -26323.984721181958, -41136.53047520286, -39319.02072656402, -187500.02235174447, -0.07615466897189618, 0.9156396754384042, -0.36235322772711515, 192.0, 0.0, 0.0, 0.0, 0.0, 0.0, 0.0, 0.0, 0.0, 0.0, 1.741901255859771E9, 0.0, 2025-03-13 16:27:35.859
54.0, -33249.71744414776, -21271.708163226624, -35362.69490274131, -21230.33508423985, -43319.4241904526, -32367.337628285604, -42118.30849865777, -15805.074966558812, -29300.857102973117, -30969.012495161594, -36919.80682847581, -17245.823710658995, -26325.526991549374, -41142.76661190589, -39310.7282293711, -187500.02235174447, -0.07615466897189618, 0.9156396754384042, -0.36235322772711515, 192.0, 0.0, 0.0, 0.0, 0.0, 0.0, 0.0, 0.0, 0.0, 0.0, 1.741901255861631E9, 0.0, 2025-03-13 16:27:35.861
56.0, -33247.705787146784, -21278.793666218957, -35366.82997546554, -21255.167872329697, -43322.79930386535, -32399.859416468076, -42132.47950464243, -15820.274152788419, -29309.79780075524, -30980.098960411426, -36923.20429363302, -17255.457312519233, -26330.623189285183, -41153.45074575552, -39324.6310144223, -187500.02235174447, -0.07615466897189618, 0.9156396754384042, -0.36235322772711515, 192.0, 0.0, 0.0, 0.0, 0.0, 0.0, 0.0, 0.0, 0.0, 0.0, 1.741901255863515E9, 0.0, 2025-03-13 16:27:35.863
58.0, -33257.853479129495, -21276.35732607333, -35373.82607148005, -21232.61496217429, -43330.018917324414, -32380.234584836315, -42135.16171397707, -15815.826155641815, -29307.69673677644, -30978.288469110546, -36924.67950876707, -17254.183263085277, -26336.92638122158, -41151.08146084326, -39326.86618886783, -187500.02235174447, -0.07615466897189618, 0.9156396754384042, -0.36235322772711515, 192.0, 0.0, 0.0, 0.0, 0.0, 0.0, 0.0, 0.0, 0.0, 0.0, 1.741901255865375E9, 0.0, 2025-03-13 16:27:35.865
60.0, -33248.08576680253, -21273.563358016418, -35370.0486266671, -21242.24856403453, -43323.71572538802, -32396.327840844137, -42128.65735634058, -15820.542373721884, -29316.346861880647, -30976.433274320756, -36925.52887505637, -17251.523405495096, -26338.245134144443, -41147.23696079695, -39332.11884881483, -187500.02235174447, -0.07907733448594809, 0.912819837719202, -0.3641766138635576, 192.0, 126.5, 56.0, 14.0, 56.0, 122.0, 72.0, 0.0, 0.0, 0.0, 1.741901255912412E9, 0.0, 2025-03-13 16:27:35.912
62.0, -33261.78738615363, -21281.74409648706, -35381.0009814502, -21241.9132878677, -43339.540760462376, -32391.92454718644, -42143.14128674761, -15827.806690669859, -29315.27397814679, -30983.049390679527, -36931.25092163693, -17257.04428637556, -26342.02257895739, -41159.61982722519, -39337.46091573965, -187500.02235174447, -0.07907733448594809, 0.912819837719202, -0.3641766138635576, 192.0, 0.0, 0.0, 0.0, 0.0, 0.0, 0.0, 0.0, 0.0, 0.0, 1.741901255914533E9, 0.0, 2025-03-13 16:27:35.914
64.0, -33246.72231039075, -21272.892805682757, -35366.67351325435, -21246.048360591933, -43320.027687552894, -32388.5941372626, -42129.28320518532, -15817.524888220418, -29313.977576968384, -30979.204890633213, -36924.50069481143, -17256.150216597347, -26335.004131198424, -41153.78602192236, -39338.51144772905, -187500.02235174447, -0.07907733448594809, 0.912819837719202, -0.3641766138635576, 192.0, 0.0, 0.0, 0.0, 0.0, 0.0, 0.0, 0.0, 0.0, 0.0, 1.741901255916422E9, 0.0, 2025-03-13 16:27:35.916
66.0, -33249.53863019212, -21274.59153826136, -35372.41791157936, -21237.621752932282, -43324.4756846995, -32381.8439104371, -42132.1442284756, -15819.849469643768, -29303.38285009657, -30978.109655154905, -36920.70089825403, -17256.284327064077, -26331.383148596666, -41151.34968177673, -39326.57561618991, -187500.02235174447, -0.07907733448594809, 0.912819837719202, -0.3641766138635576, 192.0, 0.0, 0.0, 0.0, 0.0, 0.0, 0.0, 0.0, 0.0, 0.0, 1.741901255918288E9, 0.0, 2025-03-13 16:27:35.918
68.0, -33230.941978805306, -21255.413741518707, -35355.698806726796, -21225.39534871523, -43309.47766416999, -32369.796320175687, -42116.65446956807, -15802.593922924272, -29303.65107103003, -30965.972657915674, -36910.50850278241, -17248.32710603799, -26327.382186339164, -41135.032908324356, -39329.77191564702, -187500.02235174447, -0.07907733448594809, 0.912819837719202, -0.3641766138635576, 192.0, 0.0, 0.0, 0.0, 0.0, 0.0, 0.0, 0.0, 0.0, 0.0, 1.741901255920173E9, 0.0, 2025-03-13 16:27:35.920
70.0, -33251.57263893755, -21274.524483027995, -35372.462615068274, -21230.223325517574, -43326.08501030028, -32381.68744822591, -42132.36774592016, -15819.000103354467, -29302.689946018454, -30967.537280027544, -36917.88457845266, -17253.490359007163, -26332.50073581943, -41139.41385023759, -39321.12179054282, -187500.02235174447, -0.07653866724297403, 0.913409918859601, -0.3660883069317788, 192.0, 126.5, 88.0, 14.0, 72.0, 122.0, 64.0, 0.0, 0.0, 0.0, 1.741901255922065E9, 0.0, 2025-03-13 16:27:35.922
72.0, -33255.193621539314, -21278.368983074306, -35375.90478371439, -21236.928848854168, -43322.64284165417, -32385.487244783315, -42137.12866748913, -15821.861126644746, -29316.816248514206, -30975.963887687194, -36922.69020351055, -17260.106475365934, -26342.0672824463, -41146.76757416339, -39330.509523214045, -187500.02235174447, -0.07653866724297403, 0.913409918859601, -0.3660883069317788, 192.0, 0.0, 0.0, 0.0, 0.0, 0.0, 0.0, 0.0, 0.0, 0.0, 1.741901255924078E9, 0.0, 2025-03-13 16:27:35.924
74.0, -33251.08090055954, -21276.536140028973, -35371.9485249458, -21244.841366391345, -43323.4251527101, -32387.878881440032, -42132.56891162025, -15819.804766154859, -29308.970786210393, -30976.768550487584, -36924.791267489345, -17261.246414333156, -26338.759224266916, -41153.5625044778, -39329.54839820247, -187500.02235174447, -0.07653866724297403, 0.913409918859601, -0.3660883069317788, 192.0, 0.0, 0.0, 0.0, 0.0, 0.0, 0.0, 0.0, 0.0, 0.0, 1.741901255971318E9, 0.0, 2025-03-13 16:27:35.971
76.0, -33257.8981826184, -21284.06867791041, -35379.23519363823, -21240.616886689295, -43328.09666730126, -32386.493073283804, -42136.05578375528, -15824.208059812554, -29322.538295094764, -30981.060085423003, -36931.60854954822, -17265.04621089056, -26351.231497672976, -41158.077556857774, -39334.62224419382, -187500.02235174447, -0.07653866724297403, 0.913409918859601, -0.3660883069317788, 192.0, 0.0, 0.0, 0.0, 0.0, 0.0, 0.0, 0.0, 0.0, 0.0, 1.741901255973263E9, 0.0, 2025-03-13 16:27:35.973
78.0, -33241.96138882177, -21272.825750449392, -35368.1487283884, -21246.718912925593, -43321.77112362041, -32394.115018143064, -42133.61944360965, -15821.056463844356, -29306.4673908314, -30975.606259775912, -36923.472514566485, -17261.425228288797, -26336.3675876102, -41154.322463789285, -39334.219912793626, -187500.02235174447, -0.07653866724297403, 0.913409918859601, -0.3660883069317788, 192.0, 0.0, 0.0, 0.0, 0.0, 0.0, 0.0, 0.0, 0.0, 0.0, 1.741901255975185E9, 0.0, 2025-03-13 16:27:35.975
80.0, -33252.891391860416, -21278.30192784094, -35371.88146971243, -21235.96772384259, -43320.65353639764, -32382.737980215312, -42131.04899299729, -15819.156565565654, -29311.78710601176, -30973.4604923082, -36922.35492734372, -17258.40774278733, -26332.344273608243, -41143.34775726173, -39329.883674369295, -187500.02235174447, -0.07426933362148702, 0.9167049594298005, -0.36804415346588937, 192.0, 126.5, 96.0, 14.0, 96.0, 122.0, 56.0, 0.0, 0.0, 0.0, 1.741901255977105E9, 0.0, 2025-03-13 16:27:35.977
82.0, -33250.45505171479, -21282.727573243094, -35368.48400455523, -21249.132901326764, -43313.18805374957, -32400.440561823914, -42127.875045284636, -15820.475318488518, -29307.674385031987, -30981.08243716746, -36923.56192154431, -17262.475760278197, -26334.221820142488, -41152.422565510584, -39324.96629058913, -187500.02235174447, -0.07426933362148702, 0.9167049594298005, -0.36804415346588937, 192.0, 0.0, 0.0, 0.0, 0.0, 0.0, 0.0, 0.0, 0.0, 0.0, 1.741901255979194E9, 0.0, 2025-03-13 16:27:35.979
84.0, -33253.33842674952, -21279.12894238579, -35369.48983305572, -21233.084348807854, -43309.81294033682, -32379.22875633583, -42117.36972539064, -15807.421899726618, -29314.983405468873, -30978.646097021832, -36923.07018316629, -17258.877129420893, -26341.128509179176, -41149.58389396476, -39327.380278990306, -187500.02235174447, -0.07426933362148702, 0.9167049594298005, -0.36804415346588937, 192.0, 0.0, 0.0, 0.0, 0.0, 0.0, 0.0, 0.0, 0.0, 0.0, 1.741901255981073E9, 0.0, 2025-03-13 16:27:35.981
86.0, -33255.28302851713, -21291.60121579185, -35375.23423138073, -21261.918099155202, -43319.111266030224, -32405.201483392895, -42131.00428950838, -15822.308161533852, -29312.770582767796, -30987.251518637124, -36928.12167741319, -17269.13658012588, -26340.703826034525, -41169.544001763345, -39332.901159870766, -187500.02235174447, -0.07426933362148702, 0.9167049594298005, -0.36804415346588937, 192.0, 0.0, 0.0, 0.0, 0.0, 0.0, 0.0, 0.0, 0.0, 0.0, 1.741901255982923E9, 0.0, 2025-03-13 16:27:35.982
88.0, -33252.15378429339, -21280.179474375185, -35364.10306264199, -21220.232095746054, -43303.66621061161, -32368.63402946401, -42109.23369040891, -15801.990425823979, -29305.685079775463, -30973.102864396915, -36916.63288076316, -17255.859643919426, -26337.39576785514, -41146.87933288566, -39326.30739525645, -187500.02235174447, -0.07426933362148702, 0.9167049594298005, -0.36804415346588937, 192.0, 0.0, 0.0, 0.0, 0.0, 0.0, 0.0, 0.0, 0.0, 0.0, 1.741901255984799E9, 0.0, 2025-03-13 16:27:35.984
90.0, -33253.651351171895, -21290.282462868985, -35372.753187746195, -21251.055151349923, -43317.50194042944, -32402.116942658064, -42130.75842031937, -15821.816423155837, -29311.161257167016, -30980.32247785598, -36928.12167741319, -17266.119094624413, -26338.043968444345, -41146.968739863485, -39328.430810979706, -187500.02235174447, -0.07613466681074352, 0.9183524797149003, -0.3680220767329447, 192.0, 126.5, 72.0, 14.0, 96.0, 122.0, 64.0, 0.0, 0.0, 0.0, 1.741901256031602E9, 0.0, 2025-03-13 16:27:36.031
92.0, -33264.44724374381, -21291.22123613611, -35378.92226921586, -21225.9094388377, -43315.93731831757, -32374.31137255566, -42124.9916702499, -15813.188649796088, -29315.27397814679, -30977.50615805461, -36927.78640124636, -17262.967498656213, -26342.2684481464, -41146.78992590785, -39336.20921805015, -187500.02235174447, -0.07613466681074352, 0.9183524797149003, -0.3680220767329447, 192.0, 0.0, 0.0, 0.0, 0.0, 0.0, 0.0, 0.0, 0.0, 0.0, 1.74190125603373E9, 0.0, 2025-03-13 16:27:36.033
94.0, -33250.72327264825, -21287.644957023258, -35368.21578362177, -21249.222308304586, -43309.3212019588, -32393.444465809403, -42117.168559690544, -15814.12742306321, -29310.22248389989, -30978.42257957728, -36924.590101789254, -17261.000545144147, -26341.396730112643, -41147.43812649705, -39332.6329389373, -187500.02235174447, -0.07613466681074352, 0.9183524797149003, -0.3680220767329447, 192.0, 0.0, 0.0, 0.0, 0.0, 0.0, 0.0, 0.0, 0.0, 0.0, 1.741901256035619E9, 0.0, 2025-03-13 16:27:36.035
96.0, -33263.083787332034, -21289.947186702157, -35376.68709477033, -21224.009540559, -43316.22789099549, -32371.919735898944, -42121.28128067032, -15807.60071368226, -29317.956187481428, -30981.149492400826, -36929.44043033605, -17265.98498415768, -26349.8680412612, -41153.04841435533, -39334.39872674927, -187500.02235174447, -0.07613466681074352, 0.9183524797149003, -0.3680220767329447, 192.0, 0.0, 0.0, 0.0, 0.0, 0.0, 0.0, 0.0, 0.0, 0.0, 1.741901256037475E9, 0.0, 2025-03-13 16:27:36.037
98.0, -33246.69995864629, -21281.073544153398, -35365.8464987095, -21236.97355234308, -43309.9246990591, -32398.250090867296, -42128.43383889602, -15819.313027776841, -29308.12141992109, -30968.14077712784, -36917.661061008104, -17254.026800874093, -26341.106157434722, -41144.13006831766, -39328.699031913166, -187500.02235174447, -0.07613466681074352, 0.9183524797149003, -0.3680220767329447, 192.0, 0.0, 0.0, 0.0, 0.0, 0.0, 0.0, 0.0, 0.0, 0.0, 1.741901256039343E9, 0.0, 2025-03-13 16:27:36.039
100.0, -33258.546383207606, -21281.74409648706, -35371.61324877897, -21218.511011422994, -43319.44654219706, -32384.056733138175, -42128.76911506285, -15819.08951033229, -29313.977576968384, -30972.36525682989, -36924.18777038906, -17258.050114876045, -26350.53859359486, -41147.460478241504, -39333.6834709267, -187500.02235174447, -0.08106733340537176, 0.9201762398574502, -0.3670110383664723, 192.0, 126.5, 40.0, 14.0, 104.0, 122.0, 72.0, 0.0, 0.0, 0.0, 1.741901256041213E9, 0.0, 2025-03-13 16:27:36.041
102.0, -33253.33842674952, -21287.60025353435, -35366.36058883197, -21239.789872144447, -43310.7740653484, -32406.631995038035, -42138.11214424517, -15833.416978528141, -29313.485838590368, -30973.259326608102, -36921.12558139868, -17257.93835615377, -26347.65521856013, -41149.42743175357, -39327.939072601686, -187500.02235174447, -0.08106733340537176, 0.9201762398574502, -0.3670110383664723, 192.0, 0.0, 0.0, 0.0, 0.0, 0.0, 0.0, 0.0, 0.0, 0.0, 1.741901256043321E9, 0.0, 2025-03-13 16:27:36.043
104.0, -33270.16929032437, -21295.98215770509, -35376.55298430359, -21223.406043458708, -43324.72155388851, -32384.235547093816, -42133.328870931735, -15821.615257455738, -29321.152486938536, -30983.831701735464, -36932.88259898217, -17267.23668184718, -26361.535651866874, -41153.85307715572, -39327.1344098013, -187500.02235174447, -0.08106733340537176, 0.9201762398574502, -0.3670110383664723, 192.0, 0.0, 0.0, 0.0, 0.0, 0.0, 0.0, 0.0, 0.0, 0.0, 1.741901256091892E9, 0.0, 2025-03-13 16:27:36.091
106.0, -33260.87096463096, -21294.775163504502, -35372.753187746195, -21246.83067164787, -43319.29007998587, -32400.485265312826, -42127.36095516216, -15818.977751610013, -29325.153449196037, -30987.698553526232, -36933.530799571374, -17272.332879582988, -26352.77376804039, -41154.881257400666, -39332.20825579265, -187500.02235174447, -0.08106733340537176, 0.9201762398574502, -0.3670110383664723, 192.0, 0.0, 0.0, 0.0, 0.0, 0.0, 0.0, 0.0, 0.0, 0.0, 1.741901256093851E9, 0.0, 2025-03-13 16:27:36.093
108.0, -33257.92053436286, -21283.040497665464, -35367.18760337682, -21225.283589992952, -43311.53402465988, -32373.126730099528, -42113.14524568859, -15803.353882235753, -29317.285635147768, -30983.049390679527, -36927.36171810171, -17267.21433010272, -26352.818471529303, -41155.03771961185, -39322.59700567687, -187500.02235174447, -0.08106733340537176, 0.9201762398574502, -0.3670110383664723, 192.0, 0.0, 0.0, 0.0, 0.0, 0.0, 0.0, 0.0, 0.0, 0.0, 1.741901256095717E9, 0.0, 2025-03-13 16:27:36.095
110.0, -33242.16255452187, -21276.245567351052, -35356.57052476055, -21233.82195637488, -43305.767274590406, -32386.716590728356, -42110.66420205405, -15807.846582871269, -29309.484876332866, -30968.252535850115, -36911.939014427546, -17251.23283281718, -26343.78836676936, -41143.057184583806, -39318.37252597482, -187500.02235174447, -0.07953366670268588, 0.9200881199287252, -0.36450551918323615, 192.0, 126.5, 72.0, 14.0, 96.0, 122.0, 88.0, 0.0, 0.0, 0.0, 1.741901256097634E9, 0.0, 2025-03-13 16:27:36.097
112.0, -33246.588199924015, -21275.105628383833, -35361.86788819646, -21221.10381377981, -43309.45531242553, -32377.21709933485, -42114.2404811669, -15806.41607122613, -29305.349803608635, -30977.617916776886, -36914.040078406346, -17257.021934631102, -26343.207221413522, -41154.05424285582, -39318.149008530265, -187500.02235174447, -0.07953366670268588, 0.9200881199287252, -0.36450551918323615, 192.0, 0.0, 0.0, 0.0, 0.0, 0.0, 0.0, 0.0, 0.0, 0.0, 1.741901256099642E9, 0.0, 2025-03-13 16:27:36.099
114.0, -33241.15672602138, -21272.043439393456, -35360.12445212894, -21230.089215050844, -43306.05784726833, -32390.292869841203, -42115.425123623034, -15809.83588812779, -29310.267187388803, -30972.812291718998, -36908.63095624816, -17252.171606084303, -26347.27523890439, -41144.62180669568, -39326.7320784011, -187500.02235174447, -0.07953366670268588, 0.9200881199287252, -0.36450551918323615, 192.0, 0.0, 0.0, 0.0, 0.0, 0.0, 0.0, 0.0, 0.0, 0.0, 1.741901256101519E9, 0.0, 2025-03-13 16:27:36.101
116.0, -33245.895295845905, -21271.954032415633, -35365.33240858703, -21219.740357368035, -43308.76240834742, -32383.967326160353, -42121.23657718141, -15811.042882328378, -29301.99704194034, -30970.75593122911, -36908.89917718162, -17251.433998517277, -26347.65521856013, -41145.962911363, -39323.3346132439, -187500.02235174447, -0.07953366670268588, 0.9200881199287252, -0.36450551918323615, 192.0, 0.0, 0.0, 0.0, 0.0, 0.0, 0.0, 0.0, 0.0, 0.0, 1.741901256103429E9, 0.0, 2025-03-13 16:27:36.103
118.0, -33234.9429410628, -21265.427323034684, -35361.08557714052, -21218.04162478943, -43306.3707716907, -32382.737980215312, -42112.16176893256, -15804.98555958099, -29309.037841443762, -30968.610163761397, -36907.44631379203, -17247.07540834849, -26341.597895812738, -41143.03483283935, -39329.54839820247, -187500.02235174447, -0.07953366670268588, 0.9200881199287252, -0.36450551918323615, 192.0, 0.0, 0.0, 0.0, 0.0, 0.0, 0.0, 0.0, 0.0, 0.0, 1.741901256105294E9, 0.0, 2025-03-13 16:27:36.105
120.0, -33241.46965044375, -21273.004564405033, -35369.80275747809, -21232.30203775192, -43313.456274683034, -32396.66311701097, -42125.081077227725, -15815.80380389736, -29302.80170474073, -30972.99110567464, -36913.056601650314, -17253.31154505152, -26342.402558613132, -41146.968739863485, -39331.44829648117, -187500.02235174447, -0.07976683335134294, 0.9160440599643627, -0.36425275959161807, 192.0, 126.5, 64.0, 14.0, 64.0, 122.0, 80.0, 0.0, 0.0, 0.0, 1.741901256152071E9, 0.0, 2025-03-13 16:27:36.152
122.0, -33232.752470106185, -21263.214500333608, -35360.303266084586, -21231.43031971816, -43305.29788795685, -32389.667020996458, -42118.509664357865, -15811.780489895404, -29311.40712635602, -30973.88517545285, -36911.60373826072, -17254.69735320775, -26345.867079003703, -41147.97456836398, -39341.39482276378, -187500.02235174447, -0.07976683335134294, 0.9160440599643627, -0.36425275959161807, 192.0, 0.0, 0.0, 0.0, 0.0, 0.0, 0.0, 0.0, 0.0, 0.0, 1.741901256154182E9, 0.0, 2025-03-13 16:27:36.154
124.0, -33240.70969113227, -21272.468122538106, -35368.95339118879, -21232.793776129936, -43316.36200146222, -32395.16555013246, -42132.65831859807, -15820.922353377624, -29294.732724992362, -30970.621820762375, -36904.3617730572, -17249.735265938674, -26335.69703527654, -41152.422565510584, -39331.47064822562, -187500.02235174447, -0.07976683335134294, 0.9160440599643627, -0.36425275959161807, 192.0, 0.0, 0.0, 0.0, 0.0, 0.0, 0.0, 0.0, 0.0, 0.0, 1.741901256156165E9, 0.0, 2025-03-13 16:27:36.156
126.0, -33241.31318823257, -21269.49534052555, -35372.44026332382, -21226.848212104826, -43315.15500726164, -32391.723381486343, -42127.56212086226, -15819.380083010208, -29316.413917114012, -30977.79673073253, -36916.83404646326, -17259.145350354356, -26357.51233786492, -41154.523629489384, -39349.44145076769, -187500.02235174447, -0.07976683335134294, 0.9160440599643627, -0.36425275959161807, 192.0, 0.0, 0.0, 0.0, 0.0, 0.0, 0.0, 0.0, 0.0, 0.0, 1.741901256158064E9, 0.0, 2025-03-13 16:27:36.158
128.0, -33240.70969113227, -21275.999698162046, -35376.95531570379, -21238.091139565844, -43315.75850436193, -32398.94299494541, -42139.14032449011, -15830.041865115389, -29304.254568130324, -30974.734541742153, -36912.6095667612, -17254.183263085277, -26356.59591634225, -41150.120335831685, -39339.673738440724, -187500.02235174447, -0.07976683335134294, 0.9160440599643627, -0.36425275959161807, 192.0, 0.0, 0.0, 0.0, 0.0, 0.0, 0.0, 0.0, 0.0, 0.0, 1.741901256159948E9, 0.0, 2025-03-13 16:27:36.159
130.0, -33251.706749404286, -21281.319413342408, -35379.63752503843, -21229.843345861835, -43320.69823988655, -32385.241375594305, -42128.61265285166, -15821.481146989006, -29315.877475247085, -30974.89100395334, -36912.18488361655, -17254.295021807557, -26361.110968722223, -41151.662606199105, -39350.29081705699, -187500.02235174447, -0.07988341667567148, 0.9130220299821814, -0.36412637979580903, 192.0, 126.5, 64.0, 14.0, 56.0, 122.0, 80.0, 0.0, 0.0, 0.0, 1.741901256161828E9, 0.0, 2025-03-13 16:27:36.161
132.0, -33247.72813889124, -21279.844198208357, -35376.70944651478, -21249.021142604488, -43314.46210318353, -32397.780704233734, -42130.601958108185, -15822.17405106712, -29314.983405468873, -30979.3613528444, -36919.3150900978, -17261.291117822067, -26362.586183856274, -41159.61982722519, -39345.52989548801, -187500.02235174447, -0.07988341667567148, 0.9130220299821814, -0.36412637979580903, 192.0, 0.0, 0.0, 0.0, 0.0, 0.0, 0.0, 0.0, 0.0, 0.0, 1.741901256163863E9, 0.0, 2025-03-13 16:27:36.163
134.0, -33252.53376394913, -21276.759657473525, -35373.62490577995, -21225.708273137603, -43307.37660019119, -32376.30067781218, -42122.555330104275, -15811.333455006297, -29314.804591513228, -30969.16895737278, -36911.447276049534, -17251.433998517277, -26355.008942485925, -41145.40411775161, -39340.14312507428, -187500.02235174447, -0.07988341667567148, 0.9130220299821814, -0.36412637979580903, 192.0, 0.0, 0.0, 0.0, 0.0, 0.0, 0.0, 0.0, 0.0, 0.0, 1.741901256212186E9, 0.0, 2025-03-13 16:27:36.212
136.0, -33247.75049063569, -21280.581805775382, -35373.42374007985, -21240.840404133847, -43307.801283335844, -32397.93716644492, -42124.61169059416, -15816.966094609035, -29302.868759974095, -30973.88517545285, -36906.99927890293, -17252.26101306212, -26346.470576103995, -41148.60041720873, -39333.45995348215, -187500.02235174447, -0.07988341667567148, 0.9130220299821814, -0.36412637979580903, 192.0, 0.0, 0.0, 0.0, 0.0, 0.0, 0.0, 0.0, 0.0, 0.0, 1.741901256214184E9, 0.0, 2025-03-13 16:27:36.214
138.0, -33250.56681043706, -21274.479779539084, -35374.29545811361, -21223.741319625537, -43305.834329823774, -32374.378427789026, -42112.29587939929, -15803.935027591591, -29318.649091559542, -30984.94928895823, -36919.53860754235, -17264.04038239007, -26360.999209999947, -41159.10573710272, -39344.03232860951, -187500.02235174447, -0.07988341667567148, 0.9130220299821814, -0.36412637979580903, 192.0, 0.0, 0.0, 0.0, 0.0, 0.0, 0.0, 0.0, 0.0, 0.0, 1.741901256216052E9, 0.0, 2025-03-13 16:27:36.216
140.0, -33239.592103909505, -21274.323317327897, -35368.77457723315, -21239.476947722073, -43310.01410603692, -32387.923584928943, -42127.53976911781, -15813.0321875849, -29292.050515657727, -30957.344884555925, -36897.030400875854, -17241.80039665704, -26330.22085788499, -41127.410963465096, -39321.76999113202, -187500.02235174447, -0.08194170833783573, 0.9115110149910908, -0.36506318989790454, 192.0, 126.5, 48.0, 14.0, 56.0, 122.0, 72.0, 0.0, 0.0, 0.0, 1.741901256217913E9, 0.0, 2025-03-13 16:27:36.217
142.0, -33256.244153528714, -21277.139637129265, -35377.2011848928, -21227.11643303829, -43325.16858877762, -32369.30458179767, -42120.83424578122, -15807.399547982162, -29312.681175789974, -30973.773416730575, -36921.28204360986, -17259.21240558772, -26347.923439493592, -41147.259312541406, -39340.992491363584, -187500.02235174447, -0.08194170833783573, 0.9115110149910908, -0.36506318989790454, 192.0, 0.0, 0.0, 0.0, 0.0, 0.0, 0.0, 0.0, 0.0, 0.0, 1.741901256219945E9, 0.0, 2025-03-13 16:27:36.219
144.0, -33231.79134509461, -21262.409837533218, -35356.726986971735, -21232.48085170756, -43311.28815547087, -32381.665096481454, -42117.70500155747, -15802.772736879915, -29298.64428027204, -30961.50230902461, -36914.15183712862, -17247.768312426604, -26336.769919010392, -41141.26904502738, -39326.955595845655, -187500.02235174447, -0.08194170833783573, 0.9115110149910908, -0.36506318989790454, 192.0, 0.0, 0.0, 0.0, 0.0, 0.0, 0.0, 0.0, 0.0, 0.0, 1.741901256221866E9, 0.0, 2025-03-13 16:27:36.221
146.0, -33243.61541791146, -21264.712067212113, -35363.164289374865, -21207.1563252397, -43325.682678900084, -32365.370674773538, -42120.23074868092, -15800.98459732349, -29291.7152394909, -30954.55091649901, -36912.855435950216, -17240.615754200906, -26327.583352039263, -41132.26129201189, -39317.232587007595, -187500.02235174447, -0.08194170833783573, 0.9115110149910908, -0.36506318989790454, 192.0, 0.0, 0.0, 0.0, 0.0, 0.0, 0.0, 0.0, 0.0, 0.0, 1.741901256223814E9, 0.0, 2025-03-13 16:27:36.223
148.0, -33233.043042784106, -21260.711104954615, -35356.12348987145, -21230.648008662225, -43327.04613531186, -32387.40949480647, -42123.98584174941, -15810.528792205907, -29292.385791824556, -30954.32739905446, -36918.95746218651, -17242.493300735154, -26321.12369789168, -41132.216588522984, -39322.10526729885, -187500.02235174447, -0.08194170833783573, 0.9115110149910908, -0.36506318989790454, 192.0, 0.0, 0.0, 0.0, 0.0, 0.0, 0.0, 0.0, 0.0, 0.0, 1.741901256225702E9, 0.0, 2025-03-13 16:27:36.225
150.0, -33244.844763856505, -21259.258241565018, -35359.811527706566, -21214.264179976486, -43331.225911525005, -32373.03732312171, -42133.37357442064, -15811.17699279511, -29289.770637723286, -30954.75208219911, -36922.10905815471, -17245.51078623662, -26319.760241479904, -41136.03873682484, -39314.12569452831, -187500.02235174447, -0.08297085416891786, 0.9087555074955453, -0.36553159494895227, 192.0, 126.5, 48.0, 14.0, 40.0, 122.0, 72.0, 0.0, 0.0, 0.0, 1.741901256272803E9, 0.0, 2025-03-13 16:27:36.272
152.0, -33222.98475777922, -21245.82484314738, -35343.04771936509, -21227.809337116403, -43315.423228195104, -32379.206404591372, -42112.407638121564, -15797.095393788266, -29287.93779467795, -30949.007683874093, -36917.34813658573, -17240.07931233398, -26313.077069887768, -41126.42748670906, -39317.83608410789, -187500.02235174447, -0.08297085416891786, 0.9087555074955453, -0.36553159494895227, 192.0, 0.0, 0.0, 0.0, 0.0, 0.0, 0.0, 0.0, 0.0, 0.0, 1.741901256274941E9, 0.0, 2025-03-13 16:27:36.274
154.0, -33244.50948768968, -21258.699447953637, -35359.096271884, -21207.268083961975, -43322.01699280942, -32359.000427603776, -42122.46592312645, -15801.208114768044, -29278.281841073258, -30946.638398961833, -36916.1634941296, -17238.51469022211, -26306.840933184736, -41127.6568326541, -39306.123770013306, -187500.02235174447, -0.08297085416891786, 0.9087555074955453, -0.36553159494895227, 192.0, 0.0, 0.0, 0.0, 0.0, 0.0, 0.0, 0.0, 0.0, 0.0, 1.741901256276854E9, 0.0, 2025-03-13 16:27:36.276
156.0, -33238.139240519915, -21257.000715375034, -35355.117661370954, -21238.359360499308, -43317.63605089617, -32385.26372733876, -42121.72831555943, -15806.259609014942, -29295.157408137016, -30960.56353575749, -36930.535665814365, -17256.93252765328, -26323.64944501513, -41134.63057692416, -39325.07804931141, -187500.02235174447, -0.08297085416891786, 0.9087555074955453, -0.36553159494895227, 192.0, 0.0, 0.0, 0.0, 0.0, 0.0, 0.0, 0.0, 0.0, 0.0, 1.741901256278783E9, 0.0, 2025-03-13 16:27:36.278
158.0, -33248.555153436086, -21259.951145643136, -35357.26342883866, -21224.098947536822, -43323.67102189911, -32370.533927742712, -42130.110219730166, -15807.578361937805, -29286.864910944096, -30955.80261418851, -36925.75239250093, -17257.245452075655, -26313.948787921523, -41133.28947225684, -39315.51150268454, -187500.02235174447, -0.08297085416891786, 0.9087555074955453, -0.36553159494895227, 192.0, 0.0, 0.0, 0.0, 0.0, 0.0, 0.0, 0.0, 0.0, 0.0, 1.741901256280694E9, 0.0, 2025-03-13 16:27:36.280
160.0, -33254.18779303882, -21274.16685511671, -35361.912591685366, -21243.455558235117, -43326.66615565612, -32388.303564584683, -42134.2452924544, -15820.721187677525, -29296.27499535978, -30957.59075374493, -36926.15472390112, -17258.36303929842, -26315.088726888745, -41132.149533289616, -39313.946880572665, -187500.02235174447, -0.08448542708445894, 0.9093777537477727, -0.36576579747447613, 192.0, 126.5, 40.0, 14.0, 56.0, 122.0, 72.0, 0.0, 0.0, 0.0, 1.741901256282558E9, 0.0, 2025-03-13 16:27:36.282
162.0, -33247.12464179094, -21262.83452067787, -35355.07295788205, -21228.211668516597, -43320.944109075564, -32363.40372126147, -42122.980013248925, -15801.096356045766, -29294.039820914248, -30967.22435560517, -36930.69212802555, -17265.89557717986, -26318.799116468326, -41146.92403637458, -39317.59021491888, -187500.02235174447, -0.08448542708445894, 0.9093777537477727, -0.36576579747447613, 192.0, 0.0, 0.0, 0.0, 0.0, 0.0, 0.0, 0.0, 0.0, 0.0, 1.741901256284597E9, 0.0, 2025-03-13 16:27:36.284
164.0, -33246.83406911303, -21264.26503232301, -35358.91745792836, -21235.1630610422, -43321.10057128675, -32377.574727246134, -42122.33181265972, -15806.885457859691, -29292.87753020257, -30954.685026965744, -36922.01965117689, -17252.015143873115, -26314.239360599444, -41121.890082584636, -39317.50080794106, -187500.02235174447, -0.08448542708445894, 0.9093777537477727, -0.36576579747447613, 192.0, 0.0, 0.0, 0.0, 0.0, 0.0, 0.0, 0.0, 0.0, 0.0, 1.741901256332054E9, 0.0, 2025-03-13 16:27:36.332
166.0, -33249.38216798093, -21264.175625345186, -35363.96895217526, -21228.59164817234, -43325.839141111275, -32371.02566612073, -42122.91295801556, -15805.589056681283, -29289.59182376764, -30960.09414912393, -36929.127505913675, -17258.050114876045, -26317.323901334275, -41137.35748974771, -39321.702935898655, -187500.02235174447, -0.08448542708445894, 0.9093777537477727, -0.36576579747447613, 192.0, 0.0, 0.0, 0.0, 0.0, 0.0, 0.0, 0.0, 0.0, 0.0, 1.74190125633413E9, 0.0, 2025-03-13 16:27:36.334
168.0, -33246.27527550164, -21263.460369522618, -35362.538440530116, -21232.167927285187, -43323.738077132475, -32369.88572715351, -42121.303632414776, -15804.717338647526, -29300.432419828467, -30958.149547356315, -36930.84859023674, -17258.02776313159, -26324.476459559974, -41128.12621928766, -39330.33070925841, -187500.02235174447, -0.08448542708445894, 0.9093777537477727, -0.36576579747447613, 192.0, 0.0, 0.0, 0.0, 0.0, 0.0, 0.0, 0.0, 0.0, 0.0, 1.741901256336025E9, 0.0, 2025-03-13 16:27:36.336
170.0, -33248.622208669454, -21266.075523623887, -35366.13707138742, -21237.82291863238, -43329.28130975739, -32377.194747590394, -42127.89739702909, -15810.595847439272, -29290.128265634572, -30961.837585191442, -36930.44625883654, -17259.74884745465, -26321.414270569596, -41136.79869613632, -39328.47551446861, -187500.02235174447, -0.08, 0.912, -0.364, 192.0, 126.5, 64.0, 14.0, 64.0, 122.0, 80.0, 0.0, 0.0, 0.0, 1.741901256337916E9, 0.0, 2025-03-13 16:27:36.337
172.0, -33252.86904011596, -21268.958898658624, -35369.042798166614, -21232.525555196473, -43330.7788766359, -32374.780759189223, -42124.5446353608, -15812.182821295599, -29297.973727938384, -30960.09414912393, -36927.45112507953, -17256.731361953185, -26318.285026345853, -41133.960024590495, -39331.02361333652, -187500.02235174447, -0.08, 0.912, -0.364, 192.0, 0.0, 0.0, 0.0, 0.0, 0.0, 0.0, 0.0, 0.0, 0.0, 1.741901256339941E9, 0.0, 2025-03-13 16:27:36.339
174.0, -33255.30538026159, -21275.932642928678, -35372.30615285708, -21242.53913671245, -43334.06458307083, -32383.967326160353, -42133.37357442064, -15816.675521931116, -29294.688021503454, -30967.581983516455, -36933.64255829365, -17265.80617020204, -26324.990549682447, -41142.72190841698, -39333.6834709267, -187500.02235174447, -0.08, 0.912, -0.364, 192.0, 0.0, 0.0, 0.0, 0.0, 0.0, 0.0, 0.0, 0.0, 0.0, 1.741901256341848E9, 0.0, 2025-03-13 16:27:36.341
176.0, -33256.75824365118, -21274.435076050173, -35369.98157143373, -21237.062959320898, -43323.6263184102, -32372.5902882326, -42123.114123715655, -15810.12646080571, -29308.724917021387, -30972.65582950781, -36937.6211688067, -17270.455333048743, -26332.657198030618, -41147.37107126368, -39339.673738440724, -187500.02235174447, -0.08, 0.912, -0.364, 192.0, 0.0, 0.0, 0.0, 0.0, 0.0, 0.0, 0.0, 0.0, 0.0, 1.741901256343737E9, 0.0, 2025-03-13 16:27:36.343
178.0, -33247.79519412461, -21271.194073104154, -35362.85136495249, -21247.85885189281, -43320.2735567419, -32389.39880006299, -42123.96349000496, -15814.820327141326, -29292.206977868915, -30971.65000100732, -36929.26161638041, -17267.259033591632, -26322.35304383672, -41142.83366713925, -39330.44246798068, -187500.02235174447, -0.08, 0.912, -0.364, 192.0, 0.0, 0.0, 0.0, 0.0, 0.0, 0.0, 0.0, 0.0, 0.0, 1.741901256345649E9, 0.0, 2025-03-13 16:27:36.345
180.0, -33256.11004306198, -21270.277651581484, -35366.62880976544, -21240.505127967015, -43324.11805678822, -32377.641782479503, -42126.86921678415, -15812.674559673616, -29303.539312307756, -30974.980410931163, -36931.519142570396, -17268.577786514496, -26326.64457877214, -41144.39828925113, -39335.628072694315, -187500.02235174447, -0.08, 0.918, -0.372, 192.0, 126.5, 64.0, 14.0, 88.0, 122.0, 48.0, 0.0, 0.0, 0.0, 1.741901256391812E9, 0.0, 2025-03-13 16:27:36.391
182.0, -33257.78642389613, -21280.40299181974, -35372.17204239035, -21262.052209621932, -43334.19869353756, -32398.45125656739, -42137.28512970032, -15823.962190623546, -29293.95041393643, -30976.94736444323, -36930.78153500337, -17270.723553982207, -26320.810773469304, -41148.60041720873, -39335.5833692054, -187500.02235174447, -0.08, 0.918, -0.372, 192.0, 0.0, 0.0, 0.0, 0.0, 0.0, 0.0, 0.0, 0.0, 0.0, 1.741901256393934E9, 0.0, 2025-03-13 16:27:36.393
184.0, -33257.853479129495, -21272.713991727112, -35370.60742027848, -21243.992000102044, -43329.43777196858, -32376.68065746792, -42125.01402199436, -15809.992350338978, -29302.667594273997, -30977.193233632235, -36934.17900016058, -17270.723553982207, -26322.129526392167, -41149.986225364955, -39339.51727622953, -187500.02235174447, -0.08, 0.918, -0.372, 192.0, 0.0, 0.0, 0.0, 0.0, 0.0, 0.0, 0.0, 0.0, 0.0, 1.741901256395827E9, 0.0, 2025-03-13 16:27:36.395
186.0, -33255.9982843397, -21278.63720400777, -35375.79302499211, -21264.376791045284, -43332.72347840351, -32404.754448503787, -42137.21807446695, -15825.258591801954, -29299.001908183327, -30985.776303503077, -36938.582293818276, -17276.825580218505, -26325.102308404723, -41159.351606291726, -39337.84089539539, -187500.02235174447, -0.08, 0.918, -0.372, 192.0, 0.0, 0.0, 0.0, 0.0, 0.0, 0.0, 0.0, 0.0, 0.0, 1.741901256397739E9, 0.0, 2025-03-13 16:27:36.397
188.0, -33258.56873495206, -21273.809227205424, -35378.49758607121, -21242.650895434726, -43339.56311220683, -32376.07716036763, -42132.72537383144, -15813.300408518364, -29303.98634719686, -30979.450759822223, -36937.799982762335, -17273.2269493612, -26329.97498869598, -41155.350644034224, -39339.047889595975, -187500.02235174447, -0.08, 0.918, -0.372, 192.0, 0.0, 0.0, 0.0, 0.0, 0.0, 0.0, 0.0, 0.0, 0.0, 1.741901256399687E9, 0.0, 2025-03-13 16:27:36.399
190.0, -33247.3481592355, -21273.943337672157, -35371.970876690255, -21261.471064266094, -43336.29975751636, -32396.84193096661, -42132.345394175696, -15818.351902765264, -29292.542254035743, -30976.232108620658, -36934.246055393945, -17273.47281855021, -26317.078032145266, -41151.729661432466, -39340.523104730026, -187500.02235174447, -0.082, 0.916, -0.372, 192.0, 126.5, 56.0, 14.0, 80.0, 122.0, 48.0, 0.0, 0.0, 0.0, 1.741901256401557E9, 0.0, 2025-03-13 16:27:36.401
192.0, -33251.684397659825, -21269.540044014462, -35370.0486266671, -21241.935639612155, -43331.11415280273, -32373.350247544084, -42119.85076902518, -15804.158545036144, -29296.453809315422, -30976.32151559848, -36935.67656703908, -17274.61275751743, -26324.945846193536, -41147.57223696378, -39342.825334408924, -187500.02235174447, -0.082, 0.916, -0.372, 192.0, 0.0, 0.0, 0.0, 0.0, 0.0, 0.0, 0.0, 0.0, 0.0, 1.741901256403555E9, 0.0, 2025-03-13 16:27:36.403
194.0, -33239.70386263178, -21264.91323291221, -35359.118623628456, -21255.63725896326, -43316.116132273215, -32392.036305908718, -42118.55436784677, -15809.791184638882, -29286.17200686598, -30968.52075678358, -36922.75725874391, -17264.12978936789, -26313.144125121133, -41143.0124810949, -39327.53674120149, -187500.02235174447, -0.082, 0.916, -0.372, 192.0, 0.0, 0.0, 0.0, 0.0, 0.0, 0.0, 0.0, 0.0, 0.0, 1.741901256452106E9, 0.0, 2025-03-13 16:27:36.452
196.0, -33257.74172040722, -21270.43411379267, -35371.81441447907, -21241.10862506731, -43329.326013246304, -32377.68648596841, -42127.91974877355, -15810.282923016897, -29297.593748282645, -30972.45466380771, -36932.18969490405, -17268.08604813648, -26328.3656630952, -41146.63346369666, -39334.06345058244, -187500.02235174447, -0.082, 0.916, -0.372, 192.0, 0.0, 0.0, 0.0, 0.0, 0.0, 0.0, 0.0, 0.0, 0.0, 1.741901256454097E9, 0.0, 2025-03-13 16:27:36.454
198.0, -33257.87583087395, -21282.995794176557, -35372.93200170183, -21270.322355070395, -43331.74000164748, -32411.772896262755, -42136.23459771092, -15828.924277892624, -29307.09323967615, -30986.17863490327, -36940.72806128598, -17278.680775008295, -26334.02065444239, -41159.485716758456, -39344.859343154356, -187500.02235174447, -0.082, 0.916, -0.372, 192.0, 0.0, 0.0, 0.0, 0.0, 0.0, 0.0, 0.0, 0.0, 0.0, 1.741901256455989E9, 0.0, 2025-03-13 16:27:36.455
200.0, -33254.9477523503, -21271.43994229316, -35365.44416730931, -21240.594534944838, -43324.31922248832, -32383.36382906006, -42127.20449295098, -15812.004007339956, -29299.94068145045, -30986.491559325645, -36935.967139717, -17278.32314709701, -26326.577523538774, -41161.40796678162, -39338.82437215142, -187500.02235174447, -0.08, 0.916, -0.374, 192.0, 126.5, 64.0, 14.0, 80.0, 122.0, 40.0, 0.0, 0.0, 0.0, 1.741901256457886E9, 0.0, 2025-03-13 16:27:36.457
202.0, -33248.17517378034, -21273.20573010513, -35359.252734095186, -21254.92200314069, -43319.15596951914, -32402.16164614697, -42123.42704813803, -15816.630818442205, -29301.393544840044, -30981.395361589835, -36927.74169775745, -17273.204597616746, -26330.265561373897, -41148.53336197536, -39338.22087505113, -187500.02235174447, -0.08, 0.916, -0.374, 192.0, 0.0, 0.0, 0.0, 0.0, 0.0, 0.0, 0.0, 0.0, 0.0, 1.741901256459872E9, 0.0, 2025-03-13 16:27:36.459
204.0, -33256.57942969554, -21272.73634347157, -35364.639504508916, -21236.258296520507, -43329.14719929066, -32375.45131152288, -42125.505760372376, -15809.768832894426, -29298.13019014957, -30975.22628012017, -36922.0643546658, -17265.537949268575, -26325.750508993926, -41147.125202074676, -39330.04013658049, -187500.02235174447, -0.08, 0.916, -0.374, 192.0, 0.0, 0.0, 0.0, 0.0, 0.0, 0.0, 0.0, 0.0, 0.0, 1.741901256461755E9, 0.0, 2025-03-13 16:27:36.461
206.0, -33244.62124641195, -21264.68971546766, -35357.643408494405, -21248.372942015285, -43319.826521852796, -32388.50473028478, -42120.610728336665, -15809.053577071856, -29309.99896645534, -30976.813253976496, -36925.88650296766, -17268.242510347667, -26342.11198593521, -41149.270969542384, -39338.95848261815, -187500.02235174447, -0.08, 0.916, -0.374, 192.0, 0.0, 0.0, 0.0, 0.0, 0.0, 0.0, 0.0, 0.0, 0.0, 1.741901256463662E9, 0.0, 2025-03-13 16:27:36.463
208.0, -33248.421042969356, -21263.72859045608, -35360.68324574033, -21226.04354930443, -43324.94507133306, -32371.11507309855, -42119.269623669345, -15801.453983957052, -29294.218634869892, -30967.827852705464, -36918.443372064045, -17262.006373644635, -26322.889485703647, -41140.330271760264, -39327.42498247921, -187500.02235174447, -0.08, 0.916, -0.374, 192.0, 0.0, 0.0, 0.0, 0.0, 0.0, 0.0, 0.0, 0.0, 0.0, 1.74190125646557E9, 0.0, 2025-03-13 16:27:36.465
210.0, -33238.80979285357, -21260.532290998974, -35358.73864397271, -21239.566354699895, -43317.25607124044, -32386.269555839248, -42120.36485914765, -15805.343187492275, -29301.95233845143, -30970.711227740198, -36920.11975289819, -17260.374696299397, -26328.991511939945, -41143.16894330608, -39334.9351686162, -187500.02235174447, -0.078, 0.918, -0.364, 192.0, 126.5, 72.0, 14.0, 88.0, 122.0, 80.0, 0.0, 0.0, 0.0, 1.74190125651222E9, 0.0, 2025-03-13 16:27:36.512
212.0, -33244.33067373403, -21258.766503187002, -35367.34406558801, -21229.48571795055, -43325.213292266526, -32380.36869530305, -42126.958623761966, -15807.399547982162, -29291.536425535254, -30971.158262629306, -36919.136276142155, -17255.07733286349, -26329.751471251428, -41141.91724561659, -39328.60962493534, -187500.02235174447, -0.078, 0.918, -0.364, 192.0, 0.0, 0.0, 0.0, 0.0, 0.0, 0.0, 0.0, 0.0, 0.0, 1.741901256514336E9, 0.0, 2025-03-13 16:27:36.514
214.0, -33231.05373752758, -21248.887032137758, -35357.26342883866, -21231.095043551333, -43308.650649625146, -32375.473663267338, -42112.273527654834, -15798.637664155684, -29296.18558838196, -30960.183556101747, -36915.00120341792, -17245.51078623662, -26330.511430562907, -41127.120390787175, -39324.80982837795, -187500.02235174447, -0.078, 0.918, -0.364, 192.0, 0.0, 0.0, 0.0, 0.0, 0.0, 0.0, 0.0, 0.0, 0.0, 1.741901256516238E9, 0.0, 2025-03-13 16:27:36.516
