%OpenBCI Raw EXG Data
%Number of channels = 16
%Sample Rate = 125 Hz
%Board = OpenBCI_GUI$BoardCytonSerialDaisy
Sample Index, EXG Channel 0, EXG Channel 1, EXG Channel 2, EXG Channel 3, EXG Channel 4, EXG Channel 5, EXG Channel 6, EXG Channel 7, EXG Channel 8, EXG Channel 9, EXG Channel 10, EXG Channel 11, EXG Channel 12, EXG Channel 13, EXG Channel 14, EXG Channel 15, Accel Channel 0, Accel Channel 1, Accel Channel 2, Not Used, Digital Channel 0 (D11), Digital Channel 1 (D12), Digital Channel 2 (D13), Digital Channel 3 (D17), Not Used, Digital Channel 4 (D18), Analog Channel 0, Analog Channel 1, Analog Channel 2, Timestamp, Marker Channel, Timestamp (Formatted)
0.0, 11333.407322574536, 18684.22552159137, -8956.522817197183, 2154.864627702788, 10919.11773909542, 5370.788916443457, 2696.8273755106184, 16810.27761820288, 0.0, 0.0, 0.0, 0.0, 0.0, 0.0, 0.0, 0.0, 0.0, 0.0, 0.0, 192.0, 0.0, 0.0, 0.0, 0.0, 0.0, 0.0, 0.0, 0.0, 0.0, 1.741985916838032E9, 0.0, 2025-03-14 15:58:36.838
44.0, 11330.47924405089, 18680.246911078324, -8962.49073296675, 2152.6741567461677, 10915.407349515837, 5368.598445486838, 2697.386169122001, 16814.23387697147, 46047.476952967285, -3221.0651899653903, 22606.353176397464, 36569.95732426135, 8508.146823423724, -2210.9675062856086, 15765.780599806381, -16846.95683085404, 0.0, 0.0, 0.0, 192.0, 0.0, 0.0, 0.0, 0.0, 0.0, 0.0, 0.0, 0.0, 0.0, 1.74198591683836E9, 0.0, 2025-03-14 15:58:36.838
46.0, 11329.138139383573, 18679.3081378112, -8963.362451000507, 2146.058040387397, 10912.680436692292, 5372.487649022061, 2705.4998523592776, 16818.212487484514, 46045.68881341086, -3219.8581957648034, 22542.94127737776, 36524.359765572524, 8507.006884456503, -2213.5826603868795, 15767.479332384984, -16843.60406918574, 0.0, 0.0, 0.0, 192.0, 0.0, 0.0, 0.0, 0.0, 0.0, 0.0, 0.0, 0.0, 0.0, 1.74198591683873E9, 0.0, 2025-03-14 15:58:36.838
48.0, 11328.355828327636, 18678.525826755267, -8952.901834595423, 2150.3048718339055, 10915.20618381574, 5371.7723931994915, 2700.515413345744, 16813.160993237616, 46041.531388942174, -3222.361591143798, 22596.67487104832, 36566.06812072612, 8503.497660577019, -2215.9742970435973, 15754.44826536754, -16851.47188323401, 0.0, 0.0, 0.0, 192.0, 0.0, 0.0, 0.0, 0.0, 0.0, 0.0, 0.0, 0.0, 0.0, 1.7419859168391E9, 0.0, 2025-03-14 15:58:36.839
50.0, 11330.300430095247, 18680.3586698006, -8961.596663188537, 2146.61683399878, 10917.530765239093, 5372.353538555329, 2702.6164773245428, 16832.115272535717, 46042.984252331764, -3224.820283033882, 22555.882937417384, 36534.932140699886, 8508.906782735203, -2215.1696342432065, 15765.758248061926, -16848.677915177097, 0.01, 0.488, 0.083, 192.0, 0.0, 80.0, 15.0, 64.0, 2.5, 24.0, 0.0, 0.0, 0.0, 1.741985916839437E9, 0.0, 2025-03-14 15:58:36.839
52.0, 11336.737732498375, 18683.487914024343, -8936.29448846513, 2156.2280841145616, 10924.839785675978, 5376.242742090552, 2706.349218648579, 16815.954961294527, 46051.1202873135, -3219.813492275893, 22602.486324606696, 36562.871821269015, 8506.559849567397, -2208.6876283511674, 15778.096411001256, -16841.592412184764, 0.01, 0.488, 0.083, 192.0, 0.0, 0.0, 0.0, 0.0, 0.0, 0.0, 0.0, 0.0, 0.0, 1.741985916839819E9, 0.0, 2025-03-14 15:58:36.839
54.0, 11324.913659681519, 18669.719239439873, -8970.559712715116, 2138.190226339129, 10903.091538320963, 5360.305948293919, 2689.4065963514563, 16806.43311815657, 46048.86276112351, -3219.4782161090634, 22574.61369927093, 36542.91171347043, 8506.269276889478, -2215.571965643402, 15773.335489432275, -16847.023886087405, 0.01, 0.488, 0.083, 192.0, 0.0, 0.0, 0.0, 0.0, 0.0, 0.0, 0.0, 0.0, 0.0, 1.74198591684017E9, 0.0, 2025-03-14 15:58:36.840
56.0, 11342.146854656561, 18681.16333260099, -8937.233261732252, 2156.1386771367406, 10930.762997956634, 5371.191247843653, 2711.892451273495, 16823.263981731412, 46046.560531444615, -3227.9942307465353, 22584.31435636453, 36540.05069018015, 8501.642465787229, -2218.276526722494, 15764.12657071669, -16861.597223472265, 0.01, 0.488, 0.083, 192.0, 0.0, 0.0, 0.0, 0.0, 0.0, 0.0, 0.0, 0.0, 0.0, 1.741985916840539E9, 0.0, 2025-03-14 15:58:36.840
58.0, 11341.05161917825, 18677.609405232597, -8960.792000388146, 2151.9141974346876, 10920.078864106998, 5370.006605387522, 2704.9857622368054, 16814.85972581622, 46057.13290657198, -3214.2255561620664, 22584.1802458978, 36551.45007985235, 8506.515146078485, -2208.173538228695, 15785.651300627149, -16844.81106338633, 0.01, 0.488, 0.083, 192.0, 0.0, 0.0, 0.0, 0.0, 0.0, 0.0, 0.0, 0.0, 0.0, 1.741985916840902E9, 0.0, 2025-03-14 15:58:36.840
0.0, 5829.983154533285, 9546.072428950361, -4350.05180240295, 1056.499905168999, 5495.779871437535, 2671.4357938093895, 1424.3425636699872, 8404.971171018025, 23027.102414024164, -1605.436397246885, 11307.501650750835, 18291.371261044893, 4248.150199431205, -1100.4434347681326, 7888.690577589343, -8426.562956161852, -0.11, 0.962, 0.128, 192.0, 126.0, 72.0, 15.0, 8.0, 2.0, 0.0, 0.0, 0.0, 0.0, 1.741985916980862E9, 0.0, 2025-03-14 15:58:36.980
2.0, 11667.11886729227, 19101.1079074273, -8699.880087361347, 2120.4429412416152, 10996.521830144147, 5342.290442262941, 2851.568502374709, 16807.28248444587, 46117.34850613457, -3235.526768627974, 22489.140628473837, 40270.378025815255, 8479.53659052093, -2245.7915241469773, 15750.044971709845, -16839.200775528047, -0.11, 0.962, 0.128, 192.0, 0.0, 0.0, 0.0, 0.0, 0.0, 0.0, 0.0, 0.0, 0.0, 1.741985916981327E9, 0.0, 2025-03-14 15:58:36.981
4.0, 11659.563977666376, 19098.157477159202, -8726.098683607423, 2109.602345180791, 10981.300292170083, 5338.62475617227, 2840.3255749136897, 16800.2640366869, 46109.72656127531, -3228.1506929577226, 22462.989087461126, 40278.24583986352, 8473.501619517996, -2243.4669427236254, 15747.854500753225, -16839.021961572405, -0.11, 0.962, 0.128, 192.0, 0.0, 0.0, 0.0, 0.0, 0.0, 0.0, 0.0, 0.0, 0.0, 1.741985916981666E9, 0.0, 2025-03-14 15:58:36.981
6.0, 11668.5046754485, 19102.761936516996, -8705.132747308344, 2116.7772551509447, 10994.89015279891, 5347.252529532019, 2849.1992174624465, 16807.506001890422, 46114.77805552221, -3229.6035563473174, 22464.665468295272, 40273.06023514989, 8483.224628356056, -2243.5339979569912, 15737.192718648044, -16846.867423876218, -0.11, 0.962, 0.128, 192.0, 0.0, 0.0, 0.0, 0.0, 0.0, 0.0, 0.0, 0.0, 0.0, 1.741985916982019E9, 0.0, 2025-03-14 15:58:36.982
8.0, 11667.364736481279, 19097.710442270094, -8728.49032026414, 2113.312734760372, 10994.443117909805, 5344.682078919659, 2846.9863947613712, 16810.344673436248, 46115.53801483369, -3224.0826754668565, 22458.518738570063, 40281.553898042905, 8481.771764966461, -2234.6827071526895, 15748.25683215342, -16838.48551970548, -0.18, 0.9540000000000001, 0.106, 192.0, 125.0, 48.0, 14.5, 104.0, 1.5, 40.0, 0.0, 0.0, 0.0, 1.74198591698238E9, 0.0, 2025-03-14 15:58:36.982
10.0, 11677.937111608639, 19101.73375627205, -8690.626465156849, 2116.710199917579, 10992.610274864468, 5341.463427718095, 2844.9970895048486, 16802.65567334362, 46144.46117215886, -3226.9660505015913, 22469.471093353164, 40265.39358680172, 8489.907799948192, -2230.1229512838067, 15740.411369849608, -16841.74887439595, -0.18, 0.9540000000000001, 0.106, 192.0, 0.0, 0.0, 0.0, 0.0, 0.0, 0.0, 0.0, 0.0, 0.0, 1.741985916982759E9, 0.0, 2025-03-14 15:58:36.982
12.0, 11663.050849801404, 19095.095288168824, -8740.895538436835, 2103.969705578054, 10988.69871958479, 5329.371133967774, 2824.053504950226, 16785.780106279864, 46131.05012548568, -3229.4470941361305, 22466.565366573974, 40285.264287622485, 8478.217837598067, -2241.678803167201, 15738.779692504371, -16850.86838613372, -0.18, 0.9540000000000001, 0.106, 192.0, 0.0, 0.0, 0.0, 0.0, 0.0, 0.0, 0.0, 0.0, 0.0, 1.741985916983126E9, 0.0, 2025-03-14 15:58:36.983
14.0, 11679.233512787046, 19108.640445308738, -8718.29792479252, 2103.7908916224114, 10991.135059730419, 5330.868700846279, 2835.1399702000585, 16793.670272072588, 46126.31155566115, -3236.6667075951946, 22452.036732678025, 40247.4004325152, 8493.841706972325, -2250.530093971502, 15723.40169231912, -16858.91501413763, -0.18, 0.9540000000000001, 0.106, 192.0, 0.0, 0.0, 0.0, 0.0, 0.0, 0.0, 0.0, 0.0, 0.0, 1.741985916983474E9, 0.0, 2025-03-14 15:58:36.983
16.0, 11680.798134898918, 19117.804660535414, -8709.111357821388, 2119.414760996671, 11014.671446641856, 5341.508131207005, 2856.597644877153, 16811.238743214457, 46142.7400878358, -3227.100160968323, 22465.53718632903, 40279.676351508664, 8475.06624162987, -2243.9363293571864, 15752.481311855474, -16847.00153434295, -0.18, 0.9540000000000001, 0.106, 192.0, 0.0, 0.0, 0.0, 0.0, 0.0, 0.0, 0.0, 0.0, 0.0, 1.741985917041652E9, 0.0, 2025-03-14 15:58:37.041
18.0, 11667.342384736823, 19100.996148705024, -8727.35038129692, 2113.446845227104, 11010.581077406536, 5343.206863785608, 2846.472304638899, 16807.260132701413, 46134.13466622051, -3224.3061929114097, 22443.408959318276, 40244.382947013735, 8500.97191345357, -2235.308555997438, 15749.620288565195, -16852.05302858985, -0.216, 0.9400000000000001, 0.092, 192.0, 124.5, 32.0, 14.5, 48.0, 1.0, 112.0, 0.0, 0.0, 0.0, 1.741985917041937E9, 0.0, 2025-03-14 15:58:37.041
20.0, 11656.613547398276, 19088.434468321142, -8737.833349446459, 2105.869603856755, 11015.230240253239, 5342.938642852145, 2846.9193395280054, 16804.577923366778, 46130.13370396301, -3221.9592597436026, 22450.270944866057, 40286.806557989905, 8507.185698412144, -2240.024774077508, 15747.49687284194, -16852.835339645786, -0.216, 0.9400000000000001, 0.092, 192.0, 0.0, 0.0, 0.0, 0.0, 0.0, 0.0, 0.0, 0.0, 0.0, 1.741985917042202E9, 0.0, 2025-03-14 15:58:37.042
22.0, 11655.227739242047, 19078.3538315718, -8732.535986010551, 2098.6052869087803, 11006.043673282109, 5346.8278463873685, 2830.423752119989, 16798.61000759721, 46118.13081719051, -3250.7706583464933, 22421.34778754089, 40230.882493362726, 8490.82422147086, -2247.6914224256784, 15733.77290174638, -16861.306650794348, -0.216, 0.9400000000000001, 0.092, 192.0, 0.0, 0.0, 0.0, 0.0, 0.0, 0.0, 0.0, 0.0, 0.0, 1.741985917042436E9, 0.0, 2025-03-14 15:58:37.042
24.0, 11658.178169510147, 19084.92524444166, -8737.20750060171, 2102.94152533311, 11012.659789640878, 5337.529520693961, 2835.98933648936, 16803.102708232727, 46126.535073105704, -3235.616175605795, 22448.371046587356, 40277.66469450769, 8507.453919345608, -2254.821628906921, 15723.20052661902, -16864.36883978472, -0.216, 0.9400000000000001, 0.092, 192.0, 0.0, 0.0, 0.0, 0.0, 0.0, 0.0, 0.0, 0.0, 0.0, 1.741985917042666E9, 0.0, 2025-03-14 15:58:37.042
26.0, 11657.060582287382, 19087.383936331742, -8728.311506308497, 2100.5498886763917, 11001.729786602235, 5330.622831657271, 2822.89121423855, 16792.306815660813, 46119.51662534674, -3238.186626218155, 22435.697607481197, 40231.798914885396, 8475.021538140958, -2250.150114315762, 15740.657239038615, -16856.34456352527, -0.216, 0.9400000000000001, 0.092, 192.0, 0.0, 0.0, 0.0, 0.0, 0.0, 0.0, 0.0, 0.0, 0.0, 1.741985917042914E9, 0.0, 2025-03-14 15:58:37.042
28.0, 11664.190788768625, 19098.67156728167, -8732.334820310452, 2108.931792847132, 11006.446004682304, 5342.357497496307, 2830.2002346754357, 16804.890847789153, 46119.11429394654, -3237.270204695488, 22452.01438093357, 40278.11172939679, 8490.511297048486, -2254.39694576227, 15719.758357972903, -16864.122970595716, -0.228, 0.9440000000000001, 0.084, 192.0, 124.0, 112.0, 14.5, 64.0, 1.0, 80.0, 0.0, 0.0, 0.0, 1.741985917043139E9, 0.0, 2025-03-14 15:58:37.043
30.0, 11658.02170729896, 19090.222607877567, -8732.20070984372, 2108.641220169213, 11007.630647138436, 5339.943509095134, 2836.5257783562874, 16803.214466955003, 46125.909224260955, -3230.2070534476106, 22428.00860738857, 40231.240121274015, 8510.381997869254, -2246.7750009030106, 15733.616439535195, -16853.416485001624, -0.228, 0.9440000000000001, 0.084, 192.0, 0.0, 0.0, 0.0, 0.0, 0.0, 0.0, 0.0, 0.0, 0.0, 1.741985917101361E9, 0.0, 2025-03-14 15:58:37.101
32.0, 11658.35698346579, 19089.999090433015, -8737.520425024084, 2110.6975806591013, 11003.339112203015, 5344.167988797187, 2833.0165544768042, 16802.812135554806, 46116.43208461191, -3222.562756843896, 22455.478901324142, 40289.1087876688, 8484.521029534464, -2239.734201399589, 15741.014866949901, -16853.818816401817, -0.228, 0.9440000000000001, 0.084, 192.0, 0.0, 0.0, 0.0, 0.0, 0.0, 0.0, 0.0, 0.0, 0.0, 1.741985917101628E9, 0.0, 2025-03-14 15:58:37.101
34.0, 11673.98085284005, 19100.34794811582, -8709.044302588023, 2121.1358453197295, 11019.678237399845, 5355.522674980482, 2838.6938975684525, 16814.61385662721, 46126.78094229471, -3223.166253944189, 22424.58879048691, 40235.01756608696, 8501.195430898122, -2239.957718844142, 15736.343352358743, -16850.175482055605, -0.228, 0.9440000000000001, 0.084, 192.0, 0.0, 0.0, 0.0, 0.0, 0.0, 0.0, 0.0, 0.0, 0.0, 1.741985917101874E9, 0.0, 2025-03-14 15:58:37.101
36.0, 11662.961442823584, 19088.702689254606, -8731.463102276695, 2107.0318945684307, 11014.067949541564, 5343.542139952438, 2828.2332811633687, 16804.399109411133, 46132.72650631983, -3226.720181312583, 22470.67808755375, 40293.109749926305, 8492.63471277174, -2244.5621782019352, 15742.490082083952, -16854.735237924488, -0.236, 0.9460000000000001, 0.082, 192.0, 124.0, 48.0, 14.5, 80.0, 1.0, 64.0, 0.0, 0.0, 0.0, 1.741985917102104E9, 0.0, 2025-03-14 15:58:37.102
38.0, 11653.93133806364, 19082.377145573755, -8726.72453245217, 2100.996923565498, 11012.659789640878, 5338.222424772075, 2815.9845252018604, 16797.671234330086, 46121.59533758108, -3229.4694458805857, 22425.102880609382, 40242.415993501665, 8479.067203887369, -2249.3678032598264, 15741.39484660564, -16859.80908391584, -0.236, 0.9460000000000001, 0.082, 192.0, 0.0, 0.0, 0.0, 0.0, 0.0, 0.0, 0.0, 0.0, 0.0, 1.741985917102361E9, 0.0, 2025-03-14 15:58:37.102
40.0, 11662.268538745468, 19087.92037819867, -8714.319314279475, 2109.3341242473275, 11030.429426482848, 5347.341936509841, 2831.116656198103, 16811.19403972555, 46122.95879399285, -3228.5977278468285, 22459.368104859364, 40284.414921333184, 8492.388843582732, -2251.3571085163485, 15738.489119826452, -16860.77020892742, -0.236, 0.9460000000000001, 0.082, 192.0, 0.0, 0.0, 0.0, 0.0, 0.0, 0.0, 0.0, 0.0, 0.0, 1.741985917102596E9, 0.0, 2025-03-14 15:58:37.102
42.0, 11659.608681155287, 19084.209988619088, -8720.130767837854, 2106.9871910795205, 11028.507176459692, 5339.988212584044, 2831.697801553941, 16804.667330344597, 46128.434971384406, -3223.188605688644, 22437.843374948905, 40251.62491221725, 8487.24794235801, -2242.2375967785833, 15755.342335145753, -16849.61668844422, -0.236, 0.9460000000000001, 0.082, 192.0, 0.0, 0.0, 0.0, 0.0, 0.0, 0.0, 0.0, 0.0, 0.0, 1.74198591710284E9, 0.0, 2025-03-14 15:58:37.102
44.0, 11668.459971959588, 19089.663814266183, -8714.453424746207, 2114.407970238682, 11036.509100974692, 5348.0571923324105, 2825.0816851951704, 16810.99287402545, 46127.36208765055, -3229.0224109914793, 22462.40794210529, 40288.59469754633, 8497.887372718737, -2245.992689847075, 15740.143148916144, -16860.34552578277, -0.236, 0.9460000000000001, 0.082, 192.0, 0.0, 0.0, 0.0, 0.0, 0.0, 0.0, 0.0, 0.0, 0.0, 1.741985917103067E9, 0.0, 2025-03-14 15:58:37.103
46.0, 11656.702954376096, 19080.38784031723, -8727.39508478583, 2104.7967201229003, 11032.776359650656, 5341.418724229184, 2826.9145282405057, 16806.678987345575, 46129.41844814044, -3221.221652176577, 22431.562534756966, 40266.5558775134, 8496.099233162313, -2238.124875798807, 15760.192663692555, -16848.18617679908, -0.241, 0.9460000000000001, 0.081, 192.0, 124.0, 40.0, 14.5, 72.0, 1.0, 64.0, 0.0, 0.0, 0.0, 1.741985917161024E9, 0.0, 2025-03-14 15:58:37.161
48.0, 11657.64172764322, 19082.332442084844, -8723.170605083777, 2108.775330635945, 11031.7034759168, 5345.665555675692, 2815.761007757307, 16808.80240306883, 46120.321288147126, -3230.7881988034487, 22451.92497395575, 40274.20017411711, 8496.412157584686, -2250.820666649421, 15747.251003652931, -16858.266813548424, -0.241, 0.9460000000000001, 0.081, 192.0, 0.0, 0.0, 0.0, 0.0, 0.0, 0.0, 0.0, 0.0, 0.0, 1.741985917161292E9, 0.0, 2025-03-14 15:58:37.161
50.0, 11657.999355554504, 19087.652157265205, -8724.288192306542, 2109.9823248365315, 11037.067894586075, 5343.475084719073, 2825.3275543841787, 16808.80240306883, 46124.74693354928, -3224.619117333784, 22420.453717762677, 40254.709452952084, 8507.677436790162, -2248.1384573147843, 15747.742742030949, -16853.61765070172, -0.241, 0.9460000000000001, 0.081, 192.0, 0.0, 0.0, 0.0, 0.0, 0.0, 0.0, 0.0, 0.0, 0.0, 1.741985917161525E9, 0.0, 2025-03-14 15:58:37.161
52.0, 11660.815675355874, 19091.96604394508, -8716.666247447283, 2112.6868859156234, 11041.650002199412, 5349.6441661887375, 2821.1030746821257, 16810.545839136343, 46123.964622493346, -3225.759056301005, 22454.62953503484, 40271.67442699366, 8514.338256637842, -2249.524265471013, 15754.984707234467, -16851.404828000646, -0.241, 0.9460000000000001, 0.081, 192.0, 0.0, 0.0, 0.0, 0.0, 0.0, 0.0, 0.0, 0.0, 0.0, 1.741985917161752E9, 0.0, 2025-03-14 15:58:37.161
54.0, 11663.4531812016, 19098.358642859297, -8727.529195252562, 2109.0211998249533, 11038.632516697946, 5342.91629110769, 2813.1458536560363, 16816.111423505714, 46127.42914288392, -3217.1089311968008, 22435.317627825454, 40269.327493825855, 8520.127358451768, -2242.930500856698, 15753.800064778337, -16840.586583684275, -0.241, 0.9460000000000001, 0.081, 192.0, 0.0, 0.0, 0.0, 0.0, 0.0, 0.0, 0.0, 0.0, 0.0, 1.741985917161983E9, 0.0, 2025-03-14 15:58:37.161
56.0, 11667.476495203555, 19106.82995400786, -8717.537965481039, 2113.804473138389, 11029.46830147127, 5344.749134153025, 2819.2478798923353, 16818.659522373622, 46126.468017872336, -3219.3441056423317, 22449.712151254673, 40265.79591820192, 8514.785291526949, -2246.797352647466, 15744.367628618198, -16844.833415130786, -0.2425, 0.9480000000000001, 0.0805, 192.0, 124.0, 48.0, 14.5, 88.0, 1.0, 64.0, 0.0, 0.0, 0.0, 1.741985917162226E9, 0.0, 2025-03-14 15:58:37.162
58.0, 11664.034326557437, 19109.78038427596, -8730.747846454125, 2111.502243459492, 11030.362371249483, 5348.548930710427, 2804.1381006405477, 16820.872345074695, 46132.74885806428, -3214.784349773449, 22440.793805217007, 40276.748272985016, 8517.936887495147, -2240.091829310874, 15747.407465864118, -16832.607010913733, -0.2425, 0.9480000000000001, 0.0805, 192.0, 0.0, 0.0, 0.0, 0.0, 0.0, 0.0, 0.0, 0.0, 0.0, 1.741985917162471E9, 0.0, 2025-03-14 15:58:37.162
60.0, 11674.941977851628, 19124.10785247181, -8707.837308387436, 2122.5887087093247, 11052.132970348952, 5343.653898674715, 2836.279909167279, 16819.911220063117, 46136.123971477035, -3217.4889108525413, 22444.1465668853, 40257.861048920284, 8518.518032850985, -2246.1715038027173, 15749.664992054106, -16829.27660098989, -0.2425, 0.9480000000000001, 0.0805, 192.0, 0.0, 0.0, 0.0, 0.0, 0.0, 0.0, 0.0, 0.0, 0.0, 1.741985917162712E9, 0.0, 2025-03-14 15:58:37.162
62.0, 11675.59017844083, 19129.226401952077, -8721.740093438637, 2118.27482202945, 11039.61599345398, 5339.384715483751, 2824.254670650324, 16815.060891516317, 46141.309576190666, -3214.5608323288957, 22446.15822388628, 40287.432406834654, 8518.160404939701, -2241.9693758451194, 15758.583338091772, -16825.722673621498, -0.2425, 0.9480000000000001, 0.0805, 192.0, 0.0, 0.0, 0.0, 0.0, 0.0, 0.0, 0.0, 0.0, 0.0, 1.741985917222434E9, 0.0, 2025-03-14 15:58:37.222
64.0, 11677.199504041613, 19133.719102587595, -8711.860622389391, 2121.806397653389, 11042.968755122276, 5342.066924818388, 2816.6774292799746, 16819.531240407377, 46141.55544537967, -3214.046742206424, 22453.668410023263, 40265.706511224096, 8513.891221748736, -2245.657413680245, 15754.381210134175, -16828.60604865623, -0.2425, 0.9480000000000001, 0.0805, 192.0, 0.0, 0.0, 0.0, 0.0, 0.0, 0.0, 0.0, 0.0, 0.0, 1.741985917222718E9, 0.0, 2025-03-14 15:58:37.222
66.0, 11685.536704723443, 19148.44890218364, -8717.91794513678, 2130.121246590763, 11054.32344130557, 5356.081468591866, 2831.5636910872095, 16833.970467325507, 46144.97526228133, -3206.581259558351, 22458.027000192047, 40298.138892428746, 8519.389750884742, -2234.0792100523963, 15759.030372980878, -16821.498193919444, -0.24725, 0.9410000000000001, 0.08125, 192.0, 124.0, 16.0, 14.5, 24.0, 1.0, 72.0, 0.0, 0.0, 0.0, 1.741985917222951E9, 0.0, 2025-03-14 15:58:37.222
68.0, 11684.441469245134, 19145.07378877089, -8701.19884028421, 2127.796665167411, 11055.888063417444, 5345.978480098067, 2831.831912020673, 16819.888868318663, 46150.116163506056, -3201.306247866899, 22458.29522112551, 40266.24295309102, 8520.015599729491, -2234.3250792414046, 15770.765038819914, -16819.888868318663, -0.24725, 0.9410000000000001, 0.08125, 192.0, 0.0, 0.0, 0.0, 0.0, 0.0, 0.0, 0.0, 0.0, 0.0, 1.741985917223201E9, 0.0, 2025-03-14 15:58:37.223
70.0, 11673.667928417675, 19133.272067698486, -8719.035532359545, 2117.313697017872, 11049.249595314217, 5340.748171895525, 2814.822234490184, 16813.22804847098, 46147.50100940478, -3212.9515067281136, 22468.82289276396, 40308.39834313373, 8511.164308925188, -2243.4669427236254, 15770.049782997345, -16828.04725504485, -0.24725, 0.9410000000000001, 0.08125, 192.0, 0.0, 0.0, 0.0, 0.0, 0.0, 0.0, 0.0, 0.0, 0.0, 1.741985917223441E9, 0.0, 2025-03-14 15:58:37.223
72.0, 11670.493980705021, 19126.812413550906, -8708.1055293209, 2118.677153429646, 11053.027040127165, 5342.737477152047, 2815.9845252018604, 16817.854859573228, 46138.67207034494, -3221.6910388101387, 22440.570287772454, 40251.53550523943, 8503.452957088108, -2250.8430183938767, 15762.40548639363, -16834.23868825897, -0.24725, 0.9410000000000001, 0.08125, 192.0, 0.0, 0.0, 0.0, 0.0, 0.0, 0.0, 0.0, 0.0, 0.0, 1.741985917223666E9, 0.0, 2025-03-14 15:58:37.223
74.0, 11663.006146312493, 19117.625846579773, -8706.697369420215, 2118.923022618654, 11056.08922911754, 5345.799666142424, 2821.6842200379638, 16825.119176521202, 46136.34748892159, -3224.6638208226946, 22466.475959596155, 40297.9600784731, 8485.705671990594, -2248.5184369705244, 15762.629003838183, -16830.774167868396, -0.24725, 0.9410000000000001, 0.08125, 192.0, 0.0, 0.0, 0.0, 0.0, 0.0, 0.0, 0.0, 0.0, 0.0, 1.741985917223883E9, 0.0, 2025-03-14 15:58:37.223
76.0, 11665.442486458121, 19111.97085523258, -8693.979226825146, 2116.7549034064896, 11069.455572301815, 5345.374982997773, 2831.183711431469, 16819.19596424055, 46144.930558792425, -3221.8027975324153, 22451.857918722384, 40260.76677569947, 8482.554076022396, -2244.9421578576753, 15770.541521375362, -16820.939400308063, -0.24562499999999998, 0.9445000000000001, 0.080625, 192.0, 124.0, 48.0, 14.5, 80.0, 1.0, 64.0, 0.0, 0.0, 0.0, 1.741985917283151E9, 0.0, 2025-03-14 15:58:37.283
78.0, 11671.902140605705, 19115.390672134243, -8700.841212372925, 2120.0629615858747, 11064.962871666297, 5352.39343075674, 2830.3566968866226, 16825.56621141031, 46144.48352390331, -3229.8941290252365, 22477.607128334897, 40298.630630806765, 8475.58033175234, -2252.9440823726754, 15762.02550673789, -16826.773205610898, -0.24562499999999998, 0.9445000000000001, 0.080625, 192.0, 0.0, 0.0, 0.0, 0.0, 0.0, 0.0, 0.0, 0.0, 0.0, 1.741985917283419E9, 0.0, 2025-03-14 15:58:37.283
80.0, 11669.465800460077, 19110.83091626536, -8693.912171591779, 2115.6596679281793, 11059.799618697121, 5341.061096317899, 2824.0982084391367, 16815.75379559443, 46150.250273972786, -3227.122512712778, 22450.650924521797, 40253.815383173875, 8471.53466600593, -2249.501913726558, 15754.02358222289, -16824.76154860992, -0.24562499999999998, 0.9445000000000001, 0.080625, 192.0, 0.0, 0.0, 0.0, 0.0, 0.0, 0.0, 0.0, 0.0, 0.0, 1.741985917283654E9, 0.0, 2025-03-14 15:58:37.283
82.0, 11669.443448715621, 19109.445108109132, -8694.627427414349, 2121.381714508738, 11072.897740947932, 5342.8939393632345, 2832.837740521162, 16816.625513628187, 46147.32219544914, -3231.7716755594824, 22484.759686560596, 40306.96783148859, 8456.96132862107, -2256.5874167188904, 15756.348163646242, -16829.56717366781, -0.24562499999999998, 0.9445000000000001, 0.080625, 192.0, 0.0, 0.0, 0.0, 0.0, 0.0, 0.0, 0.0, 0.0, 0.0, 1.741985917283887E9, 0.0, 2025-03-14 15:58:37.283
84.0, 11657.149989265203, 19095.296453868923, -8718.968477126178, 2105.9813625790316, 11058.056182629607, 5331.651011902215, 2819.2255281478797, 16805.717862333997, 46148.61859662755, -3232.710448826605, 22448.21458437617, 40253.16718258467, 8460.850532156293, -2254.5534079734575, 15757.510454357918, -16827.04142654436, -0.24562499999999998, 0.9445000000000001, 0.080625, 192.0, 0.0, 0.0, 0.0, 0.0, 0.0, 0.0, 0.0, 0.0, 0.0, 1.741985917284126E9, 0.0, 2025-03-14 15:58:37.284
86.0, 11664.079030046349, 19101.644349294227, -8706.898535120314, 2108.887089358221, 11064.895816432932, 5341.597538184827, 2832.5695195876983, 16816.42434792809, 46139.476733145326, -3243.6628036097054, 22464.330192128444, 40291.05338943641, 8479.424831798653, -2261.549503987969, 15737.706808770516, -16841.36889474021, -0.2458125, 0.94625, 0.08131250000000001, 192.0, 124.0, 40.0, 14.5, 80.0, 1.0, 72.0, 0.0, 0.0, 0.0, 1.741985917284361E9, 0.0, 2025-03-14 15:58:37.284
88.0, 11672.438582472632, 19107.50050634152, -8683.987997053624, 2113.4915487160147, 11068.494447290237, 5346.58197719836, 2835.5870050891644, 16817.47487991749, 46176.737091152325, -3227.3236784128762, 22456.037694935527, 40254.95532214109, 8442.365639491754, -2245.7468206580666, 15763.813646294315, -16826.259115488425, -0.2458125, 0.94625, 0.08131250000000001, 192.0, 0.0, 0.0, 0.0, 0.0, 0.0, 0.0, 0.0, 0.0, 0.0, 1.741985917284607E9, 0.0, 2025-03-14 15:58:37.284
90.0, 11668.571730681864, 19102.73958477254, -8703.63518042984, 2105.4672724565594, 11069.52262753518, 5348.303061521418, 2838.872711524095, 16812.80336532633, 46168.44459395941, -3236.2867279394545, 22482.77038130407, 40304.151511687225, 8453.67562218614, -2253.9499108731643, 15748.92738448708, -16840.586583684275, -0.2458125, 0.94625, 0.08131250000000001, 192.0, 0.0, 0.0, 0.0, 0.0, 0.0, 0.0, 0.0, 0.0, 0.0, 1.74198591728484E9, 0.0, 2025-03-14 15:58:37.284
92.0, 11663.944919579617, 19099.29741612642, -8726.72453245217, 2101.801586365889, 11060.783095453155, 5329.013506056489, 2821.4607025934106, 16804.488516388956, 46178.212306286376, -3233.939794771647, 22434.267095836058, 40254.3518250408, 8468.405421782187, -2255.961567874142, 15739.651410538127, -16844.833415130786, -0.2458125, 0.94625, 0.08131250000000001, 192.0, 0.0, 0.0, 0.0, 0.0, 0.0, 0.0, 0.0, 0.0, 0.0, 1.741985917342453E9, 0.0, 2025-03-14 15:58:37.342
94.0, 11667.051812058904, 19100.92909347166, -8724.310544050997, 2108.6188684247577, 11064.180560610363, 5336.166064282187, 2824.8805194950723, 16806.43311815657, 46164.17541076844, -3235.683230839161, 22455.367142601866, 40286.87361322327, 8470.238264827522, -2254.084021339896, 15726.419177820586, -16847.76149365443, -0.2458125, 0.94625, 0.08131250000000001, 192.0, 0.0, 0.0, 0.0, 0.0, 0.0, 0.0, 0.0, 0.0, 0.0, 1.741985917342701E9, 0.0, 2025-03-14 15:58:37.342
96.0, 11667.051812058904, 19100.34794811582, -8708.932543865747, 2110.116435303263, 11058.011479140698, 5337.641279416237, 2832.4577608654217, 16807.193077468048, 46189.85756514759, -3231.1458267147336, 22436.010531903572, 40263.49368852302, 8470.484134016531, -2251.9159021277314, 15736.432759336563, -16842.978220340996, -0.24290625, 0.945125, 0.08165625000000001, 192.0, 124.0, 64.0, 14.5, 64.0, 1.0, 72.0, 0.0, 0.0, 0.0, 1.741985917342935E9, 0.0, 2025-03-14 15:58:37.342
98.0, 11671.477457461055, 19105.935884229646, -8687.743090122114, 2120.0406098414196, 11077.457496816814, 5347.63250918776, 2838.3586214016227, 16819.061853773816, 46189.745806425315, -3227.9048237687143, 22475.751933545107, 40294.04852319342, 8464.136238591223, -2243.042259578974, 15747.608631564217, -16839.066665061317, -0.24290625, 0.945125, 0.08165625000000001, 192.0, 0.0, 0.0, 0.0, 0.0, 0.0, 0.0, 0.0, 0.0, 0.0, 1.74198591734319E9, 0.0, 2025-03-14 15:58:37.343
100.0, 11675.746640652018, 19110.048605209424, -8719.124939337366, 2117.090179573319, 11074.037679915153, 5345.665555675692, 2844.147723215547, 16816.983141539473, 46194.842004161124, -3227.524844112974, 22439.542107527508, 40276.658866007194, 8466.885503159227, -2247.0432218364745, 15746.066361196801, -16839.826624372796, -0.24290625, 0.945125, 0.08165625000000001, 192.0, 0.0, 0.0, 0.0, 0.0, 0.0, 0.0, 0.0, 0.0, 0.0, 1.741985917343425E9, 0.0, 2025-03-14 15:58:37.343
102.0, 11676.55130345241, 19109.847439509325, -8694.225096014154, 2120.1300168192406, 11074.440011315348, 5343.0727533188765, 2840.3702784026004, 16811.32815019228, 46209.750617712816, -3220.68521030965, 22475.304898656, 40286.09130216733, 8478.195485853612, -2241.1647130447286, 15753.710657800515, -16835.468034204012, -0.24290625, 0.945125, 0.08165625000000001, 192.0, 0.0, 0.0, 0.0, 0.0, 0.0, 0.0, 0.0, 0.0, 0.0, 1.741985917343663E9, 0.0, 2025-03-14 15:58:37.343
104.0, 11677.065393574881, 19110.920323243183, -8715.235735802144, 2123.0357435984306, 11076.585778783057, 5345.933776609156, 2838.4927318683544, 16816.558458394822, 46199.06648386318, -3225.3790766452644, 22444.05715990748, 40276.34594158482, 8447.551244205386, -2245.8362276358876, 15749.374419376187, -16840.89950810665, -0.24290625, 0.945125, 0.08165625000000001, 192.0, 0.0, 0.0, 0.0, 0.0, 0.0, 0.0, 0.0, 0.0, 0.0, 1.741985917343902E9, 0.0, 2025-03-14 15:58:37.343
106.0, 11675.858399374296, 19104.77359351797, -8713.022913101067, 2117.1125313177745, 11077.926883450376, 5348.280709776964, 2842.6278045925865, 16816.692568861552, 46212.63399274755, -3215.3431433848314, 22462.54205257202, 40285.3089911114, 8486.085651646335, -2235.666183908723, 15750.804931021326, -16832.33878998027, -0.242453125, 0.9455625000000001, 0.083828125, 192.0, 124.0, 56.0, 14.5, 72.0, 1.0, 88.0, 0.0, 0.0, 0.0, 1.741985917401875E9, 0.0, 2025-03-14 15:58:37.401
108.0, 11675.903102863205, 19106.517029585484, -8713.715817179182, 2115.1008743167968, 11077.815124728098, 5349.241834788541, 2845.1982552049467, 16820.313551463314, 46224.30160335322, -3223.3674196442867, 22440.547936027997, 40290.60635454731, 8486.644445257718, -2246.6855939251896, 15745.529919329872, -16840.027790072894, -0.242453125, 0.9455625000000001, 0.083828125, 192.0, 0.0, 0.0, 0.0, 0.0, 0.0, 0.0, 0.0, 0.0, 0.0, 1.741985917402212E9, 0.0, 2025-03-14 15:58:37.402
110.0, 11670.046945815915, 19098.24688413702, -8726.143387096332, 2111.859871370777, 11080.43027882937, 5340.949337595623, 2847.321670928201, 16815.03853977186, 46212.186957858445, -3221.914556254692, 22456.328267613444, 40280.61512477579, 8484.29751208991, -2239.9130153552314, 15751.386076377164, -16836.764435382418, -0.242453125, 0.9455625000000001, 0.083828125, 192.0, 0.0, 0.0, 0.0, 0.0, 0.0, 0.0, 0.0, 0.0, 0.0, 1.741985917402453E9, 0.0, 2025-03-14 15:58:37.402
112.0, 11677.892408119727, 19105.82412550737, -8729.853776675913, 2117.5372144624253, 11079.737374751256, 5350.58293945586, 2847.768705817307, 16825.610914899222, 46218.17722537246, -3225.3120214118985, 22439.25153484959, 40291.85805223681, 8479.402480054197, -2243.757515401544, 15745.239346651953, -16841.078322062294, -0.242453125, 0.9455625000000001, 0.083828125, 192.0, 0.0, 0.0, 0.0, 0.0, 0.0, 0.0, 0.0, 0.0, 0.0, 1.741985917402694E9, 0.0, 2025-03-14 15:58:37.402
114.0, 11669.577559182353, 19098.06807018138, -8697.1531745378, 2115.6596679281793, 11077.032813672164, 5346.9619568541, 2840.124409213592, 16814.010359526917, 46216.299678838215, -3224.68617256715, 22450.67327626625, 40277.68704625214, 8486.577390024351, -2239.2648147660275, 15756.459922368518, -16835.222165015002, -0.242453125, 0.9455625000000001, 0.083828125, 192.0, 0.0, 0.0, 0.0, 0.0, 0.0, 0.0, 0.0, 0.0, 0.0, 1.741985917402926E9, 0.0, 2025-03-14 15:58:37.402
116.0, 11677.132448808248, 19107.031119707957, -8716.286267791542, 2116.933717362132, 11080.251464873727, 5344.860892875301, 2841.7113830699186, 16812.311626948314, 46215.91969918248, -3221.8027975324153, 22455.411846090778, 40313.40513389172, 8459.375317022243, -2246.0373933359856, 15754.269451411898, -16840.251307517447, -0.23922656250000002, 0.9427812500000001, 0.0869140625, 192.0, 124.0, 80.0, 14.5, 48.0, 1.0, 104.0, 0.0, 0.0, 0.0, 1.74198591740317E9, 0.0, 2025-03-14 15:58:37.403
118.0, 11677.3559662528, 19107.813430763894, -8731.641916232338, 2114.2068045385845, 11071.355470580516, 5341.128151551265, 2825.7075340399188, 16807.885981546162, 46217.39491431653, -3223.0321434774573, 22441.598468017397, 40262.689025722626, 8487.024424913458, -2247.266739281027, 15746.535747830361, -16845.816891886818, -0.23922656250000002, 0.9427812500000001, 0.0869140625, 192.0, 0.0, 0.0, 0.0, 0.0, 0.0, 0.0, 0.0, 0.0, 0.0, 1.741985917403423E9, 0.0, 2025-03-14 15:58:37.403
120.0, 11686.542533223932, 19119.570448347386, -8713.537003223539, 2125.3603250217825, 11082.263121874705, 5350.225311544575, 2847.8357610506728, 16820.17944099658, 46225.0615626647, -3217.913593997192, 22449.06395066547, 40306.27492741048, 8500.189602397633, -2241.276471767005, 15740.746646016438, -16845.973354098005, -0.23922656250000002, 0.9427812500000001, 0.0869140625, 192.0, 0.0, 0.0, 0.0, 0.0, 0.0, 0.0, 0.0, 0.0, 0.0, 1.74198591740366E9, 0.0, 2025-03-14 15:58:37.403
122.0, 11678.674719175664, 19114.67541631167, -8723.260012061597, 2119.5041679744922, 11076.317557849594, 5345.017355086488, 2843.924205770994, 16817.921914806597, 46230.358926100605, -3213.085617194846, 22444.90652619678, 40272.72495898306, 8498.49086981903, -2235.9120530977316, 15753.487140355963, -16837.971429583005, -0.23922656250000002, 0.9427812500000001, 0.0869140625, 192.0, 0.0, 0.0, 0.0, 0.0, 0.0, 0.0, 0.0, 0.0, 0.0, 1.741985917462261E9, 0.0, 2025-03-14 15:58:37.462
124.0, 11676.439544730132, 19111.277951154465, -8755.73709675516, 2108.3282957468386, 11066.125162377974, 5341.418724229184, 2832.502464354332, 16808.13185073517, 46215.94205092693, -3220.8640242652923, 22452.841395478416, 40321.56352061791, 8494.199334883611, -2247.6914224256784, 15736.097483169733, -16848.052066332348, -0.23922656250000002, 0.9427812500000001, 0.0869140625, 192.0, 0.0, 0.0, 0.0, 0.0, 0.0, 0.0, 0.0, 0.0, 0.0, 1.741985917462547E9, 0.0, 2025-03-14 15:58:37.462
126.0, 11681.580445954854, 19115.614189578795, -8726.568070240983, 2119.4594644855815, 11068.852075201521, 5342.402200985218, 2836.346964400645, 16819.12890900718, 46226.71559175439, -3221.914556254692, 22429.237953333613, 40267.4052438027, 8517.914535750691, -2245.5009514690582, 15736.276297125376, -16844.073455819303, -0.23761328125000003, 0.9433906250000001, 0.08545703125000001, 192.0, 124.0, 80.0, 14.5, 64.0, 1.0, 80.0, 0.0, 0.0, 0.0, 1.741985917462788E9, 0.0, 2025-03-14 15:58:37.462
128.0, 11689.157687325203, 19128.578201362874, -8711.34653226692, 2130.61298496878, 11082.173714896884, 5357.176704070175, 2854.630691365086, 16830.48359519048, 46227.52025455478, -3217.39950387472, 22463.704343283694, 40324.066915996904, 8481.481192288542, -2236.7390676425775, 15752.458960111018, -16834.842185359263, -0.23761328125000003, 0.9433906250000001, 0.08545703125000001, 192.0, 0.0, 0.0, 0.0, 0.0, 0.0, 0.0, 0.0, 0.0, 0.0, 1.741985917463051E9, 0.0, 2025-03-14 15:58:37.463
130.0, 11682.005129099505, 19121.1127187148, -8734.793512200536, 2120.0406098414196, 11078.932711950865, 5349.778276655469, 2849.9368250294715, 16820.09003401876, 46234.18107440246, -3206.290686880432, 22443.297200596, 40273.06023514989, 8500.524878564464, -2230.6817448951897, 15754.560024089817, -16824.783900354374, -0.23761328125000003, 0.9433906250000001, 0.08545703125000001, 192.0, 0.0, 0.0, 0.0, 0.0, 0.0, 0.0, 0.0, 0.0, 0.0, 1.741985917463293E9, 0.0, 2025-03-14 15:58:37.463
132.0, 11680.664024432186, 19121.78327104846, -8739.48737853615, 2116.1737580506515, 11073.121258392484, 5347.2972330209295, 2834.6258800775863, 16817.921914806597, 46217.75254222781, -3228.038934235446, 22457.803482747495, 40319.12718047228, 8512.907744992703, -2245.7244689136114, 15741.148977416633, -16838.552574938843, -0.23761328125000003, 0.9433906250000001, 0.08545703125000001, 192.0, 0.0, 0.0, 0.0, 0.0, 0.0, 0.0, 0.0, 0.0, 0.0, 1.741985917463537E9, 0.0, 2025-03-14 15:58:37.463
134.0, 11680.574617454366, 19121.671512326182, -8733.273593577576, 2120.599403452802, 11085.414717842903, 5349.375945255273, 2849.7133075849188, 16824.470975932, 46224.30160335322, -3217.1089311968008, 22424.231162575623, 40273.462566550086, 8487.516163291475, -2241.477637467103, 15749.754399031926, -16832.986990569472, -0.23761328125000003, 0.9433906250000001, 0.08545703125000001, 192.0, 0.0, 0.0, 0.0, 0.0, 0.0, 0.0, 0.0, 0.0, 0.0, 1.741985917463766E9, 0.0, 2025-03-14 15:58:37.463
136.0, 11671.097477805315, 19112.708462799605, -8743.533044282562, 2110.027028325442, 11081.05612767412, 5341.910462607201, 2837.1292754565807, 16818.32424620679, 46217.30550733871, -3228.5977278468285, 22454.00368619009, 40312.35460190232, 8511.656047303206, -2241.477637467103, 15753.107160700221, -16833.165804525113, -0.235806640625, 0.9476953125, 0.081728515625, 192.0, 124.0, 88.0, 14.5, 96.0, 1.0, 56.0, 0.0, 0.0, 0.0, 1.741985917522589E9, 0.0, 2025-03-14 15:58:37.522
138.0, 11686.520181479476, 19131.014541508503, -8722.812977172493, 2132.9152146476763, 11102.066767462107, 5355.790895913947, 2850.674432596497, 16832.271734746904, 46209.39298980153, -3222.652163821717, 22422.241857319103, 40265.125365868254, 8496.926247707159, -2241.678803167201, 15747.1168931862, -16834.81983361481, -0.235806640625, 0.9476953125, 0.081728515625, 192.0, 0.0, 0.0, 0.0, 0.0, 0.0, 0.0, 0.0, 0.0, 0.0, 1.741985917522892E9, 0.0, 2025-03-14 15:58:37.522
140.0, 11677.445373230621, 19121.336236159354, -8738.481550035662, 2124.220386054562, 11083.358357353016, 5352.616948201293, 2835.8552260226284, 16826.482632932977, 46205.59319324412, -3209.5093380819962, 22472.130950943345, 40332.739392845564, 8489.192544125623, -2226.792541359966, 15754.872948512191, -16820.447661930044, -0.235806640625, 0.9476953125, 0.081728515625, 192.0, 0.0, 0.0, 0.0, 0.0, 0.0, 0.0, 0.0, 0.0, 0.0, 1.741985917523116E9, 0.0, 2025-03-14 15:58:37.523
142.0, 11671.320995249867, 19113.379015133265, -8749.947994941234, 2121.4040662531934, 11090.309749878616, 5350.068849333388, 2847.5675401172093, 16823.554554409333, 46201.10049260861, -3210.135186926745, 22427.181592843725, 40296.30604938341, 8502.603590798806, -2245.6797654247007, 15743.942945473545, -16826.32617072179, -0.235806640625, 0.9476953125, 0.081728515625, 192.0, 0.0, 0.0, 0.0, 0.0, 0.0, 0.0, 0.0, 0.0, 0.0, 1.741985917523343E9, 0.0, 2025-03-14 15:58:37.523
144.0, 11683.636806444742, 19118.45286112462, -8734.77116045608, 2132.4234762696597, 11100.05511046113, 5351.141733067243, 2856.0612030102257, 16832.495252191457, 46197.94889664041, -3220.4393411206415, 22444.77241573005, 40311.63934607975, 8520.328524151864, -2243.9139776127313, 15742.154805917122, -16822.32520846429, -0.235806640625, 0.9476953125, 0.081728515625, 192.0, 0.0, 0.0, 0.0, 0.0, 0.0, 0.0, 0.0, 0.0, 0.0, 1.741985917523583E9, 0.0, 2025-03-14 15:58:37.523
146.0, 11679.032347086948, 19113.088442455344, -8731.86543367689, 2127.059057600386, 11094.266008647206, 5349.554759210916, 2847.925168028494, 16829.09778703425, 46205.77200719977, -3209.621096804273, 22437.48574703762, 40295.72490402757, 8485.325692334854, -2227.753666371544, 15764.283032927875, -16807.03661525686, -0.2329033203125, 0.9488476562500001, 0.0788642578125, 192.0, 124.0, 104.0, 14.5, 88.0, 1.0, 48.0, 0.0, 0.0, 0.0, 1.74198591752383E9, 0.0, 2025-03-14 15:58:37.523
148.0, 11672.751506895007, 19110.607398820808, -8738.190977357743, 2117.2689935289613, 11090.019177200697, 5345.084410319854, 2840.593795847153, 16826.348522466247, 46188.650570947, -3233.492759882541, 22457.199985647203, 40311.59464259084, 8490.086613903835, -2250.8430183938767, 15742.244212894942, -16832.651714402644, -0.2329033203125, 0.9488476562500001, 0.0788642578125, 192.0, 0.0, 0.0, 0.0, 0.0, 0.0, 0.0, 0.0, 0.0, 0.0, 1.741985917524069E9, 0.0, 2025-03-14 15:58:37.524
150.0, 11680.082879076348, 19120.173945447677, -8745.745866983636, 2123.4380749986262, 11102.714968051312, 5354.136866824254, 2852.730793086385, 16834.95394408154, 46192.94210588242, -3206.581259558351, 22426.399281787788, 40293.62384004877, 8488.700805747605, -2233.4086577187372, 15753.956526989525, -16826.259115488425, -0.2329033203125, 0.9488476562500001, 0.0788642578125, 192.0, 0.0, 0.0, 0.0, 0.0, 0.0, 0.0, 0.0, 0.0, 0.0, 1.741985917524302E9, 0.0, 2025-03-14 15:58:37.524
152.0, 11666.425963214155, 19106.517029585484, -8736.53694826805, 2110.6528771701905, 11091.360281868016, 5343.430381230161, 2840.0350022357707, 16825.14152826566, 46192.673884948956, -3211.6104020607954, 22451.857918722384, 40306.654907066215, 8473.479267773542, -2240.024774077508, 15754.224747922988, -16835.266868503913, -0.2329033203125, 0.9488476562500001, 0.0788642578125, 192.0, 0.0, 0.0, 0.0, 0.0, 0.0, 0.0, 0.0, 0.0, 0.0, 1.741985917582246E9, 0.0, 2025-03-14 15:58:37.582
154.0, 11669.398745226712, 19106.74054703004, -8752.764314742602, 2105.310810245372, 11101.999712228742, 5346.045535331433, 2844.6394615935637, 16826.3708742107, 46181.16273655448, -3221.489873110041, 22419.06790960645, 40305.49261635454, 8483.895180689715, -2246.4844282250915, 15749.262660653909, -16843.134682552183, -0.2329033203125, 0.9488476562500001, 0.0788642578125, 192.0, 0.0, 0.0, 0.0, 0.0, 0.0, 0.0, 0.0, 0.0, 0.0, 1.741985917582536E9, 0.0, 2025-03-14 15:58:37.582
156.0, 11665.978928325048, 19099.990320204535, -8750.886768208358, 2104.707313145079, 11108.615828587512, 5344.637375430748, 2846.472304638899, 16829.61187715672, 46188.76232966928, -3229.8270737918706, 22428.232124833125, 40283.386741088245, 8520.082654962856, -2246.1715038027173, 15748.457997853518, -16842.352371496247, -0.23445166015625002, 0.947423828125, 0.07943212890625001, 192.0, 124.0, 80.0, 14.5, 72.0, 1.0, 64.0, 0.0, 0.0, 0.0, 1.741985917582788E9, 0.0, 2025-03-14 15:58:37.582
158.0, 11668.638785915231, 19099.230360893056, -8765.661271293315, 2108.5294614469362, 11105.061901219118, 5350.1135528222985, 2844.728868571385, 16835.84801385975, 46182.57089645516, -3220.4840446095523, 22411.468316491642, 40303.100979697825, 8490.332483092843, -2243.8022188904547, 15756.079942712779, -16837.300877249345, -0.23445166015625002, 0.947423828125, 0.07943212890625001, 192.0, 0.0, 0.0, 0.0, 0.0, 0.0, 0.0, 0.0, 0.0, 0.0, 1.741985917583041E9, 0.0, 2025-03-14 15:58:37.583
160.0, 11670.538684193933, 19097.039889936434, -8733.452407533217, 2109.1106068027743, 11103.162002940417, 5345.844369631335, 2833.731810299374, 16823.71101662052, 46171.9985213278, -3219.9923062315356, 22426.891020165804, 40288.57234580188, 8492.478250560553, -2249.837189893388, 15744.859366996214, -16840.00543832844, -0.23445166015625002, 0.947423828125, 0.07943212890625001, 192.0, 0.0, 0.0, 0.0, 0.0, 0.0, 0.0, 0.0, 0.0, 0.0, 1.741985917583288E9, 0.0, 2025-03-14 15:58:37.583
162.0, 11669.219931271069, 19097.933959714646, -8745.87997745037, 2109.445882969604, 11115.120186224007, 5353.779238912969, 2828.188577674458, 16824.605086398733, 46194.842004161124, -3217.2430416635325, 22423.62766547533, 40318.59073860535, 8467.556055492885, -2239.890663610776, 15751.833111266269, -16834.95394408154, -0.23445166015625002, 0.947423828125, 0.07943212890625001, 192.0, 0.0, 0.0, 0.0, 0.0, 0.0, 0.0, 0.0, 0.0, 0.0, 1.741985917583515E9, 0.0, 2025-03-14 15:58:37.583
164.0, 11661.93326257864, 19087.249825865012, -8740.604965758916, 2105.1096445452745, 11101.217401172806, 5343.385677741251, 2831.5189875982987, 16816.89373456165, 46179.06167257568, -3225.2449661785326, 22418.844392161893, 40277.3070665964, 8494.288741861432, -2248.3172712704268, 15749.709695543015, -16839.781920883885, -0.23445166015625002, 0.947423828125, 0.07943212890625001, 192.0, 0.0, 0.0, 0.0, 0.0, 0.0, 0.0, 0.0, 0.0, 0.0, 1.741985917583742E9, 0.0, 2025-03-14 15:58:37.583
166.0, 11652.657288629687, 19079.516122283476, -8748.83040771847, 2105.51197594547, 11105.598343086045, 5339.161198039198, 2840.5267406137873, 16823.28633347587, 46162.7448991233, -3225.9155185121917, 22424.63349397582, 40314.67918332567, 8456.380183265232, -2246.35031775836, 15753.844768267247, -16839.603106928244, -0.23522583007812503, 0.9497119140625001, 0.07771606445312501, 192.0, 124.0, 80.0, 14.5, 96.0, 1.0, 48.0, 0.0, 0.0, 0.0, 1.74198591764235E9, 0.0, 2025-03-14 15:58:37.642
168.0, 11651.606756640287, 19076.386878059733, -8752.250224620131, 2104.193223022607, 11111.208630944328, 5340.502302706516, 2835.2964324112454, 16822.727539864485, 46170.25508526029, -3235.6608790947057, 22410.2389705466, 40282.202098632115, 8489.192544125623, -2254.061669595441, 15746.155768174622, -16841.3241912513, -0.23522583007812503, 0.9497119140625001, 0.07771606445312501, 192.0, 0.0, 0.0, 0.0, 0.0, 0.0, 0.0, 0.0, 0.0, 0.0, 1.741985917642642E9, 0.0, 2025-03-14 15:58:37.642
170.0, 11659.943957322117, 19085.640500264228, -8752.227872875676, 2115.1902812946178, 11114.449633890348, 5349.688869677648, 2842.158417959025, 16834.730426636987, 46155.681747875424, -3230.5199778699853, 22414.664615948754, 40317.853131038326, 8473.255750328988, -2252.5864544613905, 15756.079942712779, -16833.18815626957, -0.23522583007812503, 0.9497119140625001, 0.07771606445312501, 192.0, 0.0, 0.0, 0.0, 0.0, 0.0, 0.0, 0.0, 0.0, 0.0, 1.741985917642888E9, 0.0, 2025-03-14 15:58:37.642
172.0, 11662.760277123485, 19085.97577643106, -8736.87222443488, 2116.933717362132, 11124.731436339789, 5349.9347388666565, 2847.0758017391922, 16833.501080691945, 46170.50095444929, -3222.5404050994402, 22411.647130447287, 40282.71618875458, 8482.732889978039, -2237.342564742871, 15763.523073616396, -16824.448624187546, -0.23522583007812503, 0.9497119140625001, 0.07771606445312501, 192.0, 0.0, 0.0, 0.0, 0.0, 0.0, 0.0, 0.0, 0.0, 0.0, 1.74198591764312E9, 0.0, 2025-03-14 15:58:37.643
174.0, 11657.038230542927, 19078.30912808289, -8757.547588056039, 2108.775330635945, 11114.092005979062, 5346.559625453905, 2831.809560276218, 16831.109444035228, 46170.657416660484, -3239.3489169298314, 22421.77247068554, 40329.587796877364, 8496.434509329141, -2253.793448661977, 15747.027486208379, -16840.38541798418, -0.23522583007812503, 0.9497119140625001, 0.07771606445312501, 192.0, 0.0, 0.0, 0.0, 0.0, 0.0, 0.0, 0.0, 0.0, 0.0, 1.741985917643362E9, 0.0, 2025-03-14 15:58:37.643
176.0, 11662.626166656753, 19083.181808374145, -8738.101570379922, 2114.0726940718528, 11130.788759087178, 5351.029974344966, 2845.4888278828657, 16834.708074892533, 46165.58357066913, -3223.7697510444823, 22415.312816537957, 40282.87265096577, 8461.610491467773, -2239.9800705885973, 15763.88070152768, -16827.37670271119, -0.2336129150390625, 0.9498559570312501, 0.07985803222656251, 192.0, 124.0, 96.0, 14.5, 88.0, 1.0, 72.0, 0.0, 0.0, 0.0, 1.7419859176436E9, 0.0, 2025-03-14 15:58:37.643
178.0, 11663.16260852368, 19087.003956676002, -8751.937300197756, 2111.256374270484, 11121.289267693672, 5346.783142898458, 2842.448990636944, 16832.31643823581, 46170.07627130464, -3220.618155076284, 22438.044540649003, 40332.4711719121, 8485.057471401391, -2244.182198546195, 15752.034276966368, -16837.300877249345, -0.2336129150390625, 0.9498559570312501, 0.07985803222656251, 192.0, 0.0, 0.0, 0.0, 0.0, 0.0, 0.0, 0.0, 0.0, 0.0, 1.741985917643852E9, 0.0, 2025-03-14 15:58:37.643
180.0, 11663.475532946055, 19087.182770631644, -8745.790570472547, 2111.099912059297, 11130.63229687599, 5348.303061521418, 2841.3314034141786, 16831.064740546317, 46172.51261145027, -3218.1371114417448, 22402.77348789853, 40277.932915441146, 8506.649256545217, -2246.8197043919213, 15749.977916476479, -16837.90437434964, -0.2336129150390625, 0.9498559570312501, 0.07985803222656251, 192.0, 0.0, 0.0, 0.0, 0.0, 0.0, 0.0, 0.0, 0.0, 0.0, 1.74198591764409E9, 0.0, 2025-03-14 15:58:37.644
182.0, 11664.995451569015, 19088.501523554507, -8744.20359661622, 2112.1727957931516, 11124.709084595333, 5347.67721267667, 2829.887310253061, 16829.544821923355, 46167.97520732584, -3210.202242160111, 22445.890002952816, 40333.81227657942, 8463.733907191028, -2241.0976578113628, 15759.097428214245, -16833.09874929175, -0.2336129150390625, 0.9498559570312501, 0.07985803222656251, 192.0, 0.0, 0.0, 0.0, 0.0, 0.0, 0.0, 0.0, 0.0, 0.0, 1.74198591770271E9, 0.0, 2025-03-14 15:58:37.702
184.0, 11663.408477712688, 19085.618148519774, -8748.20455887372, 2108.7976823804, 11115.813090302121, 5346.492570220539, 2824.835816006162, 16828.22606900049, 46169.80805037118, -3225.5802423453624, 22405.67921467772, 40282.202098632115, 8483.515201033975, -2248.8760648818093, 15736.924497714579, -16841.838281373773, -0.2336129150390625, 0.9498559570312501, 0.07985803222656251, 192.0, 0.0, 0.0, 0.0, 0.0, 0.0, 0.0, 0.0, 0.0, 0.0, 1.741985917702983E9, 0.0, 2025-03-14 15:58:37.702
186.0, 11656.16651250917, 19079.002032161003, -8760.006279946123, 2105.7578451344784, 11114.203764701339, 5342.223387029575, 2831.5189875982987, 16826.460281188523, 46156.57581765364, -3215.4996055960187, 22434.222392347147, 40333.83462832387, 8474.01570964047, -2247.512608470036, 15742.02069545039, -16841.100673806748, -0.23380645751953127, 0.9519279785156252, 0.07892901611328126, 192.0, 124.0, 88.0, 14.5, 104.0, 1.0, 56.0, 0.0, 0.0, 0.0, 1.74198591770321E9, 0.0, 2025-03-14 15:58:37.703
188.0, 11662.425000956655, 19082.48890429603, -8737.140445368344, 2106.1378247902185, 11122.697427594356, 5348.839503388346, 2830.2449381643464, 16829.343656223256, 46162.85665784558, -3213.845576506326, 22401.56649369794, 40288.79586324643, 8475.53562826343, -2244.5174747130245, 15750.581413576772, -16837.47969120499, -0.23380645751953127, 0.9519279785156252, 0.07892901611328126, 192.0, 0.0, 0.0, 0.0, 0.0, 0.0, 0.0, 0.0, 0.0, 0.0, 1.741985917703469E9, 0.0, 2025-03-14 15:58:37.703
190.0, 11663.229663757047, 19082.175979873657, -8748.62924201837, 2105.869603856755, 11120.283439193183, 5341.351668995818, 2819.806673503718, 16821.252324730434, 46156.821686842646, -3222.9650882440915, 22435.451738292188, 40327.75495383203, 8472.451087528598, -2253.569931217424, 15735.359875602708, -16850.533109966887, -0.23380645751953127, 0.9519279785156252, 0.07892901611328126, 192.0, 0.0, 0.0, 0.0, 0.0, 0.0, 0.0, 0.0, 0.0, 0.0, 1.741985917703705E9, 0.0, 2025-03-14 15:58:37.703
192.0, 11670.717498149574, 19089.082668910345, -8760.989756702156, 2106.1154730457633, 11130.453482920348, 5349.510055722005, 2824.053504950226, 16825.70032187704, 46181.45330923239, -3219.679381809161, 22404.04753733248, 40299.658811051704, 8494.512259305986, -2254.821628906921, 15738.332657615265, -16846.688609920577, -0.23380645751953127, 0.9519279785156252, 0.07892901611328126, 192.0, 0.0, 0.0, 0.0, 0.0, 0.0, 0.0, 0.0, 0.0, 0.0, 1.741985917703945E9, 0.0, 2025-03-14 15:58:37.703
194.0, 11673.3550039953, 19093.575369545862, -8729.697314464727, 2115.2349847835285, 11135.214404489328, 5348.861855132801, 2833.351830643634, 16832.607010913733, 46175.64185567402, -3206.7600735139936, 22447.119348897857, 40329.74425908855, 8483.381090567242, -2237.409619976237, 15755.856425268224, -16839.848976117253, -0.23380645751953127, 0.9519279785156252, 0.07892901611328126, 192.0, 0.0, 0.0, 0.0, 0.0, 0.0, 0.0, 0.0, 0.0, 0.0, 1.741985917704175E9, 0.0, 2025-03-14 15:58:37.704
196.0, 11668.012937070482, 19087.62980552075, -8740.314393080997, 2107.277763757439, 11129.090026508573, 5345.978480098067, 2827.6521358075306, 16825.119176521202, 46164.24246600181, -3221.221652176577, 22407.824982145426, 40307.32545939988, 8474.395689296209, -2244.763343902033, 15752.101332199734, -16845.70513316454, -0.23390322875976566, 0.9519639892578127, 0.07946450805664063, 192.0, 124.0, 88.0, 14.5, 96.0, 1.0, 64.0, 0.0, 0.0, 0.0, 1.741985917763075E9, 0.0, 2025-03-14 15:58:37.763
198.0, 11677.490076719532, 19096.324634113866, -8734.838215689448, 2114.743246405512, 11138.544814413168, 5350.828808644868, 2832.5918713321535, 16830.394188212656, 46164.68950089091, -3215.1866811736445, 22441.978447673137, 40335.08632601337, 8484.588084767829, -2242.2375967785833, 15753.822416522791, -16847.247403531957, -0.23390322875976566, 0.9519639892578127, 0.07946450805664063, 192.0, 0.0, 0.0, 0.0, 0.0, 0.0, 0.0, 0.0, 0.0, 0.0, 1.741985917763369E9, 0.0, 2025-03-14 15:58:37.763
200.0, 11684.195600056124, 19105.511201084995, -8749.992698430146, 2116.5090342174813, 11140.087084780585, 5357.064945347899, 2827.6744875519857, 16832.607010913733, 46179.19578304241, -3195.0924629083233, 22423.225334075134, 40325.475075897586, 8498.49086981903, -2238.8848351102874, 15757.264585168909, -16837.122063293704, -0.23390322875976566, 0.9519639892578127, 0.07946450805664063, 192.0, 0.0, 0.0, 0.0, 0.0, 0.0, 0.0, 0.0, 0.0, 0.0, 1.741985917763614E9, 0.0, 2025-03-14 15:58:37.763
202.0, 11678.317091264378, 19104.080689439856, -8729.853776675913, 2114.2068045385845, 11137.002544045752, 5348.727744666069, 2827.808598018718, 16832.741121380463, 46166.18706776942, -3201.306247866899, 22446.046465164003, 40327.2185119651, 8509.912611235692, -2243.4222392347147, 15748.301535642331, -16840.050141817348, -0.23390322875976566, 0.9519639892578127, 0.07946450805664063, 192.0, 0.0, 0.0, 0.0, 0.0, 0.0, 0.0, 0.0, 0.0, 0.0, 1.741985917763856E9, 0.0, 2025-03-14 15:58:37.763
204.0, 11670.583387682842, 19102.851343494815, -8763.44844859224, 2109.9599730920763, 11139.416532446925, 5349.890035377745, 2835.2070254334244, 16836.943249338063, 46162.27551248974, -3200.30041936641, 22422.890057908306, 40332.82879982338, 8509.465576346585, -2238.34839324336, 15759.142131703155, -16831.064740546317, -0.23390322875976566, 0.9519639892578127, 0.07946450805664063, 192.0, 0.0, 0.0, 0.0, 0.0, 0.0, 0.0, 0.0, 0.0, 0.0, 1.741985917764089E9, 0.0, 2025-03-14 15:58:37.764
206.0, 11679.546437209421, 19112.753166288516, -8725.11520685139, 2118.699505174101, 11142.411666203936, 5348.168951054687, 2822.6229933050863, 16837.747912138453, 46149.35620419457, -3206.1789281581555, 22425.594618987398, 40317.07081998239, 8502.558887309897, -2242.796390389966, 15750.134378687666, -16831.355313224234, -0.23395161437988282, 0.9529819946289064, 0.07973225402832032, 192.0, 124.0, 88.0, 14.5, 104.0, 1.0, 64.0, 0.0, 0.0, 0.0, 1.741985917764332E9, 0.0, 2025-03-14 15:58:37.764
208.0, 11687.615416957786, 19128.824070551884, -8734.413532544797, 2121.9181563756656, 11145.607965661045, 5349.711221422103, 2832.5471678432427, 16845.30280176435, 46174.45721321788, -3198.8699077212705, 22436.077587136937, 40342.395346450256, 8497.105061662802, -2235.085038552885, 15757.756323546926, -16817.81015608432, -0.23395161437988282, 0.9529819946289064, 0.07973225402832032, 192.0, 0.0, 0.0, 0.0, 0.0, 0.0, 0.0, 0.0, 0.0, 0.0, 1.741985917764583E9, 0.0, 2025-03-14 15:58:37.764
210.0, 11682.4074604997, 19127.706483329115, -8731.86543367689, 2124.6227174547575, 11151.844102364077, 5352.438134245651, 2826.6910107959525, 16845.23574653098, 46173.60784692858, -3192.7678814849714, 22438.692741238207, 40310.298241412434, 8512.728931037062, -2238.862483365832, 15755.387038634664, -16810.076452502784, -0.23395161437988282, 0.9529819946289064, 0.07973225402832032, 192.0, 0.0, 0.0, 0.0, 0.0, 0.0, 0.0, 0.0, 0.0, 0.0, 1.741985917764811E9, 0.0, 2025-03-14 15:58:37.764
212.0, 11669.666966160175, 19119.59280009184, -8744.44946580523, 2117.313697017872, 11139.170663257917, 5350.225311544575, 2816.185690901958, 16842.642944174164, 46153.6924426189, -3205.8213002468706, 22421.034863118515, 40331.39828817824, 8515.366436882787, -2238.504855454547, 15756.50462585743, -16806.947208279038, -0.23395161437988282, 0.9529819946289064, 0.07973225402832032, 192.0, 0.0, 0.0, 0.0, 0.0, 0.0, 0.0, 0.0, 0.0, 0.0, 1.7419859178233E9, 0.0, 2025-03-14 15:58:37.823
214.0, 11681.133411065748, 19132.333294431366, -8720.15311958231, 2128.2213483120618, 11160.226006534816, 5349.621814444282, 2834.961156244416, 16846.643906431666, 46154.631215886024, -3204.591954301829, 22421.414842774255, 40293.17680515967, 8509.219707157577, -2238.9965938325636, 15754.35885838972, -16806.61193211221, -0.23395161437988282, 0.9529819946289064, 0.07973225402832032, 192.0, 0.0, 0.0, 0.0, 0.0, 0.0, 0.0, 0.0, 0.0, 0.0, 1.7419859178236E9, 0.0, 2025-03-14 15:58:37.823
216.0, 11674.78551564044, 19130.58985836385, -8742.504864037617, 2120.8229208973553, 11153.92281459842, 5349.957090611111, 2821.125426426581, 16843.4252552301, 46156.97814905383, -3197.0594164203903, 22437.172822615245, 40333.7675730905, 8515.187622927144, -2235.532073441991, 15777.26939645641, -16790.65278657112, -0.23297580718994143, 0.9494909973144532, 0.08286612701416016, 192.0, 124.0, 96.0, 14.5, 72.0, 1.0, 88.0, 0.0, 0.0, 0.0, 1.741985917823837E9, 0.0, 2025-03-14 15:58:37.823
218.0, 11666.850646358806, 19123.54905886043, -8743.600099515927, 2106.0484178123975, 11149.92185234092, 5343.944471352634, 2817.3926851025444, 16841.43594997358, 46146.98691928231, -3206.87183223627, 22415.044595604493, 40294.62966854926, 8520.395579385231, -2243.1093148123405, 15757.286936913364, -16798.520600619388, -0.23297580718994143, 0.9494909973144532, 0.08286612701416016, 192.0, 0.0, 0.0, 0.0, 0.0, 0.0, 0.0, 0.0, 0.0, 0.0, 1.741985917824093E9, 0.0, 2025-03-14 15:58:37.824
220.0, 11670.73984989403, 19127.237096695557, -8756.988794444656, 2106.7189701460566, 11166.797419404676, 5349.688869677648, 2831.9660224874046, 16848.230880287992, 46143.18712272491, -3214.9631637290913, 22423.15827884177, 40331.063012011415, 8508.191526912633, -2244.472771224114, 15769.826265552792, -16798.40884189711, -0.23297580718994143, 0.9494909973144532, 0.08286612701416016, 192.0, 0.0, 0.0, 0.0, 0.0, 0.0, 0.0, 0.0, 0.0, 0.0, 1.741985917824327E9, 0.0, 2025-03-14 15:58:37.824
222.0, 11669.26463475998, 19125.73952981705, -8720.175471326766, 2108.4624062135704, 11157.655555922456, 5352.438134245651, 2816.9680019578936, 16843.46995871901, 46150.093811761595, -3206.4471490916194, 22402.81819138744, 40281.03980792044, 8516.193451427633, -2244.964509602131, 15770.0721347418, -16798.85587678622, -0.23297580718994143, 0.9494909973144532, 0.08286612701416016, 192.0, 0.0, 0.0, 0.0, 0.0, 0.0, 0.0, 0.0, 0.0, 0.0, 1.741985917824569E9, 0.0, 2025-03-14 15:58:37.824
224.0, 11677.31126276389, 19134.25554445452, -8738.950936669224, 2112.0386853264195, 11164.092858325585, 5355.209750558109, 2832.9271474989832, 16852.947098368062, 46137.84505580009, -3204.368436857276, 22431.115499867858, 40332.44882016764, 8507.006884456503, -2239.7789048884997, 15767.50168412944, -16800.2640366869, -0.23297580718994143, 0.9494909973144532, 0.08286612701416016, 192.0, 0.0, 0.0, 0.0, 0.0, 0.0, 0.0, 0.0, 0.0, 0.0, 1.741985917824802E9, 0.0, 2025-03-14 15:58:37.824
226.0, 11667.40943997019, 19123.37024490479, -8741.342573325941, 2107.0765980573415, 11163.377602503015, 5348.325413265874, 2830.5802143311757, 16849.549633210856, 46146.9422157934, -3198.065244920879, 22409.948397868684, 40288.99702894653, 8526.587012599352, -2233.699230396656, 15770.027431252889, -16791.345690649236, -0.23348790359497074, 0.9457454986572267, 0.08543306350708008, 192.0, 124.0, 88.0, 14.5, 56.0, 1.0, 96.0, 0.0, 0.0, 0.0, 1.741985917884137E9, 0.0, 2025-03-14 15:58:37.884
228.0, 11665.576596924853, 19116.865887268294, -8745.276480350076, 2105.266106756462, 11157.20852103335, 5347.610157443304, 2823.025324705282, 16846.688609920577, 46136.86157904406, -3211.811567760893, 22427.24864807709, 40338.34968070385, 8512.728931037062, -2241.0082508335413, 15756.415218879607, -16803.169763466092, -0.23348790359497074, 0.9457454986572267, 0.08543306350708008, 192.0, 0.0, 0.0, 0.0, 0.0, 0.0, 0.0, 0.0, 0.0, 0.0, 1.741985917884451E9, 0.0, 2025-03-14 15:58:37.884
230.0, 11668.482323704044, 19120.598628592328, -8736.402837801319, 2110.7199324035564, 11153.676945409412, 5350.605291200315, 2822.444179349444, 16849.907261122138, 46141.443686657396, -3207.7659020144824, 22405.947435611182, 40298.29535463993, 8514.53942233794, -2244.048088079463, 15749.664992054106, -16799.66053958661, -0.23348790359497074, 0.9457454986572267, 0.08543306350708008, 192.0, 0.0, 0.0, 0.0, 0.0, 0.0, 0.0, 0.0, 0.0, 0.0, 1.741985917884685E9, 0.0, 2025-03-14 15:58:37.884
232.0, 11663.922567835161, 19114.965988989592, -8753.725439754182, 2105.4449207121042, 11154.816884376633, 5342.491607963038, 2816.498615324332, 16839.200775528047, 46145.15407623698, -3198.758148998994, 22443.58777327392, 40356.007558823534, 8499.273180874967, -2238.370744987815, 15770.340355675264, -16792.463277872, -0.23348790359497074, 0.9457454986572267, 0.08543306350708008, 192.0, 0.0, 0.0, 0.0, 0.0, 0.0, 0.0, 0.0, 0.0, 0.0, 1.741985917884917E9, 0.0, 2025-03-14 15:58:37.884
234.0, 11663.296718990412, 19111.233247665554, -8748.003393173623, 2106.808377123878, 11162.036497835696, 5343.273919018975, 2824.478188094877, 16843.089979063272, 46132.972375508834, -3213.5773555728624, 22388.021336558028, 40292.43919759264, 8516.841652016838, -2249.0101753485415, 15750.581413576772, -16803.95207452203, -0.23348790359497074, 0.9457454986572267, 0.08543306350708008, 192.0, 0.0, 0.0, 0.0, 0.0, 0.0, 0.0, 0.0, 0.0, 0.0, 1.741985917885155E9, 0.0, 2025-03-14 15:58:37.885
236.0, 11668.281158003945, 19112.574352332875, -8730.43492203175, 2115.637316183724, 11170.641919450989, 5355.29915753593, 2826.2663276513017, 16852.4777117345, 46134.62640459852, -3216.1701579296778, 22443.74423548511, 40346.19514300766, 8489.505468547997, -2244.115143312829, 15772.955509776535, -16794.787859295353, -0.23474395179748536, 0.9488727493286133, 0.08671653175354004, 192.0, 124.0, 80.0, 14.5, 96.0, 1.0, 96.0, 0.0, 0.0, 0.0, 1.741985917885397E9, 0.0, 2025-03-14 15:58:37.885
238.0, 11660.793323611419, 19108.193410419633, -8727.931526652757, 2109.6917521586124, 11166.037460093195, 5356.439096503151, 2820.2760601372793, 16848.253232032446, 46132.74885806428, -3207.900012481214, 22409.411956001753, 40305.85024426583, 8493.975817439057, -2244.696288668667, 15767.07700098479, -16798.677062830575, -0.23474395179748536, 0.9488727493286133, 0.08671653175354004, 192.0, 0.0, 0.0, 0.0, 0.0, 0.0, 0.0, 0.0, 0.0, 0.0, 1.741985917885642E9, 0.0, 2025-03-14 15:58:37.885
240.0, 11667.632957414742, 19114.027215722468, -8725.696352207226, 2114.5644324498694, 11171.156009573462, 5360.9765006275775, 2823.98644971686, 16849.39317099967, 46125.19396843838, -3200.0545501774013, 22442.559593028975, 40348.20680000864, 8483.045814400413, -2238.5942624323684, 15778.208169723532, -16795.07843197327, -0.23474395179748536, 0.9488727493286133, 0.08671653175354004, 192.0, 0.0, 0.0, 0.0, 0.0, 0.0, 0.0, 0.0, 0.0, 0.0, 1.741985917885883E9, 0.0, 2025-03-14 15:58:37.885
242.0, 11672.12565805026, 19113.87075351128, -8738.436846546752, 2114.407970238682, 11163.198788547372, 5358.003718615022, 2819.8737287370836, 16847.314458765326, 46138.87323604504, -3202.982628701047, 22410.708357180163, 40318.79190430545, 8510.449053102619, -2236.2920327534716, 15769.64745159715, -16799.101745975226, -0.23474395179748536, 0.9488727493286133, 0.08671653175354004, 192.0, 0.0, 0.0, 0.0, 0.0, 0.0, 0.0, 0.0, 0.0, 0.0, 1.741985917943555E9, 0.0, 2025-03-14 15:58:37.943
244.0, 11661.776800367452, 19100.30324462691, -8739.196805858232, 2106.093121301308, 11160.382468746004, 5348.34776501033, 2811.0447896772375, 16840.072493561805, 46135.58752961011, -3210.805739260404, 22443.766587229562, 40349.994939565055, 8487.91849469167, -2236.604957175846, 15770.228596952988, -16805.56140012281, -0.23474395179748536, 0.9488727493286133, 0.08671653175354004, 192.0, 0.0, 0.0, 0.0, 0.0, 0.0, 0.0, 0.0, 0.0, 0.0, 1.741985917943835E9, 0.0, 2025-03-14 15:58:37.943
246.0, 11671.83508537234, 19113.513125599995, -8730.479625520662, 2118.900670874199, 11173.637053208, 5368.710204209114, 2824.902871239528, 16857.216281559024, 46132.74885806428, -3205.240154891033, 22399.376022741322, 40316.377915904275, 8485.660968501685, -2239.3542217438485, 15768.462809141018, -16804.354405922222, -0.2353719758987427, 0.9484363746643067, 0.08635826587677002, 192.0, 124.0, 80.0, 14.5, 80.0, 1.0, 88.0, 0.0, 0.0, 0.0, 1.741985917944075E9, 0.0, 2025-03-14 15:58:37.944
248.0, 11664.816637613374, 19106.852305752316, -8743.77891347157, 2111.70340915959, 11167.870303138532, 5354.91917788019, 2820.7454467708408, 16851.38247625619, 46129.28433767371, -3194.7348349970384, 22441.91139243977, 40347.37978546379, 8488.164363880678, -2231.6875733956786, 15778.543445890362, -16794.09495521724, -0.2353719758987427, 0.9484363746643067, 0.08635826587677002, 192.0, 0.0, 0.0, 0.0, 0.0, 0.0, 0.0, 0.0, 0.0, 0.0, 1.741985917944332E9, 0.0, 2025-03-14 15:58:37.944
250.0, 11674.472591218066, 19111.501468599017, -8725.718703951681, 2114.318563260861, 11173.88292239701, 5362.183494828164, 2828.2332811633687, 16849.884909377684, 46135.60988135456, -3211.789216016438, 22410.507191480065, 40331.24182596705, 8489.39370982572, -2239.175407788206, 15763.031335238378, -16811.104632747727, -0.2353719758987427, 0.9484363746643067, 0.08635826587677002, 192.0, 0.0, 0.0, 0.0, 0.0, 0.0, 0.0, 0.0, 0.0, 0.0, 1.741985917944574E9, 0.0, 2025-03-14 15:58:37.944
252.0, 11673.332652250845, 19105.153573173713, -8716.15215732481, 2109.803510880889, 11175.671061953433, 5354.293329035441, 2819.5608043147095, 16845.883947120186, 46135.18519820991, -3202.4685385785747, 22450.31564835497, 40349.570256420404, 8452.62509019674, -2236.5826054313907, 15783.103201759244, -16808.154202479625, -0.2353719758987427, 0.9484363746643067, 0.08635826587677002, 192.0, 0.0, 0.0, 0.0, 0.0, 0.0, 0.0, 0.0, 0.0, 0.0, 1.741985917944801E9, 0.0, 2025-03-14 15:58:37.944
254.0, 11657.954652065595, 19091.183732889145, -8752.652556020326, 2098.448824697593, 11166.395088004481, 5345.2408725310415, 2805.054522163215, 16835.80331037084, 46136.526302877224, -3209.911669482192, 22417.68210145022, 40341.65773888323, 8483.805773711894, -2245.0315648354967, 15767.59109110726, -16819.33007470728, -0.2353719758987427, 0.9484363746643067, 0.08635826587677002, 192.0, 0.0, 0.0, 0.0, 0.0, 0.0, 0.0, 0.0, 0.0, 0.0, 1.741985917945034E9, 0.0, 2025-03-14 15:58:37.945
0.0, 11662.670870145665, 19094.312977112888, -8726.948049896724, 2102.4721386995484, 11170.552512473168, 5344.413857986196, 2809.2342983763574, 16832.89758359165, 46122.914090503946, -3218.6064980753063, 22423.225334075134, 40326.302090442434, 8466.639633970217, -2248.0043468480526, 15762.427838138085, -16826.437929444066, -0.23768598794937135, 0.9502181873321534, 0.08217913293838501, 192.0, 124.0, 64.0, 14.5, 96.0, 1.0, 56.0, 0.0, 0.0, 0.0, 1.741985918002679E9, 0.0, 2025-03-14 15:58:38.002
2.0, 11660.860378844784, 19092.50248581201, -8737.788645957547, 2097.3982927081934, 11168.071468838629, 5347.364288254295, 2807.1779378864694, 16836.630324915688, 46134.55934936516, -3216.974820730069, 22417.413880516753, 40338.483791170576, 8488.63375051424, -2250.9771288606084, 15758.337468902764, -16831.131795779682, -0.23768598794937135, 0.9502181873321534, 0.08217913293838501, 192.0, 0.0, 0.0, 0.0, 0.0, 0.0, 0.0, 0.0, 0.0, 0.0, 1.74198591800298E9, 0.0, 2025-03-14 15:58:38.002
4.0, 11670.78455338294, 19099.409174848697, -8715.839232902435, 2107.8812608577327, 11173.793515419187, 5344.905596364212, 2813.4364263339553, 16837.47969120499, 46128.81495104015, -3207.363570614287, 22423.96294164216, 40333.36524169031, 8461.968119379058, -2246.7750009030106, 15768.775733563392, -16830.03656030137, -0.23768598794937135, 0.9502181873321534, 0.08217913293838501, 192.0, 0.0, 0.0, 0.0, 0.0, 0.0, 0.0, 0.0, 0.0, 0.0, 1.74198591800322E9, 0.0, 2025-03-14 15:58:38.003
6.0, 11666.515370191977, 19093.39655559022, -8750.640899019349, 2097.063016541364, 11173.458239252359, 5347.990137099045, 2803.065216906693, 16834.75277838144, 46138.18033196692, -3207.9223642256698, 22429.05913937797, 40353.03477681098, 8503.251791388011, -2241.120009555818, 15775.458905155529, -16826.683798633076, -0.23768598794937135, 0.9502181873321534, 0.08217913293838501, 192.0, 0.0, 0.0, 0.0, 0.0, 0.0, 0.0, 0.0, 0.0, 0.0, 1.741985918003451E9, 0.0, 2025-03-14 15:58:38.003
8.0, 11668.92935859315, 19092.278968367456, -8718.29792479252, 2101.9804003215313, 11174.151143330473, 5345.218520786586, 2803.758120984807, 16836.09388304876, 46134.35818366506, -3209.241117148533, 22425.505212009575, 40315.394439148244, 8478.307244575888, -2242.3940589897707, 15763.724239316492, -16826.28146723288, -0.23768598794937135, 0.9502181873321534, 0.08217913293838501, 192.0, 0.0, 0.0, 0.0, 0.0, 0.0, 0.0, 0.0, 0.0, 0.0, 1.741985918003684E9, 0.0, 2025-03-14 15:58:38.003
10.0, 11667.07416380336, 19091.407250333697, -8728.19974758622, 2103.1426910332075, 11176.296910798183, 5350.828808644868, 2808.7425599983408, 16843.648772674653, 46133.44176214239, -3216.6395445632393, 22438.4468720492, 40357.79569837996, 8460.179979822633, -2244.472771224114, 15775.458905155529, -16821.118214263704, -0.23684299397468567, 0.9501090936660768, 0.0810895664691925, 192.0, 124.0, 80.0, 14.5, 88.0, 1.0, 64.0, 0.0, 0.0, 0.0, 1.741985918003924E9, 0.0, 2025-03-14 15:58:38.003
12.0, 11667.230626014547, 19093.01657593448, -8735.911099423301, 2101.3992549656937, 11184.611759735557, 5351.901692378723, 2807.1108826531035, 16840.296011006358, 46128.03263998421, -3218.5394428419404, 22412.92117988124, 40314.8132937924, 8489.974855181557, -2243.7128119126337, 15762.40548639363, -16821.65465613063, -0.23684299397468567, 0.9501090936660768, 0.0810895664691925, 192.0, 0.0, 0.0, 0.0, 0.0, 0.0, 0.0, 0.0, 0.0, 0.0, 1.741985918004167E9, 0.0, 2025-03-14 15:58:38.004
14.0, 11667.923530092661, 19094.06710792388, -8730.412570287297, 2104.1261677892408, 11175.559303231157, 5353.555721468416, 2808.630801276064, 16846.733313409488, 46130.75955280776, -3208.3917508592313, 22431.83075569043, 40355.6275791678, 8479.67070098766, -2242.706983412145, 15774.631890610683, -16815.08324326077, -0.23684299397468567, 0.9501090936660768, 0.0810895664691925, 192.0, 0.0, 0.0, 0.0, 0.0, 0.0, 0.0, 0.0, 0.0, 0.0, 1.741985918004399E9, 0.0, 2025-03-14 15:58:38.004
16.0, 11672.975024339561, 19099.54328531543, -8721.471872505173, 2106.7413218905117, 11182.60010273458, 5355.589730213849, 2804.0486936627262, 16847.96265935453, 46138.31444243365, -3212.236250905544, 22417.235066561112, 40318.30016592743, 8489.147840636711, -2246.3950212472705, 15767.255814940432, -16815.731443849974, -0.23684299397468567, 0.9501090936660768, 0.0810895664691925, 192.0, 0.0, 0.0, 0.0, 0.0, 0.0, 0.0, 0.0, 0.0, 0.0, 1.741985918063333E9, 0.0, 2025-03-14 15:58:38.063
18.0, 11667.856474859294, 19093.798886990415, -8738.638012246849, 2101.958048577076, 11174.933454386408, 5348.012488843499, 2803.735769240352, 16842.039447073872, 46133.12883772002, -3217.421855619175, 22441.3973023173, 40364.12124206081, 8477.72609922005, -2242.3270037564043, 15769.222768452499, -16818.480708417977, -0.23684299397468567, 0.9501090936660768, 0.0810895664691925, 192.0, 0.0, 0.0, 0.0, 0.0, 0.0, 0.0, 0.0, 0.0, 0.0, 1.741985918063604E9, 0.0, 2025-03-14 15:58:38.063
20.0, 11672.036251072437, 19101.197314405123, -8730.032590631556, 2106.2719352569507, 11184.857628924565, 5354.539198224449, 2815.805711246218, 16848.834377388284, 46130.64779408548, -3219.031181219957, 22404.181647799214, 40314.25450018102, 8483.805773711894, -2247.311442769938, 15767.814608551815, -16819.12890900718, -0.23542149698734283, 0.9490545468330385, 0.08154478323459625, 192.0, 124.0, 88.0, 14.5, 80.0, 1.0, 72.0, 0.0, 0.0, 0.0, 1.741985918063836E9, 0.0, 2025-03-14 15:58:38.063
22.0, 11664.347250979812, 19093.664776523685, -8748.472779807184, 2095.5654496628586, 11180.45433526687, 5339.407067228207, 2802.215850617391, 16842.128854051694, 46135.09579123209, -3211.1857189161447, 22439.02801740504, 40368.23396304059, 8493.126451149756, -2249.792486404477, 15770.273300441899, -16820.09003401876, -0.23542149698734283, 0.9490545468330385, 0.08154478323459625, 192.0, 0.0, 0.0, 0.0, 0.0, 0.0, 0.0, 0.0, 0.0, 0.0, 1.741985918064089E9, 0.0, 2025-03-14 15:58:38.064
24.0, 11669.64461441572, 19099.029195192958, -8734.525291267073, 2098.068845041853, 11183.337710301605, 5338.691811405637, 2794.7503679693186, 16836.89854584915, 46131.60891909706, -3219.7240852980717, 22390.010641814548, 40307.39251463324, 8495.607494784295, -2254.821628906921, 15750.179082176577, -16831.355313224234, -0.23542149698734283, 0.9490545468330385, 0.08154478323459625, 192.0, 0.0, 0.0, 0.0, 0.0, 0.0, 0.0, 0.0, 0.0, 0.0, 1.741985918064322E9, 0.0, 2025-03-14 15:58:38.064
26.0, 11666.157742280691, 19095.654081780205, -8728.959706897702, 2099.834632853822, 11190.40086154948, 5337.350706738318, 2798.1478331265253, 16841.5253569514, 46128.05499172866, -3212.102140438812, 22446.426444819743, 40362.64602692676, 8472.540494506418, -2248.7196026706224, 15777.73878308997, -16821.721711363996, -0.23542149698734283, 0.9490545468330385, 0.08154478323459625, 192.0, 0.0, 0.0, 0.0, 0.0, 0.0, 0.0, 0.0, 0.0, 0.0, 1.741985918064561E9, 0.0, 2025-03-14 15:58:38.064
28.0, 11667.230626014547, 19094.625901535263, -8726.836291174448, 2099.8793363427326, 11188.277445826227, 5339.228253272564, 2793.02928364626, 16840.43012147309, 46131.51951211924, -3225.3343731563536, 22398.392545985287, 40303.57036633138, 8478.508410275985, -2253.726393428611, 15768.574567863294, -16827.33199922228, -0.23542149698734283, 0.9490545468330385, 0.08154478323459625, 192.0, 0.0, 0.0, 0.0, 0.0, 0.0, 0.0, 0.0, 0.0, 0.0, 1.741985918064806E9, 0.0, 2025-03-14 15:58:38.064
30.0, 11663.766105623974, 19090.513180555485, -8737.229852346165, 2095.744263618501, 11185.505829513768, 5341.329317251363, 2793.02928364626, 16839.71486565052, 46138.7391255783, -3216.751303285516, 22439.25153484959, 40357.81805012441, 8484.20810511209, -2251.535922471991, 15772.463771398518, -16826.39322595516, -0.2387107484936714, 0.9475272734165192, 0.08077239161729813, 192.0, 124.0, 56.0, 14.5, 72.0, 1.0, 64.0, 0.0, 0.0, 0.0, 1.74198591812459E9, 0.0, 2025-03-14 15:58:38.124
32.0, 11662.156780023191, 19090.513180555485, -8747.891634451345, 2095.9677810630537, 11204.08012915613, 5342.268090518486, 2795.577382514165, 16842.82175812981, 46131.81008479716, -3228.709486569105, 22400.20303728617, 40314.54507285894, 8505.509317577997, -2252.988785861586, 15762.472541626996, -16827.466109689012, -0.2387107484936714, 0.9475272734165192, 0.08077239161729813, 192.0, 0.0, 0.0, 0.0, 0.0, 0.0, 0.0, 0.0, 0.0, 0.0, 1.741985918124895E9, 0.0, 2025-03-14 15:58:38.124
34.0, 11659.765143366474, 19087.272177609466, -8732.312468565997, 2098.426472953138, 11189.104460371072, 5343.3633259967955, 2797.544336026232, 16846.08511282028, 46128.03263998421, -3217.265393407988, 22432.970694657648, 40352.587741921874, 8464.493866502507, -2248.3619747593375, 15773.111971987722, -16816.04436827235, -0.2387107484936714, 0.9475272734165192, 0.08077239161729813, 192.0, 0.0, 0.0, 0.0, 0.0, 0.0, 0.0, 0.0, 0.0, 0.0, 1.741985918125139E9, 0.0, 2025-03-14 15:58:38.125
36.0, 11655.518311919966, 19082.980642674047, -8734.34647731143, 2097.3982927081934, 11190.6914342274, 5341.4857794625495, 2798.50546103781, 16842.44177847407, 46131.18423595241, -3222.071018465879, 22393.229293016113, 40311.79580829094, 8473.434564284631, -2254.151076573262, 15771.770867320403, -16816.625513628187, -0.2387107484936714, 0.9475272734165192, 0.08077239161729813, 192.0, 0.0, 0.0, 0.0, 0.0, 0.0, 0.0, 0.0, 0.0, 0.0, 1.74198591812537E9, 0.0, 2025-03-14 15:58:38.125
38.0, 11653.819579341362, 19078.39853506071, -8749.366849585396, 2092.5032606724812, 11189.97617840483, 5337.507168949505, 2801.4335395614553, 16838.28435400538, 46126.669183572434, -3229.5812046028623, 22429.707339967175, 40355.00173032305, 8477.904913175693, -2259.6496057092677, 15759.1197799587, -16829.924801579094, -0.2387107484936714, 0.9475272734165192, 0.08077239161729813, 192.0, 0.0, 0.0, 0.0, 0.0, 0.0, 0.0, 0.0, 0.0, 0.0, 1.741985918125595E9, 0.0, 2025-03-14 15:58:38.125
40.0, 11661.01684105597, 19086.333404342342, -8741.700201237227, 2103.5897259223134, 11200.459146554369, 5350.381773755762, 2805.0768739076702, 16849.61668844422, 46110.01713395323, -3220.551099842918, 22388.267205747034, 40327.19616022064, 8461.498732745496, -2251.2900532829826, 15766.36174516222, -16822.19109799756, -0.23835537424683573, 0.9497636367082596, 0.08238619580864906, 192.0, 124.0, 72.0, 14.5, 96.0, 1.0, 80.0, 0.0, 0.0, 0.0, 1.741985918125838E9, 0.0, 2025-03-14 15:58:38.125
42.0, 11668.057640559393, 19091.63076777825, -8723.639991717338, 2110.094083558808, 11211.344446104104, 5357.020241858989, 2813.838757734151, 16860.30082229386, 46149.78088733922, -3213.5773555728624, 22439.989142416616, 40341.45657318313, 8487.717328991572, -2238.3260414989045, 15773.290785943365, -16812.80336532633, -0.23835537424683573, 0.9497636367082596, 0.08238619580864906, 192.0, 0.0, 0.0, 0.0, 0.0, 0.0, 0.0, 0.0, 0.0, 0.0, 1.741985918126077E9, 0.0, 2025-03-14 15:58:38.126
44.0, 11657.351154965301, 19079.35966007229, -8730.412570287297, 2103.8132433668666, 11204.817736723155, 5353.8686458907905, 2811.961211199905, 16861.396057772166, 46123.94227074889, -3223.6579923222057, 22409.166086812747, 40345.90457032974, 8453.317994274854, -2243.5563497014464, 15781.627986625193, -16809.987045524962, -0.23835537424683573, 0.9497636367082596, 0.08238619580864906, 192.0, 0.0, 0.0, 0.0, 0.0, 0.0, 0.0, 0.0, 0.0, 0.0, 1.741985918126299E9, 0.0, 2025-03-14 15:58:38.126
46.0, 11656.390029953722, 19078.77851471645, -8734.704105222716, 2100.706350887579, 11210.629190281534, 5349.1747795551755, 2808.3625803426007, 16851.494234978465, 46133.73233482031, -3221.0428382209348, 22427.04748237699, 40347.759765119525, 8468.830104926838, -2244.6515851797562, 15777.716431345516, -16811.976350781482, -0.23835537424683573, 0.9497636367082596, 0.08238619580864906, 192.0, 0.0, 0.0, 0.0, 0.0, 0.0, 0.0, 0.0, 0.0, 0.0, 1.741985918183483E9, 0.0, 2025-03-14 15:58:38.183
48.0, 11652.143198507214, 19074.39757280321, -8752.809018231514, 2091.9444670610987, 11201.576733777134, 5344.056230074911, 2795.8232517031734, 16841.95004009605, 46117.48261660131, -3233.4480563936304, 22396.760868640053, 40345.65870114073, 8469.701822960595, -2260.4319167652034, 15768.64162309666, -16826.884964333174, -0.23835537424683573, 0.9497636367082596, 0.08238619580864906, 192.0, 0.0, 0.0, 0.0, 0.0, 0.0, 0.0, 0.0, 0.0, 0.0, 1.741985918185873E9, 0.0, 2025-03-14 15:58:38.185
50.0, 11653.774875852452, 19073.72702046955, -8734.882919178357, 2095.476042685037, 11217.915858973964, 5335.0261253149665, 2805.054522163215, 16843.6264209302, 46117.63907881249, -3231.615213348295, 22412.027110103027, 40334.3710701908, 8472.987529395525, -2256.721527185622, 15772.799047565348, -16826.3708742107, -0.23617768712341786, 0.9508818183541299, 0.08219309790432452, 192.0, 124.0, 88.0, 14.5, 96.0, 1.0, 72.0, 0.0, 0.0, 0.0, 1.741985918186112E9, 0.0, 2025-03-14 15:58:38.186
52.0, 11652.746695607508, 19074.978718159047, -8733.877090677868, 2098.158252019674, 11208.84105072511, 5345.911424864701, 2799.131309882559, 16854.08703733528, 46135.207549954364, -3236.2867279394545, 22402.460563476154, 40352.878314599795, 8468.651290971195, -2256.050974851963, 15769.155713219132, -16832.405845213634, -0.23617768712341786, 0.9508818183541299, 0.08219309790432452, 192.0, 0.0, 0.0, 0.0, 0.0, 0.0, 0.0, 0.0, 0.0, 0.0, 1.741985918186362E9, 0.0, 2025-03-14 15:58:38.186
54.0, 11655.36184970878, 19077.169189115666, -8730.63608773185, 2101.3321997323274, 11205.756509990277, 5349.10772432181, 2794.325684824668, 16844.09580756376, 46128.636137084504, -3221.7133905545943, 22411.267150791544, 40329.654852110725, 8459.844703655805, -2247.4902567255804, 15772.776695820892, -16825.029769543384, -0.23617768712341786, 0.9508818183541299, 0.08219309790432452, 192.0, 0.0, 0.0, 0.0, 0.0, 0.0, 0.0, 0.0, 0.0, 0.0, 1.741985918186601E9, 0.0, 2025-03-14 15:58:38.186
56.0, 11660.838027100328, 19082.511256040485, -8734.033552889055, 2104.7743683784447, 11218.74287351881, 5351.074677833877, 2794.3703883135786, 16839.401941228145, 46131.11718071904, -3219.657030064706, 22418.39735727279, 40356.94633209066, 8460.872883900749, -2241.9023206117536, 15780.488047657973, -16822.638132886666, -0.23617768712341786, 0.9508818183541299, 0.08219309790432452, 192.0, 0.0, 0.0, 0.0, 0.0, 0.0, 0.0, 0.0, 0.0, 0.0, 1.741985918186851E9, 0.0, 2025-03-14 15:58:38.186
58.0, 11644.54360539241, 19061.366505785765, -8733.139483110843, 2080.9474087890876, 11205.041254167707, 5331.069866546377, 2784.870896920073, 16824.80625209883, 46125.641003327495, -3230.7881988034487, 22405.589807699896, 40326.570311375894, 8450.680488429129, -2253.569931217424, 15775.50360864444, -16836.451510960043, -0.23617768712341786, 0.9508818183541299, 0.08219309790432452, 192.0, 0.0, 0.0, 0.0, 0.0, 0.0, 0.0, 0.0, 0.0, 0.0, 1.741985918187082E9, 0.0, 2025-03-14 15:58:38.187
60.0, 11647.717553105063, 19064.54045349842, -8761.347384613442, 2078.578123876825, 11212.84201298261, 5332.343915980329, 2794.035112146749, 16835.356275481736, 46115.96269797834, -3242.8804925537697, 22405.634511188808, 40351.91718958822, 8452.602738452284, -2271.4960302705804, 15760.438532881562, -16853.14826406816, -0.23508884356170895, 0.9504409091770649, 0.08209654895216226, 192.0, 124.0, 88.0, 14.5, 88.0, 1.0, 72.0, 0.0, 0.0, 0.0, 1.741985918242869E9, 0.0, 2025-03-14 15:58:38.242
62.0, 11652.59023339632, 19067.87086342226, -8738.883881435857, 2088.926981559632, 11212.819661238154, 5343.229215530064, 2798.2372401043463, 16844.699304664053, 46133.97820400932, -3236.2867279394545, 22390.81530461494, 40302.609241319806, 8468.807753182382, -2259.180219075706, 15758.78450379187, -16845.928650609094, -0.23508884356170895, 0.9504409091770649, 0.08209654895216226, 192.0, 0.0, 0.0, 0.0, 0.0, 0.0, 0.0, 0.0, 0.0, 0.0, 1.74198591824314E9, 0.0, 2025-03-14 15:58:38.243
64.0, 11664.21314051308, 19081.952462429104, -8721.471872505173, 2104.4837957005257, 11222.02857995374, 5359.523637237983, 2810.6871617659526, 16858.91501413763, 46136.682765088415, -3222.0263149769685, 22424.25351432008, 40367.831631640394, 8446.008973837968, -2241.8129136339326, 15781.583283136284, -16827.24259224446, -0.23508884356170895, 0.9504409091770649, 0.08209654895216226, 192.0, 0.0, 0.0, 0.0, 0.0, 0.0, 0.0, 0.0, 0.0, 0.0, 1.74198591824337E9, 0.0, 2025-03-14 15:58:38.243
66.0, 11654.914814819673, 19072.20710184659, -8735.419361045286, 2094.6937316291014, 11214.876021728041, 5347.274881276475, 2801.902926195017, 16844.60989768623, 46123.539939348695, -3226.519015612485, 22400.873589619827, 40328.336099187865, 8449.898177373192, -2245.925634613709, 15766.115875973212, -16834.19398477006, -0.23508884356170895, 0.9504409091770649, 0.08209654895216226, 192.0, 0.0, 0.0, 0.0, 0.0, 0.0, 0.0, 0.0, 0.0, 0.0, 1.741985918243607E9, 0.0, 2025-03-14 15:58:38.243
68.0, 11655.004221797493, 19071.380087301743, -8743.510692538106, 2092.190336250107, 11206.002379179285, 5340.569357939882, 2788.536583010743, 16840.13954879517, 46138.0909249891, -3225.3120214118985, 22424.477031764633, 40375.34181777738, 8443.215005781056, -2250.9100736272426, 15765.31121317282, -16838.08318830528, -0.23508884356170895, 0.9504409091770649, 0.08209654895216226, 192.0, 0.0, 0.0, 0.0, 0.0, 0.0, 0.0, 0.0, 0.0, 0.0, 1.74198591824385E9, 0.0, 2025-03-14 15:58:38.243
70.0, 11662.35794572329, 19075.090476881323, -8738.97328841368, 2094.7607868624673, 11214.808966494676, 5346.716087665091, 2796.985542414849, 16846.04040933137, 46135.498122632285, -3226.5637191013957, 22390.122400536824, 40313.874520525285, 8458.414192010665, -2252.429992250203, 15752.816588022304, -16842.553537196345, -0.2355444217808545, 0.9502204545885324, 0.08304827447608112, 192.0, 124.0, 80.0, 14.5, 88.0, 1.0, 80.0, 0.0, 0.0, 0.0, 1.741985918244092E9, 0.0, 2025-03-14 15:58:38.244
72.0, 11654.35602120829, 19066.686220966127, -8742.840140204447, 2086.714158858557, 11229.337600390625, 5344.235044030553, 2807.066179164193, 16844.207566286037, 46132.14536096399, -3233.5151116269963, 22424.298217808988, 40373.57602996541, 8440.175168535134, -2257.63794870829, 15762.0702102268, -16845.682781420088, -0.2355444217808545, 0.9502204545885324, 0.08304827447608112, 192.0, 0.0, 0.0, 0.0, 0.0, 0.0, 0.0, 0.0, 0.0, 0.0, 1.741985918244333E9, 0.0, 2025-03-14 15:58:38.244
74.0, 11658.133466021236, 19069.569596000863, -8725.383427784853, 2091.7656531054563, 11230.36578063557, 5344.100933563821, 2815.448083334933, 16852.120083823214, 46136.816875555145, -3227.681306324161, 22389.205979014157, 40313.53924435845, 8447.886520372214, -2252.988785861586, 15772.821399309803, -16839.357237739234, -0.2355444217808545, 0.9502204545885324, 0.08304827447608112, 192.0, 0.0, 0.0, 0.0, 0.0, 0.0, 0.0, 0.0, 0.0, 0.0, 1.74198591824457E9, 0.0, 2025-03-14 15:58:38.244
76.0, 11647.672849616152, 19060.897119152203, -8743.39893381583, 2084.166059990652, 11219.055797941184, 5346.224349287075, 2803.1769756289696, 16844.632249430688, 46130.84895978558, -3230.5199778699853, 22428.634456233318, 40369.06097758543, 8441.359810991265, -2251.7147364276334, 15773.782524321381, -16844.00640058594, -0.2355444217808545, 0.9502204545885324, 0.08304827447608112, 192.0, 0.0, 0.0, 0.0, 0.0, 0.0, 0.0, 0.0, 0.0, 0.0, 1.741985918275993E9, 0.0, 2025-03-14 15:58:38.275
78.0, 11652.076143273849, 19063.400514531197, -8744.784741972058, 2088.278780970428, 11220.106329930584, 5345.732610909058, 2797.4996325373213, 16841.81592962932, 46126.22214868333, -3235.4150099056974, 22382.61221439984, 40320.49063688405, 8443.393819736699, -2257.727355686111, 15762.852521282735, -16849.549633210856, -0.2355444217808545, 0.9502204545885324, 0.08304827447608112, 192.0, 0.0, 0.0, 0.0, 0.0, 0.0, 0.0, 0.0, 0.0, 0.0, 1.741985918276246E9, 0.0, 2025-03-14 15:58:38.276
80.0, 11655.07127703086, 19066.082723865835, -8736.604003501416, 2091.877411827733, 11219.88281248603, 5355.4556197471165, 2793.7892429577405, 16849.77315065541, 46139.186160467405, -3223.0097917330017, 22425.57226724294, 40368.99392235207, 8435.548357432885, -2242.058782822941, 15770.228596952988, -16837.882022605183, -0.23677221089042727, 0.9481102272942663, 0.08252413723804056, 192.0, 124.0, 72.0, 14.5, 72.0, 1.0, 72.0, 0.0, 0.0, 0.0, 1.741985918327426E9, 0.0, 2025-03-14 15:58:38.327
82.0, 11655.607718897787, 19066.77562794395, -8735.307602323008, 2092.615019394758, 11226.431873611436, 5355.880302891767, 2809.3684088430896, 16850.488406477976, 46134.447590642885, -3228.418913891186, 22385.09325803438, 40321.09413398435, 8435.458950455064, -2247.8478846368653, 15763.925405016591, -16839.245479016958, -0.23677221089042727, 0.9481102272942663, 0.08252413723804056, 192.0, 0.0, 0.0, 0.0, 0.0, 0.0, 0.0, 0.0, 0.0, 0.0, 1.741985918327719E9, 0.0, 2025-03-14 15:58:38.327
84.0, 11656.345326464812, 19064.406343031686, -8732.066599376989, 2089.642237382202, 11231.7515887918, 5352.594596456837, 2814.5540135567207, 16847.403865743145, 46140.90724479047, -3227.435437135153, 22427.159241099267, 40359.293265258464, 8441.96330809156, -2252.0276608500076, 15773.31313768782, -16840.988915084472, -0.23677221089042727, 0.9481102272942663, 0.08252413723804056, 192.0, 0.0, 0.0, 0.0, 0.0, 0.0, 0.0, 0.0, 0.0, 0.0, 1.741985918327974E9, 0.0, 2025-03-14 15:58:38.327
86.0, 11659.720439877563, 19068.161436100178, -8734.078256377967, 2088.8822780707214, 11228.287068401227, 5345.687907420148, 2806.328571597168, 16851.360124511735, 46144.34941343658, -3230.2517569365214, 22389.608310414354, 40331.08536375587, 8440.488092957508, -2251.535922471991, 15768.239291696465, -16842.978220340996, -0.23677221089042727, 0.9481102272942663, 0.08252413723804056, 192.0, 0.0, 0.0, 0.0, 0.0, 0.0, 0.0, 0.0, 0.0, 0.0, 1.741985918328198E9, 0.0, 2025-03-14 15:58:38.328
88.0, 11659.027535799449, 19068.764933200473, -8733.318297066486, 2091.989170550009, 11231.12573994705, 5348.213654543598, 2807.8484902201285, 16846.88977562067, 46137.934462777914, -3230.7881988034487, 22423.76177594206, 40361.17081179271, 8432.039133553402, -2257.1685620747285, 15758.02454448039, -16850.600165200256, -0.23677221089042727, 0.9481102272942663, 0.08252413723804056, 192.0, 0.0, 0.0, 0.0, 0.0, 0.0, 0.0, 0.0, 0.0, 0.0, 1.74198591832843E9, 0.0, 2025-03-14 15:58:38.328
90.0, 11659.83219859984, 19069.793113445416, -8738.526253524573, 2097.5547549193807, 11232.064513214173, 5347.788971398946, 2798.12548138207, 16844.967525597516, 46145.66816635945, -3224.7085243116053, 22389.340089480887, 40333.20877947912, 8448.355907005776, -2248.7196026706224, 15764.417143394609, -16845.19104304207, -0.23438610544521365, 0.9500551136471331, 0.08426206861902028, 192.0, 124.0, 96.0, 14.5, 96.0, 1.0, 88.0, 0.0, 0.0, 0.0, 1.741985918328669E9, 0.0, 2025-03-14 15:58:38.328
92.0, 11667.342384736823, 19076.744505971015, -8721.20365157171, 2107.8812608577327, 11243.41919939747, 5357.847256403835, 2813.3693711005894, 16856.478673992002, 46147.67982336043, -3220.9981347320245, 22423.180630586223, 40358.667416413715, 8440.689258657607, -2242.8634456233317, 15769.602748108238, -16842.508833707434, -0.23438610544521365, 0.9500551136471331, 0.08426206861902028, 192.0, 0.0, 0.0, 0.0, 0.0, 0.0, 0.0, 0.0, 0.0, 0.0, 1.741985918328925E9, 0.0, 2025-03-14 15:58:38.328
94.0, 11662.82733235685, 19072.028287890946, -8737.095741879433, 2098.448824697593, 11236.914841760974, 5347.856026632313, 2813.883461223061, 16847.76149365443, 46154.25123623029, -3221.869852765781, 22397.520827951532, 40349.92788433169, 8453.541511719408, -2245.2327305355943, 15771.659108598127, -16842.397074985158, -0.23438610544521365, 0.9500551136471331, 0.08426206861902028, 192.0, 0.0, 0.0, 0.0, 0.0, 0.0, 0.0, 0.0, 0.0, 0.0, 1.741985918329159E9, 0.0, 2025-03-14 15:58:38.329
96.0, 11662.380297467746, 19070.463665779076, -8731.708971465703, 2095.029007795931, 11238.010077239285, 5346.224349287075, 2808.250821620324, 16846.91212736513, 46155.10060251959, -3227.077809223868, 22417.346825283388, 40354.08530880038, 8454.524988475441, -2252.3182335279266, 15762.651355582639, -16847.850900632253, -0.23438610544521365, 0.9500551136471331, 0.08426206861902028, 192.0, 0.0, 0.0, 0.0, 0.0, 0.0, 0.0, 0.0, 0.0, 0.0, 1.741985918382648E9, 0.0, 2025-03-14 15:58:38.382
98.0, 11667.700012648107, 19080.924282184158, -8733.63122148886, 2097.9570863195763, 11251.778751823755, 5351.097029578332, 2813.1011501671255, 16855.361086769233, 46160.3979659555, -3223.7697510444823, 22398.884284363307, 40344.87639008479, 8465.209122325077, -2248.607843948346, 15766.428800395584, -16842.732351151986, -0.23438610544521365, 0.9500551136471331, 0.08426206861902028, 192.0, 0.0, 0.0, 0.0, 0.0, 0.0, 0.0, 0.0, 0.0, 0.0, 1.741985918382922E9, 0.0, 2025-03-14 15:58:38.382
100.0, 11662.603814912298, 19079.806694961393, -8729.183224342254, 2094.1125862732633, 11250.504702389802, 5347.341936509841, 2816.766836257796, 16857.037467603383, 46154.83238158612, -3224.9990969895243, 22414.128174081823, 40338.10381151483, 8464.471514758054, -2253.9499108731643, 15763.746591060948, -16842.486481962977, -0.23219305272260682, 0.9530275568235667, 0.08513103430951013, 192.0, 124.0, 104.0, 14.5, 112.0, 1.0, 88.0, 0.0, 0.0, 0.0, 1.74198591838317E9, 0.0, 2025-03-14 15:58:38.383
102.0, 11671.298643505412, 19093.01657593448, -8733.094779621933, 2100.5722404208473, 11255.578548381156, 5358.786029670958, 2825.4840165953656, 16864.77117118492, 46160.77794561123, -3219.4558643646083, 22410.551894968976, 40363.47304147161, 8473.322805562355, -2245.925634613709, 15772.59788186525, -16825.81208059932, -0.23219305272260682, 0.9530275568235667, 0.08513103430951013, 192.0, 0.0, 0.0, 0.0, 0.0, 0.0, 0.0, 0.0, 0.0, 0.0, 1.741985918383441E9, 0.0, 2025-03-14 15:58:38.383
104.0, 11665.464838202577, 19088.59093053233, -8726.501015007618, 2096.101891529786, 11255.220920469872, 5351.611119700804, 2811.2683071217907, 16860.72550543851, 46164.26481774626, -3225.6025940898176, 22417.61504621685, 40338.5731981484, 8477.569637008863, -2249.5913207043795, 15771.457942898029, -16819.218315985003, -0.23219305272260682, 0.9530275568235667, 0.08513103430951013, 192.0, 0.0, 0.0, 0.0, 0.0, 0.0, 0.0, 0.0, 0.0, 0.0, 1.741985918383678E9, 0.0, 2025-03-14 15:58:38.383
106.0, 11662.425000956655, 19092.68129976765, -8743.153064626822, 2095.7889671074113, 11247.531920377245, 5350.270015033486, 2809.2342983763574, 16860.23376706049, 46158.363957210066, -3229.9611842586023, 22408.316720523446, 40357.25925651303, 8469.321843304855, -2252.474695739114, 15763.612480594216, -16816.603161883733, -0.23219305272260682, 0.9530275568235667, 0.08513103430951013, 192.0, 0.0, 0.0, 0.0, 0.0, 0.0, 0.0, 0.0, 0.0, 0.0, 1.741985918383918E9, 0.0, 2025-03-14 15:58:38.383
108.0, 11674.941977851628, 19107.63461680825, -8722.812977172493, 2107.858909113277, 11248.314231433182, 5350.1135528222985, 2817.996182202838, 16864.905281651652, 46164.95772182438, -3223.8591580223037, 22402.929950109716, 40320.69180258415, 8472.518142761963, -2248.6525474372565, 15766.69702132905, -16812.311626948314, -0.23219305272260682, 0.9530275568235667, 0.08513103430951013, 192.0, 0.0, 0.0, 0.0, 0.0, 0.0, 0.0, 0.0, 0.0, 0.0, 1.741985918384151E9, 0.0, 2025-03-14 15:58:38.384
110.0, 11683.435640744645, 19120.73273905906, -8727.328029552464, 2116.1290545617408, 11250.83997855663, 5355.880302891767, 2817.415036847, 16869.129761353703, 46179.262838275776, -3214.9631637290913, 22429.282656822525, 40374.62656195481, 8476.58616025283, -2238.3036897544494, 15778.007004023435, -16802.298045432337, -0.2330965263613034, 0.9495137784117833, 0.08856551715475507, 192.0, 124.0, 88.0, 14.5, 72.0, 1.0, 112.0, 0.0, 0.0, 0.0, 1.741985918442949E9, 0.0, 2025-03-14 15:58:38.442
112.0, 11683.726213422564, 19119.771614047484, -8716.509785236096, 2112.575127193347, 11249.99061226733, 5349.10772432181, 2808.831966976162, 16866.335793296792, 46185.09664357861, -3217.4889108525413, 22413.368214770344, 40333.40994517922, 8471.355852050287, -2237.834303120888, 15771.770867320403, -16805.248475700435, -0.2330965263613034, 0.9495137784117833, 0.08856551715475507, 192.0, 0.0, 0.0, 0.0, 0.0, 0.0, 0.0, 0.0, 0.0, 0.0, 1.741985918443219E9, 0.0, 2025-03-14 15:58:38.443
114.0, 11680.373451754267, 19116.150631445722, -8727.663305719294, 2111.479891715037, 11251.734048334843, 5350.851160389324, 2809.7707402432848, 16856.85865364774, 46187.46592849087, -3218.0477044639238, 22429.550877755988, 40371.31850377542, 8467.1984275816, -2241.4552857226477, 15768.708678330027, -16808.556533879822, -0.2330965263613034, 0.9495137784117833, 0.08856551715475507, 192.0, 0.0, 0.0, 0.0, 0.0, 0.0, 0.0, 0.0, 0.0, 0.0, 1.741985918443462E9, 0.0, 2025-03-14 15:58:38.443
116.0, 11679.12175406477, 19111.121488943278, -8712.084139833945, 2111.70340915959, 11259.266586216281, 5340.7258201510695, 2815.9845252018604, 16852.00832510094, 46184.40373950049, -3223.8591580223037, 22410.82011590244, 40327.68789859866, 8457.430715254632, -2243.601053190357, 15773.424896410097, -16810.098804247238, -0.2330965263613034, 0.9495137784117833, 0.08856551715475507, 192.0, 0.0, 0.0, 0.0, 0.0, 0.0, 0.0, 0.0, 0.0, 0.0, 1.741985918443704E9, 0.0, 2025-03-14 15:58:38.443
118.0, 11669.3540417378, 19102.672529539173, -8729.004410386611, 2098.806452608878, 11247.934251777442, 5335.473160204072, 2798.9524959269165, 16844.65460117514, 46179.128727809046, -3237.560777373407, 22434.602372002886, 40381.51089924704, 8437.492959200497, -2257.3920795192817, 15762.293727671353, -16824.403920698634, -0.2330965263613034, 0.9495137784117833, 0.08856551715475507, 192.0, 0.0, 0.0, 0.0, 0.0, 0.0, 0.0, 0.0, 0.0, 0.0, 1.741985918443944E9, 0.0, 2025-03-14 15:58:38.443
120.0, 11669.957538838094, 19100.951445216113, -8717.716779436681, 2100.6169439097575, 11256.785542581743, 5336.76956138248, 2809.949554198927, 16852.947098368062, 46184.15787031149, -3237.426666906675, 22406.10389782237, 40318.41192464971, 8440.510444701964, -2252.3852887612925, 15763.366611405208, -16819.71005436302, -0.2325482631806517, 0.9487568892058917, 0.08528275857737753, 192.0, 124.0, 96.0, 14.5, 80.0, 1.0, 72.0, 0.0, 0.0, 0.0, 1.741985918444178E9, 0.0, 2025-03-14 15:58:38.444
122.0, 11671.678623161153, 19104.863000495792, -8720.48839574914, 2101.958048577076, 11258.998365282818, 5341.552834695916, 2815.9845252018604, 16853.19296755707, 46188.985847113836, -3232.7328005710606, 22437.329284826432, 40370.782061908496, 8451.61926169625, -2249.881893382298, 15770.16154171962, -16819.33007470728, -0.2325482631806517, 0.9487568892058917, 0.08528275857737753, 192.0, 0.0, 0.0, 0.0, 0.0, 0.0, 0.0, 0.0, 0.0, 0.0, 1.741985918444432E9, 0.0, 2025-03-14 15:58:38.444
124.0, 11668.54937893741, 19097.039889936434, -8721.360113782897, 2092.704426372579, 11249.789446567233, 5334.0873520478435, 2799.0866063936483, 16846.24157503147, 46182.392082499515, -3244.6015768768284, 22404.315758265944, 40327.844360809846, 8449.115866317257, -2260.0966405983736, 15765.445323639551, -16826.23676374397, -0.2325482631806517, 0.9487568892058917, 0.08528275857737753, 192.0, 0.0, 0.0, 0.0, 0.0, 0.0, 0.0, 0.0, 0.0, 0.0, 1.74198591844467E9, 0.0, 2025-03-14 15:58:38.444
126.0, 11680.820486643373, 19105.667663296183, -8722.142424838832, 2099.2087840090735, 11257.500798404313, 5340.43524747315, 2817.415036847, 16852.365953012224, 46198.03830361823, -3242.388754175753, 22439.497404038597, 40375.252410799556, 8454.234415797522, -2255.402774262759, 15764.528902116885, -16826.19206025506, -0.2325482631806517, 0.9487568892058917, 0.08528275857737753, 192.0, 0.0, 0.0, 0.0, 0.0, 0.0, 0.0, 0.0, 0.0, 0.0, 1.741985918501273E9, 0.0, 2025-03-14 15:58:38.501
128.0, 11677.803001141907, 19100.59381730483, -8710.519517722072, 2103.1203392887523, 11261.74762985082, 5344.0115265859995, 2815.2022141459247, 16855.00345885795, 46206.42020778897, -3235.4373616501525, 22407.936740867706, 40324.268081697, 8445.360773248765, -2250.463038738136, 15776.576492378295, -16816.111423505714, -0.2325482631806517, 0.9487568892058917, 0.08528275857737753, 192.0, 0.0, 0.0, 0.0, 0.0, 0.0, 0.0, 0.0, 0.0, 0.0, 1.741985918501537E9, 0.0, 2025-03-14 15:58:38.501
130.0, 11665.73305913604, 19086.1545903867, -8729.742017953637, 2094.0455310398975, 11249.61063261159, 5332.76859912498, 2806.4626820638996, 16846.174519798104, 46207.33662931164, -3245.652108866228, 22439.139776127315, 40372.99488460957, 8465.812619425371, -2258.5096667420466, 15764.707716072526, -16825.052121287838, -0.23127413159032584, 0.9493784446029458, 0.08564137928868877, 192.0, 124.0, 104.0, 14.5, 88.0, 1.0, 88.0, 0.0, 0.0, 0.0, 1.741985918501778E9, 0.0, 2025-03-14 15:58:38.501
132.0, 11677.378317997256, 19096.905779469704, -8711.748863667115, 2104.2379265115173, 11262.217016484383, 5338.58005268336, 2809.0778361651705, 16853.170615812614, 46216.14321662703, -3243.998079776535, 22401.20886578666, 40326.63736660926, 8450.904005873681, -2257.660300452745, 15767.568739362807, -16822.45931893102, -0.23127413159032584, 0.9493784446029458, 0.08564137928868877, 192.0, 0.0, 0.0, 0.0, 0.0, 0.0, 0.0, 0.0, 0.0, 0.0, 1.741985918502032E9, 0.0, 2025-03-14 15:58:38.502
134.0, 11671.388050483234, 19089.842628221828, -8730.949012154224, 2098.7841008644227, 11256.405562926002, 5334.690849148136, 2808.2284698758685, 16847.113293065227, 46224.256899864304, -3243.774562331982, 22441.26319185057, 40365.84232638387, 8463.15276183519, -2259.4931434980804, 15762.204320693532, -16825.677970132587, -0.23127413159032584, 0.9493784446029458, 0.08564137928868877, 192.0, 0.0, 0.0, 0.0, 0.0, 0.0, 0.0, 0.0, 0.0, 0.0, 1.741985918502252E9, 0.0, 2025-03-14 15:58:38.502
136.0, 11669.443448715621, 19093.91064571269, -8741.320221581485, 2100.281667742928, 11252.024621012763, 5336.635450915748, 2806.1944611304357, 16844.43108373059, 46221.842911463136, -3244.288652454454, 22398.638415174297, 40336.89681731425, 8438.409380723164, -2256.8109341634436, 15765.534730617373, -16822.28050497538, -0.23127413159032584, 0.9493784446029458, 0.08564137928868877, 192.0, 0.0, 0.0, 0.0, 0.0, 0.0, 0.0, 0.0, 0.0, 0.0, 1.741985918502489E9, 0.0, 2025-03-14 15:58:38.502
138.0, 11671.343346994323, 19092.770706745472, -8720.48839574914, 2104.349685233794, 11252.024621012763, 5339.272956761474, 2811.0671414216927, 16847.51562446542, 46229.733077255856, -3237.136094228756, 22433.10480512438, 40370.67030318622, 8451.261633784967, -2255.1569050737507, 15764.21597769451, -16822.816946842308, -0.23127413159032584, 0.9493784446029458, 0.08564137928868877, 192.0, 0.0, 0.0, 0.0, 0.0, 0.0, 0.0, 0.0, 0.0, 0.0, 1.741985918502734E9, 0.0, 2025-03-14 15:58:38.502
140.0, 11674.249073773513, 19093.06127942339, -8725.91986965178, 2102.4050834661825, 11251.488179145836, 5334.556738681405, 2804.9204116964834, 16843.089979063272, 46253.090650211656, -3244.065135009901, 22407.601464700874, 40343.021195295005, 8462.549264734896, -2256.788582418988, 15757.711620058015, -16826.3708742107, -0.2306370657951629, 0.947689222301473, 0.08482068964434439, 192.0, 124.0, 104.0, 14.5, 72.0, 1.0, 80.0, 0.0, 0.0, 0.0, 1.74198591856306E9, 0.0, 2025-03-14 15:58:38.563
142.0, 11677.713594164086, 19093.93299745715, -8723.148253339321, 2103.768539877956, 11256.852597815108, 5344.212692286097, 2808.541394298243, 16843.00057208545, 46241.735964028354, -3240.3100419414095, 22435.295276081, 40363.763614149524, 8443.349116247788, -2258.0402801084856, 15769.625099852694, -16827.890792833663, -0.2306370657951629, 0.947689222301473, 0.08482068964434439, 192.0, 0.0, 0.0, 0.0, 0.0, 0.0, 0.0, 0.0, 0.0, 0.0, 1.741985918563347E9, 0.0, 2025-03-14 15:58:38.563
144.0, 11665.777762624952, 19085.506389797498, -8755.647689777337, 2096.213650252062, 11252.471655901869, 5329.907575834701, 2806.663847763997, 16838.507871449932, 46248.463839109405, -3247.8649315673033, 22399.130153552313, 40347.8715238418, 8431.86031959776, -2260.1189923428287, 15759.477407869985, -16832.85288010274, -0.2306370657951629, 0.947689222301473, 0.08482068964434439, 192.0, 0.0, 0.0, 0.0, 0.0, 0.0, 0.0, 0.0, 0.0, 0.0, 1.741985918563584E9, 0.0, 2025-03-14 15:58:38.563
146.0, 11664.59312016882, 19079.382011816742, -8727.842119674935, 2102.1145107882635, 11255.019754769773, 5328.007677556, 2808.675504764975, 16836.25034525995, 46260.265560181804, -3247.5073036560184, 22414.306988037468, 40353.95119833365, 8468.137200848723, -2262.1082975993513, 15757.331640402275, -16836.138586537672, -0.2306370657951629, 0.947689222301473, 0.08482068964434439, 192.0, 0.0, 0.0, 0.0, 0.0, 0.0, 0.0, 0.0, 0.0, 0.0, 1.741985918563832E9, 0.0, 2025-03-14 15:58:38.563
148.0, 11670.136352793736, 19082.555959529396, -8739.934413425257, 2105.51197594547, 11257.813722826688, 5336.031953815455, 2811.514176310799, 16840.96656334002, 46253.31416765621, -3244.065135009901, 22398.77252564103, 40364.0765385719, 8445.71840116005, -2253.704041684156, 15764.685364328072, -16829.343656223256, -0.2306370657951629, 0.947689222301473, 0.08482068964434439, 192.0, 0.0, 0.0, 0.0, 0.0, 0.0, 0.0, 0.0, 0.0, 0.0, 1.741985918564067E9, 0.0, 2025-03-14 15:58:38.564
150.0, 11670.292815004923, 19080.499599039507, -8733.161834855298, 2104.5061474449813, 11256.09263850363, 5337.998907327522, 2803.5793070291647, 16841.19008078457, 46260.19850494844, -3245.1603704882114, 22414.977540371125, 40343.13295401728, 8451.731020418527, -2258.4649632531364, 15766.585262606772, -16827.75668236693, -0.22731853289758147, 0.9478446111507366, 0.08541034482217219, 192.0, 124.5, 0.0, 14.5, 80.0, 1.0, 88.0, 0.0, 0.0, 0.0, 1.741985918564307E9, 0.0, 2025-03-14 15:58:38.564
152.0, 11674.78551564044, 19086.087535153336, -8747.958689684712, 2100.9075165876766, 11259.735972849843, 5338.9600323391005, 2822.2653653938014, 16848.32028726581, 46248.15091468703, -3245.0933152548455, 22394.659804661253, 40355.180544278686, 8473.591026495818, -2259.336681286893, 15754.582375834272, -16831.89175509116, -0.22731853289758147, 0.9478446111507366, 0.08541034482217219, 192.0, 0.0, 0.0, 0.0, 0.0, 0.0, 0.0, 0.0, 0.0, 0.0, 1.741985918564568E9, 0.0, 2025-03-14 15:58:38.564
154.0, 11668.3035097484, 19081.371317073266, -8745.768218728092, 2101.801586365889, 11268.967243309886, 5342.938642852145, 2813.0340949337597, 16848.633211688186, 46287.333522717185, -3229.2235766915774, 22421.191325329703, 40345.99397730756, 8468.137200848723, -2243.668108423723, 15779.079887757289, -16820.24649622995, -0.22731853289758147, 0.9478446111507366, 0.08541034482217219, 192.0, 0.0, 0.0, 0.0, 0.0, 0.0, 0.0, 0.0, 0.0, 0.0, 1.741985918564794E9, 0.0, 2025-03-14 15:58:38.564
156.0, 11680.574617454366, 19097.129296914256, -8749.299794352031, 2111.2340225260286, 11255.89147280353, 5351.812285400902, 2817.6162025470976, 16858.825607159808, 46255.19171419045, -3242.5005128980297, 22383.640394644786, 40357.058090812934, 8463.666851957661, -2256.632120207801, 15758.35982064722, -16833.81400511432, -0.22731853289758147, 0.9478446111507366, 0.08541034482217219, 192.0, 0.0, 0.0, 0.0, 0.0, 0.0, 0.0, 0.0, 0.0, 0.0, 1.741985918623123E9, 0.0, 2025-03-14 15:58:38.623
158.0, 11685.112021578792, 19102.49371558353, -8711.01125610009, 2121.1358453197295, 11263.044031029229, 5351.9910993565445, 2820.8795572375725, 16855.13756932468, 46288.27229598431, -3216.30426839641, 22426.06400562096, 40344.98814880707, 8453.899139630692, -2232.9392710851757, 15777.0235272674, -16816.223182227994, -0.22731853289758147, 0.9478446111507366, 0.08541034482217219, 192.0, 0.0, 0.0, 0.0, 0.0, 0.0, 0.0, 0.0, 0.0, 0.0, 1.741985918623399E9, 0.0, 2025-03-14 15:58:38.623
160.0, 11665.867169602772, 19084.88054095275, -8776.770088287603, 2101.153385776685, 11253.455132657902, 5338.736514894547, 2806.663847763997, 16842.978220340996, 46266.81462130721, -3220.9981347320245, 22420.386662529312, 40383.924887648216, 8484.565733023373, -2242.371707245315, 15764.573605605794, -16822.727539864485, -0.22865926644879075, 0.9529223055753684, 0.0857051724110861, 192.0, 124.0, 104.0, 14.5, 120.0, 1.0, 88.0, 0.0, 0.0, 0.0, 1.74198591862365E9, 0.0, 2025-03-14 15:58:38.623
162.0, 11678.45120173111, 19090.781401488948, -8730.43492203175, 2107.3671707352605, 11262.239368228838, 5340.099971306321, 2801.3441325836343, 16846.48744422048, 46250.699013554935, -3234.7668093164934, 22392.424630215723, 40330.88419805577, 8459.889407144716, -2256.118030085329, 15751.855463010725, -16833.344618480758, -0.22865926644879075, 0.9529223055753684, 0.0857051724110861, 192.0, 0.0, 0.0, 0.0, 0.0, 0.0, 0.0, 0.0, 0.0, 0.0, 1.741985918623899E9, 0.0, 2025-03-14 15:58:38.623
164.0, 11660.301585233401, 19077.415058304676, -8786.716614570214, 2093.352626961783, 11256.003231525807, 5326.420703699673, 2808.2061181314134, 16838.194947027558, 46261.7184235714, -3235.3703064167867, 22416.072775849436, 40372.19022180918, 8466.952558392592, -2256.1627335742396, 15753.665954311606, -16833.858708603228, -0.22865926644879075, 0.9529223055753684, 0.0857051724110861, 192.0, 0.0, 0.0, 0.0, 0.0, 0.0, 0.0, 0.0, 0.0, 0.0, 1.741985918624135E9, 0.0, 2025-03-14 15:58:38.624
166.0, 11673.466762717577, 19091.407250333697, -8748.182207129264, 2103.2320980110285, 11271.604749155611, 5335.33904973734, 2820.387818859556, 16847.71679016552, 46241.49009483935, -3244.6015768768284, 22375.72787710761, 40313.18161644717, 8469.657119471683, -2253.8381521508877, 15759.097428214245, -16834.976295825996, -0.22865926644879075, 0.9529223055753684, 0.0857051724110861, 192.0, 0.0, 0.0, 0.0, 0.0, 0.0, 0.0, 0.0, 0.0, 0.0, 1.741985918624367E9, 0.0, 2025-03-14 15:58:38.624
168.0, 11675.210198785091, 19096.525799813964, -8760.319204368498, 2098.135900275219, 11268.363746209592, 5341.552834695916, 2816.5880223021536, 16850.846034389262, 46264.78061256178, -3222.003963232513, 22411.535371725007, 40366.75874790654, 8478.3519480648, -2248.898416626265, 15754.157692689621, -16837.65850516063, -0.22865926644879075, 0.9529223055753684, 0.0857051724110861, 192.0, 0.0, 0.0, 0.0, 0.0, 0.0, 0.0, 0.0, 0.0, 0.0, 1.741985918624607E9, 0.0, 2025-03-14 15:58:38.624
170.0, 11664.3025474909, 19083.651195007707, -8787.901257026346, 2085.5742198913363, 11256.51732164828, 5319.335200707341, 2799.1760133714693, 16833.81400511432, 46257.94097875845, -3230.9223092701804, 22379.795894598472, 40315.46149438161, 8489.43841331463, -2258.688480697689, 15756.661088068617, -16842.084150562783, -0.23132963322439537, 0.9524611527876843, 0.08785258620554305, 192.0, 124.0, 88.0, 14.5, 96.0, 1.0, 104.0, 0.0, 0.0, 0.0, 1.741985918682062E9, 0.0, 2025-03-14 15:58:38.682
172.0, 11679.747602909518, 19101.219666149576, -8738.77212271358, 2107.6577434131796, 11278.533789936757, 5336.881320104757, 2820.186653159458, 16849.795502399862, 46246.20631291942, -3228.2177481910885, 22406.14860131128, 40366.46817522862, 8454.636747197717, -2257.660300452745, 15763.008983493923, -16841.39124648467, -0.23132963322439537, 0.9524611527876843, 0.08785258620554305, 192.0, 0.0, 0.0, 0.0, 0.0, 0.0, 0.0, 0.0, 0.0, 0.0, 1.74198591868234E9, 0.0, 2025-03-14 15:58:38.682
174.0, 11674.271425517969, 19095.519971313475, -8745.432942561263, 2102.8297666108333, 11275.695118390933, 5335.495511948528, 2811.871804222084, 16848.275583776904, 46241.28892913925, -3224.0603237224013, 22388.021336558028, 40320.0659537394, 8462.661023457173, -2250.4183352492255, 15772.64258535416, -16830.438891701568, -0.23132963322439537, 0.9524611527876843, 0.08785258620554305, 192.0, 0.0, 0.0, 0.0, 0.0, 0.0, 0.0, 0.0, 0.0, 0.0, 1.741985918682587E9, 0.0, 2025-03-14 15:58:38.682
176.0, 11681.379280254756, 19101.800811505414, -8748.986869929657, 2109.9152696031656, 11281.819496371687, 5345.442038231139, 2819.6502112925305, 16857.551557725856, 46233.711687768904, -3223.5685853443847, 22418.82204041744, 40369.41860549672, 8471.847590428304, -2249.524265471013, 15767.211111451521, -16829.745987623453, -0.23132963322439537, 0.9524611527876843, 0.08785258620554305, 192.0, 0.0, 0.0, 0.0, 0.0, 0.0, 0.0, 0.0, 0.0, 0.0, 1.741985918682813E9, 0.0, 2025-03-14 15:58:38.682
178.0, 11680.351100009811, 19099.25271263751, -8762.35321311393, 2106.1154730457633, 11283.115897550095, 5351.924044123179, 2816.476263579877, 16859.272642048913, 46258.67858632548, -3216.2148614185885, 22393.09518254938, 40329.76661083301, 8495.49573606202, -2242.0364310784857, 15767.546387618351, -16820.22414448549, -0.23132963322439537, 0.9524611527876843, 0.08785258620554305, 192.0, 0.0, 0.0, 0.0, 0.0, 0.0, 0.0, 0.0, 0.0, 0.0, 1.741985918683042E9, 0.0, 2025-03-14 15:58:38.683
180.0, 11675.389012740734, 19095.78819224694, -8757.279367122575, 2107.8142056243664, 11283.361766739103, 5348.615985943793, 2823.7852840167625, 16857.14922632566, 46233.66698427999, -3223.747399300027, 22417.123307838836, 40378.58282072339, 8475.289759074421, -2250.7536114160553, 15762.293727671353, -16823.53220266488, -0.22866481661219767, 0.9532305763938422, 0.08792629310277153, 192.0, 124.0, 120.0, 14.5, 104.0, 1.0, 96.0, 0.0, 0.0, 0.0, 1.74198591868328E9, 0.0, 2025-03-14 15:58:38.683
182.0, 11676.193675541124, 19095.944654458126, -8750.663250763804, 2109.289420758417, 11276.343318980136, 5343.698602163626, 2821.9747927158824, 16855.048162346862, 46237.64559479304, -3214.784349773449, 22382.567510910932, 40330.48186665557, 8468.070145615357, -2246.1715038027173, 15769.535692874873, -16814.077414760282, -0.22866481661219767, 0.9532305763938422, 0.08792629310277153, 192.0, 0.0, 0.0, 0.0, 0.0, 0.0, 0.0, 0.0, 0.0, 0.0, 1.741985918683534E9, 0.0, 2025-03-14 15:58:38.683
184.0, 11678.518256964477, 19095.274102124466, -8764.633091048372, 2107.3448189908054, 11282.333586494158, 5344.033878330455, 2819.5831560591646, 16853.95292686855, 46218.78072247276, -3235.7279343280716, 22416.855086905372, 40370.13386131929, 8473.143991606712, -2245.545654957969, 15758.806855536326, -16821.386435197168, -0.22866481661219767, 0.9532305763938422, 0.08792629310277153, 192.0, 0.0, 0.0, 0.0, 0.0, 0.0, 0.0, 0.0, 0.0, 0.0, 1.741985918683778E9, 0.0, 2025-03-14 15:58:38.683
186.0, 11670.471628960566, 19093.55301780141, -8779.005262733133, 2103.5003189444924, 11280.299577748727, 5335.271994503974, 2818.286754880757, 16849.080246577294, 46233.085838924155, -3217.935945741647, 22384.646223145275, 40341.814201094414, 8490.891276704226, -2245.009213091041, 15757.175178191088, -16820.201792741038, -0.22866481661219767, 0.9532305763938422, 0.08792629310277153, 192.0, 0.0, 0.0, 0.0, 0.0, 0.0, 0.0, 0.0, 0.0, 0.0, 1.741985918741444E9, 0.0, 2025-03-14 15:58:38.741
188.0, 11678.138277308737, 19099.587988804342, -8739.353268069419, 2112.351609748794, 11281.37246148258, 5345.956128353611, 2822.377124116078, 16857.685668192586, 46208.0071816453, -3222.0933702103343, 22404.00283384357, 40372.14551832027, 8476.720270719561, -2250.0383555934854, 15754.895300256647, -16826.907316077628, -0.22866481661219767, 0.9532305763938422, 0.08792629310277153, 192.0, 0.0, 0.0, 0.0, 0.0, 0.0, 0.0, 0.0, 0.0, 0.0, 1.741985918741839E9, 0.0, 2025-03-14 15:58:38.741
190.0, 11678.250036031013, 19097.956311459104, -8752.786666487058, 2103.5226706889475, 11281.059537060206, 5339.004735828011, 2819.761970014807, 16851.76245591193, 46210.68939097993, -3217.0865794523456, 22397.364365740345, 40349.70436688714, 8442.633860425218, -2242.6846316676892, 15770.45211439754, -16822.86165033122, -0.22933240830609886, 0.9536152881969211, 0.08296314655138576, 192.0, 124.0, 104.0, 14.5, 104.0, 1.0, 56.0, 0.0, 0.0, 0.0, 1.741985918742107E9, 0.0, 2025-03-14 15:58:38.742
192.0, 11667.431791714644, 19085.037003163936, -8768.16466667231, 2092.0785775278305, 11276.119801535584, 5330.600479912816, 2804.093397151637, 16843.089979063272, 46216.2102718604, -3223.836806277848, 22419.090261350902, 40356.74516639056, 8463.264520557466, -2255.0674980959297, 15757.063419468812, -16837.367932482714, -0.22933240830609886, 0.9536152881969211, 0.08296314655138576, 192.0, 0.0, 0.0, 0.0, 0.0, 0.0, 0.0, 0.0, 0.0, 0.0, 1.741985918742363E9, 0.0, 2025-03-14 15:58:38.742
194.0, 11675.277254018458, 19096.123468413767, -8763.247282892142, 2102.60624916628, 11291.542505209745, 5342.871587618779, 2821.08072293767, 16855.785769913884, 46197.2559925623, -3224.172082444678, 22377.29249921948, 40336.382727191776, 8477.077898630845, -2255.44747775167, 15751.810759521815, -16838.641981916666, -0.22933240830609886, 0.9536152881969211, 0.08296314655138576, 192.0, 0.0, 0.0, 0.0, 0.0, 0.0, 0.0, 0.0, 0.0, 0.0, 1.741985918742602E9, 0.0, 2025-03-14 15:58:38.742
196.0, 11671.097477805315, 19086.847494464815, -8760.721535768693, 2093.4196821951487, 11286.066327818195, 5327.873567089268, 2811.871804222084, 16846.420388987113, 46213.32689682566, -3218.3829806307535, 22406.595636200385, 40345.323424973896, 8468.740697949017, -2247.378498003304, 15759.857387525724, -16833.679894647586, -0.22933240830609886, 0.9536152881969211, 0.08296314655138576, 192.0, 0.0, 0.0, 0.0, 0.0, 0.0, 0.0, 0.0, 0.0, 0.0, 1.741985918742843E9, 0.0, 2025-03-14 15:58:38.742
198.0, 11672.952672595105, 19089.462648566085, -8766.287120138064, 2095.6548566406796, 11281.484220204857, 5329.952279323612, 2811.4024175885224, 16847.694438421066, 46205.30262056621, -3235.2808994389657, 22382.366345210834, 40357.95216059115, 8459.62118621125, -2263.4270505222144, 15749.150901931633, -16845.168691297615, -0.22933240830609886, 0.9536152881969211, 0.08296314655138576, 192.0, 0.0, 0.0, 0.0, 0.0, 0.0, 0.0, 0.0, 0.0, 0.0, 1.741985918743078E9, 0.0, 2025-03-14 15:58:38.743
200.0, 11674.472591218066, 19088.233302621044, -8774.713727797714, 2094.4702141845482, 11280.56779868219, 5327.8065118559025, 2814.1740339009802, 16849.102598321748, 46203.916812409974, -3223.3227161553764, 22405.500400722078, 40352.0736517994, 8474.373337551753, -2252.8993788837647, 15749.754399031926, -16844.386380241678, -0.23066620415304945, 0.9518076440984606, 0.08048157327569289, 192.0, 124.0, 96.0, 14.5, 88.0, 1.0, 56.0, 0.0, 0.0, 0.0, 1.741985918801256E9, 0.0, 2025-03-14 15:58:38.801
202.0, 11685.022614600972, 19099.54328531543, -8752.384335086863, 2105.51197594547, 11296.795165156742, 5342.715125407592, 2823.7405805278518, 16863.653583962154, 46207.917774667476, -3220.908727754203, 22394.168066283237, 40366.06584382842, 8467.712517704073, -2250.8430183938767, 15756.526977601885, -16838.262002260926, -0.23066620415304945, 0.9518076440984606, 0.08048157327569289, 192.0, 0.0, 0.0, 0.0, 0.0, 0.0, 0.0, 0.0, 0.0, 0.0, 1.741985918801547E9, 0.0, 2025-03-14 15:58:38.801
204.0, 11675.657233674197, 19088.97091018807, -8773.171457430299, 2096.3924642077045, 11284.479353961868, 5330.131093279254, 2799.3995308160224, 16850.935441367084, 46208.8565479346, -3213.8232247618707, 22405.90273212227, 40340.54015166046, 8472.071107872856, -2245.8138758914324, 15756.035239223867, -16835.736255137475, -0.23066620415304945, 0.9518076440984606, 0.08048157327569289, 192.0, 0.0, 0.0, 0.0, 0.0, 0.0, 0.0, 0.0, 0.0, 0.0, 1.741985918801791E9, 0.0, 2025-03-14 15:58:38.801
206.0, 11683.323882022367, 19098.179828903656, -8756.787628744558, 2106.4731009570482, 11294.917618622496, 5349.621814444282, 2826.7580660293183, 16858.28916529288, 46201.346361797616, -3222.138073699245, 22398.05726981846, 40372.01140785353, 8467.466648515065, -2250.8430183938767, 15750.44730311004, -16841.055970317837, -0.23066620415304945, 0.9518076440984606, 0.08048157327569289, 192.0, 0.0, 0.0, 0.0, 0.0, 0.0, 0.0, 0.0, 0.0, 0.0, 1.741985918802028E9, 0.0, 2025-03-14 15:58:38.802
208.0, 11679.725251165064, 19089.753221244006, -8762.934358469767, 2096.2360019965176, 11295.342301767148, 5332.455674702606, 2803.9145831959945, 16840.161900539624, 46214.46683579288, -3220.528748098463, 22386.076734790415, 40337.99205279256, 8486.555038279896, -2250.0160038490303, 15754.291803156353, -16838.820795872307, -0.23066620415304945, 0.9518076440984606, 0.08048157327569289, 192.0, 0.0, 0.0, 0.0, 0.0, 0.0, 0.0, 0.0, 0.0, 0.0, 1.74198591880226E9, 0.0, 2025-03-14 15:58:38.802
210.0, 11676.104268563304, 19086.132238642247, -8761.950881713734, 2093.3079234728725, 11280.14311553754, 5334.959070081601, 2802.3276093396676, 16839.67016216161, 46201.92750715346, -3213.9126317396917, 22413.547028725985, 40376.41470151123, 8448.110037816768, -2248.0937538258736, 15752.146035688644, -16842.039447073872, -0.23133310207652474, 0.9529038220492303, 0.07824078663784645, 192.0, 124.0, 96.0, 14.5, 104.0, 1.0, 48.0, 0.0, 0.0, 0.0, 1.741985918802497E9, 0.0, 2025-03-14 15:58:38.802
212.0, 11674.249073773513, 19079.49377053902, -8755.82650373298, 2092.6597228836686, 11290.357862753614, 5332.455674702606, 2809.5025193098213, 16843.916993608116, 46202.97803914286, -3230.4752743810745, 22388.37896446931, 40324.67041309719, 8451.038116340413, -2259.82841966491, 15752.347201388742, -16846.5768511983, -0.23133310207652474, 0.9529038220492303, 0.07824078663784645, 192.0, 0.0, 0.0, 0.0, 0.0, 0.0, 0.0, 0.0, 0.0, 0.0, 1.741985918802753E9, 0.0, 2025-03-14 15:58:38.802
214.0, 11676.461896474588, 19082.332442084844, -8762.286157880564, 2100.1028537872858, 11301.80195591473, 5340.971689340078, 2823.60647006112, 16856.94806062556, 46207.157815356, -3222.898033010725, 22409.14373506829, 40371.29615203097, 8460.403497267187, -2255.246312051572, 15761.757285804426, -16833.836356858774, -0.23133310207652474, 0.9529038220492303, 0.07824078663784645, 192.0, 0.0, 0.0, 0.0, 0.0, 0.0, 0.0, 0.0, 0.0, 0.0, 1.741985918802988E9, 0.0, 2025-03-14 15:58:38.802
216.0, 11675.41136448519, 19075.895139681714, -8751.892596708847, 2091.7433013610007, 11303.455985004424, 5334.065000303388, 2816.2750978797794, 16848.923784366107, 46200.42994027495, -3229.134169713756, 22390.27886274801, 40326.41384916471, 8459.420020511154, -2249.412506748737, 15762.226672437988, -16836.85384236024, -0.23133310207652474, 0.9529038220492303, 0.07824078663784645, 192.0, 0.0, 0.0, 0.0, 0.0, 0.0, 0.0, 0.0, 0.0, 0.0, 1.741985918861669E9, 0.0, 2025-03-14 15:58:38.861
218.0, 11671.87978886125, 19075.91749142617, -8773.59614057495, 2087.608228636769, 11298.918580879998, 5337.283651504952, 2818.219699647391, 16851.024848344907, 46198.73120769635, -3226.2954981679322, 22414.172877570734, 40382.293210302974, 8457.810694910371, -2260.5213237430244, 15755.431742123574, -16843.17938604109, -0.23133310207652474, 0.9529038220492303, 0.07824078663784645, 192.0, 0.0, 0.0, 0.0, 0.0, 0.0, 0.0, 0.0, 0.0, 0.0, 1.741985918861934E9, 0.0, 2025-03-14 15:58:38.861
220.0, 11678.808829642396, 19079.270253094466, -8757.25701537812, 2095.2078217515736, 11300.058519847218, 5336.881320104757, 2816.0068769463155, 16852.991801856973, 46203.916812409974, -3221.646335321228, 22385.09325803438, 40324.290433441456, 8459.040040855412, -2254.5310562290024, 15756.437570624063, -16839.08901680577, -0.232, 0.9500000000000001, 0.076, 192.0, 124.0, 96.0, 14.5, 88.0, 1.0, 48.0, 0.0, 0.0, 0.0, 1.741985918862176E9, 0.0, 2025-03-14 15:58:38.862
222.0, 11676.64071043023, 19076.96802341557, -8775.473687109195, 2088.5917053928024, 11293.397699999536, 5329.371133967774, 2806.708551252908, 16846.599202942754, 46191.623352959556, -3226.8542917793147, 22411.714185680652, 40380.25920155754, 8451.127523318235, -2254.3298905289043, 15753.241271166955, -16845.14633955316, -0.232, 0.9500000000000001, 0.076, 192.0, 0.0, 0.0, 0.0, 0.0, 0.0, 0.0, 0.0, 0.0, 0.0, 1.741985918862424E9, 0.0, 2025-03-14 15:58:38.862
