%OpenBCI Raw EXG Data
%Number of channels = 16
%Sample Rate = 125 Hz
%Board = OpenBCI_GUI$BoardCytonSerialDaisy
Sample Index, EXG Channel 0, EXG Channel 1, EXG Channel 2, EXG Channel 3, EXG Channel 4, EXG Channel 5, EXG Channel 6, EXG Channel 7, EXG Channel 8, EXG Channel 9, EXG Channel 10, EXG Channel 11, EXG Channel 12, EXG Channel 13, EXG Channel 14, EXG Channel 15, Accel Channel 0, Accel Channel 1, Accel Channel 2, Not Used, Digital Channel 0 (D11), Digital Channel 1 (D12), Digital Channel 2 (D13), Digital Channel 3 (D17), Not Used, Digital Channel 4 (D18), Analog Channel 0, Analog Channel 1, Analog Channel 2, Timestamp, Marker Channel, Timestamp (Formatted)
0.0, 11808.828927138917, 19145.520823659997, -8901.962208981779, 2141.766505451978, 12097.457003290298, 5381.785974715469, 2941.6907360185073, 16989.136277334248, 0.0, 0.0, 0.0, 0.0, 0.0, 0.0, 0.0, 0.0, 0.0, 0.0, 0.0, 192.0, 0.0, 0.0, 0.0, 0.0, 0.0, 0.0, 0.0, 0.0, 0.0, 1.741985937111617E9, 0.0, 2025-03-14 15:58:57.111
40.0, 11813.634552196807, 19152.159291763222, -8856.834036926513, 2150.4613340450924, 12101.189744614334, 5388.580905029882, 2953.179532668535, 17001.183867595657, 46152.954835051874, -3180.8320499458373, 22365.826054313908, 40562.58238107948, 8461.834008912327, -2198.0034945015304, 15807.377196237709, -16757.102818143703, 0.0, 0.0, 0.0, 192.0, 0.0, 0.0, 0.0, 0.0, 0.0, 0.0, 0.0, 0.0, 0.0, 1.741985937112014E9, 0.0, 2025-03-14 15:58:57.112
42.0, 11822.351732534378, 19159.781236622483, -8839.645545440382, 2160.3631568387937, 12112.96911394228, 5399.913239468723, 2969.5857130987306, 17011.912704934206, 46149.266797216755, -3174.3500440537982, 22349.79985353945, 40520.69521197024, 8452.088648329813, -2205.3348666828715, 15811.020530583923, -16756.633431510145, -0.22, 0.96, 0.078, 192.0, 124.5, 16.0, 15.0, 0.0, 1.0, 56.0, 0.0, 0.0, 0.0, 1.741985937112364E9, 0.0, 2025-03-14 15:58:57.112
44.0, 11815.2885812865, 19156.02614355399, -8863.092525373999, 2152.2941770904276, 12108.945799940324, 5398.907410968234, 2960.041518216314, 17006.4141757982, 46145.75757333727, -3171.399613785698, 22374.029144529002, 40578.74269232067, 8460.850532156293, -2196.461224134114, 15814.596809696772, -16753.951222175507, -0.22, 0.96, 0.078, 192.0, 0.0, 0.0, 0.0, 0.0, 0.0, 0.0, 0.0, 0.0, 0.0, 1.741985937112757E9, 0.0, 2025-03-14 15:58:57.112
46.0, 11807.309008515957, 19144.894974815248, -8873.41903131235, 2133.272842558961, 12102.39673881492, 5384.0435009054545, 2943.3447651082, 16986.94580637763, 46132.43593364191, -3175.5346865099295, 22339.56275457892, 40525.053802139024, 8480.475363788053, -2201.9150497812093, 15800.761079878937, -16769.08335317175, -0.22, 0.96, 0.078, 192.0, 0.0, 0.0, 0.0, 0.0, 0.0, 0.0, 0.0, 0.0, 0.0, 1.741985937113022E9, 0.0, 2025-03-14 15:58:57.113
48.0, 11808.560706205453, 19147.711294616616, -8876.525923791638, 2137.9220054056655, 12102.955532426302, 5374.544009511949, 2942.540102307809, 16985.291777287934, 46124.07638121562, -3180.586180756829, 22365.557833380444, 40584.1294627344, 8454.882616386725, -2217.7177331111116, 15787.350033205752, -16789.669309815086, -0.22, 0.96, 0.078, 192.0, 0.0, 0.0, 0.0, 0.0, 0.0, 0.0, 0.0, 0.0, 0.0, 1.741985937113272E9, 0.0, 2025-03-14 15:58:57.113
50.0, 11800.245857268079, 19137.07186425589, -8866.937025420311, 2129.987136124031, 12101.39091031443, 5361.848218661335, 2946.5634163097643, 16980.88848363024, 46138.9402912784, -3183.760128469483, 22335.98647546607, 40521.52222651509, 8468.003090381992, -2209.447587662648, 15800.828135112302, -16783.254359156414, -0.22, 0.96, 0.078, 192.0, 0.0, 0.0, 0.0, 0.0, 0.0, 0.0, 0.0, 0.0, 0.0, 1.741985937113517E9, 0.0, 2025-03-14 15:58:57.113
52.0, 11804.693854414685, 19139.463500912607, -8871.809705711568, 2135.1727408376623, 12113.952590698313, 5372.130021110776, 2962.276692661845, 16991.818486668883, 46127.451494628374, -3187.1799453711446, 22354.94075476417, 40566.27041891461, 8473.367509051264, -2221.1375500127733, 15796.827172854802, -16791.636263327153, -0.22, 0.962, 0.078, 192.0, 124.5, 16.0, 15.0, 8.0, 1.0, 56.0, 0.0, 0.0, 0.0, 1.741985937113757E9, 0.0, 2025-03-14 15:58:57.113
54.0, 11810.550011461975, 19144.224422481588, -8865.350051563984, 2146.303909576405, 12114.869012220981, 5381.0483671484435, 2969.272788676356, 17001.31797806239, 46126.84799752808, -3173.6347882312284, 22331.918457975204, 40519.331755558465, 8462.303395545889, -2203.5243753819914, 15812.585152695794, -16774.22425439647, -0.22, 0.962, 0.078, 192.0, 0.0, 0.0, 0.0, 0.0, 0.0, 0.0, 0.0, 0.0, 0.0, 1.74198593711403E9, 0.0, 2025-03-14 15:58:57.114
56.0, 11806.772566649028, 19143.755035848026, -8876.19064762481, 2142.034726385442, 12100.273323091666, 5376.756832213025, 2956.9346257370266, 16992.26552155799, 46129.86548302955, -3178.4851167780303, 22370.206996227145, 40576.19459345277, 8489.214895870078, -2204.15022422674, 15806.304312503853, -16775.36419336369, -0.22, 0.962, 0.078, 192.0, 0.0, 0.0, 0.0, 0.0, 0.0, 0.0, 0.0, 0.0, 0.0, 1.74198593711426E9, 0.0, 2025-03-14 15:58:57.114
0.0, 5916.059722430673, 9668.559988565445, -4503.183603666259, 1064.9265128286497, 6397.538649742442, 2669.7370612307864, 1230.329421797922, 8505.174041411166, 23054.103321326176, -1585.9009725929468, 11160.091896068085, 20267.01960170503, 4241.489379583523, -1103.9526586476159, 7894.971417781284, -8389.414356877132, -0.08, 0.972, 0.078, 192.0, 126.5, 64.0, 15.0, 48.0, 1.0, 56.0, 0.0, 0.0, 0.0, 1.741985937266746E9, 0.0, 2025-03-14 15:58:57.266
2.0, 11829.280773315522, 19332.694331728737, -9001.315713085618, 2133.250490814506, 12802.900410044243, 5336.657802660204, 2461.262340696137, 17003.32963506337, 46409.396399187615, -3226.4072568902084, 22165.733237949997, 40226.32273749384, 8366.861446721727, -2251.9606056166417, 15803.309178746842, -16700.441145949502, -0.08, 0.972, 0.078, 192.0, 0.0, 0.0, 0.0, 0.0, 0.0, 0.0, 0.0, 0.0, 0.0, 1.741985937267039E9, 0.0, 2025-03-14 15:58:57.267
4.0, 11825.704494202673, 19329.833308438458, -9011.30694285714, 2136.9161769051766, 12794.160877962218, 5344.480913219561, 2459.4071459063466, 17007.241190343047, 46412.99503004492, -3219.5676230868844, 22203.06065119036, 40266.935857169134, 8367.688461266573, -2252.407640505748, 15803.733861891493, -16688.46061092146, -0.08, 0.972, 0.078, 192.0, 0.0, 0.0, 0.0, 0.0, 0.0, 0.0, 0.0, 0.0, 0.0, 1.741985937267297E9, 0.0, 2025-03-14 15:58:57.267
6.0, 11820.317723788945, 19323.440709524242, -9015.196146392364, 2133.7869326814334, 12795.34552041835, 5326.19718625512, 2452.34399465847, 16990.253864557013, 46413.08443702274, -3228.620079591284, 22160.86055765874, 40208.28487971841, 8364.46981006501, -2257.2356173080943, 15801.811611868336, -16686.11367775365, -0.08, 0.972, 0.078, 192.0, 0.0, 0.0, 0.0, 0.0, 0.0, 0.0, 0.0, 0.0, 0.0, 1.741985937267542E9, 0.0, 2025-03-14 15:58:57.267
8.0, 11821.904697645272, 19323.35130254642, -9027.26608839823, 2131.8423309138216, 12789.846991282344, 5320.229270485553, 2450.108820212939, 16989.11392558979, 46419.94642257052, -3229.625908091773, 22209.565008826856, 40242.68421443513, 8365.967376943514, -2255.2910155404825, 15803.331530491298, -16685.085497508706, 0.014, 0.97, 0.082, 192.0, 0.0, 56.0, 15.0, 40.0, 1.0, 72.0, 0.0, 0.0, 0.0, 1.741985937267786E9, 0.0, 2025-03-14 15:58:57.267
10.0, 11820.854165655872, 19329.49803227163, -9039.291326915185, 2135.9774036380536, 12788.014148237009, 5328.2758984894635, 2450.7346690576874, 16989.3597947788, 46426.89781509612, -3225.200262689622, 22166.739066450486, 40192.90687953316, 8380.808935261839, -2250.1948178046728, 15805.209077025544, -16675.653061348567, 0.014, 0.97, 0.082, 192.0, 0.0, 0.0, 0.0, 0.0, 0.0, 0.0, 0.0, 0.0, 0.0, 1.741985937268048E9, 0.0, 2025-03-14 15:58:57.268
12.0, 11819.177784821724, 19336.784700964057, -9030.194166921874, 2134.8151129263774, 12786.226008680584, 5332.254509002508, 2447.225445178204, 16991.17028607968, 46434.92209135558, -3232.35282091532, 22200.624311044732, 40215.03510654392, 8382.150039929156, -2247.020870092019, 15802.325701990809, -16691.74631735639, 0.014, 0.97, 0.082, 192.0, 0.0, 0.0, 0.0, 0.0, 0.0, 0.0, 0.0, 0.0, 0.0, 1.741985937268296E9, 0.0, 2025-03-14 15:58:57.268
14.0, 11798.949456089671, 19323.48541301315, -9048.232024697307, 2111.2116707815735, 12767.495246827037, 5310.774482580958, 2425.343087356459, 16973.26653877098, 46428.350678485716, -3240.466504152597, 22158.848900657762, 40168.163498421134, 8368.291958366866, -2252.2511782945608, 15798.145925777666, -16704.911494840562, 0.014, 0.97, 0.082, 192.0, 0.0, 0.0, 0.0, 0.0, 0.0, 0.0, 0.0, 0.0, 0.0, 1.74198593726854E9, 0.0, 2025-03-14 15:58:57.268
16.0, 11806.996084093582, 19332.82844219547, -9038.97840249281, 2119.7276854190454, 12778.112325443308, 5325.571337410372, 2433.81439850502, 16986.11879183278, 46428.261271507894, -3242.8804925537697, 22185.313366092847, 40200.72999009252, 8373.678728780595, -2252.92173062822, 15788.847600084258, -16714.12041355615, 0.014, 0.97, 0.082, 192.0, 0.0, 0.0, 0.0, 0.0, 0.0, 0.0, 0.0, 0.0, 0.0, 1.741985937328199E9, 0.0, 2025-03-14 15:58:57.328
18.0, 11798.792993878484, 19328.715721215693, -9058.156199235464, 2111.3234295038496, 12762.62256653578, 5318.664648373681, 2424.6725350227994, 16977.26750102848, 46430.89877735362, -3242.1652367312, 22156.233746556492, 40161.525030317905, 8381.144211428667, -2250.0383555934854, 15792.312120474831, -16706.16319253006, 0.078, 0.97, 0.084, 192.0, 1.0, 56.0, 15.0, 40.0, 1.0, 80.0, 0.0, 0.0, 0.0, 1.741985937328473E9, 0.0, 2025-03-14 15:58:57.328
20.0, 11797.362482233344, 19326.547602003528, -9058.379716680016, 2106.2719352569507, 12755.313546098894, 5308.449901157606, 2421.7444564991542, 16968.63972766873, 46430.74231514244, -3251.7094316136163, 22192.130648151717, 40180.971047994026, 8377.009138704436, -2261.0801173544073, 15784.712527360027, -16718.344893258203, 0.078, 0.97, 0.084, 192.0, 0.0, 0.0, 0.0, 0.0, 0.0, 0.0, 0.0, 0.0, 0.0, 1.741985937328794E9, 0.0, 2025-03-14 15:58:57.328
22.0, 11811.846412640383, 19338.148157375832, -9062.358327193062, 2113.715066160568, 12764.187188647651, 5317.0106192839885, 2431.8027415040424, 16977.535721961944, 46445.9638531165, -3246.4791234110744, 22168.974240896016, 40144.2247801095, 8372.538789813374, -2259.4931434980804, 15785.852466327247, -16719.484832225422, 0.078, 0.97, 0.084, 192.0, 0.0, 0.0, 0.0, 0.0, 0.0, 0.0, 0.0, 0.0, 0.0, 1.74198593732905E9, 0.0, 2025-03-14 15:58:57.329
24.0, 11826.397398280787, 19339.511613787607, -9051.093047987586, 2119.6829819301347, 12766.28825262645, 5325.213709499087, 2428.3829246023806, 16977.245149284023, 46444.354527515716, -3243.3051756984205, 22205.608750058265, 40154.57363779231, 8370.773002001406, -2251.6476811942675, 15801.431632212596, -16709.560657687267, 0.078, 0.97, 0.084, 192.0, 0.0, 0.0, 0.0, 0.0, 0.0, 0.0, 0.0, 0.0, 0.0, 1.741985937329291E9, 0.0, 2025-03-14 15:58:57.329
26.0, 11833.661715228764, 19343.132596389365, -9057.306832946162, 2120.577051708347, 12772.636148051757, 5323.827901342857, 2433.3226601270035, 16988.89040814524, 46450.992995618944, -3242.8357890648595, 22192.510627807456, 40127.30450955683, 8376.651510793152, -2253.279358539505, 15808.785356138393, -16707.101965797185, 0.078, 0.97, 0.084, 192.0, 0.0, 0.0, 0.0, 0.0, 0.0, 0.0, 0.0, 0.0, 0.0, 1.741985937329532E9, 0.0, 2025-03-14 15:58:57.329
28.0, 11827.157357592268, 19340.182166121267, -9059.296138202684, 2118.543042962914, 12764.56716830339, 5315.066017516377, 2434.5743578165007, 16982.631919697753, 46454.52457124288, -3248.848408323337, 22214.862372262764, 40132.04307938136, 8374.393984603164, -2250.798314904966, 15809.232391027499, -16710.41002397657, 0.108, 0.974, 0.098, 192.0, 1.5, 48.0, 15.0, 56.0, 1.5, 8.0, 0.0, 0.0, 0.0, 1.741985937329787E9, 0.0, 2025-03-14 15:58:57.329
30.0, 11821.502366245077, 19338.058750398013, -9084.754775137279, 2112.642182426713, 12756.162912388196, 5320.832767585846, 2429.969898458707, 16981.26846328598, 46446.656757194614, -3256.2691874824986, 22181.91590093564, 40118.07323909679, 8393.415319134632, -2257.369727774826, 15802.0798328018, -16711.5946664327, 0.108, 0.974, 0.098, 192.0, 0.0, 0.0, 0.0, 0.0, 0.0, 0.0, 0.0, 0.0, 0.0, 1.741985937388646E9, 0.0, 2025-03-14 15:58:57.388
32.0, 11825.77154943604, 19343.847852211937, -9054.669327100435, 2128.511920989981, 12764.231892136562, 5325.392523454729, 2427.690020524266, 16982.4084022532, 46462.39238529115, -3248.6695943676946, 22200.043165688894, 40116.933300129574, 8388.743804543472, -2256.028623107508, 15810.148812550166, -16705.202067518483, 0.108, 0.974, 0.098, 192.0, 0.0, 0.0, 0.0, 0.0, 0.0, 0.0, 0.0, 0.0, 0.0, 1.741985937388963E9, 0.0, 2025-03-14 15:58:57.388
34.0, 11822.977581379126, 19345.188956879254, -9060.950167292378, 2122.521653475959, 12748.51861578448, 5320.184566996642, 2425.1642734008165, 16983.97302436507, 46457.67616721108, -3246.4120681777085, 22198.29972962138, 40132.13248635918, 8368.761345000428, -2255.82745740741, 15807.26543751543, -16703.771555873343, 0.108, 0.974, 0.098, 192.0, 0.0, 0.0, 0.0, 0.0, 0.0, 0.0, 0.0, 0.0, 0.0, 1.741985937389214E9, 0.0, 2025-03-14 15:58:57.389
36.0, 11812.785185907505, 19336.53883177505, -9055.563396878648, 2118.4983394740034, 12743.198900604119, 5319.29049721843, 2424.2925553670593, 16979.68148942965, 46478.97737967699, -3249.5413124014513, 22206.72633728103, 40118.3191082858, 8386.776851031405, -2254.1287248288068, 15822.241106300487, -16696.753108114375, 0.108, 0.974, 0.098, 192.0, 0.0, 0.0, 0.0, 0.0, 0.0, 0.0, 0.0, 0.0, 0.0, 1.741985937389465E9, 0.0, 2025-03-14 15:58:57.389
38.0, 11813.701607430174, 19346.68652375776, -9074.920007576944, 2123.259261042984, 12742.260127336995, 5328.566471167383, 2428.204110646738, 16982.721326675575, 46459.017271878394, -3253.586978147862, 22199.082040677316, 40180.21108868255, 8387.268589409423, -2259.0014051200637, 15808.27126601592, -16705.850268107686, 0.124, 0.976, 0.106, 192.0, 1.5, 112.0, 15.0, 64.0, 1.5, 40.0, 0.0, 0.0, 0.0, 1.741985937389699E9, 0.0, 2025-03-14 15:58:57.389
40.0, 11818.797805165983, 19354.73315176167, -9058.826751569122, 2126.5673192223694, 12734.839348177833, 5322.352686208807, 2407.9310784257746, 16969.489093958033, 46451.99882411943, -3247.5743588893843, 22188.4873138055, 40120.55428273133, 8395.80695579135, -2256.1627335742396, 15806.572533437316, -16706.319654741248, 0.124, 0.976, 0.106, 192.0, 0.0, 0.0, 0.0, 0.0, 0.0, 0.0, 0.0, 0.0, 0.0, 1.741985937389945E9, 0.0, 2025-03-14 15:58:57.389
42.0, 11811.935819618204, 19351.581555793473, -9083.301911747683, 2119.191243552118, 12720.601286959802, 5312.428511670651, 2401.6725899782887, 16958.447332197113, 46479.15619363263, -3240.3100419414095, 22218.05867171987, 40163.76020476344, 8401.506650627452, -2254.1957800621726, 15815.915562619635, -16708.845401864695, 0.124, 0.976, 0.106, 192.0, 0.0, 0.0, 0.0, 0.0, 0.0, 0.0, 0.0, 0.0, 0.0, 1.741985937390186E9, 0.0, 2025-03-14 15:58:57.390
44.0, 11822.284677301011, 19355.135483161866, -9060.570187636637, 2124.287441287928, 12733.431188277149, 5316.854157072801, 2412.557889528023, 16967.83506486834, 46464.38169054767, -3249.4295536791747, 22170.315345563336, 40116.732134429476, 8416.459967668054, -2263.404698777759, 15799.084699044788, -16723.77636716084, 0.124, 0.976, 0.106, 192.0, 0.0, 0.0, 0.0, 0.0, 0.0, 0.0, 0.0, 0.0, 0.0, 1.741985937390416E9, 0.0, 2025-03-14 15:58:57.390
46.0, 11817.255534798567, 19348.340552847454, -9062.000699281776, 2118.833615640833, 12736.76159820099, 5319.648125129715, 2429.9922502031627, 16972.908910859696, 46470.997806906445, -3244.713335599105, 22218.706872309074, 40168.20820191005, 8378.1267259272, -2260.655434209756, 15820.430614999606, -16712.041701321807, 0.124, 0.976, 0.106, 192.0, 0.0, 0.0, 0.0, 0.0, 0.0, 0.0, 0.0, 0.0, 0.0, 1.741985937447522E9, 0.0, 2025-03-14 15:58:57.447
48.0, 11831.873575672338, 19361.461026842717, -9041.302983916163, 2135.6644792156794, 12744.495301782526, 5329.326430478863, 2436.764828773121, 16985.671756943673, 46448.44489675104, -3249.653071123728, 22189.11316265025, 40134.07708812679, 8379.870161994715, -2253.771096917522, 15829.438368015095, -16704.620922162645, 0.126, 0.97, 0.108, 192.0, 1.5, 120.0, 15.0, 40.0, 1.5, 48.0, 0.0, 0.0, 0.0, 1.741985937447805E9, 0.0, 2025-03-14 15:58:57.447
50.0, 11833.48290127312, 19363.65149779934, -9049.818998553634, 2139.3301653063495, 12743.690638982134, 5333.685020647647, 2427.8241309909977, 16987.057565099905, 46457.94438814454, -3221.556928343407, 22218.3939478867, 40188.12360621973, 8393.147098201169, -2242.6846316676892, 15832.679370961116, -16692.126297012128, 0.126, 0.97, 0.108, 192.0, 0.0, 0.0, 0.0, 0.0, 0.0, 0.0, 0.0, 0.0, 0.0, 1.741985937448072E9, 0.0, 2025-03-14 15:58:57.448
52.0, 11828.140834348302, 19357.862395985412, -9058.960862035854, 2128.42251401216, 12734.414665033182, 5321.391561197229, 2424.1807966447827, 16978.295681273423, 46441.404097247614, -3236.465541895097, 22179.59131951229, 40148.33750108928, 8387.134478942691, -2250.6418526937787, 15813.65803642965, -16706.811393119264, 0.126, 0.97, 0.108, 192.0, 0.0, 0.0, 0.0, 0.0, 0.0, 0.0, 0.0, 0.0, 0.0, 1.741985937448312E9, 0.0, 2025-03-14 15:58:57.448
54.0, 11830.018380882548, 19360.030515197577, -9056.524521890226, 2133.7645809369783, 12743.62358374877, 5332.545081680427, 2438.687078796277, 16991.50556224651, 46456.7150421995, -3225.2449661785326, 22223.870125278252, 40188.57064110883, 8382.999406218458, -2239.1977595326616, 15831.427673271619, -16698.45184069298, 0.126, 0.97, 0.108, 192.0, 0.0, 0.0, 0.0, 0.0, 0.0, 0.0, 0.0, 0.0, 0.0, 1.741985937448554E9, 0.0, 2025-03-14 15:58:57.448
56.0, 11816.942610376193, 19349.480491814673, -9058.446771913383, 2121.4711214865592, 12737.074522623363, 5328.834692100846, 2428.1594071578274, 16979.010937095994, 46460.87246666819, -3231.682268581661, 22178.898415434174, 40138.50273352894, 8389.74963304396, -2241.321175255916, 15827.94080113659, -16696.68605288101, 0.126, 0.97, 0.108, 192.0, 0.0, 0.0, 0.0, 0.0, 0.0, 0.0, 0.0, 0.0, 0.0, 1.741985937448802E9, 0.0, 2025-03-14 15:58:57.448
58.0, 11806.14671780428, 19344.406645823317, -9078.831562856623, 2111.837519626322, 12730.61486847578, 5318.463482673584, 2421.2750698655927, 16975.077030071858, 46432.128123298666, -3248.8260565788814, 22205.832267502818, 40173.43851011259, 8387.201534176056, -2256.430954507703, 15816.854335886757, -16717.473175224444, 0.13, 0.976, 0.108, 192.0, 2.0, 8.0, 15.0, 64.0, 1.5, 48.0, 0.0, 0.0, 0.0, 1.741985937449048E9, 0.0, 2025-03-14 15:58:57.449
60.0, 11798.033034567003, 19339.511613787607, -9090.476821717837, 2105.6907899011126, 12721.89768813821, 5325.191357754631, 2413.9660494287073, 16967.566843934877, 46424.23795750594, -3244.7580390880157, 22158.29010704638, 40126.56690198981, 8395.80695579135, -2258.5543702309574, 15811.758138150948, -16718.613114191667, 0.13, 0.976, 0.108, 192.0, 0.0, 0.0, 0.0, 0.0, 0.0, 0.0, 0.0, 0.0, 0.0, 1.741985937507943E9, 0.0, 2025-03-14 15:58:57.507
62.0, 11799.15062178977, 19342.663209755803, -9090.879153118034, 2109.0435515694085, 12723.059978849886, 5316.943564050623, 2412.2002616167383, 16971.009012580995, 46410.8045590883, -3239.4383239076524, 22187.526188793923, 40162.35204486275, 8383.513496340931, -2255.5145329850357, 15804.94085609208, -16728.649047452098, 0.13, 0.976, 0.108, 192.0, 0.0, 0.0, 0.0, 0.0, 0.0, 0.0, 0.0, 0.0, 0.0, 1.741985937508224E9, 0.0, 2025-03-14 15:58:57.508
64.0, 11799.642360167785, 19338.17050912029, -9075.568208166147, 2107.478929457537, 12717.695560180613, 5315.580107638849, 2403.3936743013473, 16973.713573660087, 46406.06598926378, -3246.7026408556276, 22152.568060465823, 40125.315204300314, 8377.255007893446, -2267.472716268625, 15798.83882985578, -16728.045550351806, 0.13, 0.976, 0.108, 192.0, 0.0, 0.0, 0.0, 0.0, 0.0, 0.0, 0.0, 0.0, 0.0, 1.741985937508473E9, 0.0, 2025-03-14 15:58:57.508
66.0, 11797.921275844727, 19335.533003274562, -9079.412708212461, 2104.9755340785428, 12728.267935307973, 5313.635505871237, 2424.381962344881, 16974.093553315826, 46399.76279732738, -3255.8892078267586, 22186.028621915415, 40159.80394599485, 8375.668034037119, -2260.342509787382, 15812.138117806688, -16727.598515462698, 0.131, 0.976, 0.10500000000000001, 192.0, 2.0, 16.0, 15.0, 64.0, 1.5, 24.0, 0.0, 0.0, 0.0, 1.741985937508708E9, 0.0, 2025-03-14 15:58:57.508
68.0, 11793.629740909308, 19332.761386962102, -9091.862629874067, 2098.404121208682, 12719.729568926046, 5314.9542587941005, 2413.921345939797, 16964.5046549445, 46390.442119889514, -3254.5928066483507, 22148.544746463867, 40125.33755604477, 8381.770060273417, -2271.719547715133, 15815.312065519342, -16726.16800381756, 0.131, 0.976, 0.10500000000000001, 192.0, 0.0, 0.0, 0.0, 0.0, 0.0, 0.0, 0.0, 0.0, 0.0, 1.741985937508954E9, 0.0, 2025-03-14 15:58:57.508
70.0, 11801.654017168763, 19338.863413198404, -9073.824772098635, 2105.6907899011126, 12728.08912135233, 5312.115587248277, 2418.950488442241, 16968.371506735268, 46370.884343491125, -3253.8999025702365, 22176.193854355082, 40149.45508831205, 8375.735089270484, -2273.865315182843, 15800.470507201018, -16734.281687054838, 0.131, 0.976, 0.10500000000000001, 192.0, 0.0, 0.0, 0.0, 0.0, 0.0, 0.0, 0.0, 0.0, 0.0, 1.741985937509201E9, 0.0, 2025-03-14 15:58:57.509
72.0, 11806.839621882395, 19351.11216915991, -9079.323301234639, 2113.3350865048274, 12727.150348085208, 5325.750151366014, 2432.942680471263, 16976.664003928185, 46386.530564609835, -3241.6734983531833, 22161.06172335884, 40133.65240498214, 8373.65637703614, -2263.762326689044, 15832.880536661212, -16714.79096588981, 0.131, 0.976, 0.10500000000000001, 192.0, 0.0, 0.0, 0.0, 0.0, 0.0, 0.0, 0.0, 0.0, 0.0, 1.741985937509448E9, 0.0, 2025-03-14 15:58:57.509
74.0, 11802.883363113806, 19347.334724346965, -9065.398164438982, 2117.872490629255, 12725.42926376215, 5320.542194907927, 2428.070000180006, 16974.697050416118, 46360.98252069742, -3241.360573930809, 22186.20743587106, 40156.495887815465, 8381.837115506783, -2255.6262917073122, 15819.402434754664, -16720.960047359473, 0.131, 0.976, 0.10500000000000001, 192.0, 0.0, 0.0, 0.0, 0.0, 0.0, 0.0, 0.0, 0.0, 0.0, 1.741985937509686E9, 0.0, 2025-03-14 15:58:57.509
76.0, 11806.4372904822, 19356.096608173444, -9078.049251800687, 2119.995906352509, 12732.559470243392, 5331.9192328356785, 2435.0660961945173, 16982.698974931118, 46365.83284924422, -3237.493722140041, 22169.890662418686, 40157.43466108259, 8378.104374182747, -2254.3298905289043, 15833.640495972693, -16708.21955301995, 0.1295, 0.971, 0.10350000000000001, 192.0, 2.0, 0.0, 15.0, 24.0, 1.5, 24.0, 0.0, 0.0, 0.0, 1.74198593756678E9, 0.0, 2025-03-14 15:58:57.566
78.0, 11806.2361247821, 19356.78951225156, -9065.59933013908, 2121.7616941644783, 12727.150348085208, 5337.507168949505, 2430.819264748009, 16983.4589342426, 46342.11764837714, -3238.901882040725, 22181.58062476881, 40164.4307570971, 8383.111164940736, -2249.9936521045747, 15828.052559858867, -16708.957160586975, 0.1295, 0.971, 0.10350000000000001, 192.0, 0.0, 0.0, 0.0, 0.0, 0.0, 0.0, 0.0, 0.0, 0.0, 1.741985937567067E9, 0.0, 2025-03-14 15:58:57.567
80.0, 11799.731767145608, 19348.83229122547, -9088.46516471686, 2115.2349847835285, 12722.814109660878, 5334.2661660034855, 2426.5053780681346, 16980.799076652416, 46350.85718045916, -3236.622004106284, 22173.466941531533, 40164.76603326393, 8375.08688868128, -2253.726393428611, 15822.330513278308, -16711.706425154975, 0.1295, 0.971, 0.10350000000000001, 192.0, 0.0, 0.0, 0.0, 0.0, 0.0, 0.0, 0.0, 0.0, 0.0, 1.741985937567317E9, 0.0, 2025-03-14 15:58:57.567
82.0, 11800.469374712631, 19351.425093582286, -9074.920007576944, 2121.1358453197295, 12728.133824841241, 5333.416799714184, 2425.8571774789307, 16983.97302436507, 46339.144866364586, -3236.6443558507394, 22172.57287175332, 40154.93126570359, 8383.3793858742, -2251.0665358384294, 15818.46366148754, -16707.616055919654, 0.1295, 0.971, 0.10350000000000001, 192.0, 0.0, 0.0, 0.0, 0.0, 0.0, 0.0, 0.0, 0.0, 0.0, 1.741985937567564E9, 0.0, 2025-03-14 15:58:57.567
84.0, 11797.138964788792, 19350.8662999709, -9094.924818864443, 2112.2622027709726, 12727.172699829664, 5328.074732789366, 2429.3440496139588, 16982.475457486566, 46330.09240986018, -3230.9893645035463, 22168.460150773546, 40164.14018441918, 8386.866258009226, -2247.289091025483, 15815.17795505261, -16703.369224473146, 0.1295, 0.971, 0.10350000000000001, 192.0, 0.0, 0.0, 0.0, 0.0, 0.0, 0.0, 0.0, 0.0, 0.0, 1.741985937567806E9, 0.0, 2025-03-14 15:58:57.567
86.0, 11803.308046258457, 19359.806997753025, -9060.301966703173, 2124.533310476936, 12732.179490587652, 5329.885224090245, 2436.9659944732184, 16988.37631802277, 46327.96899413693, -3245.227425721577, 22175.76917121043, 40150.70678600154, 8379.646644550163, -2262.7341464440997, 15817.904867876157, -16696.574294158734, 0.12975, 0.9735, 0.10575000000000001, 192.0, 2.0, 8.0, 15.0, 64.0, 1.5, 48.0, 0.0, 0.0, 0.0, 1.741985937568054E9, 0.0, 2025-03-14 15:58:57.568
88.0, 11808.985389350104, 19372.70395430374, -9074.472972687838, 2131.350592535805, 12741.544871514425, 5331.516901435483, 2430.662802536822, 16988.93511163415, 46314.35678176365, -3231.704620326116, 22186.095677148784, 40173.32675139031, 8382.954702729548, -2245.2327305355943, 15823.291638289886, -16679.296395694782, 0.12975, 0.9735, 0.10575000000000001, 192.0, 0.0, 0.0, 0.0, 0.0, 0.0, 0.0, 0.0, 0.0, 0.0, 1.741985937568302E9, 0.0, 2025-03-14 15:58:57.568
90.0, 11807.979560849615, 19375.095590960456, -9063.162989993452, 2127.9754791230534, 12727.619734718768, 5321.838596086335, 2416.7600174856207, 16985.671756943673, 46330.3829825381, -3227.681306324161, 22179.233691601003, 40155.937094204084, 8395.13640345769, -2252.2288265501056, 15816.295542275375, -16677.083572993706, 0.12975, 0.9735, 0.10575000000000001, 192.0, 0.0, 0.0, 0.0, 0.0, 0.0, 0.0, 0.0, 0.0, 0.0, 1.741985937628347E9, 0.0, 2025-03-14 15:58:57.628
92.0, 11818.440177254699, 19388.75250682265, -9065.755792350268, 2139.71014496209, 12750.7090867411, 5344.525616708472, 2454.713279570732, 17000.93799840665, 46324.72799119091, -3234.3421261718427, 22207.039261703405, 40187.542460863886, 8381.188914917579, -2241.8129136339326, 15822.554030722862, -16668.701668822967, 0.12975, 0.9735, 0.10575000000000001, 192.0, 0.0, 0.0, 0.0, 0.0, 0.0, 0.0, 0.0, 0.0, 0.0, 1.741985937628624E9, 0.0, 2025-03-14 15:58:57.628
94.0, 11814.707435930663, 19389.35600392294, -9041.481797871804, 2135.798589682411, 12729.609039975292, 5340.0776195618655, 2444.4538288657463, 16998.814582683397, 46317.664839943034, -3218.427684119664, 22188.420258572132, 40157.63582678269, 8397.215115692034, -2239.4883322105807, 15830.243030815487, -16662.82316003122, 0.12975, 0.9735, 0.10575000000000001, 192.0, 0.0, 0.0, 0.0, 0.0, 0.0, 0.0, 0.0, 0.0, 0.0, 1.741985937628875E9, 0.0, 2025-03-14 15:58:57.628
96.0, 11817.076720842924, 19397.961425538233, -9061.106629503563, 2136.0221071269643, 12733.185319088141, 5345.553796953416, 2447.7395353006764, 16996.73587044905, 46316.904880631555, -3226.49666386803, 22212.984825728516, 40194.04681850038, 8388.56499058783, -2241.477637467103, 15824.409225512652, -16671.070953735227, 0.12687500000000002, 0.97175, 0.106875, 192.0, 1.5, 112.0, 15.0, 40.0, 1.5, 48.0, 0.0, 0.0, 0.0, 1.741985937629118E9, 0.0, 2025-03-14 15:58:57.629
98.0, 11813.858069641361, 19399.883675561392, -9043.962841506343, 2137.7878949389333, 12731.196013831617, 5341.418724229184, 2442.241006164671, 16992.421983769178, 46328.2819185593, -3218.360628886298, 22180.77596196842, 40155.13243140369, 8398.71268257054, -2234.794465874966, 15818.709530676548, -16671.16036071305, 0.12687500000000002, 0.97175, 0.106875, 192.0, 0.0, 0.0, 0.0, 0.0, 0.0, 0.0, 0.0, 0.0, 0.0, 1.741985937629367E9, 0.0, 2025-03-14 15:58:57.629
100.0, 11812.226392296123, 19403.0799750185, -9047.986155508299, 2138.167874594674, 12727.016237618476, 5344.592671941838, 2441.235177664182, 16999.105155361314, 46321.28582254479, -3220.7299137985606, 22219.578590342833, 40198.450112158076, 8377.590284060274, -2230.1453030282623, 15825.102129590767, -16674.334308425703, 0.12687500000000002, 0.97175, 0.106875, 192.0, 0.0, 0.0, 0.0, 0.0, 0.0, 0.0, 0.0, 0.0, 0.0, 1.741985937629604E9, 0.0, 2025-03-14 15:58:57.629
102.0, 11802.637493924796, 19396.441506915275, -9043.716972317336, 2133.317546047872, 12725.18339457314, 5343.542139952438, 2440.698735797255, 16997.5628849939, 46309.12647356111, -3224.2167859335887, 22182.653508502666, 40155.35594884824, 8378.864333494226, -2241.0976578113628, 15814.172126552121, -16680.995128273385, 0.12687500000000002, 0.97175, 0.106875, 192.0, 0.0, 0.0, 0.0, 0.0, 0.0, 0.0, 0.0, 0.0, 0.0, 1.74198593762986E9, 0.0, 2025-03-14 15:58:57.629
104.0, 11793.674444398219, 19390.54064637907, -9050.98128926531, 2129.093066345819, 12717.382635758238, 5333.886186347746, 2436.049572950551, 16994.098364603327, 46315.74258991988, -3222.428646377164, 22220.53971535441, 40195.56673712334, 8391.381310389199, -2231.575814673402, 15818.195440554076, -16680.101058495173, 0.12687500000000002, 0.97175, 0.106875, 192.0, 0.0, 0.0, 0.0, 0.0, 0.0, 0.0, 0.0, 0.0, 0.0, 1.741985937630106E9, 0.0, 2025-03-14 15:58:57.630
106.0, 11799.53060144551, 19393.736945836183, -9046.577995607615, 2130.4341710131375, 12719.438996248127, 5333.3273927363625, 2436.563663073023, 16994.545399492432, 46311.808682895746, -3227.726009813072, 22182.072363146828, 40154.66304477013, 8392.56595284533, -2243.44459097917, 15810.75230965046, -16686.068974264737, 0.1224375, 0.975875, 0.10643749999999999, 192.0, 1.5, 88.0, 15.0, 80.0, 1.5, 40.0, 0.0, 0.0, 0.0, 1.741985937687365E9, 0.0, 2025-03-14 15:58:57.687
108.0, 11799.172973534223, 19391.948806279757, -9037.570242592126, 2130.903557646699, 12718.366112514272, 5332.38861946924, 2439.335279385481, 16997.853457671816, 46320.79408416678, -3218.8523672643146, 22224.518325867455, 40196.50551039047, 8385.882781253193, -2239.957718844142, 15818.597771954272, -16682.5373986408, 0.1224375, 0.975875, 0.10643749999999999, 192.0, 0.0, 0.0, 0.0, 0.0, 0.0, 0.0, 0.0, 0.0, 0.0, 1.741985937687668E9, 0.0, 2025-03-14 15:58:57.687
110.0, 11794.948493832171, 19386.83025679949, -9044.096951973075, 2127.70725818959, 12721.316542782371, 5332.232157258053, 2430.327526369992, 16996.13237334876, 46314.22267129692, -3224.4403033781414, 22185.246310859482, 40149.20921912303, 8381.144211428667, -2244.2045502906503, 15816.094376575278, -16683.096192252182, 0.1224375, 0.975875, 0.10643749999999999, 192.0, 0.0, 0.0, 0.0, 0.0, 0.0, 0.0, 0.0, 0.0, 0.0, 1.741985937687917E9, 0.0, 2025-03-14 15:58:57.687
112.0, 11792.713319386641, 19380.571768352005, -9057.396239923983, 2124.3544965212936, 12730.592516731325, 5333.550910180916, 2429.7687327586095, 16990.946768635127, 46308.031238082796, -3233.2468906935324, 22219.645645576198, 40187.52010911943, 8381.23361840649, -2244.7409921575777, 15806.75134739296, -16692.707442367966, 0.1224375, 0.975875, 0.10643749999999999, 192.0, 0.0, 0.0, 0.0, 0.0, 0.0, 0.0, 0.0, 0.0, 0.0, 1.741985937688162E9, 0.0, 2025-03-14 15:58:57.688
114.0, 11794.009720565047, 19384.17039920931, -9042.465274627839, 2132.892862903221, 12719.729568926046, 5341.262262017997, 2452.1204772139167, 16997.65229197172, 46310.199357294965, -3232.9563180156138, 22179.21133985655, 40149.99153017897, 8381.479487595498, -2245.947986358164, 15814.261533529942, -16685.666642864544, 0.1224375, 0.975875, 0.10643749999999999, 192.0, 0.0, 0.0, 0.0, 0.0, 0.0, 0.0, 0.0, 0.0, 0.0, 1.741985937688395E9, 0.0, 2025-03-14 15:58:57.688
116.0, 11801.966941591138, 19393.446373158262, -9037.324373403117, 2140.313642062383, 12728.759673685989, 5344.816189386391, 2453.372174903414, 16999.149858850225, 46313.060380585244, -3212.236250905544, 22222.059633977373, 40193.398617911174, 8379.825458505806, -2238.795428132466, 15820.877649888713, -16684.906683553065, 0.11721875000000001, 0.9749375, 0.10821875, 192.0, 1.5, 64.0, 15.0, 56.0, 1.5, 56.0, 0.0, 0.0, 0.0, 1.741985937688637E9, 0.0, 2025-03-14 15:58:57.688
118.0, 11799.642360167785, 19393.89340804737, -9038.88899551499, 2137.7878949389333, 12725.675132951157, 5342.513959707494, 2455.987329004685, 16998.322844305378, 46315.67553468651, -3208.2799921369547, 22191.996537684983, 40173.214992668036, 8380.496010839464, -2233.4086577187372, 15825.482109246506, -16686.62776787612, 0.11721875000000001, 0.9749375, 0.10821875, 192.0, 0.0, 0.0, 0.0, 0.0, 0.0, 0.0, 0.0, 0.0, 0.0, 1.741985937688903E9, 0.0, 2025-03-14 15:58:57.688
120.0, 11805.72203465963, 19396.665024359827, -9026.819053509123, 2142.928796163654, 12724.937525384132, 5341.351668995818, 2446.979575989196, 16998.926341405673, 46309.05941832774, -3212.2809543944545, 22227.558163113375, 40198.89714704718, 8375.109240425736, -2236.560253686935, 15829.326609292819, -16693.19918074598, 0.11721875000000001, 0.9749375, 0.10821875, 192.0, 0.0, 0.0, 0.0, 0.0, 0.0, 0.0, 0.0, 0.0, 0.0, 1.741985937751854E9, 0.0, 2025-03-14 15:58:57.751
122.0, 11797.921275844727, 19388.93132077829, -9040.654783326958, 2134.3904297817267, 12714.745129912511, 5330.734590379548, 2433.3226601270035, 16990.097402345826, 46320.481159744406, -3207.944715970125, 22203.418279101646, 40175.98660898049, 8378.886685238682, -2225.8761198372986, 15825.191536568587, -16698.697709881988, 0.11721875000000001, 0.9749375, 0.10821875, 192.0, 0.0, 0.0, 0.0, 0.0, 0.0, 0.0, 0.0, 0.0, 0.0, 1.741985937752173E9, 0.0, 2025-03-14 15:58:57.752
124.0, 11805.654979426263, 19392.21702721322, -9027.601364565058, 2138.6149094837797, 12727.060941107386, 5337.618927671781, 2441.2128259197266, 16995.707690204108, 46316.681363187, -3212.079788694357, 22225.233581690023, 40190.91757427664, 8379.736051527983, -2237.566082187424, 15824.476280746017, -16702.519858183845, 0.11721875000000001, 0.9749375, 0.10821875, 192.0, 0.0, 0.0, 0.0, 0.0, 0.0, 0.0, 0.0, 0.0, 0.0, 1.74198593775242E9, 0.0, 2025-03-14 15:58:57.752
126.0, 11793.830906609406, 19378.60481483994, -9042.912309516943, 2126.7237814335563, 12718.969609614565, 5326.532462421949, 2441.972785231207, 16985.87292264377, 46322.20224406746, -3214.5831840733513, 22200.065517433348, 40175.47251885802, 8389.704929555051, -2236.470846709114, 15821.682312689105, -16702.318692483746, 0.11060937500000001, 0.97746875, 0.11110937500000001, 192.0, 1.5, 32.0, 15.0, 80.0, 1.5, 72.0, 0.0, 0.0, 0.0, 1.741985937752673E9, 0.0, 2025-03-14 15:58:57.752
128.0, 11797.943627589182, 19379.096553217954, -9028.808358765646, 2131.5294064914474, 12718.746092170011, 5331.7404188800365, 2439.8717212524084, 16989.717422690086, 46317.70954343195, -3224.485006867052, 22219.153907198182, 40189.19648995358, 8377.098545682258, -2248.2949195259716, 15819.983580110502, -16706.856096608175, 0.11060937500000001, 0.97746875, 0.11110937500000001, 192.0, 0.0, 0.0, 0.0, 0.0, 0.0, 0.0, 0.0, 0.0, 0.0, 1.74198593775292E9, 0.0, 2025-03-14 15:58:57.752
130.0, 11784.75609836055, 19365.01495421111, -9054.244643955784, 2115.1679295501626, 12704.575086185347, 5314.9542587941005, 2421.6550495213332, 16977.89334987323, 46312.41217999604, -3216.9301172411583, 22196.01985168694, 40178.89233575968, 8369.118972911712, -2245.322137513416, 15818.575420209816, -16706.431413463524, 0.11060937500000001, 0.97746875, 0.11110937500000001, 192.0, 0.0, 0.0, 0.0, 0.0, 0.0, 0.0, 0.0, 0.0, 0.0, 1.74198593775316E9, 0.0, 2025-03-14 15:58:57.753
132.0, 11796.356653732855, 19369.082971701977, -9040.721838560325, 2117.336048762327, 12710.94533335511, 5318.374075695762, 2431.4004101038468, 16973.26653877098, 46310.7805026508, -3232.68809708215, 22194.522284808434, 40163.491983829976, 8361.18410363008, -2260.0742888539185, 15798.637664155684, -16729.11843408566, 0.11060937500000001, 0.97746875, 0.11110937500000001, 192.0, 0.0, 0.0, 0.0, 0.0, 0.0, 0.0, 0.0, 0.0, 0.0, 1.741985937753405E9, 0.0, 2025-03-14 15:58:57.753
134.0, 11800.737595646096, 19378.85068402895, -9048.45554214186, 2122.834577898333, 12715.37097875726, 5322.330334464352, 2442.665689309322, 16982.4084022532, 46321.95637487846, -3222.898033010725, 22203.418279101646, 40182.44626312808, 8376.629159048696, -2247.020870092019, 15815.60263819726, -16715.997960090393, 0.11060937500000001, 0.97746875, 0.11110937500000001, 192.0, 0.0, 0.0, 0.0, 0.0, 0.0, 0.0, 0.0, 0.0, 0.0, 1.741985937753638E9, 0.0, 2025-03-14 15:58:57.753
136.0, 11808.739520161096, 19386.047945743554, -9035.849158269068, 2122.9686883650647, 12716.220345046562, 5316.809453583891, 2431.981555459685, 16977.870998128772, 46316.92723237601, -3218.628849819762, 22200.40079360018, 40173.483213601496, 8373.857542736238, -2249.2560445375498, 15813.680388174105, -16721.138861315118, 0.10730468750000001, 0.9787343749999999, 0.1115546875, 192.0, 1.5, 32.0, 15.0, 80.0, 1.5, 64.0, 0.0, 0.0, 0.0, 1.741985937816953E9, 0.0, 2025-03-14 15:58:57.816
138.0, 11806.996084093582, 19387.925492277802, -9049.036687497699, 2122.096970331308, 12703.591609429313, 5320.653953630203, 2436.0048694616403, 16980.88848363024, 46335.12155236263, -3210.716332282583, 22212.381328628224, 40194.40444641167, 8373.052879935847, -2242.6175764343234, 15810.528792205907, -16723.150518316095, 0.10730468750000001, 0.9787343749999999, 0.1115546875, 192.0, 0.0, 0.0, 0.0, 0.0, 0.0, 0.0, 0.0, 0.0, 0.0, 1.741985937817255E9, 0.0, 2025-03-14 15:58:57.817
140.0, 11821.748235434085, 19404.242265730176, -9023.823919752112, 2140.738325207034, 12718.61198170328, 5331.651011902215, 2435.6025380614446, 16989.762126178997, 46334.36159305115, -3203.8990502237143, 22205.429936102624, 40178.3335421483, 8381.032452706391, -2231.374648973304, 15821.615257455738, -16714.858021123175, 0.10730468750000001, 0.9787343749999999, 0.1115546875, 192.0, 0.0, 0.0, 0.0, 0.0, 0.0, 0.0, 0.0, 0.0, 0.0, 1.741985937817502E9, 0.0, 2025-03-14 15:58:57.817
142.0, 11824.229279068622, 19406.477440175706, -9046.667402585435, 2140.2242350845618, 12711.638237433224, 5334.355572981307, 2441.8163230200203, 16991.751431435518, 46348.95728218047, -3190.1750791281556, 22236.11888123976, 40222.411182214164, 8375.533923570387, -2226.5690239154133, 15816.183783553099, -16705.93967508551, 0.10730468750000001, 0.9787343749999999, 0.1115546875, 192.0, 0.0, 0.0, 0.0, 0.0, 0.0, 0.0, 0.0, 0.0, 0.0, 1.741985937817746E9, 0.0, 2025-03-14 15:58:57.817
144.0, 11832.655886728275, 19416.446318202772, -9005.271971854207, 2150.9083689341987, 12724.311676539384, 5343.497436463527, 2465.777393076109, 16994.344233792333, 46347.236197857404, -3189.2810093499434, 22212.82836351733, 40193.01863825544, 8370.907112468138, -2224.9373465701756, 15828.700760448071, -16698.831820348718, 0.10730468750000001, 0.9787343749999999, 0.1115546875, 192.0, 0.0, 0.0, 0.0, 0.0, 0.0, 0.0, 0.0, 0.0, 0.0, 1.741985937817991E9, 0.0, 2025-03-14 15:58:57.817
146.0, 11835.226337340635, 19419.821431615524, -9020.426454594904, 2152.7188602350784, 12727.083292851841, 5353.7568871685135, 2459.0271662506066, 16991.50556224651, 46363.195343398496, -3180.586180756829, 22243.226735976546, 40230.23429277352, 8377.724394527006, -2214.4543784206367, 15840.770702453936, -16689.198218488484, 0.10665234375, 0.9763671875, 0.11177734375000001, 192.0, 1.5, 40.0, 15.0, 56.0, 1.5, 64.0, 0.0, 0.0, 0.0, 1.741985937818234E9, 0.0, 2025-03-14 15:58:57.818
148.0, 11833.795825695495, 19418.92736183731, -9023.622754052014, 2145.409839798193, 12711.504126966493, 5336.926023593667, 2437.457732851235, 16981.000242352515, 46373.49949759239, -3180.0497388899016, 22217.81280253086, 40192.59395511079, 8376.718566026517, -2212.8897563087653, 15830.354789537763, -16695.121430769137, 0.10665234375, 0.9763671875, 0.11177734375000001, 192.0, 0.0, 0.0, 0.0, 0.0, 0.0, 0.0, 0.0, 0.0, 0.0, 1.741985937818493E9, 0.0, 2025-03-14 15:58:57.818
150.0, 11827.850261670383, 19419.97789382671, -9032.608155323047, 2147.019165398975, 12716.622676446757, 5337.797741627424, 2447.873645767408, 16989.493905245534, 46367.71039577847, -3190.5103552949854, 22233.615485860766, 40215.61625189975, 8379.08785093878, -2219.4388174341702, 15820.855298144257, -16706.58787567471, 0.10665234375, 0.9763671875, 0.11177734375000001, 192.0, 0.0, 0.0, 0.0, 0.0, 0.0, 0.0, 0.0, 0.0, 0.0, 1.741985937871579E9, 0.0, 2025-03-14 15:58:57.871
152.0, 11817.635514454309, 19412.26654198963, -9034.396294879472, 2139.5313310064475, 12707.70433040909, 5335.875491604268, 2451.9863667471845, 16980.55320746341, 46372.67248304754, -3192.522012295963, 22197.651529032177, 40174.77961477991, 8378.238484649479, -2220.176425001195, 15827.046731358378, -16707.63840766411, 0.10665234375, 0.9763671875, 0.11177734375000001, 192.0, 0.0, 0.0, 0.0, 0.0, 0.0, 0.0, 0.0, 0.0, 0.0, 1.741985937871841E9, 0.0, 2025-03-14 15:58:57.871
154.0, 11825.972715136137, 19424.314132251042, -9033.12224544552, 2151.3107003343944, 12715.03570259043, 5348.548930710427, 2459.205980206249, 16989.98564362355, 46372.11368943616, -3183.044872646913, 22233.21315446057, 40218.00788855647, 8374.550446814352, -2214.700247609645, 15827.650228458671, -16703.97272157344, 0.10665234375, 0.9763671875, 0.11177734375000001, 192.0, 0.0, 0.0, 0.0, 0.0, 0.0, 0.0, 0.0, 0.0, 0.0, 1.741985937872092E9, 0.0, 2025-03-14 15:58:57.872
156.0, 11813.366331263343, 19413.250018745664, -9035.9832687358, 2140.2465868290174, 12704.03864431842, 5343.139808552242, 2447.0019277336514, 16984.509466232, 46381.07673896274, -3180.139145867723, 22199.193799399593, 40182.04393172788, 8377.65733929364, -2208.2852969509718, 15827.739635436492, -16698.407137204067, 0.106326171875, 0.97318359375, 0.11488867187500001, 192.0, 1.5, 40.0, 15.0, 40.0, 1.5, 88.0, 0.0, 0.0, 0.0, 1.74198593787233E9, 0.0, 2025-03-14 15:58:57.872
158.0, 11814.327456274923, 19416.89335309188, -9034.575108835115, 2146.66153748769, 12709.112490309775, 5351.566416211894, 2453.595692347967, 16990.54443723493, 46369.2973696348, -3193.4831373075413, 22223.512497366966, 40214.36455421025, 8367.822571733304, -2221.852805835343, 15819.156565565654, -16706.29730299679, 0.106326171875, 0.97318359375, 0.11488867187500001, 192.0, 0.0, 0.0, 0.0, 0.0, 0.0, 0.0, 0.0, 0.0, 0.0, 1.741985937872572E9, 0.0, 2025-03-14 15:58:57.872
160.0, 11829.370180293345, 19431.533745710105, -9017.341913860073, 2161.056060916908, 12723.015275360976, 5359.501285493528, 2472.01352977914, 16999.909818161705, 46391.358541412184, -3180.720291223561, 22197.696232521088, 40180.92634450512, 8372.89641772466, -2205.6254393607906, 15834.80278668437, -16687.857113821163, 0.106326171875, 0.97318359375, 0.11488867187500001, 192.0, 0.0, 0.0, 0.0, 0.0, 0.0, 0.0, 0.0, 0.0, 0.0, 1.741985937872815E9, 0.0, 2025-03-14 15:58:57.872
162.0, 11839.897851931793, 19439.64742894738, -9008.78119573369, 2170.086165676852, 12721.361246271283, 5365.335090796362, 2468.817230322031, 17002.07793737387, 46401.841509561724, -3177.4569365330863, 22251.809805847384, 40227.97676658354, 8379.04314744987, -2195.455395633626, 15837.70851346356, -16681.218645717938, 0.106326171875, 0.97318359375, 0.11488867187500001, 192.0, 0.0, 0.0, 0.0, 0.0, 0.0, 0.0, 0.0, 0.0, 0.0, 1.741985937873057E9, 0.0, 2025-03-14 15:58:57.873
164.0, 11831.828872183427, 19428.471556719727, -9017.49837607126, 2161.346633594827, 12720.154252070697, 5354.382736013262, 2442.4645236092238, 16989.5609604789, 46413.933803312044, -3172.047814374902, 22215.10824145177, 40194.00211501147, 8380.048975950358, -2196.48357587857, 15834.825138428825, -16674.848398548176, 0.106326171875, 0.97318359375, 0.11488867187500001, 192.0, 0.0, 0.0, 0.0, 0.0, 0.0, 0.0, 0.0, 0.0, 0.0, 1.741985937873298E9, 0.0, 2025-03-14 15:58:57.873
166.0, 11834.332267562422, 19430.21499278724, -9013.340951602573, 2160.318453349883, 12708.151365298196, 5340.994041084533, 2458.0883929834836, 16990.477382001565, 46405.03780901883, -3187.0234831599573, 22248.88172732374, 40226.72506889404, 8365.028603676392, -2213.828529575888, 15821.950533622568, -16699.234151748915, 0.10416308593750001, 0.976591796875, 0.1184443359375, 192.0, 1.5, 24.0, 15.0, 80.0, 1.5, 104.0, 0.0, 0.0, 0.0, 1.741985937899086E9, 0.0, 2025-03-14 15:58:57.899
168.0, 11848.726790991639, 19444.56481272755, -9006.97070443281, 2168.85681973181, 12711.459423477581, 5352.236968545552, 2474.6957391137767, 16991.6620244577, 46422.20394876051, -3176.071128376857, 22222.998407244493, 40207.77078959594, 8379.065499194325, -2205.4913288940584, 15831.271211060432, -16686.35954694266, 0.10416308593750001, 0.976591796875, 0.1184443359375, 192.0, 0.0, 0.0, 0.0, 0.0, 0.0, 0.0, 0.0, 0.0, 0.0, 1.741985937899354E9, 0.0, 2025-03-14 15:58:57.899
170.0, 11844.547014778498, 19438.351027768975, -9007.976532933299, 2166.0404999304415, 12704.7986036299, 5349.040669088444, 2464.503343642157, 16986.07408834387, 46433.04454482133, -3169.6114742292734, 22257.285983238937, 40238.1468103107, 8383.84877250776, -2199.724578824589, 15837.060312874355, -16684.906683553065, 0.10416308593750001, 0.976591796875, 0.1184443359375, 192.0, 0.0, 0.0, 0.0, 0.0, 0.0, 0.0, 0.0, 0.0, 0.0, 1.741985937953648E9, 0.0, 2025-03-14 15:58:57.953
172.0, 11840.05431414298, 19436.115853323445, -9016.514899315227, 2163.0677179178856, 12709.268952520963, 5348.660689432703, 2463.7433843306762, 16988.286911044946, 46422.89685283862, -3182.240209846522, 22219.06450022036, 40206.541443650895, 8372.292920624366, -2209.827567318388, 15824.94566737958, -16699.457669193467, 0.10416308593750001, 0.976591796875, 0.1184443359375, 192.0, 0.0, 0.0, 0.0, 0.0, 0.0, 0.0, 0.0, 0.0, 0.0, 1.741985937953952E9, 0.0, 2025-03-14 15:58:57.953
174.0, 11836.120407118846, 19433.36658875544, -9015.553774303648, 2157.3009678484163, 12705.55856294138, 5336.903671849212, 2458.7365935726875, 16987.2587308, 46423.83562610574, -3179.4015383006977, 22250.44634943561, 40226.3450892383, 8377.456173593542, -2208.4194074177035, 15833.551088994873, -16697.557770914766, 0.10416308593750001, 0.976591796875, 0.1184443359375, 192.0, 0.0, 0.0, 0.0, 0.0, 0.0, 0.0, 0.0, 0.0, 0.0, 1.741985937954192E9, 0.0, 2025-03-14 15:58:57.954
176.0, 11837.260346086066, 19434.215955044743, -9024.896803485966, 2161.301930105916, 12699.925923338644, 5346.783142898458, 2449.9747097462073, 16993.69603320313, 46425.91433834009, -3183.2460383470107, 22220.182087443125, 40207.54727215139, 8371.063574679325, -2208.0170760175083, 15822.866955145235, -16698.228323248426, 0.10308154296875001, 0.9792958984375, 0.11822216796875001, 192.0, 1.5, 24.0, 15.0, 88.0, 1.5, 88.0, 0.0, 0.0, 0.0, 1.741985937954426E9, 0.0, 2025-03-14 15:58:57.954
178.0, 11834.511081518065, 19430.21499278724, -9010.949314945856, 2163.313587106894, 12708.240772276018, 5349.711221422103, 2470.6724251118217, 16995.68533845965, 46429.33415524175, -3180.809698201382, 22246.668904622664, 40224.57930142633, 8372.09175492427, -2202.384436414771, 15832.589963983293, -16685.845456820185, 0.10308154296875001, 0.9792958984375, 0.11822216796875001, 192.0, 0.0, 0.0, 0.0, 0.0, 0.0, 0.0, 0.0, 0.0, 0.0, 1.741985937954701E9, 0.0, 2025-03-14 15:58:57.954
180.0, 11837.103883874881, 19433.52305096663, -9027.377847120506, 2159.9161219496873, 12712.04056883342, 5351.119381322787, 2467.789050077087, 16995.68533845965, 46426.47313195147, -3188.096366893812, 22226.954666013084, 40219.75132462398, 8363.84396122026, -2209.827567318388, 15825.727978435514, -16691.50044816738, 0.10308154296875001, 0.9792958984375, 0.11822216796875001, 192.0, 0.0, 0.0, 0.0, 0.0, 0.0, 0.0, 0.0, 0.0, 0.0, 1.741985937954934E9, 0.0, 2025-03-14 15:58:57.954
182.0, 11837.43916004171, 19431.46669047674, -9014.525594058705, 2160.407860327704, 12696.237885503519, 5344.503264964016, 2450.91348301333, 16989.270387800978, 46433.24571052143, -3178.9545034115918, 22236.990599273515, 40219.99719381299, 8364.849789720749, -2204.4184451602036, 15820.60942895525, -16691.232227233915, 0.10308154296875001, 0.9792958984375, 0.11822216796875001, 192.0, 0.0, 0.0, 0.0, 0.0, 0.0, 0.0, 0.0, 0.0, 0.0, 1.741985937955168E9, 0.0, 2025-03-14 15:58:57.955
184.0, 11839.406113553778, 19433.545402711083, -9029.858890755046, 2159.670252760679, 12696.550809925891, 5351.387602256251, 2466.3138349430365, 16994.523047747978, 46432.86573086569, -3181.8602301907817, 22233.794299816407, 40227.306214249875, 8363.486333308976, -2206.564212627913, 15815.826155641815, -16694.316767968747, 0.10308154296875001, 0.9792958984375, 0.11822216796875001, 192.0, 0.0, 0.0, 0.0, 0.0, 0.0, 0.0, 0.0, 0.0, 0.0, 1.741985937955414E9, 0.0, 2025-03-14 15:58:57.955
186.0, 11841.663639743763, 19435.0876730785, -9017.207803393341, 2161.7936684839333, 12700.596475672302, 5342.022221329477, 2454.690927826277, 16995.350062292822, 46433.73744889945, -3178.619227244762, 22230.01685500346, 40213.55989140987, 8358.233673361978, -2207.860613806321, 15814.283885274397, -16700.55290467178, 0.10054077148437501, 0.97564794921875, 0.117111083984375, 192.0, 1.5, 8.0, 15.0, 48.0, 1.5, 80.0, 0.0, 0.0, 0.0, 1.74198593800615E9, 0.0, 2025-03-14 15:58:58.006
188.0, 11836.455683285676, 19430.729082909715, -9033.166948934431, 2158.1950376266286, 12700.194144272107, 5339.116494550288, 2464.1233639864167, 16990.45503025711, 46437.649004179126, -3177.367529555265, 22240.186898730626, 40234.101144564294, 8364.581568787286, -2206.184232972173, 15819.067158587834, -16695.903741825074, 0.10054077148437501, 0.97564794921875, 0.117111083984375, 192.0, 0.0, 0.0, 0.0, 0.0, 0.0, 0.0, 0.0, 0.0, 0.0, 1.74198593800641E9, 0.0, 2025-03-14 15:58:58.006
190.0, 11843.00474441108, 19433.098367821978, -9013.586820791581, 2165.7275755080673, 12699.300074493894, 5342.782180640957, 2469.666596611333, 16991.907893646705, 46436.57612044527, -3182.9778174135467, 22225.278285178934, 40209.02248728544, 8357.339603583767, -2213.2920877089605, 15821.883478389202, -16697.73658487041, 0.10054077148437501, 0.97564794921875, 0.117111083984375, 192.0, 0.0, 0.0, 0.0, 0.0, 0.0, 0.0, 0.0, 0.0, 0.0, 1.741985938006659E9, 0.0, 2025-03-14 15:58:58.006
192.0, 11842.892985688804, 19432.539574210594, -9028.495434343271, 2164.6993952631233, 12703.278685006939, 5346.291404520441, 2471.3876809343915, 16989.471553501076, 46446.56735021679, -3174.4841545205304, 22248.03236103444, 40241.790144656916, 8355.305594838333, -2205.290163193961, 15827.493766247484, -16690.226398733426, 0.10054077148437501, 0.97564794921875, 0.117111083984375, 192.0, 0.0, 0.0, 0.0, 0.0, 0.0, 0.0, 0.0, 0.0, 0.0, 1.74198593800691E9, 0.0, 2025-03-14 15:58:58.006
194.0, 11850.559634036976, 19439.580373714016, -9015.620829537014, 2169.0356336874524, 12704.016292573964, 5348.660689432703, 2461.3517476739585, 16991.63967271324, 46444.10865832671, -3176.1605353546784, 22219.533886853922, 40211.12355126424, 8356.244368105456, -2200.3951311582487, 15821.302333033364, -16690.628730133623, 0.10054077148437501, 0.97564794921875, 0.117111083984375, 192.0, 0.0, 0.0, 0.0, 0.0, 0.0, 0.0, 0.0, 0.0, 0.0, 1.741985938007159E9, 0.0, 2025-03-14 15:58:58.007
196.0, 11847.63155551333, 19435.31119052305, -9018.057169682643, 2169.795592998933, 12699.568295427358, 5354.15921856871, 2456.926102271808, 16989.78447792345, 46465.119298114696, -3169.2538463179885, 22256.12369252726, 40253.72597619605, 8356.266719849911, -2195.6565613337234, 15827.784338925403, -16686.337195198204, 0.10127038574218751, 0.975823974609375, 0.1185555419921875, 192.0, 1.5, 24.0, 15.0, 64.0, 1.5, 96.0, 0.0, 0.0, 0.0, 1.741985938007389E9, 0.0, 2025-03-14 15:58:58.007
198.0, 11834.175805351235, 19422.324826994518, -9026.30496338665, 2159.089107404841, 12691.32050172335, 5339.921157350678, 2437.43538110678, 16970.226701525058, 46454.50221949843, -3182.0613958908793, 22216.248180418992, 40210.92238556414, 8356.579644272286, -2206.161881227718, 15817.234315542499, -16695.948445313985, 0.10127038574218751, 0.975823974609375, 0.1185555419921875, 192.0, 0.0, 0.0, 0.0, 0.0, 0.0, 0.0, 0.0, 0.0, 0.0, 1.741985938007644E9, 0.0, 2025-03-14 15:58:58.007
200.0, 11818.462528999155, 19403.12467850741, -9035.044495468675, 2145.8121711983886, 12691.454612190082, 5325.43722694364, 2448.3206806565145, 16963.476474699553, 46451.99882411943, -3194.7348349970384, 22242.042093520417, 40237.20803704358, 8343.749742954938, -2222.9927448025637, 15809.187687538588, -16712.35462574418, 0.10127038574218751, 0.975823974609375, 0.1185555419921875, 192.0, 0.0, 0.0, 0.0, 0.0, 0.0, 0.0, 0.0, 0.0, 0.0, 1.741985938069047E9, 0.0, 2025-03-14 15:58:58.069
202.0, 11801.989293335593, 19384.393916653862, -9030.9317744889, 2138.0114123834865, 12703.055167562386, 5323.246755987019, 2444.207959676738, 16967.36567823478, 46450.34479502974, -3212.459768350097, 22201.116049422748, 40184.726141062514, 8346.387248800665, -2228.603032660846, 15810.864068372735, -16713.15928854457, 0.10127038574218751, 0.975823974609375, 0.1185555419921875, 192.0, 0.0, 0.0, 0.0, 0.0, 0.0, 0.0, 0.0, 0.0, 0.0, 1.74198593806931E9, 0.0, 2025-03-14 15:58:58.069
204.0, 11788.622950151319, 19373.039230470567, -9052.098876488075, 2133.339897792327, 12688.973568555542, 5324.76667460998, 2451.472276624713, 16971.992489337026, 46435.16796054458, -3225.714352812094, 22228.184011958125, 40220.80185661338, 8340.061705119813, -2235.800294375455, 15800.626969412206, -16720.26714328136, 0.10127038574218751, 0.975823974609375, 0.1185555419921875, 192.0, 0.0, 0.0, 0.0, 0.0, 0.0, 0.0, 0.0, 0.0, 0.0, 1.741985938069556E9, 0.0, 2025-03-14 15:58:58.069
206.0, 11787.61712165083, 19371.251090914142, -9045.303946173663, 2132.602290225302, 12696.930789581633, 5321.81624434188, 2450.2876341685815, 16968.17034103517, 46436.55376870081, -3228.105989468812, 22174.159845609647, 40166.66593154263, 8346.051972633835, -2238.8401316213767, 15801.677501401604, -16719.21661129196, 0.10663519287109376, 0.9759119873046875, 0.11927777099609374, 192.0, 1.5, 64.0, 15.0, 64.0, 1.5, 96.0, 0.0, 0.0, 0.0, 1.741985938069807E9, 0.0, 2025-03-14 15:58:58.069
208.0, 11796.200191521668, 19377.39782063935, -9035.111550702042, 2140.2465868290174, 12699.545943682902, 5326.5771659108605, 2452.701622569755, 16972.797152137417, 46447.52847522837, -3224.753227800516, 22227.06642473536, 40211.52588266443, 8338.385324285666, -2232.268718751516, 15810.864068372735, -16716.534401957324, 0.10663519287109376, 0.9759119873046875, 0.11927777099609374, 192.0, 0.0, 0.0, 0.0, 0.0, 0.0, 0.0, 0.0, 0.0, 0.0, 1.74198593807008E9, 0.0, 2025-03-14 15:58:58.070
210.0, 11787.930046073205, 19371.005221725132, -9066.247530728286, 2130.27770880195, 12687.006615043476, 5319.402255940707, 2437.9047677403414, 16965.17520727816, 46450.38949851865, -3224.1497307002223, 22182.586453269298, 40171.67272230062, 8358.546597784352, -2232.4475327071586, 15804.1808967806, -16714.478041467435, 0.10663519287109376, 0.9759119873046875, 0.11927777099609374, 192.0, 0.0, 0.0, 0.0, 0.0, 0.0, 0.0, 0.0, 0.0, 0.0, 1.741985938070321E9, 0.0, 2025-03-14 15:58:58.070
212.0, 11800.3352642459, 19384.37156490941, -9043.336992661594, 2140.380697295749, 12693.443917446604, 5327.694753133625, 2458.0213377501177, 16972.953614348604, 46429.28945175284, -3234.1409604717446, 22214.661206562665, 40202.652240115676, 8342.721562709996, -2242.5952246898682, 15793.876742586703, -16719.46248048097, 0.10663519287109376, 0.9759119873046875, 0.11927777099609374, 192.0, 0.0, 0.0, 0.0, 0.0, 0.0, 0.0, 0.0, 0.0, 0.0, 1.741985938070562E9, 0.0, 2025-03-14 15:58:58.070
214.0, 11799.977636334615, 19376.146122949856, -9051.785952065702, 2129.8753774017546, 12693.08628953532, 5324.185529254142, 2445.504360855146, 16963.901157844204, 46469.90257142813, -3230.4752743810745, 22191.705965007062, 40177.57358283682, 8356.89256869466, -2231.9110908402313, 15806.03609157039, -16708.532477442324, 0.10663519287109376, 0.9759119873046875, 0.11927777099609374, 192.0, 0.0, 0.0, 0.0, 0.0, 0.0, 0.0, 0.0, 0.0, 0.0, 1.741985938070805E9, 0.0, 2025-03-14 15:58:58.070
216.0, 11791.95336007516, 19374.000355482145, -9070.382603452517, 2130.545929735414, 12685.687862120612, 5324.2302327430525, 2439.268224152115, 16967.075105556858, 46458.614940478205, -3225.6249458342727, 22213.16363968416, 40210.36359195275, 8355.260891349422, -2234.3250792414046, 15796.69306238807, -16714.478041467435, 0.10731759643554688, 0.9739559936523438, 0.11963888549804687, 192.0, 1.5, 48.0, 15.0, 48.0, 1.5, 96.0, 0.0, 0.0, 0.0, 1.741985938127823E9, 0.0, 2025-03-14 15:58:58.127
218.0, 11801.47520321312, 19382.06933523051, -9054.445809655883, 2129.0707146013638, 12687.163077254663, 5331.29338399093, 2443.5150555986233, 16962.805922365897, 46459.866638167696, -3236.219672706088, 22169.08599961829, 40174.93607699109, 8348.577719757286, -2239.82360837741, 15791.060422785333, -16716.936733357517, 0.10731759643554688, 0.9739559936523438, 0.11963888549804687, 192.0, 0.0, 0.0, 0.0, 0.0, 0.0, 0.0, 0.0, 0.0, 0.0, 1.741985938128133E9, 0.0, 2025-03-14 15:58:58.128
220.0, 11798.4353659672, 19381.48818987467, -9063.900597560478, 2126.5226157334587, 12683.765612097457, 5324.520805420972, 2447.180741689294, 16957.10622752979, 46462.37003354669, -3229.5365011139515, 22211.06257570536, 40200.327658692324, 8348.085981379269, -2232.7828088739884, 15802.348053735264, -16717.45082347999, 0.10731759643554688, 0.9739559936523438, 0.11963888549804687, 192.0, 0.0, 0.0, 0.0, 0.0, 0.0, 0.0, 0.0, 0.0, 0.0, 1.741985938128374E9, 0.0, 2025-03-14 15:58:58.128
222.0, 11794.14383103178, 19380.88469277438, -9076.506981433271, 2119.057133085386, 12677.21655097205, 5324.498453676517, 2438.731782285188, 16962.001259565506, 46457.60911197771, -3234.252719194021, 22161.24053731448, 40163.73785301898, 8366.503818810443, -2231.598166417857, 15792.200361752555, -16731.21949806446, 0.10731759643554688, 0.9739559936523438, 0.11963888549804687, 192.0, 0.0, 0.0, 0.0, 0.0, 0.0, 0.0, 0.0, 0.0, 0.0, 1.741985938128627E9, 0.0, 2025-03-14 15:58:58.128
224.0, 11800.04469156798, 19385.913835276824, -9055.809266067656, 2126.544967477914, 12681.731603352024, 5329.572299667871, 2435.3790206168915, 16961.196596765112, 46460.559542245814, -3229.737666814049, 22204.11118317976, 40186.626039341216, 8346.253138333934, -2237.409619976237, 15802.549219435361, -16731.800643420298, 0.10731759643554688, 0.9739559936523438, 0.11963888549804687, 192.0, 0.0, 0.0, 0.0, 0.0, 0.0, 0.0, 0.0, 0.0, 0.0, 1.741985938128863E9, 0.0, 2025-03-14 15:58:58.128
226.0, 11793.294464742477, 19378.962442751224, -9086.9452460939, 2115.8161301393666, 12680.591664384803, 5323.447921687117, 2426.1924536457605, 16956.45802694059, 46469.81316445031, -3229.9611842586023, 22176.260909588447, 40166.71063503154, 8360.312385596322, -2235.085038552885, 15788.758193106438, -16739.17671909055, 0.10565879821777344, 0.9779779968261719, 0.11681944274902344, 192.0, 1.5, 32.0, 15.0, 88.0, 1.5, 72.0, 0.0, 0.0, 0.0, 1.741985938129095E9, 0.0, 2025-03-14 15:58:58.129
228.0, 11781.336281458889, 19365.529044333583, -9098.99283635531, 2106.160176534674, 12655.043620472386, 5309.053398257899, 2411.082674393973, 16942.711704100573, 46464.44874578104, -3251.9553008026246, 22182.206473613558, 40163.93901871908, 8364.738030998473, -2241.768210145022, 15777.202341223043, -16746.84336743872, 0.10565879821777344, 0.9779779968261719, 0.11681944274902344, 192.0, 0.0, 0.0, 0.0, 0.0, 0.0, 0.0, 0.0, 0.0, 0.0, 1.74198593812935E9, 0.0, 2025-03-14 15:58:58.129
230.0, 11782.342109959378, 19370.200558924742, -9090.365062995561, 2110.675228914646, 12662.620861842735, 5318.262316973486, 2423.9572792002296, 16953.105265272294, 46460.02310037889, -3234.610347105306, 22168.549557751365, 40163.559039063344, 8373.723432269506, -2248.898416626265, 15763.07603872729, -16748.87737618415, 0.10565879821777344, 0.9779779968261719, 0.11681944274902344, 192.0, 0.0, 0.0, 0.0, 0.0, 0.0, 0.0, 0.0, 0.0, 0.0, 1.741985938186784E9, 0.0, 2025-03-14 15:58:58.186
232.0, 11792.690967642186, 19372.25691941463, -9071.880170331022, 2116.0396475839198, 12668.029984000921, 5320.251622230008, 2433.300308382548, 16960.34723047581, 46450.85888515221, -3234.297422682932, 22172.63992698669, 40153.768974991915, 8369.70011826755, -2238.0354688209854, 15785.651300627149, -16734.68401845503, 0.10565879821777344, 0.9779779968261719, 0.11681944274902344, 192.0, 0.0, 0.0, 0.0, 0.0, 0.0, 0.0, 0.0, 0.0, 0.0, 1.741985938187071E9, 0.0, 2025-03-14 15:58:58.187
234.0, 11786.857162339349, 19373.173340937297, -9085.760603637767, 2116.643144684213, 12665.303071177374, 5319.201090240609, 2425.6113082899224, 16959.96725082007, 46468.58381850527, -3238.0078122625127, 22182.72056373603, 40162.46380358503, 8358.770115228906, -2239.533035699491, 15782.566759892317, -16733.63348646563, 0.10565879821777344, 0.9779779968261719, 0.11681944274902344, 192.0, 0.0, 0.0, 0.0, 0.0, 0.0, 0.0, 0.0, 0.0, 0.0, 1.741985938187319E9, 0.0, 2025-03-14 15:58:58.187
236.0, 11780.106935513848, 19367.31718389001, -9086.297045504696, 2107.0318945684307, 12661.235053686507, 5317.457654173095, 2420.403351831836, 16957.73207637454, 46444.73450717146, -3237.717239584594, 22175.29978457687, 40146.16938187712, 8359.12774314019, -2245.29978576896, 15785.427783182597, -16737.45563476749, 0.10682939910888672, 0.978988998413086, 0.11440972137451172, 192.0, 1.5, 48.0, 15.0, 80.0, 1.5, 64.0, 0.0, 0.0, 0.0, 1.741985938187569E9, 0.0, 2025-03-14 15:58:58.187
238.0, 11784.152601260257, 19374.93912874927, -9109.811080671678, 2110.4964149590037, 12660.385687397205, 5324.38669495424, 2412.244965105649, 16965.64459391172, 46442.253463536916, -3245.674460610683, 22171.164711852638, 40159.96040820604, 8358.993632673459, -2247.311442769938, 15764.819474794804, -16740.69663771351, 0.10682939910888672, 0.978988998413086, 0.11440972137451172, 192.0, 0.0, 0.0, 0.0, 0.0, 0.0, 0.0, 0.0, 0.0, 0.0, 1.741985938187831E9, 0.0, 2025-03-14 15:58:58.187
240.0, 11788.108860028848, 19380.527064863094, -9070.494362174793, 2119.9735546080537, 12675.428411415627, 5318.284668717942, 2428.248814135649, 16961.911852587684, 46456.89385615514, -3223.6579923222057, 22167.700191462063, 40145.0741463988, 8367.531999055385, -2239.82360837741, 15779.54927439085, -16722.010579348873, 0.10682939910888672, 0.978988998413086, 0.11440972137451172, 192.0, 0.0, 0.0, 0.0, 0.0, 0.0, 0.0, 0.0, 0.0, 0.0, 1.741985938188079E9, 0.0, 2025-03-14 15:58:58.188
242.0, 11779.972825047116, 19378.40364913984, -9116.158976096985, 2111.837519626322, 12671.628614858224, 5313.09906400431, 2432.473293837702, 16963.588233421833, 46441.29233852534, -3235.25854769451, 22182.49704629148, 40176.16542293614, 8374.081060180792, -2250.083059082396, 15775.83888481127, -16717.4955269689, 0.10682939910888672, 0.978988998413086, 0.11440972137451172, 192.0, 0.0, 0.0, 0.0, 0.0, 0.0, 0.0, 0.0, 0.0, 0.0, 1.741985938188315E9, 0.0, 2025-03-14 15:58:58.188
244.0, 11791.19340076368, 19391.9264545353, -9068.88503657401, 2125.2038628105956, 12678.22237947254, 5322.755017609003, 2438.9552997297405, 16977.915701617683, 46432.821027376776, -3242.455809409119, 22153.14920582166, 40130.009070635926, 8387.045071964869, -2245.7915241469773, 15768.239291696465, -16709.180678031527, 0.10682939910888672, 0.978988998413086, 0.11440972137451172, 192.0, 0.0, 0.0, 0.0, 0.0, 0.0, 0.0, 0.0, 0.0, 0.0, 1.741985938188555E9, 0.0, 2025-03-14 15:58:58.188
246.0, 11795.999025821571, 19410.25488498865, -9065.219350483341, 2130.255357057495, 12671.338042180305, 5329.885224090245, 2444.6996980547547, 16981.089649330337, 46419.43233244805, -3220.975782987569, 22210.794354771897, 40184.2344026845, 8365.050955420847, -2234.5262449415022, 15801.297521745864, -16691.411041189556, 0.10141469955444336, 0.974494499206543, 0.11520486068725586, 192.0, 1.5, 0.0, 15.0, 40.0, 1.5, 80.0, 0.0, 0.0, 0.0, 1.741985938248461E9, 0.0, 2025-03-14 15:58:58.248
248.0, 11788.064156539936, 19411.528934422604, -9063.766487093746, 2127.483740745037, 12659.513969363448, 5316.496529161516, 2430.4169333478135, 16975.345251005325, 46396.63355310364, -3222.1827771881553, 22173.690458976085, 40138.18980910657, 8370.460077579031, -2237.7448961430664, 15794.167315264622, -16700.17292501604, 0.10141469955444336, 0.974494499206543, 0.11520486068725586, 192.0, 0.0, 0.0, 0.0, 0.0, 0.0, 0.0, 0.0, 0.0, 0.0, 1.741985938248748E9, 0.0, 2025-03-14 15:58:58.248
250.0, 11790.388737963289, 19420.1343560379, -9068.192132495897, 2128.8919006457213, 12658.21756818504, 5318.016447784477, 2433.590881060467, 16984.375355765267, 46392.99021875742, -3224.3285446558652, 22213.208343173068, 40183.72031256203, 8365.430935076587, -2237.566082187424, 15798.12357403321, -16703.07865179523, 0.10141469955444336, 0.974494499206543, 0.11520486068725586, 192.0, 0.0, 0.0, 0.0, 0.0, 0.0, 0.0, 0.0, 0.0, 0.0, 1.741985938248991E9, 0.0, 2025-03-14 15:58:58.248
252.0, 11783.52675241551, 19417.005111814156, -9075.36704246605, 2123.6839441876346, 12666.443010144594, 5314.239002971531, 2428.3158693690148, 16979.07799232936, 46371.21961965795, -3222.071018465879, 22170.605918241254, 40137.496905028456, 8371.711775268528, -2238.9518903436533, 15791.418050696619, -16707.437241964013, 0.10141469955444336, 0.974494499206543, 0.11520486068725586, 192.0, 0.0, 0.0, 0.0, 0.0, 0.0, 0.0, 0.0, 0.0, 0.0, 1.741985938249239E9, 0.0, 2025-03-14 15:58:58.249
254.0, 11787.751232117562, 19420.089652548988, -9073.534199420716, 2128.713086690079, 12653.41194312715, 5320.788064096936, 2432.6521077933444, 16984.576521465366, 46348.51024729136, -3224.9990969895243, 22200.244331388993, 40173.974951979515, 8375.84684799276, -2236.20262577565, 15796.089565287777, -16702.430451206023, 0.10141469955444336, 0.974494499206543, 0.11520486068725586, 192.0, 0.0, 0.0, 0.0, 0.0, 0.0, 0.0, 0.0, 0.0, 0.0, 1.741985938249492E9, 0.0, 2025-03-14 15:58:58.249
0.0, 11781.917426814727, 19410.768975111125, -9069.644995885492, 2124.2427377990175, 12652.69668730458, 5319.066979773877, 2429.7016775252437, 16980.016765596483, 46357.674462518036, -3226.429608634664, 22183.4358195586, 40147.622245266706, 8377.478525337998, -2245.3668410023265, 15793.764983864427, -16697.200143003483, 0.09570734977722167, 0.9762472496032715, 0.11760243034362793, 192.0, 1.0, 104.0, 15.0, 72.0, 1.5, 96.0, 0.0, 0.0, 0.0, 1.741985938249729E9, 0.0, 2025-03-14 15:58:58.249
2.0, 11791.171049019224, 19416.625132158417, -9067.141600506497, 2133.0940286033187, 12666.264196188951, 5323.023238542466, 2436.563663073023, 16989.024518611972, 46360.35667185267, -3223.2780126664657, 22217.410471130668, 40188.928269020114, 8361.675842008095, -2232.268718751516, 15803.08566130229, -16685.331366697716, 0.09570734977722167, 0.9762472496032715, 0.11760243034362793, 192.0, 0.0, 0.0, 0.0, 0.0, 0.0, 0.0, 0.0, 0.0, 0.0, 1.741985938249989E9, 0.0, 2025-03-14 15:58:58.249
4.0, 11789.606426907352, 19410.992492555677, -9058.960862035854, 2134.479836759548, 12669.12521947923, 5325.750151366014, 2439.2011689187493, 16987.772820922473, 46347.6385292576, -3226.004925490013, 22175.29978457687, 40149.4774400565, 8383.513496340931, -2233.319250740916, 15791.283940229887, -16685.17490448653, 0.09570734977722167, 0.9762472496032715, 0.11760243034362793, 192.0, 0.0, 0.0, 0.0, 0.0, 0.0, 0.0, 0.0, 0.0, 0.0, 1.741985938307238E9, 0.0, 2025-03-14 15:58:58.307
6.0, 11788.555894917954, 19402.45412617375, -9074.785897110212, 2128.310755289883, 12661.07859147532, 5316.630639628249, 2431.1321891703833, 16979.100344073813, 46338.67547973103, -3227.9495272576246, 22217.321064152846, 40187.92244051963, 8379.08785093878, -2240.5835676888905, 15796.044861798868, -16680.6375003621, 0.09570734977722167, 0.9762472496032715, 0.11760243034362793, 192.0, 0.0, 0.0, 0.0, 0.0, 0.0, 0.0, 0.0, 0.0, 0.0, 1.741985938307526E9, 0.0, 2025-03-14 15:58:58.307
8.0, 11790.008758307547, 19399.97308253921, -9071.097859275087, 2127.774313422956, 12667.98528051201, 5321.972706553067, 2449.5500266015565, 16982.207236553102, 46330.047706371275, -3233.7386290715494, 22174.696287476574, 40152.092594157766, 8370.571836301307, -2242.3270037564043, 15792.55798966384, -16678.469381149935, 0.09570734977722167, 0.9762472496032715, 0.11760243034362793, 192.0, 0.0, 0.0, 0.0, 0.0, 0.0, 0.0, 0.0, 0.0, 0.0, 1.741985938307764E9, 0.0, 2025-03-14 15:58:58.307
10.0, 11782.364461703834, 19391.814695813024, -9088.107536805575, 2125.3379732773274, 12656.183559439607, 5318.642296629227, 2437.882415995886, 16976.26167252799, 46312.81451139623, -3227.3236784128762, 22206.391061114202, 40180.00992298245, 8374.393984603164, -2244.182198546195, 15791.283940229887, -16685.688994608998, 0.09585367488861084, 0.9791236248016357, 0.11980121517181397, 192.0, 1.5, 0.0, 15.0, 88.0, 1.5, 104.0, 0.0, 0.0, 0.0, 1.741985938308001E9, 0.0, 2025-03-14 15:58:58.308
12.0, 11789.941703074182, 19400.64363487287, -9070.31554821915, 2130.769447179967, 12672.187408469606, 5322.598555397815, 2441.525750342101, 16981.13435281925, 46319.09535158818, -3225.3343731563536, 22169.28716531839, 40157.054681426845, 8375.064536936825, -2242.9081491122424, 15800.224638012009, -16685.331366697716, 0.09585367488861084, 0.9791236248016357, 0.11980121517181397, 192.0, 0.0, 0.0, 0.0, 0.0, 0.0, 0.0, 0.0, 0.0, 0.0, 1.741985938308253E9, 0.0, 2025-03-14 15:58:58.308
14.0, 11787.438307695187, 19398.78844008308, -9069.108554018565, 2130.411819268682, 12661.547978108882, 5315.557755894394, 2448.477142867702, 16978.854474884807, 46306.57837469321, -3233.492759882541, 22201.876008734227, 40177.46182411454, 8370.460077579031, -2243.377535745804, 15792.289768730376, -16702.38574771711, 0.09585367488861084, 0.9791236248016357, 0.11980121517181397, 192.0, 0.0, 0.0, 0.0, 0.0, 0.0, 0.0, 0.0, 0.0, 0.0, 1.741985938308485E9, 0.0, 2025-03-14 15:58:58.308
16.0, 11781.67155762572, 19396.419155170817, -9089.359234495072, 2115.927888861643, 12647.891062246688, 5315.28953496093, 2436.362497372925, 16976.440486483632, 46310.17700555051, -3232.4422278931415, 22177.847883444774, 40158.06050992734, 8379.3784236167, -2241.1647130447286, 15803.80091712486, -16698.764765115353, 0.09585367488861084, 0.9791236248016357, 0.11980121517181397, 192.0, 0.0, 0.0, 0.0, 0.0, 0.0, 0.0, 0.0, 0.0, 0.0, 1.741985938308719E9, 0.0, 2025-03-14 15:58:58.308
18.0, 11781.202170992157, 19399.011957527633, -9079.74798437929, 2120.0182580969645, 12654.238957671996, 5318.977572796056, 2436.496607839657, 16979.83795164084, 46301.48217695739, -3225.7367045565493, 22199.841999988796, 40166.01773095343, 8373.65637703614, -2238.7283728991, 15792.781507108391, -16709.381843731626, 0.09585367488861084, 0.9791236248016357, 0.11980121517181397, 192.0, 0.0, 0.0, 0.0, 0.0, 0.0, 0.0, 0.0, 0.0, 0.0, 1.741985938308958E9, 0.0, 2025-03-14 15:58:58.308
20.0, 11783.862028582338, 19402.476477918208, -9078.026900056231, 2123.9074616321877, 12653.568405338336, 5324.319639720874, 2444.587939332478, 16986.387012766245, 46298.107063544645, -3223.7921027889374, 22173.399886298168, 40154.46187907003, 8380.764231772928, -2240.829436877899, 15796.961283321534, -16706.654930908076, 0.08992683744430542, 0.9785618124008179, 0.12090060758590698, 192.0, 1.0, 80.0, 15.0, 72.0, 1.5, 104.0, 0.0, 0.0, 0.0, 1.741985938366225E9, 0.0, 2025-03-14 15:58:58.366
22.0, 11776.821229078918, 19394.809829570037, -9067.879208073522, 2124.3097930323834, 12654.708344305558, 5319.446959429617, 2437.748305529154, 16982.98954760904, 46289.702807629445, -3231.7269720705717, 22202.01011920096, 40169.2810856439, 8365.69915601005, -2239.2648147660275, 15801.811611868336, -16711.706425154975, 0.08992683744430542, 0.9785618124008179, 0.12090060758590698, 192.0, 0.0, 0.0, 0.0, 0.0, 0.0, 0.0, 0.0, 0.0, 0.0, 1.741985938366517E9, 0.0, 2025-03-14 15:58:58.366
24.0, 11771.322699942912, 19389.154838222843, -9090.99091184031, 2118.8559673852883, 12648.986297724998, 5319.379904196251, 2438.6423753073664, 16978.78741965144, 46280.762109847325, -3223.0768469663676, 22185.045145159384, 40167.35883562075, 8370.393022345665, -2240.6506229222564, 15793.005024552946, -16712.35462574418, 0.08992683744430542, 0.9785618124008179, 0.12090060758590698, 192.0, 0.0, 0.0, 0.0, 0.0, 0.0, 0.0, 0.0, 0.0, 0.0, 1.741985938366766E9, 0.0, 2025-03-14 15:58:58.366
26.0, 11765.377135917799, 19375.45321887174, -9081.17849602443, 2106.60721142378, 12643.890099989188, 5307.689941846125, 2428.271165880104, 16969.77966663595, 46274.63773186657, -3236.622004106284, 22186.900339949174, 40153.67956801409, 8352.735144225973, -2250.463038738136, 15790.50162917395, -16719.104852569682, 0.08992683744430542, 0.9785618124008179, 0.12090060758590698, 192.0, 0.0, 0.0, 0.0, 0.0, 0.0, 0.0, 0.0, 0.0, 0.0, 1.741985938367003E9, 0.0, 2025-03-14 15:58:58.367
28.0, 11772.864970310327, 19385.578559109996, -9102.725577679346, 2114.899708616699, 12647.354620379761, 5316.496529161516, 2433.568529316012, 16978.206274295604, 46272.15668823203, -3242.3440506868424, 22179.56896776783, 40154.61834128122, 8346.3201935673, -2251.44651549417, 15776.420030167108, -16724.6480851946, 0.08992683744430542, 0.9785618124008179, 0.12090060758590698, 192.0, 0.0, 0.0, 0.0, 0.0, 0.0, 0.0, 0.0, 0.0, 0.0, 1.741985938367249E9, 0.0, 2025-03-14 15:58:58.367
30.0, 11769.780429575496, 19386.0255939991, -9062.671251615435, 2126.5002639890035, 12658.709306563058, 5326.800683355414, 2445.6831748107884, 16985.001204610016, 46276.44822316745, -3220.037009720446, 22187.57089228283, 40150.70678600154, 8362.927539697594, -2232.380477473793, 15792.625044897206, -16706.699634396988, 0.08196341872215271, 0.978280906200409, 0.11845030379295349, 192.0, 1.0, 40.0, 15.0, 72.0, 1.5, 80.0, 0.0, 0.0, 0.0, 1.741985938367484E9, 0.0, 2025-03-14 15:58:58.367
32.0, 11767.321737685412, 19388.014899255624, -9089.672158917447, 2125.762656421978, 12651.489693103993, 5329.460540945594, 2450.175875446305, 16988.711594189597, 46260.980816004376, -3222.4062946327085, 22194.879912719716, 40170.77865252241, 8351.08111513628, -2232.380477473793, 15793.630873397695, -16707.12431754164, 0.08196341872215271, 0.978280906200409, 0.11845030379295349, 192.0, 0.0, 0.0, 0.0, 0.0, 0.0, 0.0, 0.0, 0.0, 0.0, 1.741985938367735E9, 0.0, 2025-03-14 15:58:58.367
34.0, 11778.743479102073, 19402.767050596125, -9055.608100367559, 2143.4652380305815, 12666.688879333602, 5344.503264964016, 2459.362442417436, 16998.03227162746, 46265.89819978455, -3209.866965993281, 22189.5378457949, 40152.49492555796, 8362.79342923086, -2225.451436692648, 15799.688196145082, -16702.96689307295, 0.08196341872215271, 0.978280906200409, 0.11845030379295349, 192.0, 0.0, 0.0, 0.0, 0.0, 0.0, 0.0, 0.0, 0.0, 0.0, 1.741985938426552E9, 0.0, 2025-03-14 15:58:58.426
36.0, 11780.464563425132, 19411.148954766864, -9066.783972595213, 2145.387488053738, 12663.514931620948, 5350.538235966949, 2467.096145998972, 17003.530800763467, 46271.77670857629, -3189.303361094399, 22220.360901398766, 40194.29268768939, 8356.512589038919, -2202.607953859324, 15818.03897834289, -16691.858076078664, 0.08196341872215271, 0.978280906200409, 0.11845030379295349, 192.0, 0.0, 0.0, 0.0, 0.0, 0.0, 0.0, 0.0, 0.0, 0.0, 1.741985938426838E9, 0.0, 2025-03-14 15:58:58.426
38.0, 11772.753211588051, 19408.26557973213, -9063.431210926916, 2145.990985154031, 12662.754972309467, 5345.218520786586, 2450.488799868679, 16996.713518704597, 46258.1197927141, -3190.3762448282537, 22196.712755765053, 40163.983722207995, 8354.925615182592, -2207.927669039687, 15811.914600362135, -16700.843477349696, 0.08196341872215271, 0.978280906200409, 0.11845030379295349, 192.0, 0.0, 0.0, 0.0, 0.0, 0.0, 0.0, 0.0, 0.0, 0.0, 1.741985938427069E9, 0.0, 2025-03-14 15:58:58.427
40.0, 11779.592845391375, 19424.247077017677, -9065.398164438982, 2156.317491092383, 12664.341946165794, 5363.882227406768, 2481.2895037280923, 17010.593952011342, 46250.833124021665, -3177.9933784000136, 22224.719491567554, 40210.9894407975, 8355.50676053843, -2198.1599567127178, 15813.970960852022, -16695.50141042488, 0.07398170936107636, 0.9761404531002045, 0.11422515189647675, 192.0, 1.0, 8.0, 15.0, 56.0, 1.5, 56.0, 0.0, 0.0, 0.0, 1.741985938427317E9, 0.0, 2025-03-14 15:58:58.427
42.0, 11786.432479194698, 19434.662989933848, -9046.913271774445, 2164.2970638629276, 12670.17575146863, 5371.571227499393, 2481.1553932613606, 17018.260600359514, 46257.896275269544, -3157.8768083902373, 22202.948892468085, 40180.34519914928, 8356.89256869466, -2179.3397878813494, 15824.185708068098, -16685.376070186623, 0.07398170936107636, 0.9761404531002045, 0.11422515189647675, 192.0, 0.0, 0.0, 0.0, 0.0, 0.0, 0.0, 0.0, 0.0, 0.0, 1.741985938427573E9, 0.0, 2025-03-14 15:58:58.427
44.0, 11772.507342399043, 19421.296646749575, -9084.46420245936, 2146.1474473652183, 12647.242861657485, 5353.287500534952, 2454.3780034039028, 16998.524010005476, 46248.06150770921, -3167.4210032726533, 22229.79333755891, 40214.25279548798, 8341.022830131393, -2189.6215903307907, 15811.534620706396, -16696.104907525172, 0.07398170936107636, 0.9761404531002045, 0.11422515189647675, 192.0, 0.0, 0.0, 0.0, 0.0, 0.0, 0.0, 0.0, 0.0, 0.0, 1.741985938427817E9, 0.0, 2025-03-14 15:58:58.427
46.0, 11791.483973441598, 19438.753359169168, -9046.868568285534, 2164.7440987520336, 12669.818123557345, 5377.226218846586, 2476.193305992282, 17014.103175890825, 46259.39384214805, -3153.495866476997, 22192.98001444102, 40169.97398972201, 8352.93630992607, -2178.222200658584, 15817.770757409426, -16686.87363706513, 0.07398170936107636, 0.9761404531002045, 0.11422515189647675, 192.0, 0.0, 0.0, 0.0, 0.0, 0.0, 0.0, 0.0, 0.0, 0.0, 1.74198593842806E9, 0.0, 2025-03-14 15:58:58.428
48.0, 11789.226447251613, 19436.696998679283, -9064.638205127503, 2156.3621945812934, 12662.12912346472, 5367.011471630511, 2470.4042041783578, 17010.683358989165, 46256.48811536886, -3160.5813694693293, 22239.918677797163, 40220.86891184675, 8348.264795334911, -2185.57592458438, 15816.720225420026, -16689.26527372185, 0.07398170936107636, 0.9761404531002045, 0.11422515189647675, 192.0, 0.0, 0.0, 0.0, 0.0, 0.0, 0.0, 0.0, 0.0, 0.0, 1.741985938428303E9, 0.0, 2025-03-14 15:58:58.428
50.0, 11791.32751123041, 19441.70378943727, -9053.082353244108, 2163.894732462732, 12674.199065470584, 5375.63924499026, 2487.0786055420167, 17018.774690481983, 46264.80296430623, -3143.4152297276532, 22202.233636645513, 40176.8806787587, 8357.250196605944, -2173.617741300791, 15820.922353377624, -16679.00582301686, 0.06899085468053817, 0.9740702265501022, 0.11411257594823837, 192.0, 1.0, 0.0, 15.0, 48.0, 1.5, 72.0, 0.0, 0.0, 0.0, 1.741985938486777E9, 0.0, 2025-03-14 15:58:58.486
52.0, 11782.655034381753, 19433.187774799797, -9067.633338884514, 2152.517694534981, 12665.526588621926, 5365.782125685469, 2472.1252885014164, 17013.723196235085, 46258.63388283657, -3154.3452327662985, 22234.911887039172, 40212.19643499809, 8347.817760445805, -2176.1434884242403, 15816.831984142304, -16685.197256230982, 0.06899085468053817, 0.9740702265501022, 0.11411257594823837, 192.0, 0.0, 0.0, 0.0, 0.0, 0.0, 0.0, 0.0, 0.0, 0.0, 1.74198593848708E9, 0.0, 2025-03-14 15:58:58.487
54.0, 11782.923255315216, 19430.729082909715, -9060.391373680994, 2155.6245870142684, 12668.477018890026, 5377.427384546684, 2474.1145937579386, 17017.45593755912, 46262.00899624932, -3155.820447900349, 22190.610729528755, 40170.10810018874, 8350.61172850272, -2179.250380903528, 15813.501574218462, -16681.352756184668, 0.06899085468053817, 0.9740702265501022, 0.11411257594823837, 192.0, 0.0, 0.0, 0.0, 0.0, 0.0, 0.0, 0.0, 0.0, 0.0, 1.741985938487325E9, 0.0, 2025-03-14 15:58:58.487
56.0, 11787.438307695187, 19436.674646934825, -9051.69654508788, 2164.0735464183745, 12682.424507430138, 5383.909390438723, 2477.333244959503, 17018.88644920426, 46264.959426517424, -3154.233474044022, 22237.25882020698, 40215.504493177476, 8348.331850568276, -2182.804308271922, 15812.361635251242, -16683.207950974458, 0.06899085468053817, 0.9740702265501022, 0.11411257594823837, 192.0, 0.0, 0.0, 0.0, 0.0, 0.0, 0.0, 0.0, 0.0, 0.0, 1.741985938487564E9, 0.0, 2025-03-14 15:58:58.487
58.0, 11787.61712165083, 19436.071149834534, -9058.491475402294, 2162.66538651769, 12673.550864881381, 5375.72865196808, 2474.9863117916957, 17018.79704222644, 46277.58816213467, -3148.846703630293, 22203.038299445903, 40184.54732710688, 8356.400830316643, -2165.6605202747014, 15812.69691141807, -16675.608357859655, 0.06899085468053817, 0.9740702265501022, 0.11411257594823837, 192.0, 0.0, 0.0, 0.0, 0.0, 0.0, 0.0, 0.0, 0.0, 0.0, 1.74198593848781E9, 0.0, 2025-03-14 15:58:58.487
60.0, 11788.66765364023, 19437.36755101294, -9049.863702042545, 2164.4535260741145, 12677.082440505319, 5375.348672312341, 2471.67825361231, 17010.95157992263, 46285.657141883035, -3150.567787953352, 22240.03043651944, 40212.82228384284, 8353.070420392802, -2173.9083139787094, 15813.143946307177, -16676.457724148957, 0.06649542734026909, 0.9710351132750511, 0.11105628797411918, 192.0, 1.0, 0.0, 15.0, 32.0, 1.5, 48.0, 0.0, 0.0, 0.0, 1.741985938488036E9, 0.0, 2025-03-14 15:58:58.488
62.0, 11799.463546212142, 19449.482196507717, -9047.047382241177, 2173.9083139787094, 12686.380766198727, 5381.249532848541, 2477.48970717069, 17018.774690481983, 46286.43945293897, -3142.05177331588, 22204.982901213516, 40186.29076317439, 8354.746801226951, -2169.505020321014, 15812.518097462429, -16674.7366398259, 0.06649542734026909, 0.9710351132750511, 0.11105628797411918, 192.0, 0.0, 0.0, 0.0, 0.0, 0.0, 0.0, 0.0, 0.0, 0.0, 1.741985938488285E9, 0.0, 2025-03-14 15:58:58.488
64.0, 11795.86491535484, 19445.347123783486, -9043.046419983677, 2174.087127934352, 12673.08147824782, 5375.080451378876, 2461.530561629601, 17005.385995553257, 46295.29074374327, -3143.9963750834913, 22250.49105292452, 40225.54042643791, 8355.08207739378, -2166.509886564003, 15820.184745810599, -16672.903796780563, 0.06649542734026909, 0.9710351132750511, 0.11105628797411918, 192.0, 0.0, 0.0, 0.0, 0.0, 0.0, 0.0, 0.0, 0.0, 0.0, 1.741985938548428E9, 0.0, 2025-03-14 15:58:58.548
66.0, 11810.505307973064, 19456.120664610942, -9044.208710695351, 2177.57400006938, 12669.147571223686, 5371.817096688402, 2468.973692533218, 17011.264504345003, 46301.83980486868, -3139.2801570034217, 22213.767136784452, 40203.09927500478, 8354.456228549032, -2162.151296395218, 15809.545315449872, -16682.380936429614, 0.06649542734026909, 0.9710351132750511, 0.11105628797411918, 192.0, 0.0, 0.0, 0.0, 0.0, 0.0, 0.0, 0.0, 0.0, 0.0, 1.74198593854873E9, 0.0, 2025-03-14 15:58:58.548
68.0, 11819.870688899839, 19461.775655958136, -9031.110588444542, 2181.6196658157905, 12667.806466556367, 5376.600370001837, 2457.7084133277435, 17009.07403338838, 46324.951508635466, -3130.4512179435756, 22252.614468647775, 40227.797952627894, 8363.329871097789, -2155.065793402886, 15816.60846669775, -16675.49659913738, 0.06649542734026909, 0.9710351132750511, 0.11105628797411918, 192.0, 0.0, 0.0, 0.0, 0.0, 0.0, 0.0, 0.0, 0.0, 0.0, 1.74198593854897E9, 0.0, 2025-03-14 15:58:58.548
70.0, 11821.480014500621, 19465.57545251554, -9044.49928337327, 2180.569133826391, 12671.36039392476, 5373.627587989282, 2470.717128600732, 17011.488021789555, 46338.02727914182, -3131.9040813331703, 22236.16358472867, 40226.121571793745, 8356.199664616546, -2158.306796348905, 15806.326664248309, -16678.804657316763, 0.06924771367013455, 0.9745175566375255, 0.1135281439870596, 192.0, 1.0, 32.0, 15.0, 72.0, 1.5, 80.0, 0.0, 0.0, 0.0, 1.741985938549217E9, 0.0, 2025-03-14 15:58:58.549
72.0, 11825.14570059129, 19464.837844948514, -9035.26801291323, 2179.540953581447, 12664.632518843713, 5366.452678019128, 2458.91540752833, 17004.93896066415, 46355.37223283914, -3124.840930085293, 22251.98861980303, 40228.088525305815, 8357.116086139213, -2158.575017282369, 15805.119670047721, -16676.54713112678, 0.06924771367013455, 0.9745175566375255, 0.1135281439870596, 192.0, 0.0, 0.0, 0.0, 0.0, 0.0, 0.0, 0.0, 0.0, 0.0, 1.741985938549478E9, 0.0, 2025-03-14 15:58:58.549
74.0, 11823.603430223875, 19462.8932431809, -9050.824827054123, 2173.707148278612, 12659.513969363448, 5364.06104136241, 2453.595692347967, 17002.88260017426, 46364.80466899928, -3129.33363072081, 22239.091663252315, 40225.54042643791, 8354.299766337845, -2160.8548952168103, 15794.41318445363, -16680.01165151735, 0.06924771367013455, 0.9745175566375255, 0.1135281439870596, 192.0, 0.0, 0.0, 0.0, 0.0, 0.0, 0.0, 0.0, 0.0, 0.0, 1.741985938549727E9, 0.0, 2025-03-14 15:58:58.549
76.0, 11824.028113368526, 19458.825225690034, -9038.441960625883, 2173.997720956531, 12665.526588621926, 5361.021204116489, 2454.042727237073, 16999.753355950517, 46370.236142901915, -3139.14604653669, 22243.517308654467, 40215.48214143302, 8348.175388357091, -2170.8684767327877, 15785.740707604971, -16684.280834708316, 0.06924771367013455, 0.9745175566375255, 0.1135281439870596, 192.0, 0.0, 0.0, 0.0, 0.0, 0.0, 0.0, 0.0, 0.0, 0.0, 1.741985938549967E9, 0.0, 2025-03-14 15:58:58.549
78.0, 11818.037845854504, 19453.773731443136, -9057.105667246064, 2171.606084299813, 12664.40900139916, 5364.753945440525, 2447.851294022953, 17002.904951918717, 46371.97957896943, -3142.5882151828073, 22238.935201041128, 40224.57930142633, 8349.717658724507, -2175.1376599237515, 15785.204265738043, -16685.376070186623, 0.06924771367013455, 0.9745175566375255, 0.1135281439870596, 192.0, 0.0, 0.0, 0.0, 0.0, 0.0, 0.0, 0.0, 0.0, 0.0, 1.741985938550201E9, 0.0, 2025-03-14 15:58:58.550
80.0, 11813.52279347453, 19447.738760440203, -9048.79081830869, 2168.5885987983465, 12665.213664199551, 5356.1038203363205, 2446.599596333456, 16995.864152415295, 46384.451852375496, -3149.293738519399, 22226.48527937952, 40198.27129820243, 8358.3230803398, -2177.1046134358185, 15779.482219157484, -16687.857113821163, 0.07562385683506728, 0.9782587783187627, 0.11576407199352981, 192.0, 1.0, 72.0, 15.0, 88.0, 1.5, 88.0, 0.0, 0.0, 0.0, 1.741985938607255E9, 0.0, 2025-03-14 15:58:58.607
82.0, 11811.622895195831, 19450.868004663946, -9056.502170145772, 2172.030767444464, 12671.427449158127, 5358.808381415413, 2456.680233082799, 17004.290760074946, 46386.1505849541, -3144.488113461508, 22242.086797009328, 40218.43257170112, 8342.565100498809, -2171.673139533179, 15790.993367551968, -16687.00774753186, 0.07562385683506728, 0.9782587783187627, 0.11576407199352981, 192.0, 0.0, 0.0, 0.0, 0.0, 0.0, 0.0, 0.0, 0.0, 0.0, 1.741985938607538E9, 0.0, 2025-03-14 15:58:58.607
84.0, 11803.263342769545, 19441.256754548165, -9053.417629410938, 2165.2358371300506, 12670.64513810219, 5352.192265056642, 2449.48297136819, 16991.59496922433, 46387.8493175327, -3139.0119360699578, 22220.472660121046, 40188.99532425348, 8341.827492931783, -2172.9471889671313, 15785.919521560612, -16691.72396561193, 0.07562385683506728, 0.9782587783187627, 0.11576407199352981, 192.0, 0.0, 0.0, 0.0, 0.0, 0.0, 0.0, 0.0, 0.0, 0.0, 1.741985938607775E9, 0.0, 2025-03-14 15:58:58.607
86.0, 11799.262380512046, 19438.194565557787, -9074.405917454473, 2156.697470748123, 12661.279757175418, 5347.587805698849, 2438.977651474196, 16985.40353601021, 46383.401320386096, -3156.5133519784636, 22230.15096547019, 40218.18670251211, 8332.59622247174, -2186.648808318235, 15782.812629081325, -16703.659797151067, 0.07562385683506728, 0.9782587783187627, 0.11576407199352981, 192.0, 0.0, 0.0, 0.0, 0.0, 0.0, 0.0, 0.0, 0.0, 0.0, 1.741985938608022E9, 0.0, 2025-03-14 15:58:58.608
88.0, 11811.086453328902, 19449.057513363066, -9042.420571138928, 2168.85681973181, 12679.764649839957, 5357.9813668705665, 2456.8143435495313, 16997.31701580489, 46397.169994970565, -3151.461857731564, 22205.429936102624, 40179.94286774908, 8341.380458042677, -2177.641055302746, 15792.066251285822, -16696.328424969724, 0.07562385683506728, 0.9782587783187627, 0.11576407199352981, 192.0, 0.0, 0.0, 0.0, 0.0, 0.0, 0.0, 0.0, 0.0, 0.0, 1.741985938608277E9, 0.0, 2025-03-14 15:58:58.608
90.0, 11791.752194375062, 19429.544440453585, -9093.404900241483, 2143.062906630386, 12651.9367279931, 5339.988212584044, 2430.305174625537, 16979.815599896385, 46380.18266918453, -3164.5376282379184, 22231.268552692956, 40215.52684492193, 8336.50777775142, -2189.308665908416, 15784.041975026366, -16706.632579163623, 0.08081192841753365, 0.9821293891593814, 0.1198820359967649, 192.0, 1.0, 88.0, 15.0, 104.0, 1.5, 112.0, 0.0, 0.0, 0.0, 1.74198593860851E9, 0.0, 2025-03-14 15:58:58.608
92.0, 11804.626799181318, 19439.04393184709, -9045.750981062769, 2153.9035026912097, 12671.427449158127, 5345.553796953416, 2446.6666515668217, 16988.68924244514, 46402.10973049518, -3170.393785285209, 22189.96252893955, 40162.441451840576, 8328.88583289216, -2192.6614275767124, 15783.75140234845, -16712.242867021905, 0.08081192841753365, 0.9821293891593814, 0.1198820359967649, 192.0, 0.0, 0.0, 0.0, 0.0, 0.0, 0.0, 0.0, 0.0, 0.0, 1.74198593860877E9, 0.0, 2025-03-14 15:58:58.608
94.0, 11796.177839777212, 19432.249001532677, -9070.65082438598, 2147.6226624992687, 12663.961966510054, 5344.324451008374, 2448.3430324009696, 16993.51721924749, 46400.790977572324, -3169.9914538850135, 22232.87787829374, 40206.42968492862, 8323.40965550061, -2192.7284828100783, 15790.03224254039, -16710.432375721022, 0.08081192841753365, 0.9821293891593814, 0.1198820359967649, 192.0, 0.0, 0.0, 0.0, 0.0, 0.0, 0.0, 0.0, 0.0, 0.0, 1.741985938668205E9, 0.0, 2025-03-14 15:58:58.668
96.0, 11796.155488032759, 19432.763091655146, -9069.332071463117, 2142.6605752301903, 12675.093135248797, 5344.458561475106, 2446.599596333456, 16992.93607389165, 46411.4527596775, -3175.5123347654744, 22187.280319604914, 40156.071204670814, 8331.545690482342, -2196.461224134114, 15787.014757038924, -16709.337140242715, 0.08081192841753365, 0.9821293891593814, 0.1198820359967649, 192.0, 0.0, 0.0, 0.0, 0.0, 0.0, 0.0, 0.0, 0.0, 0.0, 1.74198593866851E9, 0.0, 2025-03-14 15:58:58.668
98.0, 11790.589903663385, 19431.734911410203, -9104.51371723577, 2139.1066478617963, 12645.141797678685, 5343.430381230161, 2437.8377125069755, 16989.73977443454, 46396.16416647007, -3173.053642875391, 22214.236523418014, 40196.37139992373, 8339.949946397537, -2196.707093323123, 15780.398640680152, -16717.674340924543, 0.08081192841753365, 0.9821293891593814, 0.1198820359967649, 192.0, 0.0, 0.0, 0.0, 0.0, 0.0, 0.0, 0.0, 0.0, 0.0, 1.741985938668757E9, 0.0, 2025-03-14 15:58:58.668
100.0, 11805.364406748344, 19444.676571449825, -9076.104650033076, 2153.9705579245756, 12648.65102155817, 5356.461448247605, 2431.8027415040424, 16991.304396546413, 46416.34779171322, -3164.8058491713823, 22180.15011312367, 40162.62026579622, 8347.393077301154, -2184.368930383793, 15773.961338277024, -16709.270085009346, 0.08440596420876682, 0.9800646945796907, 0.12094101799838244, 192.0, 1.0, 96.0, 15.0, 72.0, 1.5, 104.0, 0.0, 0.0, 0.0, 1.741985938669007E9, 0.0, 2025-03-14 15:58:58.669
102.0, 11808.3371887609, 19449.906879652368, -9065.80049583918, 2160.340805094338, 12653.478998360515, 5357.556683725916, 2424.627831533889, 16991.349100035324, 46421.7569138714, -3156.5133519784636, 22241.25978246448, 40219.61721415725, 8316.07828331927, -2172.969540711587, 15788.802896595347, -16696.30607322527, 0.08440596420876682, 0.9800646945796907, 0.12094101799838244, 192.0, 0.0, 0.0, 0.0, 0.0, 0.0, 0.0, 0.0, 0.0, 0.0, 1.741985938669271E9, 0.0, 2025-03-14 15:58:58.669
104.0, 11786.991272806083, 19428.1362805529, -9085.380623982028, 2147.6226624992687, 12642.481940088504, 5348.079544076865, 2430.305174625537, 16984.531817976454, 46417.7559516139, -3170.0585091183793, 22184.441648059088, 40168.14114667668, 8344.710867966518, -2189.4427763751482, 15766.808780051326, -16708.867753609153, 0.08440596420876682, 0.9800646945796907, 0.12094101799838244, 192.0, 0.0, 0.0, 0.0, 0.0, 0.0, 0.0, 0.0, 0.0, 0.0, 1.741985938669499E9, 0.0, 2025-03-14 15:58:58.669
106.0, 11781.224522736613, 19424.738815395693, -9085.335920493117, 2154.9093311916986, 12654.820103027834, 5355.835599402857, 2449.10299171245, 16994.344233792333, 46398.8016723158, -3172.450145775097, 22215.91290425216, 40204.306269205365, 8338.45237951903, -2187.5875815853574, 15779.884550557681, -16705.403233218578, 0.08440596420876682, 0.9800646945796907, 0.12094101799838244, 192.0, 0.0, 0.0, 0.0, 0.0, 0.0, 0.0, 0.0, 0.0, 0.0, 1.741985938669729E9, 0.0, 2025-03-14 15:58:58.669
108.0, 11782.655034381753, 19424.89527760688, -9088.532219950226, 2147.8461799438214, 12655.535358850404, 5350.024145844477, 2443.7609247876317, 16992.69020470264, 46404.45666366299, -3182.463727291075, 22171.00824964145, 40162.84378324077, 8340.799312686839, -2200.9762765140863, 15779.884550557681, -16704.911494840562, 0.08440596420876682, 0.9800646945796907, 0.12094101799838244, 192.0, 0.0, 0.0, 0.0, 0.0, 0.0, 0.0, 0.0, 0.0, 0.0, 1.74198593866997E9, 0.0, 2025-03-14 15:58:58.669
110.0, 11788.645301895775, 19429.633847431403, -9082.787821625212, 2156.1610288811958, 12657.256443173463, 5356.349689525329, 2442.91155849833, 16999.4627832726, 46415.76664635738, -3168.851514917793, 22214.147116440192, 40199.65710635866, 8343.637984232662, -2183.2513431610278, 15786.925350061101, -16702.318692483746, 0.0862029821043834, 0.9780323472898453, 0.12047050899919122, 192.0, 1.0, 96.0, 15.0, 64.0, 1.5, 96.0, 0.0, 0.0, 0.0, 1.741985938727845E9, 0.0, 2025-03-14 15:58:58.727
112.0, 11786.633644894797, 19427.242210774686, -9126.23961284633, 2146.0356886429418, 12642.794864510879, 5352.1699133121865, 2430.819264748009, 16991.03617561295, 46412.14566375562, -3170.4161370296642, 22163.498063504467, 40159.491021572474, 8360.781772229884, -2189.867459519799, 15775.525960388895, -16706.36435823016, 0.0862029821043834, 0.9780323472898453, 0.12047050899919122, 192.0, 0.0, 0.0, 0.0, 0.0, 0.0, 0.0, 0.0, 0.0, 0.0, 1.741985938728153E9, 0.0, 2025-03-14 15:58:58.728
114.0, 11796.423708966222, 19435.869984134435, -9069.935568563411, 2154.484648047048, 12652.763742537945, 5350.672346433681, 2429.1652356583163, 16999.239265828048, 46413.50912016739, -3170.751413196494, 22214.750613540487, 40186.26841142993, 8351.729315725484, -2191.9461717541426, 15779.996309279957, -16704.86679135165, 0.0862029821043834, 0.9780323472898453, 0.12047050899919122, 192.0, 0.0, 0.0, 0.0, 0.0, 0.0, 0.0, 0.0, 0.0, 0.0, 1.741985938728395E9, 0.0, 2025-03-14 15:58:58.728
116.0, 11804.38092999231, 19442.93313538231, -9081.871400102544, 2161.1678196391845, 12658.463437374048, 5361.378832027774, 2443.8056282765424, 17003.396690296733, 46423.723867383465, -3166.7951544279044, 22198.813819743853, 40176.32188514732, 8356.333775083278, -2190.0462734754415, 15783.997271537457, -16701.938712828007, 0.0862029821043834, 0.9780323472898453, 0.12047050899919122, 192.0, 0.0, 0.0, 0.0, 0.0, 0.0, 0.0, 0.0, 0.0, 0.0, 1.741985938728639E9, 0.0, 2025-03-14 15:58:58.728
118.0, 11799.95528459016, 19441.055588848067, -9078.093955289598, 2161.1231161502737, 12648.315745391339, 5356.908483136712, 2440.00583171914, 17002.88260017426, 46412.704457367, -3172.718366708561, 22214.460040862567, 40187.274239930426, 8358.680708251084, -2182.9384187386536, 15784.153733748644, -16702.810430861766, 0.0862029821043834, 0.9780323472898453, 0.12047050899919122, 192.0, 0.0, 0.0, 0.0, 0.0, 0.0, 0.0, 0.0, 0.0, 0.0, 1.741985938728897E9, 0.0, 2025-03-14 15:58:58.728
120.0, 11790.880476341305, 19438.127510324422, -9094.969522353354, 2153.411764313193, 12657.032925728909, 5354.58390171336, 2449.9300062572966, 17002.592027496343, 46408.681143365044, -3158.010918856969, 22204.87114249124, 40184.77084455143, 8359.060687906825, -2180.3009128929275, 15788.691137873071, -16694.272064479836, 0.0831014910521917, 0.9790161736449227, 0.11923525449959561, 192.0, 1.0, 64.0, 15.0, 80.0, 1.5, 88.0, 0.0, 0.0, 0.0, 1.741985938729139E9, 0.0, 2025-03-14 15:58:58.729
122.0, 11791.595732163874, 19438.731007424714, -9087.906371105477, 2153.747040480023, 12645.991163967987, 5352.728706923569, 2429.1652356583163, 16988.823352911873, 46389.45864313348, -3168.4044800286865, 22205.608750058265, 40179.13820494869, 8356.780809972382, -2187.632285074268, 15769.222768452499, -16707.77251813084, 0.0831014910521917, 0.9790161736449227, 0.11923525449959561, 192.0, 0.0, 0.0, 0.0, 0.0, 0.0, 0.0, 0.0, 0.0, 0.0, 1.741985938729395E9, 0.0, 2025-03-14 15:58:58.729
124.0, 11791.416918208233, 19437.769882413137, -9103.999627113299, 2154.0152614134863, 12645.901756990166, 5353.555721468416, 2414.323677339992, 16992.93607389165, 46393.5490123688, -3156.6698141896504, 22191.92948245162, 40181.95452475006, 8345.739048211462, -2185.2406484175503, 15772.93315803208, -16704.844439607197, 0.0831014910521917, 0.9790161736449227, 0.11923525449959561, 192.0, 0.0, 0.0, 0.0, 0.0, 0.0, 0.0, 0.0, 0.0, 0.0, 1.741985938788127E9, 0.0, 2025-03-14 15:58:58.788
126.0, 11789.852296096362, 19432.65133293287, -9097.294103776707, 2149.0308223999527, 12652.02613497092, 5349.063020832899, 2433.0544391935396, 16984.285948787445, 46388.206945443984, -3162.81654391486, 22197.763287754453, 40180.99339973848, 8358.434839062076, -2188.0793199633745, 15765.937062017569, -16718.68016942503, 0.0831014910521917, 0.9790161736449227, 0.11923525449959561, 192.0, 0.0, 0.0, 0.0, 0.0, 0.0, 0.0, 0.0, 0.0, 0.0, 1.741985938788411E9, 0.0, 2025-03-14 15:58:58.788
128.0, 11788.421784451222, 19428.493908464185, -9112.493290006316, 2146.28155783195, 12646.728771535012, 5349.15242781072, 2430.4169333478135, 16989.046870356426, 46373.387738870115, -3165.878732905237, 22183.122895136225, 40176.8806787587, 8368.671938022606, -2182.9831222275643, 15775.257739455432, -16718.27783802484, 0.0831014910521917, 0.9790161736449227, 0.11923525449959561, 192.0, 0.0, 0.0, 0.0, 0.0, 0.0, 0.0, 0.0, 0.0, 0.0, 1.741985938788644E9, 0.0, 2025-03-14 15:58:58.788
130.0, 11798.792993878484, 19437.814585902048, -9072.304853475673, 2157.8374097153437, 12655.244786172485, 5343.810360885902, 2435.9825177171847, 16991.6620244577, 46362.345977109195, -3168.8962184067036, 22192.86825571874, 40173.25969615694, 8360.446496063054, -2191.1638606982065, 15782.365594192219, -16714.36628274516, 0.07955074552609584, 0.9775080868224613, 0.11561762724979781, 192.0, 1.0, 48.0, 15.0, 64.0, 1.5, 64.0, 0.0, 0.0, 0.0, 1.741985938788887E9, 0.0, 2025-03-14 15:58:58.788
132.0, 11794.702624643163, 19436.65229519037, -9105.98893236982, 2150.2378166005396, 12646.840530257288, 5354.673308691181, 2434.7308200276875, 16993.137239591746, 46352.064174659754, -3151.5065612204744, 22205.07230819134, 40186.78250155241, 8364.872141465205, -2180.211505915106, 15784.064326770822, -16710.521782698845, 0.07955074552609584, 0.9775080868224613, 0.11561762724979781, 192.0, 0.0, 0.0, 0.0, 0.0, 0.0, 0.0, 0.0, 0.0, 0.0, 1.741985938789148E9, 0.0, 2025-03-14 15:58:58.789
134.0, 11793.3838717203, 19431.60080094347, -9089.806269384178, 2151.3554038233046, 12650.59562332578, 5349.018317343988, 2431.24394789266, 16993.114887847292, 46349.27020660284, -3167.488058506019, 22188.86729346124, 40159.66983552812, 8363.911016453627, -2188.347540896838, 15778.163466234622, -16714.50039321189, 0.07955074552609584, 0.9775080868224613, 0.11561762724979781, 192.0, 0.0, 0.0, 0.0, 0.0, 0.0, 0.0, 0.0, 0.0, 0.0, 1.741985938789395E9, 0.0, 2025-03-14 15:58:58.789
136.0, 11789.606426907352, 19425.94580959628, -9123.512700022782, 2142.392354296727, 12640.559690065347, 5338.356535238807, 2422.52676755509, 16989.091573845337, 46326.04674411377, -3174.6406167317173, 22191.86242721825, 40178.89233575968, 8360.804123974338, -2194.2931049219496, 15761.332602659775, -16721.92117237105, 0.07955074552609584, 0.9775080868224613, 0.11561762724979781, 192.0, 0.0, 0.0, 0.0, 0.0, 0.0, 0.0, 0.0, 0.0, 0.0, 1.741985938789633E9, 0.0, 2025-03-14 15:58:58.789
138.0, 11802.52573520252, 19436.7864056571, -9076.976368066833, 2157.0998021483188, 12656.652946073169, 5352.259320290008, 2438.7094305407322, 16999.08280361686, 46338.04963088628, -3157.2509595454885, 22189.314328350345, 40158.39578609417, 8357.093734394757, -2184.4583373616147, 15776.040050511367, -16707.839573364206, 0.07955074552609584, 0.9775080868224613, 0.11561762724979781, 192.0, 0.0, 0.0, 0.0, 0.0, 0.0, 0.0, 0.0, 0.0, 0.0, 1.741985938789877E9, 0.0, 2025-03-14 15:58:58.789
140.0, 11798.569476433931, 19433.99243760019, -9106.078339347641, 2149.768429966978, 12650.752085536968, 5349.554759210916, 2432.9873839601737, 16994.143068092235, 46321.77756092281, -3161.9001223921923, 22215.220000174046, 40192.90687953316, 8355.618519260708, -2193.6672560772013, 15773.246082454454, -16713.002826333384, 0.07877537276304791, 0.9767540434112306, 0.1128088136248989, 192.0, 1.0, 56.0, 15.0, 64.0, 1.5, 56.0, 0.0, 0.0, 0.0, 1.74198593884713E9, 0.0, 2025-03-14 15:58:58.847
142.0, 11800.469374712631, 19436.74170216819, -9085.157106537474, 2157.8374097153437, 12664.185483954607, 5351.521712722983, 2433.0544391935396, 16998.769879194486, 46316.81547365373, -3167.5104102504743, 22185.000441670472, 40150.57267553481, 8365.855618221238, -2187.028787973975, 15777.537617389873, -16703.145707028594, 0.07877537276304791, 0.9767540434112306, 0.1128088136248989, 192.0, 0.0, 0.0, 0.0, 0.0, 0.0, 0.0, 0.0, 0.0, 0.0, 1.741985938847433E9, 0.0, 2025-03-14 15:58:58.847
144.0, 11794.367348476333, 19437.456957990762, -9094.433080486428, 2153.747040480023, 12656.652946073169, 5348.77244815498, 2432.875625237897, 17000.423908284178, 46309.39469449457, -3160.3131485358654, 22220.517363609953, 40193.979763267016, 8369.297786867355, -2190.1133287088073, 15771.614405109216, -16706.78904137481, 0.07877537276304791, 0.9767540434112306, 0.1128088136248989, 192.0, 0.0, 0.0, 0.0, 0.0, 0.0, 0.0, 0.0, 0.0, 0.0, 1.741985938847683E9, 0.0, 2025-03-14 15:58:58.847
146.0, 11791.931008330705, 19435.624114945425, -9081.245551257796, 2151.198941612118, 12654.17190243863, 5339.205901528108, 2418.8387297199642, 16997.5628849939, 46286.774729105804, -3164.783497426927, 22186.073325404326, 40157.412309338135, 8355.171484371602, -2192.5273171099802, 15769.446285897051, -16696.663701136553, 0.07877537276304791, 0.9767540434112306, 0.1128088136248989, 192.0, 0.0, 0.0, 0.0, 0.0, 0.0, 0.0, 0.0, 0.0, 0.0, 1.741985938847922E9, 0.0, 2025-03-14 15:58:58.847
148.0, 11792.623912408819, 19443.335466782508, -9084.41949897045, 2152.47299104607, 12667.471190389537, 5344.078581819365, 2426.2818606235815, 17003.08376587436, 46285.657141883035, -3164.6717387046506, 22227.66992183565, 40197.77955982442, 8363.84396122026, -2198.0705497348968, 15771.636756853672, -16690.06993652224, 0.07877537276304791, 0.9767540434112306, 0.1128088136248989, 192.0, 0.0, 0.0, 0.0, 0.0, 0.0, 0.0, 0.0, 0.0, 0.0, 1.741985938848165E9, 0.0, 2025-03-14 15:58:58.848
150.0, 11785.985444305594, 19440.675609192327, -9093.22608628584, 2139.0395926284305, 12666.241844444496, 5337.887148605246, 2417.9893634306627, 16996.400594282222, 46275.71061560042, -3167.5998172282957, 22183.39111606969, 40151.5785040353, 8370.70594676804, -2190.917991509198, 15764.350088161242, -16686.605416131668, 0.08238768638152397, 0.9763770217056154, 0.10940440681244945, 192.0, 1.0, 88.0, 15.0, 64.0, 1.5, 40.0, 0.0, 0.0, 0.0, 1.741985938848395E9, 0.0, 2025-03-14 15:58:58.848
152.0, 11788.220618751124, 19455.070132621542, -9089.873324617545, 2151.7577352235003, 12663.31376592085, 5342.804532385413, 2444.9902707326737, 16999.060451872403, 46254.36469964561, -3175.422927787653, 22216.806974030373, 40186.558984107854, 8373.254045635944, -2199.1434334687515, 15767.50168412944, -16684.482000408414, 0.08238768638152397, 0.9763770217056154, 0.10940440681244945, 192.0, 0.0, 0.0, 0.0, 0.0, 0.0, 0.0, 0.0, 0.0, 0.0, 1.741985938848631E9, 0.0, 2025-03-14 15:58:58.848
154.0, 11796.803688621962, 19464.457865292774, -9081.111440791065, 2158.2620928599945, 12662.263233931451, 5339.094142805832, 2431.3110031260258, 17003.08376587436, 46267.284007940776, -3157.429773501131, 22184.262834103447, 40156.428832582096, 8376.472696837509, -2190.0686252198966, 15775.794181322359, -16673.037907247293, 0.08238768638152397, 0.9763770217056154, 0.10940440681244945, 192.0, 0.0, 0.0, 0.0, 0.0, 0.0, 0.0, 0.0, 0.0, 0.0, 1.74198593890928E9, 0.0, 2025-03-14 15:58:58.909
156.0, 11803.106880558358, 19474.493798553205, -9074.785897110212, 2165.481706319059, 12664.587815354804, 5351.789933656447, 2432.875625237897, 17014.259638102012, 46272.804888821236, -3154.0323083439243, 22236.834137062327, 40199.634754614206, 8374.125763669701, -2179.6527123037235, 15780.26453021342, -16668.433447889503, 0.08238768638152397, 0.9763770217056154, 0.10940440681244945, 192.0, 0.0, 0.0, 0.0, 0.0, 0.0, 0.0, 0.0, 0.0, 0.0, 1.741985938909598E9, 0.0, 2025-03-14 15:58:58.909
158.0, 11795.775508377017, 19471.588071774015, -9079.949150079388, 2158.6867760046457, 12656.183559439607, 5346.9619568541, 2426.818302490509, 17006.83885894285, 46262.41132764952, -3153.786439154916, 22188.733182994507, 40163.60374255225, 8362.234635619478, -2185.933552495665, 15772.061439998322, -16672.81438980274, 0.08238768638152397, 0.9763770217056154, 0.10940440681244945, 192.0, 0.0, 0.0, 0.0, 0.0, 0.0, 0.0, 0.0, 0.0, 0.0, 1.741985938909842E9, 0.0, 2025-03-14 15:58:58.909
160.0, 11796.177839777212, 19470.984574673723, -9075.992891310798, 2163.3359388513495, 12667.493542133992, 5354.114515079798, 2435.334317127981, 17011.912704934206, 46263.64067359456, -3151.7747821539383, 22230.039206747915, 40198.584222624806, 8356.601996016741, -2177.5292965804692, 15780.689213358071, -16664.67835482101, 0.08419384319076198, 0.9741885108528077, 0.11070220340622472, 192.0, 1.0, 88.0, 15.0, 48.0, 1.5, 64.0, 0.0, 0.0, 0.0, 1.741985938910099E9, 0.0, 2025-03-14 15:58:58.910
162.0, 11798.390662478289, 19473.353859585986, -9083.03369081422, 2168.0745086758743, 12671.516856135948, 5363.479896006572, 2445.7502300441543, 17018.953504437628, 46265.16059221752, -3155.7310409225274, 22186.274491104425, 40164.20723965255, 8378.529057327398, -2181.798479771433, 15782.902036059146, -16656.095284950174, 0.08419384319076198, 0.9741885108528077, 0.11070220340622472, 192.0, 0.0, 0.0, 0.0, 0.0, 0.0, 0.0, 0.0, 0.0, 0.0, 1.741985938910354E9, 0.0, 2025-03-14 15:58:58.910
164.0, 11789.964054818638, 19462.08858038051, -9092.309664763174, 2158.798534726922, 12661.905606020166, 5345.82201788688, 2422.9290989552856, 17008.179963610168, 46261.65136833803, -3155.2840060334215, 22225.01006424547, 40186.201356196565, 8377.478525337998, -2180.7255960375783, 15784.444306426563, -16656.81054077274, 0.08419384319076198, 0.9741885108528077, 0.11070220340622472, 192.0, 0.0, 0.0, 0.0, 0.0, 0.0, 0.0, 0.0, 0.0, 0.0, 1.741985938910605E9, 0.0, 2025-03-14 15:58:58.910
166.0, 11796.37900547731, 19470.068153151056, -9069.309719718662, 2167.091031919841, 12673.103829992275, 5349.53240746646, 2435.0884479389724, 17012.449146801133, 46246.58629257516, -3163.7329654375276, 22186.073325404326, 40157.36760584922, 8348.801237201838, -2187.4311193741705, 15773.849579554748, -16664.20896818745, 0.08419384319076198, 0.9741885108528077, 0.11070220340622472, 192.0, 0.0, 0.0, 0.0, 0.0, 0.0, 0.0, 0.0, 0.0, 0.0, 1.741985938910835E9, 0.0, 2025-03-14 15:58:58.910
168.0, 11792.66861589773, 19464.301403081587, -9068.706222618368, 2163.38064234026, 12665.660699088658, 5353.5780732128715, 2434.820227005509, 17008.582295010365, 46258.85740028112, -3151.3500990092875, 22222.283151421925, 40182.1333387057, 8362.212283875024, -2179.183325670162, 15789.898132073658, -16654.86593900513, 0.08419384319076198, 0.9741885108528077, 0.11070220340622472, 192.0, 0.0, 0.0, 0.0, 0.0, 0.0, 0.0, 0.0, 0.0, 0.0, 1.741985938911078E9, 0.0, 2025-03-14 15:58:58.911
170.0, 11780.218694236124, 19446.487062750704, -9086.967597838355, 2151.6236247567685, 12664.006669998966, 5347.274881276475, 2433.81439850502, 17004.536629263956, 46249.24615016534, -3162.302453792388, 22189.314328350345, 40169.68341704409, 8352.46692329251, -2186.8276222738773, 15777.26939645641, -16666.15356995506, 0.08609692159538099, 0.9730942554264038, 0.11035110170311235, 192.0, 1.0, 96.0, 15.0, 48.0, 1.5, 56.0, 0.0, 0.0, 0.0, 1.741985938968062E9, 0.0, 2025-03-14 15:58:58.968
172.0, 11787.661825139741, 19448.968106385244, -9075.389394210506, 2152.6518050017125, 12666.063030488853, 5346.649032431726, 2433.9038054828416, 17004.715443219597, 46240.19369366094, -3175.1100033652788, 22202.479505834523, 40160.13922216168, 8365.453286821043, -2195.9694857560976, 15774.430724910586, -16675.407192159557, 0.08609692159538099, 0.9730942554264038, 0.11035110170311235, 192.0, 0.0, 0.0, 0.0, 0.0, 0.0, 0.0, 0.0, 0.0, 0.0, 1.741985938968336E9, 0.0, 2025-03-14 15:58:58.968
174.0, 11768.484028397088, 19426.728120652213, -9112.158013839486, 2130.0765431018526, 12647.734600035501, 5323.827901342857, 2404.3100958240148, 16985.06825984338, 46248.82146702069, -3181.882581935237, 22188.308499849856, 40156.16061164864, 8356.780809972382, -2199.2104887021173, 15761.936099760069, -16687.477134165423, 0.08609692159538099, 0.9730942554264038, 0.11035110170311235, 192.0, 0.0, 0.0, 0.0, 0.0, 0.0, 0.0, 0.0, 0.0, 0.0, 1.74198593896857E9, 0.0, 2025-03-14 15:58:58.968
176.0, 11767.791124318974, 19421.98955082769, -9086.721728649347, 2132.959918136587, 12653.233129171507, 5325.750151366014, 2420.0680756650063, 16991.527913990965, 46245.446353607935, -3192.320846595865, 22188.26379636095, 40143.04013765337, 8351.014059902915, -2212.5768318863907, 15759.58916659226, -16698.608302904166, 0.08609692159538099, 0.9730942554264038, 0.11035110170311235, 192.0, 0.0, 0.0, 0.0, 0.0, 0.0, 0.0, 0.0, 0.0, 0.0, 1.741985938968824E9, 0.0, 2025-03-14 15:58:58.968
178.0, 11769.75807783104, 19424.314132251042, -9105.430138758438, 2130.545929735414, 12652.964908238044, 5331.628660157759, 2415.396561073847, 16991.907893646705, 46244.82050476319, -3193.4160820741754, 22181.021831157428, 40143.3754138202, 8360.446496063054, -2211.9733347860974, 15756.1693496906, -16698.72006162644, 0.08609692159538099, 0.9730942554264038, 0.11035110170311235, 192.0, 0.0, 0.0, 0.0, 0.0, 0.0, 0.0, 0.0, 0.0, 0.0, 1.741985938969076E9, 0.0, 2025-03-14 15:58:58.969
180.0, 11763.700755083652, 19415.082861791, -9089.113365306064, 2132.1105518472855, 12652.763742537945, 5320.497491419017, 2414.614250017911, 16982.564864464388, 46244.753449529824, -3192.4773088070524, 22184.329889336812, 40133.920625915605, 8344.487350521964, -2213.6497156202454, 15760.013849736912, -16699.815297104753, 0.08704846079769049, 0.971547127713202, 0.11217555085155617, 192.0, 1.0, 96.0, 15.0, 40.0, 1.5, 72.0, 0.0, 0.0, 0.0, 1.741985938969311E9, 0.0, 2025-03-14 15:58:58.969
182.0, 11767.366441174323, 19421.028425816112, -9103.776109668745, 2135.8209414268663, 12647.9357657356, 5329.549947923416, 2411.9096889388193, 16991.59496922433, 46237.980870959866, -3199.115776910279, 22189.157866139158, 40150.5279720459, 8338.832359174772, -2217.9412505556647, 15752.97305023349, -16703.235114006417, 0.08704846079769049, 0.971547127713202, 0.11217555085155617, 192.0, 0.0, 0.0, 0.0, 0.0, 0.0, 0.0, 0.0, 0.0, 0.0, 1.741985938969565E9, 0.0, 2025-03-14 15:58:58.969
184.0, 11769.534560386486, 19422.056606061054, -9083.503077447782, 2141.095953118319, 12656.02709722842, 5334.646145659226, 2416.7376657411655, 16997.40642278271, 46248.84381876515, -3186.2635238484772, 22176.037392143895, 40123.68352695507, 8348.04127789036, -2206.0501225054413, 15763.83599803877, -16689.86877082214, 0.08704846079769049, 0.971547127713202, 0.11217555085155617, 192.0, 0.0, 0.0, 0.0, 0.0, 0.0, 0.0, 0.0, 0.0, 0.0, 1.741985939027918E9, 0.0, 2025-03-14 15:58:59.027
186.0, 11768.461676652632, 19423.151841539366, -9095.975350853843, 2140.738325207034, 12655.490655361493, 5335.361401481796, 2420.4480553207463, 17001.07210887338, 46249.29085365425, -3183.5813145138404, 22202.81478200135, 40162.86613498523, 8343.325059810288, -2206.228936461084, 15765.557082361829, -16692.707442367966, 0.08704846079769049, 0.971547127713202, 0.11217555085155617, 192.0, 0.0, 0.0, 0.0, 0.0, 0.0, 0.0, 0.0, 0.0, 0.0, 1.741985939028213E9, 0.0, 2025-03-14 15:58:59.028
188.0, 11770.361574931334, 19421.296646749575, -9081.200847768885, 2142.794685696922, 12660.922129264132, 5334.780256125958, 2426.684192023777, 17001.49679201803, 46244.90991174101, -3188.1857738716335, 22179.412505556644, 40127.39391653465, 8337.066571362802, -2211.995686530553, 15766.272338184399, -16698.653006393077, 0.08704846079769049, 0.971547127713202, 0.11217555085155617, 192.0, 0.0, 0.0, 0.0, 0.0, 0.0, 0.0, 0.0, 0.0, 0.0, 1.741985939028455E9, 0.0, 2025-03-14 15:58:59.028
190.0, 11763.544292872464, 19412.959446067744, -9103.731406179835, 2133.7422291925227, 12646.59466106828, 5334.422628214673, 2406.0982353804393, 16992.89137040274, 46249.20144667643, -3181.0332156459353, 22207.329834381322, 40161.949713462556, 8341.469865020497, -2200.6857038361672, 15766.36174516222, -16698.205971503972, 0.08652423039884524, 0.971773563856601, 0.11308777542577808, 192.0, 1.0, 88.0, 15.0, 48.0, 1.5, 72.0, 0.0, 0.0, 0.0, 1.741985939028693E9, 0.0, 2025-03-14 15:58:59.028
192.0, 11770.406278420243, 19414.479364690706, -9086.922894349444, 2137.0279356274527, 12672.723850336535, 5347.319584765385, 2425.5219013121014, 16995.37241403728, 46247.88269375356, -3187.0905383933236, 22171.298822319368, 40122.61064322122, 8340.017001630904, -2208.3300004398825, 15761.779637548882, -16702.87748609513, 0.08652423039884524, 0.971773563856601, 0.11308777542577808, 192.0, 0.0, 0.0, 0.0, 0.0, 0.0, 0.0, 0.0, 0.0, 0.0, 1.741985939028954E9, 0.0, 2025-03-14 15:58:59.028
194.0, 11775.122496500313, 19416.17809726931, -9096.042406087208, 2132.8481594143104, 12656.45178037307, 5337.0824858048545, 2419.9339651982746, 16994.12071634778, 46255.37052814609, -3192.0526256624016, 22211.129630938725, 40165.034254197395, 8342.36393479871, -2208.3523521843376, 15765.445323639551, -16710.119451298648, 0.08652423039884524, 0.971773563856601, 0.11308777542577808, 192.0, 0.0, 0.0, 0.0, 0.0, 0.0, 0.0, 0.0, 0.0, 0.0, 1.741985939029183E9, 0.0, 2025-03-14 15:58:59.029
196.0, 11773.312005199434, 19412.22183850072, -9088.733385650325, 2130.635336713235, 12657.07762921782, 5332.612136913793, 2418.6822675087774, 16992.198466324626, 46267.73104282988, -3179.647407489706, 22173.735162464996, 40118.40851526362, 8344.88968192216, -2206.117177738807, 15761.0196782374, -16712.555791444276, 0.08652423039884524, 0.971773563856601, 0.11308777542577808, 192.0, 0.0, 0.0, 0.0, 0.0, 0.0, 0.0, 0.0, 0.0, 0.0, 1.741985939029411E9, 0.0, 2025-03-14 15:58:59.029
198.0, 11770.160409231235, 19409.763146610636, -9096.80236539869, 2126.030877355442, 12657.189387940096, 5331.29338399093, 2408.0204854035956, 16989.78447792345, 46265.89819978455, -3188.6104570162843, 22217.097546708294, 40168.454071099055, 8340.17346384209, -2212.5991836308463, 15757.532806102374, -16723.821070649752, 0.08652423039884524, 0.971773563856601, 0.11308777542577808, 192.0, 0.0, 0.0, 0.0, 0.0, 0.0, 0.0, 0.0, 0.0, 0.0, 1.741985939029659E9, 0.0, 2025-03-14 15:58:59.029
200.0, 11775.10014475586, 19414.524068179617, -9091.639112429513, 2123.281612787439, 12651.623803570725, 5321.637430386238, 2411.1273778828836, 16986.856399399807, 46268.58040911918, -3190.912686695181, 22176.596185755276, 40123.79528567735, 8339.70407720853, -2212.7779975864887, 15753.062457211312, -16728.157309074082, 0.08626211519942262, 0.9708867819283005, 0.11054388771288903, 192.0, 1.0, 88.0, 15.0, 40.0, 1.5, 48.0, 0.0, 0.0, 0.0, 1.741985939089215E9, 0.0, 2025-03-14 15:58:59.089
202.0, 11783.079717526403, 19422.123661294423, -9085.201810026385, 2133.0716768588636, 12656.608242584258, 5332.76859912498, 2420.7162762542102, 16996.17707683767, 46283.08669127068, -3184.1848116141337, 22222.17139269965, 40164.676626286106, 8341.000478386937, -2210.2075469741285, 15762.897224771647, -16723.97753286094, 0.08626211519942262, 0.9708867819283005, 0.11054388771288903, 192.0, 0.0, 0.0, 0.0, 0.0, 0.0, 0.0, 0.0, 0.0, 0.0, 1.741985939089514E9, 0.0, 2025-03-14 15:58:59.089
204.0, 11778.788182590984, 19417.206277514255, -9090.633283929024, 2130.054191357397, 12647.376972124217, 5330.756942124002, 2412.110854638917, 16988.242207556035, 46282.997284292855, -3179.647407489706, 22180.4853892905, 40130.79138169186, 8336.820702173794, -2208.6652766067123, 15760.59499509275, -16718.791928147308, 0.08626211519942262, 0.9708867819283005, 0.11054388771288903, 192.0, 0.0, 0.0, 0.0, 0.0, 0.0, 0.0, 0.0, 0.0, 0.0, 1.74198593908976E9, 0.0, 2025-03-14 15:58:59.089
206.0, 11789.695833885175, 19424.291780506584, -9079.122135534542, 2140.0007176400086, 12660.005707741466, 5330.935756079645, 2419.6880960092662, 16992.93607389165, 46295.04487455427, -3181.815526701871, 22221.702006066087, 40170.91276298914, 8333.378533527677, -2207.860613806321, 15759.231538680977, -16718.188431047016, 0.08626211519942262, 0.9708867819283005, 0.11054388771288903, 192.0, 0.0, 0.0, 0.0, 0.0, 0.0, 0.0, 0.0, 0.0, 0.0, 1.741985939090004E9, 0.0, 2025-03-14 15:58:59.090
208.0, 11777.089450012381, 19411.730100122702, -9090.65563567348, 2126.3661535222714, 12646.840530257288, 5316.585936139338, 2402.879584178875, 16982.229588297556, 46297.43651121098, -3186.174116870656, 22190.320156850834, 40139.776782962894, 8330.875138148682, -2211.481596408081, 15753.867120011702, -16717.27200952435, 0.08626211519942262, 0.9708867819283005, 0.11054388771288903, 192.0, 0.0, 0.0, 0.0, 0.0, 0.0, 0.0, 0.0, 0.0, 0.0, 1.741985939090247E9, 0.0, 2025-03-14 15:58:59.090
210.0, 11786.790107105984, 19421.855440360956, -9069.667347629947, 2139.441924028626, 12664.69957407708, 5336.635450915748, 2424.5384245560676, 16998.546361749934, 46302.24213626888, -3190.264486105977, 22226.73114856853, 40166.062434442334, 8328.014114858403, -2210.431064418681, 15761.042029981856, -16714.321579256248, 0.0871310575997113, 0.9724433909641502, 0.11027194385644451, 192.0, 1.0, 96.0, 15.0, 56.0, 1.5, 56.0, 0.0, 0.0, 0.0, 1.741985939090488E9, 0.0, 2025-03-14 15:58:59.090
212.0, 11784.577284404908, 19425.02938807361, -9071.254321486274, 2142.1464851077185, 12668.454667145572, 5336.836616615846, 2428.4499798357465, 16998.635768727752, 46315.80964515325, -3183.6483697472063, 22195.416354586647, 40133.004204392935, 8331.322173037788, -2206.1395294832623, 15769.245120196954, -16703.123355284137, 0.0871310575997113, 0.9724433909641502, 0.11027194385644451, 192.0, 0.0, 0.0, 0.0, 0.0, 0.0, 0.0, 0.0, 0.0, 0.0, 1.741985939090742E9, 0.0, 2025-03-14 15:58:59.090
214.0, 11785.091374527381, 19428.337446252997, -9067.476876673327, 2146.706240976601, 12667.627652600724, 5343.564491696893, 2421.6997530102435, 17001.69795771813, 46322.64927895657, -3182.82135520236, 22225.322988667845, 40158.79811749436, 8329.802254414828, -2205.6924945941564, 15768.798085307848, -16707.750166386388, 0.0871310575997113, 0.9724433909641502, 0.11027194385644451, 192.0, 0.0, 0.0, 0.0, 0.0, 0.0, 0.0, 0.0, 0.0, 0.0, 1.741985939148556E9, 0.0, 2025-03-14 15:58:59.148
216.0, 11774.04961276646, 19418.70384439276, -9083.03369081422, 2138.0784676168523, 12660.229225186018, 5334.288517747941, 2418.9728401866964, 16994.36658553679, 46325.80087492477, -3180.273256334455, 22194.96931969754, 40140.223817852, 8330.070475348291, -2204.597259115846, 15766.384096906675, -16704.50916344037, 0.0871310575997113, 0.9724433909641502, 0.11027194385644451, 192.0, 0.0, 0.0, 0.0, 0.0, 0.0, 0.0, 0.0, 0.0, 0.0, 1.741985939148849E9, 0.0, 2025-03-14 15:58:59.148
218.0, 11774.89897905576, 19420.26846650463, -9077.579865167125, 2139.084296117341, 12662.464399631548, 5330.265203745986, 2416.4470930632465, 16991.371451779778, 46319.40827601055, -3195.0030559305023, 22210.280264649424, 40152.11494590223, 8328.707018936519, -2208.15118648424, 15760.349125903742, -16711.952294343984, 0.0871310575997113, 0.9724433909641502, 0.11027194385644451, 192.0, 0.0, 0.0, 0.0, 0.0, 0.0, 0.0, 0.0, 0.0, 0.0, 1.741985939149085E9, 0.0, 2025-03-14 15:58:59.149
220.0, 11776.307138956445, 19423.59887642847, -9079.949150079388, 2138.9725373950646, 12673.640271859202, 5332.343915980329, 2416.7600174856207, 16994.590102981343, 46332.59580523918, -3195.651256519706, 22191.415392329145, 40140.782611463386, 8325.398960757133, -2210.8110440744217, 15766.048820739845, -16709.247733264892, 0.08356552879985565, 0.976221695482075, 0.10913597192822225, 192.0, 1.0, 64.0, 15.0, 80.0, 1.5, 48.0, 0.0, 0.0, 0.0, 1.741985939149325E9, 0.0, 2025-03-14 15:58:59.149
222.0, 11786.09720302787, 19431.623152687927, -9062.850065571078, 2149.8801886892547, 12668.141742723197, 5341.128151551265, 2427.4888548241684, 17005.140126364247, 46343.45875304446, -3186.6658552486724, 22210.77200302744, 40144.38124232069, 8328.863481147704, -2206.0054190165306, 15765.780599806381, -16704.442108207, 0.08356552879985565, 0.976221695482075, 0.10913597192822225, 192.0, 0.0, 0.0, 0.0, 0.0, 0.0, 0.0, 0.0, 0.0, 0.0, 1.74198593914958E9, 0.0, 2025-03-14 15:58:59.149
224.0, 11777.737650601584, 19424.47059446223, -9089.783917639723, 2140.6489182292125, 12663.7384490655, 5334.62379391477, 2414.0554564065287, 16996.80292568242, 46345.5374652788, -3194.332503596843, 22200.311386622358, 40145.387070821176, 8325.041332845847, -2209.9616777851197, 15759.812684036815, -16708.510125697867, 0.08356552879985565, 0.976221695482075, 0.10913597192822225, 192.0, 0.0, 0.0, 0.0, 0.0, 0.0, 0.0, 0.0, 0.0, 0.0, 1.741985939149832E9, 0.0, 2025-03-14 15:58:59.149
