%OpenBCI Raw EXG Data
%Number of channels = 16
%Sample Rate = 125 Hz
%Board = OpenBCI_GUI$BoardCytonSerialDaisy
Sample Index, EXG Channel 0, EXG Channel 1, EXG Channel 2, EXG Channel 3, EXG Channel 4, EXG Channel 5, EXG Channel 6, EXG Channel 7, EXG Channel 8, EXG Channel 9, EXG Channel 10, EXG Channel 11, EXG Channel 12, EXG Channel 13, EXG Channel 14, EXG Channel 15, Accel Channel 0, Accel Channel 1, Accel Channel 2, Not Used, Digital Channel 0 (D11), Digital Channel 1 (D12), Digital Channel 2 (D13), Digital Channel 3 (D17), Not Used, Digital Channel 4 (D18), Analog Channel 0, Analog Channel 1, Analog Channel 2, Timestamp, Marker Channel, Timestamp (Formatted)
0.0, -22954.012209655313, -25880.324945488566, -33598.00232625035, -12065.695174419305, -4128.0095729839295, 6145.813303686775, -9454.363221450236, -24517.71790000414, 0.0, 0.0, 0.0, 0.0, 0.0, 0.0, 0.0, 0.0, 0.0, 0.0, 0.0, 192.0, 0.0, 0.0, 0.0, 0.0, 0.0, 0.0, 0.0, 0.0, 0.0, 1.742426418648019E9, 0.0, 2025-03-19 18:20:18.648
28.0, -22948.78190145277, -25879.252061754712, -33593.46492212593, -12064.823456385548, -4120.946421736053, 6134.391562270112, -9470.724698391521, -24515.549780791975, 7698.276066574582, -22402.594673942887, -6470.4947436445655, 14418.126871362552, -10768.355222744372, -11598.320197858835, -10082.938979022381, -20595.65730043141, 0.0, 0.0, 0.0, 192.0, 0.0, 0.0, 0.0, 0.0, 0.0, 0.0, 0.0, 0.0, 0.0, 1.742426418648308E9, 0.0, 2025-03-19 18:20:18.648
30.0, -22955.867404445104, -25885.532901946655, -33600.684535584995, -12071.283110533132, -4125.550881093845, 6144.986289141928, -9453.15622724965, -24512.532295290508, 7703.9310579217745, -22409.456659490665, -6466.605540109342, 14420.876135930555, -10781.810972906467, -11596.822630980329, -10081.62022609952, -20592.259835274202, 0.029, 0.485, 0.07100000000000001, 192.0, 0.5, 104.0, 15.0, 40.0, 2.0, 56.0, 0.0, 0.0, 0.0, 1.742426418648616E9, 0.0, 2025-03-19 18:20:18.648
32.0, -22953.095788132643, -25882.5601199341, -33606.11600948763, -12070.277282032643, -4124.857977015731, 6132.268146546859, -9476.580855438811, -24514.588655780397, 7700.175964853283, -22406.819153644938, -6472.99813902356, 14416.830470184144, -10777.295920526496, -11601.58355254931, -10083.676586589407, -20591.052841073615, 0.029, 0.485, 0.07100000000000001, 192.0, 0.0, 0.0, 0.0, 0.0, 0.0, 0.0, 0.0, 0.0, 0.0, 1.742426418648949E9, 0.0, 2025-03-19 18:20:18.648
34.0, -22959.82366321369, -25886.069343813582, -33601.55625361875, -12074.121782078957, -4129.618898584712, 6141.052382117794, -9458.386535452191, -24516.287388359, 7697.784328196565, -22410.842467646893, -6475.970921036115, 14414.908220160989, -10778.61467344936, -11600.376558348724, -10085.37531916801, -20593.578588197066, 0.029, 0.485, 0.07100000000000001, 192.0, 0.0, 0.0, 0.0, 0.0, 0.0, 0.0, 0.0, 0.0, 0.0, 1.742426418649266E9, 0.0, 2025-03-19 18:20:18.649
36.0, -22952.224070098888, -25879.2073582658, -33595.70009657146, -12065.985747097224, -4126.333192149781, 6136.112646593171, -9478.25723627296, -24512.442888312686, 7699.594819497445, -22409.14373506829, -6474.585112879886, 14417.56807775117, -10773.317310013452, -11600.309503115357, -10086.51525813523, -20592.863332374494, 0.029, 0.485, 0.07100000000000001, 192.0, 0.0, 0.0, 0.0, 0.0, 0.0, 0.0, 0.0, 0.0, 0.0, 1.742426418649587E9, 0.0, 2025-03-19 18:20:18.649
38.0, -22960.62832601408, -25885.868178113484, -33600.90805302955, -12069.450267487797, -4129.4177328846135, 6136.179701826537, -9453.670317372122, -24514.275731358022, 7702.209973598716, -22402.99700534308, -6473.914560546227, 14421.434929541938, -10783.442650251705, -11587.4348983091, -10079.608569098542, -20593.891512619437, 0.029, 0.485, 0.07100000000000001, 192.0, 0.0, 0.0, 0.0, 0.0, 0.0, 0.0, 0.0, 0.0, 0.0, 1.742426418649896E9, 0.0, 2025-03-19 18:20:18.649
40.0, -22960.091884147154, -25886.046992069125, -33602.3832681636, -12067.840941887014, -4132.34581140826, 6131.575242468744, -9482.25819853046, -24522.56822855094, 7692.732833949666, -22413.27880779252, -6476.7755838365065, 14420.47380453036, -10793.255066067584, -11608.713759030552, -10087.52108663572, -20593.086849819047, 0.0445, 0.7275, 0.10650000000000001, 192.0, 0.5, 112.0, 15.0, 40.0, 2.0, 56.0, 0.0, 0.0, 0.0, 1.742426418650211E9, 0.0, 2025-03-19 18:20:18.650
42.0, -22949.54186076425, -25875.251099497214, -33596.16948320502, -12061.783619139627, -4125.416770627114, 6142.326431551747, -9457.49246567398, -24514.52160054703, 7702.969932910197, -22405.835676888906, -6472.886380301283, 14419.982066152343, -10771.08213556792, -11602.29880837188, -10086.80583081315, -20600.239408044745, 0.0445, 0.7275, 0.10650000000000001, 192.0, 0.0, 0.0, 0.0, 0.0, 0.0, 0.0, 0.0, 0.0, 0.0, 1.742426418650559E9, 0.0, 2025-03-19 18:20:18.650
0.0, -11467.227216628458, -12921.722283568655, -16741.32248655826, -5999.387025760058, -2030.4324663200937, 3078.4387085960757, -4687.183164022346, -12214.200164580365, 3854.8265522511665, -11200.459146554369, -3229.938832514147, 7219.322886386262, -5386.658655006726, -5794.220363404795, -5040.497188627385, -10292.88891469108, 0.042, 0.974, 0.116, 192.0, 0.5, 40.0, 15.0, 56.0, 1.5, 80.0, 0.0, 0.0, 0.0, 1.742426418817726E9, 0.0, 2025-03-19 18:20:18.817
2.0, -22936.77901468027, -25844.40569214889, -33490.28926972023, -12002.640903310885, -4062.965996618986, 6156.586844514232, -9368.37606053067, -24429.763785572504, 7730.9319652237855, -22350.76097855103, -6452.479237613587, 14402.65946419948, -10741.063742764443, -11499.950170511029, -9974.331852714045, -20526.25513389768, 0.042, 0.974, 0.116, 192.0, 0.0, 0.0, 0.0, 0.0, 0.0, 0.0, 0.0, 0.0, 0.0, 1.742426418818096E9, 0.0, 2025-03-19 18:20:18.818
4.0, -22941.696398460437, -25850.328904429545, -33491.31744996517, -12010.24049642569, -4068.9562641330085, 6153.032917145839, -9362.251682549917, -24433.563582129907, 7727.512148322124, -22354.69488557516, -6451.227539924091, 14414.751757949802, -10745.668202122237, -11497.402071643124, -9979.02571904966, -20521.963598962262, 0.042, 0.974, 0.116, 192.0, 0.0, 0.0, 0.0, 0.0, 0.0, 0.0, 0.0, 0.0, 0.0, 1.742426418818421E9, 0.0, 2025-03-19 18:20:18.818
6.0, -22926.67602618647, -25833.386282132422, -33475.87239454656, -11997.90233348636, -4054.829961637254, 6159.827847460252, -9364.196284317528, -24419.16905870069, 7728.517976822613, -22349.665743072717, -6453.909749258727, 14404.08997584462, -10739.074437507921, -11502.431214145567, -9973.236617235734, -20529.54084033261, 0.042, 0.974, 0.116, 192.0, 0.0, 0.0, 0.0, 0.0, 0.0, 0.0, 0.0, 0.0, 0.0, 1.74242641881874E9, 0.0, 2025-03-19 18:20:18.818
8.0, -22931.459299499908, -25838.996569990704, -33484.47781616185, -12008.56411559154, -4060.8872843846425, 6166.3769085856575, -9344.549100941313, -24422.566523857895, 7737.168101926816, -22345.821243026407, -6440.811627007917, 14421.9043161755, -10733.151225227264, -11485.913274993096, -9965.413506676377, -20513.06760466905, 0.04, 0.976, 0.10400000000000001, 192.0, 0.5, 32.0, 15.0, 64.0, 1.5, 32.0, 0.0, 0.0, 0.0, 1.742426418819047E9, 0.0, 2025-03-19 18:20:18.819
10.0, -22921.602180195117, -25829.944113486305, -33476.00650501329, -12004.451394611764, -4055.1428860596284, 6159.447867804512, -9353.42274349007, -24419.861962778803, 7728.562680311523, -22347.967010494114, -6449.439400367666, 14408.42621426895, -10728.54676586947, -11499.793708299841, -9972.364899201977, -20526.41159610887, 0.04, 0.976, 0.10400000000000001, 192.0, 0.0, 0.0, 0.0, 0.0, 0.0, 0.0, 0.0, 0.0, 0.0, 1.742426418819381E9, 0.0, 2025-03-19 18:20:18.819
12.0, -22922.42919473996, -25832.15693618738, -33490.55749065369, -12017.571868607029, -4063.4353832525476, 6160.118420138171, -9335.764865370378, -24428.489736138552, 7736.430494359791, -22346.357684893333, -6436.810664750417, 14423.111310376085, -10718.376722142306, -11490.137754695148, -9968.051012522104, -20520.041348939103, 0.04, 0.976, 0.10400000000000001, 192.0, 0.0, 0.0, 0.0, 0.0, 0.0, 0.0, 0.0, 0.0, 0.0, 1.742426418819693E9, 0.0, 2025-03-19 18:20:18.819
14.0, -22917.265941770787, -25828.290084396613, -33496.100723278614, -12018.018903496135, -4063.055403596807, 6155.379850313646, -9354.13799931264, -24427.618018104797, 7728.4062181003355, -22353.66670533022, -6442.175083419691, 14406.36985377906, -10720.366027398828, -11505.560458369311, -9981.350300473012, -20533.228878167734, 0.04, 0.976, 0.10400000000000001, 192.0, 0.0, 0.0, 0.0, 0.0, 0.0, 0.0, 0.0, 0.0, 0.0, 1.742426418820013E9, 0.0, 2025-03-19 18:20:18.820
16.0, -22911.074508556667, -25821.942188971305, -33499.6099471581, -12016.610743595451, -4055.6346244376455, 6169.908484209595, -9328.858176333688, -24421.158363957213, 7732.541290824568, -22342.98257148058, -6426.595917534342, 14422.105481875597, -10710.330094138395, -11490.651844817621, -9973.437782935833, -20521.941247217805, 0.04, 0.976, 0.10400000000000001, 192.0, 0.0, 0.0, 0.0, 0.0, 0.0, 0.0, 0.0, 0.0, 0.0, 1.742426418877331E9, 0.0, 2025-03-19 18:20:18.877
18.0, -22911.879171357057, -25822.188058160315, -33508.9082728515, -12020.477595386219, -4054.4052784926034, 6163.784106228842, -9346.963089342486, -24421.583047101863, 7728.137997166872, -22341.864984257816, -6430.149844902736, 14415.131737605541, -10706.64205630327, -11493.445812874534, -9975.807067848094, -20523.48351758522, 0.032, 0.978, 0.096, 192.0, 0.5, 0.0, 15.0, 72.0, 1.5, 0.0, 0.0, 0.0, 0.0, 1.742426418877704E9, 0.0, 2025-03-19 18:20:18.877
20.0, -22912.10268880161, -25822.5456860716, -33515.39027874354, -12022.04221749809, -4051.1419238021285, 6177.239856390936, -9316.475309905447, -24418.006767989013, 7728.629735544889, -22343.451958114143, -6427.221766379091, 14417.031635884243, -10707.40201561475, -11487.053213960316, -9976.611730648487, -20520.01899719465, 0.032, 0.978, 0.096, 192.0, 0.0, 0.0, 0.0, 0.0, 0.0, 0.0, 0.0, 0.0, 0.0, 1.742426418878048E9, 0.0, 2025-03-19 18:20:18.878
22.0, -22914.851953369613, -25825.36200587297, -33520.24060729034, -12023.070397743035, -4049.331432501249, 6169.729670253953, -9335.764865370378, -24419.146706956235, 7725.187566898771, -22341.08267320188, -6425.433626822666, 14415.33290330564, -10707.446719103662, -11485.645054059632, -9974.242445736223, -20515.034558181116, 0.032, 0.978, 0.096, 192.0, 0.0, 0.0, 0.0, 0.0, 0.0, 0.0, 0.0, 0.0, 0.0, 1.742426418878364E9, 0.0, 2025-03-19 18:20:18.878
24.0, -22911.76741263478, -25824.28912213911, -33513.7586013983, -12023.875060543425, -4045.5316359438466, 6181.978426215462, -9312.586106370223, -24410.20600917411, 7724.695828520755, -22344.435434870178, -6424.9418884446495, 14412.09190035962, -10710.330094138395, -11486.360309882202, -9973.750707358207, -20517.180325648824, 0.032, 0.978, 0.096, 192.0, 0.0, 0.0, 0.0, 0.0, 0.0, 0.0, 0.0, 0.0, 0.0, 1.742426418878577E9, 0.0, 2025-03-19 18:20:18.878
26.0, -22911.901523101515, -25824.82556400604, -33514.6079676876, -12022.243383198189, -4043.877606854154, 6171.048423176816, -9334.021429302864, -24413.379956886765, 7726.662782032822, -22342.51318484702, -6422.684362254663, 14412.04719687071, -10708.564306326427, -11487.209676171504, -9971.694346868318, -20514.364005847456, 0.032, 0.978, 0.096, 192.0, 0.0, 0.0, 0.0, 0.0, 0.0, 0.0, 0.0, 0.0, 0.0, 1.742426418878788E9, 0.0, 2025-03-19 18:20:18.878
28.0, -22909.040499811235, -25819.63995929241, -33511.83635137515, -12012.788595293594, -4037.6861736400338, 6190.494440852934, -9312.720216836955, -24398.583102057353, 7733.994154214162, -22335.78530976597, -6415.755321473518, 14414.61764748307, -10699.400091099751, -11478.850123745218, -9962.954814786293, -20508.48549705571, 0.024, 0.974, 0.1, 192.0, 0.0, 96.0, 15.0, 56.0, 1.5, 16.0, 0.0, 0.0, 0.0, 1.742426418878993E9, 0.0, 2025-03-19 18:20:18.878
30.0, -22918.160011549, -25830.458203608778, -33519.97238635688, -12017.28129592911, -4045.7551533884, 6177.575132557766, -9344.124417796662, -24408.373166128775, 7733.144787924861, -22341.350894135347, -6416.6717429961855, 14416.338731806129, -10707.178498170197, -11477.978405711461, -9968.051012522104, -20499.321281829034, 0.024, 0.974, 0.1, 192.0, 0.0, 0.0, 0.0, 0.0, 0.0, 0.0, 0.0, 0.0, 0.0, 1.74242641893745E9, 0.0, 2025-03-19 18:20:18.937
32.0, -22915.611912681095, -25827.26190415167, -33523.03457534726, -12015.157880205856, -4041.1506940306062, 6185.286484394847, -9323.516109408869, -24405.69095679414, 7733.7482850251545, -22339.115719689813, -6420.2480221090345, 14407.778013679745, -10703.736329524081, -11480.727670279464, -9968.565102644576, -20507.3902615774, 0.024, 0.974, 0.1, 192.0, 0.0, 0.0, 0.0, 0.0, 0.0, 0.0, 0.0, 0.0, 0.0, 1.742426418937706E9, 0.0, 2025-03-19 18:20:18.937
34.0, -22916.170706292476, -25827.418366362857, -33521.604063702114, -12013.637961582896, -4039.94369983002, 6179.296216880824, -9336.770693870867, -24408.999014973524, 7733.43536060278, -22341.95439123564, -6417.454054052121, 14415.04233062772, -10707.603181314847, -11475.877341732663, -9968.609806133487, -20501.020014407637, 0.024, 0.974, 0.1, 192.0, 0.0, 0.0, 0.0, 0.0, 0.0, 0.0, 0.0, 0.0, 0.0, 1.742426418937913E9, 0.0, 2025-03-19 18:20:18.937
36.0, -22918.808212138203, -25832.201639676292, -33521.64876719103, -12018.175365707322, -4040.0778102967515, 6181.710205281997, -9319.671609362556, -24407.30028239492, 7735.894052492864, -22344.301324403445, -6417.588164518853, 14405.162859578475, -10706.55264932545, -11480.146524923626, -9964.63119562044, -20506.742060988196, 0.024, 0.974, 0.1, 192.0, 0.0, 0.0, 0.0, 0.0, 0.0, 0.0, 0.0, 0.0, 0.0, 1.742426418938127E9, 0.0, 2025-03-19 18:20:18.938
38.0, -22916.550685948216, -25829.944113486305, -33522.60989220261, -12019.80704305256, -4038.222615506961, 6171.271940621369, -9329.305211222794, -24410.40717487421, 7736.944584482263, -22346.29062965997, -6415.8447284513395, 14412.024845126254, -10710.821832516413, -11480.280635390358, -9966.262872965679, -20506.272674354634, 0.036000000000000004, 0.97, 0.098, 192.0, 0.5, 16.0, 15.0, 40.0, 1.5, 8.0, 0.0, 0.0, 0.0, 1.74242641893833E9, 0.0, 2025-03-19 18:20:18.938
40.0, -22905.464220698384, -25819.841124992505, -33515.12205781008, -12012.118042959935, -4030.8241880922546, 6182.5819233157545, -9311.200298213995, -24400.572407313874, 7740.096180450461, -22338.065187700413, -6416.895260440739, 14406.503964245792, -10702.30581787894, -11483.052251702817, -9961.904282796893, -20518.16380240486, 0.036000000000000004, 0.97, 0.098, 192.0, 0.0, 0.0, 0.0, 0.0, 0.0, 0.0, 0.0, 0.0, 0.0, 1.742426418938542E9, 0.0, 2025-03-19 18:20:18.938
42.0, -22908.48170619985, -25825.317302384057, -33525.82854340417, -12016.230763939711, -4039.519016685369, 6178.893885480629, -9320.56567914077, -24405.86977074978, 7750.400334644358, -22336.500565588543, -6406.836975435851, 14424.005380154298, -10703.512812079527, -11470.89290271913, -9958.484465895232, -20502.227008608224, 0.036000000000000004, 0.97, 0.098, 192.0, 0.0, 0.0, 0.0, 0.0, 0.0, 0.0, 0.0, 0.0, 0.0, 1.742426418938756E9, 0.0, 2025-03-19 18:20:18.938
44.0, -22911.16391553449, -25828.938284985816, -33521.98404335786, -12021.081092486513, -4043.0505923093074, 6172.210713888492, -9320.900955307598, -24412.105907452813, 7742.957203740741, -22342.08850170237, -6419.443359308643, 14403.732347933335, -10709.145451682265, -11486.449716860023, -9970.152076500903, -20515.571000048043, 0.036000000000000004, 0.97, 0.098, 192.0, 0.0, 0.0, 0.0, 0.0, 0.0, 0.0, 0.0, 0.0, 0.0, 1.74242641893895E9, 0.0, 2025-03-19 18:20:18.938
46.0, -22918.517639460282, -25836.604933333987, -33532.95874988541, -12027.339580933998, -4050.359612746193, 6166.3769085856575, -9330.959240312486, -24419.03494823396, 7741.81726477352, -22347.229402927092, -6415.88943194025, 14412.918914904467, -10716.253306419052, -11480.817077257285, -9972.633120135442, -20505.91504644335, 0.036000000000000004, 0.97, 0.098, 192.0, 0.0, 0.0, 0.0, 0.0, 0.0, 0.0, 0.0, 0.0, 0.0, 1.742426418997856E9, 0.0, 2025-03-19 18:20:18.997
48.0, -22910.96274983439, -25826.457241351276, -33521.98404335786, -12020.09761573048, -4042.6929643980225, 6173.328301111258, -9326.958278054986, -24408.55198008442, 7731.557814068534, -22349.665743072717, -6427.691153012652, 14395.261036784774, -10715.470995363117, -11492.104708207216, -9977.706966126796, -20521.315398373055, 0.038, 0.972, 0.1, 192.0, 0.5, 24.0, 15.0, 48.0, 1.5, 16.0, 0.0, 0.0, 0.0, 1.742426418998111E9, 0.0, 2025-03-19 18:20:18.998
50.0, -22914.02493882477, -25828.62536056344, -33524.44273524794, -12023.696246587784, -4044.6375661656343, 6174.848219734218, -9321.660914619079, -24412.374128386276, 7740.073828706006, -22343.831937769883, -6416.4929290405435, 14412.918914904467, -10714.062835462431, -11478.023109200372, -9972.901341068906, -20506.71970924374, 0.038, 0.972, 0.1, 192.0, 0.0, 0.0, 0.0, 0.0, 0.0, 0.0, 0.0, 0.0, 0.0, 1.742426418998323E9, 0.0, 2025-03-19 18:20:18.998
52.0, -22916.505982459305, -25831.97812223174, -33528.98013937237, -12028.635982112406, -4049.286729012338, 6167.136867897138, -9333.976725813953, -24414.966930743092, 7732.496587335657, -22344.70365580364, -6426.573565789887, 14397.473859485848, -10712.297047650463, -11488.260208160902, -9974.39890794741, -20522.276523384637, 0.038, 0.972, 0.1, 192.0, 0.0, 0.0, 0.0, 0.0, 0.0, 0.0, 0.0, 0.0, 0.0, 1.742426418998521E9, 0.0, 2025-03-19 18:20:18.998
54.0, -22923.8597063851, -25838.415424634866, -33530.52240973978, -12035.319153704544, -4050.381964490648, 6164.566417284777, -9332.836786846732, -24420.264294179, 7726.260450632626, -22357.019466998514, -6427.154711145725, 14400.916028131966, -10722.511794866537, -11489.355443639213, -9981.395003961921, -20521.62832279543, 0.038, 0.972, 0.1, 192.0, 0.0, 0.0, 0.0, 0.0, 0.0, 0.0, 0.0, 0.0, 0.0, 1.742426418998725E9, 0.0, 2025-03-19 18:20:18.998
56.0, -22914.986063836346, -25831.10640419798, -33521.49230497984, -12030.960563535758, -4041.709487641989, 6154.776353213353, -9345.33141199725, -24418.297340666933, 7723.667648275811, -22349.777501794997, -6434.597842049342, 14389.51663845976, -10713.191117428674, -11495.211600686504, -9978.131649271447, -20532.53597408962, 0.038, 0.972, 0.1, 192.0, 0.0, 0.0, 0.0, 0.0, 0.0, 0.0, 0.0, 0.0, 0.0, 1.742426418998927E9, 0.0, 2025-03-19 18:20:18.998
58.0, -22920.328130761165, -25835.532049600133, -33521.335842768654, -12032.86046181446, -4047.006851077897, 6161.370117827669, -9334.736685125434, -24419.727852312073, 7737.570433327011, -22347.274106416, -6420.963277931604, 14405.095804345108, -10712.542916839471, -11485.55564708181, -9973.080155024547, -20522.745910018195, 0.03, 0.976, 0.096, 192.0, 0.0, 120.0, 15.0, 64.0, 1.5, 0.0, 0.0, 0.0, 0.0, 1.742426418999132E9, 0.0, 2025-03-19 18:20:18.999
60.0, -22920.305779016708, -25835.68851181132, -33515.8596653771, -12034.067456015046, -4047.8785691116536, 6155.670422991565, -9354.51797896838, -24425.896933781736, 7724.919345965308, -22351.342123906867, -6437.727086273085, 14386.186228535918, -10719.02492273151, -11496.731519309464, -9984.099565041013, -20530.859593255474, 0.03, 0.976, 0.096, 192.0, 0.0, 0.0, 0.0, 0.0, 0.0, 0.0, 0.0, 0.0, 0.0, 1.742426419057989E9, 0.0, 2025-03-19 18:20:19.057
62.0, -22923.43502324045, -25839.957695002282, -33513.28921476474, -12037.442569427798, -4048.5044179564024, 6164.387603329134, -9331.719199623967, -24422.521820368984, 7728.629735544889, -22348.3246384054, -6432.541481559454, 14397.56326646367, -10717.54970759746, -11485.600350570721, -9980.79150686163, -20525.070491441547, 0.03, 0.976, 0.096, 192.0, 0.0, 0.0, 0.0, 0.0, 0.0, 0.0, 0.0, 0.0, 0.0, 1.742426419058207E9, 0.0, 2025-03-19 18:20:19.058
64.0, -22927.39128200904, -25844.383340404434, -33512.0598688197, -12035.922650804836, -4045.2410632659276, 6159.8054957157965, -9350.89699636662, -24420.0631284789, 7718.683209262277, -22352.45971112963, -6446.645432310753, 14385.18040003543, -10716.92385875271, -11496.530353609367, -9983.987806318737, -20533.564154334566, 0.03, 0.976, 0.096, 192.0, 0.0, 0.0, 0.0, 0.0, 0.0, 0.0, 0.0, 0.0, 0.0, 1.742426419058483E9, 0.0, 2025-03-19 18:20:19.058
66.0, -22932.35336927812, -25848.943096273317, -33518.318357267184, -12040.370647951442, -4047.967976089475, 6169.439097576034, -9329.908708323086, -24419.750204056527, 7725.1205116654055, -22354.89605127526, -6444.298499142945, 14388.376699492539, -10712.162937183732, -11492.507039607412, -9982.132611528947, -20526.858630997973, 0.028999999999999998, 0.974, 0.096, 192.0, 0.0, 112.0, 15.0, 48.0, 1.5, 0.0, 0.0, 0.0, 0.0, 1.742426419058677E9, 0.0, 2025-03-19 18:20:19.058
68.0, -22929.604104710117, -25845.25505843819, -33515.83731363265, -12039.409522939864, -4045.844560366221, 6158.822018959763, -9355.255586535404, -24422.186544202155, 7716.604497027934, -22351.543289606965, -6447.94183348916, 14382.632301167525, -10716.990913986077, -11493.5128681079, -9983.45136445181, -20526.925686231338, 0.028999999999999998, 0.974, 0.096, 192.0, 0.0, 0.0, 0.0, 0.0, 0.0, 0.0, 0.0, 0.0, 0.0, 1.742426419058885E9, 0.0, 2025-03-19 18:20:19.058
70.0, -22934.163860579, -25850.194793962815, -33525.247398048334, -12045.28803173161, -4048.7055836565, 6165.281673107347, -9331.98742055743, -24419.83961103435, 7722.974744197696, -22356.013638498025, -6443.471484598099, 14382.60994942307, -10715.35923664084, -11492.261170418404, -9983.473716196266, -20529.809061266074, 0.028999999999999998, 0.974, 0.096, 192.0, 0.0, 0.0, 0.0, 0.0, 0.0, 0.0, 0.0, 0.0, 0.0, 1.742426419059088E9, 0.0, 2025-03-19 18:20:19.059
72.0, -22931.63811345555, -25848.83133755104, -33524.688604436946, -12045.444493942798, -4050.5607784462904, 6153.971690412962, -9359.569473215279, -24423.97468375858, 7716.716255750211, -22359.99224901107, -6449.70762130113, 14377.111420287065, -10720.50013786556, -11500.598371100232, -9991.475640711265, -20532.4465671118, 0.028999999999999998, 0.974, 0.096, 192.0, 0.0, 0.0, 0.0, 0.0, 0.0, 0.0, 0.0, 0.0, 0.0, 1.742426419059293E9, 0.0, 2025-03-19 18:20:19.059
74.0, -22923.703244173914, -25843.1986979483, -33521.760525913305, -12041.532938663118, -4048.5714731897683, 6166.823943474763, -9334.691981636523, -24419.325520911876, 7725.47813957669, -22354.13609196378, -6441.660993297219, 14382.207618022874, -10718.041445975477, -11496.932685009562, -9988.100527298515, -20533.295933401103, 0.028999999999999998, 0.974, 0.096, 192.0, 0.0, 0.0, 0.0, 0.0, 0.0, 0.0, 0.0, 0.0, 0.0, 1.742426419059496E9, 0.0, 2025-03-19 18:20:19.059
76.0, -22919.076433071667, -25837.275485667647, -33523.14633406953, -12037.397865938887, -4049.331432501249, 6157.078582892249, -9348.393600987625, -24419.81725928989, 7735.715238537221, -22346.670609315708, -6433.390847848756, 14389.248417526296, -10712.945248239666, -11490.18245818406, -9986.759422631196, -20527.3950728649, 0.0315, 0.974, 0.093, 192.0, 0.5, 8.0, 15.0, 56.0, 1.0, 104.0, 0.0, 0.0, 0.0, 1.742426419118376E9, 0.0, 2025-03-19 18:20:19.118
78.0, -22926.58661920865, -25842.84107003702, -33531.8635144071, -12045.176273009334, -4059.099144828218, 6159.112591637682, -9335.742513625923, -24428.176811716177, 7728.830901244986, -22347.51997560501, -6438.710563029118, 14387.594388436602, -10718.846108775868, -11494.004606485916, -9989.665149410386, -20533.20652642328, 0.0315, 0.974, 0.093, 192.0, 0.0, 0.0, 0.0, 0.0, 0.0, 0.0, 0.0, 0.0, 0.0, 1.742426419118604E9, 0.0, 2025-03-19 18:20:19.118
80.0, -22922.473898228873, -25840.091805469016, -33528.957787627915, -12045.109217775967, -4060.2614355398937, 6144.986289141928, -9360.016508104385, -24436.961047287114, 7723.779406998087, -22355.790121053473, -6444.477313098588, 14386.476801213837, -10727.876213535812, -11501.246571689437, -10000.572800704575, -20539.53207010413, 0.0315, 0.974, 0.093, 192.0, 0.0, 0.0, 0.0, 0.0, 0.0, 0.0, 0.0, 0.0, 0.0, 1.742426419118814E9, 0.0, 2025-03-19 18:20:19.118
82.0, -22920.14931680552, -25838.527183357142, -33525.71678468189, -12041.62234564094, -4061.4907814849357, 6155.245739846914, -9345.577281186257, -24431.59662861784, 7728.6744390338, -22350.671571573206, -6442.376249119789, 14384.755716890779, -10723.808196044945, -11502.542972867845, -9998.941123359338, -20545.701151573798, 0.0315, 0.974, 0.093, 192.0, 0.0, 0.0, 0.0, 0.0, 0.0, 0.0, 0.0, 0.0, 0.0, 1.742426419119017E9, 0.0, 2025-03-19 18:20:19.119
84.0, -22917.86943887108, -25837.096671712003, -33521.93933986894, -12035.207394982266, -4056.819266893777, 6151.177722356048, -9352.41691498958, -24429.182640216666, 7735.469369348213, -22348.77167329451, -6434.508435071521, 14398.27852228624, -10717.25913491954, -11497.044443731838, -9993.129669800957, -20530.658427555376, 0.0315, 0.974, 0.093, 192.0, 0.0, 0.0, 0.0, 0.0, 0.0, 0.0, 0.0, 0.0, 0.0, 1.74242641911922E9, 0.0, 2025-03-19 18:20:19.119
86.0, -22915.187229536445, -25834.570924588555, -33511.612833930594, -12029.127720490424, -4055.813438393288, 6161.9736149279615, -9336.010734559386, -24421.69480582414, 7731.803683257543, -22349.03989422797, -6438.196472906647, 14387.594388436602, -10718.801405286957, -11501.000702500427, -9991.743861644729, -20535.106424701982, 0.03275, 0.978, 0.0935, 192.0, 0.5, 8.0, 15.0, 88.0, 1.0, 120.0, 0.0, 0.0, 0.0, 1.742426419119429E9, 0.0, 2025-03-19 18:20:19.119
88.0, -22920.462241227895, -25840.091805469016, -33524.53214222576, -12033.553365892574, -4063.2342175524495, 6156.720954980964, -9349.801760888311, -24425.136974470257, 7731.580165812989, -22352.727932063095, -6433.167330404202, 14398.144411819509, -10728.055027491455, -11493.736385552453, -9992.794393634129, -20525.2940088861, 0.03275, 0.978, 0.0935, 192.0, 0.0, 0.0, 0.0, 0.0, 0.0, 0.0, 0.0, 0.0, 0.0, 1.74242641911964E9, 0.0, 2025-03-19 18:20:19.119
90.0, -22920.417537738984, -25838.12485195695, -33526.722613182385, -12030.692342602295, -4056.2381215379387, 6163.784106228842, -9340.816359617276, -24420.800736045927, 7730.060247190028, -22350.246888428555, -6442.8456357533505, 14384.37573723504, -10724.970486756622, -11500.061929233305, -9992.436765722843, -20534.279410157134, 0.03275, 0.978, 0.0935, 192.0, 0.0, 0.0, 0.0, 0.0, 0.0, 0.0, 0.0, 0.0, 0.0, 1.742426419177772E9, 0.0, 2025-03-19 18:20:19.177
92.0, -22923.30091277372, -25841.902296769895, -33527.706089938416, -12031.72052284724, -4057.7580401608993, 6159.023184659861, -9349.734705654944, -24423.147669213733, 7732.965973969219, -22352.504414618543, -6434.664897282708, 14397.876190886045, -10727.65269609126, -11493.401109385624, -9988.97224533227, -20519.303741372078, 0.03275, 0.978, 0.0935, 192.0, 0.0, 0.0, 0.0, 0.0, 0.0, 0.0, 0.0, 0.0, 0.0, 1.742426419177983E9, 0.0, 2025-03-19 18:20:19.177
94.0, -22923.792651151736, -25842.326979914546, -33529.00249111682, -12030.804101324571, -4059.9932146064302, 6160.923082938562, -9353.623909190168, -24424.64523609224, 7726.372209354903, -22353.33142916339, -6442.398600864244, 14383.70518490138, -10727.540937368982, -11502.900600779129, -9991.475640711265, -20531.68660780032, 0.03275, 0.978, 0.0935, 192.0, 0.0, 0.0, 0.0, 0.0, 0.0, 0.0, 0.0, 0.0, 0.0, 1.742426419178214E9, 0.0, 2025-03-19 18:20:19.178
96.0, -22925.200811052422, -25843.556325859587, -33526.722613182385, -12030.558232135563, -4056.1487145601172, 6158.732611981942, -9349.555891699301, -24421.851268035327, 7736.34108738197, -22355.723065820108, -6436.2742228834895, 14397.429155996939, -10726.177480957209, -11492.4623361185, -9984.434841207843, -20515.571000048043, 0.031375, 0.977, 0.09275, 192.0, 0.0, 120.0, 15.0, 64.0, 1.0, 112.0, 0.0, 0.0, 0.0, 1.742426419178416E9, 0.0, 2025-03-19 18:20:19.178
98.0, -22929.425290754472, -25845.5009276272, -33527.75079342732, -12031.362894935954, -4061.066098340285, 6153.3458415682135, -9360.128266826661, -24429.87554429478, 7723.555889553534, -22357.399446654254, -6449.215882923113, 14379.994795321798, -10730.156091470253, -11504.822850802286, -9989.620445921475, -20530.50196534419, 0.031375, 0.977, 0.09275, 192.0, 0.0, 0.0, 0.0, 0.0, 0.0, 0.0, 0.0, 0.0, 0.0, 1.742426419178633E9, 0.0, 2025-03-19 18:20:19.178
100.0, -22932.241610555844, -25848.96544801777, -33527.482572493864, -12031.80992982506, -4059.121496572673, 6157.346803825713, -9350.606423688701, -24426.925114026682, 7729.1661774118165, -22357.354743165346, -6442.532711330976, 14395.104574573586, -10732.435969404694, -11495.256304175415, -9988.189934276335, -20523.43881409631, 0.031375, 0.977, 0.09275, 192.0, 0.0, 0.0, 0.0, 0.0, 0.0, 0.0, 0.0, 0.0, 0.0, 1.742426419178829E9, 0.0, 2025-03-19 18:20:19.178
102.0, -22931.235782055355, -25848.58546836203, -33526.58850271565, -12032.413426925354, -4056.9757291049636, 6150.328356066747, -9361.08939183824, -24428.668550094197, 7722.974744197696, -22362.09331298987, -6451.898092257749, 14379.32424298814, -10732.346562426874, -11506.208658958514, -9990.045129066126, -20535.374645635446, 0.031375, 0.977, 0.09275, 192.0, 0.0, 0.0, 0.0, 0.0, 0.0, 0.0, 0.0, 0.0, 0.0, 1.742426419179031E9, 0.0, 2025-03-19 18:20:19.179
104.0, -22925.223162796876, -25843.22104969276, -33523.05692709171, -12025.082054744013, -4050.069040068274, 6157.391507314624, -9346.806627131298, -24423.482945380565, 7733.323601880504, -22359.880490288793, -6439.448170596143, 14395.104574573586, -10728.591469358382, -11496.619760587188, -9985.105393541502, -20526.053968197582, 0.031375, 0.977, 0.09275, 192.0, 0.0, 0.0, 0.0, 0.0, 0.0, 0.0, 0.0, 0.0, 0.0, 1.742426419179232E9, 0.0, 2025-03-19 18:20:19.179
106.0, -22931.88398264456, -25847.91491602837, -33517.46899097788, -12026.445511155785, -4054.584092448246, 6149.389582799624, -9368.264301808395, -24432.22247746259, 7732.854215246942, -22353.95727800814, -6443.002097964537, 14390.477763471337, -10728.345600169374, -11501.492440878445, -9980.925617328361, -20529.83141301053, 0.0296875, 0.9755, 0.095375, 192.0, 0.0, 112.0, 15.0, 56.0, 1.5, 8.0, 0.0, 0.0, 0.0, 1.742426419237586E9, 0.0, 2025-03-19 18:20:19.237
108.0, -22936.39903502453, -25852.11704398597, -33520.4641247349, -12029.842976312993, -4056.6628046825895, 6153.368193312668, -9348.035973076341, -24429.204991961124, 7729.523805323101, -22356.214804198124, -6444.142036931758, 14399.060833342175, -10735.40875141725, -11498.117327465694, -9983.808992363096, -20523.751738518684, 0.0296875, 0.9755, 0.095375, 192.0, 0.0, 0.0, 0.0, 0.0, 0.0, 0.0, 0.0, 0.0, 0.0, 1.742426419237814E9, 0.0, 2025-03-19 18:20:19.237
110.0, -22927.16776456449, -25842.863421781472, -33511.612833930594, -12018.644752340884, -4047.118609800173, 6150.663632233576, -9360.441191249036, -24421.672454079682, 7726.439264588269, -22356.863004787327, -6449.3052899009335, 14387.259112269774, -10730.737236826091, -11506.633342103165, -9981.59616966202, -20529.227915910236, 0.0296875, 0.9755, 0.095375, 192.0, 0.0, 0.0, 0.0, 0.0, 0.0, 0.0, 0.0, 0.0, 0.0, 1.742426419238005E9, 0.0, 2025-03-19 18:20:19.238
112.0, -22928.173593064977, -25842.77401480365, -33506.807208872706, -12019.360008163454, -4047.2303685224497, 6161.906559694596, -9335.496644436913, -24417.35856739981, 7740.632622317389, -22349.777501794997, -6434.173158904691, 14404.358196778083, -10725.194004201176, -11493.579923341265, -9972.4543061798, -20516.35331110398, 0.0296875, 0.9755, 0.095375, 192.0, 0.0, 0.0, 0.0, 0.0, 0.0, 0.0, 0.0, 0.0, 0.0, 1.742426419238208E9, 0.0, 2025-03-19 18:20:19.238
114.0, -22933.135680334053, -25847.892564283917, -33511.45637171941, -12025.439682655298, -4055.6346244376455, 6147.8249606877525, -9367.794915174833, -24428.534439627463, 7727.668610533311, -22360.90867053374, -6447.628909066786, 14387.616740181058, -10733.419446160728, -11505.582810113765, -9980.59034116153, -20524.377587363433, 0.0296875, 0.9755, 0.095375, 192.0, 0.0, 0.0, 0.0, 0.0, 0.0, 0.0, 0.0, 0.0, 0.0, 1.74242641923841E9, 0.0, 2025-03-19 18:20:19.238
116.0, -22933.1133285896, -25846.26088693868, -33510.89757810802, -12025.931421033314, -4051.4548482245027, 6163.247664361914, -9342.962127084986, -24424.77934655897, 7731.937793724274, -22355.410141397733, -6442.018621208504, 14394.836353640123, -10729.373780414317, -11500.978350755973, -9981.193838261825, -20526.29983738659, 0.02984375, 0.97475, 0.09768750000000001, 192.0, 0.0, 120.0, 15.0, 56.0, 1.5, 16.0, 0.0, 0.0, 0.0, 1.74242641923861E9, 0.0, 2025-03-19 18:20:19.238
118.0, -22933.135680334053, -25846.5514596166, -33509.42236297397, -12025.529089633119, -4054.1817610480502, 6149.478989777445, -9366.990252374442, -24428.93677102766, 7728.383866355881, -22354.56077510843, -6447.427743366688, 14391.349481505094, -10733.330039182907, -11504.17465021308, -9984.524248185666, -20526.277485642135, 0.02984375, 0.97475, 0.09768750000000001, 192.0, 0.0, 0.0, 0.0, 0.0, 0.0, 0.0, 0.0, 0.0, 0.0, 1.742426419238815E9, 0.0, 2025-03-19 18:20:19.238
120.0, -22931.8616309001, -25846.707921827787, -33506.13665653904, -12025.57379312203, -4050.583130190746, 6159.224350359959, -9342.693906151522, -24425.02521574798, 7735.447017603758, -22354.583126852885, -6440.722220030096, 14394.434022239928, -10730.26785019253, -11500.37485365568, -9978.73514637174, -20525.986912964217, 0.02984375, 0.97475, 0.09768750000000001, 192.0, 0.0, 0.0, 0.0, 0.0, 0.0, 0.0, 0.0, 0.0, 0.0, 1.742426419297771E9, 0.0, 2025-03-19 18:20:19.297
122.0, -22930.788747166247, -25844.02571249315, -33500.41460995848, -12022.66806634284, -4049.622005179168, 6148.78608569933, -9367.23612156345, -24427.2156867046, 7732.183662913283, -22361.780388567495, -6443.0244497089925, 14388.935493103922, -10732.950059527167, -11506.65569384762, -9981.953797573304, -20528.669122298852, 0.02984375, 0.97475, 0.09768750000000001, 192.0, 0.0, 0.0, 0.0, 0.0, 0.0, 0.0, 0.0, 0.0, 0.0, 1.742426419297986E9, 0.0, 2025-03-19 18:20:19.297
124.0, -22935.192040823942, -25848.40665440639, -33503.05211580421, -12024.85853729946, -4053.5335604588463, 6157.4585625479895, -9344.303231752305, -24428.713253583104, 7737.615136815923, -22353.644353585765, -6437.8611967398165, 14393.60700769508, -10728.591469358382, -11501.5147926229, -9974.130687013947, -20529.853764754986, 0.02984375, 0.97475, 0.09768750000000001, 192.0, 0.0, 0.0, 0.0, 0.0, 0.0, 0.0, 0.0, 0.0, 0.0, 1.742426419298189E9, 0.0, 2025-03-19 18:20:19.298
126.0, -22927.704206431416, -25841.321151414057, -33500.079333791655, -12022.355141920465, -4054.9864238484415, 6145.723896708953, -9369.404240775615, -24433.22830596308, 7731.758979768632, -22358.09235073237, -6443.337374131367, 14395.104574573586, -10737.55451888496, -11506.5662868698, -9982.512591184688, -20531.954828733782, 0.029921875, 0.973375, 0.09684375, 192.0, 0.0, 120.0, 15.0, 48.0, 1.5, 0.0, 0.0, 0.0, 0.0, 1.742426419298391E9, 0.0, 2025-03-19 18:20:19.298
128.0, -22924.887886630047, -25841.008226991682, -33497.48653143484, -12022.019865753635, -4054.740554659433, 6155.379850313646, -9347.924214354065, -24430.479041395076, 7737.145750182361, -22353.733760563584, -6439.917557229705, 14395.305740273685, -10734.760550828047, -11504.71109208001, -9980.2550649947, -20535.44170086881, 0.029921875, 0.973375, 0.09684375, 192.0, 0.0, 0.0, 0.0, 0.0, 0.0, 0.0, 0.0, 0.0, 0.0, 1.742426419298603E9, 0.0, 2025-03-19 18:20:19.298
130.0, -22928.57592446517, -25844.763320060174, -33498.06767679068, -12022.109272731457, -4055.321700015271, 6147.400277543102, -9367.370232030182, -24432.624808862784, 7737.2128054157265, -22359.6793245887, -6441.549234574943, 14397.742080419313, -10736.101655495366, -11503.03471124586, -9979.629216149953, -20524.28818038561, 0.029921875, 0.973375, 0.09684375, 192.0, 0.0, 0.0, 0.0, 0.0, 0.0, 0.0, 0.0, 0.0, 0.0, 1.742426419298809E9, 0.0, 2025-03-19 18:20:19.298
132.0, -22925.67019768598, -25843.846898537508, -33494.267880233274, -12018.935325018803, -4049.7561156458996, 6156.720954980964, -9344.459693963492, -24424.466422136597, 7740.990250228674, -22351.99032449607, -6442.46565609761, 14391.930626860933, -10729.194966458675, -11502.073586234283, -9972.16373350188, -20532.11129094497, 0.029921875, 0.973375, 0.09684375, 192.0, 0.0, 0.0, 0.0, 0.0, 0.0, 0.0, 0.0, 0.0, 0.0, 1.74242641929904E9, 0.0, 2025-03-19 18:20:19.299
134.0, -22932.0627966002, -25849.613648606977, -33503.096819293125, -12022.75747332066, -4056.483990726947, 6147.31087056528, -9365.068002351285, -24433.16125072971, 7737.324564138004, -22358.360571665835, -6445.058458454426, 14396.579789707637, -10735.8334345619, -11502.31945542329, -9976.276454481656, -20525.450471097287, 0.029921875, 0.973375, 0.09684375, 192.0, 0.0, 0.0, 0.0, 0.0, 0.0, 0.0, 0.0, 0.0, 0.0, 1.742426419299282E9, 0.0, 2025-03-19 18:20:19.299
136.0, -22926.050177341724, -25842.930477014837, -33498.335897724144, -12017.817737796038, -4056.6628046825895, 6157.995004414917, -9352.32750801176, -24430.1661169727, 7741.392581628869, -22351.252716929044, -6447.695964300152, 14389.404879737483, -10731.36308567084, -11505.783975813863, -9977.572855660064, -20530.859593255474, 0.0279609375, 0.9756875, 0.096421875, 192.0, 0.0, 104.0, 15.0, 72.0, 1.5, 0.0, 0.0, 0.0, 0.0, 1.742426419358087E9, 0.0, 2025-03-19 18:20:19.358
138.0, -22929.224125054378, -25845.344465416012, -33498.24649074632, -12020.61170585295, -4060.5743599622683, 6150.93185316704, -9364.173932573072, -24432.468346651596, 7741.213767673227, -22353.599650096854, -6443.449132853643, 14398.502039730793, -10734.738199083591, -11500.4642606335, -9980.702099883807, -20524.53404957462, 0.0279609375, 0.9756875, 0.096421875, 192.0, 0.0, 0.0, 0.0, 0.0, 0.0, 0.0, 0.0, 0.0, 0.0, 1.742426419358385E9, 0.0, 2025-03-19 18:20:19.358
140.0, -22927.860668642603, -25842.617552592463, -33496.77127561227, -12021.595182608984, -4061.3119675292933, 6155.782181713842, -9359.480066237458, -24433.20595421862, 7736.698715293255, -22352.303248918444, -6450.13230444578, 14387.080298314131, -10739.163844485742, -11509.673179349087, -9983.339605729534, -20539.5991253375, 0.0279609375, 0.9756875, 0.096421875, 192.0, 0.0, 0.0, 0.0, 0.0, 0.0, 0.0, 0.0, 0.0, 0.0, 1.742426419358588E9, 0.0, 2025-03-19 18:20:19.358
142.0, -22930.43111925496, -25844.49509912671, -33498.58176691315, -12022.33279017601, -4064.8435431532316, 6158.5090945373895, -9361.268205793882, -24431.663683851206, 7739.313869394526, -22354.85134778635, -6444.477313098588, 14401.94420837691, -10740.862577064345, -11499.056100732816, -9982.31142548459, -20525.249305397192, 0.0279609375, 0.9756875, 0.096421875, 192.0, 0.0, 0.0, 0.0, 0.0, 0.0, 0.0, 0.0, 0.0, 0.0, 1.742426419358794E9, 0.0, 2025-03-19 18:20:19.358
144.0, -22931.124023333075, -25845.277410182647, -33500.30285123621, -12024.053874499068, -4066.4975722429244, 6154.441077046523, -9366.118534340685, -24436.08932925336, 7735.022334459107, -22357.220632698612, -6453.350955647345, 14387.504981458782, -10741.22020497563, -11510.679007849576, -9988.860486609994, -20536.045197969102, 0.0279609375, 0.9756875, 0.096421875, 192.0, 0.0, 0.0, 0.0, 0.0, 0.0, 0.0, 0.0, 0.0, 0.0, 1.742426419358992E9, 0.0, 2025-03-19 18:20:19.358
146.0, -22939.10359610362, -25852.429968408345, -33507.410705972994, -12029.395941423887, -4072.5995984792235, 6149.099010121705, -9365.47033375148, -24439.285628710466, 7737.168101926816, -22361.445112400666, -6448.970013734104, 14397.652673441491, -10745.399981188773, -11506.186307214059, -9989.419280221377, -20525.852802497484, 0.02798046875, 0.97684375, 0.09521093750000001, 192.0, 0.0, 112.0, 15.0, 72.0, 1.0, 120.0, 0.0, 0.0, 0.0, 1.742426419359193E9, 0.0, 2025-03-19 18:20:19.359
148.0, -22933.001569867323, -25848.54076487312, -33498.29119423523, -12024.120929732435, -4066.6540344541118, 6145.232158330937, -9368.264301808395, -24440.000884533034, 7735.178796670294, -22360.23811820008, -6453.7085835586295, 14383.883998857022, -10741.644888120281, -11515.819909074296, -9989.128707543457, -20539.01797998166, 0.02798046875, 0.97684375, 0.09521093750000001, 192.0, 0.0, 0.0, 0.0, 0.0, 0.0, 0.0, 0.0, 0.0, 0.0, 1.742426419359408E9, 0.0, 2025-03-19 18:20:19.359
150.0, -22930.162898321498, -25844.897430526904, -33495.49722617832, -12020.701112830773, -4062.451906496514, 6148.249643832403, -9359.971804615476, -24437.07280600939, 7736.050514704051, -22363.501472890555, -6447.204225922135, 14396.646844941002, -10746.22699573362, -11510.053159004827, -9988.480506954254, -20529.652599054887, 0.02798046875, 0.97684375, 0.09521093750000001, 192.0, 0.0, 0.0, 0.0, 0.0, 0.0, 0.0, 0.0, 0.0, 0.0, 1.742426419418371E9, 0.0, 2025-03-19 18:20:19.418
152.0, -22925.58079070816, -25839.175383946345, -33487.83057783015, -12016.90131627337, -4058.0486128388184, 6146.21563508697, -9369.985386131453, -24433.943561785647, 7741.571395584512, -22352.191490196168, -6444.678478798685, 14395.104574573586, -10735.878138050812, -11509.42731016008, -9980.925617328361, -20536.26871541366, 0.02798046875, 0.97684375, 0.09521093750000001, 192.0, 0.0, 0.0, 0.0, 0.0, 0.0, 0.0, 0.0, 0.0, 0.0, 1.742426419418593E9, 0.0, 2025-03-19 18:20:19.418
154.0, -22935.884944902056, -25848.92074452886, -33498.604118657604, -12026.110234988957, -4068.6209879661787, 6140.582995484233, -9363.302214539315, -24443.778329345983, 7742.219596173716, -22356.61713559832, -6439.537577573965, 14404.782879922734, -10741.26490846454, -11504.666388591098, -9981.3055969841, -20532.848898511995, 0.02798046875, 0.97684375, 0.09521093750000001, 192.0, 0.0, 0.0, 0.0, 0.0, 0.0, 0.0, 0.0, 0.0, 0.0, 1.74242641941879E9, 0.0, 2025-03-19 18:20:19.418
156.0, -22935.504965246317, -25848.473709639755, -33500.2581477473, -12024.567964621541, -4065.379985020159, 6135.978536126439, -9377.495572268435, -24442.146652000745, 7729.47910183419, -22364.730818835596, -6456.8154760379175, 14384.621606424047, -10749.020963790532, -11519.954981798528, -9989.419280221377, -20549.903279531394, 0.029990234375, 0.977421875, 0.09360546875, 192.0, 0.5, 0.0, 15.0, 72.0, 1.0, 112.0, 0.0, 0.0, 0.0, 1.742426419418988E9, 0.0, 2025-03-19 18:20:19.418
158.0, -22938.745968192336, -25852.92170678636, -33502.38156347055, -12025.66320009985, -4063.4353832525476, 6148.093181621216, -9361.402316260615, -24440.872602566793, 7736.989287971174, -22358.517033877022, -6448.411220122722, 14397.071528085653, -10739.476768908116, -11506.94626652554, -9981.037376050637, -20537.006322980684, 0.029990234375, 0.977421875, 0.09360546875, 192.0, 0.0, 0.0, 0.0, 0.0, 0.0, 0.0, 0.0, 0.0, 0.0, 1.742426419419204E9, 0.0, 2025-03-19 18:20:19.419
160.0, -22935.39320652404, -25848.652523595396, -33490.91511856498, -12019.002380252168, -4056.506342471402, 6144.963937397473, -9374.120458855685, -24431.529573384476, 7731.110779179428, -22362.026257756504, -6457.262510927023, 14382.878170356533, -10744.662373621748, -11516.535164896866, -9985.865352852983, -20545.477634129245, 0.029990234375, 0.977421875, 0.09360546875, 192.0, 0.0, 0.0, 0.0, 0.0, 0.0, 0.0, 0.0, 0.0, 0.0, 1.742426419419402E9, 0.0, 2025-03-19 18:20:19.419
162.0, -22937.44956701393, -25849.03250325114, -33485.595403384614, -12015.716673817238, -4053.7123744144887, 6161.370117827669, -9347.164255042584, -24428.042701249447, 7744.834750274987, -22352.593821596365, -6442.935042731171, 14399.932551375932, -10734.984068272599, -11498.050272232327, -9970.152076500903, -20531.038407211116, 0.029990234375, 0.977421875, 0.09360546875, 192.0, 0.0, 0.0, 0.0, 0.0, 0.0, 0.0, 0.0, 0.0, 0.0, 1.7424264194196E9, 0.0, 2025-03-19 18:20:19.419
164.0, -22945.67500897348, -25858.06260801108, -33495.050191289214, -12025.842014055494, -4062.9436448745305, 6141.4994170069, -9376.936778657053, -24439.442090921653, 7728.696790778255, -22364.842577557873, -6456.122571959802, 14384.666309912958, -10742.829530576413, -11511.103690994227, -9980.2550649947, -20538.05685497008, 0.029990234375, 0.977421875, 0.09360546875, 192.0, 0.0, 0.0, 0.0, 0.0, 0.0, 0.0, 0.0, 0.0, 0.0, 1.742426419419806E9, 0.0, 2025-03-19 18:20:19.419
166.0, -22948.379570052573, -25859.224898722758, -33496.234833745344, -12026.557269878063, -4060.9096361290976, 6151.378888056146, -9350.941699855532, -24437.139861242755, 7729.412046600824, -22367.323621192412, -6457.3742696493, 14384.018109323753, -10744.908242810756, -11509.919048538095, -9984.16662027438, -20541.655485827385, 0.028995117187500002, 0.9787109375, 0.093802734375, 192.0, 0.0, 112.0, 15.0, 80.0, 1.0, 120.0, 0.0, 0.0, 0.0, 1.742426419478599E9, 0.0, 2025-03-19 18:20:19.478
168.0, -22947.0161136408, -25858.353180689002, -33492.54679591022, -12022.086920987002, -4058.0039093499076, 6143.444018774512, -9372.086450110251, -24435.865811808802, 7725.321677365503, -22365.915461291726, -6463.319833674412, 14380.531237188727, -10746.808141089457, -11513.674141606587, -9983.384309218443, -20541.63313408293, 0.028995117187500002, 0.9787109375, 0.093802734375, 192.0, 0.0, 0.0, 0.0, 0.0, 0.0, 0.0, 0.0, 0.0, 0.0, 1.742426419478832E9, 0.0, 2025-03-19 18:20:19.478
170.0, -22952.64875324354, -25866.198642992815, -33493.016182543775, -12027.652505356373, -4058.6968134280223, 6146.7744286983525, -9348.66182192109, -24437.78806183196, 7729.747322767655, -22365.33431593589, -6457.530731860487, 14382.431135467426, -10744.416504432738, -11510.097862493738, -9977.483448682244, -20539.576773593042, 0.028995117187500002, 0.9787109375, 0.093802734375, 192.0, 0.0, 0.0, 0.0, 0.0, 0.0, 0.0, 0.0, 0.0, 0.0, 1.742426419479045E9, 0.0, 2025-03-19 18:20:19.479
172.0, -22955.77799746728, -25868.67968662735, -33498.000621557316, -12032.86046181446, -4063.7930111638325, 6131.351725024191, -9374.299272811328, -24445.767634602504, 7722.930040708786, -22375.86198757434, -6465.823229053406, 14375.256225497274, -10748.41746669024, -11519.954981798528, -9981.640873150931, -20544.762378306674, 0.028995117187500002, 0.9787109375, 0.093802734375, 192.0, 0.0, 0.0, 0.0, 0.0, 0.0, 0.0, 0.0, 0.0, 0.0, 1.742426419479243E9, 0.0, 2025-03-19 18:20:19.479
174.0, -22948.759549708313, -25860.32013420107, -33491.31744996517, -12022.533955876108, -4060.3061390288044, 6148.361402554679, -9351.969880100474, -24433.898858296736, 7725.902822721341, -22370.028182271504, -6463.297481929956, 14377.893731343, -10746.271699222529, -11517.004551530428, -9982.914922584883, -20547.556346363588, 0.028995117187500002, 0.9787109375, 0.093802734375, 192.0, 0.0, 0.0, 0.0, 0.0, 0.0, 0.0, 0.0, 0.0, 0.0, 1.742426419479453E9, 0.0, 2025-03-19 18:20:19.479
176.0, -22946.770244451793, -25859.202546978304, -33483.092008005624, -12014.509679616653, -4059.3673657616814, 6140.650050717599, -9374.679252467067, -24433.20595421862, 7728.71914252271, -22366.00486826955, -6454.245025425556, 14390.634225682525, -10748.730391112613, -11509.807289815819, -9979.718623127774, -20533.54180259011, 0.03149755859375, 0.97935546875, 0.0949013671875, 192.0, 0.5, 8.0, 15.0, 80.0, 1.5, 0.0, 0.0, 0.0, 0.0, 1.742426419479653E9, 0.0, 2025-03-19 18:20:19.479
178.0, -22950.39122705355, -25860.633058623444, -33486.467121418376, -12013.973237749726, -4061.2672640403825, 6152.474123534456, -9351.835769633743, -24434.41294841921, 7734.48589259218, -22357.913536776727, -6448.500627100543, 14392.534123961226, -10738.31447819644, -11504.688740335554, -9970.442649178822, -20533.83237526803, 0.03149755859375, 0.97935546875, 0.0949013671875, 192.0, 0.0, 0.0, 0.0, 0.0, 0.0, 0.0, 0.0, 0.0, 0.0, 1.742426419479858E9, 0.0, 2025-03-19 18:20:19.479
180.0, -22945.049160128732, -25857.682628355342, -33488.970516797366, -12013.168574949334, -4064.016528608385, 6140.448885017501, -9378.568456002291, -24441.543154900453, 7722.818281986509, -22363.277955446, -6457.888359771772, 14392.17649604994, -10752.865463836844, -11508.220315959492, -9983.429012707355, -20531.77601477814, 0.03149755859375, 0.97935546875, 0.0949013671875, 192.0, 0.0, 0.0, 0.0, 0.0, 0.0, 0.0, 0.0, 0.0, 0.0, 1.742426419538075E9, 0.0, 2025-03-19 18:20:19.538
182.0, -22959.77895972478, -25871.563061662087, -33489.35049645311, -12012.296856915576, -4061.2672640403825, 6149.83661768873, -9359.033031348352, -24437.653951365228, 7732.317773380015, -22360.260469944536, -6452.255720169034, 14390.455411726882, -10739.052085763466, -11507.013321758905, -9974.443611436322, -20535.553459591087, 0.03149755859375, 0.97935546875, 0.0949013671875, 192.0, 0.0, 0.0, 0.0, 0.0, 0.0, 0.0, 0.0, 0.0, 0.0, 1.742426419538321E9, 0.0, 2025-03-19 18:20:19.538
184.0, -22964.673991760494, -25877.665087898386, -33495.78779885624, -12018.845918040983, -4065.290578042338, 6138.705448949987, -9373.986348388953, -24443.30894271242, 7722.661819775322, -22368.307097948444, -6459.028298738993, 14392.534123961226, -10747.813969589946, -11508.019150259393, -9980.746803372718, -20527.752700776186, 0.03149755859375, 0.97935546875, 0.0949013671875, 192.0, 0.0, 0.0, 0.0, 0.0, 0.0, 0.0, 0.0, 0.0, 0.0, 1.742426419538526E9, 0.0, 2025-03-19 18:20:19.538
186.0, -22979.672012290004, -25892.193721794334, -33495.78779885624, -12021.483423886708, -4064.7094326865, 6141.678230962543, -9365.604444218212, -24439.755015344028, 7716.760959239121, -22379.080638775904, -6467.700775587652, 14372.641071396003, -10744.662373621748, -11521.027865532384, -9983.83134410755, -20542.39309339441, 0.031748779296875, 0.977677734375, 0.09445068359375, 192.0, 0.5, 0.0, 15.0, 64.0, 1.0, 120.0, 0.0, 0.0, 0.0, 1.742426419538734E9, 0.0, 2025-03-19 18:20:19.538
188.0, -22991.563140340226, -25901.737916676753, -33498.49235993533, -12022.355141920465, -4068.799801921821, 6138.012544871873, -9374.165162344594, -24441.58785838936, 7710.122491135895, -22385.71910687913, -6467.633720354285, 14380.061850555165, -10752.753705114568, -11517.384531186168, -9985.239504008236, -20531.865421755963, 0.031748779296875, 0.977677734375, 0.09445068359375, 192.0, 0.0, 0.0, 0.0, 0.0, 0.0, 0.0, 0.0, 0.0, 0.0, 1.742426419538948E9, 0.0, 2025-03-19 18:20:19.538
190.0, -22998.93921601048, -25911.03624237016, -33496.48070293435, -12024.232688454711, -4068.218656565983, 6137.744323938408, -9369.493647753436, -24442.727797356583, 7699.840688686453, -22389.138923780793, -6476.864990814328, 14368.215425993852, -10752.396077203284, -11522.391321944157, -9986.871181353472, -20542.63896258342, 0.031748779296875, 0.977677734375, 0.09445068359375, 192.0, 0.0, 0.0, 0.0, 0.0, 0.0, 0.0, 0.0, 0.0, 0.0, 1.742426419539155E9, 0.0, 2025-03-19 18:20:19.539
192.0, -23013.713719095438, -25924.134364620968, -33500.77223786977, -12027.853671056471, -4073.4042612796143, 6135.218576814959, -9375.081583867262, -24443.0183700345, 7698.8795636748755, -22397.72199365163, -6477.602598381352, 14376.507923186771, -10755.07828653792, -11520.200850987536, -9989.352224988012, -20540.180270693338, 0.031748779296875, 0.977677734375, 0.09445068359375, 192.0, 0.0, 0.0, 0.0, 0.0, 0.0, 0.0, 0.0, 0.0, 0.0, 1.742426419539356E9, 0.0, 2025-03-19 18:20:19.539
194.0, -23028.622332647126, -25943.46862357481, -33506.24841526132, -12033.218089725744, -4076.935836903553, 6136.269108804358, -9379.484877524957, -24445.16413750221, 7689.80475542602, -22402.885246620805, -6491.393624710277, 14357.196015977386, -10754.407734204262, -11529.588583658766, -9989.352224988012, -20548.651581841896, 0.031748779296875, 0.977677734375, 0.09445068359375, 192.0, 0.0, 0.0, 0.0, 0.0, 0.0, 0.0, 0.0, 0.0, 0.0, 1.742426419539554E9, 0.0, 2025-03-19 18:20:19.539
196.0, -23045.095568310688, -25959.718341793818, -33508.0589065622, -12038.090770017001, -4080.266246827394, 6131.3964285131015, -9380.915389170097, -24451.69084688316, 7684.932075134764, -22415.178706071223, -6493.695854389174, 14360.45937066786, -10760.286242996008, -11529.275659236391, -9994.64958842392, -20542.795424794607, 0.0318743896484375, 0.9748388671875, 0.095225341796875, 192.0, 0.5, 0.0, 15.0, 48.0, 1.5, 0.0, 0.0, 0.0, 0.0, 1.74242641959839E9, 0.0, 2025-03-19 18:20:19.598
198.0, -23060.60767896267, -25972.95057451136, -33509.08708680714, -12038.00136303918, -4076.1758775920725, 6131.888166891118, -9384.938703172053, -24444.65004737974, 7669.934054605253, -22418.129136339325, -6510.280848775012, 14341.013352991744, -10757.447571450182, -11535.891775595162, -9992.54852444512, -20553.25604119969, 0.0318743896484375, 0.9748388671875, 0.095225341796875, 192.0, 0.0, 0.0, 0.0, 0.0, 0.0, 0.0, 0.0, 0.0, 0.0, 1.74242641959861E9, 0.0, 2025-03-19 18:20:19.598
200.0, -23077.349135559696, -25988.70855435235, -33509.13179029606, -12047.970241066247, -4080.7132817164998, 6127.507224977878, -9381.161258359107, -24454.194242262154, 7663.049717313018, -22429.30500856698, -6511.733712164607, 14343.404989648461, -10761.001498818578, -11535.4223889616, -9997.063576825092, -20551.914936532372, 0.0318743896484375, 0.9748388671875, 0.095225341796875, 192.0, 0.0, 0.0, 0.0, 0.0, 0.0, 0.0, 0.0, 0.0, 0.0, 1.742426419598809E9, 0.0, 2025-03-19 18:20:19.598
202.0, -23085.507522285883, -25996.665775378442, -33508.01420307329, -12045.109217775967, -4079.5286392603684, 6123.908594120574, -9395.801650977332, -24451.042646293958, 7653.37141196387, -22434.11063362487, -6524.2059855706675, 14325.545945828671, -10762.65552790827, -11547.67114492311, -9996.773004147173, -20561.414427925876, 0.0318743896484375, 0.9748388671875, 0.095225341796875, 192.0, 0.0, 0.0, 0.0, 0.0, 0.0, 0.0, 0.0, 0.0, 0.0, 1.742426419599012E9, 0.0, 2025-03-19 18:20:19.599
204.0, -23096.683394513537, -26009.58508367361, -33518.00543284481, -12051.457113201275, -4088.37993006467, 6124.310925520769, -9388.492630540446, -24459.536309186973, 7653.103191030406, -22438.15629937128, -6523.937764637204, 14331.469158109327, -10770.545693700993, -11542.28437450938, -10001.22100129378, -20555.558270878588, 0.0318743896484375, 0.9748388671875, 0.095225341796875, 192.0, 0.0, 0.0, 0.0, 0.0, 0.0, 0.0, 0.0, 0.0, 0.0, 1.742426419599212E9, 0.0, 2025-03-19 18:20:19.599
206.0, -23088.927339187543, -26003.594816159584, -33506.47193270587, -12041.443531685298, -4077.1817060925614, 6125.741437165909, -9395.041691665852, -24448.002809048037, 7652.0973625299175, -22439.139776127315, -6530.643287973797, 14315.331198612595, -10764.868350609346, -11548.699325168052, -9999.07523382607, -20564.744837849717, 0.02993719482421875, 0.97341943359375, 0.0956126708984375, 192.0, 0.0, 112.0, 15.0, 48.0, 1.5, 0.0, 0.0, 0.0, 0.0, 1.742426419599414E9, 0.0, 2025-03-19 18:20:19.599
208.0, -23094.828199723746, -26005.785287116207, -33512.596310686626, -12049.758380622672, -4084.9824649074635, 6132.40225701359, -9375.6627292231, -24450.103873026834, 7663.943787091231, -22437.888078437816, -6520.04856110198, 14327.31173364064, -10763.057859308465, -11537.389342473667, -9995.36484424649, -20550.909108031883, 0.02993719482421875, 0.97341943359375, 0.0956126708984375, 192.0, 0.0, 0.0, 0.0, 0.0, 0.0, 0.0, 0.0, 0.0, 0.0, 1.742426419599625E9, 0.0, 2025-03-19 18:20:19.599
210.0, -23088.748525231902, -25999.81737134664, -33504.974365827366, -12044.840996842504, -4081.3614823057037, 6125.473216232445, -9390.750156730433, -24448.203974748132, 7652.969080563675, -22437.195174359702, -6528.8998519062825, 14317.700483524857, -10767.148228543787, -11545.368915244213, -9999.924600115372, -20558.06166625758, 0.02993719482421875, 0.97341943359375, 0.0956126708984375, 192.0, 0.0, 0.0, 0.0, 0.0, 0.0, 0.0, 0.0, 0.0, 0.0, 1.742426419658059E9, 0.0, 2025-03-19 18:20:19.658
212.0, -23097.19748463601, -26006.411135960956, -33516.12788631057, -12051.77003762365, -4090.123366132184, 6131.5081872353785, -9373.069926866285, -24451.13205327178, 7659.3169759889815, -22437.284581337524, -6523.870709403838, 14326.462367351338, -10769.763382645056, -11537.23288026248, -9998.583495448052, -20552.29491618811, 0.02993719482421875, 0.97341943359375, 0.0956126708984375, 192.0, 0.0, 0.0, 0.0, 0.0, 0.0, 0.0, 0.0, 0.0, 0.0, 1.742426419658314E9, 0.0, 2025-03-19 18:20:19.658
214.0, -23092.525970044848, -26003.930092326416, -33511.0093368303, -12046.830302099026, -4090.4362905545586, 6121.092274319205, -9399.6685027681, -24454.060131795424, 7645.011859537585, -22441.73257848413, -6533.7725321975395, 14315.442957334872, -10776.982996104121, -11545.324211755302, -10006.27249554068, -20555.133587733937, 0.02993719482421875, 0.97341943359375, 0.0956126708984375, 192.0, 0.0, 0.0, 0.0, 0.0, 0.0, 0.0, 0.0, 0.0, 0.0, 1.742426419658517E9, 0.0, 2025-03-19 18:20:19.658
216.0, -23084.23347285193, -25993.067144521137, -33508.72945889586, -12040.460054929265, -4082.3002555728267, 6137.587861727222, -9371.14767684313, -24443.107777012323, 7659.495789944624, -22433.909467924772, -6523.669543703741, 14323.936620227889, -10770.098658811887, -11536.76349362892, -10001.600980949519, -20555.35710517849, 0.028968597412109373, 0.974709716796875, 0.09280633544921875, 192.0, 0.0, 112.0, 15.0, 64.0, 1.0, 104.0, 0.0, 0.0, 0.0, 1.742426419658779E9, 0.0, 2025-03-19 18:20:19.658
218.0, -23083.47351354045, -25985.84753106207, -33510.38348798555, -12037.554328150074, -4084.9601131630084, 6129.563585467767, -9394.639360265655, -24445.901745069237, 7659.652252155812, -22425.035825376013, -6520.383837268811, 14330.820957520124, -10763.639004664303, -11531.019095303905, -9994.068443068081, -20545.72350331825, 0.028968597412109373, 0.974709716796875, 0.09280633544921875, 192.0, 0.0, 0.0, 0.0, 0.0, 0.0, 0.0, 0.0, 0.0, 0.0, 1.742426419659E9, 0.0, 2025-03-19 18:20:19.659
220.0, -23077.840873937712, -25976.41509490193, -33509.243549018334, -12035.028581026625, -4086.4353282970583, 6141.633527473632, -9370.275958809372, -24442.45957642312, 7665.1284295473615, -22415.513982238055, -6516.8075581559615, 14338.97934424631, -10762.722583141636, -11524.581792900777, -9995.834230880051, -20547.53399461913, 0.028968597412109373, 0.974709716796875, 0.09280633544921875, 192.0, 0.0, 0.0, 0.0, 0.0, 0.0, 0.0, 0.0, 0.0, 0.0, 1.742426419659193E9, 0.0, 2025-03-19 18:20:19.659
222.0, -23080.791304205814, -25978.85143504756, -33513.13275255355, -12043.254022986177, -4094.280790600871, 6126.099065077194, -9389.85608695222, -24443.755977601526, 7655.785400365044, -22420.63253171832, -6522.306087291967, 14338.956992501855, -10768.489333211104, -11527.934554569072, -10001.757443160706, -20545.790558551616, 0.028968597412109373, 0.974709716796875, 0.09280633544921875, 192.0, 0.0, 0.0, 0.0, 0.0, 0.0, 0.0, 0.0, 0.0, 0.0, 1.742426419659395E9, 0.0, 2025-03-19 18:20:19.659
224.0, -23067.447312765995, -25962.534661595186, -33511.05404031921, -12039.744799106695, -4085.250685840927, 6141.097085606705, -9360.41883950458, -24436.02227401999, 7659.361679477893, -22407.57911295642, -6522.216680314145, 14341.728608814314, -10761.023850563031, -11525.006476045428, -9997.152983802913, -20555.133587733937, 0.028968597412109373, 0.974709716796875, 0.09280633544921875, 192.0, 0.0, 0.0, 0.0, 0.0, 0.0, 0.0, 0.0, 0.0, 0.0, 1.742426419659592E9, 0.0, 2025-03-19 18:20:19.659
226.0, -23060.920603385046, -25955.024475458205, -33510.428191474464, -12039.409522939864, -4084.803650951821, 6139.443056517012, -9376.825019934777, -24432.580105373872, 7660.568673678479, -22400.873589619827, -6515.332343021911, 14351.473969396828, -10754.899472582278, -11516.915144552606, -9996.951818102816, -20550.88675628743, 0.029484298706054686, 0.9773548583984375, 0.09240316772460938, 192.0, 0.0, 120.0, 15.0, 80.0, 1.0, 112.0, 0.0, 0.0, 0.0, 1.742426419718297E9, 0.0, 2025-03-19 18:20:19.718
228.0, -23057.65724869457, -25954.018646957717, -33521.42524974648, -12049.244290500199, -4085.09422362974, 6149.076658377249, -9357.42370574757, -24435.0164455195, 7660.613377167389, -22404.561627454954, -6515.779377911017, 14341.728608814314, -10750.004440546565, -11520.580830643277, -9999.097585570526, -20558.039314513127, 0.029484298706054686, 0.9773548583984375, 0.09240316772460938, 192.0, 0.0, 0.0, 0.0, 0.0, 0.0, 0.0, 0.0, 0.0, 0.0, 1.742426419718548E9, 0.0, 2025-03-19 18:20:19.718
230.0, -23052.9410306145, -25948.90009747745, -33528.30958703871, -12052.775866124139, -4085.1165753741952, 6142.482893762934, -9371.997043132431, -24438.32450369889, 7659.205217266705, -22407.53440946751, -6512.471319731631, 14344.343762915583, -10746.562271900448, -11520.312609709814, -10003.970265861783, -20551.64671559891, 0.029484298706054686, 0.9773548583984375, 0.09240316772460938, 192.0, 0.0, 0.0, 0.0, 0.0, 0.0, 0.0, 0.0, 0.0, 0.0, 1.742426419718751E9, 0.0, 2025-03-19 18:20:19.718
232.0, -23040.111129297155, -25934.349111837044, -33530.701223695425, -12048.976069566736, -4080.1768398495724, 6155.223388102459, -9347.700696909511, -24431.35075942883, 7656.5006561876135, -22401.99117684259, -6511.554898208964, 14339.381675646506, -10743.45537942116, -11520.781996343374, -10000.773966404673, -20550.64088709842, 0.029484298706054686, 0.9773548583984375, 0.09240316772460938, 192.0, 0.0, 0.0, 0.0, 0.0, 0.0, 0.0, 0.0, 0.0, 0.0, 1.74242641971895E9, 0.0, 2025-03-19 18:20:19.718
234.0, -23032.17626001552, -25926.973036166793, -33532.53406674076, -12051.680630645827, -4079.5956944937343, 6150.194245600015, -9357.580167958757, -24435.329369941875, 7663.206179524205, -22393.229293016113, -6495.707511390151, 14359.095914256086, -10738.31447819644, -11512.958885784017, -9996.571838447075, -20536.939267747315, 0.029484298706054686, 0.9773548583984375, 0.09240316772460938, 192.0, 0.0, 0.0, 0.0, 0.0, 0.0, 0.0, 0.0, 0.0, 0.0, 1.742426419719152E9, 0.0, 2025-03-19 18:20:19.719
236.0, -23014.473678406917, -25911.79620168164, -33524.80036315922, -12042.136435763412, -4066.631682709656, 6167.561551041788, -9333.50733918039, -24419.0125964895, 7670.671662172278, -22387.23902550209, -6490.14192702078, 14350.26697519624, -10728.278544936007, -11514.769377084896, -9991.185068033346, -20546.148186462902, 0.028742149353027345, 0.9776774291992187, 0.09220158386230469, 192.0, 0.0, 112.0, 15.0, 72.0, 1.0, 112.0, 0.0, 0.0, 0.0, 1.742426419719357E9, 0.0, 2025-03-19 18:20:19.719
238.0, -23011.590303372184, -25911.2150563258, -33532.511714996304, -12048.350220721988, -4068.911560644098, 6163.001795172906, -9343.319754996272, -24422.052433735425, 7678.584179709456, -22385.607348156853, -6473.825153568406, 14365.220292236841, -10723.74114081158, -11500.4642606335, -9985.351262730512, -20523.885848985417, 0.028742149353027345, 0.9776774291992187, 0.09220158386230469, 192.0, 0.0, 0.0, 0.0, 0.0, 0.0, 0.0, 0.0, 0.0, 0.0, 1.742426419719571E9, 0.0, 2025-03-19 18:20:19.719
240.0, -23001.17439045601, -25902.162599821404, -33529.04719460574, -12043.701057875283, -4060.8872843846425, 6168.187399886537, -9336.837749104232, -24417.090346466346, 7682.003996611118, -22383.32747022241, -6474.741575091073, 14352.256280452762, -10721.394207643772, -11507.259190947914, -9986.848829609016, -20533.675913056843, 0.028742149353027345, 0.9776774291992187, 0.09220158386230469, 192.0, 0.0, 0.0, 0.0, 0.0, 0.0, 0.0, 0.0, 0.0, 0.0, 1.742426419778657E9, 0.0, 2025-03-19 18:20:19.778
242.0, -22999.162733455032, -25902.497875988232, -33531.125906840076, -12048.797255611093, -4062.988348363441, 6165.12521089616, -9337.70946713799, -24417.559733099908, 7689.223610070183, -22385.786162112494, -6459.117705716813, 14369.26595798325, -10724.009361745044, -11499.36902515519, -9982.713756884785, -20523.12588967394, 0.028742149353027345, 0.9776774291992187, 0.09220158386230469, 192.0, 0.0, 0.0, 0.0, 0.0, 0.0, 0.0, 0.0, 0.0, 0.0, 1.742426419778864E9, 0.0, 2025-03-19 18:20:19.778
244.0, -22992.099582207156, -25893.825399139572, -33531.84116266265, -12046.115046276456, -4056.841618638232, 6165.594597529722, -9337.03891480433, -24418.319692411387, 7688.351892036426, -22383.081601033402, -6464.70564183064, 14355.631393865515, -10721.304800665952, -11507.907391537117, -9983.272550496167, -20536.089901458014, 0.028742149353027345, 0.9776774291992187, 0.09220158386230469, 192.0, 0.0, 0.0, 0.0, 0.0, 0.0, 0.0, 0.0, 0.0, 0.0, 1.742426419779063E9, 0.0, 2025-03-19 18:20:19.779
246.0, -22987.517474593817, -25890.606747938007, -33536.24445632034, -12046.696191632294, -4056.796915149321, 6164.856989962696, -9335.60840315919, -24420.711329068105, 7699.527764264079, -22378.00775504205, -6451.026374223992, 14374.965652819355, -10720.053102976455, -11496.910333265107, -9979.651567894409, -20528.535011832122, 0.026371074676513673, 0.9738387145996094, 0.09510079193115234, 192.0, 0.0, 96.0, 15.0, 40.0, 1.5, 8.0, 0.0, 0.0, 0.0, 1.742426419779266E9, 0.0, 2025-03-19 18:20:19.779
248.0, -22984.0753059477, -25885.823474624573, -33535.90918015351, -12039.00719153967, -4056.1487145601172, 6168.589731286733, -9340.525786939357, -24413.625826075775, 7697.38199679637, -22377.068981774926, -6457.217807438113, 14360.816998579145, -10721.573021599415, -11504.08524323526, -9982.177315017858, -20538.90622125938, 0.026371074676513673, 0.9738387145996094, 0.09510079193115234, 192.0, 0.0, 0.0, 0.0, 0.0, 0.0, 0.0, 0.0, 0.0, 0.0, 1.742426419779479E9, 0.0, 2025-03-19 18:20:19.779
250.0, -22987.048087960255, -25887.522207203176, -33541.92179941199, -12037.911956061358, -4060.8649326401874, 6172.233065632948, -9340.07875205025, -24422.45476513562, 7701.293552076048, -22375.95139455216, -6451.696926557652, 14376.105591786576, -10726.959792013144, -11492.529391351867, -9982.333777229045, -20525.852802497484, 0.026371074676513673, 0.9738387145996094, 0.09510079193115234, 192.0, 0.0, 0.0, 0.0, 0.0, 0.0, 0.0, 0.0, 0.0, 0.0, 1.742426419779678E9, 0.0, 2025-03-19 18:20:19.779
252.0, -22979.582605312182, -25878.715619887786, -33539.708976710914, -12031.47465365823, -4057.847447138721, 6168.522676053367, -9352.640432434135, -24423.482945380565, 7703.059339888017, -22368.217690970625, -6455.094391714859, 14373.289271985206, -10722.891774522279, -11497.335016409757, -9981.059727795093, -20532.49127060071, 0.026371074676513673, 0.9738387145996094, 0.09510079193115234, 192.0, 0.0, 0.0, 0.0, 0.0, 0.0, 0.0, 0.0, 0.0, 0.0, 1.742426419779879E9, 0.0, 2025-03-19 18:20:19.779
254.0, -22974.799331998747, -25874.245270996726, -33532.668177207495, -12027.38428442291, -4058.741516916933, 6172.8365627332405, -9336.524824681857, -24420.376052901276, 7712.6705900038, -22366.071923502914, -6445.03610670997, 14387.348519247595, -10719.449605876162, -11485.55564708181, -9978.086945782536, -20525.271657141646, 0.026371074676513673, 0.9738387145996094, 0.09510079193115234, 192.0, 0.0, 0.0, 0.0, 0.0, 0.0, 0.0, 0.0, 0.0, 0.0, 1.74242641978008E9, 0.0, 2025-03-19 18:20:19.780
0.0, -22964.651640016036, -25866.802140093107, -33524.755659670314, -12022.846880298483, -4053.9805953479527, 6163.292367850825, -9350.740534155433, -24417.805602288914, 7708.244944601649, -22366.67542060321, -6451.56281609092, 14376.776144120235, -10722.936478011188, -11495.993911742438, -9982.132611528947, -20531.172517677845, 0.030185537338256838, 0.9739193572998046, 0.09655039596557617, 192.0, 0.5, 8.0, 15.0, 56.0, 1.5, 8.0, 0.0, 0.0, 0.0, 1.742426419838946E9, 0.0, 2025-03-19 18:20:19.838
2.0, -22964.651640016036, -25867.964430804783, -33520.0617933347, -12027.47369140073, -4055.1428860596284, 6165.7287079964535, -9327.204147243994, -24419.4149278897, 7722.795930242054, -22363.166196723723, -6438.040010695459, 14388.734327403823, -10714.040483717978, -11486.963806982494, -9971.381422445944, -20518.566133805052, 0.030185537338256838, 0.9739193572998046, 0.09655039596557617, 192.0, 0.0, 0.0, 0.0, 0.0, 0.0, 0.0, 0.0, 0.0, 0.0, 1.742426419839194E9, 0.0, 2025-03-19 18:20:19.839
4.0, -22965.903337705535, -25872.278317484655, -33528.7119184389, -12034.603897881974, -4066.385813520648, 6152.4070683010905, -9361.312909282793, -24429.07088149439, 7713.497604548646, -22368.932946793193, -6449.215882923113, 14374.250396996786, -10722.9811815001, -11500.531315866867, -9985.21715226378, -20530.658427555376, 0.030185537338256838, 0.9739193572998046, 0.09655039596557617, 192.0, 0.0, 0.0, 0.0, 0.0, 0.0, 0.0, 0.0, 0.0, 0.0, 1.742426419839425E9, 0.0, 2025-03-19 18:20:19.839
6.0, -22961.276526603287, -25868.634983138443, -33525.22504630387, -12034.335676948509, -4062.4742582409694, 6166.98040568595, -9335.47429269246, -24422.343006413343, 7718.683209262277, -22365.356667680346, -6442.689173542163, 14381.51471394476, -10720.544841354471, -11492.395280885135, -9984.479544696755, -20530.367854877455, 0.030185537338256838, 0.9739193572998046, 0.09655039596557617, 192.0, 0.0, 0.0, 0.0, 0.0, 0.0, 0.0, 0.0, 0.0, 0.0, 1.742426419839642E9, 0.0, 2025-03-19 18:20:19.839
8.0, -22961.365933581106, -25871.11602677298, -33528.01901436079, -12040.102427017979, -4066.028185609363, 6150.775390955853, -9363.123400583674, -24430.97077977309, 7715.464558060713, -22371.99513578357, -6449.931138745683, 14371.188208006408, -10720.92482101021, -11501.42538564508, -9991.319178500078, -20535.575811335544, 0.030185537338256838, 0.9739193572998046, 0.09655039596557617, 192.0, 0.0, 0.0, 0.0, 0.0, 0.0, 0.0, 0.0, 0.0, 0.0, 1.742426419839844E9, 0.0, 2025-03-19 18:20:19.839
10.0, -22952.715808476903, -25861.75064584621, -33517.93837761145, -12031.42995016932, -4054.7182029149776, 6168.589731286733, -9328.36643795567, -24421.292474423943, 7722.639468030867, -22363.724990335108, -6441.079847941381, 14379.905388343977, -10713.615800573327, -11491.858839018207, -9979.74097487223, -20530.993703722204, 0.03309276866912842, 0.9739596786499023, 0.10027519798278808, 192.0, 0.5, 16.0, 15.0, 56.0, 1.5, 32.0, 0.0, 0.0, 0.0, 1.742426419840042E9, 0.0, 2025-03-19 18:20:19.840
12.0, -22949.474805530885, -25858.68845685583, -33515.47968572136, -12030.357066435465, -4052.1254005581623, 6155.782181713842, -9352.551025456312, -24427.238038449057, 7723.868813975909, -22365.736647336085, -6437.458865339621, 14378.765449376757, -10709.368969126817, -11496.820926287286, -9977.5058004267, -20528.378549620935, 0.03309276866912842, 0.9739596786499023, 0.10027519798278808, 192.0, 0.0, 0.0, 0.0, 0.0, 0.0, 0.0, 0.0, 0.0, 0.0, 1.742426419840251E9, 0.0, 2025-03-19 18:20:19.840
14.0, -22948.245459585843, -25860.610706878986, -33515.0102990878, -12036.481444416218, -4053.3323947587487, 6159.425516060057, -9336.413065959581, -24429.5179163835, 7726.10398842144, -22364.70846709114, -6437.280051383978, 14378.787801121212, -10707.513774337027, -11497.46912687649, -9980.79150686163, -20532.513622345166, 0.03309276866912842, 0.9739596786499023, 0.10027519798278808, 192.0, 0.0, 0.0, 0.0, 0.0, 0.0, 0.0, 0.0, 0.0, 0.0, 1.742426419898449E9, 0.0, 2025-03-19 18:20:19.898
16.0, -22956.02386665629, -25866.73508485974, -33524.80036315922, -12043.85752008647, -4063.7483076749218, 6147.668498476565, -9364.531560484358, -24430.143765228244, 7724.271145376104, -22372.95626079515, -6442.488007842066, 14376.262053997763, -10716.789748285979, -11503.973484512984, -9987.049995309115, -20532.96065723427, 0.03309276866912842, 0.9739596786499023, 0.10027519798278808, 192.0, 0.0, 0.0, 0.0, 0.0, 0.0, 0.0, 0.0, 0.0, 0.0, 1.742426419898688E9, 0.0, 2025-03-19 18:20:19.898
18.0, -22963.042314415256, -25870.60193665051, -33519.32418576768, -12045.332735220521, -4065.0894123422404, 6157.682079992543, -9344.437342219037, -24429.137936727755, 7715.978648183185, -22372.82215032842, -6455.273205670501, 14366.561396904159, -10720.321323909919, -11508.08620549276, -9990.179239532858, -20540.515546860166, 0.03309276866912842, 0.9739596786499023, 0.10027519798278808, 192.0, 0.0, 0.0, 0.0, 0.0, 0.0, 0.0, 0.0, 0.0, 0.0, 1.742426419898896E9, 0.0, 2025-03-19 18:20:19.898
20.0, -22955.576831767183, -25863.047047024615, -33509.511769951794, -12036.682610116317, -4058.227426794461, 6153.5246555238555, -9355.90378712461, -24423.79586980294, 7712.447072559246, -22370.363458438333, -6458.424801638699, 14371.165856261952, -10723.651733833758, -11502.900600779129, -9989.978073832759, -20534.63703806842, 0.031546384334564206, 0.9769798393249511, 0.09713759899139404, 192.0, 0.0, 120.0, 15.0, 80.0, 1.0, 120.0, 0.0, 0.0, 0.0, 1.7424264198991E9, 0.0, 2025-03-19 18:20:19.899
22.0, -22955.48742478936, -25861.16950049037, -33509.46706646289, -12030.893508302392, -4053.9805953479527, 6170.690795265531, -9334.312001980783, -24416.665663321695, 7719.3090581070255, -22359.835786799882, -6456.591958593364, 14372.149333017986, -10717.035617474989, -11495.993911742438, -9981.573817917564, -20535.1958316798, 0.031546384334564206, 0.9769798393249511, 0.09713759899139404, 192.0, 0.0, 0.0, 0.0, 0.0, 0.0, 0.0, 0.0, 0.0, 0.0, 1.742426419899325E9, 0.0, 2025-03-19 18:20:19.899
24.0, -22968.004401684335, -25874.08880878554, -33522.29696778023, -12040.728275862728, -4065.737612931444, 6154.4634287909785, -9359.547121470825, -24430.277875694977, 7708.043778901551, -22371.212824727634, -6461.6881563291745, 14374.22804525233, -10728.055027491455, -11496.195077442537, -9990.02277732167, -20526.456299597776, 0.031546384334564206, 0.9769798393249511, 0.09713759899139404, 192.0, 0.0, 0.0, 0.0, 0.0, 0.0, 0.0, 0.0, 0.0, 0.0, 1.742426419899522E9, 0.0, 2025-03-19 18:20:19.899
26.0, -22951.464110787405, -25857.45911091079, -33514.71972640988, -12028.61363036795, -4055.4111069930923, 6171.338995854735, -9346.024316075363, -24417.60443658882, 7708.110834134917, -22367.793007825974, -6465.107973230836, 14365.868492826045, -10722.288277421985, -11501.000702500427, -9989.061652310093, -20535.48640435772, 0.031546384334564206, 0.9769798393249511, 0.09713759899139404, 192.0, 0.0, 0.0, 0.0, 0.0, 0.0, 0.0, 0.0, 0.0, 0.0, 1.74242641989972E9, 0.0, 2025-03-19 18:20:19.899
28.0, -22952.291125332253, -25858.174366733358, -33512.596310686626, -12031.42995016932, -4056.6628046825895, 6167.002757430406, -9355.166179557584, -24423.617055847295, 7723.220613386705, -22359.299344932955, -6450.08760095687, 14385.828600624634, -10715.426291874206, -11487.366138382691, -9980.07625103906, -20520.846011739497, 0.031546384334564206, 0.9769798393249511, 0.09713759899139404, 192.0, 0.0, 0.0, 0.0, 0.0, 0.0, 0.0, 0.0, 0.0, 0.0, 1.742426419899924E9, 0.0, 2025-03-19 18:20:19.899
30.0, -22954.436892799964, -25861.460073168288, -33514.98794734335, -12039.834206084515, -4061.4013745071147, 6161.772449227864, -9354.607385946201, -24429.473212894587, 7710.882450447375, -22372.062191016936, -6462.023432496004, 14364.996774792287, -10722.757664055547, -11504.554629868822, -9989.665149410386, -20541.02963698264, 0.031773192167282104, 0.9784899196624756, 0.09556879949569702, 192.0, 0.5, 0.0, 15.0, 80.0, 1.0, 120.0, 0.0, 0.0, 0.0, 1.74242641995867E9, 0.0, 2025-03-19 18:20:19.958
32.0, -22955.085093389167, -25861.907108057396, -33515.83731363265, -12038.850729328482, -4061.6919471850333, 6163.515885295378, -9354.339165012738, -24426.679244837673, 7721.43247383028, -22367.502435148053, -6451.808685279928, 14379.681870899425, -10719.762530298536, -11494.205772186015, -9982.69140514033, -20530.569020577554, 0.031773192167282104, 0.9784899196624756, 0.09556879949569702, 192.0, 0.0, 0.0, 0.0, 0.0, 0.0, 0.0, 0.0, 0.0, 0.0, 1.742426419958919E9, 0.0, 2025-03-19 18:20:19.958
34.0, -22952.760511965815, -25859.11314000048, -33514.1609327985, -12037.196700238788, -4056.774563404866, 6165.08050740725, -9346.270185264371, -24424.30995992541, 7716.246869116649, -22366.340144436377, -6458.938891761171, 14367.611928893559, -10717.25913491954, -11502.475917634478, -9982.914922584883, -20539.755587548683, 0.031773192167282104, 0.9784899196624756, 0.09556879949569702, 192.0, 0.0, 0.0, 0.0, 0.0, 0.0, 0.0, 0.0, 0.0, 0.0, 1.742426419959135E9, 0.0, 2025-03-19 18:20:19.959
36.0, -22949.34069506415, -25857.123834743958, -33516.53021771076, -12036.682610116317, -4056.2381215379387, 6164.879341707152, -9345.08554280824, -24426.433375648663, 7725.098159920951, -22366.965993281126, -6448.567682333909, 14381.313548244661, -10716.320361652419, -11494.809269286308, -9979.875085338961, -20527.953866476284, 0.031773192167282104, 0.9784899196624756, 0.09556879949569702, 192.0, 0.0, 0.0, 0.0, 0.0, 0.0, 0.0, 0.0, 0.0, 0.0, 1.742426419959341E9, 0.0, 2025-03-19 18:20:19.959
38.0, -22945.987933395856, -25853.860480053485, -33511.16579904149, -12032.61459262545, -4052.4159732360813, 6168.075641164261, -9343.833845118743, -24427.282741937965, 7723.555889553534, -22358.38292341029, -6450.7134498016185, 14371.523484173238, -10708.050216203954, -11498.31849316579, -9978.131649271447, -20533.16182293437, 0.031773192167282104, 0.9784899196624756, 0.09556879949569702, 192.0, 0.0, 0.0, 0.0, 0.0, 0.0, 0.0, 0.0, 0.0, 0.0, 1.742426419959545E9, 0.0, 2025-03-19 18:20:19.959
40.0, -22949.9665439089, -25857.235593466234, -33515.92672061047, -12034.827415326527, -4055.7463831599216, 6171.115478410182, -9337.955336326997, -24422.722986069082, 7720.404293585336, -22363.52382463501, -6447.628909066786, 14383.28050175673, -10718.60023958686, -11492.574094840777, -9981.640873150931, -20522.276523384637, 0.029886596083641054, 0.9802449598312377, 0.09578439974784851, 192.0, 0.0, 112.0, 15.0, 88.0, 1.5, 0.0, 0.0, 0.0, 0.0, 1.742426419959748E9, 0.0, 2025-03-19 18:20:19.959
42.0, -22947.44079678545, -25853.838128309028, -33506.89661585052, -12030.558232135563, -4047.8785691116536, 6172.188362144037, -9344.683211408044, -24416.710366810607, 7725.142863409861, -22361.355705422844, -6452.211016680124, 14369.042440538698, -10711.492384850071, -11499.816060044297, -9976.589378904031, -20525.741043775208, 0.029886596083641054, 0.9802449598312377, 0.09578439974784851, 192.0, 0.0, 0.0, 0.0, 0.0, 0.0, 0.0, 0.0, 0.0, 0.0, 1.742426419959957E9, 0.0, 2025-03-19 18:20:19.959
44.0, -22956.605012012125, -25864.63402088094, -33516.865493877594, -12040.460054929265, -4055.969900604475, 6167.740364997431, -9337.396542715614, -24424.332311669867, 7729.8143780010205, -22364.507301391044, -6446.444266610654, 14379.03367031022, -10712.587620328382, -11492.03765297385, -9974.845942836517, -20515.77216574814, 0.029886596083641054, 0.9802449598312377, 0.09578439974784851, 192.0, 0.0, 0.0, 0.0, 0.0, 0.0, 0.0, 0.0, 0.0, 0.0, 1.742426420018519E9, 0.0, 2025-03-19 18:20:20.018
46.0, -22955.219203855897, -25863.002343535703, -33517.67015667798, -12040.616517140452, -4057.4674674829803, 6155.715126480476, -9354.339165012738, -24426.947465771136, 7716.693904005755, -22375.2808422185, -6462.068135984914, 14358.537120644703, -10719.986047743088, -11511.550725883333, -9986.982940075748, -20536.089901458014, 0.029886596083641054, 0.9802449598312377, 0.09578439974784851, 192.0, 0.0, 0.0, 0.0, 0.0, 0.0, 0.0, 0.0, 0.0, 0.0, 1.742426420018762E9, 0.0, 2025-03-19 18:20:20.018
48.0, -22952.961677665913, -25863.11410225798, -33522.00639510231, -12044.125741019934, -4061.379022762659, 6156.609196258688, -9341.486911950937, -24434.010617019012, 7723.913517464819, -22369.71525784913, -6450.914615501716, 14377.692565642903, -10721.97535299961, -11501.000702500427, -9981.730280128751, -20531.3960351224, 0.029886596083641054, 0.9802449598312377, 0.09578439974784851, 192.0, 0.0, 0.0, 0.0, 0.0, 0.0, 0.0, 0.0, 0.0, 0.0, 1.742426420018972E9, 0.0, 2025-03-19 18:20:20.018
50.0, -22947.8654799301, -25859.06843651157, -33517.82661888917, -12038.76132235066, -4057.7580401608993, 6153.994042157417, -9358.8095139038, -24430.993131517545, 7722.237136630672, -22372.844502072872, -6458.648319083252, 14362.89571081349, -10724.478748378606, -11512.265981705903, -9984.725413885762, -20543.108349216982, 0.028943298041820525, 0.9801224799156188, 0.09489219987392425, 192.0, 0.0, 112.0, 15.0, 80.0, 1.0, 120.0, 0.0, 0.0, 0.0, 1.742426420019187E9, 0.0, 2025-03-19 18:20:20.019
52.0, -22943.73040720587, -25854.59808762051, -33512.10457230861, -12036.481444416218, -4054.0923540702292, 6166.443963819023, -9336.189548515029, -24425.60636110382, 7729.948488467752, -22366.071923502914, -6444.499664843043, 14378.497228443293, -10718.913164009235, -11497.267961176392, -9973.795410847117, -20534.078244457036, 0.028943298041820525, 0.9801224799156188, 0.09489219987392425, 192.0, 0.0, 0.0, 0.0, 0.0, 0.0, 0.0, 0.0, 0.0, 0.0, 1.742426420019404E9, 0.0, 2025-03-19 18:20:20.019
54.0, -22949.16188110851, -25859.336657445034, -33519.81592414569, -12041.421179940842, -4060.5967117067235, 6153.368193312668, -9364.240987806439, -24433.049492007434, 7726.841595988464, -22368.552967137453, -6454.446191125655, 14372.305795229173, -10725.26105943454, -11507.125080481183, -9983.160791773891, -20541.946058505306, 0.028943298041820525, 0.9801224799156188, 0.09489219987392425, 192.0, 0.0, 0.0, 0.0, 0.0, 0.0, 0.0, 0.0, 0.0, 0.0, 1.742426420019606E9, 0.0, 2025-03-19 18:20:20.019
56.0, -22951.374703809586, -25861.370666190465, -33522.811057902705, -12044.550424164585, -4062.2283890519607, 6160.654862005099, -9342.380981729148, -24431.864849551304, 7727.713314022221, -22367.077752003403, -6453.082734713881, 14376.88790284251, -10726.065722234933, -11503.36998741269, -9985.910056341894, -20538.369779392455, 0.028943298041820525, 0.9801224799156188, 0.09489219987392425, 192.0, 0.0, 0.0, 0.0, 0.0, 0.0, 0.0, 0.0, 0.0, 0.0, 1.742426420019805E9, 0.0, 2025-03-19 18:20:20.019
58.0, -22953.095788132643, -25866.82449183756, -33521.134677068556, -12046.696191632294, -4067.257531554405, 6146.260338575881, -9373.315796055293, -24439.330332199377, 7720.29253486306, -22374.81145558494, -6460.995252251059, 14366.673155626435, -10734.805254316958, -11511.684836350065, -9994.560181446097, -20544.292991673112, 0.028943298041820525, 0.9801224799156188, 0.09489219987392425, 192.0, 0.0, 0.0, 0.0, 0.0, 0.0, 0.0, 0.0, 0.0, 0.0, 1.742426420020007E9, 0.0, 2025-03-19 18:20:20.020
60.0, -22950.21241309791, -25863.248212724713, -33519.950034612426, -12041.95762180777, -4061.960168118497, 6161.392469572123, -9344.437342219037, -24433.58593387436, 7724.695828520755, -22369.804664826952, -6459.542388861464, 14367.991908549298, -10730.960754270644, -11505.85103104723, -9991.587399433542, -20543.935363761826, 0.030471649020910263, 0.9810612399578094, 0.09644609993696213, 192.0, 0.5, 0.0, 15.0, 88.0, 1.5, 8.0, 0.0, 0.0, 0.0, 1.742426420078829E9, 0.0, 2025-03-19 18:20:20.078
62.0, -22950.704151475926, -25861.191852234824, -33518.92185436748, -12039.565985151052, -4064.1729908195725, 6157.16798987007, -9367.504342496914, -24436.178736231177, 7728.383866355881, -22369.08940900438, -6459.22946443909, 14372.12698127353, -10728.74793156957, -11504.42051940209, -9994.180201790357, -20536.11225320247, 0.030471649020910263, 0.9810612399578094, 0.09644609993696213, 192.0, 0.0, 0.0, 0.0, 0.0, 0.0, 0.0, 0.0, 0.0, 0.0, 1.74242642007908E9, 0.0, 2025-03-19 18:20:20.079
64.0, -22955.956811422922, -25867.383285448945, -33521.49230497984, -12047.09852303249, -4067.61515946569, 6157.905597437096, -9354.56268245729, -24443.46540492361, 7725.075808176495, -22372.777446839507, -6459.56474060592, 14367.70133587138, -10731.631306604304, -11506.812156058808, -9994.604884935008, -20540.873174771452, 0.030471649020910263, 0.9810612399578094, 0.09644609993696213, 192.0, 0.0, 0.0, 0.0, 0.0, 0.0, 0.0, 0.0, 0.0, 0.0, 1.742426420079288E9, 0.0, 2025-03-19 18:20:20.079
66.0, -22954.660410244516, -25866.93625055984, -33518.675985178474, -12044.058685786567, -4066.251703053916, 6148.4731612769565, -9377.80849669081, -24442.571335145396, 7718.0126569286185, -22379.102990520358, -6463.029260996493, 14365.712030614857, -10738.135664240797, -11513.025941017384, -9998.69525417033, -20543.62243933945, 0.030471649020910263, 0.9810612399578094, 0.09644609993696213, 192.0, 0.0, 0.0, 0.0, 0.0, 0.0, 0.0, 0.0, 0.0, 0.0, 1.742426420079498E9, 0.0, 2025-03-19 18:20:20.079
68.0, -22952.224070098888, -25862.063570268583, -33508.617700173585, -12041.890566574404, -4061.1778570625615, 6158.173818370559, -9347.90186260961, -24436.44695716464, 7727.690962277766, -22371.212824727634, -6458.380098149789, 14367.053135282176, -10725.238707690085, -11510.790766571852, -9986.714719142285, -20542.706017816785, 0.030471649020910263, 0.9810612399578094, 0.09644609993696213, 192.0, 0.0, 0.0, 0.0, 0.0, 0.0, 0.0, 0.0, 0.0, 0.0, 1.742426420079703E9, 0.0, 2025-03-19 18:20:20.079
70.0, -22944.803290939726, -25856.78855857713, -33505.57786292766, -12034.223918226233, -4061.1778570625615, 6155.044574146817, -9360.575301715768, -24426.612189604308, 7728.4062181003355, -22371.883377061295, -6453.75328704754, 14378.743097632301, -10732.771245571525, -11507.885039792662, -9989.21811452128, -20534.458224112775, 0.031235824510455132, 0.9795306199789047, 0.09922304996848107, 192.0, 0.5, 0.0, 15.0, 72.0, 1.5, 24.0, 0.0, 0.0, 0.0, 1.742426420079904E9, 0.0, 2025-03-19 18:20:20.079
72.0, -22940.86938391559, -25853.34638993101, -33504.79555187173, -12030.245307713189, -4061.6248919516675, 6164.655824262599, -9347.968917842974, -24427.2156867046, 7733.323601880504, -22365.468426402622, -6453.8873975142715, 14377.781972620724, -10726.9821437576, -11508.399129915135, -9987.049995309115, -20532.692436300807, 0.031235824510455132, 0.9795306199789047, 0.09922304996848107, 192.0, 0.0, 0.0, 0.0, 0.0, 0.0, 0.0, 0.0, 0.0, 0.0, 1.742426420080126E9, 0.0, 2025-03-19 18:20:20.080
74.0, -22945.295029317742, -25856.386227176932, -33505.399048972016, -12032.61459262545, -4065.737612931444, 6157.659728248087, -9365.895016896131, -24433.40711991872, 7737.123398437906, -22361.84744380086, -6448.522978844998, 14389.293121015207, -10728.636172847293, -11499.123155966183, -9983.74193712973, -20522.343578618, 0.031235824510455132, 0.9795306199789047, 0.09922304996848107, 192.0, 0.0, 0.0, 0.0, 0.0, 0.0, 0.0, 0.0, 0.0, 0.0, 1.742426420139293E9, 0.0, 2025-03-19 18:20:20.139
76.0, -22944.177442094977, -25854.866308553974, -33500.95105182541, -12030.692342602295, -4061.446077996025, 6158.822018959763, -9354.875606879665, -24428.668550094197, 7728.33916286697, -22366.18368222519, -6457.977766749593, 14375.971481319844, -10729.910222281245, -11507.505060136922, -9987.83230636505, -20539.710884059776, 0.031235824510455132, 0.9795306199789047, 0.09922304996848107, 192.0, 0.0, 0.0, 0.0, 0.0, 0.0, 0.0, 0.0, 0.0, 0.0, 1.742426420139526E9, 0.0, 2025-03-19 18:20:20.139
78.0, -22941.53993624925, -25853.815776564574, -33500.34755472512, -12031.452301913776, -4060.8872843846425, 6151.781219456341, -9364.799781417822, -24431.574276873383, 7737.257508904638, -22365.021391513514, -6447.047763710948, 14387.572036692149, -10726.356294912852, -11500.978350755973, -9981.5067626842, -20530.703131044287, 0.031235824510455132, 0.9795306199789047, 0.09922304996848107, 192.0, 0.0, 0.0, 0.0, 0.0, 0.0, 0.0, 0.0, 0.0, 0.0, 1.742426420139734E9, 0.0, 2025-03-19 18:20:20.139
80.0, -22944.758587450815, -25850.664180596374, -33499.587595413635, -12024.85853729946, -4060.194380306528, 6161.951263183506, -9351.94752835602, -24426.254561693022, 7726.394561099359, -22361.08748448938, -6456.457848126633, 14377.022013309243, -10728.79263505848, -11504.80049905783, -9983.205495262802, -20537.788634036617, 0.031617912255227566, 0.9757653099894523, 0.09361152498424052, 192.0, 0.5, 0.0, 15.0, 48.0, 1.0, 96.0, 0.0, 0.0, 0.0, 1.742426420139937E9, 0.0, 2025-03-19 18:20:20.139
82.0, -22950.502985775827, -25862.60001213551, -33505.13082803856, -12033.195737981288, -4069.939740889042, 6149.389582799624, -9365.537388984847, -24438.235096721066, 7723.108854664428, -22366.89893804776, -6454.84852252585, 14386.968539591855, -10736.593393873382, -11500.08428097776, -9986.088870297537, -20530.211392666268, 0.031617912255227566, 0.9757653099894523, 0.09361152498424052, 192.0, 0.0, 0.0, 0.0, 0.0, 0.0, 0.0, 0.0, 0.0, 0.0, 1.742426420140151E9, 0.0, 2025-03-19 18:20:20.140
84.0, -22936.846069913634, -25849.367779417968, -33494.67021163347, -12020.075263986024, -4058.6521099391116, 6162.688870750531, -9357.42370574757, -24428.64619834974, 7730.239061145671, -22360.70750483364, -6456.211978937624, 14376.239702253308, -10728.479710636106, -11507.773281070386, -9982.803163862607, -20540.895526515906, 0.031617912255227566, 0.9757653099894523, 0.09361152498424052, 192.0, 0.0, 0.0, 0.0, 0.0, 0.0, 0.0, 0.0, 0.0, 0.0, 1.742426420140359E9, 0.0, 2025-03-19 18:20:20.140
86.0, -22936.734311191358, -25847.95961951728, -33488.72464760836, -12020.879926786414, -4056.416935493581, 6164.879341707152, -9359.94945287102, -24430.25552395052, 7737.145750182361, -22359.500510633054, -6445.550196832442, 14393.875228628545, -10727.65269609126, -11494.22812393047, -9981.573817917564, -20527.484479842722, 0.031617912255227566, 0.9757653099894523, 0.09361152498424052, 192.0, 0.0, 0.0, 0.0, 0.0, 0.0, 0.0, 0.0, 0.0, 0.0, 1.742426420140566E9, 0.0, 2025-03-19 18:20:20.140
88.0, -22931.548706477726, -25842.729311314743, -33482.756731838796, -12015.04612148358, -4052.617138936179, 6165.16991438507, -9360.798819160322, -24427.26039019351, 7737.145750182361, -22354.985458253082, -6448.99236547856, 14385.627434924536, -10722.958829755644, -11500.240743188948, -9976.902303326406, -20536.358122391477, 0.031617912255227566, 0.9757653099894523, 0.09361152498424052, 192.0, 0.0, 0.0, 0.0, 0.0, 0.0, 0.0, 0.0, 0.0, 0.0, 1.742426420140774E9, 0.0, 2025-03-19 18:20:20.140
90.0, -22942.322247305186, -25853.100520742002, -33494.82667384466, -12020.946982019781, -4063.927121630564, 6160.699565494009, -9354.47327547947, -24435.709349597615, 7739.470331605713, -22357.19828095416, -6439.515225829509, 14402.27948454374, -10727.205661202153, -11493.378757641169, -9974.443611436322, -20526.478651342233, 0.028808956127613784, 0.9748826549947261, 0.09280576249212026, 192.0, 0.0, 104.0, 15.0, 56.0, 1.0, 112.0, 0.0, 0.0, 0.0, 1.742426420200071E9, 0.0, 2025-03-19 18:20:20.200
92.0, -22938.142471092044, -25845.277410182647, -33491.71978136537, -12015.001417994668, -4063.8153629082876, 6159.559626526789, -9369.538351242347, -24433.45182340763, 7730.775503012598, -22358.38292341029, -6451.965147491115, 14382.967577334355, -10733.486501394094, -11505.716920580498, -9983.83134410755, -20538.5485933481, 0.028808956127613784, 0.9748826549947261, 0.09280576249212026, 192.0, 0.0, 0.0, 0.0, 0.0, 0.0, 0.0, 0.0, 0.0, 0.0, 1.742426420200323E9, 0.0, 2025-03-19 18:20:20.200
94.0, -22938.902430403523, -25846.68557008333, -33491.205691242896, -12014.152051705367, -4064.0835838417515, 6164.231141117948, -9350.315851010782, -24429.83084080587, 7740.051476961551, -22355.4771966311, -6440.386943863266, 14397.429155996939, -10732.525376382515, -11490.18245818406, -9976.768192859674, -20525.71869203075, 0.028808956127613784, 0.9748826549947261, 0.09280576249212026, 192.0, 0.0, 0.0, 0.0, 0.0, 0.0, 0.0, 0.0, 0.0, 0.0, 1.742426420200539E9, 0.0, 2025-03-19 18:20:20.200
96.0, -22929.559401221206, -25839.73417755773, -33476.38648466903, -12006.75362429066, -4052.1030488137067, 6161.817152716774, -9361.692888938534, -24424.55582911442, 7740.431456617291, -22352.504414618543, -6443.873815998294, 14385.090993057609, -10725.730446068103, -11499.950170511029, -9971.359070701488, -20534.190003179312, 0.028808956127613784, 0.9748826549947261, 0.09280576249212026, 192.0, 0.0, 0.0, 0.0, 0.0, 0.0, 0.0, 0.0, 0.0, 0.0, 1.742426420200747E9, 0.0, 2025-03-19 18:20:20.200
98.0, -22938.58950598115, -25851.580602119044, -33480.67801960445, -12014.599086594473, -4056.573397704768, 6162.577112028255, -9345.666688164078, -24428.31092218291, 7745.415895630825, -22357.13122572079, -6438.688211284663, 14396.691548429913, -10725.864556534834, -11493.021129729883, -9966.39698343241, -20524.936380974817, 0.028808956127613784, 0.9748826549947261, 0.09280576249212026, 192.0, 0.0, 0.0, 0.0, 0.0, 0.0, 0.0, 0.0, 0.0, 0.0, 1.742426420200939E9, 0.0, 2025-03-19 18:20:20.200
100.0, -22936.44373851344, -25849.63600035143, -33482.48851090533, -12011.738063304194, -4058.070964583274, 6151.021260144861, -9369.89597915363, -24433.809451318917, 7739.895014750364, -22362.27212694551, -6447.852426511339, 14382.408783722973, -10728.814986802934, -11506.074548491782, -9973.549541658109, -20536.648695069398, 0.02940447806380689, 0.9744413274973631, 0.09040288124606013, 192.0, 0.0, 120.0, 15.0, 56.0, 1.0, 96.0, 0.0, 0.0, 0.0, 1.742426420201144E9, 0.0, 2025-03-19 18:20:20.201
102.0, -22944.78093919527, -25857.97320103326, -33489.99869704231, -12016.834261040005, -4066.7657931763883, 6157.391507314624, -9360.821170904777, -24439.17386998819, 7742.3760583849025, -22360.46163564463, -6443.583243320375, 14392.265903027763, -10732.503024638061, -11498.810231543808, -9973.527189913653, -20530.05493045508, 0.02940447806380689, 0.9744413274973631, 0.09040288124606013, 192.0, 0.0, 0.0, 0.0, 0.0, 0.0, 0.0, 0.0, 0.0, 0.0, 1.742426420201361E9, 0.0, 2025-03-19 18:20:20.201
104.0, -22936.041407113244, -25847.713750328276, -33481.05799926019, -12006.351292890466, -4059.769697161877, 6150.775390955853, -9374.500438511424, -24439.50914615502, 7733.725933280699, -22365.267260702523, -6455.004984737037, 14379.279539499228, -10736.16871072873, -11509.60612411572, -9980.836210350539, -20536.26871541366, 0.02940447806380689, 0.9744413274973631, 0.09040288124606013, 192.0, 0.0, 0.0, 0.0, 0.0, 0.0, 0.0, 0.0, 0.0, 0.0, 1.742426420259706E9, 0.0, 2025-03-19 18:20:20.259
106.0, -22934.476785001374, -25845.612686349476, -33479.62748761505, -12007.558287091051, -4062.1836855630504, 6161.5042282944005, -9355.389697002138, -24440.894954311247, 7749.372154399414, -22350.60451633984, -6441.191606663658, 14400.156068820486, -10726.512757124037, -11496.575057098276, -9970.934387556837, -20529.518488588154, 0.02940447806380689, 0.9744413274973631, 0.09040288124606013, 192.0, 0.0, 0.0, 0.0, 0.0, 0.0, 0.0, 0.0, 0.0, 0.0, 1.742426420259962E9, 0.0, 2025-03-19 18:20:20.259
108.0, -22936.734311191358, -25845.25505843819, -33473.88308929004, -12006.999493479669, -4059.747345417422, 6147.959071154484, -9377.09324086824, -24441.766672345006, 7739.8503112614535, -22356.28185943149, -6449.640566067764, 14392.578827450137, -10731.11721648183, -11504.04053974635, -9977.21522774878, -20536.73810204722, 0.02940447806380689, 0.9744413274973631, 0.09040288124606013, 192.0, 0.0, 0.0, 0.0, 0.0, 0.0, 0.0, 0.0, 0.0, 0.0, 1.742426420260171E9, 0.0, 2025-03-19 18:20:20.260
110.0, -22940.98114263787, -25850.530070129644, -33483.0026010278, -12012.453319126764, -4062.1166303296845, 6159.291405593325, -9353.825074890265, -24439.30798045492, 7742.063133962529, -22358.204109454648, -6449.260586412023, 14391.7965163942, -10731.31838218193, -11502.23004844547, -9975.382384703444, -20539.17444219285, 0.031702239031903445, 0.9772206637486816, 0.09020144062303007, 192.0, 0.5, 8.0, 15.0, 80.0, 1.0, 104.0, 0.0, 0.0, 0.0, 1.742426420260381E9, 0.0, 2025-03-19 18:20:20.260
112.0, -22933.73917743435, -25844.159822959882, -33479.15810098149, -12008.787633036094, -4058.9873861059414, 6149.702507221998, -9377.249703079427, -24437.184564731666, 7738.129226938395, -22358.785254810486, -6451.093429457358, 14390.030728582231, -10734.291164194485, -11504.308760679813, -9979.182181260847, -20537.25219216969, 0.031702239031903445, 0.9772206637486816, 0.09020144062303007, 192.0, 0.0, 0.0, 0.0, 0.0, 0.0, 0.0, 0.0, 0.0, 0.0, 1.742426420260592E9, 0.0, 2025-03-19 18:20:20.260
114.0, -22935.236744312853, -25842.371683403457, -33476.185318968935, -12004.786670778594, -4056.774563404866, 6165.6169492741765, -9352.059287078297, -24428.0650529939, 7747.67342182081, -22350.917440762216, -6444.678478798685, 14394.076394328642, -10725.462225134639, -11497.133850709659, -9972.588416646531, -20534.279410157134, 0.031702239031903445, 0.9772206637486816, 0.09020144062303007, 192.0, 0.0, 0.0, 0.0, 0.0, 0.0, 0.0, 0.0, 0.0, 0.0, 1.742426420260792E9, 0.0, 2025-03-19 18:20:20.260
116.0, -22937.49427050284, -25844.74096831572, -33478.979287025846, -12008.497060358175, -4058.2944820278267, 6152.8764549346515, -9374.031051877862, -24433.1165472408, 7744.633584574889, -22356.1253972203, -6446.444266610654, 14395.305740273685, -10730.714885081636, -11496.932685009562, -9973.236617235734, -20525.897505986395, 0.031702239031903445, 0.9772206637486816, 0.09020144062303007, 192.0, 0.0, 0.0, 0.0, 0.0, 0.0, 0.0, 0.0, 0.0, 0.0, 1.742426420261001E9, 0.0, 2025-03-19 18:20:20.261
118.0, -22945.853822929126, -25854.329866687047, -33485.550699895706, -12017.147185462378, -4062.8542378967095, 6156.586844514232, -9355.970842357974, -24437.519840898498, 7741.079657206495, -22360.148711222257, -6452.032202724481, 14384.040461068209, -10734.000591516566, -11504.465222891, -9977.572855660064, -20535.06172121307, 0.031702239031903445, 0.9772206637486816, 0.09020144062303007, 192.0, 0.0, 0.0, 0.0, 0.0, 0.0, 0.0, 0.0, 0.0, 0.0, 1.742426420261203E9, 0.0, 2025-03-19 18:20:20.261
120.0, -22942.501061260828, -25851.82647130805, -33481.7509033383, -12015.291990672587, -4062.742479174433, 6147.042649631817, -9374.254569322417, -24435.08350075287, 7735.514072837123, -22368.061228759438, -6452.143961446758, 14386.32033900265, -10739.610879374848, -11507.840336303752, -9979.629216149953, -20533.854727012484, 0.030851119515951722, 0.9786103318743408, 0.09110072031151503, 192.0, 0.0, 120.0, 15.0, 80.0, 1.0, 112.0, 0.0, 0.0, 0.0, 1.742426420318617E9, 0.0, 2025-03-19 18:20:20.318
122.0, -22946.613782240605, -25852.988762019726, -33479.8510050596, -12018.443586640786, -4061.513133229391, 6153.658765990587, -9353.46744697898, -24429.45086115013, 7736.6763635488, -22361.825092056406, -6453.127438202791, 14380.687699399914, -10738.046257262977, -11507.348597925735, -9974.041280036126, -20539.77793929314, 0.030851119515951722, 0.9786103318743408, 0.09110072031151503, 192.0, 0.0, 0.0, 0.0, 0.0, 0.0, 0.0, 0.0, 0.0, 0.0, 1.742426420318988E9, 0.0, 2025-03-19 18:20:20.318
124.0, -22941.316418804698, -25848.138433472926, -33474.88891779052, -12012.207449937756, -4061.6248919516675, 6148.674326977054, -9364.911540140098, -24428.914419283203, 7731.356648368436, -22366.943641536673, -6451.875740513295, 14389.382527993028, -10741.309611953451, -11506.476879891978, -9974.622425391964, -20534.21235492377, 0.030851119515951722, 0.9786103318743408, 0.09110072031151503, 192.0, 0.0, 0.0, 0.0, 0.0, 0.0, 0.0, 0.0, 0.0, 0.0, 1.742426420319311E9, 0.0, 2025-03-19 18:20:20.319
126.0, -22941.91991590499, -25848.674875339853, -33481.7509033383, -12011.581601093007, -4062.407203007603, 6159.336109082235, -9357.446057492025, -24428.288570438453, 7735.1564449258385, -22357.086522231883, -6451.249891668545, 14385.985062835822, -10734.179405472209, -11502.922952523584, -9969.906207311895, -20538.660352070376, 0.030851119515951722, 0.9786103318743408, 0.09110072031151503, 192.0, 0.0, 0.0, 0.0, 0.0, 0.0, 0.0, 0.0, 0.0, 0.0, 1.742426420319625E9, 0.0, 2025-03-19 18:20:20.319
128.0, -22946.412616540507, -25851.960581774783, -33479.91806029297, -12013.883830771903, -4065.312929786793, 6150.21659734447, -9370.074793109274, -24438.92800079918, 7733.077732691495, -22362.920327534717, -6451.585167835376, 14393.674062928447, -10740.661411364248, -11500.061929233305, -9975.82941959255, -20534.033540968125, 0.030851119515951722, 0.9786103318743408, 0.09110072031151503, 192.0, 0.0, 0.0, 0.0, 0.0, 0.0, 0.0, 0.0, 0.0, 0.0, 1.74242642031994E9, 0.0, 2025-03-19 18:20:20.319
130.0, -22945.898526418034, -25852.608782363986, -33480.83448181563, -12010.03933072559, -4068.1068978437065, 6153.5246555238555, -9369.068964608785, -24436.625771120285, 7728.383866355881, -22366.407199669746, -6459.3412231613665, 14378.720745887846, -10743.813007332446, -11511.237801460959, -9982.222018506769, -20548.20454695279, 0.02942555975797586, 0.9743051659371704, 0.08955036015575751, 192.0, 0.0, 112.0, 15.0, 40.0, 1.0, 96.0, 0.0, 0.0, 0.0, 1.742426420320249E9, 0.0, 2025-03-19 18:20:20.320
132.0, -22948.35721830812, -25856.430930665843, -33483.807263828196, -12011.179269692811, -4069.962092633497, 6152.675289234554, -9372.153505343616, -24437.475137409587, 7736.274032148604, -22360.215766455625, -6449.819380023406, 14398.055004841686, -10740.437893919694, -11496.932685009562, -9977.483448682244, -20534.190003179312, 0.02942555975797586, 0.9743051659371704, 0.08955036015575751, 192.0, 0.0, 0.0, 0.0, 0.0, 0.0, 0.0, 0.0, 0.0, 0.0, 1.742426420320585E9, 0.0, 2025-03-19 18:20:20.320
134.0, -22942.121081605088, -25850.530070129644, -33480.0521707597, -12007.513583602142, -4066.8552001542093, 6155.066925891272, -9374.09810711123, -24434.524707141485, 7728.808549500532, -22363.881452546295, -6462.246949940557, 14376.329109231128, -10745.779960844513, -11510.723711338487, -9986.178277275358, -20548.02573299715, 0.02942555975797586, 0.9743051659371704, 0.08955036015575751, 192.0, 0.0, 0.0, 0.0, 0.0, 0.0, 0.0, 0.0, 0.0, 0.0, 1.742426420378844E9, 0.0, 2025-03-19 18:20:20.378
136.0, -22947.396093296542, -25855.894488798916, -33485.05896151769, -12012.14039470439, -4071.772583934377, 6157.078582892249, -9369.851275664721, -24437.74335834305, 7736.9222327378075, -22358.338219921377, -6448.768848034007, 14396.982121107832, -10742.337792198396, -11493.021129729883, -9977.394041704421, -20532.20069792279, 0.02942555975797586, 0.9743051659371704, 0.08955036015575751, 192.0, 0.0, 0.0, 0.0, 0.0, 0.0, 0.0, 0.0, 0.0, 0.0, 1.742426420379199E9, 0.0, 2025-03-19 18:20:20.379
138.0, -22950.704151475926, -25857.503814399697, -33484.18724348393, -12013.302685416065, -4071.906694401109, 6150.127190366649, -9381.071851381284, -24437.050454264936, 7724.8299389874865, -22365.580185124898, -6465.510304631031, 14374.585673163614, -10748.372763201329, -11509.449661904533, -9986.781774375651, -20548.20454695279, 0.02942555975797586, 0.9743051659371704, 0.08955036015575751, 192.0, 0.0, 0.0, 0.0, 0.0, 0.0, 0.0, 0.0, 0.0, 0.0, 1.742426420379529E9, 0.0, 2025-03-19 18:20:20.379
140.0, -22955.35331432263, -25863.22586098026, -33490.646897631515, -12019.80704305256, -4072.9125229015976, 6149.568396755266, -9374.656900722612, -24442.70544561213, 7729.970840212208, -22366.943641536673, -6460.011775495026, 14387.572036692149, -10750.920862069233, -11501.917124023095, -9983.83134410755, -20541.700189316296, 0.031712779878987934, 0.9721525829685852, 0.08777518007787877, 192.0, 0.5, 8.0, 15.0, 40.0, 1.0, 88.0, 0.0, 0.0, 0.0, 1.742426420379838E9, 0.0, 2025-03-19 18:20:20.379
142.0, -22950.704151475926, -25860.275430712158, -33482.57791788315, -12015.42610113932, -4064.6870809420448, 6147.176760098549, -9380.535409514358, -24435.26231470851, 7726.640430288367, -22364.842577557873, -6466.404374409244, 14373.713955129857, -10746.338754455895, -11512.936534039562, -9985.798297619618, -20555.245346456213, 0.031712779878987934, 0.9721525829685852, 0.08777518007787877, 192.0, 0.0, 0.0, 0.0, 0.0, 0.0, 0.0, 0.0, 0.0, 0.0, 1.742426420380162E9, 0.0, 2025-03-19 18:20:20.380
144.0, -22958.191985868452, -25865.97512554826, -33489.48460691984, -12023.42802565432, -4067.61515946569, 6147.892015921118, -9364.643319206634, -24440.2691054665, 7728.71914252271, -22371.034010771993, -6458.491856872065, 14383.70518490138, -10746.629327133815, -11507.795632814841, -9981.59616966202, -20543.44362538381, 0.031712779878987934, 0.9721525829685852, 0.08777518007787877, 192.0, 0.0, 0.0, 0.0, 0.0, 0.0, 0.0, 0.0, 0.0, 0.0, 1.742426420380476E9, 0.0, 2025-03-19 18:20:20.380
146.0, -22952.805215454726, -25859.761340589685, -33485.01425802878, -12015.917839517337, -4064.865894897687, 6144.36044029718, -9379.529581013869, -24434.859983308314, 7726.14869191035, -22372.017487528025, -6466.382022664789, 14372.03757429571, -10745.444684677683, -11519.507946909422, -9982.780812118152, -20553.010172010683, 0.031712779878987934, 0.9721525829685852, 0.08777518007787877, 192.0, 0.0, 0.0, 0.0, 0.0, 0.0, 0.0, 0.0, 0.0, 0.0, 1.742426420380785E9, 0.0, 2025-03-19 18:20:20.380
148.0, -22961.902375448033, -25869.327887216557, -33486.668287118475, -12022.980990765214, -4074.991235135941, 6147.512036265378, -9363.436325006047, -24437.385730431764, 7725.969877954707, -22376.398429441266, -6460.212941195124, 14384.129868046031, -10752.217263247641, -11512.37774042818, -9981.283245239645, -20545.365875406966, 0.031712779878987934, 0.9721525829685852, 0.08777518007787877, 192.0, 0.0, 0.0, 0.0, 0.0, 0.0, 0.0, 0.0, 0.0, 0.0, 1.742426420381093E9, 0.0, 2025-03-19 18:20:20.381
150.0, -22955.06274164471, -25863.941116802827, -33484.16489173948, -12020.477595386219, -4073.068985112785, 6136.716143693465, -9382.055328137318, -24435.955218786625, 7719.465520318213, -22376.621946885818, -6468.058403498937, 14371.836408595611, -10755.03358304901, -11524.380627200679, -9988.055823809604, -20553.72542783325, 0.03285638993949397, 0.9700762914842926, 0.09088759003893938, 192.0, 0.5, 8.0, 15.0, 32.0, 1.0, 120.0, 0.0, 0.0, 0.0, 1.742426420439087E9, 0.0, 2025-03-19 18:20:20.439
152.0, -22951.19588985394, -25862.39884643541, -33479.0016387703, -12016.700150573273, -4069.291540299838, 6149.657803733087, -9357.311947025293, -24431.484869895565, 7729.0544186895395, -22375.213786985136, -6453.7085835586295, 14381.492362200304, -10751.256138236064, -11514.389397429157, -9981.551466173109, -20543.48832887272, 0.03285638993949397, 0.9700762914842926, 0.09088759003893938, 192.0, 0.0, 0.0, 0.0, 0.0, 0.0, 0.0, 0.0, 0.0, 0.0, 1.742426420439364E9, 0.0, 2025-03-19 18:20:20.439
154.0, -22945.58560199566, -25855.089825998526, -33473.25724044529, -12005.636037067896, -4068.7550984329105, 6147.579091498744, -9382.457659537515, -24427.50625938252, 7727.020409944107, -22368.28474620399, -6456.8154760379175, 14379.123077288043, -10747.210472489653, -11515.261115462914, -9979.78567836114, -20543.756549806185, 0.03285638993949397, 0.9700762914842926, 0.09088759003893938, 192.0, 0.0, 0.0, 0.0, 0.0, 0.0, 0.0, 0.0, 0.0, 0.0, 1.742426420439597E9, 0.0, 2025-03-19 18:20:20.439
156.0, -22950.41357879801, -25860.521299901164, -33482.466159160875, -12007.647694068874, -4071.9961013789302, 6160.207827115993, -9357.267243536382, -24429.24969545003, 7732.72010478021, -22368.061228759438, -6451.227539924091, 14385.918007602455, -10748.17159750123, -11504.80049905783, -9974.711832369785, -20534.659389812874, 0.03285638993949397, 0.9700762914842926, 0.09088759003893938, 192.0, 0.0, 0.0, 0.0, 0.0, 0.0, 0.0, 0.0, 0.0, 0.0, 1.742426420439809E9, 0.0, 2025-03-19 18:20:20.439
158.0, -22948.96071540841, -25860.856576067996, -33481.39327542702, -12007.647694068874, -4071.8843426566536, 6144.516902508367, -9384.089336882751, -24436.0669775089, 7729.926136723297, -22370.430513671698, -6455.51907485951, 14382.22996976733, -10747.881024823311, -11509.203792715525, -9977.17052425987, -20536.91691600286, 0.03285638993949397, 0.9700762914842926, 0.09088759003893938, 192.0, 0.0, 0.0, 0.0, 0.0, 0.0, 0.0, 0.0, 0.0, 0.0, 1.742426420440042E9, 0.0, 2025-03-19 18:20:20.440
160.0, -22947.239631085355, -25858.82256732256, -33480.923888793455, -12006.865383012937, -4070.386775778148, 6155.916292180574, -9364.33039478426, -24431.440166406654, 7731.557814068534, -22370.81049332744, -6455.653185326241, 14381.671176155947, -10748.17159750123, -11507.37094967019, -9977.5058004267, -20540.40378813789, 0.033428194969746985, 0.9720381457421463, 0.0934437950194697, 192.0, 0.5, 8.0, 15.0, 56.0, 1.5, 0.0, 0.0, 0.0, 0.0, 1.74242642044027E9, 0.0, 2025-03-19 18:20:20.440
162.0, -22943.931572905967, -25854.59808762051, -33478.621659114564, -12002.193868421778, -4070.1409065891394, 6149.054306632795, -9382.837639193254, -24428.73560532756, 7733.725933280699, -22369.491740404577, -6455.429667881688, 14385.068641313153, -10747.232824234108, -11505.225182202481, -9977.103469026502, -20534.43587236832, 0.033428194969746985, 0.9720381457421463, 0.0934437950194697, 192.0, 0.0, 0.0, 0.0, 0.0, 0.0, 0.0, 0.0, 0.0, 0.0, 1.742426420440476E9, 0.0, 2025-03-19 18:20:20.440
164.0, -22943.73040720587, -25851.088863741024, -33473.90544103449, -11997.343539874977, -4068.6209879661787, 6162.241835861425, -9355.680269680057, -24425.293436681444, 7741.124360695406, -22361.400408911755, -6453.172141691702, 14391.7965163942, -10743.835359076902, -11498.050272232327, -9971.470829423766, -20530.613724066465, 0.033428194969746985, 0.9720381457421463, 0.0934437950194697, 192.0, 0.0, 0.0, 0.0, 0.0, 0.0, 0.0, 0.0, 0.0, 0.0, 1.742426420499497E9, 0.0, 2025-03-19 18:20:20.499
166.0, -22952.939325921456, -25858.46493941128, -33480.61096437108, -12002.573848077518, -4077.4946305149356, 6151.98238515644, -9382.390604304148, -24428.780308816473, 7732.273069891104, -22364.082618246393, -6459.140057461269, 14393.651711183991, -10751.79258010299, -11499.301969921824, -9977.885780082439, -20525.182250163823, 0.033428194969746985, 0.9720381457421463, 0.0934437950194697, 192.0, 0.0, 0.0, 0.0, 0.0, 0.0, 0.0, 0.0, 0.0, 0.0, 1.742426420499742E9, 0.0, 2025-03-19 18:20:20.499
168.0, -22950.882965431567, -25854.016942264672, -33479.180452725945, -11998.41642360883, -4071.7278804454663, 6163.627644017654, -9357.177836558561, -24420.264294179, 7731.155482668339, -22363.859100801837, -6462.671633085208, 14385.314510502161, -10749.22212949063, -11505.42634790258, -9975.270625981168, -20530.88194499993, 0.033428194969746985, 0.9720381457421463, 0.0934437950194697, 192.0, 0.0, 0.0, 0.0, 0.0, 0.0, 0.0, 0.0, 0.0, 0.0, 1.742426420499945E9, 0.0, 2025-03-19 18:20:20.499
170.0, -22950.234764842364, -25852.385264919434, -33473.70427533439, -11996.114193929934, -4072.4654880124917, 6155.156332869093, -9377.495572268435, -24426.098099481835, 7731.803683257543, -22364.976688024606, -6458.402449894244, 14394.478725728837, -10750.898510324778, -11501.313626922802, -9972.364899201977, -20522.47768908473, 0.03571409748487349, 0.9740190728710731, 0.09672189750973485, 192.0, 0.5, 24.0, 15.0, 64.0, 1.5, 16.0, 0.0, 0.0, 0.0, 1.742426420500151E9, 0.0, 2025-03-19 18:20:20.500
172.0, -22951.084131131665, -25853.614610864475, -33475.2018422129, -12000.450432354264, -4071.213790322994, 6162.264187605881, -9359.18949355954, -24423.75116631403, 7731.982497213185, -22364.931984535695, -6461.151714462247, 14387.437926225415, -10747.948080056678, -11504.487574635456, -9973.124858513458, -20530.278447899636, 0.03571409748487349, 0.9740190728710731, 0.09672189750973485, 192.0, 0.0, 0.0, 0.0, 0.0, 0.0, 0.0, 0.0, 0.0, 0.0, 1.742426420500372E9, 0.0, 2025-03-19 18:20:20.500
174.0, -22950.368875309097, -25853.5028521422, -33474.30777243469, -12002.640903310885, -4068.866857155187, 6154.374021813157, -9368.420764019582, -24427.908590782714, 7732.518939080112, -22370.56462413843, -6457.910711516227, 14393.830525139634, -10751.591414402892, -11503.906429279617, -9976.008233548193, -20525.986912964217, 0.03571409748487349, 0.9740190728710731, 0.09672189750973485, 192.0, 0.0, 0.0, 0.0, 0.0, 0.0, 0.0, 0.0, 0.0, 0.0, 1.742426420500568E9, 0.0, 2025-03-19 18:20:20.500
176.0, -22948.44662528594, -25850.753587574196, -33467.11051072008, -11999.936342231793, -4066.3634617761927, 6165.4381353185345, -9352.640432434135, -24421.560695357406, 7735.24585190366, -22363.792045568473, -6458.357746405333, 14386.096821558098, -10738.202719474164, -11501.380682156168, -9969.414468933877, -20532.603029322985, 0.03571409748487349, 0.9740190728710731, 0.09672189750973485, 192.0, 0.0, 0.0, 0.0, 0.0, 0.0, 0.0, 0.0, 0.0, 0.0, 1.742426420500775E9, 0.0, 2025-03-19 18:20:20.500
178.0, -22948.044293885745, -25854.039294009126, -33471.33499042213, -12004.607856822951, -4070.6997002005223, 6161.727745738954, -9359.23419704845, -24423.75116631403, 7730.395523356859, -22363.479121146098, -6456.860179526828, 14396.266865285263, -10742.538957898494, -11492.954074496518, -9973.482486424744, -20521.225991395237, 0.03571409748487349, 0.9740190728710731, 0.09672189750973485, 192.0, 0.0, 0.0, 0.0, 0.0, 0.0, 0.0, 0.0, 0.0, 0.0, 1.742426420500978E9, 0.0, 2025-03-19 18:20:20.500
180.0, -22939.90825890401, -25847.35612241699, -33467.088158975625, -12003.445566111275, -4067.190476321039, 6167.561551041788, -9345.174949786062, -24416.442145877143, 7733.413008858324, -22361.199243211657, -6456.591958593364, 14385.068641313153, -10731.340733926385, -11498.877286777173, -9972.655471879896, -20530.144337432903, 0.032, 0.978, 0.1, 192.0, 0.5, 0.0, 15.0, 72.0, 1.5, 16.0, 0.0, 0.0, 0.0, 1.742426420559773E9, 0.0, 2025-03-19 18:20:20.559
182.0, -22942.322247305186, -25848.74193057322, -33481.61679287157, -12009.391130136388, -4070.4091275226033, 6168.254455119903, -9343.386810229636, -24417.73854705555, 7731.133130923883, -22364.41789441322, -6452.099257957847, 14398.837315897623, -10731.65365834876, -11492.864667518696, -9974.264797480679, -20520.756604761675, 0.032, 0.978, 0.1, 192.0, 0.0, 0.0, 0.0, 0.0, 0.0, 0.0, 0.0, 0.0, 0.0, 1.742426420560044E9, 0.0, 2025-03-19 18:20:20.560
184.0, -22932.599238467126, -25838.415424634866, -33479.940412037424, -12002.61855156643, -4061.3119675292933, 6177.619836046677, -9336.435417704037, -24407.68026205066, 7726.260450632626, -22360.126359477803, -6457.083696971381, 14386.432097724928, -10723.472919878117, -11498.094975721238, -9974.801239347606, -20529.87611649944, 0.032, 0.978, 0.1, 192.0, 0.0, 0.0, 0.0, 0.0, 0.0, 0.0, 0.0, 0.0, 0.0, 1.742426420560241E9, 0.0, 2025-03-19 18:20:20.560
186.0, -22932.643941956037, -25838.214258934768, -33487.83057783015, -12010.888697014892, -4063.5918454637344, 6179.542086069833, -9328.388789700126, -24411.703576052616, 7736.184625170783, -22358.2264611991, -6438.330583373378, 14404.604065967093, -10715.515698852027, -11482.761679024898, -9966.106410754492, -20512.01707267965, 0.032, 0.978, 0.1, 192.0, 0.0, 0.0, 0.0, 0.0, 0.0, 0.0, 0.0, 0.0, 0.0, 1.742426420560451E9, 0.0, 2025-03-19 18:20:20.560
188.0, -22936.57784898017, -25843.176346203847, -33502.76154312629, -12023.629191354417, -4064.128287330662, 6174.401184845113, -9338.75999912739, -24411.100078952324, 7727.422741344302, -22361.199243211657, -6445.505493343532, 14387.147353547498, -10710.844184260868, -11494.161068697103, -9970.532056156642, -20525.76339551966, 0.032, 0.978, 0.1, 192.0, 0.0, 0.0, 0.0, 0.0, 0.0, 0.0, 0.0, 0.0, 0.0, 1.742426420560658E9, 0.0, 2025-03-19 18:20:20.560
190.0, -22932.28631404475, -25840.53884035812, -33500.97340356987, -12028.926554790325, -4059.7249936729663, 6179.162106414093, -9320.789196585321, -24410.854209763314, 7729.188529156271, -22365.490778147076, -6441.951565975138, 14391.170667549452, -10707.603181314847, -11492.03765297385, -9974.264797480679, -20523.885848985417, 0.022, 0.984, 0.10200000000000001, 192.0, 0.0, 88.0, 15.0, 96.0, 1.5, 24.0, 0.0, 0.0, 0.0, 1.742426420560861E9, 0.0, 2025-03-19 18:20:20.560
192.0, -22932.196907066933, -25842.662256081374, -33504.30381349371, -12032.994572281192, -4058.070964583274, 6170.959016198995, -9332.099179279707, -24411.59181733034, 7721.05249417454, -22366.787179325485, -6441.728048530585, 14374.451562696882, -10711.537088338982, -11500.441908889044, -9972.677823624352, -20530.25609615518, 0.022, 0.984, 0.10200000000000001, 192.0, 0.0, 0.0, 0.0, 0.0, 0.0, 0.0, 0.0, 0.0, 0.0, 1.742426420561074E9, 0.0, 2025-03-19 18:20:20.561
194.0, -22933.269790800787, -25842.192869447812, -33510.986985085845, -12037.2414037277, -4057.713336671989, 6176.837524990741, -9313.524879637347, -24413.111735953302, 7727.355686110936, -22365.24490895807, -6431.848577481339, 14385.336862246617, -10706.865573747824, -11491.478859362467, -9968.20747473329, -20521.963598962262, 0.022, 0.984, 0.10200000000000001, 192.0, 0.0, 0.0, 0.0, 0.0, 0.0, 0.0, 0.0, 0.0, 0.0, 1.742426420619959E9, 0.0, 2025-03-19 18:20:20.619
196.0, -22931.749872177825, -25840.33767465802, -33513.26686302029, -12036.101464760479, -4054.874665126165, 6172.233065632948, -9335.250775247905, -24412.865866764292, 7718.996133684652, -22365.66959210272, -6443.203263664635, 14370.025917294732, -10709.972466227111, -11504.286408935359, -9977.5058004267, -20534.3464653905, 0.022, 0.984, 0.10200000000000001, 192.0, 0.0, 0.0, 0.0, 0.0, 0.0, 0.0, 0.0, 0.0, 0.0, 1.742426420620219E9, 0.0, 2025-03-19 18:20:20.620
198.0, -22933.1133285896, -25842.416386892368, -33516.77608689977, -12036.995534538692, -4053.868836625676, 6185.912333239596, -9313.502527892892, -24407.702613795118, 7727.914479722319, -22363.76969382402, -6433.949641460138, 14381.425306966938, -10709.12309993781, -11495.03278673086, -9971.962567801782, -20522.29887512909, 0.022, 0.984, 0.10200000000000001, 192.0, 0.0, 0.0, 0.0, 0.0, 0.0, 0.0, 0.0, 0.0, 0.0, 1.742426420620437E9, 0.0, 2025-03-19 18:20:20.620
200.0, -22930.140546577044, -25840.091805469016, -33517.714860166896, -12035.542671149096, -4051.6560139246008, 6177.172801157571, -9336.547176426313, -24410.02719521847, 7726.551023310545, -22364.931984535695, -6434.2178623936015, 14374.362155719062, -10709.771300527012, -11500.307798422313, -9975.650605636907, -20525.070491441547, 0.026000000000000002, 0.98, 0.096, 192.0, 0.0, 104.0, 15.0, 80.0, 1.5, 0.0, 0.0, 0.0, 0.0, 1.742426420620638E9, 0.0, 2025-03-19 18:20:20.620
202.0, -22931.749872177825, -25842.908125270384, -33525.87324689308, -12036.86142407196, -4049.0855633122405, 6185.5770570727655, -9313.36841742616, -24406.003881216515, 7736.0952181929615, -22361.42276065621, -6426.931193701172, 14384.353385490584, -10706.887925492278, -11491.188286684548, -9970.107373011992, -20521.270694884148, 0.026000000000000002, 0.98, 0.096, 192.0, 0.0, 0.0, 0.0, 0.0, 0.0, 0.0, 0.0, 0.0, 0.0, 1.742426420620848E9, 0.0, 2025-03-19 18:20:20.620
204.0, -22933.806232667714, -25844.27158168216, -33521.17938055746, -12034.46978741524, -4048.415010978581, 6172.210713888492, -9334.55787116979, -24410.809506274403, 7732.384828613381, -22362.205071712146, -6432.899109470739, 14379.480705199327, -10707.513774337027, -11498.430251888067, -9970.263835223179, -20522.902372229382, 0.026000000000000002, 0.98, 0.096, 192.0, 0.0, 0.0, 0.0, 0.0, 0.0, 0.0, 0.0, 0.0, 0.0, 1.742426420621058E9, 0.0, 2025-03-19 18:20:20.621
206.0, -22936.466090257894, -25846.462052638777, -33527.482572493864, -12032.592240880997, -4052.5053802139023, 6181.9337227265505, -9311.267353447362, -24408.417869617686, 7735.469369348213, -22364.686115346685, -6429.501644313532, 14384.666309912958, -10709.950114482655, -11494.742214052942, -9969.772096845163, -20522.63415129592, 0.026000000000000002, 0.98, 0.096, 192.0, 0.0, 0.0, 0.0, 0.0, 0.0, 0.0, 0.0, 0.0, 0.0, 1.742426420621257E9, 0.0, 2025-03-19 18:20:20.621
208.0, -22932.576886722672, -25841.052930480593, -33526.05206084872, -12026.37845592242, -4052.348918002715, 6173.529466811356, -9337.50830143789, -24412.038852219448, 7733.904747236342, -22363.09914149036, -6432.407371092721, 14382.632301167525, -10712.587620328382, -11493.490516363445, -9975.382384703444, -20525.852802497484, 0.026000000000000002, 0.98, 0.096, 192.0, 0.0, 0.0, 0.0, 0.0, 0.0, 0.0, 0.0, 0.0, 0.0, 1.742426420621454E9, 0.0, 2025-03-19 18:20:20.621
210.0, -22926.63132269756, -25839.175383946345, -33524.263921292295, -12023.696246587784, -4048.347955745215, 6186.247609406425, -9311.60262961419, -24405.601549816318, 7741.884320006886, -22360.059304244438, -6426.260641367512, 14384.46514421286, -10709.011341215533, -11488.237856416448, -9971.292015468123, -20526.59041006451, 0.03, 0.976, 0.1, 192.0, 0.0, 120.0, 15.0, 64.0, 1.5, 16.0, 0.0, 0.0, 0.0, 1.742426420679427E9, 0.0, 2025-03-19 18:20:20.679
212.0, -22940.44470077094, -25850.664180596374, -33537.25028482083, -12035.073284515534, -4059.6579384396005, 6170.511981309889, -9337.240080504427, -24416.77742204397, 7736.385790870881, -22365.021391513514, -6431.021562936493, 14384.822772124146, -10711.514736594527, -11490.808307028808, -9976.16469575938, -20520.711901272763, 0.03, 0.976, 0.1, 192.0, 0.0, 0.0, 0.0, 0.0, 0.0, 0.0, 0.0, 0.0, 0.0, 1.742426420679677E9, 0.0, 2025-03-19 18:20:20.679
214.0, -22930.20760181041, -25840.78470954713, -33522.63224394706, -12026.601973366973, -4050.3372610017377, 6184.504173338911, -9311.51322263637, -24410.138953940746, 7734.798817014554, -22360.796911811463, -6435.55896706092, 14379.32424298814, -10713.504041851049, -11493.199943685526, -9976.79054460413, -20528.15503217638, 0.03, 0.976, 0.1, 192.0, 0.0, 0.0, 0.0, 0.0, 0.0, 0.0, 0.0, 0.0, 0.0, 1.742426420679884E9, 0.0, 2025-03-19 18:20:20.679
216.0, -22937.091939102644, -25847.02084625016, -33522.98987185834, -12032.100502502979, -4056.5957494492236, 6169.394394087123, -9334.177891514051, -24416.240980177045, 7733.167139669316, -22361.556871122943, -6434.08375192687, 14388.153182047985, -10714.196945929163, -11490.60714132871, -9975.4047364479, -20514.989854692205, 0.03, 0.976, 0.1, 192.0, 0.0, 0.0, 0.0, 0.0, 0.0, 0.0, 0.0, 0.0, 0.0, 1.742426420680089E9, 0.0, 2025-03-19 18:20:20.680
218.0, -22934.007398367812, -25845.32211367156, -33522.96752011389, -12030.267659457644, -4054.226464536961, 6177.619836046677, -9313.100196492696, -24408.574331828873, 7729.546157067556, -22364.082618246393, -6437.592975806353, 14378.474876698838, -10713.593448828871, -11495.36806289769, -9974.577721903053, -20523.416462351855, 0.03, 0.976, 0.1, 192.0, 0.0, 0.0, 0.0, 0.0, 0.0, 0.0, 0.0, 0.0, 0.0, 1.742426420680293E9, 0.0, 2025-03-19 18:20:20.680
220.0, -22927.413633753495, -25842.46109038128, -33518.117191567086, -12033.843938570493, -4053.555912203302, 6170.26611212088, -9334.200243258505, -24413.06703246439, 7735.089389692473, -22363.70263859065, -6428.98755419106, 14389.114307059564, -10709.436024360184, -11492.37292914068, -9973.97422480276, -20516.4427180818, 0.032, 0.978, 0.098, 192.0, 0.5, 0.0, 15.0, 72.0, 1.5, 8.0, 0.0, 0.0, 0.0, 1.742426420680501E9, 0.0, 2025-03-19 18:20:20.680
222.0, -22924.418499996485, -25837.655465323387, -33517.33488051115, -12029.217127468244, -4052.8853598696423, 6176.837524990741, -9320.096292507207, -24409.267235906987, 7736.251680404149, -22358.67349608821, -6431.066266425403, 14380.061850555165, -10705.368006869317, -11497.916161765595, -9975.158867258891, -20530.278447899636, 0.032, 0.978, 0.098, 192.0, 0.0, 0.0, 0.0, 0.0, 0.0, 0.0, 0.0, 0.0, 0.0, 1.742426420680712E9, 0.0, 2025-03-19 18:20:20.680
