%OpenBCI Raw EXG Data
%Number of channels = 8
%Sample Rate = 250 Hz
%Board = OpenBCI_GUI$BoardCytonSerial
Sample Index, EXG Channel 0, EXG Channel 1, EXG Channel 2, EXG Channel 3, EXG Channel 4, EXG Channel 5, EXG Channel 6, EXG Channel 7, Accel Channel 0, Accel Channel 1, Accel Channel 2, Not Used, Digital Channel 0 (D11), Digital Channel 1 (D12), Digital Channel 2 (D13), Digital Channel 3 (D17), Not Used, Digital Channel 4 (D18), Analog Channel 0, Analog Channel 1, Analog Channel 2, Timestamp, Marker Channel, Timestamp (Formatted)
118.0, 7434.7937029354225, -25101.67957564349, -27162.152786511517, 7133.425132444518, -4583.694587194274, 2980.694530093018, -20268.472465094623, 18658.923346867963, -0.112, 0.962, -0.152, 192.0, 252.0, 128.0, 30.0, 16.0, 251.0, 64.0, 0.0, 0.0, 0.0, 1.741745935201604E9, 0.0, 2025-03-11 21:18:55.201
119.0, 7437.408857036693, -25099.243235497863, -27160.051722532717, 7135.168568512031, -4581.258247048646, 2985.3883964286324, -20262.77277025852, 18665.11478008208, -0.112, 0.962, -0.152, 192.0, 0.0, 0.0, 0.0, 0.0, 0.0, 0.0, 0.0, 0.0, 0.0, 1.741745935201631E9, 0.0, 2025-03-11 21:18:55.201
120.0, 7429.89867089971, -25101.724279132402, -27168.098350536628, 7131.7934550992795, -4590.467165764233, 2986.3271696957554, -20273.568662830432, 18672.669669707975, -0.112, 0.962, -0.152, 192.0, 0.0, 0.0, 0.0, 0.0, 0.0, 0.0, 0.0, 0.0, 0.0, 1.741745935201643E9, 0.0, 2025-03-11 21:18:55.201
121.0, 7429.295173799417, -25099.712622131425, -27171.875795349577, 7128.641859131081, -4594.490479766188, 2978.1464312251132, -20279.983613489105, 18655.3023642662, -0.112, 0.962, -0.152, 192.0, 0.0, 0.0, 0.0, 0.0, 0.0, 0.0, 0.0, 0.0, 0.0, 1.741745935201655E9, 0.0, 2025-03-11 21:18:55.201
122.0, 7425.741246431023, -25108.228636768894, -27174.669763406488, 7124.439731173484, -4590.176593086314, 2977.028844002348, -20279.313061155448, 18659.124512568058, -0.112, 0.962, -0.152, 192.0, 0.0, 0.0, 0.0, 0.0, 0.0, 0.0, 0.0, 0.0, 0.0, 1.741745935201666E9, 0.0, 2025-03-11 21:18:55.201
123.0, 7434.726647702057, -25100.763154120825, -27167.85248134762, 7135.481492934406, -4590.020130875127, 2983.7343673389396, -20282.688174568197, 18682.07975412366, -0.112, 0.962, -0.152, 192.0, 0.0, 0.0, 0.0, 0.0, 0.0, 0.0, 0.0, 0.0, 0.0, 1.741745935201677E9, 0.0, 2025-03-11 21:18:55.201
124.0, 7437.744133203523, -25100.651395398545, -27167.18192901396, 7133.425132444518, -4588.723729696719, 2978.0346725028367, -20284.900997269273, 18671.88735865204, -0.112, 0.962, -0.152, 192.0, 0.0, 0.0, 0.0, 0.0, 0.0, 0.0, 0.0, 0.0, 0.0, 1.741745935201688E9, 0.0, 2025-03-11 21:18:55.201
125.0, 7432.46912151207, -25104.004157066844, -27174.535652939758, 7127.45721667495, -4596.725654211718, 2976.4476986465097, -20285.25862518056, 18670.255681306804, -0.112, 0.962, -0.152, 192.0, 0.0, 0.0, 0.0, 0.0, 0.0, 0.0, 0.0, 0.0, 0.0, 1.741745935201699E9, 0.0, 2025-03-11 21:18:55.201
126.0, 7436.201862836107, -25096.44926744095, -27169.305344737215, 7131.480530676906, -4586.734424440197, 2981.20862021549, -20270.618232562334, 18671.060344107194, -0.112, 0.962, -0.152, 192.0, 0.0, 0.0, 0.0, 0.0, 0.0, 0.0, 0.0, 0.0, 0.0, 1.74174593520171E9, 0.0, 2025-03-11 21:18:55.201
127.0, 7433.676115712657, -25093.476485428393, -27170.24411800434, 7132.9333940665, -4591.361235542445, 2966.948207253004, -20282.844636779384, 18666.07590509366, -0.112, 0.962, -0.152, 192.0, 0.0, 0.0, 0.0, 0.0, 0.0, 0.0, 0.0, 0.0, 0.0, 1.741745935201721E9, 0.0, 2025-03-11 21:18:55.201
128.0, 7424.7577696749895, -25097.231578496885, -27176.971993085386, 7126.026705029811, -4596.546840256076, 2960.5556083387864, -20294.512247385057, 18656.97874510035, -0.106, 0.97, -0.146, 192.0, 252.0, 176.0, 30.0, 80.0, 251.0, 112.0, 0.0, 0.0, 0.0, 1.741745935201754E9, 0.0, 2025-03-11 21:18:55.201
129.0, 7431.418589522671, -25109.614444925126, -27174.468597706393, 7126.7419608523805, -4592.747043698674, 2959.2815589048337, -20285.92917751422, 18654.631811932544, -0.106, 0.97, -0.146, 192.0, 0.0, 0.0, 0.0, 0.0, 0.0, 0.0, 0.0, 0.0, 0.0, 1.741745935201767E9, 0.0, 2025-03-11 21:18:55.201
130.0, 7426.456502253593, -25119.136288063084, -27179.967126842395, 7119.723513093414, -4595.563363500043, 2956.800515270295, -20284.945700758184, 18658.02927708975, -0.106, 0.97, -0.146, 192.0, 0.0, 0.0, 0.0, 0.0, 0.0, 0.0, 0.0, 0.0, 0.0, 1.741745935201778E9, 0.0, 2025-03-11 21:18:55.201
131.0, 7432.312659300883, -25110.329700747694, -27173.686286650456, 7132.486359177395, -4590.62362797542, 2961.2261606724455, -20280.29653791148, 18669.473370250867, -0.106, 0.97, -0.146, 192.0, 0.0, 0.0, 0.0, 0.0, 0.0, 0.0, 0.0, 0.0, 0.0, 1.741745935201789E9, 0.0, 2025-03-11 21:18:55.201
132.0, 7434.011391879487, -25112.475468215405, -27172.993382572342, 7133.022801044322, -4593.328189054512, 2963.4166316290657, -20282.732878057108, 18667.774637672264, -0.106, 0.97, -0.146, 192.0, 0.0, 0.0, 0.0, 0.0, 0.0, 0.0, 0.0, 0.0, 0.0, 1.7417459352018E9, 0.0, 2025-03-11 21:18:55.201
133.0, 7429.228118566051, -25117.45990722894, -27179.609498931113, 7122.472777661416, -4600.5925060024865, 2959.8850560051274, -20285.191569947194, 18658.990402101328, -0.106, 0.97, -0.146, 192.0, 0.0, 0.0, 0.0, 0.0, 0.0, 0.0, 0.0, 0.0, 0.0, 1.741745935201811E9, 0.0, 2025-03-11 21:18:55.201
134.0, 7426.054170853397, -25126.534715477792, -27181.419990231992, 7123.433902672995, -4601.933610669806, 2956.3311286367334, -20288.678442082222, 18654.944736354915, -0.106, 0.97, -0.146, 192.0, 0.0, 0.0, 0.0, 0.0, 0.0, 0.0, 0.0, 0.0, 0.0, 1.741745935201831E9, 0.0, 2025-03-11 21:18:55.201
135.0, 7426.724723187056, -25120.276227030306, -27176.301440751726, 7130.74292310988, -4593.4846512656995, 2957.5604745817755, -20280.877683267317, 18666.500588238312, -0.106, 0.97, -0.146, 192.0, 0.0, 0.0, 0.0, 0.0, 0.0, 0.0, 0.0, 0.0, 0.0, 1.741745935201843E9, 0.0, 2025-03-11 21:18:55.201
0.0, 0.0, 0.0, 0.0, 0.0, 0.0, 0.0, 0.0, 0.0, -0.094, 0.978, -0.122, 192.0, 253.0, 16.0, 30.0, 144.0, 252.0, 48.0, 0.0, 0.0, 0.0, 1.741745935319014E9, 0.0, 2025-03-11 21:18:55.319
102.0, 7793.896829354386, -23958.07492233216, -27082.26765182825, 7341.653983790158, -3511.369646950918, 3267.713280643616, -20306.716299857653, 18890.867399080682, -0.094, 0.978, -0.122, 192.0, 0.0, 0.0, 0.0, 0.0, 0.0, 0.0, 0.0, 0.0, 0.0, 1.741745935788092E9, 0.0, 2025-03-11 21:18:55.788
103.0, 7794.857954365963, -23950.92236410646, -27073.438712768402, 7366.464420135549, -3499.970257278712, 3285.102937829845, -20294.132267729317, 18909.41934697859, -0.094, 0.978, -0.122, 192.0, 0.0, 0.0, 0.0, 0.0, 0.0, 0.0, 0.0, 0.0, 0.0, 1.741745935788117E9, 0.0, 2025-03-11 21:18:55.788
104.0, 7792.265152009149, -23951.905840862495, -27078.713724459856, 7366.017385246442, -3504.3959026808625, 3293.8871734007807, -20297.127401486327, 18912.682701669062, -0.094, 0.978, -0.122, 192.0, 0.0, 0.0, 0.0, 0.0, 0.0, 0.0, 0.0, 0.0, 0.0, 1.74174593578813E9, 0.0, 2025-03-11 21:18:55.788
105.0, 7791.773413631131, -23957.761997909787, -27080.41245703846, 7355.512065352448, -3503.4571294137395, 3293.9989321230573, -20293.193494462193, 18902.289140497345, -0.094, 0.978, -0.122, 192.0, 0.0, 0.0, 0.0, 0.0, 0.0, 0.0, 0.0, 0.0, 0.0, 1.741745935788141E9, 0.0, 2025-03-11 21:18:55.788
106.0, 7795.483803210713, -23961.94177412293, -27082.31235531716, 7342.391591357183, -3504.7088271032367, 3300.5926967373725, -20300.54721838799, 18888.36400370169, -0.094, 0.978, -0.122, 192.0, 0.0, 0.0, 0.0, 0.0, 0.0, 0.0, 0.0, 0.0, 0.0, 1.741745935788153E9, 0.0, 2025-03-11 21:18:55.788
107.0, 7802.0105125916625, -23961.561794467187, -27078.087875615107, 7368.498428880982, -3505.3346759479855, 3280.587885449873, -20303.072965511437, 18881.39025943163, -0.08600000000000001, 0.982, -0.1, 192.0, 253.0, 80.0, 30.0, 176.0, 252.0, 224.0, 0.0, 0.0, 0.0, 1.741745935788164E9, 0.0, 2025-03-11 21:18:55.788
108.0, 7803.597486447989, -23954.163367052482, -27074.60100348008, 7381.663606365158, -3505.4240829258065, 3273.234161524077, -20303.721166100644, 18883.44661992152, -0.08600000000000001, 0.982, -0.1, 192.0, 0.0, 0.0, 0.0, 0.0, 0.0, 0.0, 0.0, 0.0, 0.0, 1.741745935788211E9, 0.0, 2025-03-11 21:18:55.788
109.0, 7809.431291750824, -23943.36747448057, -27068.610735966056, 7378.93669354161, -3501.937210790779, 3279.805574393937, -20293.90875028476, 18901.59623641923, -0.08600000000000001, 0.982, -0.1, 192.0, 0.0, 0.0, 0.0, 0.0, 0.0, 0.0, 0.0, 0.0, 0.0, 1.741745935788222E9, 0.0, 2025-03-11 21:18:55.788
110.0, 7798.993027090196, -23950.877660617552, -27074.6904104579, 7380.948350542588, -3510.8108533395357, 3280.9678651056133, -20301.68715735521, 18897.662329395098, -0.08600000000000001, 0.982, -0.1, 192.0, 0.0, 0.0, 0.0, 0.0, 0.0, 0.0, 0.0, 0.0, 0.0, 1.741745935788234E9, 0.0, 2025-03-11 21:18:55.788
111.0, 7794.008588076662, -23955.057436830695, -27078.378448293028, 7372.678205094124, -3515.6835336307927, 3287.382815764286, -20306.381023690825, 18894.73425087145, -0.08600000000000001, 0.982, -0.1, 192.0, 0.0, 0.0, 0.0, 0.0, 0.0, 0.0, 0.0, 0.0, 0.0, 1.741745935788245E9, 0.0, 2025-03-11 21:18:55.788
112.0, 7791.840468864498, -23953.135186807536, -27084.212253595862, 7360.116524710242, -3519.88566158839, 3294.1106908453335, -20315.142907517304, 18889.436887435542, -0.08600000000000001, 0.982, -0.1, 192.0, 0.0, 0.0, 0.0, 0.0, 0.0, 0.0, 0.0, 0.0, 0.0, 1.741745935788256E9, 0.0, 2025-03-11 21:18:55.788
113.0, 7780.508134425657, -23968.40142827051, -27097.60094852459, 7341.966908212532, -3531.9779553387116, 3285.102937829845, -20323.904791343786, 18869.2532621924, -0.08600000000000001, 0.982, -0.1, 192.0, 0.0, 0.0, 0.0, 0.0, 0.0, 0.0, 0.0, 0.0, 0.0, 1.741745935788267E9, 0.0, 2025-03-11 21:18:55.788
114.0, 7787.7500996291765, -23964.892204391028, -27091.32010833265, 7346.414905359138, -3528.9828215817, 3288.8133274094257, -20322.161355276272, 18865.78874180183, -0.08600000000000001, 0.982, -0.1, 192.0, 0.0, 0.0, 0.0, 0.0, 0.0, 0.0, 0.0, 0.0, 0.0, 1.741745935788279E9, 0.0, 2025-03-11 21:18:55.788
115.0, 7796.556686944567, -23949.849480372606, -27074.31043080216, 7373.8404958058, -3508.575678894005, 3303.1854990941883, -20299.429631165225, 18886.3076432118, -0.08600000000000001, 0.982, -0.1, 192.0, 0.0, 0.0, 0.0, 0.0, 0.0, 0.0, 0.0, 0.0, 0.0, 1.741745935788301E9, 0.0, 2025-03-11 21:18:55.788
116.0, 7806.637323693911, -23947.21197452688, -27066.97905862082, 7386.6033418897805, -3506.2734492151085, 3293.9989321230573, -20295.473372396635, 18905.396032976634, -0.08600000000000001, 0.982, -0.1, 192.0, 0.0, 0.0, 0.0, 0.0, 0.0, 0.0, 0.0, 0.0, 0.0, 1.741745935788312E9, 0.0, 2025-03-11 21:18:55.788
117.0, 7808.090187083506, -23949.6036111836, -27071.40470402297, 7368.632539347714, -3506.116987003921, 3289.036844853979, -20297.59678811989, 18894.35427121571, -0.084, 0.982, -0.1, 192.0, 253.0, 96.0, 30.0, 176.0, 252.0, 224.0, 0.0, 0.0, 0.0, 1.741745935850311E9, 0.0, 2025-03-11 21:18:55.850
118.0, 7808.224297550238, -23943.993323325318, -27065.146215575485, 7378.199085974585, -3497.399806666351, 3294.9600571346355, -20282.934043757206, 18922.673931440586, -0.084, 0.982, -0.1, 192.0, 0.0, 0.0, 0.0, 0.0, 0.0, 0.0, 0.0, 0.0, 0.0, 1.74174593585035E9, 0.0, 2025-03-11 21:18:55.850
119.0, 7802.234030036215, -23950.721198406365, -27073.17049183494, 7371.448859149082, -3507.5922021379715, 3280.207905794133, -20294.95928227416, 18906.5136201994, -0.084, 0.982, -0.1, 192.0, 0.0, 0.0, 0.0, 0.0, 0.0, 0.0, 0.0, 0.0, 0.0, 1.741745935850363E9, 0.0, 2025-03-11 21:18:55.850
120.0, 7803.753948659176, -23944.77563438125, -27071.494111000793, 7375.31571093985, -3507.6369056268823, 3283.739481418071, -20296.97093927514, 18900.590407918742, -0.084, 0.982, -0.1, 192.0, 0.0, 0.0, 0.0, 0.0, 0.0, 0.0, 0.0, 0.0, 0.0, 1.741745935850382E9, 0.0, 2025-03-11 21:18:55.850
121.0, 7802.859878880964, -23952.062303073682, -27073.908099401964, 7381.529495898426, -3508.150995749354, 3287.8298506533924, -20299.720203843142, 18895.136582271647, -0.084, 0.982, -0.1, 192.0, 0.0, 0.0, 0.0, 0.0, 0.0, 0.0, 0.0, 0.0, 0.0, 1.741745935850394E9, 0.0, 2025-03-11 21:18:55.850
122.0, 7797.584867189511, -23952.21876528487, -27082.602927995078, 7361.234111933007, -3515.996458053167, 3275.6034464363393, -20308.92912255873, 18886.55351240081, -0.084, 0.982, -0.1, 192.0, 0.0, 0.0, 0.0, 0.0, 0.0, 0.0, 0.0, 0.0, 0.0, 1.741745935850405E9, 0.0, 2025-03-11 21:18:55.850
123.0, 7796.936666600307, -23963.238175301336, -27086.201558852383, 7346.258443147951, -3521.2267662557088, 3272.4071469792307, -20314.762927861564, 18878.97627103046, -0.084, 0.982, -0.1, 192.0, 0.0, 0.0, 0.0, 0.0, 0.0, 0.0, 0.0, 0.0, 0.0, 1.741745935850416E9, 0.0, 2025-03-11 21:18:55.850
124.0, 7803.195155047793, -23957.873756632063, -27077.10439885907, 7359.155399698663, -3514.387132452385, 3292.3449030333645, -20309.666730125755, 18884.340689699733, -0.084, 0.982, -0.1, 192.0, 0.0, 0.0, 0.0, 0.0, 0.0, 0.0, 0.0, 0.0, 0.0, 1.741745935850472E9, 0.0, 2025-03-11 21:18:55.850
125.0, 7795.796727633086, -23955.102140319603, -27076.74677094779, 7351.891082750689, -3509.5815073944937, 3310.2486503420655, -20292.142962472793, 18906.98300683296, -0.084, 0.982, -0.1, 192.0, 0.0, 0.0, 0.0, 0.0, 0.0, 0.0, 0.0, 0.0, 0.0, 1.741745935850485E9, 0.0, 2025-03-11 21:18:55.850
126.0, 7794.165050287849, -23954.342181008124, -27074.22102382434, 7380.724833098035, -3512.0401992845777, 3296.6364379687834, -20298.580264875924, 18905.328977743266, -0.084, 0.982, -0.1, 192.0, 0.0, 0.0, 0.0, 0.0, 0.0, 0.0, 0.0, 0.0, 0.0, 1.741745935850496E9, 0.0, 2025-03-11 21:18:55.850
127.0, 7799.149489301382, -23942.451052957902, -27072.83521566811, 7385.105775011275, -3510.1403010058766, 3289.550934976451, -20302.268302711047, 18905.30662599881, -0.088, 0.98, -0.096, 192.0, 253.0, 64.0, 30.0, 160.0, 253.0, 0.0, 0.0, 0.0, 0.0, 1.741745935850506E9, 0.0, 2025-03-11 21:18:55.850
128.0, 7801.608181191466, -23941.422872712956, -27078.847834926586, 7375.874504551233, -3517.6504871428597, 3288.1204233313115, -20308.72795685863, 18892.208503748003, -0.088, 0.98, -0.096, 192.0, 0.0, 0.0, 0.0, 0.0, 0.0, 0.0, 0.0, 0.0, 0.0, 1.741745935850518E9, 0.0, 2025-03-11 21:18:55.850
129.0, 7806.793785905098, -23948.26250651628, -27070.6894482004, 7379.271969708439, -3502.9430392912677, 3286.131118074789, -20298.4908578981, 18887.514637412387, -0.088, 0.98, -0.096, 192.0, 0.0, 0.0, 0.0, 0.0, 0.0, 0.0, 0.0, 0.0, 0.0, 1.741745935850528E9, 0.0, 2025-03-11 21:18:55.850
130.0, 7797.11548055595, -23951.704675162397, -27069.013067366253, 7385.150478500185, -3501.3337136904856, 3294.55772573444, -20290.757154316565, 18897.192942761536, -0.088, 0.98, -0.096, 192.0, 0.0, 0.0, 0.0, 0.0, 0.0, 0.0, 0.0, 0.0, 0.0, 1.741745935850559E9, 0.0, 2025-03-11 21:18:55.850
131.0, 7795.953189844274, -23950.050646072705, -27072.03055286772, 7378.355548185772, -3507.480443415695, 3279.291484271465, -20296.479200897124, 18883.49132341043, -0.088, 0.98, -0.096, 192.0, 0.0, 0.0, 0.0, 0.0, 0.0, 0.0, 0.0, 0.0, 0.0, 1.741745935850569E9, 0.0, 2025-03-11 21:18:55.850
132.0, 7789.672349652333, -23960.64537294452, -27078.847834926586, 7369.07957423682, -3511.1684812508206, 3280.5655337054177, -20306.73865160211, 18886.73232635645, -0.088, 0.98, -0.096, 192.0, 0.0, 0.0, 0.0, 0.0, 0.0, 0.0, 0.0, 0.0, 0.0, 1.741745935908584E9, 0.0, 2025-03-11 21:18:55.908
133.0, 7792.891000853897, -23965.69686719142, -27081.753561705777, 7361.390574144194, -3514.8565190859463, 3288.299237286954, -20300.770735832542, 18895.58361716075, -0.088, 0.98, -0.096, 192.0, 0.0, 0.0, 0.0, 0.0, 0.0, 0.0, 0.0, 0.0, 0.0, 1.741745935908595E9, 0.0, 2025-03-11 21:18:55.908
134.0, 7795.774375888632, -23961.762960167285, -27077.640840726002, 7357.166094442141, -3506.474614915206, 3284.722958174105, -20297.976767775628, 18896.58944566124, -0.088, 0.98, -0.096, 192.0, 0.0, 0.0, 0.0, 0.0, 0.0, 0.0, 0.0, 0.0, 0.0, 1.741745935908604E9, 0.0, 2025-03-11 21:18:55.908
135.0, 7788.711224640754, -23962.969954367873, -27075.428018024926, 7366.55382711337, -3503.50183290265, 3286.5334494749845, -20298.937892787206, 18909.329940000767, -0.088, 0.98, -0.096, 192.0, 0.0, 0.0, 0.0, 0.0, 0.0, 0.0, 0.0, 0.0, 0.0, 1.741745935908611E9, 0.0, 2025-03-11 21:18:55.908
136.0, 7804.133928314916, -23961.382980511546, -27068.29781154368, 7376.209780718063, -3499.4561671562396, 3311.2768305870095, -20291.07007873894, 18907.3629864887, -0.088, 0.98, -0.096, 192.0, 0.0, 0.0, 0.0, 0.0, 0.0, 0.0, 0.0, 0.0, 0.0, 1.741745935908619E9, 0.0, 2025-03-11 21:18:55.908
137.0, 7806.704378927277, -23960.086579333136, -27065.436788253402, 7380.188391231107, -3494.2258589536978, 3324.5984702823725, -20287.270282181536, 18914.582599947764, -0.09, 0.978, -0.096, 192.0, 253.0, 48.0, 30.0, 144.0, 253.0, 0.0, 0.0, 0.0, 0.0, 1.741745935908628E9, 0.0, 2025-03-11 21:18:55.908
138.0, 7800.110614312961, -23956.867928131574, -27073.952802890875, 7358.55190259837, -3499.187946222776, 3300.1456618482666, -20292.96997701764, 18898.46699219549, -0.09, 0.978, -0.096, 192.0, 0.0, 0.0, 0.0, 0.0, 0.0, 0.0, 0.0, 0.0, 0.0, 1.741745935908636E9, 0.0, 2025-03-11 21:18:55.908
139.0, 7798.702454412277, -23950.050646072705, -27071.40470402297, 7359.065992720842, -3498.2938764445635, 3287.1592983197334, -20289.661918838254, 18892.230855492457, -0.09, 0.978, -0.096, 192.0, 0.0, 0.0, 0.0, 0.0, 0.0, 0.0, 0.0, 0.0, 0.0, 1.741745935908644E9, 0.0, 2025-03-11 21:18:55.908
140.0, 7799.417710234847, -23966.523881736266, -27071.695276700888, 7377.707347596568, -3504.865289314424, 3277.8609726263253, -20297.037994508504, 18895.11423052719, -0.09, 0.978, -0.096, 192.0, 0.0, 0.0, 0.0, 0.0, 0.0, 0.0, 0.0, 0.0, 0.0, 1.741745935908664E9, 0.0, 2025-03-11 21:18:55.908
141.0, 7795.930838099818, -23970.07780910466, -27075.159797091463, 7365.637405590703, -3508.061588771533, 3272.7647748905156, -20301.06130851046, 18897.908198584104, -0.09, 0.978, -0.096, 192.0, 0.0, 0.0, 0.0, 0.0, 0.0, 0.0, 0.0, 0.0, 0.0, 1.741745935908672E9, 0.0, 2025-03-11 21:18:55.908
142.0, 7802.345788758492, -23958.700771176907, -27067.64961095448, 7374.913379539655, -3497.399806666351, 3281.5713622059066, -20294.422840407235, 18901.462125952497, -0.09, 0.978, -0.096, 192.0, 0.0, 0.0, 0.0, 0.0, 0.0, 0.0, 0.0, 0.0, 0.0, 1.74174593590868E9, 0.0, 2025-03-11 21:18:55.908
143.0, 7791.415785719846, -23969.89899514902, -27074.93627964691, 7370.51008588196, -3510.676742872804, 3279.6267604382947, -20305.531657401523, 18888.140486257136, -0.09, 0.978, -0.096, 192.0, 0.0, 0.0, 0.0, 0.0, 0.0, 0.0, 0.0, 0.0, 0.0, 1.741745935908688E9, 0.0, 2025-03-11 21:18:55.908
144.0, 7787.034843806607, -23967.01562011428, -27075.02568662473, 7365.190370701596, -3508.709789360737, 3270.5296004449847, -20302.78239283352, 18888.02872753486, -0.09, 0.978, -0.096, 192.0, 0.0, 0.0, 0.0, 0.0, 0.0, 0.0, 0.0, 0.0, 0.0, 1.741745935908696E9, 0.0, 2025-03-11 21:18:55.908
145.0, 7782.810364104554, -23973.475274261866, -27081.39593379449, 7358.6636613206465, -3512.1296062623987, 3271.133097545278, -20303.16237248926, 18878.283366952346, -0.09, 0.978, -0.096, 192.0, 0.0, 0.0, 0.0, 0.0, 0.0, 0.0, 0.0, 0.0, 0.0, 1.741745935908704E9, 0.0, 2025-03-11 21:18:55.908
146.0, 7803.575134703534, -23966.926213136463, -27074.042209868698, 7357.993108986987, -3508.150995749354, 3276.3857574922754, -20298.513209642555, 18887.559340901298, -0.09, 0.978, -0.096, 192.0, 0.0, 0.0, 0.0, 0.0, 0.0, 0.0, 0.0, 0.0, 0.0, 1.741745935908716E9, 0.0, 2025-03-11 21:18:55.908
147.0, 7809.610105706466, -23956.063265331184, -27066.040285353698, 7364.139838712197, -3500.663161356826, 3283.2700947845096, -20293.506418884568, 18894.466029937987, -0.084, 0.978, -0.1, 192.0, 253.0, 96.0, 30.0, 144.0, 252.0, 224.0, 0.0, 0.0, 0.0, 1.741745935967481E9, 0.0, 2025-03-11 21:18:55.967
148.0, 7811.867631896453, -23943.769805880762, -27057.725436416324, 7389.419661691149, -3491.096614729955, 3295.094167601367, -20279.447171622178, 18905.060756809802, -0.084, 0.978, -0.1, 192.0, 0.0, 0.0, 0.0, 0.0, 0.0, 0.0, 0.0, 0.0, 0.0, 1.741745935967495E9, 0.0, 2025-03-11 21:18:55.967
149.0, 7812.78405341912, -23940.48409944583, -27052.159852046952, 7396.505164683482, -3484.8381262824687, 3304.280734572498, -20273.076924452416, 18923.277428540878, -0.084, 0.978, -0.1, 192.0, 0.0, 0.0, 0.0, 0.0, 0.0, 0.0, 0.0, 0.0, 0.0, 1.741745935967504E9, 0.0, 2025-03-11 21:18:55.967
150.0, 7809.565402217556, -23940.864079101575, -27056.429035237914, 7391.721891370045, -3485.732196060681, 3310.203946853155, -20281.01179373405, 18924.395015763643, -0.084, 0.978, -0.1, 192.0, 0.0, 0.0, 0.0, 0.0, 0.0, 0.0, 0.0, 0.0, 0.0, 1.741745935967512E9, 0.0, 2025-03-11 21:18:55.967
151.0, 7808.760739417165, -23940.819375612664, -27060.67586668442, 7394.60526640478, -3492.840050797469, 3307.745254963071, -20294.221674707136, 18918.248286038433, -0.084, 0.978, -0.1, 192.0, 0.0, 0.0, 0.0, 0.0, 0.0, 0.0, 0.0, 0.0, 0.0, 1.74174593596752E9, 0.0, 2025-03-11 21:18:55.967
152.0, 7802.949285858785, -23948.12839604955, -27065.570898720136, 7381.708309854068, -3500.573754379005, 3298.424577525208, -20301.329529443923, 18907.854724866716, -0.084, 0.978, -0.1, 192.0, 0.0, 0.0, 0.0, 0.0, 0.0, 0.0, 0.0, 0.0, 0.0, 1.741745935967528E9, 0.0, 2025-03-11 21:18:55.967
153.0, 7793.181573531816, -23955.97385835336, -27079.563090749158, 7370.51008588196, -3516.4211411978176, 3280.878458127792, -20318.60742790788, 18887.53698915684, -0.084, 0.978, -0.1, 192.0, 0.0, 0.0, 0.0, 0.0, 0.0, 0.0, 0.0, 0.0, 0.0, 1.741745935967536E9, 0.0, 2025-03-11 21:18:55.967
154.0, 7801.272905024637, -23951.302343762203, -27077.663192470456, 7372.454687649571, -3516.644658642371, 3278.5985801933507, -20317.78041336303, 18885.614739133685, -0.084, 0.978, -0.1, 192.0, 0.0, 0.0, 0.0, 0.0, 0.0, 0.0, 0.0, 0.0, 0.0, 1.741745935967544E9, 0.0, 2025-03-11 21:18:55.967
155.0, 7800.110614312961, -23965.22748055786, -27081.619451239047, 7360.898835766177, -3518.1422255208763, 3273.0553475684346, -20327.03403556753, 18854.5011108519, -0.084, 0.978, -0.1, 192.0, 0.0, 0.0, 0.0, 0.0, 0.0, 0.0, 0.0, 0.0, 0.0, 1.741745935967559E9, 0.0, 2025-03-11 21:18:55.967
156.0, 7795.081471810517, -23956.957335109393, -27084.07814312913, 7343.97856521351, -3519.572737166016, 3265.6569201537277, -20324.35182623289, 18858.278555664845, -0.084, 0.978, -0.1, 192.0, 0.0, 0.0, 0.0, 0.0, 0.0, 0.0, 0.0, 0.0, 0.0, 1.741745935967567E9, 0.0, 2025-03-11 21:18:55.967
157.0, 7799.73063465722, -23953.045779829718, -27074.802169180177, 7358.55190259837, -3508.128644004899, 3293.6636559562276, -20306.40337543528, 18879.289195452835, -0.084, 0.984, -0.1, 192.0, 253.0, 96.0, 30.0, 192.0, 252.0, 224.0, 0.0, 0.0, 0.0, 1.741745935967575E9, 0.0, 2025-03-11 21:18:55.967
158.0, 7814.907469142374, -23946.295553004213, -27061.391122506993, 7396.259295494473, -3489.4649373847174, 3309.8910224307806, -20294.244026451594, 18910.15695454561, -0.084, 0.984, -0.1, 192.0, 0.0, 0.0, 0.0, 0.0, 0.0, 0.0, 0.0, 0.0, 0.0, 1.741745935967584E9, 0.0, 2025-03-11 21:18:55.967
159.0, 7801.429367235824, -23956.398541498012, -27071.11413134505, 7385.217533733551, -3498.2044694667425, 3305.577135750906, -20301.016605021552, 18901.417422463586, -0.084, 0.984, -0.1, 192.0, 0.0, 0.0, 0.0, 0.0, 0.0, 0.0, 0.0, 0.0, 0.0, 1.741745935967592E9, 0.0, 2025-03-11 21:18:55.967
160.0, 7793.785070632109, -23964.467521246377, -27075.763294191755, 7375.405117917671, -3498.964428778223, 3282.6665976842164, -20300.211942221158, 18898.3105299843, -0.084, 0.984, -0.1, 192.0, 0.0, 0.0, 0.0, 0.0, 0.0, 0.0, 0.0, 0.0, 0.0, 1.7417459359676E9, 0.0, 2025-03-11 21:18:55.967
161.0, 7800.222373035237, -23964.668686946476, -27072.7905121792, 7366.375013157727, -3496.729254332692, 3273.100051057345, -20301.597750377387, 18890.777992102863, -0.084, 0.984, -0.1, 192.0, 0.0, 0.0, 0.0, 0.0, 0.0, 0.0, 0.0, 0.0, 0.0, 1.741745935967612E9, 0.0, 2025-03-11 21:18:55.967
162.0, 7802.5916579475, -23960.533614222244, -27067.582555721114, 7367.447896891582, -3492.0130362526224, 3283.806536651437, -20293.77463981803, 18893.907236326606, -0.084, 0.984, -0.1, 192.0, 0.0, 0.0, 0.0, 0.0, 0.0, 0.0, 0.0, 0.0, 0.0, 1.741745936027663E9, 0.0, 2025-03-11 21:18:56.027
163.0, 7808.559573717067, -23953.179890296447, -27061.30171552917, 7382.065937765353, -3485.955713505234, 3315.2777928445093, -20282.263491423546, 18916.258980781913, -0.084, 0.984, -0.1, 192.0, 0.0, 0.0, 0.0, 0.0, 0.0, 0.0, 0.0, 0.0, 0.0, 1.741745936027678E9, 0.0, 2025-03-11 21:18:56.027
164.0, 7792.533372942612, -23951.503509462298, -27068.87895689952, 7380.054280764375, -3491.163669963321, 3314.383723066297, -20291.897093283784, 18909.77697488987, -0.084, 0.984, -0.1, 192.0, 0.0, 0.0, 0.0, 0.0, 0.0, 0.0, 0.0, 0.0, 0.0, 1.741745936027687E9, 0.0, 2025-03-11 21:18:56.027
165.0, 7790.655826408366, -23955.437416486435, -27071.40470402297, 7372.186466716107, -3492.415367652818, 3292.456661755641, -20292.768811317543, 18896.12005902768, -0.084, 0.984, -0.1, 192.0, 0.0, 0.0, 0.0, 0.0, 0.0, 0.0, 0.0, 0.0, 0.0, 1.741745936027695E9, 0.0, 2025-03-11 21:18:56.027
166.0, 7792.466317709246, -23956.17502405346, -27071.96349763435, 7374.131068483719, -3497.086882243977, 3278.9562081046356, -20296.322738685936, 18897.528218928364, -0.084, 0.984, -0.1, 192.0, 0.0, 0.0, 0.0, 0.0, 0.0, 0.0, 0.0, 0.0, 0.0, 1.741745936027703E9, 0.0, 2025-03-11 21:18:56.027
167.0, 7797.607218933967, -23957.56083220969, -27072.432884267913, 7374.712213839557, -3502.563059635527, 3286.689911686172, -20299.69785209869, 18899.606931162707, -0.08, 0.976, -0.106, 192.0, 253.0, 128.0, 30.0, 128.0, 252.0, 176.0, 0.0, 0.0, 0.0, 1.741745936027711E9, 0.0, 2025-03-11 21:18:56.027
168.0, 7811.733521429721, -23954.49864321931, -27062.955744618863, 7378.333196441316, -3493.3541409199406, 3297.396397280264, -20286.39856414778, 18916.54955345983, -0.08, 0.976, -0.106, 192.0, 0.0, 0.0, 0.0, 0.0, 0.0, 0.0, 0.0, 0.0, 0.0, 1.74174593602772E9, 0.0, 2025-03-11 21:18:56.027
169.0, 7804.156280059372, -23955.012733341784, -27061.391122506993, 7383.004711032476, -3488.906143773335, 3299.5421647479734, -20285.97388100313, 18906.133640543656, -0.08, 0.976, -0.106, 192.0, 0.0, 0.0, 0.0, 0.0, 0.0, 0.0, 0.0, 0.0, 0.0, 1.741745936027728E9, 0.0, 2025-03-11 21:18:56.027
170.0, 7794.857954365963, -23956.577355453654, -27066.487320242803, 7373.7510888279785, -3490.314303674019, 3290.9814466215907, -20290.108953727362, 18899.45046895152, -0.08, 0.976, -0.106, 192.0, 0.0, 0.0, 0.0, 0.0, 0.0, 0.0, 0.0, 0.0, 0.0, 1.741745936027736E9, 0.0, 2025-03-11 21:18:56.027
171.0, 7797.718977656243, -23959.88541363304, -27066.44261675389, 7381.350681942783, -3490.537821118572, 3290.489708243574, -20293.998157262584, 18901.260960252403, -0.08, 0.976, -0.106, 192.0, 0.0, 0.0, 0.0, 0.0, 0.0, 0.0, 0.0, 0.0, 0.0, 1.741745936027761E9, 0.0, 2025-03-11 21:18:56.027
172.0, 7797.271942767137, -23964.93690787994, -27066.777892920723, 7388.570295401847, -3490.604876351938, 3284.2088680516326, -20295.607482863365, 18915.253152281424, -0.08, 0.976, -0.106, 192.0, 0.0, 0.0, 0.0, 0.0, 0.0, 0.0, 0.0, 0.0, 0.0, 1.741745936027769E9, 0.0, 2025-03-11 21:18:56.027
173.0, 7791.751061886676, -23966.903861392006, -27069.817730166644, 7371.404155660171, -3490.470765885206, 3280.185554049677, -20291.360651416857, 18901.775050374872, -0.08, 0.976, -0.106, 192.0, 0.0, 0.0, 0.0, 0.0, 0.0, 0.0, 0.0, 0.0, 0.0, 1.741745936027777E9, 0.0, 2025-03-11 21:18:56.027
174.0, 7799.484765468213, -23963.349934023612, -27069.88478540001, 7362.530513111415, -3495.410501409829, 3286.8910773862694, -20300.457811410168, 18889.101611268714, -0.08, 0.976, -0.106, 192.0, 0.0, 0.0, 0.0, 0.0, 0.0, 0.0, 0.0, 0.0, 0.0, 1.741745936027785E9, 0.0, 2025-03-11 21:18:56.027
175.0, 7804.133928314916, -23956.063265331184, -27060.966439362342, 7397.108661783775, -3486.1345274608766, 3294.647132712261, -20291.69592758369, 18897.438811950542, -0.08, 0.976, -0.106, 192.0, 0.0, 0.0, 0.0, 0.0, 0.0, 0.0, 0.0, 0.0, 0.0, 1.741745936027793E9, 0.0, 2025-03-11 21:18:56.027
176.0, 7789.225314763226, -23950.520032706267, -27073.08108485712, 7371.113582982252, -3496.2151642102203, 3285.1699930632108, -20301.038956766006, 18888.676928124063, -0.08, 0.976, -0.106, 192.0, 0.0, 0.0, 0.0, 0.0, 0.0, 0.0, 0.0, 0.0, 0.0, 1.741745936027801E9, 0.0, 2025-03-11 21:18:56.027
177.0, 7793.963884587752, -23950.40827398399, -27072.11995984554, 7370.174809715129, -3497.1092339884326, 3286.3099320304314, -20299.273168954038, 18890.93445431405, -0.078, 0.97, -0.10200000000000001, 192.0, 253.0, 144.0, 30.0, 80.0, 252.0, 208.0, 0.0, 0.0, 0.0, 1.74174593608928E9, 0.0, 2025-03-11 21:18:56.089
178.0, 7799.037730579106, -23961.382980511546, -27068.49897724378, 7385.061071522364, -3491.6777600857927, 3284.432385496186, -20293.97580551813, 18891.89557932563, -0.078, 0.97, -0.10200000000000001, 192.0, 0.0, 0.0, 0.0, 0.0, 0.0, 0.0, 0.0, 0.0, 0.0, 1.741745936089292E9, 0.0, 2025-03-11 21:18:56.089
179.0, 7795.4390997218015, -23959.63954444403, -27070.443579011393, 7375.226303962029, -3493.3541409199406, 3277.7715656485043, -20296.680366597222, 18893.817829348784, -0.078, 0.97, -0.10200000000000001, 192.0, 0.0, 0.0, 0.0, 0.0, 0.0, 0.0, 0.0, 0.0, 0.0, 1.741745936089301E9, 0.0, 2025-03-11 21:18:56.089
180.0, 7801.16114630236, -23947.54725069371, -27063.246317296784, 7376.478001651526, -3484.9051815158346, 3285.348807018853, -20289.57251186043, 18901.17155327458, -0.078, 0.97, -0.10200000000000001, 192.0, 0.0, 0.0, 0.0, 0.0, 0.0, 0.0, 0.0, 0.0, 0.0, 1.741745936089309E9, 0.0, 2025-03-11 21:18:56.089
181.0, 7794.567381688044, -23955.057436830695, -27061.189956806895, 7376.925036540632, -3477.842030267958, 3301.3750077933087, -20278.553101843965, 18921.779861662373, -0.078, 0.97, -0.10200000000000001, 192.0, 0.0, 0.0, 0.0, 0.0, 0.0, 0.0, 0.0, 0.0, 0.0, 1.741745936089317E9, 0.0, 2025-03-11 21:18:56.089
182.0, 7794.5897334325, -23963.707561934898, -27060.92173587343, 7379.3837284307165, -3481.284198914075, 3311.835624198392, -20278.374287888324, 18929.424158266087, -0.078, 0.97, -0.10200000000000001, 192.0, 0.0, 0.0, 0.0, 0.0, 0.0, 0.0, 0.0, 0.0, 0.0, 1.741745936089325E9, 0.0, 2025-03-11 21:18:56.089
183.0, 7788.375948473925, -23974.771675440275, -27074.668058713443, 7360.183579943608, -3498.986780522678, 3295.518850746018, -20297.976767775628, 18891.605006647707, -0.078, 0.97, -0.10200000000000001, 192.0, 0.0, 0.0, 0.0, 0.0, 0.0, 0.0, 0.0, 0.0, 0.0, 1.741745936089333E9, 0.0, 2025-03-11 21:18:56.089
184.0, 7798.702454412277, -23963.32758227916, -27070.331820289117, 7377.439126663105, -3494.9858182651783, 3280.3643680053196, -20302.4918201556, 18883.223102476968, -0.078, 0.97, -0.10200000000000001, 192.0, 0.0, 0.0, 0.0, 0.0, 0.0, 0.0, 0.0, 0.0, 0.0, 1.741745936089341E9, 0.0, 2025-03-11 21:18:56.089
185.0, 7804.35744575947, -23958.253736287803, -27065.660305697955, 7369.191332959096, -3489.1296612178876, 3296.5693827354175, -20293.819343306943, 18901.842105608237, -0.078, 0.97, -0.10200000000000001, 192.0, 0.0, 0.0, 0.0, 0.0, 0.0, 0.0, 0.0, 0.0, 0.0, 1.741745936089349E9, 0.0, 2025-03-11 21:18:56.089
186.0, 7797.696625911788, -23966.054495102704, -27073.572823235136, 7357.389611886694, -3496.9527717772453, 3284.9911791075683, -20301.798916077485, 18884.720669355473, -0.078, 0.97, -0.10200000000000001, 192.0, 0.0, 0.0, 0.0, 0.0, 0.0, 0.0, 0.0, 0.0, 0.0, 1.741745936089364E9, 0.0, 2025-03-11 21:18:56.089
187.0, 7796.534335200112, -23959.147806066016, -27071.449407511882, 7379.6743011086355, -3493.175326964298, 3295.161222834733, -20296.993291019597, 18886.441753678533, -0.074, 0.974, -0.10200000000000001, 192.0, 253.0, 176.0, 30.0, 112.0, 252.0, 208.0, 0.0, 0.0, 0.0, 1.741745936089372E9, 0.0, 2025-03-11 21:18:56.089
188.0, 7793.583904932011, -23954.789215897228, -27070.465930755847, 7381.931827298621, -3488.0791292284885, 3299.8997926592583, -20294.266378196047, 18905.150163787624, -0.074, 0.974, -0.10200000000000001, 192.0, 0.0, 0.0, 0.0, 0.0, 0.0, 0.0, 0.0, 0.0, 0.0, 1.741745936089382E9, 0.0, 2025-03-11 21:18:56.089
189.0, 7800.289428268604, -23951.704675162397, -27067.806073165666, 7385.441051178104, -3489.3755304068964, 3292.903696644747, -20291.383003161314, 18918.98589360546, -0.074, 0.974, -0.10200000000000001, 192.0, 0.0, 0.0, 0.0, 0.0, 0.0, 0.0, 0.0, 0.0, 0.0, 1.741745936089391E9, 0.0, 2025-03-11 21:18:56.089
190.0, 7806.547916716089, -23946.89905010451, -27069.214233066352, 7385.061071522364, -3492.6835885862815, 3296.122347846311, -20293.081735739917, 18907.653559166618, -0.074, 0.974, -0.10200000000000001, 192.0, 0.0, 0.0, 0.0, 0.0, 0.0, 0.0, 0.0, 0.0, 0.0, 1.741745936089399E9, 0.0, 2025-03-11 21:18:56.089
191.0, 7812.895812141396, -23939.5006226898, -27061.68169518491, 7395.387577460716, -3481.351254147441, 3296.524679246507, -20285.035107736006, 18917.085995326757, -0.074, 0.974, -0.10200000000000001, 192.0, 0.0, 0.0, 0.0, 0.0, 0.0, 0.0, 0.0, 0.0, 0.0, 1.741745936089407E9, 0.0, 2025-03-11 21:18:56.089
192.0, 7804.290390526104, -23950.318867006168, -27063.246317296784, 7390.693711125102, -3477.0820709564773, 3304.7948246949704, -20281.59293908989, 18928.440681510056, -0.074, 0.974, -0.10200000000000001, 192.0, 0.0, 0.0, 0.0, 0.0, 0.0, 0.0, 0.0, 0.0, 0.0, 1.741745936148151E9, 0.0, 2025-03-11 21:18:56.148
193.0, 7790.231143263715, -23972.156521339002, -27080.21129133836, 7370.979472515521, -3495.790481065569, 3286.1087663303338, -20298.736727087107, 18901.50682944141, -0.074, 0.974, -0.10200000000000001, 192.0, 0.0, 0.0, 0.0, 0.0, 0.0, 0.0, 0.0, 0.0, 0.0, 1.741745936148164E9, 0.0, 2025-03-11 21:18:56.148
194.0, 7797.942495100796, -23968.93787013744, -27083.92168091794, 7361.994071244487, -3501.4678241572174, 3274.262341769021, -20303.072965511437, 18892.610835148196, -0.074, 0.974, -0.10200000000000001, 192.0, 0.0, 0.0, 0.0, 0.0, 0.0, 0.0, 0.0, 0.0, 0.0, 1.741745936148172E9, 0.0, 2025-03-11 21:18:56.148
195.0, 7800.624704435433, -23959.058399088193, -27079.898366915986, 7368.990167258999, -3494.2705624426085, 3283.091280828867, -20297.529732886524, 18899.092841040238, -0.074, 0.974, -0.10200000000000001, 192.0, 0.0, 0.0, 0.0, 0.0, 0.0, 0.0, 0.0, 0.0, 0.0, 1.74174593614818E9, 0.0, 2025-03-11 21:18:56.148
196.0, 7799.596524190489, -23961.159463066993, -27078.624317482034, 7368.967815514543, -3490.7166350742145, 3291.9202198887137, -20288.946663015686, 18903.116155042193, -0.074, 0.974, -0.10200000000000001, 192.0, 0.0, 0.0, 0.0, 0.0, 0.0, 0.0, 0.0, 0.0, 0.0, 1.741745936148188E9, 0.0, 2025-03-11 21:18:56.148
197.0, 7799.3730067459355, -23957.650239187507, -27075.87505291403, 7357.344908397783, -3486.7603763056254, 3298.6257432253055, -20287.225578692625, 18908.681739411564, -0.076, 0.976, -0.1, 192.0, 253.0, 160.0, 30.0, 128.0, 252.0, 224.0, 0.0, 0.0, 0.0, 1.741745936148196E9, 0.0, 2025-03-11 21:18:56.148
198.0, 7796.422576477836, -23952.621096685067, -27071.717628445345, 7386.424527934138, -3483.45231812624, 3308.3040485744536, -20283.58224434641, 18913.956751103015, -0.076, 0.976, -0.1, 192.0, 0.0, 0.0, 0.0, 0.0, 0.0, 0.0, 0.0, 0.0, 0.0, 1.741745936148205E9, 0.0, 2025-03-11 21:18:56.148
199.0, 7788.174782773827, -23963.17112006797, -27080.7924366942, 7375.829801062322, -3493.9129345313236, 3298.737501947582, -20293.327604928923, 18905.46308821, -0.076, 0.976, -0.1, 192.0, 0.0, 0.0, 0.0, 0.0, 0.0, 0.0, 0.0, 0.0, 0.0, 1.741745936148213E9, 0.0, 2025-03-11 21:18:56.148
200.0, 7789.9852740747065, -23966.79210266973, -27080.63597448301, 7368.74429806999, -3494.829356053991, 3299.743330448071, -20294.06521249595, 18902.289140497345, -0.076, 0.976, -0.1, 192.0, 0.0, 0.0, 0.0, 0.0, 0.0, 0.0, 0.0, 0.0, 0.0, 1.741745936148221E9, 0.0, 2025-03-11 21:18:56.148
201.0, 7799.350655001481, -23961.964125867384, -27075.69623895839, 7376.388594673705, -3490.0460827405554, 3310.22629859761, -20287.985538004104, 18902.490306197444, -0.076, 0.976, -0.1, 192.0, 0.0, 0.0, 0.0, 0.0, 0.0, 0.0, 0.0, 0.0, 0.0, 1.741745936148229E9, 0.0, 2025-03-11 21:18:56.148
202.0, 7799.261248023659, -23956.867928131574, -27074.44454126889, 7371.784135315912, -3492.3036089305415, 3309.198118352666, -20289.39369790479, 18910.84985862373, -0.076, 0.976, -0.1, 192.0, 0.0, 0.0, 0.0, 0.0, 0.0, 0.0, 0.0, 0.0, 0.0, 1.741745936148249E9, 0.0, 2025-03-11 21:18:56.148
203.0, 7811.018265607151, -23947.949582093905, -27068.767198177244, 7372.8123155608555, -3488.1461844618543, 3302.023208382512, -20286.756192059063, 18904.63607366515, -0.076, 0.976, -0.1, 192.0, 0.0, 0.0, 0.0, 0.0, 0.0, 0.0, 0.0, 0.0, 0.0, 1.741745936148257E9, 0.0, 2025-03-11 21:18:56.148
204.0, 7806.7714341606425, -23953.78338739674, -27069.236584810806, 7365.302129423872, -3489.867268784913, 3297.6422664692723, -20289.058421737962, 18893.102573526212, -0.076, 0.976, -0.1, 192.0, 0.0, 0.0, 0.0, 0.0, 0.0, 0.0, 0.0, 0.0, 0.0, 1.741745936148265E9, 0.0, 2025-03-11 21:18:56.148
205.0, 7801.764643402654, -23958.16432930998, -27069.370695277536, 7372.968777772043, -3492.5941816084605, 3302.716112460627, -20290.108953727362, 18904.144335287136, -0.076, 0.976, -0.1, 192.0, 0.0, 0.0, 0.0, 0.0, 0.0, 0.0, 0.0, 0.0, 0.0, 1.741745936148273E9, 0.0, 2025-03-11 21:18:56.148
206.0, 7798.814213134553, -23960.779483411254, -27072.924622645933, 7359.289510165395, -3495.0081700096334, 3285.6617314412274, -20290.220712449638, 18882.932529799047, -0.076, 0.976, -0.1, 192.0, 0.0, 0.0, 0.0, 0.0, 0.0, 0.0, 0.0, 0.0, 0.0, 1.74174593614828E9, 0.0, 2025-03-11 21:18:56.148
207.0, 7793.11451829845, -23968.289669548234, -27068.67779119942, 7369.392498659194, -3489.1296612178876, 3289.595638465362, -20283.716354813143, 18884.564207144285, -0.078, 0.978, -0.098, 192.0, 253.0, 144.0, 30.0, 144.0, 252.0, 240.0, 0.0, 0.0, 0.0, 1.741745936208474E9, 0.0, 2025-03-11 21:18:56.208
208.0, 7796.534335200112, -23968.423780014968, -27063.000448107774, 7382.624731376735, -3488.5261641175944, 3298.871612414314, -20281.883511767806, 18908.346463244732, -0.078, 0.978, -0.098, 192.0, 0.0, 0.0, 0.0, 0.0, 0.0, 0.0, 0.0, 0.0, 0.0, 1.741745936208499E9, 0.0, 2025-03-11 21:18:56.208
209.0, 7807.933724872319, -23958.83488164364, -27054.953820103863, 7384.837554077811, -3480.9042192583347, 3305.912411917736, -20268.718334283632, 18908.190001033545, -0.078, 0.978, -0.098, 192.0, 0.0, 0.0, 0.0, 0.0, 0.0, 0.0, 0.0, 0.0, 0.0, 1.741745936208507E9, 0.0, 2025-03-11 21:18:56.208
210.0, 7800.490593968701, -23970.815416671685, -27060.050017839676, 7371.851190549278, -3483.5193733596057, 3309.3769323083084, -20270.77469477352, 18913.465012725, -0.078, 0.978, -0.098, 192.0, 0.0, 0.0, 0.0, 0.0, 0.0, 0.0, 0.0, 0.0, 0.0, 1.741745936208515E9, 0.0, 2025-03-11 21:18:56.208
211.0, 7794.813250877053, -23976.157483596504, -27067.87312839903, 7367.067917235842, -3494.672893842804, 3312.6626387432384, -20282.956395501664, 18934.85563216873, -0.078, 0.978, -0.098, 192.0, 0.0, 0.0, 0.0, 0.0, 0.0, 0.0, 0.0, 0.0, 0.0, 1.741745936208523E9, 0.0, 2025-03-11 21:18:56.208
212.0, 7783.749137371677, -23980.203149342913, -27072.946974390386, 7357.031983975409, -3494.5611351205275, 3317.4459120566744, -20289.952491516175, 18912.302722013323, -0.078, 0.978, -0.098, 192.0, 0.0, 0.0, 0.0, 0.0, 0.0, 0.0, 0.0, 0.0, 0.0, 1.741745936208531E9, 0.0, 2025-03-11 21:18:56.208
213.0, 7788.755928129665, -23976.47040801888, -27060.02766609522, 7377.439126663105, -3480.434832624773, 3321.6927435031826, -20273.09927619687, 18926.943114631547, -0.078, 0.978, -0.098, 192.0, 0.0, 0.0, 0.0, 0.0, 0.0, 0.0, 0.0, 0.0, 0.0, 1.741745936208539E9, 0.0, 2025-03-11 21:18:56.208
214.0, 7800.110614312961, -23975.08459986265, -27057.747788160777, 7375.114545239752, -3482.826469281491, 3308.840490441381, -20269.6347558063, 18929.200640821535, -0.078, 0.978, -0.098, 192.0, 0.0, 0.0, 0.0, 0.0, 0.0, 0.0, 0.0, 0.0, 0.0, 1.741745936208546E9, 0.0, 2025-03-11 21:18:56.208
215.0, 7805.363274259958, -23980.65018423202, -27057.323105016127, 7380.74718484249, -3489.1296612178876, 3309.3545805638532, -20276.519093098534, 18907.966483588993, -0.078, 0.978, -0.098, 192.0, 0.0, 0.0, 0.0, 0.0, 0.0, 0.0, 0.0, 0.0, 0.0, 1.741745936208554E9, 0.0, 2025-03-11 21:18:56.208
216.0, 7797.16018404486, -23987.73568722435, -27061.525232973723, 7382.915304054654, -3491.5883531079717, 3303.878403172303, -20277.904901254762, 18902.043271308336, -0.078, 0.978, -0.098, 192.0, 0.0, 0.0, 0.0, 0.0, 0.0, 0.0, 0.0, 0.0, 0.0, 1.741745936208562E9, 0.0, 2025-03-11 21:18:56.208
217.0, 7791.885172353408, -23996.698736750932, -27066.532023731714, 7370.308920181861, -3496.081053743488, 3302.9843333940908, -20279.380116388813, 18907.07241381078, -0.088, 0.97, -0.098, 192.0, 253.0, 64.0, 30.0, 80.0, 252.0, 240.0, 0.0, 0.0, 0.0, 1.741745936208575E9, 0.0, 2025-03-11 21:18:56.208
218.0, 7795.237934021704, -23996.65403326202, -27065.749712675777, 7373.907551039166, -3490.515469374117, 3311.969734665124, -20276.3849826318, 18921.89162038465, -0.088, 0.97, -0.098, 192.0, 0.0, 0.0, 0.0, 0.0, 0.0, 0.0, 0.0, 0.0, 0.0, 1.741745936208583E9, 0.0, 2025-03-11 21:18:56.208
219.0, 7792.6227799204335, -23997.637510018052, -27063.425131252425, 7364.430411390115, -3486.223934438698, 3333.0697814309337, -20266.796084260473, 18933.35806529022, -0.088, 0.97, -0.098, 192.0, 0.0, 0.0, 0.0, 0.0, 0.0, 0.0, 0.0, 0.0, 0.0, 1.741745936208591E9, 0.0, 2025-03-11 21:18:56.208
220.0, 7797.070777067039, -24002.97957694287, -27058.552450961168, 7379.964873786555, -3484.1675739488096, 3324.79963598247, -20260.269374879525, 18922.718634929497, -0.088, 0.97, -0.098, 192.0, 0.0, 0.0, 0.0, 0.0, 0.0, 0.0, 0.0, 0.0, 0.0, 1.741745936208599E9, 0.0, 2025-03-11 21:18:56.208
221.0, 7790.54406768609, -24011.875571236083, -27062.955744618863, 7387.787984345911, -3487.632094339382, 3322.6762202592163, -20266.036124948994, 18916.638960437653, -0.088, 0.97, -0.098, 192.0, 0.0, 0.0, 0.0, 0.0, 0.0, 0.0, 0.0, 0.0, 0.0, 1.741745936208607E9, 0.0, 2025-03-11 21:18:56.208
222.0, 7776.797744846076, -24022.984388230372, -27073.863395913053, 7373.527571383425, -3497.511565388628, 3312.03678989849, -20278.15077044377, 18910.671044668085, -0.088, 0.97, -0.098, 192.0, 0.0, 0.0, 0.0, 0.0, 0.0, 0.0, 0.0, 0.0, 0.0, 1.74174593627085E9, 0.0, 2025-03-11 21:18:56.270
223.0, 7776.194247745782, -24025.264266164813, -27070.823558667133, 7374.756917328467, -3493.577658364494, 3309.1310631193, -20273.568662830432, 18916.348387759732, -0.088, 0.97, -0.098, 192.0, 0.0, 0.0, 0.0, 0.0, 0.0, 0.0, 0.0, 0.0, 0.0, 1.741745936270875E9, 0.0, 2025-03-11 21:18:56.270
224.0, 7781.759832115154, -24029.220524933404, -27069.460102255358, 7368.252559691973, -3494.9411147762676, 3310.829795697903, -20270.327659884413, 18925.669065197595, -0.088, 0.97, -0.098, 192.0, 0.0, 0.0, 0.0, 0.0, 0.0, 0.0, 0.0, 0.0, 0.0, 1.741745936270883E9, 0.0, 2025-03-11 21:18:56.270
225.0, 7784.1067652829615, -24031.455699378934, -27073.103436601574, 7372.1641149716515, -3499.925553789801, 3301.710283960138, -20274.462732608645, 18907.385338233154, -0.088, 0.97, -0.098, 192.0, 0.0, 0.0, 0.0, 0.0, 0.0, 0.0, 0.0, 0.0, 0.0, 1.741745936270891E9, 0.0, 2025-03-11 21:18:56.270
226.0, 7765.8006865740645, -24047.884231553584, -27092.147122877494, 7356.204969430562, -3520.5562139220497, 3303.006685138546, -20287.694965326187, 18906.401861477123, -0.088, 0.97, -0.098, 192.0, 0.0, 0.0, 0.0, 0.0, 0.0, 0.0, 0.0, 0.0, 0.0, 1.741745936270899E9, 0.0, 2025-03-11 21:18:56.270
227.0, 7755.071849235517, -24056.3778944466, -27097.71270724687, 7344.179730913607, -3520.3103447330413, 3307.968772407624, -20291.181837461216, 18904.278445753866, -0.082, 0.974, -0.094, 192.0, 253.0, 112.0, 30.0, 112.0, 253.0, 16.0, 0.0, 0.0, 0.0, 1.741745936270907E9, 0.0, 2025-03-11 21:18:56.270
228.0, 7750.601500344455, -24053.31570545622, -27098.02563166924, 7337.9435942105765, -3508.352161449452, 3290.959094877135, -20298.893189298295, 18884.720669355473, -0.082, 0.974, -0.094, 192.0, 0.0, 0.0, 0.0, 0.0, 0.0, 0.0, 0.0, 0.0, 0.0, 1.74174593627092E9, 0.0, 2025-03-11 21:18:56.270
229.0, 7764.191360973283, -24032.975618001896, -27086.17920710793, 7351.801675772867, -3508.352161449452, 3296.144699590767, -20293.081735739917, 18898.377585217666, -0.082, 0.974, -0.094, 192.0, 0.0, 0.0, 0.0, 0.0, 0.0, 0.0, 0.0, 0.0, 0.0, 1.741745936270928E9, 0.0, 2025-03-11 21:18:56.270
230.0, 7778.116497768939, -24025.19721093145, -27078.870186671043, 7373.5722748723365, -3500.5514026345495, 3288.969789620613, -20291.740631072596, 18912.481535968964, -0.082, 0.974, -0.094, 192.0, 0.0, 0.0, 0.0, 0.0, 0.0, 0.0, 0.0, 0.0, 0.0, 1.741745936270936E9, 0.0, 2025-03-11 21:18:56.270
231.0, 7781.335148970503, -24026.13598419857, -27077.819654681643, 7375.092193495298, -3499.7243880897036, 3290.959094877135, -20290.44422989419, 18890.21919849148, -0.082, 0.974, -0.094, 192.0, 0.0, 0.0, 0.0, 0.0, 0.0, 0.0, 0.0, 0.0, 0.0, 1.741745936270944E9, 0.0, 2025-03-11 21:18:56.270
232.0, 7783.704433882765, -24019.698681795442, -27076.54560524769, 7363.134010211708, -3499.769091578614, 3303.9901618945796, -20291.762982817054, 18889.749811857917, -0.082, 0.974, -0.094, 192.0, 0.0, 0.0, 0.0, 0.0, 0.0, 0.0, 0.0, 0.0, 0.0, 1.741745936270952E9, 0.0, 2025-03-11 21:18:56.270
233.0, 7777.289483224093, -24023.654940564033, -27076.590308736602, 7364.6539288346685, -3498.1374142333766, 3322.184481881199, -20286.420915892235, 18917.465974982497, -0.082, 0.974, -0.094, 192.0, 0.0, 0.0, 0.0, 0.0, 0.0, 0.0, 0.0, 0.0, 0.0, 1.741745936270963E9, 0.0, 2025-03-11 21:18:56.270
234.0, 7780.105803025461, -24019.98925447336, -27073.751637190777, 7360.0718212213305, -3495.6563705988374, 3314.003743410557, -20285.593901347387, 18909.687567912053, -0.082, 0.974, -0.094, 192.0, 0.0, 0.0, 0.0, 0.0, 0.0, 0.0, 0.0, 0.0, 0.0, 1.741745936270971E9, 0.0, 2025-03-11 21:18:56.270
235.0, 7780.01639604764, -24012.635530547566, -27076.74677094779, 7358.238978175996, -3497.64567585536, 3294.55772573444, -20281.59293908989, 18903.22791376447, -0.082, 0.974, -0.094, 192.0, 0.0, 0.0, 0.0, 0.0, 0.0, 0.0, 0.0, 0.0, 0.0, 1.741745936270979E9, 0.0, 2025-03-11 21:18:56.270
236.0, 7768.415840675336, -24021.777394029785, -27094.82933221213, 7338.368277355227, -3516.6893621312815, 3273.703548157638, -20304.436421923212, 18880.987928031438, -0.082, 0.974, -0.094, 192.0, 0.0, 0.0, 0.0, 0.0, 0.0, 0.0, 0.0, 0.0, 0.0, 1.741745936270987E9, 0.0, 2025-03-11 21:18:56.270
237.0, 7787.1018990399725, -24010.60152180213, -27079.384276793513, 7374.645158606191, -3504.7758823366025, 3287.2487052975544, -20300.12253524334, 18879.31154719729, -0.08, 0.976, -0.094, 192.0, 253.0, 128.0, 30.0, 128.0, 253.0, 16.0, 0.0, 0.0, 0.0, 1.74174593632765E9, 0.0, 2025-03-11 21:18:56.327
238.0, 7800.468242224246, -23992.5636640267, -27063.201613807872, 7382.200048232085, -3491.767167063614, 3318.8317202129033, -20280.3859448893, 18904.390204476145, -0.08, 0.976, -0.094, 192.0, 0.0, 0.0, 0.0, 0.0, 0.0, 0.0, 0.0, 0.0, 0.0, 1.741745936327662E9, 0.0, 2025-03-11 21:18:56.327
239.0, 7804.849184137486, -23981.208977843402, -27063.40277950797, 7372.6335016052135, -3492.772995564103, 3311.768568965026, -20280.877683267317, 18936.062626369316, -0.08, 0.976, -0.094, 192.0, 0.0, 0.0, 0.0, 0.0, 0.0, 0.0, 0.0, 0.0, 0.0, 1.741745936327678E9, 0.0, 2025-03-11 21:18:56.327
240.0, 7795.752024144176, -23979.867873176085, -27066.777892920723, 7377.729699341024, -3493.3988444088513, 3312.5955835098725, -20285.839770536397, 18903.1608585311, -0.08, 0.976, -0.094, 192.0, 0.0, 0.0, 0.0, 0.0, 0.0, 0.0, 0.0, 0.0, 0.0, 1.741745936327686E9, 0.0, 2025-03-11 21:18:56.327
241.0, 7791.438137464302, -23986.349879068122, -27069.773026677733, 7376.276835951428, -3493.9129345313236, 3305.331266561898, -20287.49379962609, 18902.535009686355, -0.08, 0.976, -0.094, 192.0, 0.0, 0.0, 0.0, 0.0, 0.0, 0.0, 0.0, 0.0, 0.0, 1.741745936327694E9, 0.0, 2025-03-11 21:18:56.327
242.0, 7791.169916530838, -23987.5121697798, -27076.724419203332, 7370.867713793245, -3505.5581933925387, 3288.2098303091325, -20299.899017798783, 18904.390204476145, -0.08, 0.976, -0.094, 192.0, 0.0, 0.0, 0.0, 0.0, 0.0, 0.0, 0.0, 0.0, 0.0, 1.741745936327702E9, 0.0, 2025-03-11 21:18:56.327
243.0, 7801.541125958101, -23976.291594063234, -27076.590308736602, 7367.492600380493, -3509.9167835613234, 3292.814289666926, -20298.312043942457, 18888.252244979412, -0.08, 0.976, -0.094, 192.0, 0.0, 0.0, 0.0, 0.0, 0.0, 0.0, 0.0, 0.0, 0.0, 1.741745936327709E9, 0.0, 2025-03-11 21:18:56.327
244.0, 7806.547916716089, -23977.69975396392, -27075.36096279156, 7360.7870770439, -3512.5542894070495, 3296.390568779775, -20298.535561387012, 18868.850930792207, -0.08, 0.976, -0.094, 192.0, 0.0, 0.0, 0.0, 0.0, 0.0, 0.0, 0.0, 0.0, 0.0, 1.741745936327717E9, 0.0, 2025-03-11 21:18:56.327
245.0, 7802.569306203045, -23974.056419617704, -27073.751637190777, 7361.681146822113, -3504.127681747399, 3296.815251924426, -20299.83196256542, 18885.50298041141, -0.08, 0.976, -0.094, 192.0, 0.0, 0.0, 0.0, 0.0, 0.0, 0.0, 0.0, 0.0, 0.0, 1.741745936327725E9, 0.0, 2025-03-11 21:18:56.327
246.0, 7805.072701582039, -23967.306192792203, -27067.671962698932, 7372.40998416066, -3498.4279869112956, 3296.8599554133366, -20300.904846299272, 18908.055890566815, -0.08, 0.976, -0.094, 192.0, 0.0, 0.0, 0.0, 0.0, 0.0, 0.0, 0.0, 0.0, 0.0, 1.741745936327733E9, 0.0, 2025-03-11 21:18:56.327
247.0, 7807.30787602757, -23959.617192699578, -27067.157872576463, 7373.8628475502555, -3498.6291526113932, 3291.65199895525, -20295.54042763, 18889.570997902276, -0.08600000000000001, 0.98, -0.096, 192.0, 253.0, 80.0, 30.0, 160.0, 253.0, 0.0, 0.0, 0.0, 0.0, 1.741745936327741E9, 0.0, 2025-03-11 21:18:56.327
248.0, 7811.755873174176, -23951.145881551016, -27061.30171552917, 7379.450783664082, -3490.1131379739213, 3307.834661940892, -20291.49476188359, 18886.17353274507, -0.08600000000000001, 0.98, -0.096, 192.0, 0.0, 0.0, 0.0, 0.0, 0.0, 0.0, 0.0, 0.0, 0.0, 1.741745936327753E9, 0.0, 2025-03-11 21:18:56.327
249.0, 7800.714111413255, -23961.472387489368, -27068.655439454968, 7378.489658652504, -3497.2433444551643, 3301.4644147711297, -20289.885436282806, 18902.624416664174, -0.08600000000000001, 0.98, -0.096, 192.0, 0.0, 0.0, 0.0, 0.0, 0.0, 0.0, 0.0, 0.0, 0.0, 1.741745936327761E9, 0.0, 2025-03-11 21:18:56.327
250.0, 7802.032864336117, -23961.919422378473, -27067.44844525438, 7371.605321360269, -3493.9576380202343, 3289.5285832319955, -20291.405354905768, 18898.802268362317, -0.08600000000000001, 0.98, -0.096, 192.0, 0.0, 0.0, 0.0, 0.0, 0.0, 0.0, 0.0, 0.0, 0.0, 1.741745936327769E9, 0.0, 2025-03-11 21:18:56.327
251.0, 7808.537221972611, -23949.648314672508, -27066.286154542704, 7366.486771880004, -3492.3706641639073, 3305.8006531954593, -20293.417011906746, 18905.418384721088, -0.08600000000000001, 0.98, -0.096, 192.0, 0.0, 0.0, 0.0, 0.0, 0.0, 0.0, 0.0, 0.0, 0.0, 1.741745936327776E9, 0.0, 2025-03-11 21:18:56.327
252.0, 7807.5313934721225, -23943.903916347495, -27064.006276608263, 7381.373033687239, -3486.581562349983, 3306.962943907135, -20288.812552548952, 18913.956751103015, -0.08600000000000001, 0.98, -0.096, 192.0, 0.0, 0.0, 0.0, 0.0, 0.0, 0.0, 0.0, 0.0, 0.0, 1.741745936388363E9, 0.0, 2025-03-11 21:18:56.388
253.0, 7804.223335292738, -23943.658047158486, -27066.710837687355, 7389.754937857979, -3495.790481065569, 3307.4993857740624, -20291.87474153933, 18912.369777246688, -0.08600000000000001, 0.98, -0.096, 192.0, 0.0, 0.0, 0.0, 0.0, 0.0, 0.0, 0.0, 0.0, 0.0, 1.741745936388411E9, 0.0, 2025-03-11 21:18:56.388
254.0, 7809.028960350628, -23945.69205590392, -27066.196747564885, 7377.103850496274, -3492.3930159083625, 3311.8803276873027, -20289.170180460238, 18904.278445753866, -0.08600000000000001, 0.98, -0.096, 192.0, 0.0, 0.0, 0.0, 0.0, 0.0, 0.0, 0.0, 0.0, 0.0, 1.741745936388425E9, 0.0, 2025-03-11 21:18:56.388
255.0, 7817.679085454833, -23937.578372666645, -27059.62533469502, 7383.474097666037, -3484.704015815737, 3310.159243364244, -20286.77854380352, 18893.840181093237, -0.08600000000000001, 0.98, -0.096, 192.0, 0.0, 0.0, 0.0, 0.0, 0.0, 0.0, 0.0, 0.0, 0.0, 1.741745936388433E9, 0.0, 2025-03-11 21:18:56.388
0.0, 7820.45070176729, -23929.040006284715, -27054.573840448124, 7385.776327344934, -3475.0704139554996, 3309.868670686325, -20284.565721102445, 18904.233742264958, -0.08600000000000001, 0.98, -0.096, 192.0, 0.0, 0.0, 0.0, 0.0, 0.0, 0.0, 0.0, 0.0, 0.0, 1.741745936388441E9, 0.0, 2025-03-11 21:18:56.388
1.0, 7807.889021383407, -23925.73194810533, -27062.6875236854, 7385.753975600479, -3483.5640768485164, 3293.4401385116744, -20292.567645617444, 18894.063698537793, -0.084, 0.974, -0.092, 192.0, 253.0, 96.0, 30.0, 112.0, 253.0, 32.0, 0.0, 0.0, 0.0, 1.741745936388449E9, 0.0, 2025-03-11 21:18:56.388
2.0, 7810.481823740223, -23929.040006284715, -27059.982962606307, 7393.979417560032, -3484.9498850047453, 3302.269077571521, -20282.665822823743, 18908.07824231127, -0.084, 0.974, -0.092, 192.0, 0.0, 0.0, 0.0, 0.0, 0.0, 0.0, 0.0, 0.0, 0.0, 1.741745936388457E9, 0.0, 2025-03-11 21:18:56.388
3.0, 7810.839451651508, -23944.440358214422, -27067.426093509926, 7373.304053938873, -3491.186021707776, 3304.3477898058645, -20291.226540950127, 18898.757564873405, -0.084, 0.974, -0.092, 192.0, 0.0, 0.0, 0.0, 0.0, 0.0, 0.0, 0.0, 0.0, 0.0, 1.741745936388465E9, 0.0, 2025-03-11 21:18:56.388
4.0, 7806.883192882919, -23952.375227496057, -27068.54368073269, 7368.185504458607, -3490.4260623962955, 3305.6665427287276, -20295.696889841187, 18889.749811857917, -0.084, 0.974, -0.092, 192.0, 0.0, 0.0, 0.0, 0.0, 0.0, 0.0, 0.0, 0.0, 0.0, 1.741745936388473E9, 0.0, 2025-03-11 21:18:56.388
5.0, 7810.191251062304, -23941.288762246226, -27063.872166141533, 7380.277798208928, -3491.7895188080693, 3308.4381590411854, -20293.34995667338, 18898.89167534014, -0.084, 0.974, -0.092, 192.0, 0.0, 0.0, 0.0, 0.0, 0.0, 0.0, 0.0, 0.0, 0.0, 1.741745936388481E9, 0.0, 2025-03-11 21:18:56.388
6.0, 7812.851108652486, -23928.995302795807, -27060.899384128978, 7388.436184935115, -3487.900315272846, 3313.1096736323448, -20292.612349106355, 18914.783765647862, -0.084, 0.974, -0.092, 192.0, 0.0, 0.0, 0.0, 0.0, 0.0, 0.0, 0.0, 0.0, 0.0, 1.741745936388489E9, 0.0, 2025-03-11 21:18:56.388
7.0, 7807.151413816383, -23939.54532617871, -27067.761369676755, 7369.236036448006, -3494.605838609438, 3316.1271591338113, -20300.25664571007, 18903.943169587037, -0.084, 0.974, -0.092, 192.0, 0.0, 0.0, 0.0, 0.0, 0.0, 0.0, 0.0, 0.0, 0.0, 1.741745936388497E9, 0.0, 2025-03-11 21:18:56.388
8.0, 7799.104785812472, -23947.100215804603, -27074.980983135818, 7374.712213839557, -3506.251097470653, 3297.105824602345, -20313.287712727513, 18872.36015467169, -0.084, 0.974, -0.092, 192.0, 0.0, 0.0, 0.0, 0.0, 0.0, 0.0, 0.0, 0.0, 0.0, 1.741745936388508E9, 0.0, 2025-03-11 21:18:56.388
9.0, 7809.721864428743, -23935.231439498835, -27065.54854697568, 7394.046472793398, -3498.830318311491, 3295.6976647016604, -20303.564703889457, 18897.461163695, -0.084, 0.974, -0.092, 192.0, 0.0, 0.0, 0.0, 0.0, 0.0, 0.0, 0.0, 0.0, 0.0, 1.74174593638852E9, 0.0, 2025-03-11 21:18:56.388
10.0, 7817.768492432653, -23934.896163332007, -27059.960610861854, 7386.759804100968, -3492.9965130086557, 3312.3720660653194, -20292.67940433972, 18902.087974797247, -0.084, 0.974, -0.092, 192.0, 0.0, 0.0, 0.0, 0.0, 0.0, 0.0, 0.0, 0.0, 0.0, 1.741745936388528E9, 0.0, 2025-03-11 21:18:56.388
11.0, 7812.694646441299, -23932.5492301642, -27062.642820196488, 7385.441051178104, -3498.1597659778317, 3305.644190984272, -20301.575398632933, 18901.864457352694, -0.08600000000000001, 0.978, -0.09, 192.0, 253.0, 80.0, 30.0, 144.0, 253.0, 48.0, 0.0, 0.0, 0.0, 1.741745936448146E9, 0.0, 2025-03-11 21:18:56.448
12.0, 7809.565402217556, -23934.002093553794, -27068.901308643977, 7392.772423359445, -3506.0275800260997, 3296.2564583130434, -20309.06323302546, 18898.712861384494, -0.08600000000000001, 0.978, -0.09, 192.0, 0.0, 0.0, 0.0, 0.0, 0.0, 0.0, 0.0, 0.0, 0.0, 1.741745936448157E9, 0.0, 2025-03-11 21:18:56.448
13.0, 7799.775338146132, -23933.93503832043, -27074.913927902453, 7382.691786610101, -3508.5309754050945, 3296.4129205242302, -20311.074890026437, 18889.749811857917, -0.08600000000000001, 0.978, -0.09, 192.0, 0.0, 0.0, 0.0, 0.0, 0.0, 0.0, 0.0, 0.0, 0.0, 1.741745936448165E9, 0.0, 2025-03-11 21:18:56.448
14.0, 7810.280658040126, -23927.810660339674, -27068.789549921697, 7384.234056977518, -3503.188908480276, 3313.1543771212555, -20304.235256223114, 18889.59334964673, -0.08600000000000001, 0.978, -0.09, 192.0, 0.0, 0.0, 0.0, 0.0, 0.0, 0.0, 0.0, 0.0, 0.0, 1.741745936448182E9, 0.0, 2025-03-11 21:18:56.448
15.0, 7817.612030221467, -23924.726119604842, -27063.335724274606, 7389.084385524319, -3497.422158410807, 3317.311801589942, -20294.176971218225, 18905.954826588015, -0.08600000000000001, 0.978, -0.09, 192.0, 0.0, 0.0, 0.0, 0.0, 0.0, 0.0, 0.0, 0.0, 0.0, 1.74174593644819E9, 0.0, 2025-03-11 21:18:56.448
16.0, 7809.207774306271, -23925.284913216223, -27065.816767909142, 7389.50906866897, -3497.6233241109044, 3317.5129672900403, -20301.508343399568, 18911.341597001745, -0.08600000000000001, 0.978, -0.09, 192.0, 0.0, 0.0, 0.0, 0.0, 0.0, 0.0, 0.0, 0.0, 0.0, 1.741745936448198E9, 0.0, 2025-03-11 21:18:56.448
17.0, 7807.68785568331, -23925.88841031652, -27063.98392486381, 7380.814240075856, -3500.640809612371, 3313.1767288657106, -20298.15558173127, 18916.191925548545, -0.08600000000000001, 0.978, -0.09, 192.0, 0.0, 0.0, 0.0, 0.0, 0.0, 0.0, 0.0, 0.0, 0.0, 1.741745936448205E9, 0.0, 2025-03-11 21:18:56.448
18.0, 7809.386588261913, -23922.558000392677, -27060.340590517593, 7392.817126848356, -3497.288047944075, 3321.4468743141742, -20295.518075885546, 18912.50388771342, -0.08600000000000001, 0.978, -0.09, 192.0, 0.0, 0.0, 0.0, 0.0, 0.0, 0.0, 0.0, 0.0, 0.0, 1.741745936448214E9, 0.0, 2025-03-11 21:18:56.448
19.0, 7819.847204666997, -23922.26742771476, -27058.82067189463, 7385.642216878202, -3493.9799897646894, 3330.23110988511, -20294.221674707136, 18910.492230712443, -0.08600000000000001, 0.978, -0.09, 192.0, 0.0, 0.0, 0.0, 0.0, 0.0, 0.0, 0.0, 0.0, 0.0, 1.741745936448222E9, 0.0, 2025-03-11 21:18:56.448
20.0, 7815.801538920587, -23921.35100619209, -27062.73222717431, 7397.958028073076, -3503.5912398804717, 3300.011551381535, -20298.40145092028, 18901.37271897468, -0.08600000000000001, 0.978, -0.09, 192.0, 0.0, 0.0, 0.0, 0.0, 0.0, 0.0, 0.0, 0.0, 0.0, 1.741745936448229E9, 0.0, 2025-03-11 21:18:56.448
21.0, 7821.188309334316, -23917.50650614578, -27062.240488796295, 7403.411853720171, -3500.8866788013793, 3293.3730832783085, -20299.87666605433, 18892.07439328127, -0.08600000000000001, 0.976, -0.092, 192.0, 253.0, 80.0, 30.0, 128.0, 253.0, 32.0, 0.0, 0.0, 0.0, 1.741745936448237E9, 0.0, 2025-03-11 21:18:56.448
22.0, 7822.216489579259, -23920.702805602887, -27064.36390451955, 7395.611094905269, -3495.2763909430973, 3289.5732867209063, -20300.05548000997, 18882.172570487568, -0.08600000000000001, 0.976, -0.092, 192.0, 0.0, 0.0, 0.0, 0.0, 0.0, 0.0, 0.0, 0.0, 0.0, 1.741745936448246E9, 0.0, 2025-03-11 21:18:56.448
23.0, 7816.919126143352, -23932.07984353064, -27071.270593556237, 7377.886161552211, -3506.474614915206, 3284.9911791075683, -20302.558875388968, 18886.59821588972, -0.08600000000000001, 0.976, -0.092, 192.0, 0.0, 0.0, 0.0, 0.0, 0.0, 0.0, 0.0, 0.0, 0.0, 1.741745936448258E9, 0.0, 2025-03-11 21:18:56.448
24.0, 7821.054198867584, -23927.36362545057, -27066.040285353698, 7385.306940711373, -3501.601934623949, 3297.5975629803615, -20301.843619566396, 18899.428117207066, -0.08600000000000001, 0.976, -0.092, 192.0, 0.0, 0.0, 0.0, 0.0, 0.0, 0.0, 0.0, 0.0, 0.0, 1.741745936448266E9, 0.0, 2025-03-11 21:18:56.448
25.0, 7819.243707566704, -23920.658102113975, -27061.569936462634, 7393.152403015185, -3492.21420195272, 3301.911449660236, -20297.708546842165, 18905.50779169891, -0.08600000000000001, 0.976, -0.092, 192.0, 0.0, 0.0, 0.0, 0.0, 0.0, 0.0, 0.0, 0.0, 0.0, 1.741745936448274E9, 0.0, 2025-03-11 21:18:56.448
26.0, 7819.578983733533, -23927.229514983836, -27061.16760506244, 7389.084385524319, -3486.2686379276083, 3307.3876270517862, -20291.293596183492, 18901.12684978567, -0.08600000000000001, 0.976, -0.092, 192.0, 0.0, 0.0, 0.0, 0.0, 0.0, 0.0, 0.0, 0.0, 0.0, 1.741745936508487E9, 0.0, 2025-03-11 21:18:56.508
27.0, 7814.7510069311875, -23926.246038227804, -27058.932430616907, 7379.3837284307165, -3477.9090855013237, 3322.2738888590206, -20282.911692012753, 18910.827506879272, -0.08600000000000001, 0.976, -0.092, 192.0, 0.0, 0.0, 0.0, 0.0, 0.0, 0.0, 0.0, 0.0, 0.0, 1.741745936508499E9, 0.0, 2025-03-11 21:18:56.508
28.0, 7801.652884680377, -23929.576448151645, -27069.34834353308, 7375.516876639948, -3486.73802456117, 3309.8239671974147, -20293.72993632912, 18906.781841132863, -0.08600000000000001, 0.976, -0.092, 192.0, 0.0, 0.0, 0.0, 0.0, 0.0, 0.0, 0.0, 0.0, 0.0, 1.741745936508507E9, 0.0, 2025-03-11 21:18:56.508
29.0, 7804.648018437389, -23926.134279505528, -27067.82842491012, 7390.60430414728, -3487.0956524724547, 3297.798728680459, -20293.34995667338, 18905.664253910098, -0.08600000000000001, 0.976, -0.092, 192.0, 0.0, 0.0, 0.0, 0.0, 0.0, 0.0, 0.0, 0.0, 0.0, 1.741745936508522E9, 0.0, 2025-03-11 21:18:56.508
30.0, 7813.8122336640645, -23918.668796857455, -27061.72639867382, 7383.183524988119, -3482.155916947832, 3309.0193043970235, -20285.146866458283, 18904.390204476145, -0.08600000000000001, 0.976, -0.092, 192.0, 0.0, 0.0, 0.0, 0.0, 0.0, 0.0, 0.0, 0.0, 0.0, 1.74174593650853E9, 0.0, 2025-03-11 21:18:56.508
31.0, 7819.288411055614, -23915.62895961153, -27059.22300329483, 7397.399234461694, -3485.016940238111, 3314.093150388378, -20290.421878149733, 18912.50388771342, -0.078, 0.972, -0.098, 192.0, 253.0, 144.0, 30.0, 96.0, 252.0, 240.0, 0.0, 0.0, 0.0, 1.741745936508538E9, 0.0, 2025-03-11 21:18:56.508
32.0, 7815.019227864651, -23914.869000300052, -27061.413474251447, 7389.911400069166, -3487.0509489835445, 3302.8502229273586, -20293.282901440016, 18910.17930629007, -0.078, 0.972, -0.098, 192.0, 0.0, 0.0, 0.0, 0.0, 0.0, 0.0, 0.0, 0.0, 0.0, 1.741745936508546E9, 0.0, 2025-03-11 21:18:56.508
33.0, 7810.235954551215, -23926.134279505528, -27064.676828941923, 7367.671414336135, -3488.861440284424, 3304.8618799283363, -20293.238197951105, 18913.397957491634, -0.078, 0.972, -0.098, 192.0, 0.0, 0.0, 0.0, 0.0, 0.0, 0.0, 0.0, 0.0, 0.0, 1.741745936508558E9, 0.0, 2025-03-11 21:18:56.508
34.0, 7815.890945898408, -23919.764032335763, -27056.429035237914, 7394.806432104878, -3483.8546495264354, 3308.5722695079176, -20284.789238546997, 18910.715748156996, -0.078, 0.972, -0.098, 192.0, 0.0, 0.0, 0.0, 0.0, 0.0, 0.0, 0.0, 0.0, 0.0, 1.741745936508566E9, 0.0, 2025-03-11 21:18:56.508
35.0, 7822.752931446187, -23922.82622132614, -27055.98200034881, 7390.023158791442, -3482.0441582255553, 3309.198118352666, -20285.459790880657, 18898.109364284202, -0.078, 0.972, -0.098, 192.0, 0.0, 0.0, 0.0, 0.0, 0.0, 0.0, 0.0, 0.0, 0.0, 1.741745936508574E9, 0.0, 2025-03-11 21:18:56.508
36.0, 7817.0979400989945, -23930.6493318855, -27062.30754402966, 7384.994016288998, -3485.3969198938516, 3306.9182404182247, -20296.233331708114, 18899.763393373894, -0.078, 0.972, -0.098, 192.0, 0.0, 0.0, 0.0, 0.0, 0.0, 0.0, 0.0, 0.0, 0.0, 1.741745936508582E9, 0.0, 2025-03-11 21:18:56.508
37.0, 7811.085320840517, -23925.44137542741, -27062.195785307384, 7382.915304054654, -3483.2064489372315, 3315.1213306333225, -20282.509360612556, 18915.54372495934, -0.078, 0.972, -0.098, 192.0, 0.0, 0.0, 0.0, 0.0, 0.0, 0.0, 0.0, 0.0, 0.0, 1.741745936508591E9, 0.0, 2025-03-11 21:18:56.508
38.0, 7809.49834698419, -23924.815526582664, -27062.396951007482, 7398.583876917824, -3484.324036159997, 3312.9308596767023, -20285.705660069663, 18905.999530076926, -0.078, 0.972, -0.098, 192.0, 0.0, 0.0, 0.0, 0.0, 0.0, 0.0, 0.0, 0.0, 0.0, 1.741745936508599E9, 0.0, 2025-03-11 21:18:56.508
39.0, 7813.745178430699, -23929.241171984813, -27063.335724274606, 7389.8443448358, -3488.7720333066027, 3311.6121067538393, -20286.622081592333, 18903.07145155328, -0.078, 0.972, -0.098, 192.0, 0.0, 0.0, 0.0, 0.0, 0.0, 0.0, 0.0, 0.0, 0.0, 1.74174593650861E9, 0.0, 2025-03-11 21:18:56.508
40.0, 7817.410864521368, -23920.859267814074, -27060.005314350765, 7373.639330105702, -3488.92849551779, 3319.234051613099, -20288.074944981927, 18915.342559259243, -0.078, 0.972, -0.098, 192.0, 0.0, 0.0, 0.0, 0.0, 0.0, 0.0, 0.0, 0.0, 0.0, 1.741745936508618E9, 0.0, 2025-03-11 21:18:56.508
41.0, 7821.478882012235, -23915.293683444703, -27054.4844334703, 7381.305978453873, -3484.9051815158346, 3322.0503714144675, -20287.471447881635, 18916.75071915993, -0.08, 0.97, -0.106, 192.0, 253.0, 128.0, 30.0, 80.0, 252.0, 176.0, 0.0, 0.0, 0.0, 1.741745936568831E9, 0.0, 2025-03-11 21:18:56.568
42.0, 7827.580908248533, -23909.43752639741, -27048.024779322717, 7398.047435050898, -3477.6185128234047, 3309.2428218415766, -20286.35386065887, 18902.78087887536, -0.08, 0.97, -0.106, 192.0, 0.0, 0.0, 0.0, 0.0, 0.0, 0.0, 0.0, 0.0, 0.0, 1.741745936568844E9, 0.0, 2025-03-11 21:18:56.568
43.0, 7821.858861667974, -23922.893276559505, -27050.84109912409, 7410.7879293904225, -3479.5854663354717, 3315.344848077875, -20285.6386048363, 18906.714785899494, -0.08, 0.97, -0.106, 192.0, 0.0, 0.0, 0.0, 0.0, 0.0, 0.0, 0.0, 0.0, 0.0, 1.741745936568852E9, 0.0, 2025-03-11 21:18:56.568
44.0, 7817.053236610083, -23923.340311448614, -27056.697256171377, 7396.393405961205, -3484.5475536045496, 3312.483824787596, -20290.62304384983, 18915.521373214888, -0.08, 0.97, -0.106, 192.0, 0.0, 0.0, 0.0, 0.0, 0.0, 0.0, 0.0, 0.0, 0.0, 1.74174593656886E9, 0.0, 2025-03-11 21:18:56.568
45.0, 7811.331190029525, -23923.02738702624, -27060.83232889561, 7379.271969708439, -3491.3648356634185, 3313.5343567769955, -20292.344128172892, 18905.88777135465, -0.08, 0.97, -0.106, 192.0, 0.0, 0.0, 0.0, 0.0, 0.0, 0.0, 0.0, 0.0, 0.0, 1.741745936568877E9, 0.0, 2025-03-11 21:18:56.568
46.0, 7812.806405163576, -23934.15855576498, -27062.59811670758, 7381.7306615985235, -3495.9692950212116, 3304.9512869061577, -20294.132267729317, 18888.699279868517, -0.08, 0.97, -0.106, 192.0, 0.0, 0.0, 0.0, 0.0, 0.0, 0.0, 0.0, 0.0, 0.0, 1.741745936568885E9, 0.0, 2025-03-11 21:18:56.568
47.0, 7815.890945898408, -23934.382073209534, -27059.379465506016, 7392.660664637168, -3487.252114683642, 3307.0076473960457, -20286.756192059063, 18908.659387667107, -0.08, 0.97, -0.106, 192.0, 0.0, 0.0, 0.0, 0.0, 0.0, 0.0, 0.0, 0.0, 0.0, 1.741745936568893E9, 0.0, 2025-03-11 21:18:56.568
48.0, 7812.851108652486, -23934.06914878716, -27068.230756310317, 7371.918245782644, -3502.1383764908765, 3300.8162141819257, -20302.000081777584, 18903.965521331495, -0.08, 0.97, -0.106, 192.0, 0.0, 0.0, 0.0, 0.0, 0.0, 0.0, 0.0, 0.0, 0.0, 1.741745936568901E9, 0.0, 2025-03-11 21:18:56.568
49.0, 7816.449739509791, -23921.373357936547, -27066.084988842606, 7391.833650092322, -3502.1607282353316, 3299.2515920700544, -20303.743517845098, 18894.846009593726, -0.08, 0.97, -0.106, 192.0, 0.0, 0.0, 0.0, 0.0, 0.0, 0.0, 0.0, 0.0, 0.0, 1.741745936568909E9, 0.0, 2025-03-11 21:18:56.568
50.0, 7811.979390618729, -23931.856326086086, -27064.810939408653, 7385.888086067211, -3496.125757232399, 3293.7977664229593, -20300.278997454527, 18888.989852546438, -0.08, 0.97, -0.106, 192.0, 0.0, 0.0, 0.0, 0.0, 0.0, 0.0, 0.0, 0.0, 0.0, 1.741745936568917E9, 0.0, 2025-03-11 21:18:56.568
51.0, 7810.548878973589, -23945.02150357026, -27063.045151596685, 7380.300149953384, -3492.6165333529157, 3297.8657839138255, -20295.96511077465, 18891.11326826969, -0.084, 0.97, -0.10200000000000001, 192.0, 253.0, 96.0, 30.0, 80.0, 252.0, 208.0, 0.0, 0.0, 0.0, 1.741745936568925E9, 0.0, 2025-03-11 21:18:56.568
52.0, 7804.692721926299, -23951.21293678438, -27065.772064420235, 7380.143687742197, -3494.8517077984466, 3301.8667461713253, -20297.663843353253, 18892.94611131503, -0.084, 0.97, -0.10200000000000001, 192.0, 0.0, 0.0, 0.0, 0.0, 0.0, 0.0, 0.0, 0.0, 0.0, 1.741745936568934E9, 0.0, 2025-03-11 21:18:56.568
53.0, 7803.68689342581, -23961.49473923382, -27070.242413311295, 7382.93765579911, -3502.6524666133487, 3301.285600815487, -20302.40241317778, 18909.73227140096, -0.084, 0.97, -0.10200000000000001, 192.0, 0.0, 0.0, 0.0, 0.0, 0.0, 0.0, 0.0, 0.0, 0.0, 1.741745936568942E9, 0.0, 2025-03-11 21:18:56.568
54.0, 7807.933724872319, -23963.72991367935, -27073.326954046126, 7377.372071429739, -3505.1111585034323, 3295.9658856351243, -20306.783355091018, 18905.865419610192, -0.084, 0.97, -0.10200000000000001, 192.0, 0.0, 0.0, 0.0, 0.0, 0.0, 0.0, 0.0, 0.0, 0.0, 1.741745936568953E9, 0.0, 2025-03-11 21:18:56.568
55.0, 7798.031902078617, -23972.156521339002, -27079.250166326783, 7357.881350264711, -3503.635943369382, 3287.4722227421075, -20305.30813995697, 18893.326090970768, -0.084, 0.97, -0.10200000000000001, 192.0, 0.0, 0.0, 0.0, 0.0, 0.0, 0.0, 0.0, 0.0, 0.0, 1.741745936568961E9, 0.0, 2025-03-11 21:18:56.568
56.0, 7800.892925368897, -23972.625907972564, -27078.423151781935, 7364.7656875569455, -3505.1335102478874, 3293.216621067121, -20306.73865160211, 18894.443678193533, -0.084, 0.97, -0.10200000000000001, 192.0, 0.0, 0.0, 0.0, 0.0, 0.0, 0.0, 0.0, 0.0, 0.0, 1.741745936629139E9, 0.0, 2025-03-11 21:18:56.629
57.0, 7795.819079377542, -23979.13026560906, -27076.411494780958, 7372.186466716107, -3501.087844501477, 3294.870650156814, -20300.994253277095, 18890.59917814722, -0.084, 0.97, -0.10200000000000001, 192.0, 0.0, 0.0, 0.0, 0.0, 0.0, 0.0, 0.0, 0.0, 0.0, 1.741745936629152E9, 0.0, 2025-03-11 21:18:56.629
58.0, 7789.404128718869, -23989.814399458697, -27073.41636102395, 7363.759859056457, -3493.063568242022, 3315.2330893555986, -20292.07590723943, 18898.131716028656, -0.084, 0.97, -0.10200000000000001, 192.0, 0.0, 0.0, 0.0, 0.0, 0.0, 0.0, 0.0, 0.0, 0.0, 1.741745936629162E9, 0.0, 2025-03-11 21:18:56.629
59.0, 7780.0610995365505, -24009.439231090455, -27086.626241997034, 7349.544149582881, -3509.1344725053877, 3302.7608159495376, -20307.230389980126, 18884.31833795528, -0.084, 0.97, -0.10200000000000001, 192.0, 0.0, 0.0, 0.0, 0.0, 0.0, 0.0, 0.0, 0.0, 0.0, 1.741745936629172E9, 0.0, 2025-03-11 21:18:56.629
60.0, 7779.368195458436, -24019.452812606432, -27091.565977521655, 7341.07283843432, -3519.8186063550243, 3288.8580308983364, -20311.38781444881, 18873.813018061282, -0.084, 0.97, -0.10200000000000001, 192.0, 0.0, 0.0, 0.0, 0.0, 0.0, 0.0, 0.0, 0.0, 0.0, 1.741745936629181E9, 0.0, 2025-03-11 21:18:56.629
61.0, 7795.9084863553635, -24022.000911474337, -27079.719552960345, 7354.93091999661, -3500.663161356826, 3297.3069903024425, -20307.11863125785, 18881.926701298562, -0.08600000000000001, 0.976, -0.1, 192.0, 253.0, 80.0, 30.0, 128.0, 252.0, 224.0, 0.0, 0.0, 0.0, 1.741745936629199E9, 0.0, 2025-03-11 21:18:56.629
62.0, 7799.887096868408, -24030.651036578543, -27075.919756402942, 7366.866751535744, -3498.7856148225806, 3298.6927984586714, -20299.11670674285, 18889.41453569109, -0.08600000000000001, 0.976, -0.1, 192.0, 0.0, 0.0, 0.0, 0.0, 0.0, 0.0, 0.0, 0.0, 0.0, 1.74174593662921E9, 0.0, 2025-03-11 21:18:56.629
63.0, 7778.25060823567, -24048.28656295378, -27085.30748907417, 7358.9542339985655, -3500.1714229788095, 3282.510135473029, -20294.244026451594, 18906.178344032567, -0.08600000000000001, 0.976, -0.1, 192.0, 0.0, 0.0, 0.0, 0.0, 0.0, 0.0, 0.0, 0.0, 0.0, 1.74174593662922E9, 0.0, 2025-03-11 21:18:56.629
64.0, 7760.436267904791, -24067.10673178515, -27101.244282870804, 7333.003858685954, -3519.773902866114, 3275.1787632916885, -20320.239105253113, 18904.88194285416, -0.08600000000000001, 0.976, -0.1, 192.0, 0.0, 0.0, 0.0, 0.0, 0.0, 0.0, 0.0, 0.0, 0.0, 1.741745936629229E9, 0.0, 2025-03-11 21:18:56.629
65.0, 7769.533427898101, -24051.549917644254, -27092.392992066503, 7350.058239705353, -3517.918708076323, 3299.2068885811436, -20319.568552919456, 18890.196846747025, -0.08600000000000001, 0.976, -0.1, 192.0, 0.0, 0.0, 0.0, 0.0, 0.0, 0.0, 0.0, 0.0, 0.0, 1.741745936629239E9, 0.0, 2025-03-11 21:18:56.629
66.0, 7769.891055809386, -24060.557670659742, -27090.247224598796, 7357.009632230954, -3509.0003620386556, 3304.0572171279455, -20301.150715488282, 18892.409669448098, -0.08600000000000001, 0.976, -0.1, 192.0, 0.0, 0.0, 0.0, 0.0, 0.0, 0.0, 0.0, 0.0, 0.0, 1.741745936629249E9, 0.0, 2025-03-11 21:18:56.629
67.0, 7760.458619649246, -24071.152397531558, -27096.103381646084, 7343.866806491234, -3513.1801382517983, 3297.2399350690766, -20310.15846850377, 18883.804247832806, -0.08600000000000001, 0.976, -0.1, 192.0, 0.0, 0.0, 0.0, 0.0, 0.0, 0.0, 0.0, 0.0, 0.0, 1.741745936629259E9, 0.0, 2025-03-11 21:18:56.629
68.0, 7752.993137001174, -24065.251536995358, -27105.334652106125, 7322.699704492057, -3526.054743058055, 3287.449870997652, -20321.580209920434, 18870.147331970613, -0.08600000000000001, 0.976, -0.1, 192.0, 0.0, 0.0, 0.0, 0.0, 0.0, 0.0, 0.0, 0.0, 0.0, 1.741745936629269E9, 0.0, 2025-03-11 21:18:56.629
69.0, 7761.419744660824, -24057.316667713723, -27097.69035550241, 7345.476132092015, -3522.3890569673845, 3289.5285832319955, -20312.550105160488, 18876.986965773936, -0.08600000000000001, 0.976, -0.1, 192.0, 0.0, 0.0, 0.0, 0.0, 0.0, 0.0, 0.0, 0.0, 0.0, 1.741745936629279E9, 0.0, 2025-03-11 21:18:56.629
70.0, 7772.282692466104, -24047.727769342397, -27085.575710007633, 7372.36528067175, -3501.3337136904856, 3297.798728680459, -20301.798916077485, 18895.248340993923, -0.08600000000000001, 0.976, -0.1, 192.0, 0.0, 0.0, 0.0, 0.0, 0.0, 0.0, 0.0, 0.0, 0.0, 1.741745936629293E9, 0.0, 2025-03-11 21:18:56.629
71.0, 7755.988270758185, -24059.194214247967, -27099.56790203666, 7348.493617593482, -3514.6553533858482, 3294.513022245529, -20319.479145941634, 18884.74302109993, -0.084, 0.972, -0.096, 192.0, 253.0, 96.0, 30.0, 96.0, 253.0, 0.0, 0.0, 0.0, 0.0, 1.741745936688038E9, 0.0, 2025-03-11 21:18:56.688
72.0, 7765.979500529707, -24060.065932281726, -27094.538759534214, 7356.584949086303, -3511.6602196288372, 3283.3147982734204, -20312.81832609395, 18874.550625628308, -0.084, 0.972, -0.096, 192.0, 0.0, 0.0, 0.0, 0.0, 0.0, 0.0, 0.0, 0.0, 0.0, 1.741745936688049E9, 0.0, 2025-03-11 21:18:56.688
73.0, 7774.003776789163, -24054.545051401266, -27083.765218706754, 7366.665585835646, -3506.9216498043124, 3294.0436356119676, -20295.36161367436, 18899.383413718155, -0.084, 0.972, -0.096, 192.0, 0.0, 0.0, 0.0, 0.0, 0.0, 0.0, 0.0, 0.0, 0.0, 1.741745936688057E9, 0.0, 2025-03-11 21:18:56.688
74.0, 7777.2447797351815, -24049.918240299015, -27081.954727405875, 7355.266196163439, -3504.7088271032367, 3309.108711374845, -20296.72507008613, 18900.255131751914, -0.084, 0.972, -0.096, 192.0, 0.0, 0.0, 0.0, 0.0, 0.0, 0.0, 0.0, 0.0, 0.0, 1.741745936688065E9, 0.0, 2025-03-11 21:18:56.688
75.0, 7781.49161118169, -24047.034865264282, -27083.69816347339, 7354.640347318691, -3505.0217515256113, 3295.831775168392, -20308.839715580907, 18892.11909677018, -0.084, 0.972, -0.096, 192.0, 0.0, 0.0, 0.0, 0.0, 0.0, 0.0, 0.0, 0.0, 0.0, 1.741745936688073E9, 0.0, 2025-03-11 21:18:56.688
76.0, 7768.9075790533525, -24047.280734453292, -27086.715648974856, 7350.572329827825, -3507.569850393516, 3298.5810397363953, -20311.298407470993, 18899.159896273602, -0.084, 0.972, -0.096, 192.0, 0.0, 0.0, 0.0, 0.0, 0.0, 0.0, 0.0, 0.0, 0.0, 1.74174593668809E9, 0.0, 2025-03-11 21:18:56.688
77.0, 7765.532465640601, -24035.590772103165, -27086.98386990832, 7357.926053753621, -3507.413388182329, 3295.9658856351243, -20308.035052780517, 18896.03065204986, -0.084, 0.972, -0.096, 192.0, 0.0, 0.0, 0.0, 0.0, 0.0, 0.0, 0.0, 0.0, 0.0, 1.741745936688098E9, 0.0, 2025-03-11 21:18:56.688
78.0, 7776.574227401523, -24020.570399829197, -27084.391067551504, 7360.563559599347, -3510.8108533395357, 3300.771510693015, -20299.161410231758, 18905.530143443364, -0.084, 0.972, -0.096, 192.0, 0.0, 0.0, 0.0, 0.0, 0.0, 0.0, 0.0, 0.0, 0.0, 1.741745936688106E9, 0.0, 2025-03-11 21:18:56.688
79.0, 7786.118422283938, -24012.344957869645, -27083.429942539926, 7350.639385061191, -3499.903202045346, 3306.60531599585, -20302.96120678916, 18901.260960252403, -0.084, 0.972, -0.096, 192.0, 0.0, 0.0, 0.0, 0.0, 0.0, 0.0, 0.0, 0.0, 0.0, 1.741745936688114E9, 0.0, 2025-03-11 21:18:56.688
80.0, 7783.1679920158385, -24016.658844549518, -27085.665116985456, 7360.898835766177, -3507.189870737776, 3299.4974612590627, -20312.63951213831, 18879.646823364117, -0.084, 0.972, -0.096, 192.0, 0.0, 0.0, 0.0, 0.0, 0.0, 0.0, 0.0, 0.0, 0.0, 1.741745936688122E9, 0.0, 2025-03-11 21:18:56.688
81.0, 7780.910465825852, -24018.335225383667, -27082.915852417453, 7368.051393991876, -3505.2899724590748, 3299.8774409148027, -20307.386852191314, 18899.94220732954, -0.08, 0.978, -0.094, 192.0, 253.0, 128.0, 30.0, 144.0, 253.0, 16.0, 0.0, 0.0, 0.0, 1.74174593668813E9, 0.0, 2025-03-11 21:18:56.688
82.0, 7779.1223262694275, -24006.2652833778, -27081.708858216865, 7364.318652667839, -3502.987742780178, 3295.9211821462136, -20307.25274172458, 18908.92760860057, -0.08, 0.978, -0.094, 192.0, 0.0, 0.0, 0.0, 0.0, 0.0, 0.0, 0.0, 0.0, 0.0, 1.741745936688138E9, 0.0, 2025-03-11 21:18:56.688
83.0, 7780.9998728036735, -24002.219617631392, -27083.094666373097, 7355.914396752643, -3505.960524792734, 3297.6199147248167, -20309.35380570338, 18895.53891367184, -0.08, 0.978, -0.094, 192.0, 0.0, 0.0, 0.0, 0.0, 0.0, 0.0, 0.0, 0.0, 0.0, 1.741745936688146E9, 0.0, 2025-03-11 21:18:56.688
84.0, 7775.590750645489, -23992.340146582144, -27079.36192504906, 7375.963911529054, -3500.327885189997, 3296.3682170353195, -20311.38781444881, 18883.759544343895, -0.08, 0.978, -0.094, 192.0, 0.0, 0.0, 0.0, 0.0, 0.0, 0.0, 0.0, 0.0, 0.0, 1.741745936688154E9, 0.0, 2025-03-11 21:18:56.688
85.0, 7782.497439682179, -23985.52286452328, -27078.825483182132, 7377.483830152015, -3498.5620973780274, 3292.9260483892026, -20307.185686491215, 18887.246416478923, -0.08, 0.978, -0.094, 192.0, 0.0, 0.0, 0.0, 0.0, 0.0, 0.0, 0.0, 0.0, 0.0, 1.741745936688162E9, 0.0, 2025-03-11 21:18:56.688
86.0, 7793.762718887654, -23977.856216175107, -27071.762331934257, 7377.483830152015, -3495.343446176463, 3292.233144311088, -20298.26734045355, 18893.616663648685, -0.08, 0.978, -0.094, 192.0, 0.0, 0.0, 0.0, 0.0, 0.0, 0.0, 0.0, 0.0, 0.0, 1.741745936749084E9, 0.0, 2025-03-11 21:18:56.749
87.0, 7794.857954365963, -23978.280899319758, -27080.010125638262, 7366.151495713174, -3509.380341694396, 3283.515963973518, -20305.509305657066, 18890.82269559177, -0.08, 0.978, -0.094, 192.0, 0.0, 0.0, 0.0, 0.0, 0.0, 0.0, 0.0, 0.0, 0.0, 1.741745936749094E9, 0.0, 2025-03-11 21:18:56.749
88.0, 7788.554762429567, -23984.13705636705, -27087.721477475345, 7349.812370516345, -3516.4658446867284, 3282.756004662038, -20318.070986040948, 18887.134657756647, -0.08, 0.978, -0.094, 192.0, 0.0, 0.0, 0.0, 0.0, 0.0, 0.0, 0.0, 0.0, 0.0, 1.741745936749102E9, 0.0, 2025-03-11 21:18:56.749
89.0, 7786.1631257728495, -23983.354745311113, -27086.872111186043, 7361.144704955185, -3511.771978351114, 3280.3420162608645, -20318.272151741046, 18882.172570487568, -0.08, 0.978, -0.094, 192.0, 0.0, 0.0, 0.0, 0.0, 0.0, 0.0, 0.0, 0.0, 0.0, 1.741745936749109E9, 0.0, 2025-03-11 21:18:56.749
90.0, 7784.911428083352, -23982.751248210818, -27086.02274489674, 7367.425545147127, -3510.989667295178, 3279.515001716018, -20318.987407563618, 18885.391221689133, -0.08, 0.978, -0.094, 192.0, 0.0, 0.0, 0.0, 0.0, 0.0, 0.0, 0.0, 0.0, 0.0, 1.741745936749117E9, 0.0, 2025-03-11 21:18:56.749
91.0, 7786.520753684134, -23978.95145165342, -27087.319146075148, 7360.921187510632, -3510.5873358949825, 3287.0475395974568, -20319.21092500817, 18882.038460020838, -0.078, 0.98, -0.098, 192.0, 253.0, 144.0, 30.0, 160.0, 252.0, 240.0, 0.0, 0.0, 0.0, 1.741745936749125E9, 0.0, 2025-03-11 21:18:56.749
92.0, 7786.833678106508, -23970.971878882872, -27083.765218706754, 7367.7608213139565, -3498.0703590000107, 3292.7919379224704, -20302.15654398877, 18896.745907872428, -0.078, 0.98, -0.098, 192.0, 0.0, 0.0, 0.0, 0.0, 0.0, 0.0, 0.0, 0.0, 0.0, 1.741745936749141E9, 0.0, 2025-03-11 21:18:56.749
93.0, 7782.58684666, -23981.499550521323, -27083.87697742903, 7365.659757335157, -3497.9138967888234, 3301.1067868598448, -20302.201247477682, 18895.918893327584, -0.078, 0.98, -0.098, 192.0, 0.0, 0.0, 0.0, 0.0, 0.0, 0.0, 0.0, 0.0, 0.0, 1.741745936749149E9, 0.0, 2025-03-11 21:18:56.749
94.0, 7795.752024144176, -23974.615213229088, -27075.36096279156, 7373.8404958058, -3496.9751235217004, 3309.488691030585, -20289.4384013937, 18911.051024323824, -0.078, 0.98, -0.098, 192.0, 0.0, 0.0, 0.0, 0.0, 0.0, 0.0, 0.0, 0.0, 0.0, 1.741745936749157E9, 0.0, 2025-03-11 21:18:56.749
95.0, 7797.607218933967, -23965.74157068033, -27075.919756402942, 7379.428431919627, -3502.7865770800804, 3322.8550342148587, -20288.276110682025, 18912.03450107986, -0.078, 0.98, -0.098, 192.0, 0.0, 0.0, 0.0, 0.0, 0.0, 0.0, 0.0, 0.0, 0.0, 1.741745936749165E9, 0.0, 2025-03-11 21:18:56.749
96.0, 7793.136870042905, -23968.08850384814, -27083.184073350916, 7375.203952217574, -3491.4318908967844, 3324.486711560096, -20307.096279513393, 18896.321224727777, -0.078, 0.98, -0.098, 192.0, 0.0, 0.0, 0.0, 0.0, 0.0, 0.0, 0.0, 0.0, 0.0, 1.741745936749173E9, 0.0, 2025-03-11 21:18:56.749
97.0, 7785.023186805629, -23981.65601273251, -27090.73896297681, 7368.632539347714, -3501.378417179396, 3285.997007608057, -20317.646302896297, 18879.669175108575, -0.078, 0.98, -0.098, 192.0, 0.0, 0.0, 0.0, 0.0, 0.0, 0.0, 0.0, 0.0, 0.0, 1.741745936749181E9, 0.0, 2025-03-11 21:18:56.749
98.0, 7795.595561932989, -23967.88733814804, -27079.518387260247, 7381.797716831889, -3492.1024432304434, 3292.814289666926, -20304.101145756384, 18900.50100094092, -0.078, 0.98, -0.098, 192.0, 0.0, 0.0, 0.0, 0.0, 0.0, 0.0, 0.0, 0.0, 0.0, 1.741745936749189E9, 0.0, 2025-03-11 21:18:56.749
99.0, 7803.753948659176, -23955.75034090881, -27070.220061566837, 7385.642216878202, -3481.708882058726, 3308.6393247412834, -20291.651224094778, 18911.721576657485, -0.078, 0.98, -0.098, 192.0, 0.0, 0.0, 0.0, 0.0, 0.0, 0.0, 0.0, 0.0, 0.0, 1.741745936749197E9, 0.0, 2025-03-11 21:18:56.749
100.0, 7791.6840066533105, -23960.84653864462, -27077.37261979254, 7378.109678996763, -3487.7438530616587, 3298.2457635695655, -20295.428668907723, 18905.21721902099, -0.078, 0.98, -0.098, 192.0, 0.0, 0.0, 0.0, 0.0, 0.0, 0.0, 0.0, 0.0, 0.0, 1.741745936749205E9, 0.0, 2025-03-11 21:18:56.749
101.0, 7787.9289135848185, -23960.108931077593, -27079.40662853797, 7374.868676050744, -3492.281257186086, 3304.0572171279455, -20297.328567186425, 18897.349404972723, -0.084, 0.978, -0.096, 192.0, 253.0, 96.0, 30.0, 144.0, 253.0, 0.0, 0.0, 0.0, 0.0, 1.741745936809364E9, 0.0, 2025-03-11 21:18:56.809
102.0, 7798.478936967724, -23955.16919555297, -27073.148140090485, 7375.494524895493, -3488.21323969522, 3306.158281106744, -20297.82030556444, 18910.15695454561, -0.084, 0.978, -0.096, 192.0, 0.0, 0.0, 0.0, 0.0, 0.0, 0.0, 0.0, 0.0, 0.0, 1.74174593680938E9, 0.0, 2025-03-11 21:18:56.809
103.0, 7795.9084863553635, -23967.149730581015, -27079.250166326783, 7360.340042154795, -3491.811870552525, 3285.8852488857806, -20303.87762831183, 18897.908198584104, -0.084, 0.978, -0.096, 192.0, 0.0, 0.0, 0.0, 0.0, 0.0, 0.0, 0.0, 0.0, 0.0, 1.74174593680939E9, 0.0, 2025-03-11 21:18:56.809
104.0, 7800.937628857807, -23977.766809197285, -27076.7914744367, 7367.6490625916795, -3490.582524607483, 3294.55772573444, -20301.68715735521, 18900.724518385472, -0.084, 0.978, -0.096, 192.0, 0.0, 0.0, 0.0, 0.0, 0.0, 0.0, 0.0, 0.0, 0.0, 1.741745936809398E9, 0.0, 2025-03-11 21:18:56.809
105.0, 7794.880306110419, -23974.302288806713, -27077.998468637285, 7378.288492952406, -3490.4260623962955, 3302.1126153603336, -20296.054517752473, 18908.525277200377, -0.084, 0.978, -0.096, 192.0, 0.0, 0.0, 0.0, 0.0, 0.0, 0.0, 0.0, 0.0, 0.0, 1.741745936809407E9, 0.0, 2025-03-11 21:18:56.809
106.0, 7800.177669546327, -23959.371323510568, -27069.191881321894, 7388.838516335311, -3482.8711727704017, 3300.391531037275, -20296.032166008015, 18895.02482354937, -0.084, 0.978, -0.096, 192.0, 0.0, 0.0, 0.0, 0.0, 0.0, 0.0, 0.0, 0.0, 0.0, 1.741745936809415E9, 0.0, 2025-03-11 21:18:56.809
107.0, 7807.821966150042, -23951.771730395765, -27064.140387074996, 7393.599437904291, -3478.244361668153, 3315.769531222526, -20292.344128172892, 18910.26871326789, -0.084, 0.978, -0.096, 192.0, 0.0, 0.0, 0.0, 0.0, 0.0, 0.0, 0.0, 0.0, 0.0, 1.741745936809433E9, 0.0, 2025-03-11 21:18:56.809
108.0, 7795.126175299428, -23959.08075083265, -27071.762331934257, 7392.4147954481605, -3486.1345274608766, 3308.236993341088, -20298.602616620377, 18907.87707661117, -0.084, 0.978, -0.096, 192.0, 0.0, 0.0, 0.0, 0.0, 0.0, 0.0, 0.0, 0.0, 0.0, 1.74174593680944E9, 0.0, 2025-03-11 21:18:56.809
109.0, 7797.3166462560475, -23956.867928131574, -27074.533948246713, 7371.828838804822, -3491.7001118302483, 3314.8307579554034, -20304.615235878853, 18903.22791376447, -0.084, 0.978, -0.096, 192.0, 0.0, 0.0, 0.0, 0.0, 0.0, 0.0, 0.0, 0.0, 0.0, 1.741745936809448E9, 0.0, 2025-03-11 21:18:56.809
110.0, 7807.777262661131, -23945.89322160402, -27069.996544122285, 7377.8414580633, -3493.2423821976645, 3307.298220073965, -20308.72795685863, 18898.154067773114, -0.084, 0.978, -0.096, 192.0, 0.0, 0.0, 0.0, 0.0, 0.0, 0.0, 0.0, 0.0, 0.0, 1.741745936809456E9, 0.0, 2025-03-11 21:18:56.809
111.0, 7808.201945805782, -23953.6045734411, -27066.487320242803, 7391.0066355474755, -3498.316228189019, 3302.0455601269678, -20298.043823008993, 18914.3143790143, -0.08600000000000001, 0.982, -0.096, 192.0, 253.0, 80.0, 30.0, 176.0, 253.0, 0.0, 0.0, 0.0, 0.0, 1.741745936809464E9, 0.0, 2025-03-11 21:18:56.809
112.0, 7800.736463157709, -23954.051608330206, -27065.146215575485, 7392.638312892714, -3491.2754286855975, 3298.5810397363953, -20298.6920235982, 18908.79349813384, -0.08600000000000001, 0.982, -0.096, 192.0, 0.0, 0.0, 0.0, 0.0, 0.0, 0.0, 0.0, 0.0, 0.0, 1.741745936809473E9, 0.0, 2025-03-11 21:18:56.809
113.0, 7797.227239278226, -23949.022465827762, -27064.87799464202, 7388.704405868579, -3483.474669870695, 3296.077644357401, -20304.279959712025, 18900.70216664102, -0.08600000000000001, 0.982, -0.096, 192.0, 0.0, 0.0, 0.0, 0.0, 0.0, 0.0, 0.0, 0.0, 0.0, 1.741745936809481E9, 0.0, 2025-03-11 21:18:56.809
114.0, 7804.603314948477, -23951.16823329547, -27069.102474344072, 7382.602379632281, -3491.0072077521336, 3294.8930019012696, -20308.25857022507, 18894.376622960168, -0.08600000000000001, 0.982, -0.096, 192.0, 0.0, 0.0, 0.0, 0.0, 0.0, 0.0, 0.0, 0.0, 0.0, 1.741745936809489E9, 0.0, 2025-03-11 21:18:56.809
115.0, 7806.190288804804, -23951.279992017746, -27069.50480574427, 7388.860868079766, -3494.449376398251, 3297.8881356582806, -20309.577323147932, 18894.510733426898, -0.08600000000000001, 0.982, -0.096, 192.0, 0.0, 0.0, 0.0, 0.0, 0.0, 0.0, 0.0, 0.0, 0.0, 1.741745936809497E9, 0.0, 2025-03-11 21:18:56.809
116.0, 7803.843355636997, -23952.41993098497, -27064.296849286184, 7389.486716924515, -3492.3706641639073, 3315.1660341222328, -20296.903884041774, 18920.25994303941, -0.08600000000000001, 0.982, -0.096, 192.0, 0.0, 0.0, 0.0, 0.0, 0.0, 0.0, 0.0, 0.0, 0.0, 1.741745936868632E9, 0.0, 2025-03-11 21:18:56.868
117.0, 7805.11740507095, -23946.20614602639, -27058.932430616907, 7396.214592005563, -3481.9547512477343, 3317.0435806564788, -20294.512247385057, 18904.010224820402, -0.08600000000000001, 0.982, -0.096, 192.0, 0.0, 0.0, 0.0, 0.0, 0.0, 0.0, 0.0, 0.0, 0.0, 1.741745936868651E9, 0.0, 2025-03-11 21:18:56.868
118.0, 7808.984256861718, -23943.5015849473, -27059.535927717203, 7385.50810641147, -3481.5300681030835, 3322.2738888590206, -20294.847523551885, 18911.498059212932, -0.08600000000000001, 0.982, -0.096, 192.0, 0.0, 0.0, 0.0, 0.0, 0.0, 0.0, 0.0, 0.0, 0.0, 1.741745936868659E9, 0.0, 2025-03-11 21:18:56.868
119.0, 7797.3166462560475, -23943.83686111413, -27066.956706876364, 7383.183524988119, -3487.1403559613655, 3306.582964251395, -20296.54625613049, 18907.07241381078, -0.08600000000000001, 0.982, -0.096, 192.0, 0.0, 0.0, 0.0, 0.0, 0.0, 0.0, 0.0, 0.0, 0.0, 1.741745936868667E9, 0.0, 2025-03-11 21:18:56.868
120.0, 7802.412843991858, -23946.49671870431, -27069.325991788628, 7382.3788621877275, -3489.7108065737257, 3296.3011618019536, -20300.278997454527, 18893.97429155997, -0.08600000000000001, 0.982, -0.096, 192.0, 0.0, 0.0, 0.0, 0.0, 0.0, 0.0, 0.0, 0.0, 0.0, 1.741745936868675E9, 0.0, 2025-03-11 21:18:56.868
121.0, 7803.888059125908, -23950.83295712864, -27067.984887121307, 7394.247638493495, -3488.8837920288793, 3295.3847402792862, -20306.984520791117, 18898.712861384494, -0.088, 0.982, -0.096, 192.0, 253.0, 64.0, 30.0, 176.0, 253.0, 0.0, 0.0, 0.0, 0.0, 1.741745936868683E9, 0.0, 2025-03-11 21:18:56.868
122.0, 7796.735500900209, -23958.253736287803, -27073.08108485712, 7392.03481579242, -3495.0081700096334, 3301.978504893602, -20312.192477249202, 18894.93541657155, -0.088, 0.982, -0.096, 192.0, 0.0, 0.0, 0.0, 0.0, 0.0, 0.0, 0.0, 0.0, 0.0, 1.741745936868692E9, 0.0, 2025-03-11 21:18:56.868
123.0, 7796.959018344763, -23957.761997909787, -27075.718590702843, 7384.41287093316, -3497.1315857328877, 3297.6422664692723, -20314.606465650377, 18886.419401934076, -0.088, 0.982, -0.096, 192.0, 0.0, 0.0, 0.0, 0.0, 0.0, 0.0, 0.0, 0.0, 0.0, 1.741745936868703E9, 0.0, 2025-03-11 21:18:56.868
124.0, 7795.170878788338, -23950.944715850917, -27072.634049968012, 7380.836591820311, -3484.8604780269243, 3299.743330448071, -20298.759078831565, 18903.07145155328, -0.088, 0.982, -0.096, 192.0, 0.0, 0.0, 0.0, 0.0, 0.0, 0.0, 0.0, 0.0, 0.0, 1.741745936868711E9, 0.0, 2025-03-11 21:18:56.868
125.0, 7798.4342334788125, -23944.954448336895, -27070.26476505575, 7366.799696302378, -3487.252114683642, 3301.263249071032, -20299.228465465127, 18909.620512678684, -0.088, 0.982, -0.096, 192.0, 0.0, 0.0, 0.0, 0.0, 0.0, 0.0, 0.0, 0.0, 0.0, 1.741745936868719E9, 0.0, 2025-03-11 21:18:56.868
126.0, 7806.167937060349, -23944.239192514324, -27066.30850628716, 7391.118394269753, -3490.4931176296614, 3297.776376936004, -20298.580264875924, 18901.484477696955, -0.088, 0.982, -0.096, 192.0, 0.0, 0.0, 0.0, 0.0, 0.0, 0.0, 0.0, 0.0, 0.0, 1.741745936868726E9, 0.0, 2025-03-11 21:18:56.868
127.0, 7795.394396232891, -23962.07588458966, -27073.237547068304, 7384.74814709999, -3487.4085768948294, 3289.685045443183, -20301.12836374383, 18906.98300683296, -0.088, 0.982, -0.096, 192.0, 0.0, 0.0, 0.0, 0.0, 0.0, 0.0, 0.0, 0.0, 0.0, 1.741745936868735E9, 0.0, 2025-03-11 21:18:56.868
128.0, 7791.549896186579, -23962.88054739005, -27078.266689570748, 7374.488696395004, -3487.1403559613655, 3296.837603668881, -20302.35770968887, 18896.298872983323, -0.088, 0.982, -0.096, 192.0, 0.0, 0.0, 0.0, 0.0, 0.0, 0.0, 0.0, 0.0, 0.0, 1.741745936868743E9, 0.0, 2025-03-11 21:18:56.868
129.0, 7809.207774306271, -23944.77563438125, -27069.16952957744, 7375.6286353622245, -3479.0043209796336, 3308.482862530096, -20292.455886895168, 18896.12005902768, -0.088, 0.982, -0.096, 192.0, 0.0, 0.0, 0.0, 0.0, 0.0, 0.0, 0.0, 0.0, 0.0, 1.741745936868751E9, 0.0, 2025-03-11 21:18:56.868
130.0, 7812.78405341912, -23943.41217796948, -27063.805110908164, 7395.36522571626, -3475.159820933321, 3297.2846385579874, -20292.29942468398, 18912.146259802135, -0.088, 0.982, -0.096, 192.0, 0.0, 0.0, 0.0, 0.0, 0.0, 0.0, 0.0, 0.0, 0.0, 1.741745936868759E9, 0.0, 2025-03-11 21:18:56.868
131.0, 7809.1183673284495, -23958.4549019879, -27069.840081911098, 7386.670397123146, -3486.9168385168123, 3297.686969958183, -20310.046709781494, 18896.678852639063, -0.088, 0.974, -0.096, 192.0, 253.0, 64.0, 30.0, 112.0, 253.0, 0.0, 0.0, 0.0, 0.0, 1.741745936928463E9, 0.0, 2025-03-11 21:18:56.928
132.0, 7794.165050287849, -23969.988402126837, -27080.814788438656, 7374.153420228175, -3498.40563516684, 3295.876478657303, -20306.090451012904, 18882.194922232025, -0.088, 0.974, -0.096, 192.0, 0.0, 0.0, 0.0, 0.0, 0.0, 0.0, 0.0, 0.0, 0.0, 1.741745936928482E9, 0.0, 2025-03-11 21:18:56.928
133.0, 7785.134945527905, -23974.950489395917, -27088.7943612092, 7360.116524710242, -3500.350236934452, 3282.55483896194, -20315.835811595418, 18876.361116929187, -0.088, 0.974, -0.096, 192.0, 0.0, 0.0, 0.0, 0.0, 0.0, 0.0, 0.0, 0.0, 0.0, 1.74174593692849E9, 0.0, 2025-03-11 21:18:56.928
134.0, 7806.413806249358, -23955.616230442076, -27071.471759256336, 7377.260312707462, -3480.54659134705, 3301.196193837666, -20296.747421830587, 18905.88777135465, -0.088, 0.974, -0.096, 192.0, 0.0, 0.0, 0.0, 0.0, 0.0, 0.0, 0.0, 0.0, 0.0, 1.741745936928498E9, 0.0, 2025-03-11 21:18:56.928
135.0, 7803.217506792249, -23950.430625728444, -27067.806073165666, 7373.281702194417, -3475.249227911142, 3316.060103900445, -20294.601654362876, 18907.92178010008, -0.088, 0.974, -0.096, 192.0, 0.0, 0.0, 0.0, 0.0, 0.0, 0.0, 0.0, 0.0, 0.0, 1.741745936928506E9, 0.0, 2025-03-11 21:18:56.928
136.0, 7811.062969096061, -23945.960276837384, -27058.887727128, 7392.347740214795, -3471.5388383315612, 3307.186461351688, -20290.82420954993, 18919.321169772287, -0.088, 0.974, -0.096, 192.0, 0.0, 0.0, 0.0, 0.0, 0.0, 0.0, 0.0, 0.0, 0.0, 1.741745936928514E9, 0.0, 2025-03-11 21:18:56.928
137.0, 7801.339960258003, -23958.678419432454, -27069.72832318882, 7378.489658652504, -3482.2900274145636, 3290.4673564991185, -20297.507381142066, 18906.44656496603, -0.088, 0.974, -0.096, 192.0, 0.0, 0.0, 0.0, 0.0, 0.0, 0.0, 0.0, 0.0, 0.0, 1.741745936928522E9, 0.0, 2025-03-11 21:18:56.928
138.0, 7794.187402032305, -23965.898032891517, -27079.11605586005, 7357.099039208775, -3492.3930159083625, 3286.354635519342, -20309.040881281006, 18885.950015300514, -0.088, 0.974, -0.096, 192.0, 0.0, 0.0, 0.0, 0.0, 0.0, 0.0, 0.0, 0.0, 0.0, 1.741745936928534E9, 0.0, 2025-03-11 21:18:56.928
139.0, 7788.197134518282, -23966.009791613793, -27081.39593379449, 7369.504257381471, -3495.186983965276, 3278.5091732155292, -20312.77362260504, 18883.603082132708, -0.088, 0.974, -0.096, 192.0, 0.0, 0.0, 0.0, 0.0, 0.0, 0.0, 0.0, 0.0, 0.0, 1.741745936928542E9, 0.0, 2025-03-11 21:18:56.928
140.0, 7801.138794557905, -23963.193471812425, -27075.048038369187, 7373.594626616791, -3488.056777484033, 3281.034920338979, -20309.085584769917, 18891.3591374587, -0.088, 0.974, -0.096, 192.0, 0.0, 0.0, 0.0, 0.0, 0.0, 0.0, 0.0, 0.0, 0.0, 1.74174593692855E9, 0.0, 2025-03-11 21:18:56.928
141.0, 7802.725768414232, -23962.902899134508, -27072.142311589996, 7371.784135315912, -3486.4698036277064, 3291.4284815106967, -20305.911637057263, 18900.74687012993, -0.08600000000000001, 0.98, -0.098, 192.0, 253.0, 80.0, 30.0, 160.0, 252.0, 240.0, 0.0, 0.0, 0.0, 1.741745936928558E9, 0.0, 2025-03-11 21:18:56.928
142.0, 7788.599465918478, -23966.859157903094, -27075.24920406928, 7359.535379354404, -3488.5261641175944, 3290.199135565655, -20301.39658467729, 18898.60110266222, -0.08600000000000001, 0.98, -0.098, 192.0, 0.0, 0.0, 0.0, 0.0, 0.0, 0.0, 0.0, 0.0, 0.0, 1.741745936928567E9, 0.0, 2025-03-11 21:18:56.928
143.0, 7801.429367235824, -23965.629811958053, -27073.684581957412, 7362.463457878049, -3485.799251294047, 3292.613123966828, -20299.161410231758, 18896.321224727777, -0.08600000000000001, 0.98, -0.098, 192.0, 0.0, 0.0, 0.0, 0.0, 0.0, 0.0, 0.0, 0.0, 0.0, 1.741745936928574E9, 0.0, 2025-03-11 21:18:56.928
144.0, 7799.998855590685, -23963.908727634996, -27076.50090175878, 7369.683071337113, -3490.314303674019, 3284.387682007275, -20302.849448066885, 18881.83729432074, -0.08600000000000001, 0.98, -0.098, 192.0, 0.0, 0.0, 0.0, 0.0, 0.0, 0.0, 0.0, 0.0, 0.0, 1.741745936928582E9, 0.0, 2025-03-11 21:18:56.928
145.0, 7801.630532935922, -23961.427684000457, -27067.940183632396, 7396.706330383579, -3487.341521661463, 3299.31864730342, -20298.937892787206, 18901.93151258606, -0.08600000000000001, 0.98, -0.098, 192.0, 0.0, 0.0, 0.0, 0.0, 0.0, 0.0, 0.0, 0.0, 0.0, 1.74174593692859E9, 0.0, 2025-03-11 21:18:56.928
146.0, 7795.953189844274, -23964.26635554628, -27068.87895689952, 7385.977493045032, -3483.5864285929715, 3310.7627404645373, -20289.058421737962, 18914.962579603503, -0.08600000000000001, 0.98, -0.098, 192.0, 0.0, 0.0, 0.0, 0.0, 0.0, 0.0, 0.0, 0.0, 0.0, 1.741745936988763E9, 0.0, 2025-03-11 21:18:56.988
147.0, 7801.8987538693855, -23954.520994963765, -27065.41443650895, 7379.450783664082, -3480.5912948359605, 3311.768568965026, -20290.176008960727, 18906.93830334405, -0.08600000000000001, 0.98, -0.098, 192.0, 0.0, 0.0, 0.0, 0.0, 0.0, 0.0, 0.0, 0.0, 0.0, 1.741745936988773E9, 0.0, 2025-03-11 21:18:56.988
148.0, 7806.436157993813, -23950.74355015082, -27064.699180686377, 7391.252504736484, -3487.1403559613655, 3317.065932400934, -20296.83682880841, 18903.02674806437, -0.08600000000000001, 0.98, -0.098, 192.0, 0.0, 0.0, 0.0, 0.0, 0.0, 0.0, 0.0, 0.0, 0.0, 1.741745936988789E9, 0.0, 2025-03-11 21:18:56.988
149.0, 7805.743253915698, -23950.36357049508, -27069.951840633374, 7382.021234276443, -3493.890582786868, 3309.3769323083084, -20313.6453406388, 18893.907236326606, -0.08600000000000001, 0.98, -0.098, 192.0, 0.0, 0.0, 0.0, 0.0, 0.0, 0.0, 0.0, 0.0, 0.0, 1.741745936988797E9, 0.0, 2025-03-11 21:18:56.988
150.0, 7795.349692743981, -23953.090483318625, -27082.31235531716, 7357.836646775801, -3502.7642253356253, 3298.2457635695655, -20324.910619844275, 18895.22598924947, -0.08600000000000001, 0.98, -0.098, 192.0, 0.0, 0.0, 0.0, 0.0, 0.0, 0.0, 0.0, 0.0, 0.0, 1.741745936988805E9, 0.0, 2025-03-11 21:18:56.988
151.0, 7801.272905024637, -23956.97968685385, -27083.720515217843, 7370.2865684374065, -3506.3628561929295, 3286.689911686172, -20328.665712912763, 18885.30181471131, -0.08600000000000001, 0.98, -0.096, 192.0, 253.0, 80.0, 30.0, 160.0, 253.0, 0.0, 0.0, 0.0, 0.0, 1.741745936988813E9, 0.0, 2025-03-11 21:18:56.988
152.0, 7801.630532935922, -23957.69494267642, -27079.16075934896, 7388.972626802043, -3502.9430392912677, 3284.007702351535, -20326.36348323387, 18879.803285575304, -0.08600000000000001, 0.98, -0.096, 192.0, 0.0, 0.0, 0.0, 0.0, 0.0, 0.0, 0.0, 0.0, 0.0, 1.741745936988821E9, 0.0, 2025-03-11 21:18:56.988
153.0, 7792.846297364986, -23965.6074602136, -27083.608756495567, 7363.290472422895, -3506.5863736374827, 3280.3420162608645, -20323.368349476856, 18868.895634281118, -0.08600000000000001, 0.98, -0.096, 192.0, 0.0, 0.0, 0.0, 0.0, 0.0, 0.0, 0.0, 0.0, 0.0, 1.741745936988829E9, 0.0, 2025-03-11 21:18:56.988
154.0, 7805.6538469378775, -23957.873756632063, -27077.082047114618, 7364.7656875569455, -3499.255001456142, 3283.9406471181687, -20321.6472651538, 18869.812055803784, -0.08600000000000001, 0.98, -0.096, 192.0, 0.0, 0.0, 0.0, 0.0, 0.0, 0.0, 0.0, 0.0, 0.0, 1.74174593698884E9, 0.0, 2025-03-11 21:18:56.988
155.0, 7805.5420882156, -23952.442282729422, -27076.32208780314, 7381.395385431694, -3495.9692950212116, 3288.299237286954, -20320.30616048648, 18876.74109658493, -0.08600000000000001, 0.98, -0.096, 192.0, 0.0, 0.0, 0.0, 0.0, 0.0, 0.0, 0.0, 0.0, 0.0, 1.741745936988848E9, 0.0, 2025-03-11 21:18:56.988
156.0, 7801.004684091174, -23945.870869859562, -27076.210329080863, 7371.202989960074, -3489.7331583181813, 3296.0552926129453, -20311.074890026437, 18883.781896088352, -0.08600000000000001, 0.98, -0.096, 192.0, 0.0, 0.0, 0.0, 0.0, 0.0, 0.0, 0.0, 0.0, 0.0, 1.741745936988856E9, 0.0, 2025-03-11 21:18:56.988
157.0, 7786.274884495126, -23960.89124213353, -27085.55335826318, 7373.304053938873, -3502.8089288245355, 3288.5451064759623, -20315.098204028393, 18877.478704151956, -0.08600000000000001, 0.98, -0.096, 192.0, 0.0, 0.0, 0.0, 0.0, 0.0, 0.0, 0.0, 0.0, 0.0, 1.741745936988868E9, 0.0, 2025-03-11 21:18:56.988
158.0, 7791.281675253114, -23975.106951607104, -27086.31331757466, 7370.733603326512, -3502.272486957608, 3293.84246991187, -20311.052538281983, 18888.140486257136, -0.08600000000000001, 0.98, -0.096, 192.0, 0.0, 0.0, 0.0, 0.0, 0.0, 0.0, 0.0, 0.0, 0.0, 1.741745936988876E9, 0.0, 2025-03-11 21:18:56.988
159.0, 7792.06398630905, -23974.749323695818, -27085.55335826318, 7365.749164312979, -3503.12185324691, 3287.4945744865627, -20309.845544081396, 18903.183210275558, -0.08600000000000001, 0.98, -0.096, 192.0, 0.0, 0.0, 0.0, 0.0, 0.0, 0.0, 0.0, 0.0, 0.0, 1.741745936988884E9, 0.0, 2025-03-11 21:18:56.988
160.0, 7784.307930983059, -23969.809588171196, -27085.709820474367, 7362.977548000521, -3495.097576987455, 3279.224429038099, -20308.392680691803, 18898.46699219549, -0.08600000000000001, 0.98, -0.096, 192.0, 0.0, 0.0, 0.0, 0.0, 0.0, 0.0, 0.0, 0.0, 0.0, 1.741745936988891E9, 0.0, 2025-03-11 21:18:56.988
161.0, 7792.756890387165, -23959.863061888584, -27081.954727405875, 7377.707347596568, -3492.9965130086557, 3286.5334494749845, -20311.320759215447, 18890.420364191577, -0.09, 0.974, -0.098, 192.0, 253.0, 48.0, 30.0, 112.0, 252.0, 240.0, 0.0, 0.0, 0.0, 1.741745937049061E9, 0.0, 2025-03-11 21:18:57.049
162.0, 7798.993027090196, -23960.153634566504, -27083.295832073192, 7382.244751720996, -3498.897373544857, 3294.9600571346355, -20313.6453406388, 18888.02872753486, -0.09, 0.974, -0.098, 192.0, 0.0, 0.0, 0.0, 0.0, 0.0, 0.0, 0.0, 0.0, 0.0, 1.741745937049071E9, 0.0, 2025-03-11 21:18:57.049
163.0, 7796.690797411299, -23961.87471888956, -27081.865320428053, 7370.5771411153255, -3492.840050797469, 3284.7006064296493, -20304.950512045685, 18892.16380025909, -0.09, 0.974, -0.098, 192.0, 0.0, 0.0, 0.0, 0.0, 0.0, 0.0, 0.0, 0.0, 0.0, 1.741745937049086E9, 0.0, 2025-03-11 21:18:57.049
164.0, 7795.506154955167, -23962.165291567482, -27074.712762202354, 7364.631577090214, -3481.5300681030835, 3303.7889961944816, -20285.370383902835, 18912.16861154659, -0.09, 0.974, -0.098, 192.0, 0.0, 0.0, 0.0, 0.0, 0.0, 0.0, 0.0, 0.0, 0.0, 1.741745937049094E9, 0.0, 2025-03-11 21:18:57.049
165.0, 7792.578076431522, -23962.54527122322, -27074.958631391364, 7392.75007161499, -3482.424137881296, 3299.31864730342, -20295.048689251984, 18899.87515209617, -0.09, 0.974, -0.098, 192.0, 0.0, 0.0, 0.0, 0.0, 0.0, 0.0, 0.0, 0.0, 0.0, 1.741745937049102E9, 0.0, 2025-03-11 21:18:57.049
166.0, 7794.097995054483, -23958.99134385483, -27075.137445347005, 7387.363301201261, -3489.0402542400666, 3294.8930019012696, -20304.458773667666, 18892.007338047904, -0.09, 0.974, -0.098, 192.0, 0.0, 0.0, 0.0, 0.0, 0.0, 0.0, 0.0, 0.0, 0.0, 1.74174593704911E9, 0.0, 2025-03-11 21:18:57.049
167.0, 7799.104785812472, -23954.40923624149, -27069.437750510904, 7386.715100612057, -3482.379434392385, 3305.1748043507105, -20294.95928227416, 18901.73034688596, -0.09, 0.974, -0.098, 192.0, 0.0, 0.0, 0.0, 0.0, 0.0, 0.0, 0.0, 0.0, 0.0, 1.741745937049118E9, 0.0, 2025-03-11 21:18:57.049
168.0, 7796.891963111397, -23954.006904841295, -27070.153006333472, 7388.0115017904645, -3481.5300681030835, 3294.93770539018, -20289.304290926968, 18909.195829534034, -0.09, 0.974, -0.098, 192.0, 0.0, 0.0, 0.0, 0.0, 0.0, 0.0, 0.0, 0.0, 0.0, 1.741745937049126E9, 0.0, 2025-03-11 21:18:57.049
169.0, 7791.818117120042, -23954.69980891941, -27070.890613900498, 7387.564466901358, -3481.418309380807, 3297.7316734470933, -20292.567645617444, 18909.039367322846, -0.09, 0.974, -0.098, 192.0, 0.0, 0.0, 0.0, 0.0, 0.0, 0.0, 0.0, 0.0, 0.0, 1.741745937049137E9, 0.0, 2025-03-11 21:18:57.049
170.0, 7787.794803118087, -23960.779483411254, -27078.669020970945, 7366.397364902183, -3488.257943184131, 3314.718999233127, -20297.373270675336, 18916.482498226465, -0.09, 0.974, -0.098, 192.0, 0.0, 0.0, 0.0, 0.0, 0.0, 0.0, 0.0, 0.0, 0.0, 1.741745937049144E9, 0.0, 2025-03-11 21:18:57.049
171.0, 7791.482840953213, -23954.565698452676, -27079.674849471434, 7363.402231145172, -3483.049986726044, 3309.9133741752357, -20294.199322962682, 18905.150163787624, -0.084, 0.974, -0.092, 192.0, 253.0, 96.0, 30.0, 112.0, 253.0, 32.0, 0.0, 0.0, 0.0, 1.741745937049152E9, 0.0, 2025-03-11 21:18:57.049
172.0, 7791.594599675489, -23957.15850080949, -27078.914890159955, 7385.977493045032, -3487.587390850472, 3292.0543303554455, -20299.720203843142, 18890.174495002568, -0.084, 0.974, -0.092, 192.0, 0.0, 0.0, 0.0, 0.0, 0.0, 0.0, 0.0, 0.0, 0.0, 1.741745937049161E9, 0.0, 2025-03-11 21:18:57.049
173.0, 7789.9852740747065, -23957.583183954142, -27076.389143036504, 7386.670397123146, -3490.537821118572, 3303.006685138546, -20292.746459573085, 18905.060756809802, -0.084, 0.974, -0.092, 192.0, 0.0, 0.0, 0.0, 0.0, 0.0, 0.0, 0.0, 0.0, 0.0, 1.741745937049169E9, 0.0, 2025-03-11 21:18:57.049
174.0, 7784.464393194246, -23957.471425231866, -27077.417323281446, 7383.004711032476, -3481.0383297250664, 3322.0280196700123, -20300.12253524334, 18896.567093916787, -0.084, 0.974, -0.092, 192.0, 0.0, 0.0, 0.0, 0.0, 0.0, 0.0, 0.0, 0.0, 0.0, 1.741745937049177E9, 0.0, 2025-03-11 21:18:57.049
175.0, 7795.841431121998, -23954.364532752577, -27076.210329080863, 7371.828838804822, -3482.6253035813934, 3309.3769323083084, -20301.441288166203, 18895.941245072037, -0.084, 0.974, -0.092, 192.0, 0.0, 0.0, 0.0, 0.0, 0.0, 0.0, 0.0, 0.0, 0.0, 1.741745937049185E9, 0.0, 2025-03-11 21:18:57.049
176.0, 7796.02024507764, -23960.01952409977, -27077.462026770358, 7363.201065445074, -3481.2618471696196, 3296.547030990962, -20296.41214566376, 18884.899483311117, -0.084, 0.974, -0.092, 192.0, 0.0, 0.0, 0.0, 0.0, 0.0, 0.0, 0.0, 0.0, 0.0, 1.74174593710936E9, 0.0, 2025-03-11 21:18:57.109
177.0, 7794.053291565573, -23951.771730395765, -27074.712762202354, 7380.277798208928, -3477.126774445388, 3297.172879835711, -20295.29455844099, 18885.570035644774, -0.084, 0.974, -0.092, 192.0, 0.0, 0.0, 0.0, 0.0, 0.0, 0.0, 0.0, 0.0, 0.0, 1.741745937109376E9, 0.0, 2025-03-11 21:18:57.109
178.0, 7796.3778729889245, -23947.614305927076, -27068.141349332494, 7403.143632786708, -3475.9868354781674, 3306.5382607624842, -20291.740631072596, 18910.067547567793, -0.084, 0.974, -0.092, 192.0, 0.0, 0.0, 0.0, 0.0, 0.0, 0.0, 0.0, 0.0, 0.0, 1.741745937109386E9, 0.0, 2025-03-11 21:18:57.109
179.0, 7796.266114266648, -23956.5550037092, -27074.891576158, 7385.217533733551, -3484.122870459899, 3303.7889961944816, -20299.161410231758, 18894.957768316006, -0.084, 0.974, -0.092, 192.0, 0.0, 0.0, 0.0, 0.0, 0.0, 0.0, 0.0, 0.0, 0.0, 1.741745937109405E9, 0.0, 2025-03-11 21:18:57.109
180.0, 7794.522678199134, -23955.07978857515, -27075.428018024926, 7378.713176097057, -3483.5417251040612, 3320.4633975581405, -20293.171142717736, 18908.88290511166, -0.084, 0.974, -0.092, 192.0, 0.0, 0.0, 0.0, 0.0, 0.0, 0.0, 0.0, 0.0, 0.0, 1.741745937109415E9, 0.0, 2025-03-11 21:18:57.109
181.0, 7809.096015583995, -23944.485061703333, -27067.560203976656, 7394.269990237951, -3479.808983780025, 3305.934763662191, -20292.992328762095, 18910.112251056704, -0.08, 0.974, -0.098, 192.0, 253.0, 128.0, 30.0, 112.0, 252.0, 240.0, 0.0, 0.0, 0.0, 1.741745937109425E9, 0.0, 2025-03-11 21:18:57.109
182.0, 7813.789881919609, -23935.678474387943, -27062.419302751936, 7399.343836229305, -3472.3658528764076, 3303.8113479389367, -20290.600692105378, 18911.69922491303, -0.08, 0.974, -0.098, 192.0, 0.0, 0.0, 0.0, 0.0, 0.0, 0.0, 0.0, 0.0, 0.0, 1.741745937109437E9, 0.0, 2025-03-11 21:18:57.109
183.0, 7808.559573717067, -23935.522012176756, -27063.849814397076, 7390.850173336288, -3470.8235825089914, 3304.236031083588, -20291.293596183492, 18903.719652142485, -0.08, 0.974, -0.098, 192.0, 0.0, 0.0, 0.0, 0.0, 0.0, 0.0, 0.0, 0.0, 0.0, 1.741745937109447E9, 0.0, 2025-03-11 21:18:57.109
184.0, 7804.44685273729, -23948.88835536103, -27070.77885517822, 7372.320577182839, -3478.6466930683487, 3305.577135750906, -20301.10601199937, 18910.3134167568, -0.08, 0.974, -0.098, 192.0, 0.0, 0.0, 0.0, 0.0, 0.0, 0.0, 0.0, 0.0, 0.0, 1.741745937109457E9, 0.0, 2025-03-11 21:18:57.109
185.0, 7798.92597185683, -23956.867928131574, -27077.484378514815, 7378.400251674682, -3490.828393796491, 3289.908562887736, -20314.07002378345, 18889.54864615782, -0.08, 0.974, -0.098, 192.0, 0.0, 0.0, 0.0, 0.0, 0.0, 0.0, 0.0, 0.0, 0.0, 1.741745937109471E9, 0.0, 2025-03-11 21:18:57.109
186.0, 7803.284562025615, -23951.056474573194, -27072.634049968012, 7393.487679182015, -3487.4085768948294, 3294.8259466679033, -20309.040881281006, 18880.83146582025, -0.08, 0.974, -0.098, 192.0, 0.0, 0.0, 0.0, 0.0, 0.0, 0.0, 0.0, 0.0, 0.0, 1.74174593710948E9, 0.0, 2025-03-11 21:18:57.109
187.0, 7809.744216173198, -23940.48409944583, -27064.810939408653, 7396.8180891058555, -3478.6913965572594, 3306.247688084565, -20298.759078831565, 18896.298872983323, -0.08, 0.974, -0.098, 192.0, 0.0, 0.0, 0.0, 0.0, 0.0, 0.0, 0.0, 0.0, 0.0, 1.74174593710949E9, 0.0, 2025-03-11 21:18:57.109
188.0, 7802.345788758492, -23940.662913401477, -27065.88382314251, 7395.36522571626, -3475.0704139554996, 3298.782205436493, -20300.189590476704, 18906.468916710488, -0.08, 0.974, -0.098, 192.0, 0.0, 0.0, 0.0, 0.0, 0.0, 0.0, 0.0, 0.0, 0.0, 1.7417459371095E9, 0.0, 2025-03-11 21:18:57.109
189.0, 7805.9444196157965, -23935.633770899032, -27065.325029531126, 7395.164060016163, -3474.3328063884746, 3301.6655804712273, -20297.037994508504, 18904.323149242777, -0.08, 0.974, -0.098, 192.0, 0.0, 0.0, 0.0, 0.0, 0.0, 0.0, 0.0, 0.0, 0.0, 1.741745937109508E9, 0.0, 2025-03-11 21:18:57.109
190.0, 7804.737425415209, -23942.942791335918, -27069.571860977634, 7387.966798301554, -3474.1092889439215, 3306.5382607624842, -20294.40048866278, 18905.08310855426, -0.088, 0.97, -0.096, 192.0, 253.0, 64.0, 30.0, 80.0, 253.0, 0.0, 0.0, 0.0, 0.0, 1.741745937109516E9, 0.0, 2025-03-11 21:18:57.109
191.0, 7808.716035928254, -23944.127433792048, -27068.767198177244, 7386.536286656415, -3472.701129043237, 3309.3545805638532, -20296.658014852765, 18901.37271897468, -0.088, 0.97, -0.096, 192.0, 0.0, 0.0, 0.0, 0.0, 0.0, 0.0, 0.0, 0.0, 0.0, 1.741745937169643E9, 0.0, 2025-03-11 21:18:57.169
192.0, 7809.855974895475, -23939.63473315653, -27071.427055767424, 7390.581952402825, -3473.30462614353, 3312.6626387432384, -20299.317872442945, 18910.246361523434, -0.088, 0.97, -0.096, 192.0, 0.0, 0.0, 0.0, 0.0, 0.0, 0.0, 0.0, 0.0, 0.0, 1.741745937169663E9, 0.0, 2025-03-11 21:18:57.169
193.0, 7815.019227864651, -23934.337369720623, -27074.198672079885, 7383.69761511059, -3473.617550565905, 3300.257420570543, -20299.563741631955, 18903.384375975656, -0.088, 0.97, -0.096, 192.0, 0.0, 0.0, 0.0, 0.0, 0.0, 0.0, 0.0, 0.0, 0.0, 1.741745937169673E9, 0.0, 2025-03-11 21:18:57.169
194.0, 7811.130024329427, -23930.537573163223, -27072.052904612174, 7387.0727285233415, -3470.577713319983, 3290.7802809214927, -20299.407279420768, 18897.50586718391, -0.088, 0.97, -0.096, 192.0, 0.0, 0.0, 0.0, 0.0, 0.0, 0.0, 0.0, 0.0, 0.0, 1.7417459371697E9, 0.0, 2025-03-11 21:18:57.169
195.0, 7796.243762522193, -23945.043855314718, -27082.535872761713, 7385.6645686226575, -3481.775937292092, 3293.261324556032, -20301.374232932834, 18903.719652142485, -0.088, 0.97, -0.096, 192.0, 0.0, 0.0, 0.0, 0.0, 0.0, 0.0, 0.0, 0.0, 0.0, 1.741745937169709E9, 0.0, 2025-03-11 21:18:57.169
196.0, 7809.096015583995, -23944.082730303136, -27077.864358170555, 7380.188391231107, -3477.864382012413, 3303.587830494384, -20304.145849245295, 18897.707032884005, -0.088, 0.97, -0.096, 192.0, 0.0, 0.0, 0.0, 0.0, 0.0, 0.0, 0.0, 0.0, 0.0, 1.741745937169719E9, 0.0, 2025-03-11 21:18:57.169
197.0, 7812.02409410764, -23945.245021014813, -27073.483416257313, 7390.671359380646, -3476.277408156086, 3300.905621159747, -20299.764907332054, 18893.616663648685, -0.088, 0.97, -0.096, 192.0, 0.0, 0.0, 0.0, 0.0, 0.0, 0.0, 0.0, 0.0, 0.0, 1.741745937169729E9, 0.0, 2025-03-11 21:18:57.169
198.0, 7802.8375271365085, -23944.3509512366, -27080.948898905386, 7371.895894038188, -3479.764280291114, 3298.8939641587694, -20299.608445120866, 18890.286253724844, -0.088, 0.97, -0.096, 192.0, 0.0, 0.0, 0.0, 0.0, 0.0, 0.0, 0.0, 0.0, 0.0, 1.741745937169739E9, 0.0, 2025-03-11 21:18:57.169
199.0, 7809.744216173198, -23933.10802377558, -27073.25989881276, 7392.057167536876, -3475.1374691888655, 3312.550880020962, -20289.416049649248, 18902.3114922418, -0.088, 0.97, -0.096, 192.0, 0.0, 0.0, 0.0, 0.0, 0.0, 0.0, 0.0, 0.0, 0.0, 1.741745937169749E9, 0.0, 2025-03-11 21:18:57.169
200.0, 7816.539146487612, -23927.74360510631, -27067.940183632396, 7393.554734415381, -3468.9236842302903, 3315.613069011339, -20281.57058734543, 18922.07043434029, -0.08600000000000001, 0.98, -0.098, 192.0, 253.0, 80.0, 30.0, 160.0, 252.0, 240.0, 0.0, 0.0, 0.0, 1.741745937169766E9, 0.0, 2025-03-11 21:18:57.169
201.0, 7805.720902171243, -23927.900067317496, -27073.192843579396, 7384.859905822266, -3472.8799429988794, 3306.515909018029, -20289.304290926968, 18914.56024820331, -0.08600000000000001, 0.98, -0.098, 192.0, 0.0, 0.0, 0.0, 0.0, 0.0, 0.0, 0.0, 0.0, 0.0, 1.741745937169777E9, 0.0, 2025-03-11 21:18:57.169
202.0, 7809.073663839539, -23925.44137542741, -27070.711799944856, 7387.65387387918, -3470.153030175332, 3304.6607142282387, -20289.371346160337, 18909.195829534034, -0.08600000000000001, 0.98, -0.098, 192.0, 0.0, 0.0, 0.0, 0.0, 0.0, 0.0, 0.0, 0.0, 0.0, 1.741745937169787E9, 0.0, 2025-03-11 21:18:57.169
203.0, 7804.290390526104, -23927.229514983836, -27077.059695370164, 7384.323463955339, -3480.188963435765, 3298.357522291842, -20296.76977357504, 18900.344538729732, -0.08600000000000001, 0.98, -0.098, 192.0, 0.0, 0.0, 0.0, 0.0, 0.0, 0.0, 0.0, 0.0, 0.0, 1.741745937169797E9, 0.0, 2025-03-11 21:18:57.169
204.0, 7803.1280998144275, -23931.27518073025, -27077.394971536993, 7379.249617963984, -3476.6797395562817, 3311.075664886912, -20285.25862518056, 18902.73617538645, -0.08600000000000001, 0.98, -0.098, 192.0, 0.0, 0.0, 0.0, 0.0, 0.0, 0.0, 0.0, 0.0, 0.0, 1.741745937169807E9, 0.0, 2025-03-11 21:18:57.169
205.0, 7795.997893333184, -23949.245983272314, -27081.68650647241, 7361.345870655284, -3478.579637834983, 3322.832682470403, -20287.247930437083, 18909.642864423142, -0.08600000000000001, 0.98, -0.098, 192.0, 0.0, 0.0, 0.0, 0.0, 0.0, 0.0, 0.0, 0.0, 0.0, 1.741745937169816E9, 0.0, 2025-03-11 21:18:57.169
206.0, 7805.407977748869, -23952.442282729422, -27077.55143374818, 7379.897818553188, -3483.11704195941, 3310.2710020865206, -20293.819343306943, 18905.12781204317, -0.08600000000000001, 0.98, -0.098, 192.0, 0.0, 0.0, 0.0, 0.0, 0.0, 0.0, 0.0, 0.0, 0.0, 1.741745937229067E9, 0.0, 2025-03-11 21:18:57.229
207.0, 7811.2864865406145, -23947.7037129049, -27073.03638136821, 7380.903647053677, -3478.6466930683487, 3306.6947229736716, -20289.170180460238, 18899.763393373894, -0.08600000000000001, 0.98, -0.098, 192.0, 0.0, 0.0, 0.0, 0.0, 0.0, 0.0, 0.0, 0.0, 0.0, 1.74174593722908E9, 0.0, 2025-03-11 21:18:57.229
208.0, 7805.475032982235, -23936.080805788137, -27067.940183632396, 7383.362338943761, -3472.052928454033, 3314.003743410557, -20279.49187511109, 18904.569018431786, -0.08600000000000001, 0.98, -0.098, 192.0, 0.0, 0.0, 0.0, 0.0, 0.0, 0.0, 0.0, 0.0, 0.0, 1.74174593722909E9, 0.0, 2025-03-11 21:18:57.229
209.0, 7806.234992293716, -23933.68916913142, -27059.379465506016, 7389.8443448358, -3467.1802481627765, 3324.844339471381, -20269.992383717585, 18920.148184317135, -0.08600000000000001, 0.98, -0.098, 192.0, 0.0, 0.0, 0.0, 0.0, 0.0, 0.0, 0.0, 0.0, 0.0, 1.7417459372291E9, 0.0, 2025-03-11 21:18:57.229
210.0, 7807.084358583017, -23948.3519134941, -27062.620468452034, 7396.147536772197, -3472.5893703209604, 3317.0435806564788, -20275.692078553686, 18924.618533208195, -0.084, 0.982, -0.10400000000000001, 192.0, 253.0, 96.0, 30.0, 176.0, 252.0, 192.0, 0.0, 0.0, 0.0, 1.741745937229118E9, 0.0, 2025-03-11 21:18:57.229
211.0, 7797.227239278226, -23964.020486357273, -27071.069427856142, 7385.888086067211, -3479.9207425023014, 3307.588792751884, -20288.119648470838, 18909.866381867694, -0.084, 0.982, -0.10400000000000001, 192.0, 0.0, 0.0, 0.0, 0.0, 0.0, 0.0, 0.0, 0.0, 0.0, 1.741745937229129E9, 0.0, 2025-03-11 21:18:57.229
212.0, 7794.477974710224, -23960.488910733333, -27071.896442400986, 7381.954179043077, -3481.217143680709, 3313.1543771212555, -20285.25862518056, 18914.44848948103, -0.084, 0.982, -0.10400000000000001, 192.0, 0.0, 0.0, 0.0, 0.0, 0.0, 0.0, 0.0, 0.0, 0.0, 1.741745937229139E9, 0.0, 2025-03-11 21:18:57.229
213.0, 7790.54406768609, -23971.79889342772, -27072.41053252346, 7382.624731376735, -3481.373605891896, 3308.9746009081127, -20282.554064101467, 18908.234704522456, -0.084, 0.982, -0.10400000000000001, 192.0, 0.0, 0.0, 0.0, 0.0, 0.0, 0.0, 0.0, 0.0, 0.0, 1.741745937229149E9, 0.0, 2025-03-11 21:18:57.229
214.0, 7790.812288619553, -23981.23132958786, -27071.002372622774, 7377.930865041121, -3483.45231812624, 3319.256403357554, -20286.376212403324, 18905.865419610192, -0.084, 0.982, -0.10400000000000001, 192.0, 0.0, 0.0, 0.0, 0.0, 0.0, 0.0, 0.0, 0.0, 0.0, 1.741745937229159E9, 0.0, 2025-03-11 21:18:57.229
215.0, 7782.028053048618, -23990.976690170373, -27070.6894482004, 7376.925036540632, -3478.6466930683487, 3321.558633036451, -20278.10606695486, 18931.681684456074, -0.084, 0.982, -0.10400000000000001, 192.0, 0.0, 0.0, 0.0, 0.0, 0.0, 0.0, 0.0, 0.0, 0.0, 1.741745937229169E9, 0.0, 2025-03-11 21:18:57.229
216.0, 7781.44690769278, -23993.413030316002, -27067.89548014349, 7390.22432449154, -3473.0364052100667, 3338.255386144565, -20270.01473546204, 18931.636980967163, -0.084, 0.982, -0.10400000000000001, 192.0, 0.0, 0.0, 0.0, 0.0, 0.0, 0.0, 0.0, 0.0, 0.0, 1.741745937229183E9, 0.0, 2025-03-11 21:18:57.229
217.0, 7768.885227308897, -24009.483934579366, -27081.530044261224, 7361.971719500032, -3480.3677773914073, 3314.3390195773864, -20281.659994323254, 18910.98396909046, -0.084, 0.982, -0.10400000000000001, 192.0, 0.0, 0.0, 0.0, 0.0, 0.0, 0.0, 0.0, 0.0, 0.0, 1.741745937229192E9, 0.0, 2025-03-11 21:18:57.229
218.0, 7759.944529526774, -24019.542219584255, -27081.351230305583, 7364.139838712197, -3480.390129135863, 3314.316667832931, -20275.110933197848, 18927.591315220754, -0.084, 0.982, -0.10400000000000001, 192.0, 0.0, 0.0, 0.0, 0.0, 0.0, 0.0, 0.0, 0.0, 0.0, 1.741745937229203E9, 0.0, 2025-03-11 21:18:57.229
219.0, 7772.34974769947, -24031.81332729022, -27076.657363969967, 7374.533399883914, -3476.9703122342007, 3316.5071387895514, -20272.5851860744, 18918.717672671995, -0.084, 0.982, -0.10400000000000001, 192.0, 0.0, 0.0, 0.0, 0.0, 0.0, 0.0, 0.0, 0.0, 0.0, 1.741745937229213E9, 0.0, 2025-03-11 21:18:57.229
220.0, 7773.48968666669, -24047.39249317557, -27084.681640229424, 7366.196199202085, -3491.096614729955, 3304.7724729505153, -20285.86212228085, 18907.407689977612, -0.09, 0.976, -0.10400000000000001, 192.0, 253.0, 48.0, 30.0, 128.0, 252.0, 192.0, 0.0, 0.0, 0.0, 1.741745937229222E9, 0.0, 2025-03-11 21:18:57.229
221.0, 7761.509151638646, -24062.412865449533, -27090.783666465722, 7342.145722168175, -3489.8225652960023, 3297.9551908916465, -20290.06425023845, 18897.818791606285, -0.09, 0.976, -0.10400000000000001, 192.0, 0.0, 0.0, 0.0, 0.0, 0.0, 0.0, 0.0, 0.0, 0.0, 1.741745937288819E9, 0.0, 2025-03-11 21:18:57.288
222.0, 7759.1622184708385, -24070.683010897996, -27089.129637376027, 7343.039791946387, -3484.972236749201, 3303.677237472205, -20283.40343039077, 18909.486402211955, -0.09, 0.976, -0.10400000000000001, 192.0, 0.0, 0.0, 0.0, 0.0, 0.0, 0.0, 0.0, 0.0, 0.0, 1.741745937288832E9, 0.0, 2025-03-11 21:18:57.288
223.0, 7763.945491784274, -24062.703438127453, -27087.095628630595, 7351.756972283956, -3488.570867606505, 3298.491632758574, -20286.420915892235, 18905.17251553208, -0.09, 0.976, -0.10400000000000001, 192.0, 0.0, 0.0, 0.0, 0.0, 0.0, 0.0, 0.0, 0.0, 0.0, 1.74174593728884E9, 0.0, 2025-03-11 21:18:57.288
224.0, 7768.617006375433, -24052.868670567117, -27085.151026862983, 7359.803600287867, -3492.6165333529157, 3308.818138696926, -20288.5890351044, 18902.333843986256, -0.09, 0.976, -0.10400000000000001, 192.0, 0.0, 0.0, 0.0, 0.0, 0.0, 0.0, 0.0, 0.0, 0.0, 1.741745937288848E9, 0.0, 2025-03-11 21:18:57.288
225.0, 7765.890093551886, -24055.394417690568, -27090.31427983216, 7361.189408444096, -3500.953734034745, 3292.9484001336577, -20298.356747431368, 18888.58752114624, -0.09, 0.976, -0.10400000000000001, 192.0, 0.0, 0.0, 0.0, 0.0, 0.0, 0.0, 0.0, 0.0, 0.0, 1.741745937288864E9, 0.0, 2025-03-11 21:18:57.288
226.0, 7757.463485892235, -24060.66942938202, -27093.868207200554, 7363.5363416119035, -3498.1374142333766, 3279.3138360159205, -20295.272206696536, 18895.471858438475, -0.09, 0.976, -0.10400000000000001, 192.0, 0.0, 0.0, 0.0, 0.0, 0.0, 0.0, 0.0, 0.0, 0.0, 1.741745937288872E9, 0.0, 2025-03-11 21:18:57.288
227.0, 7762.984366772696, -24052.622801378107, -27087.341497819605, 7366.710289324557, -3493.6894170867704, 3296.681141457694, -20281.995270490082, 18912.88386736916, -0.09, 0.976, -0.10400000000000001, 192.0, 0.0, 0.0, 0.0, 0.0, 0.0, 0.0, 0.0, 0.0, 0.0, 1.74174593728888E9, 0.0, 2025-03-11 21:18:57.288
228.0, 7758.961052770741, -24054.36623744562, -27088.16851236445, 7361.4799811220155, -3488.4144053953178, 3313.333191076898, -20288.611386848854, 18893.080221781758, -0.09, 0.976, -0.10400000000000001, 192.0, 0.0, 0.0, 0.0, 0.0, 0.0, 0.0, 0.0, 0.0, 0.0, 1.741745937288888E9, 0.0, 2025-03-11 21:18:57.288
229.0, 7764.057250506551, -24060.356504959644, -27091.990660666306, 7356.830818275312, -3493.510603131128, 3297.2399350690766, -20297.283863697514, 18882.418439676578, -0.09, 0.976, -0.10400000000000001, 192.0, 0.0, 0.0, 0.0, 0.0, 0.0, 0.0, 0.0, 0.0, 0.0, 1.741745937288895E9, 0.0, 2025-03-11 21:18:57.288
