%OpenBCI Raw EXG Data
%Number of channels = 8
%Sample Rate = 250 Hz
%Board = OpenBCI_GUI$BoardCytonSerial
Sample Index, EXG Channel 0, EXG Channel 1, EXG Channel 2, EXG Channel 3, EXG Channel 4, EXG Channel 5, EXG Channel 6, EXG Channel 7, Accel Channel 0, Accel Channel 1, Accel Channel 2, Not Used, Digital Channel 0 (D11), Digital Channel 1 (D12), Digital Channel 2 (D13), Digital Channel 3 (D17), Not Used, Digital Channel 4 (D18), Analog Channel 0, Analog Channel 1, Analog Channel 2, Timestamp, Marker Channel, Timestamp (Formatted)
42.0, -33886.8986233352, -27946.58725817052, -34695.472979005935, -33143.70312019624, -4533.246699958647, -8057.379192993545, -41222.02589774441, -28334.23356225891, 0.0, 0.0, 0.0, 192.0, 0.0, 0.0, 0.0, 0.0, 0.0, 0.0, 0.0, 0.0, 0.0, 1.741282606611504E9, 0.0, 2025-03-06 11:36:46.611
43.0, -33885.80338785689, -27953.516298951665, -34689.61682195864, -33137.44463174875, -4511.163176436803, -8049.0196405672605, -41227.25620594695, -28352.204364800975, 0.0, 0.0, 0.0, 192.0, 0.0, 0.0, 0.0, 0.0, 0.0, 0.0, 0.0, 0.0, 0.0, 1.74128260661153E9, 0.0, 2025-03-06 11:36:46.611
44.0, -33891.748951882, -27957.87488912045, -34690.39913301458, -33131.096736323445, -4552.066868790015, -8043.968146320361, -41225.40101115716, -28340.60380942867, 0.0, 0.0, 0.0, 192.0, 0.0, 0.0, 0.0, 0.0, 0.0, 0.0, 0.0, 0.0, 0.0, 1.741282606611549E9, 0.0, 2025-03-06 11:36:46.611
45.0, -33896.01813507296, -27955.550307697096, -34697.6410982181, -33133.24250379115, -4565.366156740923, -8044.526939931744, -41222.16000821114, -28325.203457498963, 0.0, 0.0, 0.0, 192.0, 0.0, 0.0, 0.0, 0.0, 0.0, 0.0, 0.0, 0.0, 0.0, 1.741282606611568E9, 0.0, 2025-03-06 11:36:46.611
46.0, -33895.68285890613, -27950.454109961287, -34703.18433084301, -33137.109355581924, -4532.844368558451, -8051.1877597794255, -41225.71393557954, -28345.677655420026, 0.0, 0.0, 0.0, 192.0, 0.0, 0.0, 0.0, 0.0, 0.0, 0.0, 0.0, 0.0, 0.0, 1.741282606611586E9, 0.0, 2025-03-06 11:36:46.611
47.0, -33893.4476844606, -27949.604743671985, -34698.11048485166, -33138.36105327142, -4515.141786949848, -8045.890396343518, -41219.43309538759, -28344.33655075271, 0.0, 0.0, 0.0, 192.0, 0.0, 0.0, 0.0, 0.0, 0.0, 0.0, 0.0, 0.0, 0.0, 1.741282606611617E9, 0.0, 2025-03-06 11:36:46.611
48.0, -33904.444742732616, -27955.840880375017, -34707.96760415645, -33147.27939930909, -4553.072697290504, -8052.931195846939, -41218.38256339819, -28332.825402358223, 0.0, 0.0, 0.0, 192.0, 0.0, 0.0, 0.0, 0.0, 0.0, 0.0, 0.0, 0.0, 0.0, 1.741282606611636E9, 0.0, 2025-03-06 11:36:46.611
49.0, -33907.9539666121, -27954.18685128532, -34717.33298508322, -33159.23758259268, -4564.76265964063, -8056.194550537414, -41224.283423934394, -28326.745727866382, 0.0, 0.0, 0.0, 192.0, 0.0, 0.0, 0.0, 0.0, 0.0, 0.0, 0.0, 0.0, 0.0, 1.741282606611743E9, 0.0, 2025-03-06 11:36:46.611
50.0, -33900.443780475114, -27943.43566220232, -34714.51666528185, -33148.26287606512, -4542.008583785127, -8050.293690001213, -41218.561377353835, -28329.51734417884, 0.0, 0.0, 0.0, 192.0, 0.0, 0.0, 0.0, 0.0, 0.0, 0.0, 0.0, 0.0, 0.0, 1.741282606611761E9, 0.0, 2025-03-06 11:36:46.611
51.0, -33887.32330647985, -27936.417214443354, -34695.71884819494, -33134.76242241412, -4503.071844943982, -8046.337431232623, -41221.24358668847, -28339.642684417093, 0.07200000000000001, 0.932, -0.322, 192.0, 2.0, 64.0, 29.0, 32.0, 245.0, 240.0, 0.0, 0.0, 0.0, 1.74128260661178E9, 0.0, 2025-03-06 11:36:46.611
52.0, -33891.81600711537, -27943.68153139133, -34696.523510995336, -33141.98203587318, -4543.573205896999, -8055.21107378138, -41223.232891944994, -28334.90411459257, 0.07200000000000001, 0.932, -0.322, 192.0, 0.0, 0.0, 0.0, 0.0, 0.0, 0.0, 0.0, 0.0, 0.0, 1.7412826066118E9, 0.0, 2025-03-06 11:36:46.611
53.0, -33906.72462066706, -27952.95750534028, -34714.4943135374, -33150.386291788374, -4563.242741017669, -8072.891303645529, -41232.01712751593, -28367.537661497317, 0.07200000000000001, 0.932, -0.322, 192.0, 0.0, 0.0, 0.0, 0.0, 0.0, 0.0, 0.0, 0.0, 0.0, 1.741282606611819E9, 0.0, 2025-03-06 11:36:46.611
54.0, -33893.537091438426, -27942.586295913017, -34700.211548830455, -33136.774079415096, -4538.387601183367, -8055.5910534371205, -41220.036592487886, -28349.745672910893, 0.07200000000000001, 0.932, -0.322, 192.0, 0.0, 0.0, 0.0, 0.0, 0.0, 0.0, 0.0, 0.0, 0.0, 1.741282606611838E9, 0.0, 2025-03-06 11:36:46.611
55.0, -33882.51768142196, -27932.975045797237, -34691.02498185933, -33136.28234103708, -4515.99115323915, -8055.479294714844, -41205.50795859194, -28297.241425185377, 0.07200000000000001, 0.932, -0.322, 192.0, 0.0, 0.0, 0.0, 0.0, 0.0, 0.0, 0.0, 0.0, 0.0, 1.741282606611857E9, 0.0, 2025-03-06 11:36:46.611
56.0, -33895.23582401703, -27950.00707507218, -34693.97541212742, -33144.172506829804, -4529.3351446789675, -8061.782486651241, -41221.06477273283, -28340.872030362134, 0.07200000000000001, 0.932, -0.322, 192.0, 0.0, 0.0, 0.0, 0.0, 0.0, 0.0, 0.0, 0.0, 0.0, 1.741282606611875E9, 0.0, 2025-03-06 11:36:46.611
57.0, -33894.98995482802, -27954.05274081859, -34690.73440918141, -33137.109355581924, -4547.909444321328, -8048.282033000235, -41218.65078433166, -28337.340454738198, 0.07200000000000001, 0.932, -0.322, 192.0, 0.0, 0.0, 0.0, 0.0, 0.0, 0.0, 0.0, 0.0, 0.0, 1.741282606611901E9, 0.0, 2025-03-06 11:36:46.611
58.0, -33886.33982972382, -27937.020711543646, -34680.787882898796, -33120.25614026262, -4529.4692551457, -8031.87585257004, -41206.44673185906, -28315.771021338824, 0.07200000000000001, 0.932, -0.322, 192.0, 0.0, 0.0, 0.0, 0.0, 0.0, 0.0, 0.0, 0.0, 0.0, 1.741282606611929E9, 0.0, 2025-03-06 11:36:46.611
59.0, -33891.145454781705, -27935.411385942865, -34685.191176556495, -33119.20560827322, -4486.643312769332, -8033.194605492903, -41216.86264477523, -28329.360881967652, 0.07200000000000001, 0.932, -0.322, 192.0, 0.0, 0.0, 0.0, 0.0, 0.0, 0.0, 0.0, 0.0, 0.0, 1.741282606611948E9, 0.0, 2025-03-06 11:36:46.611
0.0, 0.0, 0.0, 0.0, 0.0, 0.0, 0.0, 0.0, 0.0, 0.07, 0.908, -0.378, 192.0, 2.0, 48.0, 28.0, 96.0, 244.0, 48.0, 0.0, 0.0, 0.0, 1.741282606671945E9, 0.0, 2025-03-06 11:36:46.671
1.0, -34695.20475807247, -28616.513742984982, -35410.9076155314, -33770.96012484552, -5253.017574908445, -8709.20076479921, -41878.362521930045, -29120.992615341263, 0.07, 0.908, -0.378, 192.0, 0.0, 0.0, 0.0, 0.0, 0.0, 0.0, 0.0, 0.0, 0.0, 1.741282606687959E9, 0.0, 2025-03-06 11:36:46.687
2.0, -34689.57211846973, -28607.528341713947, -35406.169045706876, -33768.21086027752, -5268.015595437956, -8699.768328639071, -41869.421824147925, -29130.022720101206, 0.07, 0.908, -0.378, 192.0, 0.0, 0.0, 0.0, 0.0, 0.0, 0.0, 0.0, 0.0, 0.0, 1.741282606747781E9, 0.0, 2025-03-06 11:36:46.747
3.0, -34689.19213881399, -28592.66443165117, -35406.61608059598, -33761.01359856291, -5237.281946811909, -8695.633255914838, -41867.47722238031, -29133.688406191875, 0.07, 0.908, -0.378, 192.0, 0.0, 0.0, 0.0, 0.0, 0.0, 0.0, 0.0, 0.0, 0.0, 1.741282606747805E9, 0.0, 2025-03-06 11:36:46.747
4.0, -34697.95402264047, -28592.060934550875, -35416.652013856416, -33768.27791551089, -5205.788338874381, -8706.406796742296, -41876.90965854045, -29137.376444027002, 0.07, 0.908, -0.378, 192.0, 0.0, 0.0, 0.0, 0.0, 0.0, 0.0, 0.0, 0.0, 0.0, 1.741282606747823E9, 0.0, 2025-03-06 11:36:46.747
5.0, -34707.74408671189, -28600.487542210525, -35422.7093366038, -33775.4751772255, -5230.7775891754145, -8707.09970082041, -41880.888269053496, -29136.772946926707, 0.07, 0.908, -0.378, 192.0, 0.0, 0.0, 0.0, 0.0, 0.0, 0.0, 0.0, 0.0, 0.0, 1.741282606747861E9, 0.0, 2025-03-06 11:36:46.747
6.0, -34702.11144710916, -28591.725658384046, -35415.310909189095, -33766.33331374327, -5260.617168023249, -8702.964628096179, -41876.21675446234, -29131.81085965763, 0.07, 0.908, -0.378, 192.0, 0.0, 0.0, 0.0, 0.0, 0.0, 0.0, 0.0, 0.0, 0.0, 1.74128260674788E9, 0.0, 2025-03-06 11:36:46.747
7.0, -34706.67120297804, -28589.13285602723, -35419.17776097987, -33768.322618999795, -5254.425734809129, -8712.732340423148, -41883.816347577136, -29135.141269581472, 0.07, 0.908, -0.378, 192.0, 0.0, 0.0, 0.0, 0.0, 0.0, 0.0, 0.0, 0.0, 0.0, 1.741282606747897E9, 0.0, 2025-03-06 11:36:46.747
8.0, -34688.72275218043, -28577.04056227691, -35405.2079206953, -33762.35470323023, -5225.591984461783, -8709.804261899502, -41878.228411463315, -29116.969301339308, 0.066, 0.908, -0.4, 192.0, 2.0, 16.0, 28.0, 96.0, 243.0, 128.0, 0.0, 0.0, 0.0, 1.741282606747916E9, 0.0, 2025-03-06 11:36:46.747
9.0, -34687.91808938004, -28582.76260885747, -35403.88916777243, -33765.86392710971, -5237.594871234282, -8711.10066307791, -41881.55882138715, -29127.876952633498, 0.066, 0.908, -0.4, 192.0, 0.0, 0.0, 0.0, 0.0, 0.0, 0.0, 0.0, 0.0, 0.0, 1.741282606747936E9, 0.0, 2025-03-06 11:36:46.747
10.0, -34685.52645272332, -28581.13093151223, -35399.84350202602, -33765.30513349833, -5266.450973326084, -8706.362093253385, -41881.40235917597, -29124.725356665298, 0.066, 0.908, -0.4, 192.0, 0.0, 0.0, 0.0, 0.0, 0.0, 0.0, 0.0, 0.0, 0.0, 1.741282606747954E9, 0.0, 2025-03-06 11:36:46.747
11.0, -34684.74414166738, -28577.912280310666, -35402.41395263839, -33774.64816268065, -5259.633691267216, -8697.086119304433, -41880.173013230924, -29117.639853672965, 0.066, 0.908, -0.4, 192.0, 0.0, 0.0, 0.0, 0.0, 0.0, 0.0, 0.0, 0.0, 0.0, 1.741282606747973E9, 0.0, 2025-03-06 11:36:46.747
12.0, -34687.91808938004, -28575.453588420583, -35405.185568950845, -33769.998999833944, -5223.289754782886, -8692.280494246543, -41888.4878621683, -29150.38515929999, 0.066, 0.908, -0.4, 192.0, 0.0, 0.0, 0.0, 0.0, 0.0, 0.0, 0.0, 0.0, 0.0, 1.741282606747996E9, 0.0, 2025-03-06 11:36:46.747
13.0, -34695.3388685392, -28578.85105357779, -35403.7550573057, -33759.87365959569, -5239.8747491687245, -8696.035587315035, -41887.660847623454, -29152.016836645227, 0.066, 0.908, -0.4, 192.0, 0.0, 0.0, 0.0, 0.0, 0.0, 0.0, 0.0, 0.0, 0.0, 1.741282606748023E9, 0.0, 2025-03-06 11:36:46.748
14.0, -34705.15128435508, -28584.059010035875, -35414.752115577714, -33766.35566548773, -5273.201200151587, -8710.29600027752, -41898.14381577299, -29136.370615526514, 0.066, 0.908, -0.4, 192.0, 0.0, 0.0, 0.0, 0.0, 0.0, 0.0, 0.0, 0.0, 0.0, 1.741282606748041E9, 0.0, 2025-03-06 11:36:46.748
15.0, -34687.44870274648, -28572.27964070793, -35400.02231598167, -33757.07969153878, -5260.840685467802, -8706.362093253385, -41893.02526629272, -29122.870161875508, 0.066, 0.908, -0.4, 192.0, 0.0, 0.0, 0.0, 0.0, 0.0, 0.0, 0.0, 0.0, 0.0, 1.74128260674806E9, 0.0, 2025-03-06 11:36:46.748
16.0, -34677.88215611961, -28561.819024302844, -35391.9533362333, -33753.1681362591, -5237.0360776229, -8705.445671730718, -41895.77453086073, -29120.344414752057, 0.066, 0.908, -0.4, 192.0, 0.0, 0.0, 0.0, 0.0, 0.0, 0.0, 0.0, 0.0, 0.0, 1.741282606748078E9, 0.0, 2025-03-06 11:36:46.748
17.0, -34680.5867171987, -28563.338942925806, -35388.17589142035, -33745.09915651073, -5230.46466475304, -8696.52732569305, -41902.412998963955, -29160.57755477161, 0.066, 0.908, -0.4, 192.0, 0.0, 0.0, 0.0, 0.0, 0.0, 0.0, 0.0, 0.0, 0.0, 1.741282606808083E9, 0.0, 2025-03-06 11:36:46.808
18.0, -34674.73056015141, -28562.22135570304, -35377.26824012616, -33734.75029882792, -5275.2128571525645, -8679.472944673651, -41893.27113548174, -29157.828290203608, 0.064, 0.892, -0.41200000000000003, 192.0, 2.0, 0.0, 27.0, 224.0, 243.0, 32.0, 0.0, 0.0, 0.0, 1.741282606808131E9, 0.0, 2025-03-06 11:36:46.808
19.0, -34678.44094973099, -28562.310762680863, -35381.60447855049, -33737.18663897355, -5260.974795934534, -8676.880142316835, -41900.937783829904, -29163.43857806189, 0.064, 0.892, -0.41200000000000003, 192.0, 0.0, 0.0, 0.0, 0.0, 0.0, 0.0, 0.0, 0.0, 0.0, 1.741282606808152E9, 0.0, 2025-03-06 11:36:46.808
20.0, -34685.2358800454, -28565.060027248866, -35393.71912404527, -33743.4674791655, -5226.776626917914, -8695.09681404791, -41907.375086233034, -29126.37938575499, 0.064, 0.892, -0.41200000000000003, 192.0, 0.0, 0.0, 0.0, 0.0, 0.0, 0.0, 0.0, 0.0, 0.0, 1.741282606808184E9, 0.0, 2025-03-06 11:36:46.808
21.0, -34686.62168820163, -28575.11831225375, -35396.60249908001, -33753.97279905949, -5216.114844812732, -8711.458290989196, -41908.93970834491, -29142.137365595983, 0.064, 0.892, -0.41200000000000003, 192.0, 0.0, 0.0, 0.0, 0.0, 0.0, 0.0, 0.0, 0.0, 0.0, 1.741282606808202E9, 0.0, 2025-03-06 11:36:46.808
22.0, -34691.04733360378, -28586.070667036853, -35395.14963569041, -33748.049586778834, -5253.263444097453, -8688.48069768914, -41914.639403181005, -29188.561938829655, 0.064, 0.892, -0.41200000000000003, 192.0, 0.0, 0.0, 0.0, 0.0, 0.0, 0.0, 0.0, 0.0, 0.0, 1.741282606808223E9, 0.0, 2025-03-06 11:36:46.808
23.0, -34693.707191193964, -28582.226166990542, -35401.2069584378, -33747.64725537864, -5263.545246546894, -8690.067671545467, -41916.78517064872, -29180.939993970394, 0.064, 0.892, -0.41200000000000003, 192.0, 0.0, 0.0, 0.0, 0.0, 0.0, 0.0, 0.0, 0.0, 0.0, 1.741282606808243E9, 0.0, 2025-03-06 11:36:46.808
24.0, -34697.10465635117, -28575.297126209396, -35404.17974045035, -33748.049586778834, -5238.6454032236825, -8702.718758907171, -41925.18942656391, -29161.225755360814, 0.064, 0.892, -0.41200000000000003, 192.0, 0.0, 0.0, 0.0, 0.0, 0.0, 0.0, 0.0, 0.0, 0.0, 1.741282606808261E9, 0.0, 2025-03-06 11:36:46.808
25.0, -34688.43217950251, -28567.18344297212, -35393.80853102309, -33745.456784422015, -5210.146929043166, -8705.803299642002, -41926.12819983104, -29162.67861875041, 0.064, 0.892, -0.41200000000000003, 192.0, 0.0, 0.0, 0.0, 0.0, 0.0, 0.0, 0.0, 0.0, 0.0, 1.741282606808279E9, 0.0, 2025-03-06 11:36:46.808
26.0, -34691.09203709269, -28575.23007097603, -35400.089371215035, -33757.1690985166, -5238.555996245861, -8713.224078801166, -41929.950348132894, -29171.418150832436, 0.064, 0.892, -0.41200000000000003, 192.0, 0.0, 0.0, 0.0, 0.0, 0.0, 0.0, 0.0, 0.0, 0.0, 1.741282606808298E9, 0.0, 2025-03-06 11:36:46.808
27.0, -34688.320420780234, -28576.459416921072, -35406.079638729054, -33766.42272072109, -5265.691014014604, -8713.24643054562, -41923.15541781848, -29144.752519697253, 0.064, 0.892, -0.41200000000000003, 192.0, 0.0, 0.0, 0.0, 0.0, 0.0, 0.0, 0.0, 0.0, 0.0, 1.741282606808321E9, 0.0, 2025-03-06 11:36:46.808
28.0, -34684.81119690075, -28570.379742429228, -35411.265243442685, -33770.60249693424, -5241.215853836043, -8715.615715457883, -41939.29337731521, -29173.318049111134, 0.066, 0.888, -0.41600000000000004, 192.0, 2.0, 16.0, 27.0, 192.0, 243.0, 0.0, 0.0, 0.0, 0.0, 1.741282606808343E9, 0.0, 2025-03-06 11:36:46.808
29.0, -34677.077493319215, -28557.66159983416, -35404.71618231728, -33763.89697359764, -5220.406379748151, -8713.984038112645, -41936.92409240295, -29168.221851375325, 0.066, 0.888, -0.41600000000000004, 192.0, 0.0, 0.0, 0.0, 0.0, 0.0, 0.0, 0.0, 0.0, 0.0, 1.741282606808367E9, 0.0, 2025-03-06 11:36:46.808
30.0, -34690.06385684775, -28572.056123263377, -35414.86387429999, -33774.69286616956, -5254.246920853487, -8727.104512107911, -41934.04071736822, -29160.264630349237, 0.066, 0.888, -0.41600000000000004, 192.0, 0.0, 0.0, 0.0, 0.0, 0.0, 0.0, 0.0, 0.0, 0.0, 1.741282606808386E9, 0.0, 2025-03-06 11:36:46.808
31.0, -34673.434158973, -28563.674219092634, -35402.0563247271, -33766.713293399014, -5282.320711889352, -8717.91794513678, -41931.15734233348, -29152.620333745523, 0.066, 0.888, -0.41600000000000004, 192.0, 0.0, 0.0, 0.0, 0.0, 0.0, 0.0, 0.0, 0.0, 0.0, 1.741282606808405E9, 0.0, 2025-03-06 11:36:46.808
32.0, -34667.42153971452, -28557.683951578612, -35400.782275293146, -33762.35470323023, -5257.376165077229, -8721.337762038442, -41936.72292670285, -29148.82053718812, 0.066, 0.888, -0.41600000000000004, 192.0, 0.0, 0.0, 0.0, 0.0, 0.0, 0.0, 0.0, 0.0, 0.0, 1.741282606867537E9, 0.0, 2025-03-06 11:36:46.867
33.0, -34667.488594947885, -28550.620800330737, -35400.514054359686, -33759.4713281955, -5222.84271989378, -8723.595288228427, -41935.09124935761, -29140.460984761834, 0.066, 0.888, -0.41600000000000004, 192.0, 0.0, 0.0, 0.0, 0.0, 0.0, 0.0, 0.0, 0.0, 0.0, 1.741282606867581E9, 0.0, 2025-03-06 11:36:46.867
34.0, -34666.01337981384, -28553.817099787844, -35394.68024905685, -33753.88339208167, -5251.050621396377, -8718.454387003707, -41929.123333588046, -29136.929409137894, 0.066, 0.888, -0.41600000000000004, 192.0, 0.0, 0.0, 0.0, 0.0, 0.0, 0.0, 0.0, 0.0, 0.0, 1.7412826068676E9, 0.0, 2025-03-06 11:36:46.867
35.0, -34660.76071986684, -28548.072701462832, -35385.739551274724, -33746.19439198904, -5284.71234854607, -8704.998636841612, -41918.5956619496, -29134.940103881374, 0.066, 0.888, -0.41600000000000004, 192.0, 0.0, 0.0, 0.0, 0.0, 0.0, 0.0, 0.0, 0.0, 0.0, 1.74128260686762E9, 0.0, 2025-03-06 11:36:46.867
36.0, -34662.124176278616, -28541.07660544832, -35384.24198439622, -33744.92034255509, -5254.939824931601, -8699.38834898333, -41910.88431011252, -29122.66899617541, 0.066, 0.888, -0.41600000000000004, 192.0, 0.0, 0.0, 0.0, 0.0, 0.0, 0.0, 0.0, 0.0, 0.0, 1.741282606867648E9, 0.0, 2025-03-06 11:36:46.867
37.0, -34682.84424338868, -28552.69951256508, -35404.49266487273, -33762.175889274586, -5217.612411691238, -8704.752767652604, -41922.64132769601, -29138.695196949866, 0.066, 0.888, -0.41600000000000004, 192.0, 0.0, 0.0, 0.0, 0.0, 0.0, 0.0, 0.0, 0.0, 0.0, 1.741282606867667E9, 0.0, 2025-03-06 11:36:46.867
38.0, -34691.94140338199, -28564.7918063154, -35408.44892364132, -33751.558810658316, -5215.265478523431, -8702.271724018065, -41926.30701378668, -29141.86914466252, 0.068, 0.892, -0.418, 192.0, 2.0, 32.0, 27.0, 224.0, 242.0, 240.0, 0.0, 0.0, 0.0, 1.741282606867686E9, 0.0, 2025-03-06 11:36:46.867
39.0, -34676.36223749664, -28556.85693703377, -35385.67249604136, -33733.498601138424, -5252.861112697257, -8700.662398417282, -41917.366316004554, -29131.319121279616, 0.068, 0.892, -0.418, 192.0, 0.0, 0.0, 0.0, 0.0, 0.0, 0.0, 0.0, 0.0, 0.0, 1.741282606867706E9, 0.0, 2025-03-06 11:36:46.867
40.0, -34669.05321705976, -28555.22525968853, -35378.58699304903, -33733.38684241615, -5246.759086460958, -8697.264933260076, -41918.93093811643, -29131.43088000189, 0.068, 0.892, -0.418, 192.0, 0.0, 0.0, 0.0, 0.0, 0.0, 0.0, 0.0, 0.0, 0.0, 1.741282606867725E9, 0.0, 2025-03-06 11:36:46.867
41.0, -34662.750025123365, -28546.865707262245, -35377.13412965943, -33728.98354875846, -5224.2061763055535, -8692.638122157827, -41915.131141559024, -29123.76423165372, 0.068, 0.892, -0.418, 192.0, 0.0, 0.0, 0.0, 0.0, 0.0, 0.0, 0.0, 0.0, 0.0, 1.741282606867743E9, 0.0, 2025-03-06 11:36:46.867
42.0, -34670.81900487173, -28552.74421605399, -35377.67057152636, -33733.230380204965, -5215.131368056699, -8692.749880880105, -41912.44893222439, -29101.591301154054, 0.068, 0.892, -0.418, 192.0, 0.0, 0.0, 0.0, 0.0, 0.0, 0.0, 0.0, 0.0, 0.0, 1.741282606867762E9, 0.0, 2025-03-06 11:36:46.867
43.0, -34687.359295768656, -28567.406960416673, -35389.584051321035, -33744.85328732173, -5251.318842329842, -8700.394177483819, -41918.61801369405, -29084.313402690103, 0.068, 0.892, -0.418, 192.0, 0.0, 0.0, 0.0, 0.0, 0.0, 0.0, 0.0, 0.0, 0.0, 1.741282606867787E9, 0.0, 2025-03-06 11:36:46.867
44.0, -34686.12994982361, -28566.98227727202, -35392.55683333359, -33741.99226403145, -5253.933996431112, -8697.108471048889, -41921.16611256196, -29131.274417790704, 0.068, 0.892, -0.418, 192.0, 0.0, 0.0, 0.0, 0.0, 0.0, 0.0, 0.0, 0.0, 0.0, 1.741282606867812E9, 0.0, 2025-03-06 11:36:46.867
45.0, -34677.30101076377, -28559.405035901673, -35389.91932748787, -33729.85526679221, -5230.442313008584, -8690.134726778833, -41926.97756612034, -29191.53472084221, 0.068, 0.892, -0.418, 192.0, 0.0, 0.0, 0.0, 0.0, 0.0, 0.0, 0.0, 0.0, 0.0, 1.74128260686783E9, 0.0, 2025-03-06 11:36:46.867
46.0, -34673.61297292864, -28553.92885851012, -35381.44801633931, -33719.327595153765, -5212.426806977607, -8680.836401085426, -41923.08836258511, -29170.8370054766, 0.068, 0.892, -0.418, 192.0, 0.0, 0.0, 0.0, 0.0, 0.0, 0.0, 0.0, 0.0, 0.0, 1.741282606867849E9, 0.0, 2025-03-06 11:36:46.867
47.0, -34674.842318873685, -28555.42642538863, -35377.849385482004, -33722.63565333315, -5246.312051571853, -8683.809183097981, -41924.094191085605, -29147.322970309615, 0.068, 0.892, -0.418, 192.0, 0.0, 0.0, 0.0, 0.0, 0.0, 0.0, 0.0, 0.0, 0.0, 1.74128260692718E9, 0.0, 2025-03-06 11:36:46.927
48.0, -34676.652810174564, -28561.12612022473, -35387.281821642144, -33740.986435530955, -5257.778496477425, -8699.656569916793, -41926.15055157549, -29109.436763457867, 0.064, 0.896, -0.42, 192.0, 2.0, 0.0, 28.0, 0.0, 242.0, 224.0, 0.0, 0.0, 0.0, 1.741282606927216E9, 0.0, 2025-03-06 11:36:46.927
49.0, -34678.396246242075, -28561.640210347203, -35393.517958345175, -33748.29545596784, -5245.261519582453, -8699.321293749965, -41926.37406902004, -29145.49012726428, 0.064, 0.896, -0.42, 192.0, 0.0, 0.0, 0.0, 0.0, 0.0, 0.0, 0.0, 0.0, 0.0, 1.741282606927237E9, 0.0, 2025-03-06 11:36:46.927
50.0, -34679.5361852093, -28557.303971922873, -35392.08744670003, -33738.08070875177, -5212.22564127751, -8683.630369142338, -41923.75891491877, -29175.82144449013, 0.064, 0.896, -0.42, 192.0, 0.0, 0.0, 0.0, 0.0, 0.0, 0.0, 0.0, 0.0, 0.0, 1.741282606927255E9, 0.0, 2025-03-06 11:36:46.927
51.0, -34681.19021429899, -28561.08141673582, -35392.668592055874, -33735.73377558396, -5243.741600959493, -8686.469040688162, -41925.63646145302, -29163.14800538397, 0.064, 0.896, -0.42, 192.0, 0.0, 0.0, 0.0, 0.0, 0.0, 0.0, 0.0, 0.0, 0.0, 1.741282606927283E9, 0.0, 2025-03-06 11:36:46.927
52.0, -34673.81413862874, -28559.98618125751, -35390.14284493242, -33737.410156418104, -5256.258577854464, -8692.86163960238, -41932.4984470008, -29156.15190936946, 0.064, 0.896, -0.42, 192.0, 0.0, 0.0, 0.0, 0.0, 0.0, 0.0, 0.0, 0.0, 0.0, 1.741282606927302E9, 0.0, 2025-03-06 11:36:46.927
53.0, -34661.274809989314, -28549.816137530346, -35383.12439717345, -33735.331444183765, -5244.546263759883, -8690.559409923484, -41928.18456032092, -29151.078063378107, 0.064, 0.896, -0.42, 192.0, 0.0, 0.0, 0.0, 0.0, 0.0, 0.0, 0.0, 0.0, 0.0, 1.741282606927321E9, 0.0, 2025-03-06 11:36:46.927
54.0, -34661.72184487842, -28547.513907851448, -35387.19241466432, -33744.272141965885, -5215.7572169014475, -8695.521497192562, -41928.67629869894, -29136.28120854869, 0.064, 0.896, -0.42, 192.0, 0.0, 0.0, 0.0, 0.0, 0.0, 0.0, 0.0, 0.0, 0.0, 1.741282606927339E9, 0.0, 2025-03-06 11:36:46.927
55.0, -34671.847185116676, -28556.946344011587, -35396.26722291318, -33757.10204328323, -5237.147836345177, -8711.525346222561, -41932.43139176743, -29118.220999028803, 0.064, 0.896, -0.42, 192.0, 0.0, 0.0, 0.0, 0.0, 0.0, 0.0, 0.0, 0.0, 0.0, 1.741282606927358E9, 0.0, 2025-03-06 11:36:46.927
56.0, -34682.01722884384, -28565.395303415695, -35404.31385091708, -33768.5684881888, -5258.002013921978, -8721.136596338343, -41938.73458370383, -29131.58734221308, 0.064, 0.896, -0.42, 192.0, 0.0, 0.0, 0.0, 0.0, 0.0, 0.0, 0.0, 0.0, 0.0, 1.741282606927376E9, 0.0, 2025-03-06 11:36:46.927
57.0, -34683.62655444462, -28562.310762680863, -35407.085467229546, -33769.14963354464, -5243.965118404045, -8715.43690150224, -41939.91922615996, -29156.19661285837, 0.064, 0.896, -0.42, 192.0, 0.0, 0.0, 0.0, 0.0, 0.0, 0.0, 0.0, 0.0, 0.0, 1.741282606927395E9, 0.0, 2025-03-06 11:36:46.927
58.0, -34688.7898074138, -28564.858861548768, -35414.32743243306, -33772.72591265749, -5214.013780833934, -8725.763407440592, -41946.15536286299, -29157.895345436973, 0.066, 0.894, -0.422, 192.0, 2.0, 16.0, 27.0, 240.0, 242.0, 208.0, 0.0, 0.0, 0.0, 1.741282606927417E9, 0.0, 2025-03-06 11:36:46.927
59.0, -34687.24753704638, -28572.70432385258, -35410.23706319774, -33778.69382842706, -5238.265423567942, -8726.948049896724, -41944.03194713974, -29146.875935420507, 0.066, 0.894, -0.422, 192.0, 0.0, 0.0, 0.0, 0.0, 0.0, 0.0, 0.0, 0.0, 0.0, 1.741282606927444E9, 0.0, 2025-03-06 11:36:46.927
60.0, -34693.59543247169, -28585.064838536364, -35416.42849641186, -33790.04851461035, -5265.735717503514, -8732.781855199559, -41950.513953031776, -29148.552316254656, 0.066, 0.894, -0.422, 192.0, 0.0, 0.0, 0.0, 0.0, 0.0, 0.0, 0.0, 0.0, 0.0, 1.741282606927463E9, 0.0, 2025-03-06 11:36:46.927
61.0, -34673.232993272904, -28569.910355795666, -35400.491702615225, -33775.385770247674, -5265.623958781238, -8727.059808619, -41940.232150582335, -29138.851659161053, 0.066, 0.894, -0.422, 192.0, 0.0, 0.0, 0.0, 0.0, 0.0, 0.0, 0.0, 0.0, 0.0, 1.741282606927482E9, 0.0, 2025-03-06 11:36:46.927
62.0, -34667.42153971452, -28565.32824818233, -35398.0553624696, -33771.63067717918, -5224.407342005652, -8730.032590631556, -41942.22145583886, -29133.554295725145, 0.066, 0.894, -0.422, 192.0, 0.0, 0.0, 0.0, 0.0, 0.0, 0.0, 0.0, 0.0, 0.0, 1.741282606987481E9, 0.0, 2025-03-06 11:36:46.987
63.0, -34682.86659513314, -28582.8967193242, -35406.59372885153, -33778.537366215874, -5227.17895831811, -8722.142424838832, -41942.86965642806, -29132.19083931337, 0.066, 0.894, -0.422, 192.0, 0.0, 0.0, 0.0, 0.0, 0.0, 0.0, 0.0, 0.0, 0.0, 1.741282606987519E9, 0.0, 2025-03-06 11:36:46.987
64.0, -34690.93557488151, -28587.143550770706, -35409.38769690844, -33770.20016553404, -5260.505409300972, -8724.288192306542, -41942.55673200569, -29128.90513287844, 0.066, 0.894, -0.422, 192.0, 0.0, 0.0, 0.0, 0.0, 0.0, 0.0, 0.0, 0.0, 0.0, 1.741282606987538E9, 0.0, 2025-03-06 11:36:46.987
65.0, -34686.42052250153, -28576.41471343216, -35397.89890025841, -33760.72302588499, -5256.571502276838, -8726.478663263162, -41939.06985987066, -29112.25308325924, 0.066, 0.894, -0.422, 192.0, 0.0, 0.0, 0.0, 0.0, 0.0, 0.0, 0.0, 0.0, 0.0, 1.741282606987557E9, 0.0, 2025-03-06 11:36:46.987
66.0, -34693.12604583812, -28576.012382031964, -35405.27497592867, -33765.55100268734, -5220.518138470428, -8736.939279668246, -41950.089269887125, -29136.929409137894, 0.066, 0.894, -0.422, 192.0, 0.0, 0.0, 0.0, 0.0, 0.0, 0.0, 0.0, 0.0, 0.0, 1.741282606987583E9, 0.0, 2025-03-06 11:36:46.987
67.0, -34695.16005458356, -28580.102751267284, -35403.844464283524, -33765.662761409614, -5209.275211009409, -8725.137558595843, -41948.88227568654, -29146.250086575757, 0.066, 0.894, -0.422, 192.0, 0.0, 0.0, 0.0, 0.0, 0.0, 0.0, 0.0, 0.0, 0.0, 1.741282606987601E9, 0.0, 2025-03-06 11:36:46.987
68.0, -34686.375819012625, -28579.365143700263, -35390.94750773281, -33756.9679328165, -5246.244996338487, -8716.9568201252, -41937.28172031423, -29123.116031064517, 0.07, 0.89, -0.424, 192.0, 2.0, 48.0, 27.0, 208.0, 242.0, 192.0, 0.0, 0.0, 0.0, 1.741282606987621E9, 0.0, 2025-03-06 11:36:46.987
69.0, -34691.58377547071, -28580.393323945205, -35399.39646713692, -33761.55004042984, -5252.65994699716, -8727.663305719294, -41944.74720296231, -29108.989728568762, 0.07, 0.89, -0.424, 192.0, 0.0, 0.0, 0.0, 0.0, 0.0, 0.0, 0.0, 0.0, 0.0, 1.741282606987641E9, 0.0, 2025-03-06 11:36:46.987
70.0, -34695.5400342393, -28583.27669897994, -35406.97370850727, -33766.75799688792, -5224.988487361489, -8729.831424931459, -41952.615017010576, -29157.537717525687, 0.07, 0.89, -0.424, 192.0, 0.0, 0.0, 0.0, 0.0, 0.0, 0.0, 0.0, 0.0, 0.0, 1.741282606987661E9, 0.0, 2025-03-06 11:36:46.987
71.0, -34689.661525447555, -28583.075533279844, -35398.56945259207, -33760.7677293739, -5223.580327460805, -8714.587535212939, -41951.51978153227, -29165.584345529598, 0.07, 0.89, -0.424, 192.0, 0.0, 0.0, 0.0, 0.0, 0.0, 0.0, 0.0, 0.0, 0.0, 1.741282606987679E9, 0.0, 2025-03-06 11:36:46.987
72.0, -34683.224223044424, -28579.566309400358, -35394.59084207903, -33756.87852583868, -5267.725022760037, -8710.117186321877, -41947.652929741496, -29141.466813262323, 0.07, 0.89, -0.424, 192.0, 0.0, 0.0, 0.0, 0.0, 0.0, 0.0, 0.0, 0.0, 0.0, 1.741282606987698E9, 0.0, 2025-03-06 11:36:46.987
73.0, -34675.401112485066, -28563.540108625904, -35391.5063013442, -33751.29058972485, -5262.695880257593, -8706.339741508931, -41935.94061564691, -29093.388210938956, 0.07, 0.89, -0.424, 192.0, 0.0, 0.0, 0.0, 0.0, 0.0, 0.0, 0.0, 0.0, 0.0, 1.74128260698772E9, 0.0, 2025-03-06 11:36:46.987
74.0, -34680.81023464325, -28566.17761447163, -35400.692868315324, -33767.47325271049, -5247.161417861154, -8718.34262828143, -41932.52079874525, -29065.247364669725, 0.07, 0.89, -0.424, 192.0, 0.0, 0.0, 0.0, 0.0, 0.0, 0.0, 0.0, 0.0, 0.0, 1.741282606987742E9, 0.0, 2025-03-06 11:36:46.987
75.0, -34678.17272879752, -28565.12708248223, -35392.82505426706, -33749.100118768234, -5225.726094928515, -8705.557430452995, -41943.58491225063, -29152.799147701164, 0.07, 0.89, -0.424, 192.0, 0.0, 0.0, 0.0, 0.0, 0.0, 0.0, 0.0, 0.0, 0.0, 1.741282606987764E9, 0.0, 2025-03-06 11:36:46.987
76.0, -34702.53613025381, -28581.667373379158, -35409.87943528646, -33758.197278761545, -5259.521932544939, -8710.854793888902, -41960.59458978112, -29177.274307879725, 0.07, 0.89, -0.424, 192.0, 0.0, 0.0, 0.0, 0.0, 0.0, 0.0, 0.0, 0.0, 0.0, 1.741282606987783E9, 0.0, 2025-03-06 11:36:46.987
77.0, -34704.77130469934, -28576.928803554634, -35413.67923184386, -33768.34497074425, -5276.598665308794, -8723.170605083777, -41949.06108964218, -29132.682577691387, 0.07, 0.89, -0.424, 192.0, 0.0, 0.0, 0.0, 0.0, 0.0, 0.0, 0.0, 0.0, 0.0, 1.741282607047759E9, 0.0, 2025-03-06 11:36:47.047
78.0, -34691.49436849289, -28565.372951671237, -35411.1087812315, -33771.20599403453, -5259.097249400288, -8726.277497563064, -41949.10579313109, -29142.517345251723, 0.066, 0.89, -0.424, 192.0, 2.0, 16.0, 27.0, 208.0, 242.0, 192.0, 0.0, 0.0, 0.0, 1.741282607047787E9, 0.0, 2025-03-06 11:36:47.047
79.0, -34682.19604279948, -28553.280657920917, -35406.861949784994, -33760.700674140535, -5225.636687950693, -8711.838270644936, -41943.78607795073, -29161.62808676101, 0.066, 0.89, -0.424, 192.0, 0.0, 0.0, 0.0, 0.0, 0.0, 0.0, 0.0, 0.0, 0.0, 1.74128260704782E9, 0.0, 2025-03-06 11:36:47.047
80.0, -34690.15326382557, -28567.98810577251, -35412.67340334337, -33772.83767137977, -5245.216816093543, -8721.404817271807, -41943.40609829499, -29138.449327760856, 0.066, 0.89, -0.424, 192.0, 0.0, 0.0, 0.0, 0.0, 0.0, 0.0, 0.0, 0.0, 0.0, 1.741282607047839E9, 0.0, 2025-03-06 11:36:47.047
81.0, -34682.95600211096, -28572.056123263377, -35409.030068997155, -33774.96108710302, -5277.649197298193, -8709.558392710494, -41943.2496360838, -29150.04988313316, 0.066, 0.89, -0.424, 192.0, 0.0, 0.0, 0.0, 0.0, 0.0, 0.0, 0.0, 0.0, 0.0, 1.741282607047865E9, 0.0, 2025-03-06 11:36:47.047
82.0, -34676.00460958536, -28561.394341158193, -35406.59372885153, -33770.51308995642, -5263.075859913333, -8703.903401363303, -41945.28364482924, -29136.817650415618, 0.066, 0.89, -0.424, 192.0, 0.0, 0.0, 0.0, 0.0, 0.0, 0.0, 0.0, 0.0, 0.0, 1.741282607047885E9, 0.0, 2025-03-06 11:36:47.047
83.0, -34678.887984620094, -28558.198041701085, -35410.72880157576, -33771.85419462373, -5234.152702588165, -8711.637104944839, -41943.16022910598, -29116.410507727924, 0.066, 0.89, -0.424, 192.0, 0.0, 0.0, 0.0, 0.0, 0.0, 0.0, 0.0, 0.0, 0.0, 1.741282607047904E9, 0.0, 2025-03-06 11:36:47.047
84.0, -34688.119255080135, -28569.642134862203, -35412.33812717654, -33777.24096503746, -5246.222644594031, -8718.655552703805, -41941.46149652738, -29132.079080591095, 0.066, 0.89, -0.424, 192.0, 0.0, 0.0, 0.0, 0.0, 0.0, 0.0, 0.0, 0.0, 0.0, 1.741282607047923E9, 0.0, 2025-03-06 11:36:47.047
85.0, -34675.110539807145, -28561.61785860275, -35399.240004925734, -33759.60543866223, -5279.482040343528, -8717.694427692226, -41934.711269701875, -29142.450290018358, 0.066, 0.89, -0.424, 192.0, 0.0, 0.0, 0.0, 0.0, 0.0, 0.0, 0.0, 0.0, 0.0, 1.741282607047941E9, 0.0, 2025-03-06 11:36:47.047
86.0, -34667.980333325904, -28549.145585196686, -35393.47325485626, -33750.91061006911, -5276.576313564338, -8718.052055603512, -41929.01157486577, -29130.71562417932, 0.066, 0.89, -0.424, 192.0, 0.0, 0.0, 0.0, 0.0, 0.0, 0.0, 0.0, 0.0, 0.0, 1.741282607047961E9, 0.0, 2025-03-06 11:36:47.047
87.0, -34669.2320310154, -28544.541125838892, -35393.74147578973, -33753.14578451464, -5239.226548579521, -8721.91890739428, -41930.57619697764, -29117.32692925059, 0.066, 0.89, -0.424, 192.0, 0.0, 0.0, 0.0, 0.0, 0.0, 0.0, 0.0, 0.0, 0.0, 1.741282607047985E9, 0.0, 2025-03-06 11:36:47.047
88.0, -34674.59644968468, -28550.956076497565, -35391.23808041073, -33748.87660132368, -5245.619147493738, -8715.72747418016, -41924.63063295253, -29129.553333467644, 0.068, 0.886, -0.426, 192.0, 2.0, 32.0, 27.0, 176.0, 242.0, 176.0, 0.0, 0.0, 0.0, 1.741282607048005E9, 0.0, 2025-03-06 11:36:47.048
89.0, -34686.018191101335, -28560.477919635527, -35395.127283945956, -33746.84259257824, -5277.693900787103, -8710.363055510887, -41922.417810251456, -29128.033414844682, 0.068, 0.886, -0.426, 192.0, 0.0, 0.0, 0.0, 0.0, 0.0, 0.0, 0.0, 0.0, 0.0, 1.741282607048029E9, 0.0, 2025-03-06 11:36:47.048
90.0, -34688.43217950251, -28571.206756974076, -35401.36342064899, -33756.990284560954, -5277.828011253835, -8713.425244501263, -41927.4469527539, -29125.15003980995, 0.068, 0.886, -0.426, 192.0, 0.0, 0.0, 0.0, 0.0, 0.0, 0.0, 0.0, 0.0, 0.0, 1.741282607048056E9, 0.0, 2025-03-06 11:36:47.048
91.0, -34676.40694098556, -28566.110559238263, -35390.81339726608, -33752.83286009227, -5246.200292849576, -8712.352360767409, -41920.47320848384, -29121.730222908285, 0.068, 0.886, -0.426, 192.0, 0.0, 0.0, 0.0, 0.0, 0.0, 0.0, 0.0, 0.0, 0.0, 1.741282607048074E9, 0.0, 2025-03-06 11:36:47.048
92.0, -34673.05417931726, -28568.144567983698, -35383.45967334029, -33743.44512742104, -5238.243071823486, -8701.712930406682, -41919.266214283256, -29122.33372000858, 0.068, 0.886, -0.426, 192.0, 0.0, 0.0, 0.0, 0.0, 0.0, 0.0, 0.0, 0.0, 0.0, 1.741282607108138E9, 0.0, 2025-03-06 11:36:47.108
93.0, -34668.76264438184, -28567.049332505387, -35378.43053083784, -33736.29256919534, -5276.956293220079, -8691.565238423973, -41911.510158957266, -29107.51451343471, 0.068, 0.886, -0.426, 192.0, 0.0, 0.0, 0.0, 0.0, 0.0, 0.0, 0.0, 0.0, 0.0, 1.741282607108168E9, 0.0, 2025-03-06 11:36:47.108
94.0, -34670.81900487173, -28566.6917045941, -35380.86687098347, -33734.8620575502, -5273.42471759614, -8695.521497192562, -41911.91249035746, -29111.157847780927, 0.068, 0.886, -0.426, 192.0, 0.0, 0.0, 0.0, 0.0, 0.0, 0.0, 0.0, 0.0, 0.0, 1.7412826071082E9, 0.0, 2025-03-06 11:36:47.108
95.0, -34679.06679857574, -28565.998800515987, -35385.404275107896, -33738.03600526285, -5238.555996245861, -8701.847040873414, -41917.500426471284, -29119.785621140676, 0.068, 0.886, -0.426, 192.0, 0.0, 0.0, 0.0, 0.0, 0.0, 0.0, 0.0, 0.0, 0.0, 1.74128260710822E9, 0.0, 2025-03-06 11:36:47.108
96.0, -34693.707191193964, -28578.336963455316, -35401.966917749276, -33752.47523218099, -5225.435522250596, -8705.423319986263, -41926.1952550644, -29118.019833328704, 0.068, 0.886, -0.426, 192.0, 0.0, 0.0, 0.0, 0.0, 0.0, 0.0, 0.0, 0.0, 0.0, 1.741282607108238E9, 0.0, 2025-03-06 11:36:47.108
97.0, -34690.510891736856, -28579.208681489075, -35404.269147428175, -33750.24005773545, -5259.767801733948, -8696.639084415327, -41921.635499195516, -29126.647606688453, 0.068, 0.884, -0.422, 192.0, 2.0, 32.0, 27.0, 160.0, 242.0, 208.0, 0.0, 0.0, 0.0, 1.741282607108265E9, 0.0, 2025-03-06 11:36:47.108
98.0, -34692.36608652664, -28581.868539079256, -35404.33620266154, -33753.65987463712, -5284.086499701321, -8695.163869281278, -41921.88136838453, -29124.94887410985, 0.068, 0.884, -0.422, 192.0, 0.0, 0.0, 0.0, 0.0, 0.0, 0.0, 0.0, 0.0, 0.0, 1.741282607108286E9, 0.0, 2025-03-06 11:36:47.108
99.0, -34690.06385684775, -28576.928803554634, -35406.19139745133, -33754.30807522632, -5259.499580800483, -8696.415566970774, -41922.59662420709, -29126.021757843708, 0.068, 0.884, -0.422, 192.0, 0.0, 0.0, 0.0, 0.0, 0.0, 0.0, 0.0, 0.0, 0.0, 1.741282607108304E9, 0.0, 2025-03-06 11:36:47.108
100.0, -34691.85199640417, -28579.678068122634, -35412.807513810105, -33758.44314795055, -5237.840740423291, -8694.895648347814, -41925.614109708564, -29134.403662014447, 0.068, 0.884, -0.422, 192.0, 0.0, 0.0, 0.0, 0.0, 0.0, 0.0, 0.0, 0.0, 0.0, 1.741282607108323E9, 0.0, 2025-03-06 11:36:47.108
101.0, -34697.37287728464, -28592.060934550875, -35419.62479586897, -33767.09327305476, -5258.739621489003, -8697.220229771165, -41925.03296435272, -29122.356071753034, 0.068, 0.884, -0.422, 192.0, 0.0, 0.0, 0.0, 0.0, 0.0, 0.0, 0.0, 0.0, 0.0, 1.741282607108341E9, 0.0, 2025-03-06 11:36:47.108
102.0, -34688.81215915825, -28592.083286295332, -35415.40031616692, -33772.1224155572, -5278.297397887397, -8706.429148486752, -41924.27300504124, -29114.510609449222, 0.068, 0.884, -0.422, 192.0, 0.0, 0.0, 0.0, 0.0, 0.0, 0.0, 0.0, 0.0, 0.0, 1.74128260710836E9, 0.0, 2025-03-06 11:36:47.108
103.0, -34671.44485371648, -28577.197024488098, -35399.28470841464, -33762.10883404122, -5276.889237986713, -8707.323218264964, -41920.89789162849, -29121.774926397196, 0.068, 0.884, -0.422, 192.0, 0.0, 0.0, 0.0, 0.0, 0.0, 0.0, 0.0, 0.0, 0.0, 1.741282607108378E9, 0.0, 2025-03-06 11:36:47.108
104.0, -34665.45458620245, -28565.03767550441, -35398.882377014445, -33752.519935669894, -5234.487978754995, -8706.429148486752, -41921.836664895614, -29124.47948747629, 0.068, 0.884, -0.422, 192.0, 0.0, 0.0, 0.0, 0.0, 0.0, 0.0, 0.0, 0.0, 0.0, 1.741282607108401E9, 0.0, 2025-03-06 11:36:47.108
105.0, -34681.257269532354, -28573.50898665297, -35405.47614162876, -33760.54421192935, -5261.0418511679, -8712.195898556221, -41923.58010096313, -29122.400775241946, 0.068, 0.884, -0.422, 192.0, 0.0, 0.0, 0.0, 0.0, 0.0, 0.0, 0.0, 0.0, 0.0, 1.741282607108426E9, 0.0, 2025-03-06 11:36:47.108
106.0, -34685.10176957867, -28571.810254074368, -35405.185568950845, -33754.06220603731, -5294.301246917396, -8706.809128142491, -41927.893987643, -29152.28505757869, 0.068, 0.884, -0.422, 192.0, 0.0, 0.0, 0.0, 0.0, 0.0, 0.0, 0.0, 0.0, 0.0, 1.741282607108445E9, 0.0, 2025-03-06 11:36:47.108
107.0, -34679.871461376126, -28572.726675597034, -35408.20305445231, -33757.19145026105, -5270.474287328039, -8710.161889810788, -41936.99114763631, -29177.25195613527, 0.07, 0.888, -0.422, 192.0, 2.0, 48.0, 27.0, 192.0, 242.0, 208.0, 0.0, 0.0, 0.0, 1.741282607167713E9, 0.0, 2025-03-06 11:36:47.167
108.0, -34654.85985933064, -28557.169861456143, -35390.94750773281, -33749.18952574606, -5238.80186543487, -8703.81399438548, -41933.21370282337, -29159.325857082113, 0.07, 0.888, -0.422, 192.0, 0.0, 0.0, 0.0, 0.0, 0.0, 0.0, 0.0, 0.0, 0.0, 1.741282607167744E9, 0.0, 2025-03-06 11:36:47.167
109.0, -34653.6305133856, -28560.92495452463, -35389.2040716653, -33750.82120309129, -5261.578293034827, -8715.839232902435, -41930.509141744275, -29129.66509218992, 0.07, 0.888, -0.422, 192.0, 0.0, 0.0, 0.0, 0.0, 0.0, 0.0, 0.0, 0.0, 0.0, 1.741282607167779E9, 0.0, 2025-03-06 11:36:47.167
110.0, -34663.62174315712, -28567.451663905584, -35394.85906301249, -33750.418871691094, -5277.626845553737, -8718.230869559155, -41935.761801691275, -29165.763159485243, 0.07, 0.888, -0.422, 192.0, 0.0, 0.0, 0.0, 0.0, 0.0, 0.0, 0.0, 0.0, 0.0, 1.741282607167797E9, 0.0, 2025-03-06 11:36:47.167
111.0, -34661.45362394496, -28561.12612022473, -35386.47715884175, -33735.44320290604, -5273.648235040693, -8707.837308387436, -41932.051412111694, -29158.387083814992, 0.07, 0.888, -0.422, 192.0, 0.0, 0.0, 0.0, 0.0, 0.0, 0.0, 0.0, 0.0, 0.0, 1.741282607167816E9, 0.0, 2025-03-06 11:36:47.167
112.0, -34673.83649037319, -28563.27188769244, -35395.037876968134, -33742.23813322045, -5223.446216994073, -8712.844099145424, -41939.42748778194, -29157.783586714697, 0.07, 0.888, -0.422, 192.0, 0.0, 0.0, 0.0, 0.0, 0.0, 0.0, 0.0, 0.0, 0.0, 1.741282607167844E9, 0.0, 2025-03-06 11:36:47.167
113.0, -34688.00749635786, -28582.717905368558, -35405.54319686213, -33748.65308387912, -5226.866033895735, -8709.267820032575, -41939.4498395264, -29175.53087181221, 0.07, 0.888, -0.422, 192.0, 0.0, 0.0, 0.0, 0.0, 0.0, 0.0, 0.0, 0.0, 0.0, 1.741282607167862E9, 0.0, 2025-03-06 11:36:47.167
114.0, -34677.59158344169, -28585.42246644765, -35396.13311244644, -33747.490793167446, -5267.501505315484, -8709.893668877325, -41945.753031462795, -29181.230566648315, 0.07, 0.888, -0.422, 192.0, 0.0, 0.0, 0.0, 0.0, 0.0, 0.0, 0.0, 0.0, 0.0, 1.741282607167881E9, 0.0, 2025-03-06 11:36:47.167
115.0, -34663.308818734746, -28576.772341343447, -35383.68319078484, -33742.23813322045, -5269.289644871908, -8704.48454671914, -41943.20493259489, -29162.25393560576, 0.07, 0.888, -0.422, 192.0, 0.0, 0.0, 0.0, 0.0, 0.0, 0.0, 0.0, 0.0, 0.0, 1.741282607167901E9, 0.0, 2025-03-06 11:36:47.167
116.0, -34660.40309195556, -28568.993934273, -35386.85713849749, -33738.77361282988, -5227.111903084744, -8710.184241555244, -41945.909493673986, -29155.10137738006, 0.07, 0.888, -0.422, 192.0, 0.0, 0.0, 0.0, 0.0, 0.0, 0.0, 0.0, 0.0, 0.0, 1.741282607167919E9, 0.0, 2025-03-06 11:36:47.167
117.0, -34661.073644289216, -28573.106655252774, -35385.42662685235, -33735.53260988386, -5236.074952611322, -8712.419416000774, -41937.88521741453, -29146.831231931596, 0.07, 0.89, -0.418, 192.0, 2.0, 48.0, 27.0, 208.0, 242.0, 240.0, 0.0, 0.0, 0.0, 1.741282607167939E9, 0.0, 2025-03-06 11:36:47.167
118.0, -34664.00172281286, -28577.21937623255, -35384.51020532969, -33736.13610698415, -5266.85330472628, -8706.987942098134, -41928.18456032092, -29137.175278326904, 0.07, 0.89, -0.418, 192.0, 0.0, 0.0, 0.0, 0.0, 0.0, 0.0, 0.0, 0.0, 0.0, 1.74128260716796E9, 0.0, 2025-03-06 11:36:47.167
119.0, -34673.52356595082, -28584.103713524786, -35396.155464190895, -33744.74152859945, -5256.236226110009, -8699.835383872436, -41930.15151383299, -29129.396871256457, 0.07, 0.89, -0.418, 192.0, 0.0, 0.0, 0.0, 0.0, 0.0, 0.0, 0.0, 0.0, 0.0, 1.741282607167983E9, 0.0, 2025-03-06 11:36:47.167
120.0, -34677.85980437515, -28585.511873425472, -35401.475179371264, -33749.34598795724, -5241.506426513962, -8704.350436252409, -41929.950348132894, -29125.060632832126, 0.07, 0.89, -0.418, 192.0, 0.0, 0.0, 0.0, 0.0, 0.0, 0.0, 0.0, 0.0, 0.0, 1.741282607168008E9, 0.0, 2025-03-06 11:36:47.168
121.0, -34696.41175227305, -28596.08424855283, -35414.77446732217, -33760.94654332954, -5217.165376802132, -8704.216325785676, -41933.90660690148, -29127.340510766568, 0.07, 0.89, -0.418, 192.0, 0.0, 0.0, 0.0, 0.0, 0.0, 0.0, 0.0, 0.0, 0.0, 1.741282607168027E9, 0.0, 2025-03-06 11:36:47.168
122.0, -34692.72371443793, -28597.80533287589, -35407.688964329835, -33756.073863038284, -5260.974795934534, -8695.856773359392, -41927.82693240964, -29128.10047007805, 0.07, 0.89, -0.418, 192.0, 0.0, 0.0, 0.0, 0.0, 0.0, 0.0, 0.0, 0.0, 0.0, 1.741282607227936E9, 0.0, 2025-03-06 11:36:47.227
123.0, -34666.929801336504, -28585.13189376973, -35385.896013485915, -33743.60158963223, -5263.969929691545, -8689.86650584537, -41924.295356785704, -29128.547504967155, 0.07, 0.89, -0.418, 192.0, 0.0, 0.0, 0.0, 0.0, 0.0, 0.0, 0.0, 0.0, 0.0, 1.741282607227963E9, 0.0, 2025-03-06 11:36:47.227
124.0, -34662.50415593435, -28579.32044021135, -35387.43828385333, -33746.14968850013, -5231.202272320065, -8699.790680383525, -41926.955214375885, -29118.444516473355, 0.07, 0.89, -0.418, 192.0, 0.0, 0.0, 0.0, 0.0, 0.0, 0.0, 0.0, 0.0, 0.0, 1.741282607227982E9, 0.0, 2025-03-06 11:36:47.227
125.0, -34667.01920831433, -28574.783036086923, -35390.67928679935, -33748.36251120121, -5219.400551247662, -8703.121090307366, -41919.06504858316, -29105.27933898918, 0.07, 0.89, -0.418, 192.0, 0.0, 0.0, 0.0, 0.0, 0.0, 0.0, 0.0, 0.0, 0.0, 1.74128260722801E9, 0.0, 2025-03-06 11:36:47.228
126.0, -34692.83547316021, -28596.151303786195, -35411.35465042051, -33761.57239217429, -5249.664813240149, -8707.546735709517, -41929.90564464398, -29151.793319200675, 0.07, 0.89, -0.418, 192.0, 0.0, 0.0, 0.0, 0.0, 0.0, 0.0, 0.0, 0.0, 0.0, 1.74128260722803E9, 0.0, 2025-03-06 11:36:47.228
127.0, -34678.619763686635, -28588.104675782288, -35399.865853770476, -33752.92226707009, -5269.8707902277465, -8705.468023475174, -41924.921205630446, -29138.15875508294, 0.07, 0.892, -0.428, 192.0, 2.0, 48.0, 27.0, 224.0, 242.0, 160.0, 0.0, 0.0, 0.0, 1.741282607228059E9, 0.0, 2025-03-06 11:36:47.228
128.0, -34662.258286745346, -28575.677105865136, -35390.41106586588, -33751.93879031405, -5252.548188274884, -8710.117186321877, -41927.581063220634, -29125.597074699053, 0.07, 0.892, -0.428, 192.0, 0.0, 0.0, 0.0, 0.0, 0.0, 0.0, 0.0, 0.0, 0.0, 1.74128260722808E9, 0.0, 2025-03-06 11:36:47.228
129.0, -34674.64115317359, -28585.958908314577, -35406.54902536262, -33768.65789516662, -5218.484129724995, -8726.702180707714, -41938.71223195938, -29137.219981815815, 0.07, 0.892, -0.428, 192.0, 0.0, 0.0, 0.0, 0.0, 0.0, 0.0, 0.0, 0.0, 0.0, 1.741282607228103E9, 0.0, 2025-03-06 11:36:47.228
130.0, -34684.45356898947, -28605.33787075733, -35414.08156324406, -33782.78419766238, -5245.596795749283, -8740.850834947925, -41947.38470880803, -29145.981865642294, 0.07, 0.892, -0.428, 192.0, 0.0, 0.0, 0.0, 0.0, 0.0, 0.0, 0.0, 0.0, 0.0, 1.741282607228121E9, 0.0, 2025-03-06 11:36:47.228
131.0, -34681.279621276815, -28605.919016113166, -35410.01354575319, -33780.61607845021, -5284.913514246168, -8737.810997702003, -41948.32348207515, -29147.21121158734, 0.07, 0.892, -0.428, 192.0, 0.0, 0.0, 0.0, 0.0, 0.0, 0.0, 0.0, 0.0, 0.0, 1.74128260722814E9, 0.0, 2025-03-06 11:36:47.228
132.0, -34667.37683622561, -28592.217396762062, -35392.84740601151, -33761.751206129935, -5278.52091533195, -8716.845061402924, -41930.97852837784, -29131.81085965763, 0.07, 0.892, -0.428, 192.0, 0.0, 0.0, 0.0, 0.0, 0.0, 0.0, 0.0, 0.0, 0.0, 1.741282607228158E9, 0.0, 2025-03-06 11:36:47.228
133.0, -34668.181499026, -28585.958908314577, -35394.85906301249, -33757.32556072778, -5224.65321119466, -8715.43690150224, -41934.152476090494, -29131.319121279616, 0.07, 0.892, -0.428, 192.0, 0.0, 0.0, 0.0, 0.0, 0.0, 0.0, 0.0, 0.0, 0.0, 1.741282607228177E9, 0.0, 2025-03-06 11:36:47.228
134.0, -34680.787882898796, -28592.396210717707, -35396.311926402086, -33755.9174008271, -5236.499635755973, -8719.326105037464, -41931.58202547813, -29120.545580452155, 0.07, 0.892, -0.428, 192.0, 0.0, 0.0, 0.0, 0.0, 0.0, 0.0, 0.0, 0.0, 0.0, 1.7412826072282E9, 0.0, 2025-03-06 11:36:47.228
135.0, -34676.25047877437, -28590.94334732811, -35388.42176060936, -33747.356682700716, -5274.296435629897, -8716.48743349164, -41919.57913870563, -29138.91871439442, 0.07, 0.892, -0.428, 192.0, 0.0, 0.0, 0.0, 0.0, 0.0, 0.0, 0.0, 0.0, 0.0, 1.741282607228223E9, 0.0, 2025-03-06 11:36:47.228
136.0, -34674.417635729034, -28587.344716470805, -35387.88531874243, -33740.092365752746, -5254.179865620121, -8717.761482925593, -41935.605339480084, -29160.689313493887, 0.07, 0.892, -0.428, 192.0, 0.0, 0.0, 0.0, 0.0, 0.0, 0.0, 0.0, 0.0, 0.0, 1.741282607228244E9, 0.0, 2025-03-06 11:36:47.228
137.0, -34671.86953686113, -28586.09301878131, -35386.99124896422, -33738.17011572958, -5220.384028003697, -8719.169642826277, -41937.237016825326, -29157.00127565876, 0.068, 0.894, -0.428, 192.0, 2.0, 32.0, 27.0, 240.0, 242.0, 160.0, 0.0, 0.0, 0.0, 1.741282607288182E9, 0.0, 2025-03-06 11:36:47.288
138.0, -34674.79761538477, -28591.65860315068, -35387.214766408775, -33735.9125895396, -5229.36942927473, -8710.139538066333, -41930.28562429972, -29126.826420644098, 0.068, 0.894, -0.428, 192.0, 0.0, 0.0, 0.0, 0.0, 0.0, 0.0, 0.0, 0.0, 0.0, 1.741282607288209E9, 0.0, 2025-03-06 11:36:47.288
139.0, -34678.686818919996, -28597.13478054223, -35387.93002223135, -33735.398499417126, -5257.890255199702, -8704.261029274587, -41926.530531231234, -29130.559161968133, 0.068, 0.894, -0.428, 192.0, 0.0, 0.0, 0.0, 0.0, 0.0, 0.0, 0.0, 0.0, 0.0, 1.741282607288228E9, 0.0, 2025-03-06 11:36:47.288
140.0, -34680.989048598894, -28595.793675874913, -35386.14188267492, -33731.08461273726, -5259.94661568959, -8693.353377980397, -41919.892063128005, -29152.128595367503, 0.068, 0.894, -0.428, 192.0, 0.0, 0.0, 0.0, 0.0, 0.0, 0.0, 0.0, 0.0, 0.0, 1.741282607288258E9, 0.0, 2025-03-06 11:36:47.288
141.0, -34675.35640899616, -28587.814103104367, -35383.794949507115, -33729.76585981439, -5220.227565792509, -8698.918962349768, -41919.98147010583, -29130.15683056794, 0.068, 0.894, -0.428, 192.0, 0.0, 0.0, 0.0, 0.0, 0.0, 0.0, 0.0, 0.0, 0.0, 1.741282607288276E9, 0.0, 2025-03-06 11:36:47.288
142.0, -34668.71794089293, -28582.51673966846, -35373.580202291036, -33717.070068963774, -5205.900097596657, -8687.050186044, -41917.12044681555, -29138.695196949866, 0.068, 0.894, -0.428, 192.0, 0.0, 0.0, 0.0, 0.0, 0.0, 0.0, 0.0, 0.0, 0.0, 1.741282607288303E9, 0.0, 2025-03-06 11:36:47.288
143.0, -34670.26021126035, -28582.8967193242, -35374.630734280436, -33716.98066198595, -5243.585138748305, -8676.768383594559, -41919.62384219454, -29126.468792732812, 0.068, 0.894, -0.428, 192.0, 0.0, 0.0, 0.0, 0.0, 0.0, 0.0, 0.0, 0.0, 0.0, 1.741282607288322E9, 0.0, 2025-03-06 11:36:47.288
144.0, -34672.42833047251, -28574.671277364647, -35382.118568672966, -33718.32176665327, -5246.870845183235, -8671.00163352509, -41925.748220175294, -29141.980903384796, 0.068, 0.894, -0.428, 192.0, 0.0, 0.0, 0.0, 0.0, 0.0, 0.0, 0.0, 0.0, 0.0, 1.74128260728834E9, 0.0, 2025-03-06 11:36:47.288
145.0, -34672.00364732786, -28570.782073829425, -35390.76869377717, -33728.04477549133, -5215.243126778976, -8685.172639509754, -41939.4498395264, -29146.987694142783, 0.068, 0.894, -0.428, 192.0, 0.0, 0.0, 0.0, 0.0, 0.0, 0.0, 0.0, 0.0, 0.0, 1.741282607288363E9, 0.0, 2025-03-06 11:36:47.288
146.0, -34665.745158880374, -28569.329210439828, -35385.270164641166, -33723.57442660027, -5209.431673220596, -8678.467116173162, -41941.908531416484, -29150.85454593355, 0.068, 0.894, -0.428, 192.0, 0.0, 0.0, 0.0, 0.0, 0.0, 0.0, 0.0, 0.0, 0.0, 1.741282607288383E9, 0.0, 2025-03-06 11:36:47.288
147.0, -34670.4837287049, -28575.163015742663, -35383.169100662366, -33724.91553126759, -5247.049659138877, -8673.505028904085, -41935.471229013354, -29139.365749283523, 0.064, 0.896, -0.426, 192.0, 2.0, 0.0, 28.0, 0.0, 242.0, 176.0, 0.0, 0.0, 0.0, 1.741282607288401E9, 0.0, 2025-03-06 11:36:47.288
148.0, -34682.95600211096, -28587.45647519308, -35396.55779559109, -33743.355720443215, -5259.94661568959, -8693.845116358414, -41948.65875824198, -29155.302543080157, 0.064, 0.896, -0.426, 192.0, 0.0, 0.0, 0.0, 0.0, 0.0, 0.0, 0.0, 0.0, 0.0, 1.741282607288422E9, 0.0, 2025-03-06 11:36:47.288
149.0, -34674.52939445131, -28584.729562369535, -35393.13797868943, -33750.79885134684, -5237.2372433229975, -8705.825651386458, -41945.909493673986, -29155.302543080157, 0.064, 0.896, -0.426, 192.0, 0.0, 0.0, 0.0, 0.0, 0.0, 0.0, 0.0, 0.0, 0.0, 1.74128260728844E9, 0.0, 2025-03-06 11:36:47.288
150.0, -34668.963810081936, -28586.361239714774, -35390.701638543804, -33762.77938637488, -5213.589097689283, -8714.34166602393, -41944.81425819567, -29144.48429876379, 0.064, 0.896, -0.426, 192.0, 0.0, 0.0, 0.0, 0.0, 0.0, 0.0, 0.0, 0.0, 0.0, 1.741282607288464E9, 0.0, 2025-03-06 11:36:47.288
151.0, -34678.44094973099, -28598.095905553808, -35398.0553624696, -33772.72591265749, -5247.317880072342, -8715.883936391347, -41942.467325027865, -29148.95464765485, 0.064, 0.896, -0.426, 192.0, 0.0, 0.0, 0.0, 0.0, 0.0, 0.0, 0.0, 0.0, 0.0, 1.741282607288489E9, 0.0, 2025-03-06 11:36:47.288
152.0, -34675.08818806269, -28590.80923686138, -35392.3556676335, -33757.280857238875, -5262.807638979869, -8714.743997424126, -41933.70544120138, -29154.453176790856, 0.064, 0.896, -0.426, 192.0, 0.0, 0.0, 0.0, 0.0, 0.0, 0.0, 0.0, 0.0, 0.0, 1.741282607348608E9, 0.0, 2025-03-06 11:36:47.348
153.0, -34667.645057159076, -28580.102751267284, -35388.66762979837, -33756.18562176057, -5250.245958595987, -8709.111357821388, -41919.400324749986, -29129.441574745368, 0.064, 0.896, -0.426, 192.0, 0.0, 0.0, 0.0, 0.0, 0.0, 0.0, 0.0, 0.0, 0.0, 1.741282607348636E9, 0.0, 2025-03-06 11:36:47.348
154.0, -34680.63142068761, -28589.8481118498, -35401.05049622661, -33768.63554342217, -5200.446271949562, -8717.381503269853, -41925.63646145302, -29139.633970216986, 0.064, 0.896, -0.426, 192.0, 0.0, 0.0, 0.0, 0.0, 0.0, 0.0, 0.0, 0.0, 0.0, 1.741282607348655E9, 0.0, 2025-03-06 11:36:47.348
155.0, -34686.97931611291, -28596.46422820857, -35399.70939155929, -33759.42662470658, -5235.203234577565, -8719.571974226472, -41936.521761002754, -29177.319011368636, 0.064, 0.896, -0.426, 192.0, 0.0, 0.0, 0.0, 0.0, 0.0, 0.0, 0.0, 0.0, 0.0, 1.741282607348694E9, 0.0, 2025-03-06 11:36:47.348
156.0, -34675.28935376279, -28589.356373471783, -35384.28668788513, -33744.78623208836, -5266.339214603808, -8717.850889903413, -41928.45278125439, -29157.783586714697, 0.064, 0.896, -0.426, 192.0, 0.0, 0.0, 0.0, 0.0, 0.0, 0.0, 0.0, 0.0, 0.0, 1.741282607348713E9, 0.0, 2025-03-06 11:36:47.348
157.0, -34669.25438275986, -28585.578928658837, -35381.47036808376, -33743.512182654405, -5244.859188182258, -8713.738168923637, -41923.08836258511, -29133.420185258412, 0.064, 0.896, -0.426, 192.0, 2.0, 0.0, 28.0, 0.0, 242.0, 176.0, 0.0, 0.0, 0.0, 1.741282607348732E9, 0.0, 2025-03-06 11:36:47.348
158.0, -34678.44094973099, -28595.32428924135, -35390.58987982153, -33753.503412425925, -5204.916620840624, -8719.415512015285, -41928.989223121316, -29131.05090034615, 0.064, 0.896, -0.426, 192.0, 0.0, 0.0, 0.0, 0.0, 0.0, 0.0, 0.0, 0.0, 0.0, 1.741282607348761E9, 0.0, 2025-03-06 11:36:47.348
159.0, -34692.321383037735, -28606.701327169103, -35401.43047588235, -33759.78425261787, -5224.228528050009, -8729.093817364434, -41932.118467345055, -29135.208324814837, 0.064, 0.896, -0.426, 192.0, 0.0, 0.0, 0.0, 0.0, 0.0, 0.0, 0.0, 0.0, 0.0, 1.741282607348779E9, 0.0, 2025-03-06 11:36:47.348
160.0, -34682.06193233275, -28586.920033326154, -35384.64431579642, -33727.88831328014, -5251.452952796573, -8703.702235663204, -41920.652022439484, -29135.85652540404, 0.064, 0.896, -0.426, 192.0, 0.0, 0.0, 0.0, 0.0, 0.0, 0.0, 0.0, 0.0, 0.0, 1.741282607348798E9, 0.0, 2025-03-06 11:36:47.348
161.0, -34679.64794393157, -28581.55561465688, -35381.47036808376, -33717.494752108425, -5235.985545633501, -8696.214401270676, -41927.33519403162, -29146.33949355358, 0.064, 0.896, -0.426, 192.0, 0.0, 0.0, 0.0, 0.0, 0.0, 0.0, 0.0, 0.0, 0.0, 1.741282607348817E9, 0.0, 2025-03-06 11:36:47.348
162.0, -34670.0366938158, -28577.107617510275, -35375.48010056974, -33711.23626366094, -5201.519155683417, -8689.508877934084, -41928.02809810974, -29154.050845390662, 0.064, 0.896, -0.426, 192.0, 0.0, 0.0, 0.0, 0.0, 0.0, 0.0, 0.0, 0.0, 0.0, 1.741282607348836E9, 0.0, 2025-03-06 11:36:47.348
163.0, -34668.20385077046, -28577.532300654926, -35367.05349291009, -33702.6531937901, -5218.484129724995, -8679.00355804009, -41916.27108052625, -29149.155813354948, 0.064, 0.896, -0.426, 192.0, 0.0, 0.0, 0.0, 0.0, 0.0, 0.0, 0.0, 0.0, 0.0, 1.741282607348855E9, 0.0, 2025-03-06 11:36:47.348
164.0, -34665.78986236928, -28578.64988787769, -35362.85136495249, -33703.68137403505, -5245.887368427202, -8674.980244038135, -41912.87361536904, -29137.756423682742, 0.064, 0.896, -0.426, 192.0, 0.0, 0.0, 0.0, 0.0, 0.0, 0.0, 0.0, 0.0, 0.0, 1.741282607348874E9, 0.0, 2025-03-06 11:36:47.348
165.0, -34664.851089102165, -28577.934632055123, -35365.15359463139, -33705.84949324721, -5228.430656007607, -8672.745069592604, -41913.521815958244, -29129.016891600717, 0.064, 0.896, -0.426, 192.0, 0.0, 0.0, 0.0, 0.0, 0.0, 0.0, 0.0, 0.0, 0.0, 1.741282607348897E9, 0.0, 2025-03-06 11:36:47.348
166.0, -34665.2310687579, -28576.19119598761, -35368.059321410576, -33703.99429845742, -5191.729091611993, -8669.727584091137, -41913.29829851369, -29118.712737406822, 0.064, 0.896, -0.426, 192.0, 0.0, 0.0, 0.0, 0.0, 0.0, 0.0, 0.0, 0.0, 0.0, 1.741282607348926E9, 0.0, 2025-03-06 11:36:47.348
167.0, -34675.02113282933, -28588.484655438027, -35376.173004647855, -33714.61137707369, -5185.314140953319, -8677.930674306235, -41917.031039837726, -29110.219074513803, 0.066, 0.896, -0.42, 192.0, 2.0, 16.0, 28.0, 0.0, 242.0, 224.0, 0.0, 0.0, 0.0, 1.741282607407738E9, 0.0, 2025-03-06 11:36:47.407
168.0, -34679.9832200984, -28597.93944334262, -35378.87756572694, -33722.0098044884, -5231.448141509073, -8682.043395286011, -41920.182635805926, -29118.869199618006, 0.066, 0.896, -0.42, 192.0, 0.0, 0.0, 0.0, 0.0, 0.0, 0.0, 0.0, 0.0, 0.0, 1.741282607407766E9, 0.0, 2025-03-06 11:36:47.407
169.0, -34672.182461283504, -28590.093981038808, -35375.5024523142, -33719.86403702069, -5239.852397424269, -8680.322310962953, -41919.333269516625, -29115.807010627632, 0.066, 0.896, -0.42, 192.0, 0.0, 0.0, 0.0, 0.0, 0.0, 0.0, 0.0, 0.0, 0.0, 1.741282607407785E9, 0.0, 2025-03-06 11:36:47.407
170.0, -34669.25438275986, -28584.438989691615, -35384.57726056305, -33730.659929592606, -5205.74363538547, -8680.568180151962, -41920.00382185028, -29090.28131845967, 0.066, 0.896, -0.42, 192.0, 0.0, 0.0, 0.0, 0.0, 0.0, 0.0, 0.0, 0.0, 0.0, 1.741282607407819E9, 0.0, 2025-03-06 11:36:47.407
171.0, -34675.31170550724, -28590.13868452772, -35392.735647289235, -33733.38684241615, -5187.415204932118, -8680.121145262856, -41923.42363875194, -29128.43574624488, 0.066, 0.896, -0.42, 192.0, 0.0, 0.0, 0.0, 0.0, 0.0, 0.0, 0.0, 0.0, 0.0, 1.741282607407836E9, 0.0, 2025-03-06 11:36:47.407
172.0, -34673.858842117654, -28595.413696219173, -35382.6997140288, -33733.945636027536, -5228.832987407803, -8664.586682866417, -41921.501388728786, -29139.611618472532, 0.066, 0.896, -0.42, 192.0, 0.0, 0.0, 0.0, 0.0, 0.0, 0.0, 0.0, 0.0, 0.0, 1.741282607407855E9, 0.0, 2025-03-06 11:36:47.407
173.0, -34666.035731558295, -28589.490483938516, -35370.38390283393, -33724.33438591175, -5244.32274631533, -8657.657642085273, -41915.08643807012, -29128.167525311415, 0.066, 0.896, -0.42, 192.0, 0.0, 0.0, 0.0, 0.0, 0.0, 0.0, 0.0, 0.0, 0.0, 1.741282607407882E9, 0.0, 2025-03-06 11:36:47.407
174.0, -34658.23497274339, -28575.36418144276, -35368.77457723315, -33714.43256311805, -5226.0837228397995, -8651.957947249168, -41909.900833356485, -29120.43382172988, 0.066, 0.896, -0.42, 192.0, 0.0, 0.0, 0.0, 0.0, 0.0, 0.0, 0.0, 0.0, 0.0, 1.741282607407901E9, 0.0, 2025-03-06 11:36:47.407
175.0, -34673.72473165092, -28580.303916967383, -35386.164234419375, -33722.322728910774, -5184.8224025753025, -8670.040508513512, -41918.61801369405, -29116.656376916933, 0.066, 0.896, -0.42, 192.0, 0.0, 0.0, 0.0, 0.0, 0.0, 0.0, 0.0, 0.0, 0.0, 1.74128260740792E9, 0.0, 2025-03-06 11:36:47.407
176.0, -34689.236842302904, -28595.570158430357, -35395.50726360169, -33735.68907209505, -5218.618240191727, -8685.23969474312, -41922.79778990719, -29116.14228679446, 0.066, 0.896, -0.42, 192.0, 0.0, 0.0, 0.0, 0.0, 0.0, 0.0, 0.0, 0.0, 0.0, 1.741282607407938E9, 0.0, 2025-03-06 11:36:47.407
177.0, -34670.4837287049, -28580.88506232322, -35381.068036683566, -33727.03894699084, -5249.553054517872, -8679.830572584937, -41918.03686833821, -29108.073307046096, 0.07, 0.888, -0.41600000000000004, 192.0, 2.0, 48.0, 27.0, 192.0, 243.0, 0.0, 0.0, 0.0, 0.0, 1.741282607407956E9, 0.0, 2025-03-06 11:36:47.407
178.0, -34666.594525169676, -28573.732504097523, -35383.7502460182, -33731.77751681537, -5230.84464440878, -8681.998691797102, -41928.45278125439, -29127.519324722212, 0.07, 0.888, -0.41600000000000004, 192.0, 0.0, 0.0, 0.0, 0.0, 0.0, 0.0, 0.0, 0.0, 0.0, 1.741282607407977E9, 0.0, 2025-03-06 11:36:47.407
179.0, -34664.13583327959, -28567.630477861225, -35384.24198439622, -33733.29743543833, -5196.422957947607, -8681.23873248562, -41930.799714422195, -29119.6738624184, 0.07, 0.888, -0.41600000000000004, 192.0, 0.0, 0.0, 0.0, 0.0, 0.0, 0.0, 0.0, 0.0, 0.0, 1.741282607407996E9, 0.0, 2025-03-06 11:36:47.407
180.0, -34672.3836269836, -28581.175635001142, -35385.33721987453, -33737.566618629295, -5212.516213955429, -8682.445726686206, -41928.22926380984, -29130.223885801304, 0.07, 0.888, -0.41600000000000004, 192.0, 0.0, 0.0, 0.0, 0.0, 0.0, 0.0, 0.0, 0.0, 0.0, 1.741282607408024E9, 0.0, 2025-03-06 11:36:47.408
181.0, -34668.91910659303, -28578.538129155415, -35378.542289560115, -33731.44224064854, -5241.618185236238, -8677.19306673921, -41921.3449265176, -29144.90898190844, 0.07, 0.888, -0.41600000000000004, 192.0, 0.0, 0.0, 0.0, 0.0, 0.0, 0.0, 0.0, 0.0, 0.0, 1.741282607408054E9, 0.0, 2025-03-06 11:36:47.408
182.0, -34680.564365454244, -28583.27669897994, -35389.2040716653, -33736.20316221752, -5216.718341913026, -8687.050186044, -41933.70544120138, -29142.025606873707, 0.07, 0.888, -0.41600000000000004, 192.0, 0.0, 0.0, 0.0, 0.0, 0.0, 0.0, 0.0, 0.0, 0.0, 1.741282607467765E9, 0.0, 2025-03-06 11:36:47.467
183.0, -34679.67029567603, -28578.940460555612, -35385.62779255245, -33730.928150526066, -5188.711606110526, -8687.810145355481, -41929.63742371052, -29142.897324907462, 0.07, 0.888, -0.41600000000000004, 192.0, 0.0, 0.0, 0.0, 0.0, 0.0, 0.0, 0.0, 0.0, 0.0, 1.741282607467792E9, 0.0, 2025-03-06 11:36:47.467
184.0, -34675.82579562972, -28575.11831225375, -35373.69196101331, -33715.23722591844, -5209.655190665149, -8674.130877748834, -41914.54999620319, -29118.980958340286, 0.07, 0.888, -0.41600000000000004, 192.0, 0.0, 0.0, 0.0, 0.0, 0.0, 0.0, 0.0, 0.0, 0.0, 1.741282607467811E9, 0.0, 2025-03-06 11:36:47.467
185.0, -34678.4856532199, -28578.247556477494, -35370.96504818977, -33718.07589746427, -5227.491882740484, -8672.186275981221, -41914.86292062556, -29109.794391369152, 0.07, 0.888, -0.41600000000000004, 192.0, 0.0, 0.0, 0.0, 0.0, 0.0, 0.0, 0.0, 0.0, 0.0, 1.74128260746783E9, 0.0, 2025-03-06 11:36:47.467
186.0, -34674.01530432884, -28576.526472154437, -35371.72500750125, -33717.517103852886, -5212.359751744241, -8676.880142316835, -41918.975641605335, -29104.89935933344, 0.07, 0.888, -0.41600000000000004, 192.0, 0.0, 0.0, 0.0, 0.0, 0.0, 0.0, 0.0, 0.0, 0.0, 1.741282607467861E9, 0.0, 2025-03-06 11:36:47.467
187.0, -34666.0804350472, -28572.50315815248, -35367.88050745494, -33717.517103852886, -5183.7048153525375, -8679.025909784545, -41917.38866774901, -29092.583548138566, 0.07, 0.896, -0.418, 192.0, 2.0, 48.0, 28.0, 0.0, 242.0, 240.0, 0.0, 0.0, 0.0, 1.741282607467881E9, 0.0, 2025-03-06 11:36:47.467
188.0, -34675.535222951796, -28585.333059469827, -35376.1506529034, -33729.162362714094, -5181.894324051657, -8683.183334253232, -41917.500426471284, -29097.81385634111, 0.07, 0.896, -0.418, 192.0, 0.0, 0.0, 0.0, 0.0, 0.0, 0.0, 0.0, 0.0, 0.0, 1.74128260746791E9, 0.0, 2025-03-06 11:36:47.467
189.0, -34684.5876794562, -28589.825760105345, -35380.88922272792, -33729.72115632548, -5220.942821615079, -8682.222209241654, -41918.95328986088, -29102.66418488791, 0.07, 0.896, -0.418, 192.0, 0.0, 0.0, 0.0, 0.0, 0.0, 0.0, 0.0, 0.0, 0.0, 1.741282607467929E9, 0.0, 2025-03-06 11:36:47.467
190.0, -34682.95600211096, -28584.84132109181, -35377.2011848928, -33721.3616038992, -5230.174092075121, -8680.0987935184, -41926.30701378668, -29125.127688065495, 0.07, 0.896, -0.418, 192.0, 0.0, 0.0, 0.0, 0.0, 0.0, 0.0, 0.0, 0.0, 0.0, 1.741282607467948E9, 0.0, 2025-03-06 11:36:47.467
191.0, -34672.897717106076, -28567.295201694396, -35369.71335050027, -33713.62790031766, -5204.737806884981, -8673.415621926264, -41918.841531138605, -29114.644719915956, 0.07, 0.896, -0.418, 192.0, 0.0, 0.0, 0.0, 0.0, 0.0, 0.0, 0.0, 0.0, 0.0, 1.741282607467967E9, 0.0, 2025-03-06 11:36:47.467
192.0, -34678.06097007525, -28571.47497790754, -35374.78719649163, -33721.38395564365, -5195.305370724842, -8672.655662614783, -41917.5451299602, -29107.939196579362, 0.07, 0.896, -0.418, 192.0, 0.0, 0.0, 0.0, 0.0, 0.0, 0.0, 0.0, 0.0, 0.0, 1.741282607467987E9, 0.0, 2025-03-06 11:36:47.467
193.0, -34685.52645272332, -28579.253384977983, -35379.034027938134, -33731.82222030428, -5227.089551340288, -8675.226113227143, -41920.67437418394, -29100.04903078664, 0.07, 0.896, -0.418, 192.0, 0.0, 0.0, 0.0, 0.0, 0.0, 0.0, 0.0, 0.0, 0.0, 1.741282607468006E9, 0.0, 2025-03-06 11:36:47.468
194.0, -34693.90835689406, -28576.079437265333, -35388.466464098274, -33733.05156624932, -5219.378199503208, -8670.420488169251, -41925.03296435272, -29102.552426165632, 0.07, 0.896, -0.418, 192.0, 0.0, 0.0, 0.0, 0.0, 0.0, 0.0, 0.0, 0.0, 0.0, 1.741282607468024E9, 0.0, 2025-03-06 11:36:47.468
195.0, -34705.26304307736, -28583.880196080234, -35404.73853406173, -33744.87563906618, -5194.411300946629, -8680.143497007311, -41933.68308945693, -29123.80893514263, 0.07, 0.896, -0.418, 192.0, 0.0, 0.0, 0.0, 0.0, 0.0, 0.0, 0.0, 0.0, 0.0, 1.741282607468046E9, 0.0, 2025-03-06 11:36:47.468
196.0, -34699.11631335215, -28586.763571114967, -35392.69094380033, -33751.78232810287, -5191.572629400805, -8682.177505752743, -41924.87650214154, -29105.03346980017, 0.07, 0.896, -0.418, 192.0, 0.0, 0.0, 0.0, 0.0, 0.0, 0.0, 0.0, 0.0, 0.0, 1.741282607468073E9, 0.0, 2025-03-06 11:36:47.468
197.0, -34684.63238294511, -28578.42637043314, -35378.07290292656, -33747.267275722894, -5248.390763806196, -8676.47781091664, -41910.81725487915, -29084.201643967826, 0.07200000000000001, 0.896, -0.41200000000000003, 192.0, 2.0, 64.0, 28.0, 0.0, 243.0, 32.0, 0.0, 0.0, 0.0, 1.741282607527965E9, 0.0, 2025-03-06 11:36:47.527
198.0, -34680.564365454244, -28567.07168424984, -35376.932963959334, -33740.517048897396, -5242.534606758905, -8668.14061023481, -41909.78907463421, -29089.588414381557, 0.07200000000000001, 0.896, -0.41200000000000003, 192.0, 0.0, 0.0, 0.0, 0.0, 0.0, 0.0, 0.0, 0.0, 0.0, 1.741282607527993E9, 0.0, 2025-03-06 11:36:47.527
199.0, -34678.03861833079, -28559.539146368403, -35376.88826047043, -33747.89312456764, -5217.970039602523, -8673.28151145953, -41921.635499195516, -29101.792466854153, 0.07200000000000001, 0.896, -0.41200000000000003, 192.0, 0.0, 0.0, 0.0, 0.0, 0.0, 0.0, 0.0, 0.0, 0.0, 1.741282607528011E9, 0.0, 2025-03-06 11:36:47.528
200.0, -34669.92493509351, -28544.51877409444, -35367.43347256583, -33730.97285401498, -5195.752405613948, -8664.787848566515, -41918.5956619496, -29126.826420644098, 0.07200000000000001, 0.896, -0.41200000000000003, 192.0, 0.0, 0.0, 0.0, 0.0, 0.0, 0.0, 0.0, 0.0, 0.0, 1.74128260752803E9, 0.0, 2025-03-06 11:36:47.528
201.0, -34677.47982471941, -28544.65288456117, -35371.76971099016, -33723.172095200076, -5214.527870956406, -8669.61582536886, -41919.132103816526, -29129.28511253418, 0.07200000000000001, 0.896, -0.41200000000000003, 192.0, 0.0, 0.0, 0.0, 0.0, 0.0, 0.0, 0.0, 0.0, 0.0, 1.741282607528063E9, 0.0, 2025-03-06 11:36:47.528
202.0, -34674.976429340415, -28542.954151982565, -35372.127338901446, -33727.46363013549, -5243.741600959493, -8678.936502806724, -41911.979545590824, -29110.911978591917, 0.07200000000000001, 0.896, -0.41200000000000003, 192.0, 0.0, 0.0, 0.0, 0.0, 0.0, 0.0, 0.0, 0.0, 0.0, 1.741282607528081E9, 0.0, 2025-03-06 11:36:47.528
203.0, -34659.82194659972, -28530.683044276604, -35358.35866431698, -33720.89221726563, -5221.74748441547, -8674.510857404573, -41906.99510657729, -29101.32308022059, 0.07200000000000001, 0.896, -0.41200000000000003, 192.0, 0.0, 0.0, 0.0, 0.0, 0.0, 0.0, 0.0, 0.0, 0.0, 1.741282607528112E9, 0.0, 2025-03-06 11:36:47.528
204.0, -34663.68879839049, -28533.23114314451, -35360.772652718144, -33726.8601330352, -5180.732033339981, -8685.843191843414, -41918.88623462751, -29104.877007588984, 0.07200000000000001, 0.896, -0.41200000000000003, 192.0, 0.0, 0.0, 0.0, 0.0, 0.0, 0.0, 0.0, 0.0, 0.0, 1.74128260752813E9, 0.0, 2025-03-06 11:36:47.528
205.0, -34670.796653127276, -28547.111576451254, -35365.91355394287, -33738.72890934097, -5208.425844720107, -8698.538982694028, -41921.076705584135, -29098.104429019026, 0.07200000000000001, 0.896, -0.41200000000000003, 192.0, 0.0, 0.0, 0.0, 0.0, 0.0, 0.0, 0.0, 0.0, 0.0, 1.741282607528149E9, 0.0, 2025-03-06 11:36:47.528
206.0, -34665.20871701345, -28542.70828279356, -35358.403367805884, -33732.42571740457, -5248.591929506294, -8694.180392525244, -41918.573310205145, -29116.18699028337, 0.07200000000000001, 0.896, -0.41200000000000003, 192.0, 0.0, 0.0, 0.0, 0.0, 0.0, 0.0, 0.0, 0.0, 0.0, 1.741282607528168E9, 0.0, 2025-03-06 11:36:47.528
207.0, -34666.929801336504, -28542.41771011564, -35364.7959667201, -33733.40919416061, -5224.630859450204, -8693.95687508069, -41923.33423177412, -29117.438687972866, 0.068, 0.898, -0.406, 192.0, 2.0, 32.0, 28.0, 16.0, 243.0, 80.0, 0.0, 0.0, 0.0, 1.741282607528187E9, 0.0, 2025-03-06 11:36:47.528
208.0, -34656.871516331616, -28534.974579212023, -35358.91745792836, -33734.23620870545, -5185.448251420052, -8697.711968149182, -41917.63453693802, -29103.6700133884, 0.068, 0.898, -0.406, 192.0, 0.0, 0.0, 0.0, 0.0, 0.0, 0.0, 0.0, 0.0, 0.0, 1.741282607528208E9, 0.0, 2025-03-06 11:36:47.528
209.0, -34657.81028959874, -28539.467279847537, -35358.02338815015, -33732.738641826945, -5203.441405706573, -8698.58368618294, -41918.68506892742, -29097.590338896556, 0.068, 0.898, -0.406, 192.0, 0.0, 0.0, 0.0, 0.0, 0.0, 0.0, 0.0, 0.0, 0.0, 1.741282607528226E9, 0.0, 2025-03-06 11:36:47.528
210.0, -34674.26117351784, -28554.688817821603, -35371.65795226788, -33746.373205944685, -5221.188690804087, -8714.319314279475, -41934.06306911267, -29112.789525126165, 0.068, 0.898, -0.406, 192.0, 0.0, 0.0, 0.0, 0.0, 0.0, 0.0, 0.0, 0.0, 0.0, 1.741282607528245E9, 0.0, 2025-03-06 11:36:47.528
211.0, -34665.119310035625, -28546.061044461854, -35361.845536452005, -33735.21968546149, -5228.229490307509, -8702.897572862814, -41927.75987717627, -29112.297786748146, 0.068, 0.898, -0.406, 192.0, 0.0, 0.0, 0.0, 0.0, 0.0, 0.0, 0.0, 0.0, 0.0, 1.741282607528267E9, 0.0, 2025-03-06 11:36:47.528
212.0, -34662.10182453416, -28539.511983336448, -35357.084614883024, -33732.112792982196, -5197.138213770177, -8691.229962257143, -41919.37797300553, -29102.70888837682, 0.068, 0.898, -0.406, 192.0, 0.0, 0.0, 0.0, 0.0, 0.0, 0.0, 0.0, 0.0, 0.0, 1.741282607588252E9, 0.0, 2025-03-06 11:36:47.588
213.0, -34670.573135682724, -28548.7879572854, -35358.693940483805, -33734.906761039114, -5194.344245713263, -8689.017139556068, -41918.46155148286, -29094.37168769499, 0.068, 0.898, -0.406, 192.0, 0.0, 0.0, 0.0, 0.0, 0.0, 0.0, 0.0, 0.0, 0.0, 1.741282607588278E9, 0.0, 2025-03-06 11:36:47.588
214.0, -34666.70628389195, -28542.50711709346, -35353.35187355898, -33722.36743239968, -5230.799940919869, -8675.986072538624, -41907.55390018868, -29089.387248681458, 0.068, 0.898, -0.406, 192.0, 0.0, 0.0, 0.0, 0.0, 0.0, 0.0, 0.0, 0.0, 0.0, 1.741282607588297E9, 0.0, 2025-03-06 11:36:47.588
215.0, -34668.65088565956, -28543.0882624493, -35356.347007316, -33721.45101087702, -5224.250879794465, -8673.750898093092, -41910.54903394569, -29090.99657428224, 0.068, 0.898, -0.406, 192.0, 0.0, 0.0, 0.0, 0.0, 0.0, 0.0, 0.0, 0.0, 0.0, 1.741282607588316E9, 0.0, 2025-03-06 11:36:47.588
216.0, -34661.85595534515, -28543.110614193753, -35357.1963736053, -33730.995205759435, -5187.325797954297, -8682.803354597492, -41914.25942352527, -29078.94898402083, 0.068, 0.898, -0.406, 192.0, 0.0, 0.0, 0.0, 0.0, 0.0, 0.0, 0.0, 0.0, 0.0, 1.741282607588345E9, 0.0, 2025-03-06 11:36:47.588
217.0, -34656.64799888706, -28542.104785693264, -35353.933018914824, -33725.92135976808, -5177.6027891162385, -8675.807258582981, -41906.36925773254, -29080.647716599433, 0.07200000000000001, 0.9, -0.40800000000000003, 192.0, 2.0, 64.0, 28.0, 32.0, 243.0, 64.0, 0.0, 0.0, 0.0, 1.741282607588363E9, 0.0, 2025-03-06 11:36:47.588
218.0, -34663.644094901574, -28547.35744564026, -35354.08948112601, -33719.99814748742, -5212.5832691887945, -8664.519627633052, -41913.9912025918, -29102.23950174326, 0.07200000000000001, 0.9, -0.40800000000000003, 192.0, 0.0, 0.0, 0.0, 0.0, 0.0, 0.0, 0.0, 0.0, 0.0, 1.741282607588384E9, 0.0, 2025-03-06 11:36:47.588
219.0, -34667.46624320343, -28545.770471783933, -35360.169155617856, -33723.440316133536, -5223.89325188318, -8668.38647942382, -41916.36048750407, -29088.582585881068, 0.07200000000000001, 0.9, -0.40800000000000003, 192.0, 0.0, 0.0, 0.0, 0.0, 0.0, 0.0, 0.0, 0.0, 0.0, 1.741282607588423E9, 0.0, 2025-03-06 11:36:47.588
220.0, -34667.063911803234, -28544.764643283444, -35364.080710897535, -33731.59870285972, -5196.758234114437, -8677.684805117227, -41927.15638007598, -29115.427030971892, 0.07200000000000001, 0.9, -0.40800000000000003, 192.0, 0.0, 0.0, 0.0, 0.0, 0.0, 0.0, 0.0, 0.0, 0.0, 1.741282607588442E9, 0.0, 2025-03-06 11:36:47.588
221.0, -34662.4818041899, -28544.719939794537, -35360.21385910676, -33732.604531360215, -5185.35884444223, -8679.227075484643, -41923.378935263034, -29106.821609356597, 0.07200000000000001, 0.9, -0.40800000000000003, 192.0, 0.0, 0.0, 0.0, 0.0, 0.0, 0.0, 0.0, 0.0, 0.0, 1.741282607588461E9, 0.0, 2025-03-06 11:36:47.588
222.0, -34669.65671416005, -28557.974524256533, -35363.63367600842, -33740.3158831973, -5219.512309969939, -8682.401023197297, -41915.60052819258, -29091.37655393798, 0.07200000000000001, 0.9, -0.40800000000000003, 192.0, 0.0, 0.0, 0.0, 0.0, 0.0, 0.0, 0.0, 0.0, 0.0, 1.741282607588479E9, 0.0, 2025-03-06 11:36:47.588
223.0, -34666.81804261423, -28553.615934087746, -35362.76195797467, -33740.427641919574, -5234.376220032718, -8684.971473809657, -41914.12531305854, -29081.161806721906, 0.07200000000000001, 0.9, -0.40800000000000003, 192.0, 0.0, 0.0, 0.0, 0.0, 0.0, 0.0, 0.0, 0.0, 0.0, 1.7412826075885E9, 0.0, 2025-03-06 11:36:47.588
224.0, -34669.12027229313, -28551.13489045321, -35364.01365566417, -33744.54036289935, -5205.475414452007, -8701.109433306388, -41929.39155452151, -29101.70305987633, 0.07200000000000001, 0.9, -0.40800000000000003, 192.0, 0.0, 0.0, 0.0, 0.0, 0.0, 0.0, 0.0, 0.0, 0.0, 1.741282607588519E9, 0.0, 2025-03-06 11:36:47.588
225.0, -34662.97354256792, -28548.296218907384, -35361.197335862795, -33740.1147174972, -5188.8680683217135, -8696.236753015131, -41931.80554292268, -29126.692310177365, 0.07200000000000001, 0.9, -0.40800000000000003, 192.0, 0.0, 0.0, 0.0, 0.0, 0.0, 0.0, 0.0, 0.0, 0.0, 1.741282607588538E9, 0.0, 2025-03-06 11:36:47.588
226.0, -34656.245667486866, -28547.17863168462, -35353.12835611443, -33735.19733371703, -5231.448141509073, -8689.665340145271, -41920.71907767285, -29114.979996082784, 0.07200000000000001, 0.9, -0.40800000000000003, 192.0, 0.0, 0.0, 0.0, 0.0, 0.0, 0.0, 0.0, 0.0, 0.0, 1.74128260758856E9, 0.0, 2025-03-06 11:36:47.588
227.0, -34663.509984434844, -28547.60331482927, -35363.164289374865, -33739.22064771898, -5229.660001952649, -8691.408776212786, -41920.62967069503, -29113.169504781905, 0.07, 0.902, -0.406, 192.0, 2.0, 48.0, 28.0, 48.0, 243.0, 80.0, 0.0, 0.0, 0.0, 1.741282607648546E9, 0.0, 2025-03-06 11:36:47.648
228.0, -34674.46233921794, -28549.145585196686, -35372.21674587927, -33742.327540198276, -5197.115862025722, -8700.86356411738, -41930.665603955465, -29120.567932196613, 0.07, 0.902, -0.406, 192.0, 0.0, 0.0, 0.0, 0.0, 0.0, 0.0, 0.0, 0.0, 0.0, 1.741282607648573E9, 0.0, 2025-03-06 11:36:47.648
229.0, -34669.34378973768, -28545.524602594927, -35365.28770509812, -33744.428604177076, -5183.235428718976, -8710.63127644435, -41934.085420857125, -29111.515475692213, 0.07, 0.902, -0.406, 192.0, 0.0, 0.0, 0.0, 0.0, 0.0, 0.0, 0.0, 0.0, 0.0, 1.741282607648596E9, 0.0, 2025-03-06 11:36:47.648
230.0, -34668.49442344838, -28550.062006719352, -35362.62784750794, -33746.12733675568, -5207.397664475163, -8710.407758999796, -41930.62090046655, -29109.660280902423, 0.07, 0.902, -0.406, 192.0, 0.0, 0.0, 0.0, 0.0, 0.0, 0.0, 0.0, 0.0, 0.0, 1.741282607648615E9, 0.0, 2025-03-06 11:36:47.648
231.0, -34666.05808330275, -28553.213602687552, -35360.169155617856, -33744.49565941044, -5227.22366180702, -8703.746939152115, -41930.799714422195, -29120.590283941066, 0.07, 0.902, -0.406, 192.0, 0.0, 0.0, 0.0, 0.0, 0.0, 0.0, 0.0, 0.0, 0.0, 1.741282607648648E9, 0.0, 2025-03-06 11:36:47.648
232.0, -34658.056158787746, -28546.79865202888, -35355.38588230442, -33740.87467680868, -5208.604658675749, -8694.135689036333, -41925.10001958609, -29104.206455255327, 0.07, 0.902, -0.406, 192.0, 0.0, 0.0, 0.0, 0.0, 0.0, 0.0, 0.0, 0.0, 0.0, 1.741282607648667E9, 0.0, 2025-03-06 11:36:47.648
233.0, -34664.359350724146, -28550.151413697175, -35363.85719345298, -33745.456784422015, -5177.69219609406, -8702.897572862814, -41929.57036847715, -29109.414411713413, 0.07, 0.902, -0.406, 192.0, 0.0, 0.0, 0.0, 0.0, 0.0, 0.0, 0.0, 0.0, 0.0, 1.741282607648685E9, 0.0, 2025-03-06 11:36:47.648
234.0, -34674.976429340415, -28558.17568995663, -35365.690036498316, -33737.03017676237, -5202.167356272621, -8704.886878119336, -41932.409040022976, -29119.42799322939, 0.07, 0.902, -0.406, 192.0, 0.0, 0.0, 0.0, 0.0, 0.0, 0.0, 0.0, 0.0, 0.0, 1.741282607648712E9, 0.0, 2025-03-06 11:36:47.648
235.0, -34664.851089102165, -28544.07173920533, -35350.42379503534, -33714.633728818146, -5222.328629771308, -8688.48069768914, -41917.07574332663, -29090.258966715213, 0.07, 0.902, -0.406, 192.0, 0.0, 0.0, 0.0, 0.0, 0.0, 0.0, 0.0, 0.0, 0.0, 1.741282607648731E9, 0.0, 2025-03-06 11:36:47.648
236.0, -34683.023057344326, -28553.54887885438, -35366.2488301097, -33726.14487721263, -5207.777644130903, -8691.788755868525, -41922.73073467383, -29070.343562405535, 0.07, 0.902, -0.406, 192.0, 0.0, 0.0, 0.0, 0.0, 0.0, 0.0, 0.0, 0.0, 0.0, 1.74128260764875E9, 0.0, 2025-03-06 11:36:47.648
237.0, -34672.27186826133, -28541.009550214952, -35354.96119915977, -33712.62207181717, -5182.676635107593, -8674.019119026556, -41923.513045729764, -29083.955774778817, 0.074, 0.898, -0.404, 192.0, 2.0, 80.0, 28.0, 16.0, 243.0, 96.0, 0.0, 0.0, 0.0, 1.741282607648769E9, 0.0, 2025-03-06 11:36:47.648
238.0, -34659.464318688435, -28532.40412859966, -35340.05258560808, -33699.34513561072, -5175.591132115261, -8664.720793333148, -41921.12140907305, -29092.650603371934, 0.074, 0.898, -0.404, 192.0, 0.0, 0.0, 0.0, 0.0, 0.0, 0.0, 0.0, 0.0, 0.0, 1.741282607648789E9, 0.0, 2025-03-06 11:36:47.648
239.0, -34671.847185116676, -28549.570268341336, -35357.03991139411, -33716.64538581912, -5217.41124599114, -8678.087136517423, -41932.900778400995, -29099.51258891971, 0.074, 0.898, -0.404, 192.0, 0.0, 0.0, 0.0, 0.0, 0.0, 0.0, 0.0, 0.0, 0.0, 1.741282607648808E9, 0.0, 2025-03-06 11:36:47.648
240.0, -34669.612010671146, -28551.157242197663, -35361.063225396065, -33723.57442660027, -5222.216871049031, -8682.021043541556, -41930.62090046655, -29085.810969568607, 0.074, 0.898, -0.404, 192.0, 0.0, 0.0, 0.0, 0.0, 0.0, 0.0, 0.0, 0.0, 0.0, 1.741282607648827E9, 0.0, 2025-03-06 11:36:47.648
241.0, -34660.71601637793, -28549.167936941143, -35357.88927768341, -33722.23332193295, -5193.159603257132, -8668.297072445997, -41927.938691131916, -29082.949946278328, 0.074, 0.898, -0.404, 192.0, 0.0, 0.0, 0.0, 0.0, 0.0, 0.0, 0.0, 0.0, 0.0, 1.741282607648849E9, 0.0, 2025-03-06 11:36:47.648
242.0, -34663.24176350138, -28554.688817821603, -35357.017559649656, -33723.88735102265, -5193.003141045945, -8647.755819291571, -41922.52956897373, -29067.594297837535, 0.074, 0.898, -0.404, 192.0, 0.0, 0.0, 0.0, 0.0, 0.0, 0.0, 0.0, 0.0, 0.0, 1.741282607708677E9, 0.0, 2025-03-06 11:36:47.708
243.0, -34667.19802226997, -28559.248573690486, -35353.798908448094, -33720.66869982108, -5229.950574630568, -8647.867578013847, -41921.47903698433, -29082.212338711302, 0.074, 0.898, -0.404, 192.0, 0.0, 0.0, 0.0, 0.0, 0.0, 0.0, 0.0, 0.0, 0.0, 1.741282607708701E9, 0.0, 2025-03-06 11:36:47.708
244.0, -34669.85787986015, -28558.64507659019, -35360.54913527359, -33724.9602347565, -5232.789246176391, -8657.076496729434, -41926.82110390915, -29081.81000731111, 0.074, 0.898, -0.404, 192.0, 0.0, 0.0, 0.0, 0.0, 0.0, 0.0, 0.0, 0.0, 0.0, 1.74128260770872E9, 0.0, 2025-03-06 11:36:47.708
245.0, -34674.01530432884, -28550.665503819648, -35365.46651905376, -33718.36647014219, -5198.881649837691, -8652.226168182631, -41924.58592946362, -29092.181216738372, 0.074, 0.898, -0.404, 192.0, 0.0, 0.0, 0.0, 0.0, 0.0, 0.0, 0.0, 0.0, 0.0, 1.741282607708739E9, 0.0, 2025-03-06 11:36:47.708
246.0, -34686.57698471272, -28561.41669290265, -35373.80371973559, -33727.508333624406, -5180.486164150973, -8658.216435696655, -41927.69282194291, -29093.209396983315, 0.074, 0.898, -0.404, 192.0, 0.0, 0.0, 0.0, 0.0, 0.0, 0.0, 0.0, 0.0, 0.0, 1.741282607708758E9, 0.0, 2025-03-06 11:36:47.708
247.0, -34697.77520868483, -28581.399152445694, -35384.689019285324, -33749.77067110189, -5220.585193703794, -8677.863619072868, -41938.10873485908, -29099.646699386445, 0.07, 0.9, -0.404, 192.0, 2.0, 48.0, 28.0, 32.0, 243.0, 96.0, 0.0, 0.0, 0.0, 1.741282607708793E9, 0.0, 2025-03-06 11:36:47.708
248.0, -34685.92878412352, -28580.236861734018, -35378.38582734893, -33748.94365655704, -5236.142007844688, -8684.055052286989, -41936.25354006929, -29076.84792004203, 0.07, 0.9, -0.404, 192.0, 0.0, 0.0, 0.0, 0.0, 0.0, 0.0, 0.0, 0.0, 0.0, 1.741282607708814E9, 0.0, 2025-03-06 11:36:47.708
249.0, -34666.035731558295, -28564.680047593123, -35362.605495763484, -33741.3664151867, -5211.577440688306, -8683.093927275411, -41926.48582774232, -29063.36981813548, 0.07, 0.9, -0.404, 192.0, 0.0, 0.0, 0.0, 0.0, 0.0, 0.0, 0.0, 0.0, 0.0, 1.74128260770884E9, 0.0, 2025-03-06 11:36:47.708
250.0, -34663.1300047791, -28560.857899291266, -35363.90189694189, -33732.805697060314, -5186.431728176085, -8674.063822515467, -41925.971737619846, -29090.6165946265, 0.07, 0.9, -0.404, 192.0, 0.0, 0.0, 0.0, 0.0, 0.0, 0.0, 0.0, 0.0, 0.0, 1.741282607708859E9, 0.0, 2025-03-06 11:36:47.708
251.0, -34672.249516516866, -28567.809291816866, -35369.33337084453, -33730.48111563696, -5211.353923243752, -8679.67411037375, -41927.87163589855, -29096.204530740328, 0.07, 0.9, -0.404, 192.0, 0.0, 0.0, 0.0, 0.0, 0.0, 0.0, 0.0, 0.0, 0.0, 1.741282607708877E9, 0.0, 2025-03-06 11:36:47.708
252.0, -34675.57992644071, -28568.07751275033, -35368.3498940885, -33732.55982787131, -5238.600699734771, -8684.256217987087, -41926.99991786479, -29101.94892906534, 0.07, 0.9, -0.404, 192.0, 0.0, 0.0, 0.0, 0.0, 0.0, 0.0, 0.0, 0.0, 0.0, 1.741282607708895E9, 0.0, 2025-03-06 11:36:47.708
253.0, -34683.157167811056, -28575.11831225375, -35379.25754538269, -33750.26240947991, -5214.594926189772, -8683.47390693115, -41936.052374369196, -29111.828400114588, 0.07, 0.9, -0.404, 192.0, 0.0, 0.0, 0.0, 0.0, 0.0, 0.0, 0.0, 0.0, 0.0, 1.741282607708914E9, 0.0, 2025-03-06 11:36:47.708
254.0, -34683.783016655805, -28572.41375117466, -35382.40914135089, -33747.15551700062, -5185.1129752532215, -8690.604113412395, -41938.57812149264, -29099.557292408623, 0.07, 0.9, -0.404, 192.0, 0.0, 0.0, 0.0, 0.0, 0.0, 0.0, 0.0, 0.0, 0.0, 1.741282607708932E9, 0.0, 2025-03-06 11:36:47.708
255.0, -34677.144548552584, -28566.401131916184, -35373.62490577995, -33734.95146452802, -5201.340341727775, -8697.264933260076, -41929.57036847715, -29090.48248415977, 0.07, 0.9, -0.404, 192.0, 0.0, 0.0, 0.0, 0.0, 0.0, 0.0, 0.0, 0.0, 0.0, 1.741282607708951E9, 0.0, 2025-03-06 11:36:47.708
0.0, -34668.9861618264, -28558.868594034746, -35362.896068441405, -33723.999109744924, -5226.5531094733615, -8685.820840098959, -41931.291452800215, -29094.394039439445, 0.07, 0.9, -0.404, 192.0, 0.0, 0.0, 0.0, 0.0, 0.0, 0.0, 0.0, 0.0, 0.0, 1.741282607708973E9, 0.0, 2025-03-06 11:36:47.708
1.0, -34657.54206866528, -28545.904582250667, -35353.55303925908, -33718.478228864464, -5219.1546820586545, -8675.248464971599, -41921.59079570661, -29080.491254388246, 0.07, 0.906, -0.404, 192.0, 2.0, 48.0, 28.0, 80.0, 243.0, 96.0, 0.0, 0.0, 0.0, 1.741282607768093E9, 0.0, 2025-03-06 11:36:47.768
2.0, -34667.30978099225, -28550.84431777529, -35364.03600740862, -33727.66479583559, -5180.396757173152, -8691.72170063516, -41932.99018537882, -29096.42804818488, 0.07, 0.906, -0.404, 192.0, 0.0, 0.0, 0.0, 0.0, 0.0, 0.0, 0.0, 0.0, 0.0, 1.741282607768133E9, 0.0, 2025-03-06 11:36:47.768
3.0, -34673.635324673094, -28558.354503912273, -35366.51705104316, -33727.68714758005, -5197.495841681462, -8690.782927368036, -41929.123333588046, -29086.839149813553, 0.07, 0.906, -0.404, 192.0, 0.0, 0.0, 0.0, 0.0, 0.0, 0.0, 0.0, 0.0, 0.0, 1.741282607768151E9, 0.0, 2025-03-06 11:36:47.768
4.0, -34682.95600211096, -28564.23301270402, -35376.307115114585, -33731.285778437355, -5230.799940919869, -8694.29215124752, -41928.206912065376, -29075.61857409699, 0.07, 0.906, -0.404, 192.0, 0.0, 0.0, 0.0, 0.0, 0.0, 0.0, 0.0, 0.0, 0.0, 1.74128260776817E9, 0.0, 2025-03-06 11:36:47.768
5.0, -34682.84424338868, -28561.61785860275, -35376.1506529034, -33731.59870285972, -5220.227565792509, -8695.76736638157, -41935.605339480084, -29071.684667072856, 0.07, 0.906, -0.404, 192.0, 0.0, 0.0, 0.0, 0.0, 0.0, 0.0, 0.0, 0.0, 0.0, 1.741282607768189E9, 0.0, 2025-03-06 11:36:47.768
6.0, -34665.18636526899, -28554.17472769913, -35367.32171384355, -33729.654101092114, -5193.36076895723, -8693.24161925812, -41934.3983452795, -29074.746856063233, 0.07, 0.906, -0.404, 192.0, 0.0, 0.0, 0.0, 0.0, 0.0, 0.0, 0.0, 0.0, 0.0, 1.741282607768212E9, 0.0, 2025-03-06 11:36:47.768
7.0, -34652.28940871828, -28551.9395532536, -35348.36743454545, -33718.32176665327, -5202.770853372915, -8686.379633710341, -41926.73169693133, -29081.47473114428, 0.07, 0.906, -0.404, 192.0, 0.0, 0.0, 0.0, 0.0, 0.0, 0.0, 0.0, 0.0, 0.0, 1.741282607768235E9, 0.0, 2025-03-06 11:36:47.768
8.0, -34653.00466454085, -28554.97939049952, -35345.64052172191, -33717.360641641695, -5240.455894524562, -8678.66828187326, -41921.79196140671, -29084.738085834753, 0.07, 0.906, -0.404, 192.0, 0.0, 0.0, 0.0, 0.0, 0.0, 0.0, 0.0, 0.0, 0.0, 1.741282607768253E9, 0.0, 2025-03-06 11:36:47.768
9.0, -34653.98814129688, -28552.677160820625, -35348.12156535644, -33716.35481314121, -5238.041906123389, -8670.599302124894, -41927.29049054271, -29093.924652805887, 0.07, 0.906, -0.404, 192.0, 0.0, 0.0, 0.0, 0.0, 0.0, 0.0, 0.0, 0.0, 0.0, 1.741282607768279E9, 0.0, 2025-03-06 11:36:47.768
10.0, -34662.21358325644, -28557.303971922873, -35358.403367805884, -33728.08947898024, -5202.212059761531, -8672.05216551449, -41932.20787432288, -29087.532053891668, 0.07, 0.906, -0.404, 192.0, 0.0, 0.0, 0.0, 0.0, 0.0, 0.0, 0.0, 0.0, 0.0, 1.741282607768297E9, 0.0, 2025-03-06 11:36:47.768
11.0, -34670.12610079361, -28560.70143708008, -35363.76778647516, -33731.44224064854, -5194.612466646728, -8674.063822515467, -41929.10098184359, -29070.723542061278, 0.07200000000000001, 0.898, -0.406, 192.0, 2.0, 64.0, 28.0, 16.0, 243.0, 80.0, 0.0, 0.0, 0.0, 1.741282607768316E9, 0.0, 2025-03-06 11:36:47.768
12.0, -34678.53035670881, -28563.115425481254, -35366.91938244335, -33726.524856868375, -5236.432580522607, -8679.964683051669, -41921.45668523988, -29065.023847225173, 0.07200000000000001, 0.898, -0.406, 192.0, 0.0, 0.0, 0.0, 0.0, 0.0, 0.0, 0.0, 0.0, 0.0, 1.741282607768336E9, 0.0, 2025-03-06 11:36:47.768
13.0, -34682.41956024403, -28561.282582435917, -35369.53453654463, -33722.43448763305, -5244.143932359688, -8671.828648069937, -41921.277871284234, -29082.83818755605, 0.07200000000000001, 0.898, -0.406, 192.0, 0.0, 0.0, 0.0, 0.0, 0.0, 0.0, 0.0, 0.0, 0.0, 1.741282607768355E9, 0.0, 2025-03-06 11:36:47.768
14.0, -34688.320420780234, -28569.709190095567, -35381.068036683566, -33732.64923484912, -5209.342266242775, -8675.561389393974, -41931.40321152249, -29093.857597572518, 0.07200000000000001, 0.898, -0.406, 192.0, 0.0, 0.0, 0.0, 0.0, 0.0, 0.0, 0.0, 0.0, 0.0, 1.741282607768373E9, 0.0, 2025-03-06 11:36:47.768
15.0, -34673.56826943973, -28563.22718420353, -35365.35476033149, -33725.67549057907, -5185.7611758424255, -8663.469095643652, -41923.378935263034, -29075.931498519363, 0.07200000000000001, 0.898, -0.406, 192.0, 0.0, 0.0, 0.0, 0.0, 0.0, 0.0, 0.0, 0.0, 0.0, 1.741282607768391E9, 0.0, 2025-03-06 11:36:47.768
16.0, -34676.63045843011, -28575.721809354047, -35370.227440622744, -33735.62201686168, -5226.329592028808, -8674.801430082493, -41921.836664895614, -29062.118120445983, 0.07200000000000001, 0.898, -0.406, 192.0, 0.0, 0.0, 0.0, 0.0, 0.0, 0.0, 0.0, 0.0, 0.0, 1.741282607828055E9, 0.0, 2025-03-06 11:36:47.828
17.0, -34664.26994374632, -28564.992972015498, -35359.610362006475, -33727.79890630233, -5240.8805776692125, -8671.560427136472, -41909.65496416747, -29034.670178254866, 0.07200000000000001, 0.898, -0.406, 192.0, 0.0, 0.0, 0.0, 0.0, 0.0, 0.0, 0.0, 0.0, 0.0, 1.741282607828098E9, 0.0, 2025-03-06 11:36:47.828
18.0, -34657.67617913201, -28551.9395532536, -35353.35187355898, -33717.47240036397, -5224.541452472384, -8662.105639231879, -41910.77255139024, -29060.41938786738, 0.07200000000000001, 0.898, -0.406, 192.0, 0.0, 0.0, 0.0, 0.0, 0.0, 0.0, 0.0, 0.0, 0.0, 1.741282607828116E9, 0.0, 2025-03-06 11:36:47.828
19.0, -34668.3826647261, -28556.61106784476, -35361.912591685366, -33726.07782197926, -5180.799088573348, -8665.972491022647, -41925.904682386485, -29096.47275167379, 0.07200000000000001, 0.898, -0.406, 192.0, 0.0, 0.0, 0.0, 0.0, 0.0, 0.0, 0.0, 0.0, 0.0, 1.741282607828135E9, 0.0, 2025-03-06 11:36:47.828
20.0, -34686.308763779256, -28577.733466355025, -35375.05541742509, -33745.27797046638, -5204.804862118347, -8681.10462201889, -41930.53149348873, -29089.275489959182, 0.07200000000000001, 0.898, -0.406, 192.0, 0.0, 0.0, 0.0, 0.0, 0.0, 0.0, 0.0, 0.0, 0.0, 1.741282607828154E9, 0.0, 2025-03-06 11:36:47.828
21.0, -34685.68291493451, -28573.598393630793, -35375.681266269836, -33744.74152859945, -5230.263499052942, -8693.19691576921, -41929.16803707696, -29074.903318274417, 0.074, 0.898, -0.404, 192.0, 2.0, 80.0, 28.0, 16.0, 243.0, 96.0, 0.0, 0.0, 0.0, 1.741282607828177E9, 0.0, 2025-03-06 11:36:47.828
22.0, -34677.92685960852, -28557.12515796723, -35370.6968272563, -33730.861095292705, -5213.633801178194, -8683.943293564713, -41926.61993820905, -29109.503818691235, 0.074, 0.898, -0.404, 192.0, 0.0, 0.0, 0.0, 0.0, 0.0, 0.0, 0.0, 0.0, 0.0, 1.741282607828198E9, 0.0, 2025-03-06 11:36:47.828
23.0, -34674.17176654003, -28555.940515511098, -35370.18273713383, -33731.59870285972, -5173.914751281113, -8677.126011505845, -41928.16220857647, -29100.205492997826, 0.074, 0.898, -0.404, 192.0, 0.0, 0.0, 0.0, 0.0, 0.0, 0.0, 0.0, 0.0, 0.0, 1.741282607828217E9, 0.0, 2025-03-06 11:36:47.828
24.0, -34663.71115013494, -28555.56053585536, -35356.25760033818, -33732.15749647111, -5205.318952240819, -8683.965645309168, -41921.434333495425, -29073.94219326284, 0.074, 0.898, -0.404, 192.0, 0.0, 0.0, 0.0, 0.0, 0.0, 0.0, 0.0, 0.0, 0.0, 1.741282607828246E9, 0.0, 2025-03-06 11:36:47.828
25.0, -34658.88317333259, -28553.660637576657, -35358.17985036133, -33732.604531360215, -5244.32274631533, -8694.023930314057, -41919.02034509425, -29056.7089982878, 0.074, 0.898, -0.404, 192.0, 0.0, 0.0, 0.0, 0.0, 0.0, 0.0, 0.0, 0.0, 0.0, 1.741282607828265E9, 0.0, 2025-03-06 11:36:47.828
26.0, -34652.04353952927, -28547.133928195708, -35353.173059603345, -33723.32855741126, -5233.057467109856, -8689.486526189628, -41923.06601084066, -29087.55440563612, 0.074, 0.898, -0.404, 192.0, 0.0, 0.0, 0.0, 0.0, 0.0, 0.0, 0.0, 0.0, 0.0, 1.741282607828284E9, 0.0, 2025-03-06 11:36:47.828
27.0, -34650.233048228394, -28544.1387944387, -35347.719233956246, -33710.38689737164, -5188.666902621616, -8682.691595875216, -41927.91633938746, -29088.56023413661, 0.074, 0.898, -0.404, 192.0, 0.0, 0.0, 0.0, 0.0, 0.0, 0.0, 0.0, 0.0, 0.0, 1.741282607828303E9, 0.0, 2025-03-06 11:36:47.828
28.0, -34659.01728379933, -28554.957038755067, -35350.55790550207, -33715.43839161854, -5203.55316442885, -8684.72560462065, -41924.921205630446, -29073.18223395136, 0.074, 0.898, -0.404, 192.0, 0.0, 0.0, 0.0, 0.0, 0.0, 0.0, 0.0, 0.0, 0.0, 1.741282607828321E9, 0.0, 2025-03-06 11:36:47.828
29.0, -34667.30978099225, -28561.148471969187, -35358.828050950535, -33721.54041785484, -5224.362638516741, -8683.406851697786, -41924.34006027461, -29069.04716122713, 0.074, 0.898, -0.404, 192.0, 0.0, 0.0, 0.0, 0.0, 0.0, 0.0, 0.0, 0.0, 0.0, 1.741282607828341E9, 0.0, 2025-03-06 11:36:47.828
30.0, -34677.45747297496, -28564.21066095956, -35366.27118185415, -33718.6570428201, -5218.372371002719, -8680.545828407507, -41927.893987643, -29072.399922895424, 0.074, 0.898, -0.404, 192.0, 0.0, 0.0, 0.0, 0.0, 0.0, 0.0, 0.0, 0.0, 0.0, 1.74128260782836E9, 0.0, 2025-03-06 11:36:47.828
31.0, -34682.55367071077, -28562.37781791423, -35368.1487283884, -33713.98552822894, -5183.615408374716, -8678.847095828904, -41923.15541781848, -29068.17544319337, 0.076, 0.898, -0.402, 192.0, 2.0, 96.0, 28.0, 16.0, 243.0, 112.0, 0.0, 0.0, 0.0, 1.741282607888327E9, 0.0, 2025-03-06 11:36:47.888
32.0, -34682.888946877596, -28566.08820749381, -35362.18081261883, -33710.81158051629, -5179.569742628306, -8671.605130625383, -41920.67437418394, -29076.5126438752, 0.076, 0.898, -0.402, 192.0, 0.0, 0.0, 0.0, 0.0, 0.0, 0.0, 0.0, 0.0, 0.0, 1.741282607888368E9, 0.0, 2025-03-06 11:36:47.888
33.0, -34664.60521991315, -28559.06975973484, -35349.820297935046, -33702.34026936773, -5224.764969916937, -8660.988052009112, -41908.693839155894, -29055.12202443147, 0.076, 0.898, -0.402, 192.0, 0.0, 0.0, 0.0, 0.0, 0.0, 0.0, 0.0, 0.0, 0.0, 1.741282607888387E9, 0.0, 2025-03-06 11:36:47.888
34.0, -34668.20385077046, -28563.249535947984, -35363.81248996407, -33710.69982179401, -5212.449158722063, -8668.028851512534, -41916.98633634882, -29070.500024616722, 0.076, 0.898, -0.402, 192.0, 0.0, 0.0, 0.0, 0.0, 0.0, 0.0, 0.0, 0.0, 0.0, 1.741282607888406E9, 0.0, 2025-03-06 11:36:47.888
35.0, -34660.358388466644, -28560.768492313447, -35359.2974375841, -33711.61624331668, -5187.258742720931, -8671.180447480732, -41925.05531609718, -29063.347466391024, 0.076, 0.898, -0.402, 192.0, 0.0, 0.0, 0.0, 0.0, 0.0, 0.0, 0.0, 0.0, 0.0, 1.741282607888425E9, 0.0, 2025-03-06 11:36:47.888
36.0, -34665.78986236928, -28568.36808542825, -35365.33240858703, -33715.885426507644, -5190.767966600414, -8676.209589983177, -41930.5985487221, -29071.103521717017, 0.076, 0.898, -0.402, 192.0, 0.0, 0.0, 0.0, 0.0, 0.0, 0.0, 0.0, 0.0, 0.0, 1.741282607888449E9, 0.0, 2025-03-06 11:36:47.888
37.0, -34671.847185116676, -28572.994896530497, -35371.05445516759, -33717.360641641695, -5226.933089129101, -8676.835438827926, -41933.07959235663, -29078.74781832073, 0.076, 0.898, -0.402, 192.0, 0.0, 0.0, 0.0, 0.0, 0.0, 0.0, 0.0, 0.0, 0.0, 1.741282607888468E9, 0.0, 2025-03-06 11:36:47.888
38.0, -34663.174708268016, -28561.908431280666, -35364.86302195347, -33717.651214319616, -5243.6968974705815, -8675.583741138427, -41927.022269609246, -29076.937327019852, 0.076, 0.898, -0.402, 192.0, 0.0, 0.0, 0.0, 0.0, 0.0, 0.0, 0.0, 0.0, 0.0, 1.741282607888486E9, 0.0, 2025-03-06 11:36:47.888
39.0, -34651.10476626215, -28542.305951393362, -35355.02825439313, -33704.06135369079, -5217.120673313221, -8664.832552055424, -41913.41005723597, -29064.599164080522, 0.076, 0.898, -0.402, 192.0, 0.0, 0.0, 0.0, 0.0, 0.0, 0.0, 0.0, 0.0, 0.0, 1.741282607888516E9, 0.0, 2025-03-06 11:36:47.888
40.0, -34677.81510088624, -28563.22718420353, -35383.794949507115, -33727.01659524639, -5185.850582820247, -8678.444764428707, -41925.68116494193, -29070.99176299474, 0.076, 0.898, -0.402, 192.0, 0.0, 0.0, 0.0, 0.0, 0.0, 0.0, 0.0, 0.0, 0.0, 1.741282607888535E9, 0.0, 2025-03-06 11:36:47.888
41.0, -34677.30101076377, -28572.50315815248, -35378.78815874913, -33735.48790639495, -5230.554071730861, -8676.030776027534, -41918.17097880495, -29052.931553474853, 0.074, 0.904, -0.402, 192.0, 2.0, 80.0, 28.0, 64.0, 243.0, 112.0, 0.0, 0.0, 0.0, 1.741282607888553E9, 0.0, 2025-03-06 11:36:47.888
42.0, -34656.96092330944, -28563.562460370358, -35359.811527706566, -33731.48694413745, -5237.103132856266, -8676.991901039113, -41910.21375777886, -29040.593390535523, 0.074, 0.904, -0.402, 192.0, 0.0, 0.0, 0.0, 0.0, 0.0, 0.0, 0.0, 0.0, 0.0, 1.741282607888574E9, 0.0, 2025-03-06 11:36:47.888
43.0, -34662.258286745346, -28567.406960416673, -35369.13220514443, -33737.25369420692, -5208.247030764464, -8681.395194696808, -41920.33909801711, -29057.245440154726, 0.074, 0.904, -0.402, 192.0, 0.0, 0.0, 0.0, 0.0, 0.0, 0.0, 0.0, 0.0, 0.0, 1.741282607888594E9, 0.0, 2025-03-06 11:36:47.888
44.0, -34662.54885942327, -28566.84816680529, -35371.18856563432, -33733.67741509407, -5184.084795008278, -8680.568180151962, -41926.57523472014, -29085.14041723495, 0.074, 0.904, -0.402, 192.0, 0.0, 0.0, 0.0, 0.0, 0.0, 0.0, 0.0, 0.0, 0.0, 1.741282607888612E9, 0.0, 2025-03-06 11:36:47.888
45.0, -34665.96867632493, -28580.348620456294, -35374.966010447264, -33745.65795012211, -5225.41317050614, -8685.61967439886, -41925.32353703064, -29072.869309528985, 0.074, 0.904, -0.402, 192.0, 0.0, 0.0, 0.0, 0.0, 0.0, 0.0, 0.0, 0.0, 0.0, 1.741282607888631E9, 0.0, 2025-03-06 11:36:47.888
46.0, -34668.3826647261, -28582.27087047945, -35375.59185929201, -33747.490793167446, -5251.452952796573, -8685.91024707678, -41925.59175796411, -29085.65450735742, 0.074, 0.904, -0.402, 192.0, 0.0, 0.0, 0.0, 0.0, 0.0, 0.0, 0.0, 0.0, 0.0, 1.741282607948606E9, 0.0, 2025-03-06 11:36:47.948
47.0, -34667.15331878106, -28572.726675597034, -35373.4013883354, -33735.130278483666, -5221.74748441547, -8688.748918622603, -41927.648118453995, -29108.654452401934, 0.074, 0.904, -0.402, 192.0, 0.0, 0.0, 0.0, 0.0, 0.0, 0.0, 0.0, 0.0, 0.0, 1.741282607948644E9, 0.0, 2025-03-06 11:36:47.948
48.0, -34665.432234458, -28565.66352434916, -35373.22257437975, -33734.347967427726, -5197.272324236908, -8694.873296603359, -41921.16611256196, -29081.720600333287, 0.074, 0.904, -0.402, 192.0, 0.0, 0.0, 0.0, 0.0, 0.0, 0.0, 0.0, 0.0, 0.0, 1.741282607948667E9, 0.0, 2025-03-06 11:36:47.948
49.0, -34675.17759504051, -28577.062914021364, -35379.19049014932, -33739.35475818572, -5216.584231446294, -8704.81982288597, -41920.227339294834, -29086.347411435538, 0.074, 0.904, -0.402, 192.0, 0.0, 0.0, 0.0, 0.0, 0.0, 0.0, 0.0, 0.0, 0.0, 1.741282607948685E9, 0.0, 2025-03-06 11:36:47.948
50.0, -34674.93172585151, -28584.61780364726, -35375.77067324766, -33736.449031406526, -5228.162435074143, -8694.76153788108, -41922.73073467383, -29100.429010442378, 0.074, 0.904, -0.402, 192.0, 0.0, 0.0, 0.0, 0.0, 0.0, 0.0, 0.0, 0.0, 0.0, 1.741282607948704E9, 0.0, 2025-03-06 11:36:47.948
51.0, -34665.18636526899, -28584.438989691615, -35364.59480102001, -33738.10306049622, -5219.959344859046, -8696.1026425484, -41921.41198175096, -29074.500986874224, 0.07200000000000001, 0.9, -0.40800000000000003, 192.0, 2.0, 64.0, 28.0, 32.0, 243.0, 64.0, 0.0, 0.0, 0.0, 1.741282607948723E9, 0.0, 2025-03-06 11:36:47.948
52.0, -34661.36421696714, -28580.862710578767, -35363.05253065259, -33740.89702855313, -5181.849620562747, -8694.694482647716, -41920.00382185028, -29070.09769321653, 0.07200000000000001, 0.9, -0.40800000000000003, 192.0, 0.0, 0.0, 0.0, 0.0, 0.0, 0.0, 0.0, 0.0, 0.0, 1.741282607948747E9, 0.0, 2025-03-06 11:36:47.948
53.0, -34668.695589148476, -28584.573100158348, -35365.17594637584, -33730.72698482597, -5200.222754505009, -8685.329101720941, -41919.91441487246, -29082.927594533874, 0.07200000000000001, 0.9, -0.40800000000000003, 192.0, 0.0, 0.0, 0.0, 0.0, 0.0, 0.0, 0.0, 0.0, 0.0, 1.741282607948766E9, 0.0, 2025-03-06 11:36:47.948
54.0, -34666.77333912532, -28581.89089082371, -35363.34310333051, -33726.033118490355, -5225.212004806042, -8688.033662800033, -41922.10488582908, -29075.61857409699, 0.07200000000000001, 0.9, -0.40800000000000003, 192.0, 0.0, 0.0, 0.0, 0.0, 0.0, 0.0, 0.0, 0.0, 0.0, 1.741282607948793E9, 0.0, 2025-03-06 11:36:47.948
55.0, -34665.745158880374, -28583.343754213307, -35364.72891148674, -33732.045737748835, -5220.808711148347, -8686.58079941044, -41920.2943945282, -29061.04523671213, 0.07200000000000001, 0.9, -0.40800000000000003, 192.0, 0.0, 0.0, 0.0, 0.0, 0.0, 0.0, 0.0, 0.0, 0.0, 1.741282607948812E9, 0.0, 2025-03-06 11:36:47.948
56.0, -34661.140699522584, -28576.70528611008, -35365.06418765357, -33730.72698482597, -5196.98175155899, -8685.843191843414, -41915.33230725912, -29048.483556328247, 0.07200000000000001, 0.9, -0.40800000000000003, 192.0, 0.0, 0.0, 0.0, 0.0, 0.0, 0.0, 0.0, 0.0, 0.0, 1.741282607948831E9, 0.0, 2025-03-06 11:36:47.948
57.0, -34664.627571657606, -28579.432198933628, -35362.38197831893, -33724.80377254531, -5191.50557416744, -8681.663415630272, -41920.96494686186, -29087.599109125033, 0.07200000000000001, 0.9, -0.40800000000000003, 192.0, 0.0, 0.0, 0.0, 0.0, 0.0, 0.0, 0.0, 0.0, 0.0, 1.74128260794885E9, 0.0, 2025-03-06 11:36:47.948
58.0, -34676.85397587466, -28591.479789195037, -35369.93686794482, -33733.990339516444, -5224.049714094367, -8681.506953419084, -41923.803618407685, -29069.874175771976, 0.07200000000000001, 0.9, -0.40800000000000003, 192.0, 0.0, 0.0, 0.0, 0.0, 0.0, 0.0, 0.0, 0.0, 0.0, 1.741282607948868E9, 0.0, 2025-03-06 11:36:47.948
59.0, -34675.42346422952, -28590.38455371673, -35367.83580396602, -33723.84264753373, -5229.928222886112, -8674.756726593581, -41920.11558057256, -29082.90524278942, 0.07200000000000001, 0.9, -0.40800000000000003, 192.0, 0.0, 0.0, 0.0, 0.0, 0.0, 0.0, 0.0, 0.0, 0.0, 1.741282607948891E9, 0.0, 2025-03-06 11:36:47.948
60.0, -34671.28839150529, -28582.650850135193, -35361.622019007445, -33715.0584119628, -5199.485146937985, -8666.28541544502, -41921.68020268443, -29074.344524663036, 0.07200000000000001, 0.9, -0.40800000000000003, 192.0, 0.0, 0.0, 0.0, 0.0, 0.0, 0.0, 0.0, 0.0, 0.0, 1.741282607948911E9, 0.0, 2025-03-06 11:36:47.948
61.0, -34681.413731743545, -28590.205739761084, -35366.82997546554, -33721.09338296573, -5190.276228222398, -8674.913188804769, -41925.30118528619, -29067.393132137437, 0.078, 0.9, -0.40800000000000003, 192.0, 2.0, 112.0, 28.0, 32.0, 243.0, 64.0, 0.0, 0.0, 0.0, 1.741282608008945E9, 0.0, 2025-03-06 11:36:48.008
62.0, -34679.06679857574, -28583.433161191126, -35360.95146667379, -33710.789228771835, -5221.814539648836, -8665.10077298889, -41914.17001654745, -29051.03165519615, 0.078, 0.9, -0.40800000000000003, 192.0, 0.0, 0.0, 0.0, 0.0, 0.0, 0.0, 0.0, 0.0, 0.0, 1.741282608008984E9, 0.0, 2025-03-06 11:36:48.008
63.0, -34680.09497882068, -28584.014306546964, -35366.71821674326, -33720.802810287816, -5223.356810016252, -8669.19114222421, -41917.47807472683, -29050.763434262688, 0.078, 0.9, -0.40800000000000003, 192.0, 0.0, 0.0, 0.0, 0.0, 0.0, 0.0, 0.0, 0.0, 0.0, 1.741282608009018E9, 0.0, 2025-03-06 11:36:48.009
64.0, -34669.54495543778, -28576.16884424315, -35362.15846087438, -33722.56859809978, -5196.400606203152, -8673.169752737254, -41924.74239167481, -29072.064646728595, 0.078, 0.9, -0.40800000000000003, 192.0, 0.0, 0.0, 0.0, 0.0, 0.0, 0.0, 0.0, 0.0, 0.0, 1.741282608009036E9, 0.0, 2025-03-06 11:36:48.009
65.0, -34663.48763269039, -28571.139701740707, -35358.31396082806, -33722.68035682206, -5183.302483952342, -8677.081308016934, -41922.283699784726, -29074.948021763328, 0.078, 0.9, -0.40800000000000003, 192.0, 0.0, 0.0, 0.0, 0.0, 0.0, 0.0, 0.0, 0.0, 0.0, 1.741282608009055E9, 0.0, 2025-03-06 11:36:48.009
66.0, -34658.704359376956, -28566.8928702942, -35354.55886775957, -33720.48988586544, -5230.889347897691, -8677.126011505845, -41915.0417345812, -29053.244477897228, 0.078, 0.9, -0.40800000000000003, 192.0, 0.0, 0.0, 0.0, 0.0, 0.0, 0.0, 0.0, 0.0, 0.0, 1.741282608009074E9, 0.0, 2025-03-06 11:36:48.009
67.0, -34661.81125185624, -28563.65186734818, -35356.347007316, -33718.32176665327, -5240.344135802286, -8674.443802171207, -41916.02521133723, -29064.5097571027, 0.078, 0.9, -0.40800000000000003, 192.0, 0.0, 0.0, 0.0, 0.0, 0.0, 0.0, 0.0, 0.0, 0.0, 1.741282608009096E9, 0.0, 2025-03-06 11:36:48.009
68.0, -34652.66938837402, -28552.028960231422, -35349.21680083475, -33718.79115328684, -5207.330609241797, -8670.822819569448, -41920.40615325048, -29062.811024524097, 0.078, 0.9, -0.40800000000000003, 192.0, 0.0, 0.0, 0.0, 0.0, 0.0, 0.0, 0.0, 0.0, 0.0, 1.741282608009115E9, 0.0, 2025-03-06 11:36:48.009
69.0, -34657.653827387556, -28558.108634723263, -35359.54330677311, -33731.48694413745, -5171.88074253568, -8681.931636563735, -41933.7501446903, -29065.537937347646, 0.078, 0.9, -0.40800000000000003, 192.0, 0.0, 0.0, 0.0, 0.0, 0.0, 0.0, 0.0, 0.0, 0.0, 1.741282608009135E9, 0.0, 2025-03-06 11:36:48.009
70.0, -34661.38656871159, -28564.769454570946, -35362.15846087438, -33731.688109837545, -5211.018647076923, -8684.882066831835, -41937.661699969976, -29070.90235601692, 0.078, 0.9, -0.40800000000000003, 192.0, 0.0, 0.0, 0.0, 0.0, 0.0, 0.0, 0.0, 0.0, 0.0, 1.741282608009165E9, 0.0, 2025-03-06 11:36:48.009
71.0, -34658.99493205487, -28557.79571030089, -35355.43058579333, -33715.192522429534, -5225.994315861978, -8663.290281688009, -41933.63838596802, -29079.060742743106, 0.08, 0.9, -0.406, 192.0, 2.0, 128.0, 28.0, 32.0, 243.0, 80.0, 0.0, 0.0, 0.0, 1.741282608009184E9, 0.0, 2025-03-06 11:36:48.009
72.0, -34655.73157736439, -28555.068797477343, -35355.92232417135, -33720.48988586544, -5212.516213955429, -8668.542941635007, -41931.82789466714, -29037.151221889406, 0.08, 0.9, -0.406, 192.0, 0.0, 0.0, 0.0, 0.0, 0.0, 0.0, 0.0, 0.0, 0.0, 1.741282608009205E9, 0.0, 2025-03-06 11:36:48.009
73.0, -34653.04936802976, -28553.817099787844, -35355.9446759158, -33725.5637318568, -5182.497821151951, -8671.67218585875, -41931.067935355655, -29069.09186471604, 0.08, 0.9, -0.406, 192.0, 0.0, 0.0, 0.0, 0.0, 0.0, 0.0, 0.0, 0.0, 0.0, 1.741282608009223E9, 0.0, 2025-03-06 11:36:48.009
74.0, -34666.0804350472, -28567.474015650037, -35368.10402489949, -33735.64436860614, -5194.388949202174, -8690.268837245565, -41946.55769426319, -29101.7701151097, 0.08, 0.9, -0.406, 192.0, 0.0, 0.0, 0.0, 0.0, 0.0, 0.0, 0.0, 0.0, 0.0, 1.741282608009242E9, 0.0, 2025-03-06 11:36:48.009
75.0, -34670.014342071336, -28573.93366979762, -35377.08942617052, -33744.897990810634, -5228.98944961899, -8702.025854829057, -41952.883237944035, -29100.496065675747, 0.08, 0.9, -0.406, 192.0, 0.0, 0.0, 0.0, 0.0, 0.0, 0.0, 0.0, 0.0, 0.0, 1.741282608009261E9, 0.0, 2025-03-06 11:36:48.009
76.0, -34674.59644968468, -28578.51577741096, -35384.689019285324, -33752.452880436525, -5223.110940827244, -8706.876183375858, -41953.41967981096, -29080.93828927735, 0.08, 0.9, -0.406, 192.0, 0.0, 0.0, 0.0, 0.0, 0.0, 0.0, 0.0, 0.0, 0.0, 1.741282608069096E9, 0.0, 2025-03-06 11:36:48.069
77.0, -34667.37683622561, -28573.08430350832, -35378.0505511821, -33745.59089488875, -5193.2713619794085, -8702.741110651627, -41951.273912343255, -29116.76813563921, 0.08, 0.9, -0.406, 192.0, 0.0, 0.0, 0.0, 0.0, 0.0, 0.0, 0.0, 0.0, 0.0, 1.741282608069132E9, 0.0, 2025-03-06 11:36:48.069
78.0, -34657.653827387556, -28566.445835405095, -35360.90676318488, -33724.490848122936, -5204.536641184884, -8685.731433121138, -41929.59272022161, -29092.404734182925, 0.08, 0.9, -0.406, 192.0, 0.0, 0.0, 0.0, 0.0, 0.0, 0.0, 0.0, 0.0, 0.0, 1.74128260806916E9, 0.0, 2025-03-06 11:36:48.069
79.0, -34659.3302082217, -28571.162053485165, -35359.096271884, -33724.37908940066, -5229.414132763641, -8687.273703488554, -41921.501388728786, -29079.641888098944, 0.08, 0.9, -0.406, 192.0, 0.0, 0.0, 0.0, 0.0, 0.0, 0.0, 0.0, 0.0, 0.0, 1.741282608069178E9, 0.0, 2025-03-06 11:36:48.069
80.0, -34663.442929201476, -28569.955059284577, -35362.85136495249, -33728.58121735826, -5211.778606388403, -8684.233866242632, -41917.3439642601, -29065.113254202995, 0.08, 0.9, -0.406, 192.0, 0.0, 0.0, 0.0, 0.0, 0.0, 0.0, 0.0, 0.0, 0.0, 1.741282608069197E9, 0.0, 2025-03-06 11:36:48.069
81.0, -34663.71115013494, -28563.383646414717, -35364.01365566417, -33722.56859809978, -5177.133402482677, -8672.47684865914, -41924.921205630446, -29078.65841134291, 0.078, 0.898, -0.404, 192.0, 2.0, 112.0, 28.0, 16.0, 243.0, 96.0, 0.0, 0.0, 0.0, 1.741282608069217E9, 0.0, 2025-03-06 11:36:48.069
82.0, -34668.42736821501, -28569.910355795666, -35362.38197831893, -33720.40047888762, -5178.988597272468, -8672.253331214588, -41927.581063220634, -29084.626327112477, 0.078, 0.898, -0.404, 192.0, 0.0, 0.0, 0.0, 0.0, 0.0, 0.0, 0.0, 0.0, 0.0, 1.741282608069266E9, 0.0, 2025-03-06 11:36:48.069
83.0, -34678.53035670881, -28579.812178589367, -35368.416949321865, -33732.78334531586, -5216.383065746197, -8683.920941820257, -41929.950348132894, -29060.262925656192, 0.078, 0.898, -0.404, 192.0, 0.0, 0.0, 0.0, 0.0, 0.0, 0.0, 0.0, 0.0, 0.0, 1.741282608069284E9, 0.0, 2025-03-06 11:36:48.069
84.0, -34668.04738855927, -28571.296163951894, -35359.610362006475, -33724.82612428977, -5228.005972862956, -8677.930674306235, -41927.33519403162, -29058.31832388858, 0.078, 0.898, -0.404, 192.0, 0.0, 0.0, 0.0, 0.0, 0.0, 0.0, 0.0, 0.0, 0.0, 1.741282608069303E9, 0.0, 2025-03-06 11:36:48.069
85.0, -34658.19026925448, -28566.803463316377, -35356.458766038275, -33720.087554465244, -5183.414242674618, -8680.545828407507, -41931.78319117823, -29074.143358962938, 0.078, 0.898, -0.404, 192.0, 0.0, 0.0, 0.0, 0.0, 0.0, 0.0, 0.0, 0.0, 0.0, 1.741282608069329E9, 0.0, 2025-03-06 11:36:48.069
86.0, -34646.67912086, -28564.45653014857, -35347.96510314526, -33710.87863574966, -5179.480335650484, -8670.755764336081, -41924.54122597471, -29055.390245364935, 0.078, 0.898, -0.404, 192.0, 0.0, 0.0, 0.0, 0.0, 0.0, 0.0, 0.0, 0.0, 0.0, 1.741282608069348E9, 0.0, 2025-03-06 11:36:48.069
87.0, -34650.031882528296, -28570.0444662624, -35346.78046068912, -33706.609452558696, -5210.7057226545485, -8670.889874802813, -41920.00382185028, -29045.689588271332, 0.078, 0.898, -0.404, 192.0, 0.0, 0.0, 0.0, 0.0, 0.0, 0.0, 0.0, 0.0, 0.0, 1.741282608069367E9, 0.0, 2025-03-06 11:36:48.069
88.0, -34662.325341978714, -28577.398190188193, -35358.828050950535, -33720.69105156554, -5208.716417398026, -8673.61678762636, -41924.652984696986, -29053.84797499752, 0.078, 0.898, -0.404, 192.0, 0.0, 0.0, 0.0, 0.0, 0.0, 0.0, 0.0, 0.0, 0.0, 1.741282608069386E9, 0.0, 2025-03-06 11:36:48.069
89.0, -34659.41961519952, -28567.541070883402, -35358.35866431698, -33720.60164458772, -5185.35884444223, -8670.442839913707, -41922.261348040265, -29037.687663756333, 0.078, 0.898, -0.404, 192.0, 0.0, 0.0, 0.0, 0.0, 0.0, 0.0, 0.0, 0.0, 0.0, 1.741282608069405E9, 0.0, 2025-03-06 11:36:48.069
90.0, -34664.00172281286, -28565.864690049257, -35364.43833880882, -33712.91264449509, -5169.31029192332, -8670.800467824993, -41921.74725791779, -29048.617666794977, 0.078, 0.898, -0.404, 192.0, 0.0, 0.0, 0.0, 0.0, 0.0, 0.0, 0.0, 0.0, 0.0, 1.741282608069424E9, 0.0, 2025-03-06 11:36:48.069
91.0, -34671.7354263944, -28579.342791955805, -35367.14289988791, -33716.935958497044, -5189.31510321082, -8680.612883640872, -41928.78805742122, -29053.89267848643, 0.074, 0.904, -0.406, 192.0, 2.0, 80.0, 28.0, 64.0, 243.0, 80.0, 0.0, 0.0, 0.0, 1.741282608128574E9, 0.0, 2025-03-06 11:36:48.128
92.0, -34667.37683622561, -28579.767475100456, -35366.42764406534, -33717.31593815279, -5205.788338874381, -8680.255255729588, -41931.224397566846, -29050.495213329224, 0.074, 0.904, -0.406, 192.0, 0.0, 0.0, 0.0, 0.0, 0.0, 0.0, 0.0, 0.0, 0.0, 1.741282608128608E9, 0.0, 2025-03-06 11:36:48.128
93.0, -34664.71697863543, -28576.861748321266, -35367.58993477702, -33720.802810287816, -5193.383120701686, -8683.652720886794, -41935.73944994682, -29052.59627730802, 0.074, 0.904, -0.406, 192.0, 0.0, 0.0, 0.0, 0.0, 0.0, 0.0, 0.0, 0.0, 0.0, 1.741282608128634E9, 0.0, 2025-03-06 11:36:48.128
94.0, -34663.48763269039, -28574.000725030986, -35362.78430971912, -33722.83681903325, -5175.1217454817, -8685.351453465397, -41935.650042969, -29038.246457367713, 0.074, 0.904, -0.406, 192.0, 0.0, 0.0, 0.0, 0.0, 0.0, 0.0, 0.0, 0.0, 0.0, 1.741282608128653E9, 0.0, 2025-03-06 11:36:48.128
95.0, -34664.91814433553, -28580.683896623123, -35362.113757385465, -33723.239150433445, -5208.895231353668, -8677.997729539602, -41934.68891795742, -29052.17159416337, 0.074, 0.904, -0.406, 192.0, 0.0, 0.0, 0.0, 0.0, 0.0, 0.0, 0.0, 0.0, 0.0, 1.741282608128671E9, 0.0, 2025-03-06 11:36:48.128
96.0, -34664.3817024686, -28580.75095185649, -35365.98060917624, -33725.8096010458, -5229.324725785819, -8674.421450426753, -41933.928958645934, -29051.70220752981, 0.074, 0.904, -0.406, 192.0, 0.0, 0.0, 0.0, 0.0, 0.0, 0.0, 0.0, 0.0, 0.0, 1.741282608128689E9, 0.0, 2025-03-06 11:36:48.128
97.0, -34663.06294954574, -28571.83260581882, -35371.56854529006, -33729.654101092114, -5208.917583098124, -8680.009386540578, -41933.01253712327, -29049.198812150815, 0.074, 0.904, -0.406, 192.0, 0.0, 0.0, 0.0, 0.0, 0.0, 0.0, 0.0, 0.0, 0.0, 1.741282608128708E9, 0.0, 2025-03-06 11:36:48.128
98.0, -34655.66452213103, -28563.204832459072, -35366.13707138742, -33720.44518237653, -5178.429803661085, -8679.227075484643, -41930.55384523319, -29054.56323082009, 0.074, 0.904, -0.406, 192.0, 0.0, 0.0, 0.0, 0.0, 0.0, 0.0, 0.0, 0.0, 0.0, 1.741282608128731E9, 0.0, 2025-03-06 11:36:48.128
99.0, -34666.0804350472, -28573.397227930694, -35376.307115114585, -33728.24594119143, -5194.701873624548, -8686.223171499154, -41938.80163893719, -29057.89364074393, 0.074, 0.904, -0.406, 192.0, 0.0, 0.0, 0.0, 0.0, 0.0, 0.0, 0.0, 0.0, 0.0, 1.741282608128749E9, 0.0, 2025-03-06 11:36:48.128
100.0, -34665.07460654672, -28575.900623309688, -35375.43539708083, -33733.27508369387, -5227.89421414068, -8678.869447573357, -41930.55384523319, -29066.74493154823, 0.074, 0.904, -0.406, 192.0, 0.0, 0.0, 0.0, 0.0, 0.0, 0.0, 0.0, 0.0, 0.0, 1.741282608128777E9, 0.0, 2025-03-06 11:36:48.128
101.0, -34661.4312722005, -28585.109542025275, -35372.104987156985, -33741.88050530917, -5221.41220824864, -8683.742127864614, -41933.81719992366, -29043.6555795259, 0.08, 0.898, -0.40800000000000003, 192.0, 2.0, 128.0, 28.0, 16.0, 243.0, 64.0, 0.0, 0.0, 0.0, 1.741282608128796E9, 0.0, 2025-03-06 11:36:48.128
102.0, -34659.106690777146, -28585.936556570123, -35374.85425172499, -33744.67447336608, -5184.97886478649, -8709.893668877325, -41939.114563359566, -29023.002567649197, 0.08, 0.898, -0.40800000000000003, 192.0, 0.0, 0.0, 0.0, 0.0, 0.0, 0.0, 0.0, 0.0, 0.0, 1.741282608128816E9, 0.0, 2025-03-06 11:36:48.128
103.0, -34658.547897165765, -28582.717905368558, -35366.8970306989, -33728.1118307247, -5192.399643945652, -8699.477755961152, -41944.143705862014, -29089.074324259083, 0.08, 0.898, -0.40800000000000003, 192.0, 0.0, 0.0, 0.0, 0.0, 0.0, 0.0, 0.0, 0.0, 0.0, 1.741282608128835E9, 0.0, 2025-03-06 11:36:48.128
104.0, -34659.889001833086, -28581.153283256685, -35362.02435040764, -33723.55207485582, -5226.217833306531, -8685.843191843414, -41937.41583078096, -29069.918879260884, 0.08, 0.898, -0.40800000000000003, 192.0, 0.0, 0.0, 0.0, 0.0, 0.0, 0.0, 0.0, 0.0, 0.0, 1.741282608128854E9, 0.0, 2025-03-06 11:36:48.128
105.0, -34660.939533822486, -28580.03569603392, -35363.588972519516, -33728.15653421361, -5221.8592431377465, -8683.451555186695, -41933.9960138793, -29086.481521902268, 0.08, 0.898, -0.40800000000000003, 192.0, 0.0, 0.0, 0.0, 0.0, 0.0, 0.0, 0.0, 0.0, 0.0, 1.741282608128877E9, 0.0, 2025-03-06 11:36:48.128
106.0, -34660.98423731139, -28574.26894596445, -35362.18081261883, -33718.43352537555, -5176.239332704465, -8672.85682831488, -41928.45278125439, -29084.738085834753, 0.08, 0.898, -0.40800000000000003, 192.0, 0.0, 0.0, 0.0, 0.0, 0.0, 0.0, 0.0, 0.0, 0.0, 1.741282608128897E9, 0.0, 2025-03-06 11:36:48.128
107.0, -34664.71697863543, -28582.159111757173, -35368.3498940885, -33726.457801635006, -5184.621236875205, -8690.313540734476, -41934.68891795742, -29080.75947532171, 0.08, 0.898, -0.40800000000000003, 192.0, 0.0, 0.0, 0.0, 0.0, 0.0, 0.0, 0.0, 0.0, 0.0, 1.741282608189174E9, 0.0, 2025-03-06 11:36:48.189
108.0, -34661.72184487842, -28587.45647519308, -35366.40529232089, -33732.49277263794, -5221.8592431377465, -8692.951046580201, -41939.40513603749, -29076.691457830842, 0.08, 0.898, -0.40800000000000003, 192.0, 0.0, 0.0, 0.0, 0.0, 0.0, 0.0, 0.0, 0.0, 0.0, 1.741282608189207E9, 0.0, 2025-03-06 11:36:48.189
109.0, -34657.96675180993, -28586.65181239269, -35364.23717310872, -33732.604531360215, -5224.273231538919, -8684.747956365103, -41938.891045915014, -29063.99566698023, 0.08, 0.898, -0.40800000000000003, 192.0, 0.0, 0.0, 0.0, 0.0, 0.0, 0.0, 0.0, 0.0, 0.0, 1.741282608189233E9, 0.0, 2025-03-06 11:36:48.189
110.0, -34648.31079820523, -28569.79859707339, -35355.43058579333, -33714.0078799734, -5188.801013088348, -8669.124086990843, -41929.27979579924, -29038.782899234644, 0.08, 0.898, -0.40800000000000003, 192.0, 0.0, 0.0, 0.0, 0.0, 0.0, 0.0, 0.0, 0.0, 0.0, 1.741282608189252E9, 0.0, 2025-03-06 11:36:48.189
111.0, -34659.41961519952, -28573.33017269733, -35361.30909458508, -33716.041888718835, -5169.779678556881, -8678.690633617716, -41931.62672896704, -29058.36302737749, 0.07200000000000001, 0.898, -0.41400000000000003, 192.0, 2.0, 64.0, 28.0, 16.0, 243.0, 16.0, 0.0, 0.0, 0.0, 1.74128260818927E9, 0.0, 2025-03-06 11:36:48.189
112.0, -34675.28935376279, -28582.38262920173, -35369.82510922255, -33717.070068963774, -5215.712513412537, -8673.52738064854, -41939.82981918214, -29097.143304007448, 0.07200000000000001, 0.898, -0.41400000000000003, 192.0, 0.0, 0.0, 0.0, 0.0, 0.0, 0.0, 0.0, 0.0, 0.0, 1.74128260818929E9, 0.0, 2025-03-06 11:36:48.189
113.0, -34675.87049911863, -28574.33600119782, -35368.77457723315, -33715.416039874086, -5220.831062892802, -8662.28445318752, -41936.27589181375, -29079.731295076766, 0.07200000000000001, 0.898, -0.41400000000000003, 192.0, 0.0, 0.0, 0.0, 0.0, 0.0, 0.0, 0.0, 0.0, 0.0, 1.741282608189312E9, 0.0, 2025-03-06 11:36:48.189
114.0, -34670.774301382815, -28567.831643561323, -35365.6453330094, -33718.72409805347, -5176.395794915652, -8664.296110188498, -41935.694746457906, -29068.577774593567, 0.07200000000000001, 0.898, -0.41400000000000003, 192.0, 0.0, 0.0, 0.0, 0.0, 0.0, 0.0, 0.0, 0.0, 0.0, 1.741282608189331E9, 0.0, 2025-03-06 11:36:48.189
115.0, -34658.39143495458, -28562.064893491854, -35355.56469626006, -33711.43742936104, -5171.232541946476, -8663.089115987912, -41932.96783363436, -29054.56323082009, 0.07200000000000001, 0.898, -0.41400000000000003, 192.0, 0.0, 0.0, 0.0, 0.0, 0.0, 0.0, 0.0, 0.0, 0.0, 1.74128260818935E9, 0.0, 2025-03-06 11:36:48.189
116.0, -34640.53239113479, -28552.252477675975, -35336.29749253958, -33701.24503388942, -5217.768873902425, -8649.119275703344, -41922.753086418285, -29045.063739426583, 0.07200000000000001, 0.898, -0.41400000000000003, 192.0, 0.0, 0.0, 0.0, 0.0, 0.0, 0.0, 0.0, 0.0, 0.0, 1.741282608189376E9, 0.0, 2025-03-06 11:36:48.189
117.0, -34642.29817894676, -28551.045483475387, -35336.83393440652, -33704.82131300227, -5218.215908791532, -8658.95404326368, -41920.56261546166, -29029.082242141038, 0.07200000000000001, 0.898, -0.41400000000000003, 192.0, 0.0, 0.0, 0.0, 0.0, 0.0, 0.0, 0.0, 0.0, 0.0, 1.741282608189394E9, 0.0, 2025-03-06 11:36:48.189
118.0, -34642.56639988022, -28541.747157781978, -35339.270274552146, -33705.73773452493, -5200.535678927384, -8667.917092790258, -41915.15349330348, -29029.909256685885, 0.07200000000000001, 0.898, -0.41400000000000003, 192.0, 0.0, 0.0, 0.0, 0.0, 0.0, 0.0, 0.0, 0.0, 0.0, 1.741282608189413E9, 0.0, 2025-03-06 11:36:48.189
119.0, -34639.5265626343, -28528.246704130976, -35331.26835003714, -33692.77372274086, -5174.540600125862, -8658.216435696655, -41914.5946996921, -29053.870326741973, 0.07200000000000001, 0.898, -0.41400000000000003, 192.0, 0.0, 0.0, 0.0, 0.0, 0.0, 0.0, 0.0, 0.0, 0.0, 1.741282608189432E9, 0.0, 2025-03-06 11:36:48.189
120.0, -34640.19711496796, -28525.922122707623, -35321.433582476806, -33688.19161512752, -5207.777644130903, -8655.914206017758, -41908.53737694471, -29053.110367430494, 0.07200000000000001, 0.898, -0.41400000000000003, 192.0, 0.0, 0.0, 0.0, 0.0, 0.0, 0.0, 0.0, 0.0, 0.0, 1.74128260818945E9, 0.0, 2025-03-06 11:36:48.189
121.0, -34646.41089992654, -28528.246704130976, -35330.53074247012, -33696.61822278717, -5216.830100635302, -8661.122162475844, -41913.23124328032, -29030.244532852714, 0.074, 0.898, -0.41200000000000003, 192.0, 2.0, 80.0, 28.0, 16.0, 243.0, 32.0, 0.0, 0.0, 0.0, 1.74128260818947E9, 0.0, 2025-03-06 11:36:48.189
122.0, -34656.804461098254, -28535.376910612216, -35343.96414088776, -33715.28192940735, -5201.161527772132, -8677.438935928218, -41923.91537712996, -29030.26688459717, 0.074, 0.898, -0.41200000000000003, 192.0, 0.0, 0.0, 0.0, 0.0, 0.0, 0.0, 0.0, 0.0, 0.0, 1.741282608249525E9, 0.0, 2025-03-06 11:36:48.249
123.0, -34636.889056788576, -28514.947416180064, -35322.66292842185, -33698.71928676597, -5190.432690433585, -8670.688709102717, -41913.56651944715, -29044.79551849312, 0.074, 0.898, -0.41200000000000003, 192.0, 0.0, 0.0, 0.0, 0.0, 0.0, 0.0, 0.0, 0.0, 0.0, 1.741282608249562E9, 0.0, 2025-03-06 11:36:48.249
124.0, -34640.33122543469, -28514.612140013236, -35321.94767259928, -33694.67362101956, -5209.208155776043, -8673.750898093092, -41915.01938283675, -29031.496230542212, 0.074, 0.898, -0.41200000000000003, 192.0, 0.0, 0.0, 0.0, 0.0, 0.0, 0.0, 0.0, 0.0, 0.0, 1.741282608249589E9, 0.0, 2025-03-06 11:36:48.249
125.0, -34647.26026621584, -28521.31766334983, -35329.30139652507, -33702.58613855674, -5235.60556597776, -8679.987034796124, -41915.95815610387, -29047.164803405383, 0.074, 0.898, -0.41200000000000003, 192.0, 0.0, 0.0, 0.0, 0.0, 0.0, 0.0, 0.0, 0.0, 0.0, 1.741282608249609E9, 0.0, 2025-03-06 11:36:48.249
126.0, -34634.787992809775, -28512.46637254553, -35317.454971963765, -33698.8533972327, -5228.363600774241, -8670.889874802813, -41914.28177526972, -29056.105501187507, 0.074, 0.898, -0.41200000000000003, 192.0, 0.0, 0.0, 0.0, 0.0, 0.0, 0.0, 0.0, 0.0, 0.0, 1.741282608249628E9, 0.0, 2025-03-06 11:36:48.249
127.0, -34640.68885334598, -28515.30504409135, -35330.8883703814, -33715.48309510745, -5190.812670089325, -8682.736299364125, -41921.3449265176, -29055.613762809488, 0.074, 0.898, -0.41200000000000003, 192.0, 0.0, 0.0, 0.0, 0.0, 0.0, 0.0, 0.0, 0.0, 0.0, 1.741282608249647E9, 0.0, 2025-03-06 11:36:48.249
