%OpenBCI Raw EXG Data
%Number of channels = 16
%Sample Rate = 125 Hz
%Board = OpenBCI_GUI$BoardCytonSerialDaisy
Sample Index, EXG Channel 0, EXG Channel 1, EXG Channel 2, EXG Channel 3, EXG Channel 4, EXG Channel 5, EXG Channel 6, EXG Channel 7, EXG Channel 8, EXG Channel 9, EXG Channel 10, EXG Channel 11, EXG Channel 12, EXG Channel 13, EXG Channel 14, EXG Channel 15, Accel Channel 0, Accel Channel 1, Accel Channel 2, Not Used, Digital Channel 0 (D11), Digital Channel 1 (D12), Digital Channel 2 (D13), Digital Channel 3 (D17), Not Used, Digital Channel 4 (D18), Analog Channel 0, Analog Channel 1, Analog Channel 2, Timestamp, Marker Channel, Timestamp (Formatted)
0.0, -23937.399558711, 356.1079926619521, 11123.39033167247, 5297.43049114114, 8223.25148859638, 15518.682064852961, -7591.770004245044, 10141.992287873303, 0.0, 0.0, 0.0, 0.0, 0.0, 0.0, 0.0, 0.0, 0.0, 0.0, 0.0, 192.0, 0.0, 0.0, 0.0, 0.0, 0.0, 0.0, 0.0, 0.0, 0.0, 1.745267706871227E9, 0.0, 2025-04-21 15:35:06.871
242.0, -23926.223686483347, 364.0428619435861, 11131.995753287763, 5309.053398257899, 8224.950221174982, 15520.224335220379, -7589.534829799513, 10143.445151262898, 12577.036032323365, -14188.417993595362, -13509.550810998775, 45369.54854363782, -3837.012211920287, 6745.398848700386, 10954.433495334804, -187500.02235174447, 0.0, 0.0, 0.0, 192.0, 0.0, 0.0, 0.0, 0.0, 0.0, 0.0, 0.0, 0.0, 0.0, 1.745267706871517E9, 0.0, 2025-04-21 15:35:06.871
244.0, -23933.532706920232, 361.27124563112807, 11125.290229951172, 5309.634543613737, 8210.667456468042, 15520.604314876118, -7612.22185042165, 10128.938869111404, 12573.191532277053, -14187.099240672498, -13510.154308099069, 45374.55533439581, -3845.841150980133, 6744.884758577915, 10949.806684232555, -187500.02235174447, -0.006, 0.972, -0.138, 192.0, 127.5, 104.0, 15.0, 48.0, 125.5, 88.0, 0.0, 0.0, 0.0, 1.745267706871779E9, 0.0, 2025-04-21 15:35:06.871
246.0, -23925.35196844959, 365.5851323110023, 11132.733360854789, 5314.060189015889, 8216.076578626225, 15519.30791369771, -7595.279228124527, 10133.632735447018, 12567.268319996396, -14184.774659249148, -13509.796680187785, 45440.381221816686, -3850.3785551045607, 6745.823531845037, 10947.459751064749, -187500.02235174447, -0.006, 0.972, -0.138, 192.0, 0.0, 0.0, 0.0, 0.0, 0.0, 0.0, 0.0, 0.0, 0.0, 1.745267706872078E9, 0.0, 2025-04-21 15:35:06.872
248.0, -23924.413195182467, 365.71924277773417, 11130.095855009062, 5310.036875013933, 8205.928886643516, 15515.038730506747, -7610.590173076413, 10122.970953341837, 12563.759096116913, -14182.226560381241, -13503.739357440396, 45433.34042231327, -3852.1666946609853, 6739.47563641973, 10948.376172587416, -187500.02235174447, -0.006, 0.972, -0.138, 192.0, 0.0, 0.0, 0.0, 0.0, 0.0, 0.0, 0.0, 0.0, 0.0, 1.745267706872313E9, 0.0, 2025-04-21 15:35:06.872
250.0, -23934.136204020528, 357.73967000718955, 11120.417549659915, 5301.967895265567, 8197.56933421723, 15513.049425250225, -7619.1061877138845, 10116.935982338904, 12568.877645597178, -14185.668729027358, -13501.86181090615, 45465.482230839996, -3850.065630682186, 6740.883796320414, 10939.591937016481, -187500.02235174447, -0.006, 0.972, -0.138, 192.0, 0.0, 0.0, 0.0, 0.0, 0.0, 0.0, 0.0, 0.0, 0.0, 1.745267706872564E9, 0.0, 2025-04-21 15:35:06.872
252.0, -23947.368436738067, 341.57935876600254, 11109.398139643448, 5292.133127705232, 8190.036796335793, 15505.44983213542, -7619.7543883030885, 10106.587124656096, 12544.603651118714, -14206.589961837526, -13526.091101895703, 45431.03819263437, -3869.7351658028565, 6720.946040266281, 10918.715407695223, -187500.02235174447, -0.006, 0.972, -0.138, 192.0, 0.0, 0.0, 0.0, 0.0, 0.0, 0.0, 0.0, 0.0, 0.0, 1.745267706872816E9, 0.0, 2025-04-21 15:35:06.872
254.0, -23947.860175116086, 339.6347569983908, 11111.454500133337, 5290.255581170986, 8194.797717904774, 15506.343901913633, -7608.802033519988, 10113.538517181698, 12548.381095931662, -14206.277037415151, -13521.19606985999, 45437.162570615124, -3861.1520959320187, 6724.589374612496, 10923.878660664399, -187500.02235174447, -0.006, 0.976, -0.134, 192.0, 127.5, 104.0, 15.0, 64.0, 125.5, 104.0, 0.0, 0.0, 0.0, 1.745267706873048E9, 0.0, 2025-04-21 15:35:06.873
0.0, -23959.438378743933, 328.5035882596479, 11103.541982596158, 5282.700691545092, 8184.940598599983, 15497.06792796468, -7621.453120881692, 10106.922400822927, 12537.741665570935, -14218.43638639884, -13536.127035156136, 45415.011991859916, -3869.5116483583033, 6703.891659246881, 10908.321846523506, -187500.02235174447, -0.006, 0.976, -0.134, 192.0, 0.0, 0.0, 0.0, 0.0, 0.0, 0.0, 0.0, 0.0, 0.0, 1.745267706873323E9, 0.0, 2025-04-21 15:35:06.873
0.0, -11994.191943906779, 170.05207181597612, 5534.694258534224, 2482.1835735063046, 4138.91722427812, 7858.046335941117, -3761.239798216796, 5121.768131466882, 6272.637101726187, -7104.010236741333, -6763.771982642649, 22713.73095676076, -1927.9273662480555, 3357.1202584648445, 5462.542827432493, -93750.01117587223, -0.006, 0.976, -0.134, 192.0, 0.0, 0.0, 15.0, 64.0, 125.5, 104.0, 0.0, 0.0, 0.0, 1.745267707026574E9, 0.0, 2025-04-21 15:35:07.026
2.0, -23998.151600140525, 333.35391680644955, 11064.00174665472, 4966.334100524677, 8275.286349688335, 15722.239401607443, -7520.825567343899, 10243.782132122771, 12370.34945134514, -14113.517297925628, -13431.811443783217, 45900.51423317364, -3895.618485882102, 6692.9616562082365, 10961.541350071591, -187500.02235174447, -0.006, 0.976, -0.134, 192.0, 0.0, 0.0, 0.0, 0.0, 0.0, 0.0, 0.0, 0.0, 0.0, 1.745267707026887E9, 0.0, 2025-04-21 15:35:07.026
4.0, -24000.923216452982, 328.3024225595501, 11059.754915208212, 4969.217475559411, 8274.906370032593, 15719.40073006162, -7521.6749336332, 10248.07366705819, 12365.700288498438, -14127.956524843756, -13437.667600830508, 45868.41712813582, -3895.3726166930937, 6694.168650408823, 10960.714335526745, -187500.02235174447, -0.006, 0.976, -0.134, 192.0, 0.0, 0.0, 0.0, 0.0, 0.0, 0.0, 0.0, 0.0, 0.0, 1.745267707027144E9, 0.0, 2025-04-21 15:35:07.027
6.0, -24010.60152180213, 318.15473057684073, 11042.23114755525, 4965.909417380026, 8267.038555984325, 15709.588314245739, -7521.026733043997, 10249.638289170061, 12358.346564572641, -14125.631943420405, -13447.5247201353, 45895.68625637129, -3911.8905558455654, 6695.84503124297, 10957.071001180531, -187500.02235174447, -0.006, 0.976, -0.134, 192.0, 0.0, 0.0, 0.0, 0.0, 0.0, 0.0, 0.0, 0.0, 0.0, 1.745267707027428E9, 0.0, 2025-04-21 15:35:07.027
8.0, -23997.88337920706, 332.68336447279034, 11046.634441212946, 4983.164964099523, 8270.994814752914, 15728.520241799384, -7514.924706807698, 10250.621765926095, 12356.021983149289, -14110.030425790601, -13449.938708536472, 45873.80389854955, -3913.231660512884, 6702.528202835108, 10956.333393613506, -187500.02235174447, -0.006, 0.976, -0.134, 192.0, 0.0, 0.0, 15.0, 64.0, 125.5, 96.0, 0.0, 0.0, 0.0, 1.745267707027682E9, 0.0, 2025-04-21 15:35:07.027
10.0, -23988.5627017692, 343.4122018113377, 11056.223339584272, 4990.831612447692, 8277.990910767427, 15731.515375556395, -7511.214317228118, 10251.739353148861, 12362.392230319052, -14093.445431404762, -13435.298315918246, 45900.313067473544, -3900.0888347731634, 6718.822624543027, 10963.329489628017, -187500.02235174447, -0.006, 0.976, -0.134, 192.0, 0.0, 0.0, 0.0, 0.0, 0.0, 0.0, 0.0, 0.0, 0.0, 1.745267707027963E9, 0.0, 2025-04-21 15:35:07.027
12.0, -23985.70167847892, 340.3276610765053, 11068.896778690432, 4998.98999917388, 8281.991873024926, 15738.489119826452, -7509.359122438326, 10263.943405621458, 12372.584625790672, -14090.629111603394, -13424.815347768706, 45890.523003402115, -3895.707892859923, 6723.784711812104, 10963.441248350293, -187500.02235174447, -0.006, 0.976, -0.134, 192.0, 0.0, 0.0, 0.0, 0.0, 0.0, 0.0, 0.0, 0.0, 0.0, 1.745267707028207E9, 0.0, 2025-04-21 15:35:07.028
14.0, -24001.54906529773, 330.3811347938937, 11062.459476287304, 4994.340836327176, 8276.023957255358, 15735.315172113798, -7520.713808621623, 10252.968699093903, 12376.429125836985, -14100.59798963046, -13423.049559956737, 45905.208099509255, -3892.712759102912, 6724.589374612496, 10968.068059452542, -187500.02235174447, -0.006, 0.976, -0.134, 192.0, 0.0, 0.0, 0.0, 0.0, 0.0, 0.0, 0.0, 0.0, 0.0, 1.745267707028452E9, 0.0, 2025-04-21 15:35:07.028
16.0, -24016.211809660414, 315.5842799644804, 11052.490598260236, 4987.612961246128, 8269.407840896589, 15721.993532418435, -7524.580660412391, 10241.07757104368, 12359.374744817585, -14113.60670490345, -13440.506272376333, 45883.258686454144, -3902.4134161965153, 6712.653543073362, 10952.98063194521, -187500.02235174447, -0.006, 0.976, -0.134, 192.0, 0.0, 0.0, 0.0, 0.0, 0.0, 0.0, 0.0, 0.0, 0.0, 1.745267707086175E9, 0.0, 2025-04-21 15:35:07.086
18.0, -24005.88530372206, 322.8933004013658, 11054.211682583295, 4993.4020630600535, 8279.711995090485, 15723.44639580803, -7519.082131276386, 10244.609146667617, 12356.334907571663, -14111.818565347025, -13446.496539890355, 45880.46471839723, -3899.775910350789, 6711.960638995247, 10956.780428502612, -187500.02235174447, -0.002, 0.97, -0.14200000000000002, 192.0, 127.5, 120.0, 15.0, 40.0, 125.5, 72.0, 0.0, 0.0, 0.0, 1.745267707086453E9, 0.0, 2025-04-21 15:35:07.086
20.0, -24006.4664490779, 318.7805794215893, 11046.8579586575, 4989.9375426694805, 8280.337843935233, 15719.177212617065, -7513.270677718006, 10245.525568190285, 12360.87231169609, -14108.689321123282, -13445.13308347858, 45881.13527073089, -3895.7749480932894, 6709.814871527537, 10956.623966291425, -187500.02235174447, -0.002, 0.97, -0.14200000000000002, 192.0, 0.0, 0.0, 0.0, 0.0, 0.0, 0.0, 0.0, 0.0, 0.0, 1.745267707086723E9, 0.0, 2025-04-21 15:35:07.086
22.0, -24009.305120623725, 322.4909690011703, 11041.8064644106, 4980.907437909536, 8273.878189787649, 15717.701997483016, -7528.87219534781, 10237.344829719643, 12358.681840739471, -14115.953638071256, -13444.641345100565, 45877.98367476269, -3895.305561459728, 6702.37174062392, 10958.009774447653, -187500.02235174447, -0.002, 0.97, -0.14200000000000002, 192.0, 0.0, 0.0, 0.0, 0.0, 0.0, 0.0, 0.0, 0.0, 0.0, 1.745267707086968E9, 0.0, 2025-04-21 15:35:07.086
24.0, -23990.88728319255, 334.8291319404998, 11051.931804648853, 4993.089138637679, 8278.616759612174, 15725.547459786829, -7520.400884199248, 10252.901643860538, 12364.649756509038, -14116.288914238086, -13441.75797006583, 45886.186764977785, -3898.1889364944623, 6696.381473109898, 10953.874701723422, -187500.02235174447, -0.002, 0.97, -0.14200000000000002, 192.0, 0.0, 0.0, 0.0, 0.0, 0.0, 0.0, 0.0, 0.0, 0.0, 1.745267707087208E9, 0.0, 2025-04-21 15:35:07.087
26.0, -23972.31298355019, 354.25279787216164, 11070.349642080027, 5009.8976504680695, 8292.564248152286, 15744.144111173644, -7508.241535215561, 10281.064841874224, 12380.474791583394, -14099.41334717433, -13421.4178826115, 45888.421939423315, -3893.29390445875, 6714.598144840974, 10974.147733944385, -187500.02235174447, -0.002, 0.97, -0.14200000000000002, 192.0, 0.0, 0.0, 0.0, 0.0, 0.0, 0.0, 0.0, 0.0, 0.0, 1.745267707087457E9, 0.0, 2025-04-21 15:35:07.087
28.0, -23969.608422471098, 356.48797231769237, 11074.842342715543, 5020.537080828796, 8291.379605696155, 15759.052724725334, -7511.661352117223, 10275.32044354921, 12392.790602778268, -14089.22095170271, -13414.399434852534, 45917.74742814868, -3877.2453519398396, 6727.562156625052, 10977.500495612681, -187500.02235174447, -0.002, 0.97, -0.14200000000000002, 192.0, 0.0, 0.0, 15.0, 72.0, 125.5, 72.0, 0.0, 0.0, 0.0, 1.745267707087714E9, 0.0, 2025-04-21 15:35:07.087
30.0, -23984.002945900316, 353.3810798384047, 11062.6606419874, 5009.763540001338, 8290.105556262202, 15742.087750683755, -7519.573869654402, 10264.45749574393, 12397.372710391606, -14081.107268465432, -13406.665731270998, 45909.544337933585, -3870.852753025622, 6737.754552096671, 10981.993196248199, -187500.02235174447, -0.002, 0.97, -0.14200000000000002, 192.0, 0.0, 0.0, 0.0, 0.0, 0.0, 0.0, 0.0, 0.0, 0.0, 1.745267707147119E9, 0.0, 2025-04-21 15:35:07.147
32.0, -24006.019414188795, 322.71448644572337, 11040.957098121298, 4984.170792600012, 8278.527352634354, 15707.241381077933, -7533.029619816497, 10230.974582549881, 12361.744029729847, -14117.048873549567, -13436.102978718636, 45911.354829234464, -3890.7681573353, 6692.291103874577, 10958.926195970322, -187500.02235174447, -0.002, 0.97, -0.14200000000000002, 192.0, 0.0, 0.0, 0.0, 0.0, 0.0, 0.0, 0.0, 0.0, 0.0, 1.74526770714742E9, 0.0, 2025-04-21 15:35:07.147
34.0, -23997.36928908459, 329.55412024904734, 11050.702458703812, 4989.132879869089, 8291.759585351896, 15710.035349134845, -7513.24832597355, 10250.822931626193, 12365.879102454079, -14128.425911477318, -13431.61027808312, 45875.79320380607, -3888.3765206785824, 6686.949036949759, 10963.97769021722, -187500.02235174447, -0.002, 0.97, -0.14200000000000002, 192.0, 0.0, 0.0, 0.0, 0.0, 0.0, 0.0, 0.0, 0.0, 0.0, 1.745267707147655E9, 0.0, 2025-04-21 15:35:07.147
36.0, -24003.270149620792, 316.88068114288825, 11048.534339491647, 4991.971551414914, 8283.78001258135, 15707.129622355656, -7510.8119858279215, 10250.487655459363, 12365.052087909233, -14150.062400110055, -13433.711342061919, 45901.07302678502, -3898.0548260277305, 6679.237685112677, 10966.056402451564, -187500.02235174447, -0.002, 0.97, -0.14200000000000002, 192.0, 0.0, 0.0, 0.0, 0.0, 0.0, 0.0, 0.0, 0.0, 0.0, 1.7452677071479E9, 0.0, 2025-04-21 15:35:07.147
38.0, -24001.258492619814, 316.14307357586307, 11050.56834823708, 4995.36901657212, 8285.769317837872, 15717.120852127178, -7513.829471329388, 10249.638289170061, 12369.745954244847, -14150.80000767708, -13434.04661822875, 45868.81945953601, -3892.489241658359, 6683.931551448292, 10965.542312329091, -187500.02235174447, 0.006, 0.974, -0.138, 192.0, 0.0, 24.0, 15.0, 56.0, 125.5, 88.0, 0.0, 0.0, 0.0, 1.745267707148154E9, 0.0, 2025-04-21 15:35:07.148
40.0, -24002.443135075944, 317.26066079862846, 11053.004688382709, 5003.929734698503, 8287.110422505191, 15719.467785294984, -7509.448529416148, 10251.940518848958, 12373.255178124331, -14136.338429014497, -13430.984429238371, 45899.86603258444, -3888.510631145314, 6691.955827707748, 10969.252701908672, -187500.02235174447, 0.006, 0.974, -0.138, 192.0, 0.0, 0.0, 0.0, 0.0, 0.0, 0.0, 0.0, 0.0, 0.0, 1.745267707148407E9, 0.0, 2025-04-21 15:35:07.148
42.0, -24007.09229792265, 323.0944661014636, 11054.435200027849, 5010.747016757371, 8292.005454540904, 15725.659218509105, -7501.759529323523, 10260.255367786332, 12367.39902107704, -14121.854498607458, -13433.621935084098, 45877.40252940685, -3883.3697299205937, 6699.108385933446, 10972.31489089905, -187500.02235174447, 0.006, 0.974, -0.138, 192.0, 0.0, 0.0, 0.0, 0.0, 0.0, 0.0, 0.0, 0.0, 0.0, 1.745267707148645E9, 0.0, 2025-04-21 15:35:07.148
44.0, -24003.04663217624, 322.28980330107254, 11045.18157782335, 5008.42243533402, 8278.952035779004, 15724.295762097332, -7517.875137075799, 10251.515835704307, 12371.623500779093, -14119.664027650837, -13435.834757785173, 45914.171149035836, -3885.873125299588, 6704.785729025094, 10972.40429787687, -187500.02235174447, 0.006, 0.974, -0.138, 192.0, 0.0, 0.0, 0.0, 0.0, 0.0, 0.0, 0.0, 0.0, 0.0, 1.745267707148896E9, 0.0, 2025-04-21 15:35:07.148
46.0, -23994.910597194506, 328.10125685945235, 11054.56931049458, 5021.855833751659, 8289.21148648399, 15738.086788426255, -7503.122985735296, 10267.452629500942, 12365.29795709824, -14114.545478170572, -13436.661772330019, 45889.539526646084, -3890.1199567460967, 6705.478633103208, 10969.722088542234, -187500.02235174447, 0.006, 0.974, -0.138, 192.0, 0.0, 0.0, 0.0, 0.0, 0.0, 0.0, 0.0, 0.0, 0.0, 1.74526770720637E9, 0.0, 2025-04-21 15:35:07.206
48.0, -23996.721088495386, 328.92827140429875, 11054.725772705768, 5018.883051739103, 8276.672157844563, 15731.1130441562, -7527.933422080687, 10255.248577028344, 12372.092887412655, -14117.875888094413, -13428.168109437003, 45918.283870015606, -3890.5669916352026, 6708.429063371309, 10972.31489089905, -187500.02235174447, 0.006, 0.978, -0.14200000000000002, 192.0, 0.0, 24.0, 15.0, 72.0, 125.5, 72.0, 0.0, 0.0, 0.0, 1.745267707206657E9, 0.0, 2025-04-21 15:35:07.206
50.0, -23992.608367515608, 327.9894981371758, 11066.035755400153, 5023.465159352441, 8282.573018380765, 15732.364741845697, -7512.421311428704, 10258.623690441096, 12380.608902050126, -14113.941981070278, -13421.104958189126, 45892.691122614284, -3874.9878257498535, 6709.99368548318, 10973.03014672162, -187500.02235174447, 0.006, 0.978, -0.14200000000000002, 192.0, 0.0, 0.0, 0.0, 0.0, 0.0, 0.0, 0.0, 0.0, 0.0, 1.745267707206942E9, 0.0, 2025-04-21 15:35:07.206
52.0, -23997.548103040233, 327.05072487005293, 11060.00078439722, 5020.4029703620645, 8280.606064868696, 15727.49206155444, -7514.388264940771, 10249.191254280955, 12374.216303135909, -14116.110100282443, -13422.960152978916, 45924.430599740816, -3883.0791572426747, 6706.730330792705, 10976.584074090013, -187500.02235174447, 0.006, 0.978, -0.14200000000000002, 192.0, 0.0, 0.0, 0.0, 0.0, 0.0, 0.0, 0.0, 0.0, 0.0, 1.74526770720719E9, 0.0, 2025-04-21 15:35:07.207
54.0, -24003.672481020985, 324.74849519115634, 11057.944423907331, 5023.085179696701, 8279.868457301673, 15728.386131332652, -7513.717712607112, 10262.579949209685, 12374.663338025015, -14116.490079938183, -13428.682199559475, 45900.46952968473, -3889.047073012242, 6702.684665046295, 10967.50926584116, -187500.02235174447, 0.006, 0.978, -0.14200000000000002, 192.0, 0.0, 0.0, 0.0, 0.0, 0.0, 0.0, 0.0, 0.0, 0.0, 1.745267707207441E9, 0.0, 2025-04-21 15:35:07.207
56.0, -23990.440248303446, 336.5725680080138, 11064.962871666297, 5032.405857134564, 8289.770280095372, 15734.30934361331, -7517.696323120156, 10265.306862033232, 12382.397041606551, -14106.476498422206, -13419.56268782171, 45916.18280603681, -3874.943122260943, 6710.150147694368, 10980.36151890296, -187500.02235174447, 0.006, 0.978, -0.14200000000000002, 192.0, 0.0, 0.0, 0.0, 0.0, 0.0, 0.0, 0.0, 0.0, 0.0, 1.745267707207682E9, 0.0, 2025-04-21 15:35:07.207
58.0, -23989.769695969786, 333.68919297327915, 11063.487656532247, 5029.433075122008, 8297.88396333265, 15733.996419190935, -7504.665256102712, 10266.804428911737, 12381.16769566151, -14114.657236892848, -13419.316818632702, 45896.62502963842, -3874.71960481639, 6703.578734824507, 10982.909617770865, -187500.02235174447, 0.007, 0.977, -0.14100000000000001, 192.0, 0.0, 32.0, 15.0, 64.0, 125.5, 80.0, 0.0, 0.0, 0.0, 1.745267707207928E9, 0.0, 2025-04-21 15:35:07.207
60.0, -23986.036954645748, 338.74068722017853, 11065.745182722234, 5036.026839736323, 8305.729425636462, 15741.506605327917, -7491.164802451707, 10275.32044354921, 12384.855733496635, -14119.529917184105, -13416.545202320243, 45909.812558867045, -3868.0811367131637, 6708.719636049228, 10996.119498743952, -187500.02235174447, 0.007, 0.977, -0.14100000000000001, 192.0, 0.0, 0.0, 0.0, 0.0, 0.0, 0.0, 0.0, 0.0, 0.0, 1.745267707266374E9, 0.0, 2025-04-21 15:35:07.266
62.0, -23992.22838785987, 326.5366347475809, 11062.034793142653, 5033.501092612874, 8300.208544756002, 15741.014866949901, -7500.060796744919, 10266.60326321164, 12374.663338025015, -14122.167423029832, -13423.295429145746, 45893.62989588141, -3865.778907034267, 6704.428101113809, 10992.252646953184, -187500.02235174447, 0.007, 0.977, -0.14100000000000001, 192.0, 0.0, 0.0, 0.0, 0.0, 0.0, 0.0, 0.0, 0.0, 0.0, 1.745267707266653E9, 0.0, 2025-04-21 15:35:07.266
64.0, -23999.917387952493, 327.14013184787416, 11059.956080908309, 5033.098761212678, 8297.459280187999, 15738.01973319289, -7501.759529323523, 10271.833571414181, 12380.9218264725, -14119.395806717373, -13424.636533813064, 45903.241145997185, -3876.485392628359, 6703.131699935401, 10995.694815599301, -187500.02235174447, 0.007, 0.977, -0.14100000000000001, 192.0, 0.0, 0.0, 0.0, 0.0, 0.0, 0.0, 0.0, 0.0, 0.0, 1.745267707266905E9, 0.0, 2025-04-21 15:35:07.266
66.0, -23990.775524470275, 324.6590882133351, 11060.783095453155, 5032.204691434466, 8298.107480777202, 15743.518262328895, -7502.854764801832, 10262.758763165328, 12376.697346770448, -14125.98957133169, -13426.51408034731, 45892.64641912537, -3872.238561181851, 6697.633170799395, 10989.637492851913, -187500.02235174447, 0.007, 0.977, -0.14100000000000001, 192.0, 0.0, 0.0, 0.0, 0.0, 0.0, 0.0, 0.0, 0.0, 0.0, 1.74526770726715E9, 0.0, 2025-04-21 15:35:07.267
68.0, -23979.912576664996, 335.65614648534614, 11065.991051911242, 5038.9549182599685, 8299.649751144618, 15756.30346015733, -7506.8780788037875, 10282.003615141346, 12388.566123076216, -14118.457033450251, -13418.020417454294, 45892.24408772518, -3864.5719128336805, 6710.172499438822, 10993.996083020698, -187500.02235174447, 0.0095, 0.9804999999999999, -0.1395, 192.0, 0.0, 48.0, 15.0, 96.0, 125.5, 88.0, 0.0, 0.0, 0.0, 1.745267707267435E9, 0.0, 2025-04-21 15:35:07.267
70.0, -23981.74541971033, 335.74555346316737, 11065.879293188966, 5041.346554916687, 8295.335864464745, 15752.816588022304, -7511.191965483662, 10278.092059861669, 12391.002463221845, -14126.07897830951, -13417.103995931626, 45902.4364831968, -3863.6331395665575, 6712.675894817817, 10992.766737075655, -187500.02235174447, 0.0095, 0.9804999999999999, -0.1395, 192.0, 0.0, 0.0, 0.0, 0.0, 0.0, 0.0, 0.0, 0.0, 0.0, 1.745267707267704E9, 0.0, 2025-04-21 15:35:07.267
72.0, -23979.465541775888, 341.177027365807, 11072.42835431437, 5047.783857319815, 8301.303780234311, 15764.998288750445, -7502.631247357279, 10285.468135531919, 12393.416451623018, -14125.162556786843, -13418.065120943204, 45920.25082352768, -3859.721584286879, 6718.442644887286, 10992.945551031298, -187500.02235174447, 0.0095, 0.9804999999999999, -0.1395, 192.0, 0.0, 0.0, 0.0, 0.0, 0.0, 0.0, 0.0, 0.0, 0.0, 1.745267707267965E9, 0.0, 2025-04-21 15:35:07.267
74.0, -23974.436399273443, 338.6065767534467, 11071.847208958532, 5046.822732308237, 8299.895620333627, 15757.823378780293, -7498.138546721762, 10283.814106442227, 12404.704082572947, -14109.27046647912, -13410.13025166157, 45944.05543137258, -3854.7371452733455, 6726.8916042913925, 10996.566533633058, -187500.02235174447, 0.0095, 0.9804999999999999, -0.1395, 192.0, 0.0, 0.0, 0.0, 0.0, 0.0, 0.0, 0.0, 0.0, 0.0, 1.745267707268214E9, 0.0, 2025-04-21 15:35:07.268
76.0, -23966.769750925276, 342.4734285442148, 11071.355470580516, 5048.186188720011, 8296.475803431966, 15755.319983401298, -7501.156032223229, 10280.1260686071, 12402.960646505433, -14111.662103135837, -13413.304199374224, 45938.33338479202, -3856.7264505298676, 6724.254098445666, 10988.296388184595, -187500.02235174447, 0.0095, 0.9804999999999999, -0.1395, 192.0, 0.0, 0.0, 0.0, 0.0, 0.0, 0.0, 0.0, 0.0, 0.0, 1.745267707326653E9, 0.0, 2025-04-21 15:35:07.326
78.0, -23964.959259624393, 333.8903586733769, 11078.597435784035, 5055.875188812636, 8305.282390747356, 15759.276242169886, -7491.9694652520975, 10289.960836167436, 12409.822632053212, -14106.923533311312, -13410.152603406026, 45971.39161484142, -3849.663299281991, 6727.428046158319, 10990.777431819133, -187500.02235174447, 0.00675, 0.97925, -0.14075000000000001, 192.0, 0.0, 16.0, 15.0, 72.0, 125.5, 72.0, 0.0, 0.0, 0.0, 1.74526770732693E9, 0.0, 2025-04-21 15:35:07.326
80.0, -23976.291594063234, 326.3578207919384, 11079.29033986215, 5053.751773089382, 8305.237687258445, 15754.850596767736, -7501.603067112335, 10281.914208163525, 12410.671998342516, -14121.98860907419, -13405.346978348134, 45969.96110319628, -3841.303746855706, 6722.555365867062, 11000.165164490363, -187500.02235174447, 0.00675, 0.97925, -0.14075000000000001, 192.0, 0.0, 0.0, 0.0, 0.0, 0.0, 0.0, 0.0, 0.0, 0.0, 1.7452677073272E9, 0.0, 2025-04-21 15:35:07.327
82.0, -23988.003908157818, 303.42493098079336, 11069.008537412708, 5042.687659584005, 8293.659483630596, 15740.21020414951, -7512.018980028508, 10271.788867925272, 12402.245390682863, -14133.633867935405, -13416.567554064699, 46001.32060066707, -3850.4679620823817, 6707.669104059828, 10991.179763219328, -187500.02235174447, 0.00675, 0.97925, -0.14075000000000001, 192.0, 0.0, 0.0, 0.0, 0.0, 0.0, 0.0, 0.0, 0.0, 0.0, 1.745267707327453E9, 0.0, 2025-04-21 15:35:07.327
84.0, -23990.395544814535, 305.2577740261286, 11068.181522867862, 5045.146351474089, 8299.001550555415, 15745.485215840963, -7501.737177579067, 10274.672242960007, 12393.707024300937, -14146.486120997206, -13427.966943736905, 45972.1515741529, -3853.328985372661, 6698.7731097666165, 10987.22350445074, -187500.02235174447, 0.00675, 0.97925, -0.14075000000000001, 192.0, 0.0, 0.0, 0.0, 0.0, 0.0, 0.0, 0.0, 0.0, 0.0, 1.745267707327696E9, 0.0, 2025-04-21 15:35:07.327
86.0, -23988.763867469297, 307.403541493838, 11066.102810633518, 5052.567130633251, 8298.554515666308, 15742.803006506325, -7503.190040968662, 10273.241731314865, 12396.813916780224, -14131.55515570106, -13424.077740201681, 46002.304077423105, -3854.5136278287923, 6703.981066224703, 10993.526696387136, -187500.02235174447, 0.00675, 0.97925, -0.14075000000000001, 192.0, 0.0, 0.0, 0.0, 0.0, 0.0, 0.0, 0.0, 0.0, 0.0, 1.745267707327942E9, 0.0, 2025-04-21 15:35:07.327
88.0, -23990.104972136614, 306.80004439354474, 11061.274833831172, 5046.241586952399, 8300.409710456099, 15723.334637085753, -7504.441738658159, 10272.101792347645, 12394.779908034792, -14145.145016329887, -13424.681237301975, 45985.29439989262, -3855.5418080737363, 6695.9567899652475, 10986.843524795, -187500.02235174447, 0.007375, 0.977625, -0.13937500000000003, 192.0, 0.0, 32.0, 15.0, 64.0, 125.5, 88.0, 0.0, 0.0, 0.0, 1.745267707328187E9, 0.0, 2025-04-21 15:35:07.328
90.0, -23992.22838785987, 297.4346634667711, 11051.820045926577, 5039.8936915270915, 8299.135661022146, 15716.785575960348, -7505.58167762538, 10259.808332897226, 12387.940274231467, -14158.0419728806, -13427.475205358889, 46019.023182275676, -3862.9625872328984, 6684.490345059675, 10989.548085874092, -187500.02235174447, 0.007375, 0.977625, -0.13937500000000003, 192.0, 0.0, 0.0, 0.0, 0.0, 0.0, 0.0, 0.0, 0.0, 0.0, 1.745267707386833E9, 0.0, 2025-04-21 15:35:07.386
92.0, -23990.574358770176, 299.1333960453744, 11053.250557571717, 5042.128865972622, 8298.934495322048, 15722.73113998546, -7506.542802636958, 10258.89191137456, 12383.425221851496, -14158.064324625055, -13432.012609483316, 45983.19333591382, -3870.852753025622, 6681.115231646923, 10980.02624273613, -187500.02235174447, 0.007375, 0.977625, -0.13937500000000003, 192.0, 0.0, 0.0, 0.0, 0.0, 0.0, 0.0, 0.0, 0.0, 0.0, 1.745267707387144E9, 0.0, 2025-04-21 15:35:07.387
94.0, -23997.950434440427, 290.39386396334936, 11048.422580769371, 5039.379601404619, 8288.809155083794, 15717.053796893812, -7516.221107986106, 10256.969661351402, 12378.150210160044, -14160.1430368594, -13437.913470019517, 46007.66849609238, -3867.298825657228, 6680.89171420237, 10976.472315367737, -187500.02235174447, 0.007375, 0.977625, -0.13937500000000003, 192.0, 0.0, 0.0, 0.0, 0.0, 0.0, 0.0, 0.0, 0.0, 0.0, 1.745267707387406E9, 0.0, 2025-04-21 15:35:07.387
96.0, -24000.811457730706, 288.67277964029074, 11052.132970348952, 5045.973366018935, 8288.362120194688, 15724.988666175446, -7516.779901597489, 10252.544015949252, 12382.106468928632, -14148.363667531452, -13441.690914832463, 45971.279856119145, -3857.7099272859014, 6684.1774206373, 10972.426649621326, -187500.02235174447, 0.007375, 0.977625, -0.13937500000000003, 192.0, 0.0, 0.0, 0.0, 0.0, 0.0, 0.0, 0.0, 0.0, 0.0, 1.745267707387669E9, 0.0, 2025-04-21 15:35:07.387
98.0, -23999.7162222524, 284.5153551716036, 11047.550862735614, 5042.33003167272, 8287.40099518311, 15717.322017827275, -7514.611782385324, 10247.827797869182, 12378.30667237123, -14162.311156071562, -13448.150568980047, 45995.598554086515, -3872.395023393038, 6680.8693624579155, 10970.750268787178, -187500.02235174447, 0.010687499999999999, 0.9758125, -0.13968750000000002, 192.0, 0.0, 56.0, 15.0, 56.0, 125.5, 80.0, 0.0, 0.0, 0.0, 1.745267707387914E9, 0.0, 2025-04-21 15:35:07.387
100.0, -23986.014602901294, 296.7864628775672, 11059.643156485934, 5056.0316510238235, 8293.279503974856, 15725.189831875543, -7508.442700915659, 10261.261196286821, 12389.057861454232, -14150.174158832331, -13438.494615375355, 45970.00580668519, -3865.980072734365, 6687.016092183125, 10974.550065344582, -187500.02235174447, 0.010687499999999999, 0.9758125, -0.13968750000000002, 192.0, 0.0, 0.0, 0.0, 0.0, 0.0, 0.0, 0.0, 0.0, 0.0, 1.745267707388181E9, 0.0, 2025-04-21 15:35:07.388
102.0, -23990.17202736998, 294.953619832232, 11059.263176830194, 5050.66723235455, 8289.904390562104, 15719.020750405878, -7520.959677810631, 10255.539149706263, 12392.16475393352, -14152.699905955782, -13433.174900194992, 45999.241888432734, -3867.5670465906915, 6684.8032694820495, 10974.88534151141, -187500.02235174447, 0.010687499999999999, 0.9758125, -0.13968750000000002, 192.0, 0.0, 0.0, 0.0, 0.0, 0.0, 0.0, 0.0, 0.0, 0.0, 1.745267707388429E9, 0.0, 2025-04-21 15:35:07.388
104.0, -23992.809533215706, 295.73593088816773, 11067.823894956577, 5057.775087091338, 8294.911181320093, 15730.822471478281, -7522.501948178047, 10257.595510196152, 12398.959684247933, -14155.024487379133, -13428.525737348287, 45971.9504084528, -3859.140438931041, 6683.46216481473, 10974.371251388939, -187500.02235174447, 0.010687499999999999, 0.9758125, -0.13968750000000002, 192.0, 0.0, 0.0, 0.0, 0.0, 0.0, 0.0, 0.0, 0.0, 0.0, 1.745267707388681E9, 0.0, 2025-04-21 15:35:07.388
106.0, -23981.007812143303, 305.0566083260308, 11075.557598538113, 5065.084107528223, 8302.868402346183, 15732.20827963451, -7507.6380381152685, 10264.904530633037, 12407.989789007877, -14136.383132503408, -13419.070949443692, 46001.25354543371, -3843.717735256879, 6696.292066132077, 10988.36344341796, -187500.02235174447, 0.010687499999999999, 0.9758125, -0.13968750000000002, 192.0, 0.0, 0.0, 0.0, 0.0, 0.0, 0.0, 0.0, 0.0, 0.0, 1.745267707447115E9, 0.0, 2025-04-21 15:35:07.447
108.0, -23981.58895749914, 299.58043093448055, 11065.655775744412, 5057.1492382465885, 8292.094861518724, 15724.094596397234, -7520.49029117707, 10260.1212573196, 12404.100585472654, -14146.687286697304, -13422.647228556541, 45981.561658568586, -3848.9256917149655, 6690.570019551518, 10986.754117817178, -187500.02235174447, 0.01234375, 0.97390625, -0.13984375000000002, 192.0, 0.0, 56.0, 15.0, 48.0, 125.5, 80.0, 0.0, 0.0, 0.0, 1.745267707447397E9, 0.0, 2025-04-21 15:35:07.447
110.0, -23989.121495380583, 295.3335994879722, 11062.19125535384, 5050.3990114210865, 8290.217314984478, 15719.601895761716, -7518.657448131735, 10257.640213685061, 12398.669111570014, -14155.918557157345, -13427.27403965879, 45995.79971978661, -3854.245406895329, 6686.569057294018, 10981.07677472553, -187500.02235174447, 0.01234375, 0.97390625, -0.13984375000000002, 192.0, 0.0, 0.0, 0.0, 0.0, 0.0, 0.0, 0.0, 0.0, 0.0, 1.745267707447664E9, 0.0, 2025-04-21 15:35:07.447
112.0, -23994.731783238865, 283.42011969329354, 11050.411886025893, 5041.234796194411, 8285.031710270847, 15718.372549816675, -7518.746855109555, 10250.442951970454, 12396.992730735867, -14158.8913391699, -13431.096187960648, 45976.57721955505, -3859.587473820147, 6681.785783980583, 10977.612254334957, -187500.02235174447, 0.01234375, 0.97390625, -0.13984375000000002, 192.0, 0.0, 0.0, 0.0, 0.0, 0.0, 0.0, 0.0, 0.0, 0.0, 1.745267707447903E9, 0.0, 2025-04-21 15:35:07.447
114.0, -23987.579225013167, 292.40552096432697, 11050.814217426088, 5046.889787541603, 8282.930646292049, 15714.43864279254, -7518.545689409458, 10257.394344496053, 12384.788678263269, -14160.746533959691, -13441.892080532562, 45989.2059551723, -3867.9917297353427, 6674.700280988251, 10968.828018764021, -187500.02235174447, 0.01234375, 0.97390625, -0.13984375000000002, 192.0, 0.0, 0.0, 0.0, 0.0, 0.0, 0.0, 0.0, 0.0, 0.0, 1.745267707448154E9, 0.0, 2025-04-21 15:35:07.448
116.0, -23999.000966429827, 288.65042789583543, 11044.332211534049, 5051.538950388307, 8277.432117156044, 15707.844878178226, -7530.68268664869, 10258.109600318623, 12392.611788822627, -14149.615365220949, -13438.89694677555, 45985.6520278039, -3866.9635494903982, 6680.757603735638, 10968.001004219175, -187500.02235174447, 0.01234375, 0.97390625, -0.13984375000000002, 192.0, 0.0, 0.0, 0.0, 0.0, 0.0, 0.0, 0.0, 0.0, 0.0, 1.745267707448398E9, 0.0, 2025-04-21 15:35:07.448
118.0, -24002.733707753865, 285.4541284387265, 11042.097037088519, 5049.169665476044, 8281.991873024926, 15716.651465493616, -7520.110311521329, 10249.951213592436, 12382.039413695265, -14154.08571411201, -13444.618993356109, 45990.077673206055, -3877.1559449620186, 6679.37179557941, 10964.178855917318, -187500.02235174447, 0.01234375, 0.97390625, -0.13984375000000002, 192.0, 0.0, 0.0, 0.0, 0.0, 0.0, 0.0, 0.0, 0.0, 0.0, 1.745267707448663E9, 0.0, 2025-04-21 15:35:07.448
120.0, -23999.202132129925, 286.88464008386615, 11050.456589514803, 5054.534084145318, 8288.675044617063, 15721.322980084775, -7515.438796930171, 10253.572196194196, 12381.726489272893, -14155.382115290418, -13444.306068933734, 45988.04366446062, -3866.650625068024, 6683.015129925625, 10966.50343734067, -187500.02235174447, 0.016, 0.966, -0.14400000000000002, 192.0, 0.0, 64.0, 15.0, 24.0, 125.5, 64.0, 0.0, 0.0, 0.0, 1.74526770750645E9, 0.0, 2025-04-21 15:35:07.506
122.0, -23996.743440239843, 299.759244890123, 11058.816141941088, 5058.400935936086, 8297.682797632551, 15726.150956887122, -7512.577773639891, 10263.183446309979, 12393.863486512124, -14140.205280805265, -13430.984429238371, 45981.62871380195, -3848.1210289145747, 6688.290141617077, 10975.779411289623, -187500.02235174447, 0.016, 0.966, -0.14400000000000002, 192.0, 0.0, 0.0, 0.0, 0.0, 0.0, 0.0, 0.0, 0.0, 0.0, 1.745267707506785E9, 0.0, 2025-04-21 15:35:07.506
124.0, -23982.88535867755, 305.1013118149414, 11061.498351275724, 5061.463124926463, 8298.934495322048, 15729.63782902215, -7507.705093348634, 10268.860789401626, 12384.02871895179, -14134.237365035697, -13430.827967027184, 46006.86383329199, -3862.426145365971, 6687.664292772329, 10974.907693255866, -187500.02235174447, 0.016, 0.966, -0.14400000000000002, 192.0, 0.0, 0.0, 0.0, 0.0, 0.0, 0.0, 0.0, 0.0, 0.0, 1.745267707507029E9, 0.0, 2025-04-21 15:35:07.507
126.0, -23992.675422748976, 301.99441933565373, 11055.128104105963, 5053.707069600471, 8295.179402253558, 15729.011980177402, -7515.0364655299745, 10262.624652698596, 12397.059785969233, -14135.086731325, -13425.999990224838, 45986.94842898231, -3864.9071890005102, 6695.576810309507, 10979.154524702373, -187500.02235174447, 0.016, 0.966, -0.14400000000000002, 192.0, 0.0, 0.0, 0.0, 0.0, 0.0, 0.0, 0.0, 0.0, 0.0, 1.745267707507281E9, 0.0, 2025-04-21 15:35:07.507
128.0, -24000.051498419227, 293.277238998084, 11050.14366509243, 5045.168703218545, 8289.323245206268, 15719.512488783896, -7517.271639975505, 10258.735449163372, 12382.665262540015, -14152.901071655879, -13435.61124034062, 45997.05141747611, -3869.779869291767, 6689.832411984493, 10969.923254242332, -187500.02235174447, 0.016, 0.966, -0.14400000000000002, 192.0, 0.0, 0.0, 0.0, 0.0, 0.0, 0.0, 0.0, 0.0, 0.0, 1.745267707507532E9, 0.0, 2025-04-21 15:35:07.507
130.0, -23991.46842854839, 294.79715762104485, 11047.349697035515, 5043.447618895486, 8287.445698672022, 15717.880811438657, -7521.831395844388, 10256.097943317645, 12383.380518362585, -14153.37045828944, -13440.103940976136, 45980.10879517899, -3870.6292355810688, 6678.880057201392, 10965.944643729288, -187500.02235174447, 0.016, 0.972, -0.14200000000000002, 192.0, 0.0, 64.0, 15.0, 48.0, 125.5, 72.0, 0.0, 0.0, 0.0, 1.745267707507773E9, 0.0, 2025-04-21 15:35:07.507
132.0, -23990.999041914827, 296.56294543301414, 11053.18350233835, 5045.9957177633905, 8292.228971985456, 15721.434738807053, -7515.05881727443, 10262.468190487409, 12382.419393351007, -14153.079885611522, -13442.249708443846, 45997.699618065315, -3867.075308212675, 6690.212391640233, 10967.375155374428, -187500.02235174447, 0.016, 0.972, -0.14200000000000002, 192.0, 0.0, 0.0, 0.0, 0.0, 0.0, 0.0, 0.0, 0.0, 0.0, 1.745267707508044E9, 0.0, 2025-04-21 15:35:07.508
134.0, -23999.738573996852, 299.91570710131015, 11048.869615658477, 5046.956842774969, 8285.88107656015, 15712.516392769385, -7523.127797022796, 10250.420600225998, 12386.845038753157, -14138.394789504384, -13434.650115329041, 45968.57529504005, -3859.788639520245, 6685.496173560164, 10976.382908389916, -187500.02235174447, 0.016, 0.972, -0.14200000000000002, 192.0, 0.0, 0.0, 0.0, 0.0, 0.0, 0.0, 0.0, 0.0, 0.0, 1.745267707508284E9, 0.0, 2025-04-21 15:35:07.508
136.0, -23987.668631990986, 308.14114906086314, 11050.389534281438, 5058.937377803013, 8280.874285802161, 15717.031445149356, -7528.983954070086, 10256.79084739576, 12386.375652119596, -14145.055609352066, -13438.092283975158, 46008.07082749258, -3868.684633813457, 6680.668196757817, 10967.755135030167, -187500.02235174447, 0.016, 0.972, -0.14200000000000002, 192.0, 0.0, 0.0, 0.0, 0.0, 0.0, 0.0, 0.0, 0.0, 0.0, 1.745267707566215E9, 0.0, 2025-04-21 15:35:07.566
138.0, -23990.686117492452, 302.5532129470364, 11046.097999346019, 5052.656537611072, 8280.4048991686, 15708.962465400991, -7527.1287592802955, 10241.681068143973, 12386.59916956415, -14148.564833231549, -13430.269173415802, 45994.50331860821, -3867.7682122907895, 6686.233781127189, 10966.011698962653, -187500.02235174447, 0.016, 0.972, -0.14200000000000002, 192.0, 0.0, 0.0, 0.0, 0.0, 0.0, 0.0, 0.0, 0.0, 0.0, 1.745267707566509E9, 0.0, 2025-04-21 15:35:07.566
140.0, -23982.930062166462, 305.83891938196655, 11047.059124357596, 5059.362060947664, 8286.305759704801, 15710.504735768407, -7511.43783467267, 10248.364239736109, 12382.128820673088, -14151.269394310642, -13433.979562995382, 46026.62277539048, -3876.3065786727166, 6675.370833321909, 10965.45290535127, -187500.02235174447, 0.014, 0.974, -0.146, 192.0, 0.0, 56.0, 15.0, 56.0, 125.5, 56.0, 0.0, 0.0, 0.0, 1.745267707566771E9, 0.0, 2025-04-21 15:35:07.566
142.0, -23979.420838286977, 313.14793981885197, 11047.975545880265, 5067.989834307413, 8288.160954494591, 15724.832203964259, -7510.409654427726, 10268.212588812423, 12378.329024115685, -14134.282068524608, -13431.61027808312, 45997.05141747611, -3866.0247762232757, 6689.608894539941, 10970.817324020545, -187500.02235174447, 0.014, 0.974, -0.146, 192.0, 0.0, 0.0, 0.0, 0.0, 0.0, 0.0, 0.0, 0.0, 0.0, 1.745267707567039E9, 0.0, 2025-04-21 15:35:07.567
144.0, -23981.74541971033, 307.13532056037434, 11049.227243569761, 5065.24056973941, 8288.853858572706, 15725.212183619999, -7515.371741696805, 10263.518722476807, 12391.583608577683, -14136.18196680331, -13432.012609483316, 46022.82297883308, -3870.584532092158, 6698.616647555429, 10967.822190263532, -187500.02235174447, 0.014, 0.974, -0.146, 192.0, 0.0, 0.0, 0.0, 0.0, 0.0, 0.0, 0.0, 0.0, 0.0, 1.745267707567298E9, 0.0, 2025-04-21 15:35:07.567
146.0, -23994.351803583122, 293.9701430761985, 11047.99789762472, 5056.635148124117, 8291.156088251602, 15719.49013703944, -7504.240572958061, 10266.446801000453, 12387.940274231467, -14148.564833231549, -13433.487824617367, 45991.99992322921, -3865.041299467242, 6686.546705549563, 10970.593806575991, -187500.02235174447, 0.014, 0.974, -0.146, 192.0, 0.0, 0.0, 0.0, 0.0, 0.0, 0.0, 0.0, 0.0, 0.0, 1.745267707567537E9, 0.0, 2025-04-21 15:35:07.567
148.0, -23998.08454490716, 285.85645983892204, 11048.690801702835, 5047.336822430709, 8286.953960294004, 15709.409500290098, -7517.62926788679, 10257.059068329223, 12386.733280030881, -14161.618251993448, -13436.572365352198, 46011.08831299404, -3866.0247762232757, 6675.549647277552, 10968.582149575013, -187500.02235174447, 0.014, 0.974, -0.146, 192.0, 0.0, 0.0, 0.0, 0.0, 0.0, 0.0, 0.0, 0.0, 0.0, 1.745267707567776E9, 0.0, 2025-04-21 15:35:07.567
150.0, -23995.827018717173, 278.03334927956456, 11048.936670891842, 5038.843159537692, 8281.947169536015, 15697.339558284231, -7529.900375592754, 10239.468245442897, 12392.567085333716, -14176.124534144943, -13435.030094984782, 45972.06216717508, -3864.817782022689, 6657.8023621800385, 10961.071963438031, -187500.02235174447, 0.012, 0.968, -0.14200000000000002, 192.0, 0.0, 48.0, 15.0, 32.0, 125.5, 72.0, 0.0, 0.0, 0.0, 1.745267707626601E9, 0.0, 2025-04-21 15:35:07.626
152.0, -23991.200207614926, 277.38514869036067, 11050.881272659455, 5032.405857134564, 8286.082242260247, 15690.254055291898, -7527.039352302475, 10237.702457630929, 12399.049091225756, -14181.265435369663, -13431.856147272129, 45986.501394093204, -3859.363956375594, 6651.655632454829, 10964.7376495287, -187500.02235174447, 0.012, 0.968, -0.14200000000000002, 192.0, 0.0, 0.0, 0.0, 0.0, 0.0, 0.0, 0.0, 0.0, 0.0, 1.745267707626888E9, 0.0, 2025-04-21 15:35:07.626
154.0, -23997.592806529145, 273.3618346884054, 11047.394400524427, 5024.113359941645, 8281.053099757803, 15686.588369201228, -7539.243404775072, 10233.12035001759, 12404.12293721711, -14186.205170894287, -13432.347885650146, 45961.221571114256, -3853.977185961865, 6642.379658505876, 10962.45777159426, -187500.02235174447, 0.012, 0.968, -0.14200000000000002, 192.0, 0.0, 0.0, 0.0, 0.0, 0.0, 0.0, 0.0, 0.0, 0.0, 1.745267707627137E9, 0.0, 2025-04-21 15:35:07.627
156.0, -23994.038879160747, 272.6242271213802, 11047.32734529106, 5023.845139008181, 8279.376718923655, 15679.480514464442, -7540.249233275561, 10237.210719252911, 12393.59526557866, -14205.785299037136, -13442.51792937731, 45981.896934735414, -3867.298825657228, 6629.996792077636, 10957.875663980922, -187500.02235174447, 0.012, 0.968, -0.14200000000000002, 192.0, 0.0, 0.0, 0.0, 0.0, 0.0, 0.0, 0.0, 0.0, 0.0, 1.745267707627387E9, 0.0, 2025-04-21 15:35:07.627
158.0, -23994.59767277213, 278.32392195748355, 11051.015383126187, 5032.942299001491, 8283.534143392342, 15684.196732544511, -7532.7613988830335, 10226.2136609809, 12391.248332410853, -14203.9524559918, -13435.946516507449, 45964.283760104634, -3851.9655289608872, 6632.924870601281, 10961.295480882583, -187500.02235174447, 0.012, 0.968, -0.14200000000000002, 192.0, 0.0, 0.0, 0.0, 0.0, 0.0, 0.0, 0.0, 0.0, 0.0, 1.745267707627632E9, 0.0, 2025-04-21 15:35:07.627
160.0, -24004.745364754843, 277.98864579065395, 11045.449798756814, 5030.1483309445775, 8277.007434011393, 15688.48826747993, -7538.7293146526, 10227.845338326137, 12397.775041791803, -14205.67354031486, -13432.303182161235, 45982.65689404689, -3852.032584194253, 6637.059943325513, 10962.815399505544, -187500.02235174447, 0.012, 0.968, -0.14, 192.0, 0.0, 48.0, 15.0, 32.0, 125.5, 80.0, 0.0, 0.0, 0.0, 1.745267707627886E9, 0.0, 2025-04-21 15:35:07.627
162.0, -24001.32554785318, 270.76903233158976, 11041.627650454957, 5030.684772811505, 8272.201808953501, 15679.838142375726, -7535.488311706581, 10236.115483774602, 12392.723547544903, -14201.38200537944, -13438.092283975158, 45965.78132698314, -3865.018947722787, 6626.487568198153, 10953.02533543412, -187500.02235174447, 0.012, 0.968, -0.14, 192.0, 0.0, 0.0, 0.0, 0.0, 0.0, 0.0, 0.0, 0.0, 0.0, 1.745267707628155E9, 0.0, 2025-04-21 15:35:07.628
164.0, -23988.339184324646, 281.6766836257796, 11054.055220372107, 5044.386392162609, 8291.625474885162, 15700.82643041926, -7511.81781432841, 10255.427390983987, 12399.65258832605, -14203.57247633606, -13434.605411840132, 45976.13018466594, -3861.129744187563, 6629.16977753279, 10967.241044907696, -187500.02235174447, 0.012, 0.968, -0.14, 192.0, 0.0, 0.0, 0.0, 0.0, 0.0, 0.0, 0.0, 0.0, 0.0, 1.745267707628404E9, 0.0, 2025-04-21 15:35:07.628
166.0, -23998.576283285176, 271.43958466524896, 11039.861862642987, 5035.065714724746, 8277.63328285614, 15698.01011061789, -7525.765302868522, 10253.54984444974, 12398.64675982556, -14205.181801936842, -13432.817272283706, 45978.38771085593, -3859.140438931041, 6633.573071190485, 10970.683213553813, -187500.02235174447, 0.012, 0.968, -0.14, 192.0, 0.0, 0.0, 0.0, 0.0, 0.0, 0.0, 0.0, 0.0, 0.0, 1.7452677076869E9, 0.0, 2025-04-21 15:35:07.686
168.0, -23997.391640829046, 277.4969074126372, 11043.192272566828, 5039.692525826994, 8278.773221823361, 15706.749642699915, -7527.352276724849, 10250.88998685956, 12393.125878945099, -14212.066139229077, -13439.209871197925, 45979.41589110087, -3861.9344069879544, 6631.2708415115885, 10961.139018671396, -187500.02235174447, 0.012, 0.968, -0.14, 192.0, 0.0, 0.0, 0.0, 0.0, 0.0, 0.0, 0.0, 0.0, 0.0, 1.745267707687174E9, 0.0, 2025-04-21 15:35:07.687
170.0, -23994.84354196114, 274.0100352776093, 11043.371086522471, 5035.80332229177, 8275.599274110707, 15702.68162520905, -7529.028657558997, 10240.854053599127, 12396.83626852468, -14198.655092555893, -13439.098112475647, 45986.94842898231, -3857.039374952242, 6634.042457824047, 10960.960204715753, -187500.02235174447, 0.012, 0.97, -0.14200000000000002, 192.0, 0.0, 48.0, 15.0, 40.0, 125.5, 72.0, 0.0, 0.0, 0.0, 1.745267707687423E9, 0.0, 2025-04-21 15:35:07.687
172.0, -24003.516018809798, 275.17232598928524, 11035.860900385487, 5019.508900583852, 8267.418535640065, 15674.741944639916, -7550.687497936189, 10222.480919656864, 12399.0267394813, -14202.47724085775, -13441.020362498804, 45972.330388108545, -3857.0170232077867, 6634.713010157706, 10957.227463391717, -187500.02235174447, 0.012, 0.97, -0.14200000000000002, 192.0, 0.0, 0.0, 0.0, 0.0, 0.0, 0.0, 0.0, 0.0, 0.0, 1.745267707687698E9, 0.0, 2025-04-21 15:35:07.687
174.0, -23998.79980072973, 274.7476428446344, 11026.383760736438, 5015.731455770905, 8258.522541346854, 15672.573825427751, -7559.4717335071255, 10217.49648064333, 12386.30859688623, -14211.775566551158, -13442.875557288595, 45978.38771085593, -3864.415450622493, 6617.591573904941, 10937.088541637486, -187500.02235174447, 0.012, 0.97, -0.14200000000000002, 192.0, 0.0, 0.0, 0.0, 0.0, 0.0, 0.0, 0.0, 0.0, 0.0, 1.745267707687937E9, 0.0, 2025-04-21 15:35:07.687
176.0, -23994.061230905205, 279.35210220242766, 11018.113615287974, 5009.160042901045, 8259.081334958237, 15666.29298523581, -7558.7117741956445, 10212.288524185244, 12397.126841202598, -14215.709473575293, -13439.656906087032, 45966.4965828057, -3870.852753025622, 6620.251431495122, 10931.344143312472, -187500.02235174447, 0.012, 0.97, -0.14200000000000002, 192.0, 0.0, 0.0, 0.0, 0.0, 0.0, 0.0, 0.0, 0.0, 0.0, 1.745267707688176E9, 0.0, 2025-04-21 15:35:07.688
178.0, -23988.070963391183, 284.2024307492293, 11026.048484569608, 5017.072560438223, 8267.329128662244, 15671.210369015977, -7549.547558968969, 10218.569364377185, 12404.45821338394, -14203.81834552507, -13440.014533998316, 45983.9532952253, -3867.4329361239597, 6622.799530363028, 10934.182814858295, -187500.02235174447, 0.012, 0.97, -0.14200000000000002, 192.0, 0.0, 0.0, 0.0, 0.0, 0.0, 0.0, 0.0, 0.0, 0.0, 1.74526770768843E9, 0.0, 2025-04-21 15:35:07.688
180.0, -23985.053477889716, 288.1363377733633, 11029.736522404733, 5017.832519749703, 8272.49238163142, 15671.411534716075, -7546.105390322851, 10219.843413811137, 12413.957704777446, -14194.609426809482, -13432.124368205592, 45962.33915833702, -3852.881950483555, 6627.605155420918, 10947.616213275936, -187500.02235174447, 0.012, 0.972, -0.146, 192.0, 0.0, 48.0, 15.0, 48.0, 125.5, 56.0, 0.0, 0.0, 0.0, 1.745267707747109E9, 0.0, 2025-04-21 15:35:07.747
182.0, -23994.240044860846, 273.22772422167355, 11025.668504913869, 5016.781987760304, 8265.563340850274, 15668.19288351451, -7551.693326436678, 10222.972658034882, 12402.044224982767, -14202.700758302302, -13441.445045643455, 45985.13793768143, -3859.0286802087644, 6620.743169873139, 10947.079771409008, -187500.02235174447, 0.012, 0.972, -0.146, 192.0, 0.0, 0.0, 0.0, 0.0, 0.0, 0.0, 0.0, 0.0, 0.0, 1.74526770774744E9, 0.0, 2025-04-21 15:35:07.747
184.0, -23996.765791984297, 270.5902183759473, 11024.796786880112, 5020.917060484536, 8270.368965908167, 15671.858569605181, -7534.504834950547, 10234.327344218176, 12390.242503910364, -14212.915505518378, -13450.922185292506, 45951.699727976295, -3858.916921486488, 6618.150367516323, 10947.459751064749, -187500.02235174447, 0.012, 0.972, -0.146, 192.0, 0.0, 0.0, 0.0, 0.0, 0.0, 0.0, 0.0, 0.0, 0.0, 1.745267707747715E9, 0.0, 2025-04-21 15:35:07.747
186.0, -24004.566550799198, 263.81763980598924, 11021.42167346736, 5022.839310507692, 8270.436021141531, 15671.38918297162, -7527.218166258117, 10232.673315128484, 12392.45532661144, -14213.206078196297, -13453.313821949223, 45978.16419341138, -3872.775003048778, 6612.875355824871, 10948.934966198798, -187500.02235174447, 0.012, 0.972, -0.146, 192.0, 0.0, 0.0, 0.0, 0.0, 0.0, 0.0, 0.0, 0.0, 0.0, 1.745267707747968E9, 0.0, 2025-04-21 15:35:07.747
188.0, -24007.114649667103, 270.5455148870367, 11031.904641616899, 5032.405857134564, 8278.594407867718, 15692.57863671525, -7523.038390044974, 10246.732562390873, 12390.130745188088, -14206.81347928208, -13444.775455567296, 45955.4995245337, -3862.0014622213203, 6623.291268741044, 10957.205111647263, -187500.02235174447, 0.012, 0.972, -0.146, 192.0, 0.0, 0.0, 0.0, 0.0, 0.0, 0.0, 0.0, 0.0, 0.0, 1.745267707748218E9, 0.0, 2025-04-21 15:35:07.748
190.0, -23974.21288182889, 290.4609191967153, 11037.447874241814, 5042.419438650541, 8271.643015342119, 15708.023692133867, -7529.073361047907, 10250.845283370649, 12402.915943016524, -14200.420880367861, -13441.400342154544, 46002.9075745234, -3859.229845908862, 6635.2047485357225, 10953.874701723422, -187500.02235174447, 0.014, 0.972, -0.15, 192.0, 0.0, 64.0, 15.0, 48.0, 125.5, 24.0, 0.0, 0.0, 0.0, 1.745267707748473E9, 0.0, 2025-04-21 15:35:07.748
192.0, -23972.3576870391, 297.4346634667711, 11046.165054579384, 5050.622528865639, 8272.87236128716, 15716.53970677134, -7539.422218730715, 10256.232053784377, 12424.21715548243, -14184.506438315682, -13428.481033859378, 45992.804586029604, -3849.015098692787, 6657.824713924493, 10961.921329727333, -187500.02235174447, 0.014, 0.972, -0.15, 192.0, 0.0, 0.0, 0.0, 0.0, 0.0, 0.0, 0.0, 0.0, 0.0, 1.745267707748741E9, 0.0, 2025-04-21 15:35:07.748
194.0, -23992.295443093237, 275.9769887896763, 11037.492577730725, 5037.6585170815615, 8264.87043677216, 15695.976101872457, -7549.122875824318, 10234.886137829559, 12416.706969345447, -14193.961226220277, -13427.89988850354, 46018.598499131025, -3848.724526014868, 6650.716859187706, 10962.927158227822, -187500.02235174447, 0.014, 0.972, -0.15, 192.0, 0.0, 0.0, 0.0, 0.0, 0.0, 0.0, 0.0, 0.0, 0.0, 1.745267707748996E9, 0.0, 2025-04-21 15:35:07.748
196.0, -24016.502382338334, 249.4007646323162, 11020.281734500139, 5014.345647614676, 8256.488532601421, 15670.539816682318, -7562.198646330673, 10212.981428263358, 12393.081175456187, -14213.451947385305, -13451.749199837352, 45966.07189966105, -3863.007290721809, 6620.83257685096, 10938.519053282625, -187500.02235174447, 0.014, 0.972, -0.15, 192.0, 0.0, 0.0, 0.0, 0.0, 0.0, 0.0, 0.0, 0.0, 0.0, 1.745267707807531E9, 0.0, 2025-04-21 15:35:07.807
198.0, -24020.816269018207, 240.03538370554256, 11009.776414606145, 4998.542964284774, 8255.438000612021, 15655.117113008157, -7566.2219603326275, 10203.459585125398, 12381.21239915042, -14235.15549125141, -13465.160246510535, 45977.38188235544, -3876.843020539644, 6597.9890940176365, 10927.611401988435, -187500.02235174447, 0.014, 0.972, -0.15, 192.0, 0.0, 0.0, 0.0, 0.0, 0.0, 0.0, 0.0, 0.0, 0.0, 1.745267707807974E9, 0.0, 2025-04-21 15:35:07.807
200.0, -24018.290521894756, 242.89640699582185, 11011.676312884845, 4998.565316029229, 8263.082297215737, 15659.252185732388, -7562.444515519681, 10205.73946305984, 12383.849904996147, -14237.480072674762, -13464.802618599251, 45943.027251127634, -3869.4669448693926, 6591.9988265036145, 10927.030256632597, -187500.02235174447, 0.012, 0.972, -0.151, 192.0, 0.0, 40.0, 15.0, 48.0, 125.5, 32.0, 0.0, 0.0, 0.0, 1.745267707808299E9, 0.0, 2025-04-21 15:35:07.808
202.0, -24020.637455062566, 244.81865701897826, 11008.211792494272, 4996.732472983894, 8262.545855348808, 15655.787665341815, -7568.59124524489, 10205.091262470634, 12381.92765497299, -14239.9611163093, -13463.23799648738, 45971.123393907954, -3862.9402354884432, 6585.807393289494, 10930.695942723269, -187500.02235174447, 0.012, 0.972, -0.151, 192.0, 0.0, 0.0, 0.0, 0.0, 0.0, 0.0, 0.0, 0.0, 0.0, 1.745267707808564E9, 0.0, 2025-04-21 15:35:07.808
204.0, -24023.3196643972, 246.33857564193914, 11003.115594758463, 4996.955990428447, 8257.53906459082, 15650.646764117095, -7577.800163960477, 10197.581076333652, 12384.676919540992, -14249.415904213894, -13467.350717467156, 45951.990300654215, -3869.176372191474, 6583.974550244159, 10926.985553143688, -187500.02235174447, 0.012, 0.972, -0.151, 192.0, 0.0, 0.0, 0.0, 0.0, 0.0, 0.0, 0.0, 0.0, 0.0, 1.745267707808817E9, 0.0, 2025-04-21 15:35:07.808
206.0, -24026.38185338758, 252.03827047804245, 11004.233181981228, 5000.107586396645, 8251.749962776896, 15656.681735120028, -7583.969245430142, 10202.789032791738, 12384.788678263269, -14237.837700586046, -13465.517874421821, 45973.4032718424, -3873.3114449157056, 6585.740338056128, 10923.83395717549, -187500.02235174447, 0.012, 0.972, -0.151, 192.0, 0.0, 0.0, 0.0, 0.0, 0.0, 0.0, 0.0, 0.0, 0.0, 1.745267707809084E9, 0.0, 2025-04-21 15:35:07.809
208.0, -24017.99994921684, 255.70395656871278, 11001.998007535698, 4998.207688117944, 8257.606119824186, 15652.412551929065, -7561.63985271929, 10196.843468766627, 12377.434954337474, -14245.77256986768, -13465.607281399642, 45956.43829780082, -3875.5466193612365, 6585.852096778405, 10923.856308919943, -187500.02235174447, 0.012, 0.972, -0.151, 192.0, 0.0, 0.0, 0.0, 0.0, 0.0, 0.0, 0.0, 0.0, 0.0, 1.745267707809332E9, 0.0, 2025-04-21 15:35:07.809
210.0, -24019.788088773264, 255.7486600576234, 11003.98731279222, 5001.694560252972, 8259.975404736448, 15659.05102003229, -7561.237521319094, 10210.701550328917, 12386.621521308603, -14237.480072674762, -13465.316708721723, 45969.35760609598, -3874.227866438373, 6588.0649194794805, 10931.791178201578, -187500.02235174447, 0.013000000000000001, 0.972, -0.1525, 192.0, 0.0, 56.0, 15.0, 48.0, 125.5, 24.0, 0.0, 0.0, 0.0, 1.745267707866416E9, 0.0, 2025-04-21 15:35:07.866
212.0, -24025.778356287286, 249.69133731023518, 11007.720054116257, 5008.0201039338235, 8263.238759426924, 15662.739057867415, -7558.644718962279, 10210.612143351096, 12381.726489272893, -14251.986354826255, -13470.748182624362, 45960.171039124856, -3875.6360263390575, 6580.912361253782, 10930.651239234357, -187500.02235174447, 0.013000000000000001, 0.972, -0.1525, 192.0, 0.0, 0.0, 0.0, 0.0, 0.0, 0.0, 0.0, 0.0, 0.0, 1.745267707866734E9, 0.0, 2025-04-21 15:35:07.866
214.0, -24033.892039524562, 244.75160178561234, 11004.434347681326, 4999.593496274173, 8257.069677957259, 15657.86637757616, -7572.882780180309, 10201.157355446501, 12382.665262540015, -14252.276927504174, -13471.508141935843, 45963.54615253761, -3874.6078460941135, 6582.655797321296, 10926.426759532305, -187500.02235174447, 0.013000000000000001, 0.972, -0.1525, 192.0, 0.0, 0.0, 0.0, 0.0, 0.0, 0.0, 0.0, 0.0, 0.0, 1.745267707866987E9, 0.0, 2025-04-21 15:35:07.866
216.0, -24013.08256543667, 250.38424138834972, 11013.777376863645, 5006.343723099676, 8264.468105371965, 15660.056848532779, -7551.760381670044, 10207.102919471612, 12384.475753840894, -14242.196290754831, -13468.825932601207, 45956.1477251229, -3874.6749013274793, 6581.82878277645, 10924.30334380905, -187500.02235174447, 0.013000000000000001, 0.972, -0.1525, 192.0, 0.0, 0.0, 0.0, 0.0, 0.0, 0.0, 0.0, 0.0, 0.0, 1.745267707867241E9, 0.0, 2025-04-21 15:35:07.867
218.0, -24010.55681831322, 259.213180448196, 11022.56161243458, 5015.977324959913, 8269.609006596686, 15675.211331273476, -7553.325003781915, 10216.1106724871, 12397.21624818042, -14228.76289233719, -13458.477074918399, 45965.468402560764, -3863.5437325887365, 6591.529439870053, 10935.233346847695, -187500.02235174447, 0.013000000000000001, 0.972, -0.1525, 192.0, 0.0, 0.0, 0.0, 0.0, 0.0, 0.0, 0.0, 0.0, 0.0, 1.74526770786749E9, 0.0, 2025-04-21 15:35:07.867
220.0, -24021.75504228533, 247.7914390315341, 11010.759891362179, 5008.064807422735, 8259.707183802984, 15667.857607347682, -7562.422163775225, 10202.565515347185, 12401.328969160197, -14235.15549125141, -13455.5266446503, 45976.934847466335, -3861.3756133765714, 6599.531364385052, 10937.714390482235, -187500.02235174447, 0.013500000000000002, 0.969, -0.15525, 192.0, 0.0, 56.0, 15.0, 24.0, 125.5, 8.0, 0.0, 0.0, 0.0, 1.745267707867739E9, 0.0, 2025-04-21 15:35:07.867
222.0, -24019.095184695147, 252.99939548962064, 11005.551934904091, 5006.120205655123, 8260.109515203181, 15666.38239221363, -7564.433820776203, 10209.136928217045, 12388.02968120929, -14246.86780534599, -13471.396383213567, 45960.70748099178, -3870.4057181365156, 6587.349663656911, 10925.532689754093, -187500.02235174447, 0.013500000000000002, 0.969, -0.15525, 192.0, 0.0, 0.0, 0.0, 0.0, 0.0, 0.0, 0.0, 0.0, 0.0, 1.745267707867995E9, 0.0, 2025-04-21 15:35:07.867
224.0, -24015.049518948737, 251.03244197755362, 11003.584981392025, 5007.5507173002625, 8258.701355302495, 15661.57676715574, -7572.59220750239, 10206.342960160133, 12390.823649266202, -14241.324572721074, -13472.312804736233, 45970.76576599667, -3870.517476858792, 6592.311750925988, 10923.006942630642, -187500.02235174447, 0.013500000000000002, 0.969, -0.15525, 192.0, 0.0, 0.0, 0.0, 0.0, 0.0, 0.0, 0.0, 0.0, 0.0, 1.745267707868239E9, 0.0, 2025-04-21 15:35:07.868
226.0, -24015.630664304575, 254.87694202386643, 11001.662731368868, 4999.951124185458, 8258.835465769227, 15666.650613147094, -7570.938178412697, 10205.918277015482, 12397.640931325072, -14230.685142360348, -13469.47413319041, 45949.41985004185, -3864.706023300412, 6595.530402127552, 10928.147843855364, -187500.02235174447, 0.013500000000000002, 0.969, -0.15525, 192.0, 0.0, 0.0, 0.0, 0.0, 0.0, 0.0, 0.0, 0.0, 0.0, 1.74526770792805E9, 0.0, 2025-04-21 15:35:07.928
228.0, -24010.825039246683, 258.5873316034474, 11005.775452348644, 5006.008446932847, 8258.701355302495, 15665.041287546312, -7558.577663728913, 10213.584925363652, 12390.622483566105, -14226.81829056958, -13471.441086702478, 45974.94554220981, -3867.9023227575212, 6596.849155050416, 10932.171157857318, -187500.02235174447, 0.013500000000000002, 0.969, -0.15525, 192.0, 0.0, 0.0, 0.0, 0.0, 0.0, 0.0, 0.0, 0.0, 0.0, 1.745267707928351E9, 0.0, 2025-04-21 15:35:07.928
230.0, -24006.153524655525, 263.23649445015127, 11005.641341881912, 5008.243621378377, 8252.487570343921, 15662.38142995613, -7557.951814884164, 10215.529527131263, 12397.439765624973, -14226.371255680473, -13463.483865676388, 45968.262370617675, -3869.489296613848, 6601.051283008013, 10941.670649250824, -187500.02235174447, 0.01575, 0.9715, -0.153625, 192.0, 0.0, 72.0, 15.0, 56.0, 125.5, 32.0, 0.0, 0.0, 0.0, 1.745267707928608E9, 0.0, 2025-04-21 15:35:07.928
232.0, -24004.074812421182, 261.9400932717435, 11006.401301193393, 5015.329124370709, 8248.464256341966, 15666.650613147094, -7555.44841950517, 10214.300181186221, 12395.472812112906, -14220.179822466353, -13464.75791511034, 45996.06794072008, -3875.5913228501468, 6601.699483597217, 10938.049666649064, -187500.02235174447, 0.01575, 0.9715, -0.153625, 192.0, 0.0, 0.0, 0.0, 0.0, 0.0, 0.0, 0.0, 0.0, 0.0, 1.745267707928873E9, 0.0, 2025-04-21 15:35:07.928
234.0, -23994.441210560944, 272.42306142128245, 11022.18163277884, 5028.114322199145, 8257.784933779829, 15685.62724418965, -7543.6243466883125, 10226.615992381096, 12404.659379084038, -14215.396549152918, -13458.052391773748, 45974.72202476526, -3871.255084425817, 6614.663495381295, 10944.397562074371, -187500.02235174447, 0.01575, 0.9715, -0.153625, 192.0, 0.0, 0.0, 0.0, 0.0, 0.0, 0.0, 0.0, 0.0, 0.0, 1.74526770792912E9, 0.0, 2025-04-21 15:35:07.929
236.0, -23987.892149435538, 274.50177365562604, 11032.016400339175, 5033.501092612874, 8262.523503604354, 15685.515485467373, -7537.499968707558, 10233.321515717687, 12415.45527165595, -14207.9534182493, -13449.13404573608, 46010.32835368256, -3859.8109912647, 6624.587669919452, 10952.779466245112, -187500.02235174447, 0.01575, 0.9715, -0.153625, 192.0, 0.0, 0.0, 0.0, 0.0, 0.0, 0.0, 0.0, 0.0, 0.0, 1.745267707929366E9, 0.0, 2025-04-21 15:35:07.929
238.0, -23987.17689361297, 274.23355272216236, 11031.032923583141, 5032.249394923377, 8261.338861148222, 15689.58350295824, -7548.429971746204, 10222.324457445677, 12420.685579858493, -14198.409223366883, -13439.61220259812, 45991.19526042882, -3851.630252794058, 6631.807283378516, 10955.662841279845, -187500.02235174447, 0.01575, 0.9715, -0.153625, 192.0, 0.0, 0.0, 0.0, 0.0, 0.0, 0.0, 0.0, 0.0, 0.0, 1.745267707929613E9, 0.0, 2025-04-21 15:35:07.929
240.0, -23986.036954645748, 265.1587444733077, 11038.766627164678, 5038.574938604229, 8266.613872839675, 15694.746755927416, -7543.892567621776, 10227.375951692577, 12413.667132099526, -14209.920371761367, -13445.557766623231, 46039.89971159693, -3856.838209252144, 6630.2650130111, 10949.247890621173, -187500.02235174447, 0.014875, 0.97375, -0.15081250000000002, 192.0, 0.0, 56.0, 15.0, 64.0, 125.5, 48.0, 0.0, 0.0, 0.0, 1.745267707986979E9, 0.0, 2025-04-21 15:35:07.986
242.0, -23997.123419895583, 249.33370939895028, 11036.956135863798, 5032.4952641123855, 8271.73242231994, 15688.287101779832, -7540.763323398033, 10225.699570858427, 12420.238544969387, -14213.67546482986, -13437.734656063874, 46020.74426659874, -3844.3212323571724, 6633.103684556924, 10955.059344179554, -187500.02235174447, 0.014875, 0.97375, -0.15081250000000002, 192.0, 0.0, 0.0, 0.0, 0.0, 0.0, 0.0, 0.0, 0.0, 0.0, 1.74526770798727E9, 0.0, 2025-04-21 15:35:07.987
244.0, -24021.33035914068, 212.85566244788916, 11016.772510620656, 5006.209612632944, 8258.030802968837, 15666.136523024623, -7553.6602799487455, 10216.468300398386, 12409.085024486189, -14243.939726822344, -13454.856092316639, 46041.77725813118, -3851.719659771879, 6613.970591303181, 10947.906785953855, -187500.02235174447, 0.014875, 0.97375, -0.15081250000000002, 192.0, 0.0, 0.0, 0.0, 0.0, 0.0, 0.0, 0.0, 0.0, 0.0, 1.74526770798752E9, 0.0, 2025-04-21 15:35:07.987
246.0, -24041.648094850552, 191.71091219316867, 11000.299274957095, 4993.424414804508, 8244.865625484661, 15657.039363031312, -7568.479486522614, 10198.586904834141, 12390.488373099372, -14269.912453879411, -13481.566426940732, 45999.018370988175, -3864.6389680670463, 6592.244695692622, 10923.901012408855, -187500.02235174447, 0.014875, 0.97375, -0.15081250000000002, 192.0, 0.0, 0.0, 0.0, 0.0, 0.0, 0.0, 0.0, 0.0, 0.0, 1.745267707987768E9, 0.0, 2025-04-21 15:35:07.987
248.0, -24049.2253362209, 184.08896733390895, 11003.741443603212, 5004.779100987805, 8250.878244743139, 15670.562168426773, -7564.970262643131, 10210.813309051193, 12379.0219281938, -14272.952291125333, -13483.57808394171, 46032.41187720441, -3868.90815125801, 6601.207745219201, 10928.7289892112, -187500.02235174447, 0.014875, 0.97375, -0.15081250000000002, 192.0, 0.0, 0.0, 0.0, 0.0, 0.0, 0.0, 0.0, 0.0, 0.0, 1.745267707988025E9, 0.0, 2025-04-21 15:35:07.988
250.0, -24059.641249137076, 176.06469107445372, 11001.41686217986, 5009.405912090053, 8254.38746862262, 15674.33961323972, -7553.570872970924, 10214.59075386414, 12371.77996299028, -14275.031003359676, -13485.992072342882, 46009.43428390435, -3870.204552436418, 6607.063902266491, 10925.979724643199, -187500.02235174447, 0.014875, 0.97375, -0.15081250000000002, 192.0, 0.0, 0.0, 0.0, 0.0, 0.0, 0.0, 0.0, 0.0, 0.0, 1.745267707988273E9, 0.0, 2025-04-21 15:35:07.988
252.0, -24073.745199888373, 171.8402113724007, 10996.99121677771, 5006.9025167110585, 8250.341802876212, 15673.110267294678, -7554.084963093396, 10218.301143443721, 12356.804294205225, -14279.300186550641, -13491.244732289879, 46032.657746393415, -3877.982959506865, 6608.919097056281, 10928.594878744469, -187500.02235174447, 0.008, 0.972, -0.152, 192.0, 0.0, 32.0, 15.0, 48.0, 125.5, 32.0, 0.0, 0.0, 0.0, 1.745267707988534E9, 0.0, 2025-04-21 15:35:07.988
254.0, -24080.29426101378, 173.24837127308504, 11000.008702279176, 5012.311638869243, 8256.82380876825, 15679.234645275432, -7546.35125951186, 10227.085379014658, 12350.232881335365, -14271.119448079999, -13491.20002880097, 46004.98628675775, -3878.0276629957752, 6607.063902266491, 10926.136186854386, -187500.02235174447, 0.008, 0.972, -0.152, 192.0, 0.0, 0.0, 0.0, 0.0, 0.0, 0.0, 0.0, 0.0, 0.0, 1.745267707988796E9, 0.0, 2025-04-21 15:35:07.988
0.0, -24087.71504017294, 169.78385088251244, 10994.957208032276, 5016.8266912492145, 8258.92487274705, 15682.274482521354, -7542.149131554263, 10232.650963384029, 12336.330096284164, -14270.001860857232, -13497.86084864865, 46031.942490570844, -3886.498974144337, 6617.54687041603, 10931.59001250148, -187500.02235174447, 0.008, 0.972, -0.152, 192.0, 0.0, 0.0, 0.0, 0.0, 0.0, 0.0, 0.0, 0.0, 0.0, 1.745267708047239E9, 0.0, 2025-04-21 15:35:08.047
2.0, -24091.00074660787, 166.60990316985885, 10994.420766165349, 5021.0511709512675, 8260.824771025751, 15689.829372147247, -7538.505797208047, 10229.253498226823, 12322.740235655338, -14267.20789280032, -13506.332159797212, 46017.77148458618, -3889.2705904567947, 6620.206728006212, 10930.58418400099, -187500.02235174447, 0.008, 0.972, -0.152, 192.0, 0.0, 0.0, 0.0, 0.0, 0.0, 0.0, 0.0, 0.0, 0.0, 1.745267708047515E9, 0.0, 2025-04-21 15:35:08.047
4.0, -24097.259235055357, 175.39413874079452, 11002.243876724706, 5026.482644853908, 8266.278596672844, 15692.936264626536, -7538.7293146526, 10234.84143434065, 12317.353465241607, -14256.43435197286, -13503.62759871812, 46031.54015917065, -3886.789546822256, 6630.063847311002, 10931.455902034748, -187500.02235174447, 0.008, 0.972, -0.152, 192.0, 0.0, 0.0, 0.0, 0.0, 0.0, 0.0, 0.0, 0.0, 0.0, 1.745267708047762E9, 0.0, 2025-04-21 15:35:08.047
6.0, -24091.648947197074, 182.2337725441185, 11006.915391315866, 5029.075447210723, 8264.4010501386, 15694.29972103831, -7536.650602418256, 10225.118425502591, 12323.008456588801, -14238.95528780881, -13495.893895136584, 46035.54112142815, -3885.6272561105798, 6636.165873547301, 10935.83684394799, -187500.02235174447, 0.006, 0.968, -0.152, 192.0, 0.0, 24.0, 15.0, 32.0, 125.5, 32.0, 0.0, 0.0, 0.0, 1.745267708048012E9, 0.0, 2025-04-21 15:35:08.048
8.0, -24076.09213305618, 199.28815356351777, 11017.308952487583, 5041.212444449955, 8265.026898983348, 15708.649540978617, -7539.82455013091, 10236.78603610826, 12329.602221203117, -14231.042770271633, -13488.271950277323, 46051.41085999142, -3885.135517732563, 6647.542911475052, 10935.769788714622, -187500.02235174447, 0.006, 0.968, -0.152, 192.0, 0.0, 0.0, 0.0, 0.0, 0.0, 0.0, 0.0, 0.0, 0.0, 1.745267708048272E9, 0.0, 2025-04-21 15:35:08.048
10.0, -24072.024115565317, 206.23954608911828, 11018.024208310153, 5045.191054962999, 8260.06481171427, 15707.82252643377, -7549.100524079862, 10239.289431487256, 12334.206680560908, -14212.33436016254, -13476.894912349571, 46080.73634871678, -3879.458174640915, 6660.596330236952, 10941.268317850629, -187500.02235174447, 0.006, 0.968, -0.152, 192.0, 0.0, 0.0, 0.0, 0.0, 0.0, 0.0, 0.0, 0.0, 0.0, 1.745267708048524E9, 0.0, 2025-04-21 15:35:08.048
12.0, -24060.781188104294, 218.93533693973268, 11027.791920637123, 5052.52242714434, 8272.87236128716, 15709.20833459, -7527.531090680492, 10247.581928680174, 12344.82375917718, -14204.28773215863, -13474.078592548203, 46086.45839529734, -3873.423203637982, 6662.004490137636, 10938.899032938365, -187500.02235174447, 0.006, 0.968, -0.152, 192.0, 0.0, 0.0, 0.0, 0.0, 0.0, 0.0, 0.0, 0.0, 0.0, 1.745267708048762E9, 0.0, 2025-04-21 15:35:08.048
14.0, -24046.81134781973, 231.49701732361524, 11022.47220545676, 5055.76343009036, 8273.967596765471, 15717.433776549553, -7528.939250581176, 10245.83849261266, 12346.947174900435, -14189.848505240501, -13472.133990780592, 46103.51277631674, -3874.8313635386667, 6671.436926297775, 10952.243024378184, -187500.02235174447, 0.006, 0.968, -0.152, 192.0, 0.0, 0.0, 0.0, 0.0, 0.0, 0.0, 0.0, 0.0, 0.0, 1.745267708107583E9, 0.0, 2025-04-21 15:35:08.107
16.0, -24036.797766303753, 240.05773544999786, 11031.904641616899, 5061.8431045822035, 8289.814983584283, 15732.297686612332, -7518.858613831832, 10263.116391076612, 12358.659488995016, -14183.031223181633, -13466.344888966667, 46094.61678202353, -3867.2094186794066, 6684.110365403934, 10957.987422703198, -187500.02235174447, 0.006, 0.964, -0.154, 192.0, 0.0, 24.0, 15.0, 16.0, 125.5, 24.0, 0.0, 0.0, 0.0, 1.745267708107873E9, 0.0, 2025-04-21 15:35:08.107
18.0, -24049.359446687635, 227.49605506611528, 11015.721978631256, 5047.1133049861555, 8278.884980545638, 15724.139299886145, -7531.129721537795, 10251.761704893315, 12348.44474177894, -14195.771717521158, -13479.711232150941, 46111.82762525411, -3873.5349623602588, 6673.649748998851, 10951.304251111062, -187500.02235174447, 0.006, 0.964, -0.154, 192.0, 0.0, 0.0, 0.0, 0.0, 0.0, 0.0, 0.0, 0.0, 0.0, 1.745267708108157E9, 0.0, 2025-04-21 15:35:08.108
20.0, -24040.351693672146, 241.22002616167381, 11021.064045556075, 5058.467991169452, 8283.981178281449, 15727.715578998994, -7518.992724298564, 10268.056126601236, 12343.683820209959, -14175.096353899999, -13475.553807682254, 46096.762549491235, -3878.2288286958733, 6671.70514723124, 10950.92427145532, -187500.02235174447, 0.006, 0.964, -0.154, 192.0, 0.0, 0.0, 0.0, 0.0, 0.0, 0.0, 0.0, 0.0, 0.0, 1.745267708108499E9, 0.0, 2025-04-21 15:35:08.108
22.0, -24022.872629508096, 245.80213377501178, 11025.266173513672, 5066.000529050891, 8285.411689926588, 15726.35212258722, -7517.070474275408, 10264.546902721751, 12347.505968511818, -14179.767868491159, -13465.875502333105, 46123.405828881965, -3872.886761771055, 6681.092879902468, 10959.283823881606, -187500.02235174447, 0.006, 0.964, -0.154, 192.0, 0.0, 0.0, 0.0, 0.0, 0.0, 0.0, 0.0, 0.0, 0.0, 1.745267708108767E9, 0.0, 2025-04-21 15:35:08.108
24.0, -24019.631626562077, 258.4755728811709, 11032.239917783729, 5068.3027587297875, 8286.328111449255, 15725.770977231381, -7524.088922034374, 10257.751972407339, 12355.597300004638, -14184.37232784895, -13463.729734865396, 46098.304819858655, -3871.3221396591834, 6680.511734546631, 10959.93202447081, -187500.02235174447, 0.006, 0.964, -0.154, 192.0, 0.0, 0.0, 0.0, 0.0, 0.0, 0.0, 0.0, 0.0, 0.0, 1.745267708109005E9, 0.0, 2025-04-21 15:35:08.109
26.0, -24004.074812421182, 275.86523006739975, 11048.444932513827, 5084.172497293055, 8289.837335328739, 15739.53965181585, -7518.121006264807, 10263.496370732353, 12367.309614099218, -14166.915615429356, -13449.46932190291, 46129.887834774, -3858.9839767198537, 6694.816850998027, 10966.034050707109, -187500.02235174447, 0.004, 0.964, -0.154, 192.0, 0.0, 16.0, 15.0, 16.0, 125.5, 24.0, 0.0, 0.0, 0.0, 1.745267708109241E9, 0.0, 2025-04-21 15:35:08.109
28.0, -23998.308062351713, 277.02752077907576, 11045.829778412555, 5076.259979755876, 8291.536067907342, 15730.643657522638, -7511.639000372768, 10267.027946356291, 12371.332928101174, -14158.064324625055, -13443.61316485562, 46107.804311252155, -3860.2580261538064, 6692.268752130121, 10972.851332765977, -187500.02235174447, 0.004, 0.964, -0.154, 192.0, 0.0, 0.0, 0.0, 0.0, 0.0, 0.0, 0.0, 0.0, 0.0, 1.74526770810952E9, 0.0, 2025-04-21 15:35:08.109
30.0, -23991.781352970764, 287.55519241752535, 11054.345793050026, 5081.914971103069, 8284.07058525927, 15733.59408779074, -7534.661297161734, 10256.209702039921, 12387.157963175532, -14161.774714204636, -13442.160301466025, 46125.015154482746, -3859.5651220756918, 6685.049138671057, 10965.11762918444, -187500.02235174447, 0.004, 0.964, -0.154, 192.0, 0.0, 0.0, 0.0, 0.0, 0.0, 0.0, 0.0, 0.0, 0.0, 1.745267708167065E9, 0.0, 2025-04-21 15:35:08.167
32.0, -23983.153579611015, 295.78063437707834, 11062.459476287304, 5083.613703681673, 8289.569114395275, 15735.784558747358, -7523.865404589821, 10271.028908613791, 12399.809050537235, -14147.648411708882, -13423.630705312575, 46103.08809317209, -3843.717735256879, 6700.695359789773, 10971.823152521034, -187500.02235174447, 0.004, 0.964, -0.154, 192.0, 0.0, 0.0, 0.0, 0.0, 0.0, 0.0, 0.0, 0.0, 0.0, 1.745267708167345E9, 0.0, 2025-04-21 15:35:08.167
34.0, -23995.22352161688, 281.11789001439695, 11049.47311275877, 5067.81102035177, 8289.859687073194, 15726.597991776229, -7521.004381299542, 10260.545940464252, 12389.951931232445, -14160.724182215237, -13437.980525252882, 46135.11814297654, -3852.5466743167253, 6690.592371295974, 10963.865931494944, -187500.02235174447, 0.004, 0.964, -0.154, 192.0, 0.0, 0.0, 0.0, 0.0, 0.0, 0.0, 0.0, 0.0, 0.0, 1.745267708167594E9, 0.0, 2025-04-21 15:35:08.167
36.0, -24006.153524655525, 270.8360875649557, 11037.89490913092, 5057.015127779857, 8289.770280095372, 15725.25688710891, -7531.44264596017, 10247.64898391354, 12377.189085148464, -14153.616327478449, -13452.620917871109, 46096.40492157995, -3842.980127689854, 6686.591409038474, 10964.000041961675, -187500.02235174447, 0.006, 0.968, -0.15, 192.0, 0.0, 24.0, 15.0, 32.0, 125.5, 40.0, 0.0, 0.0, 0.0, 1.745267708167838E9, 0.0, 2025-04-21 15:35:08.167
38.0, -23994.93294893896, 275.84287832294444, 11036.66556318588, 5057.640976624605, 8291.759585351896, 15716.673817238072, -7528.87219534781, 10248.297184502744, 12380.54184681676, -14160.523016515139, -13460.533435408288, 46117.84024451259, -3854.580683062158, 6682.188115380778, 10957.652146536368, -187500.02235174447, 0.006, 0.968, -0.15, 192.0, 0.0, 0.0, 0.0, 0.0, 0.0, 0.0, 0.0, 0.0, 0.0, 1.745267708168105E9, 0.0, 2025-04-21 15:35:08.168
40.0, -23990.28378609226, 284.8282795939779, 11030.295316016116, 5059.563226647762, 8289.278541717356, 15711.219991590977, -7531.017962815519, 10240.965812321403, 12388.856695754135, -14151.269394310642, -13448.03881025777, 46090.258191854744, -3846.198778891418, 6685.764394493627, 10961.83192274951, -187500.02235174447, 0.006, 0.968, -0.15, 192.0, 0.0, 0.0, 0.0, 0.0, 0.0, 0.0, 0.0, 0.0, 0.0, 1.745267708168358E9, 0.0, 2025-04-21 15:35:08.168
42.0, -23976.962146396894, 295.6465239103465, 11032.932821861843, 5070.269712241854, 8290.038501028837, 15721.524145784873, -7523.507776678536, 10262.311728276221, 12383.291111384764, -14146.888452397401, -13451.860958559628, 46119.963660235844, -3855.362994118094, 6682.32222584751, 10954.791123246088, -187500.02235174447, 0.006, 0.968, -0.15, 192.0, 0.0, 0.0, 0.0, 0.0, 0.0, 0.0, 0.0, 0.0, 0.0, 1.745267708168604E9, 0.0, 2025-04-21 15:35:08.168
44.0, -23977.252719074815, 291.5785064194806, 11031.770531150167, 5075.164744277567, 8283.221218969968, 15727.804985976814, -7526.30174473545, 10259.160132308023, 12388.789640520768, -14132.739798157192, -13443.076722988693, 46091.59929652206, -3861.6661860544905, 6692.894600974871, 10958.210940147752, -187500.02235174447, 0.006, 0.968, -0.15, 192.0, 0.0, 0.0, 0.0, 0.0, 0.0, 0.0, 0.0, 0.0, 0.0, 1.745267708226724E9, 0.0, 2025-04-21 15:35:08.226
46.0, -23977.967974897383, 296.63000066638006, 11036.307935274594, 5076.349386733697, 8277.141544478125, 15729.727235999972, -7536.963526840631, 10255.516797961807, 12385.056899196732, -14141.613440705949, -13441.936784021473, 46124.434009126904, -3860.0121569647977, 6692.179345152301, 10952.488893567193, -187500.02235174447, 0.006, 0.968, -0.154, 192.0, 0.0, 24.0, 15.0, 32.0, 125.5, 24.0, 0.0, 0.0, 0.0, 1.745267708227019E9, 0.0, 2025-04-21 15:35:08.227
48.0, -23972.894128906028, 305.3471810039498, 11045.00276386771, 5081.490287958418, 8282.483611402942, 15737.840919237247, -7530.570927926413, 10249.973565336892, 12390.823649266202, -14136.18196680331, -13434.381894395578, 46112.699343287866, -3858.8945697420327, 6697.454356843753, 10954.679364523812, -187500.02235174447, 0.006, 0.968, -0.154, 192.0, 0.0, 0.0, 0.0, 0.0, 0.0, 0.0, 0.0, 0.0, 0.0, 1.745267708227282E9, 0.0, 2025-04-21 15:35:08.227
50.0, -23967.753227681307, 313.10323632994135, 11061.721868720279, 5090.967427607468, 8292.273675474367, 15743.339448373254, -7517.5622126534245, 10267.452629500942, 12391.78477427778, -14136.561946459049, -13433.621935084098, 46135.25225344327, -3851.2055696494067, 6697.029673699102, 10963.240082650194, -187500.02235174447, 0.006, 0.968, -0.154, 192.0, 0.0, 0.0, 0.0, 0.0, 0.0, 0.0, 0.0, 0.0, 0.0, 1.745267708227544E9, 0.0, 2025-04-21 15:35:08.227
52.0, -23975.64339347403, 303.2237652806956, 11061.878330931466, 5087.189982794522, 8282.841239314228, 15742.35597161722, -7523.8430528453655, 10266.491504489364, 12404.815841295223, -14134.617344691438, -13422.066083200703, 46120.61186082505, -3836.699287497913, 6701.634133056896, 10971.778449032123, -187500.02235174447, 0.006, 0.968, -0.154, 192.0, 0.0, 0.0, 0.0, 0.0, 0.0, 0.0, 0.0, 0.0, 0.0, 1.745267708227783E9, 0.0, 2025-04-21 15:35:08.227
54.0, -23978.88439642005, 298.0381605670644, 11060.313708819594, 5087.7934798948145, 8277.789745067328, 15742.132454172666, -7533.990744828075, 10257.03671658477, 12395.897495257557, -14141.03229535011, -13430.85031877164, 46127.384439395006, -3848.8362847371445, 6695.107423675946, 10960.513169826649, -187500.02235174447, 0.006, 0.968, -0.154, 192.0, 0.0, 0.0, 0.0, 0.0, 0.0, 0.0, 0.0, 0.0, 0.0, 1.745267708228023E9, 0.0, 2025-04-21 15:35:08.228
56.0, -23969.921346893472, 304.43075948128217, 11068.449743801326, 5096.95769512149, 8287.758623094394, 15754.314154900809, -7518.590392898369, 10261.819989898204, 12403.564143605727, -14131.197527789776, -13421.08260644467, 46115.917994489435, -3841.035525922242, 6707.736159293194, 10965.318794884539, -187500.02235174447, 0.009000000000000001, 0.97, -0.156, 192.0, 0.0, 48.0, 15.0, 48.0, 125.5, 8.0, 0.0, 0.0, 0.0, 1.745267708228274E9, 0.0, 2025-04-21 15:35:08.228
58.0, -23963.97578286836, 306.24125078216207, 11066.460438544804, 5089.268695028865, 8285.366986437677, 15739.137320415655, -7526.055875546441, 10258.869559630104, 12409.666169842027, -14137.210147048254, -13417.573382565188, 46119.18134917991, -3841.035525922242, 6707.691455804284, 10967.866893752444, -187500.02235174447, 0.009000000000000001, 0.97, -0.156, 192.0, 0.0, 0.0, 0.0, 0.0, 0.0, 0.0, 0.0, 0.0, 0.0, 1.745267708228529E9, 0.0, 2025-04-21 15:35:08.228
60.0, -23965.78627416924, 303.38022749188275, 11062.682993731856, 5083.121965303656, 8282.103631747203, 15720.808889962304, -7532.180253527195, 10251.627594426584, 12412.46013789894, -14138.998286604678, -13422.960152978916, 46114.66629679994, -3833.458284551893, 6695.84503124297, 10963.150675672374, -187500.02235174447, 0.009000000000000001, 0.97, -0.156, 192.0, 0.0, 0.0, 0.0, 0.0, 0.0, 0.0, 0.0, 0.0, 0.0, 1.74526770828697E9, 0.0, 2025-04-21 15:35:08.286
62.0, -23967.03797185874, 303.9613728477207, 11061.833627442555, 5076.036462311324, 8280.49430614642, 15719.087805639245, -7541.545634453969, 10236.428408196976, 12408.190954707976, -14137.880699381913, -13426.648190814041, 46105.569136806625, -3832.0277729067534, 6690.905295718348, 10958.434457592304, -187500.02235174447, 0.009000000000000001, 0.97, -0.156, 192.0, 0.0, 0.0, 0.0, 0.0, 0.0, 0.0, 0.0, 0.0, 0.0, 1.745267708287274E9, 0.0, 2025-04-21 15:35:08.287
64.0, -23968.31202129269, 300.0274658235867, 11060.850150686521, 5073.890694843614, 8280.896637546615, 15714.103366625712, -7541.724448409611, 10228.98527729336, 12402.267742427319, -14149.011868120655, -13431.789092038762, 46109.79361650868, -3832.228938606851, 6682.188115380778, 10953.31590811204, -187500.02235174447, 0.009000000000000001, 0.97, -0.156, 192.0, 0.0, 0.0, 0.0, 0.0, 0.0, 0.0, 0.0, 0.0, 0.0, 1.745267708287518E9, 0.0, 2025-04-21 15:35:08.287
66.0, -23974.101123106615, 301.74855014664536, 11061.274833831172, 5073.421308210052, 8278.706166589996, 15714.148070114623, -7550.218111302628, 10229.767588349294, 12408.436823896984, -14150.688248954804, -13430.000952482338, 46091.15226163295, -3833.0559531516974, 6677.896580445359, 10954.835826735, -187500.02235174447, 0.009500000000000001, 0.97, -0.159, 192.0, 0.0, 40.0, 15.0, 40.0, 125.0, 120.0, 0.0, 0.0, 0.0, 1.745267708287764E9, 0.0, 2025-04-21 15:35:08.287
68.0, -23967.529710236755, 306.15184380434084, 11061.766572209188, 5078.741023390416, 8282.930646292049, 15714.706863726005, -7549.0781723354075, 10234.819082596194, 12406.603980851649, -14130.102292311465, -13423.049559956737, 46107.02200019622, -3828.6973629829126, 6681.763432236127, 10959.037954692598, -187500.02235174447, 0.009500000000000001, 0.97, -0.159, 192.0, 0.0, 0.0, 0.0, 0.0, 0.0, 0.0, 0.0, 0.0, 0.0, 1.745267708288031E9, 0.0, 2025-04-21 15:35:08.288
70.0, -23974.03406787325, 308.7446461611565, 11049.8083889256, 5074.024805310346, 8280.851934057706, 15709.051872378812, -7541.366820498326, 10237.79186460875, 12404.145288961565, -14130.996362089678, -13430.738560049364, 46092.1804418779, -3847.6292905365576, 6676.242551355666, 10954.902881968366, -187500.02235174447, 0.009500000000000001, 0.97, -0.159, 192.0, 0.0, 0.0, 0.0, 0.0, 0.0, 0.0, 0.0, 0.0, 0.0, 1.745267708288284E9, 0.0, 2025-04-21 15:35:08.288
72.0, -23964.489872990835, 309.4822537281816, 11047.461455757792, 5082.33965424772, 8277.92385553406, 15720.138337628645, -7544.7419339110775, 10243.379800722576, 12406.40281515155, -14144.27329829613, -13428.481033859378, 46114.26396539974, -3847.04814518072, 6683.640978770373, 10956.579262802514, -187500.02235174447, 0.009500000000000001, 0.97, -0.159, 192.0, 0.0, 0.0, 0.0, 0.0, 0.0, 0.0, 0.0, 0.0, 0.0, 1.74526770828853E9, 0.0, 2025-04-21 15:35:08.288
74.0, -23970.30132654921, 303.08965481396376, 11034.296278273616, 5073.108383787678, 8275.599274110707, 15714.952732915013, -7531.39794247126, 10254.421562483498, 12395.562219090727, -14153.146940844887, -13434.22543218439, 46092.627476767004, -3857.776982519267, 6680.08705140198, 10950.007849932654, -187500.02235174447, 0.009500000000000001, 0.97, -0.159, 192.0, 0.0, 0.0, 0.0, 0.0, 0.0, 0.0, 0.0, 0.0, 0.0, 1.745267708347743E9, 0.0, 2025-04-21 15:35:08.347
76.0, -23970.94952713842, 302.77673039158947, 11030.451778227303, 5078.428098968041, 8274.280521187846, 15729.079035410767, -7531.5320529379915, 10255.852074128637, 12385.63804455257, -14153.683382711815, -13438.89694677555, 46115.26979390023, -3861.8002965212227, 6679.125926390401, 10947.906785953855, -187500.02235174447, 0.012750000000000001, 0.97, -0.1585, 192.0, 0.0, 64.0, 15.0, 40.0, 125.5, 8.0, 0.0, 0.0, 0.0, 1.745267708348016E9, 0.0, 2025-04-21 15:35:08.348
78.0, -23981.968937154885, 302.6202681804023, 11026.495519458715, 5076.170572778055, 8274.571093865765, 15739.964334960501, -7533.901337850254, 10253.169864794001, 12387.604998064638, -14140.361743016452, -13438.449911886444, 46080.71399697233, -3856.011194707298, 6691.777013752105, 10948.443227820782, -187500.02235174447, 0.012750000000000001, 0.97, -0.1585, 192.0, 0.0, 0.0, 0.0, 0.0, 0.0, 0.0, 0.0, 0.0, 0.0, 1.745267708348288E9, 0.0, 2025-04-21 15:35:08.348
80.0, -24002.286672864757, 286.4152534503047, 11013.93383907483, 5071.610816909172, 8268.334957162733, 15731.470672067486, -7533.8789861057985, 10253.572196194196, 12371.77996299028, -14144.809740163058, -13459.706420863442, 46108.34075311908, -3876.038357739253, 6684.199772381756, 10938.809625960545, -187500.02235174447, 0.012750000000000001, 0.97, -0.1585, 192.0, 0.0, 0.0, 0.0, 0.0, 0.0, 0.0, 0.0, 0.0, 0.0, 1.745267708348532E9, 0.0, 2025-04-21 15:35:08.348
82.0, -23988.115666880094, 295.11008204341914, 11024.774435135656, 5079.858610613181, 8274.436983399031, 15735.069302924789, -7533.096675049863, 10256.41086774002, 12376.183256647975, -14141.769902917136, -13457.739467351374, 46074.813136436125, -3868.90815125801, 6689.430080584298, 10942.8329399625, -187500.02235174447, 0.012750000000000001, 0.97, -0.1585, 192.0, 0.0, 0.0, 0.0, 0.0, 0.0, 0.0, 0.0, 0.0, 0.0, 1.745267708348783E9, 0.0, 2025-04-21 15:35:08.348
84.0, -24001.92904495347, 283.50952667111477, 11025.221470024762, 5069.7109186304715, 8270.503076374898, 15722.68643649655, -7537.365858240826, 10246.486693201863, 12373.63515778007, -14150.285917554607, -13457.426542928999, 46110.106540931054, -3870.204552436418, 6682.076356658502, 10941.7824079731, -187500.02235174447, 0.012750000000000001, 0.97, -0.1585, 192.0, 0.0, 0.0, 0.0, 0.0, 0.0, 0.0, 0.0, 0.0, 0.0, 1.745267708349038E9, 0.0, 2025-04-21 15:35:08.349
86.0, -23993.50243729382, 289.1198145293969, 11035.190348051829, 5074.650654155094, 8281.500134646909, 15730.867174967192, -7535.063628561929, 10248.766571136304, 12371.824666479191, -14154.622155978937, -13460.824008086207, 46078.00943589323, -3864.1472296890297, 6680.556438035541, 10942.989402173687, -187500.02235174447, 0.011375, 0.972, -0.16025, 192.0, 0.0, 40.0, 15.0, 56.0, 125.0, 120.0, 0.0, 0.0, 0.0, 1.745267708349284E9, 0.0, 2025-04-21 15:35:08.349
88.0, -24006.08646942216, 280.2238202361846, 11031.368199749972, 5066.313453473264, 8276.716861333474, 15726.039198164844, -7538.706962908145, 10249.794751381249, 12378.30667237123, -14149.503606498673, -13461.136932508582, 46109.83831999759, -3865.0860029561527, 6678.3436153344655, 10945.917480697331, -187500.02235174447, 0.011375, 0.972, -0.16025, 192.0, 0.0, 0.0, 0.0, 0.0, 0.0, 0.0, 0.0, 0.0, 0.0, 1.74526770834955E9, 0.0, 2025-04-21 15:35:08.349
90.0, -24004.99123394385, 274.3453114444389, 11033.13398756194, 5062.424249938042, 8281.164858480079, 15717.076148638267, -7541.232710031594, 10242.776303622282, 12381.122992172599, -14143.401580262374, -13458.946461551961, 46073.11440385752, -3853.105467928108, 6676.242551355666, 10947.54915804257, -187500.02235174447, 0.011375, 0.972, -0.16025, 192.0, 0.0, 0.0, 0.0, 0.0, 0.0, 0.0, 0.0, 0.0, 0.0, 1.745267708407494E9, 0.0, 2025-04-21 15:35:08.407
92.0, -24001.973748442382, 278.30157021302824, 11036.017362596675, 5063.452430182985, 8282.841239314228, 15714.103366625712, -7547.491198479081, 10231.55572790572, 12371.154114145531, -14158.600766491982, -13463.863845332127, 46094.77324423471, -3862.6720145549793, 6665.781934950583, 10945.850425463967, -187500.02235174447, 0.011375, 0.972, -0.16025, 192.0, 0.0, 0.0, 0.0, 0.0, 0.0, 0.0, 0.0, 0.0, 0.0, 1.745267708407775E9, 0.0, 2025-04-21 15:35:08.407
94.0, -23996.944605939938, 289.7680151186008, 11047.684973202346, 5077.355215234186, 8288.74209985043, 15728.721407499483, -7541.724448409611, 10249.12419904759, 12380.161867161021, -14145.100312840977, -13452.084476004182, 46065.73832818727, -3850.780886504756, 6673.2250658542, 10954.925233712822, -187500.02235174447, 0.011375, 0.972, -0.16025, 192.0, 0.0, 0.0, 0.0, 0.0, 0.0, 0.0, 0.0, 0.0, 0.0, 1.74526770840802E9, 0.0, 2025-04-21 15:35:08.408
96.0, -23977.006849885805, 307.20237579374026, 11068.00270891222, 5097.471785243963, 8297.101652276713, 15756.281108412875, -7535.82358787341, 10273.12997259259, 12401.641893582571, -14137.768940659636, -13432.07966471668, 46102.05991292714, -3835.648755508513, 6697.744929521672, 10962.860102994455, -187500.02235174447, 0.0096875, 0.972, -0.16112500000000002, 192.0, 0.0, 32.0, 15.0, 48.0, 125.0, 120.0, 0.0, 0.0, 0.0, 1.745267708408269E9, 0.0, 2025-04-21 15:35:08.408
98.0, -23954.386884497035, 319.58524222198037, 11074.641177015446, 5105.116081847677, 8296.92283832107, 15761.757285804426, -7539.10929430834, 10279.567274995718, 12422.65253337056, -14124.804928875557, -13412.70070227393, 46106.5302618182, -3828.227976349351, 6713.569964596029, 10975.690004311802, -187500.02235174447, 0.0096875, 0.972, -0.16112500000000002, 192.0, 0.0, 0.0, 0.0, 0.0, 0.0, 0.0, 0.0, 0.0, 0.0, 1.745267708408527E9, 0.0, 2025-04-21 15:35:08.408
100.0, -23975.956317896405, 301.77090189110066, 11058.14558960743, 5086.206506038488, 8289.055024272802, 15746.088712941255, -7546.708887423145, 10255.181521794979, 12421.445539169972, -14129.118815555432, -13417.036940698259, 46124.165788193444, -3827.3115548266837, 6705.635095314396, 10969.766792031145, -187500.02235174447, 0.0096875, 0.972, -0.16112500000000002, 192.0, 0.0, 0.0, 0.0, 0.0, 0.0, 0.0, 0.0, 0.0, 0.0, 1.745267708408766E9, 0.0, 2025-04-21 15:35:08.408
102.0, -24000.856161219617, 276.46872716769303, 11033.424560239859, 5058.020956280346, 8279.3543671792, 15712.20346834701, -7556.253082305561, 10231.689838372451, 12389.460192854429, -14152.051705366577, -13445.4236561565, 46080.98221790579, -3848.813932992689, 6664.12790586089, 10951.326602855517, -187500.02235174447, 0.0096875, 0.972, -0.16112500000000002, 192.0, 0.0, 0.0, 0.0, 0.0, 0.0, 0.0, 0.0, 0.0, 0.0, 1.745267708409E9, 0.0, 2025-04-21 15:35:08.409
104.0, -24008.52280956779, 277.65336962382435, 11028.7530456487, 5051.449543410486, 8280.851934057706, 15713.656331736605, -7552.587396214891, 10233.768550606794, 12366.996689676846, -14167.787333463113, -13467.171903511513, 46079.95403766084, -3865.8236105231776, 6652.907330144326, 10945.358687085949, -187500.02235174447, 0.0096875, 0.972, -0.16112500000000002, 192.0, 0.0, 0.0, 0.0, 0.0, 0.0, 0.0, 0.0, 0.0, 0.0, 1.745267708466986E9, 0.0, 2025-04-21 15:35:08.466
106.0, -24002.107858909116, 282.6601603818131, 11036.442045741325, 5057.640976624605, 8288.853858572706, 15717.143203871634, -7537.947003596664, 10245.659678657017, 12366.795523976747, -14171.073039898043, -13468.155380267548, 46079.015264393725, -3865.980072734365, 6645.866530640904, 10945.939832441787, -187500.02235174447, 0.00784375, 0.971, -0.1615625, 192.0, 0.0, 24.0, 15.0, 40.0, 125.0, 120.0, 0.0, 0.0, 0.0, 1.745267708467282E9, 0.0, 2025-04-21 15:35:08.467
108.0, -23994.50826579431, 295.0653785545085, 11039.772455665166, 5067.162819762566, 8287.244532971923, 15729.838994722248, -7543.400829243759, 10249.168902536501, 12372.539922301761, -14157.99726939169, -13455.884272561583, 46084.178517362896, -3858.0228517082755, 6656.505961001631, 10961.161370415852, -187500.02235174447, 0.00784375, 0.971, -0.1615625, 192.0, 0.0, 0.0, 0.0, 0.0, 0.0, 0.0, 0.0, 0.0, 0.0, 1.745267708467555E9, 0.0, 2025-04-21 15:35:08.467
110.0, -23985.411105801002, 298.86517511191073, 11040.107731831997, 5076.662311156072, 8285.098765504214, 15728.676704010571, -7545.747762411566, 10252.298146760244, 12377.591416548661, -14152.275222811131, -13453.067952760215, 46098.34952334756, -3868.4164128799935, 6666.206618095233, 10962.50247508317, -187500.02235174447, 0.00784375, 0.971, -0.1615625, 192.0, 0.0, 0.0, 0.0, 0.0, 0.0, 0.0, 0.0, 0.0, 0.0, 1.745267708467798E9, 0.0, 2025-04-21 15:35:08.467
112.0, -23975.799855685218, 314.69021018626813, 11051.909452904398, 5089.313398517776, 8287.3562916942, 15744.434683851563, -7539.712791408634, 10264.07751608819, 12389.303730643242, -14139.490024982695, -13444.060199744727, 46100.00355243726, -3860.459191853904, 6672.599217009451, 10968.425687363826, -187500.02235174447, 0.00784375, 0.971, -0.1615625, 192.0, 0.0, 0.0, 0.0, 0.0, 0.0, 0.0, 0.0, 0.0, 0.0, 1.74526770846805E9, 0.0, 2025-04-21 15:35:08.468
114.0, -23978.638527231044, 304.9895530926649, 11046.299165046117, 5089.24634328441, 8280.203733468501, 15736.298648869832, -7544.026678088508, 10257.707268918428, 12388.074384698199, -14142.84278665099, -13444.373124167101, 46121.34946839207, -3853.887778984044, 6678.768298479116, 10965.542312329091, -187500.02235174447, 0.00784375, 0.971, -0.1615625, 192.0, 0.0, 0.0, 0.0, 0.0, 0.0, 0.0, 0.0, 0.0, 0.0, 1.745267708468296E9, 0.0, 2025-04-21 15:35:08.468
116.0, -23973.922309150974, 314.75726541963405, 11055.485732017247, 5101.383340523642, 8291.290198718334, 15749.061494953812, -7534.236614017083, 10269.687803946472, 12387.940274231467, -14137.835995893001, -13441.981487510382, 46099.780034992706, -3866.203590178918, 6685.786746238083, 10967.576321074524, -187500.02235174447, 0.00784375, 0.971, -0.1615625, 192.0, 0.0, 0.0, 0.0, 0.0, 0.0, 0.0, 0.0, 0.0, 0.0, 1.745267708468554E9, 0.0, 2025-04-21 15:35:08.468
118.0, -23965.853329402606, 320.3675532779161, 11066.214569355794, 5118.683590732049, 8297.772204610374, 15760.21501543701, -7527.799311613955, 10268.525513234796, 12399.719643559414, -14114.36666421493, -13434.337190906668, 46129.39609639598, -3852.3455086166277, 6699.577772567007, 10975.801763034078, -187500.02235174447, 0.008, 0.972, -0.16, 192.0, 0.0, 32.0, 15.0, 48.0, 125.5, 0.0, 0.0, 0.0, 0.0, 1.745267708468802E9, 0.0, 2025-04-21 15:35:08.468
120.0, -23984.427629044967, 314.243175297162, 11061.028964642164, 5118.638887243139, 8296.788727854339, 15752.011925221912, -7531.979087827098, 10265.217455055412, 12388.946102731956, -14114.143146770377, -13433.599583339643, 46120.76832303624, -3850.7361830158457, 6708.362008137943, 10978.618082835446, -187500.02235174447, 0.008, 0.972, -0.16, 192.0, 0.0, 0.0, 0.0, 0.0, 0.0, 0.0, 0.0, 0.0, 0.0, 1.745267708527868E9, 0.0, 2025-04-21 15:35:08.527
122.0, -23978.996155142326, 313.2149950522179, 11058.279700074161, 5117.498948275918, 8298.219239499478, 15746.669858297093, -7536.6953059071675, 10259.137780563568, 12395.361053390629, -14120.491042195683, -13434.337190906668, 46144.572930881135, -3853.1278196725634, 6706.998551726169, 10979.668614824846, -187500.02235174447, 0.008, 0.972, -0.16, 192.0, 0.0, 0.0, 0.0, 0.0, 0.0, 0.0, 0.0, 0.0, 0.0, 1.745267708528154E9, 0.0, 2025-04-21 15:35:08.528
124.0, -23978.12443710857, 315.04783809755304, 11057.676202973867, 5108.446491771519, 8303.069568046281, 15741.64071579465, -7529.162768025729, 10266.580911467185, 12394.489335356873, -14118.233516005697, -13436.147682207547, 46116.45443635636, -3851.5631975606916, 6702.550554579563, 10977.858123523965, -187500.02235174447, 0.008, 0.972, -0.16, 192.0, 0.0, 0.0, 0.0, 0.0, 0.0, 0.0, 0.0, 0.0, 0.0, 1.745267708528397E9, 0.0, 2025-04-21 15:35:08.528
126.0, -23983.60061450012, 309.5493089615475, 11045.405095267904, 5093.224953797455, 8294.35238770871, 15741.104273927722, -7546.239500789583, 10256.232053784377, 12388.320253887208, -14119.060530550543, -13444.261365444823, 46141.98012852432, -3855.6759185404685, 6695.353292864954, 10971.845504265488, -187500.02235174447, 0.008, 0.972, -0.16, 192.0, 0.0, 0.0, 0.0, 0.0, 0.0, 0.0, 0.0, 0.0, 0.0, 1.745267708528641E9, 0.0, 2025-04-21 15:35:08.528
128.0, -23993.189512871446, 296.56294543301414, 11039.861862642987, 5080.842087369214, 8288.786803339339, 15731.336561600754, -7551.6039194588575, 10252.74518164935, 12376.965567703912, -14124.044969564078, -13451.883310304083, 46096.762549491235, -3857.553465074714, 6680.601141524451, 10958.635623292403, -187500.02235174447, 0.006, 0.97, -0.162, 192.0, 0.0, 24.0, 15.0, 40.0, 125.0, 120.0, 0.0, 0.0, 0.0, 1.74526770852889E9, 0.0, 2025-04-21 15:35:08.528
130.0, -23988.42859130247, 292.9419628312544, 11044.488673745236, 5080.953846091491, 8291.625474885162, 15736.946849459035, -7543.289070521483, 10252.566367693707, 12380.11716367211, -14135.46671098074, -13451.436275414977, 46116.14151193399, -3854.9606627178987, 6678.410670567831, 10958.970899459231, -187500.02235174447, 0.006, 0.97, -0.162, 192.0, 0.0, 0.0, 0.0, 0.0, 0.0, 0.0, 0.0, 0.0, 0.0, 1.745267708529178E9, 0.0, 2025-04-21 15:35:08.529
132.0, -23992.5636640267, 288.96335231820973, 11048.04260111363, 5080.730328646938, 8297.302817976812, 15746.222823407988, -7535.488311706581, 10263.205798054434, 12391.382442877584, -14152.31992630004, -13449.871653303106, 46081.31749407262, -3850.6020725491135, 6684.13271714839, 10961.004908204664, -187500.02235174447, 0.006, 0.97, -0.162, 192.0, 0.0, 0.0, 0.0, 0.0, 0.0, 0.0, 0.0, 0.0, 0.0, 1.745267708529425E9, 0.0, 2025-04-21 15:35:08.529
134.0, -23995.290576850246, 291.64556165284654, 11051.305955804106, 5084.105442059689, 8298.97919881096, 15753.241271166955, -7537.410561729737, 10274.895760404559, 12396.299826657752, -14150.911766399357, -13446.742409079363, 46120.90243350297, -3844.500046312815, 6680.89171420237, 10967.308100141061, -187500.02235174447, 0.006, 0.97, -0.162, 192.0, 0.0, 0.0, 0.0, 0.0, 0.0, 0.0, 0.0, 0.0, 0.0, 1.745267708588532E9, 0.0, 2025-04-21 15:35:08.588
136.0, -23993.189512871446, 290.1703465187963, 11044.309859789593, 5078.226933267943, 8291.446660929521, 15744.412332107107, -7543.691401921678, 10270.157190580034, 12389.236675409875, -14149.950641387779, -13448.463493402422, 46088.380645320496, -3844.4776945683593, 6677.449545556253, 10967.531617585615, -187500.02235174447, 0.006, 0.97, -0.162, 192.0, 0.0, 0.0, 0.0, 0.0, 0.0, 0.0, 0.0, 0.0, 0.0, 1.745267708588834E9, 0.0, 2025-04-21 15:35:08.588
138.0, -23979.97963189836, 302.9108408583213, 11049.450761014314, 5087.6146659391725, 8296.095823776224, 15747.78744551986, -7527.374628469304, 10279.455516273441, 12387.694405042459, -14147.044914608588, -13452.509159148833, 46119.896605002476, -3853.0831161836527, 6682.299874103055, 10963.843579750488, -187500.02235174447, 0.014, 0.978, -0.156, 192.0, 0.0, 56.0, 15.0, 72.0, 125.5, 16.0, 0.0, 0.0, 0.0, 1.745267708589097E9, 0.0, 2025-04-21 15:35:08.589
140.0, -23974.4587510179, 309.8175298950112, 11053.85405467201, 5093.001436352902, 8291.469012673977, 15747.183948419566, -7537.723486152111, 10270.313652791221, 12407.252181440852, -14136.137263314398, -13439.634554342576, 46104.585660050594, -3849.6409475375353, 6691.486441074186, 10967.308100141061, -187500.02235174447, 0.014, 0.978, -0.156, 192.0, 0.0, 0.0, 0.0, 0.0, 0.0, 0.0, 0.0, 0.0, 0.0, 1.745267708589372E9, 0.0, 2025-04-21 15:35:08.589
142.0, -23968.356724781603, 309.4151984948157, 11054.61401398349, 5098.8799451446475, 8289.435003928544, 15750.201433921033, -7538.170521041217, 10266.491504489364, 12413.063634999233, -14128.023580077122, -13432.191423438959, 46154.005367041274, -3841.7954852337225, 6706.752682537161, 10971.040841465097, -187500.02235174447, 0.014, 0.978, -0.156, 192.0, 0.0, 0.0, 0.0, 0.0, 0.0, 0.0, 0.0, 0.0, 0.0, 1.745267708589608E9, 0.0, 2025-04-21 15:35:08.589
144.0, -23958.879585132552, 312.9020706298436, 11064.493485032735, 5109.34056154973, 8298.152184266113, 15761.176140448588, -7526.055875546441, 10274.739298193372, 12408.056844241244, -14133.544460957582, -13431.431464127478, 46153.62538738554, -3845.483523068848, 6710.194851183278, 10972.158428687862, -187500.02235174447, 0.014, 0.978, -0.156, 192.0, 0.0, 0.0, 0.0, 0.0, 0.0, 0.0, 0.0, 0.0, 0.0, 1.745267708589862E9, 0.0, 2025-04-21 15:35:08.589
146.0, -23946.943753593416, 330.984631894187, 11076.85399971652, 5121.924593678069, 8306.444681459032, 15778.118762745711, -7524.670067390212, 10288.731490222393, 12413.488318143884, -14118.591143916983, -13420.903792489027, 46194.88670765003, -3838.979165432354, 6726.533976380108, 10978.238103179707, -187500.02235174447, 0.014, 0.978, -0.156, 192.0, 0.0, 0.0, 0.0, 0.0, 0.0, 0.0, 0.0, 0.0, 0.0, 1.745267708590099E9, 0.0, 2025-04-21 15:35:08.590
148.0, -23942.808680869184, 332.25868132813946, 11075.490543304748, 5120.471730288474, 8305.997646569926, 15775.749477833448, -7521.920802822209, 10289.625560000606, 12425.737074105391, -14094.205390716243, -13411.471356328888, 46205.123806610565, -3828.51854902727, 6733.217147972245, 10985.725937572233, -187500.02235174447, 0.01, 0.97, -0.156, 192.0, 0.0, 40.0, 15.0, 40.0, 125.5, 16.0, 0.0, 0.0, 0.0, 1.745267708590345E9, 0.0, 2025-04-21 15:35:08.590
150.0, -23941.154651779492, 333.8456551844663, 11072.04837465863, 5117.968334909479, 8301.527297678864, 15769.468637641507, -7519.171538254206, 10282.98709189738, 12420.260896713842, -14101.961446042234, -13419.361522121611, 46246.519237341796, -3834.2405956078287, 6728.746799081183, 10983.60252184898, -187500.02235174447, 0.01, 0.97, -0.156, 192.0, 0.0, 0.0, 0.0, 0.0, 0.0, 0.0, 0.0, 0.0, 0.0, 1.745267708647345E9, 0.0, 2025-04-21 15:35:08.647
152.0, -23947.16727103797, 325.15082659135186, 11070.640214757947, 5118.929459921058, 8298.68862613304, 15754.962355490014, -7527.195814513661, 10277.55561799474, 12416.908135045545, -14091.657291848338, -13420.032074455272, 46246.362775130605, -3829.859653694589, 6723.85176704547, 10979.087469469008, -187500.02235174447, 0.01, 0.97, -0.156, 192.0, 0.0, 0.0, 0.0, 0.0, 0.0, 0.0, 0.0, 0.0, 0.0, 1.745267708647657E9, 0.0, 2025-04-21 15:35:08.647
154.0, -23968.379076526056, 310.4880822286704, 11065.76753446669, 5110.525204005862, 8294.128870264158, 15752.570718833294, -7543.132608310296, 10272.884103403581, 12410.73905357588, -14107.594085644972, -13426.894060003051, 46257.98568224737, -3840.364973588583, 6722.801235056071, 10974.326547900027, -187500.02235174447, 0.01, 0.97, -0.156, 192.0, 0.0, 0.0, 0.0, 0.0, 0.0, 0.0, 0.0, 0.0, 0.0, 1.745267708647908E9, 0.0, 2025-04-21 15:35:08.647
156.0, -23970.211919571393, 301.1897565352627, 11058.905548918909, 5110.77107319487, 8293.391262697132, 15747.921555986592, -7537.20939602964, 10264.591606210663, 12404.368806406119, -14118.814661361535, -13436.661772330019, 46246.362775130605, -3844.0530114237085, 6712.206508184256, 10964.782353017612, -187500.02235174447, 0.01, 0.97, -0.156, 192.0, 0.0, 0.0, 0.0, 0.0, 0.0, 0.0, 0.0, 0.0, 0.0, 1.745267708648168E9, 0.0, 2025-04-21 15:35:08.648
158.0, -23963.79696891272, 308.94581186125424, 11060.537226264147, 5116.113140119689, 8301.572001167775, 15759.231538680977, -7528.268698247516, 10274.582835982184, 12405.285227928785, -14117.674722394315, -13430.582097838176, 46243.65821405152, -3838.0627439096866, 6716.632153586406, 10974.930045000321, -187500.02235174447, 0.01, 0.972, -0.148, 192.0, 0.0, 40.0, 15.0, 48.0, 125.5, 48.0, 0.0, 0.0, 0.0, 1.745267708648415E9, 0.0, 2025-04-21 15:35:08.648
160.0, -23967.5073584923, 300.27333501259506, 11053.943461649831, 5106.948924893013, 8294.59825689772, 15751.631945566172, -7534.147207039262, 10267.989071367869, 12394.39992837905, -14119.015827061634, -13438.047580486249, 46256.778688046776, -3843.6953835124236, 6710.977162239214, 10968.135114685907, -187500.02235174447, 0.01, 0.972, -0.148, 192.0, 0.0, 0.0, 0.0, 0.0, 0.0, 0.0, 0.0, 0.0, 0.0, 1.745267708648674E9, 0.0, 2025-04-21 15:35:08.648
162.0, -23971.843596916628, 297.4346634667711, 11058.480865774258, 5102.9926661244235, 8301.572001167775, 15748.88268099817, -7530.861500604332, 10267.385574267575, 12390.980111477389, -14122.547402685572, -13440.975659009893, 46243.18882741795, -3839.940290443932, 6703.6457900578735, 10968.001004219175, -187500.02235174447, 0.01, 0.972, -0.148, 192.0, 0.0, 0.0, 0.0, 0.0, 0.0, 0.0, 0.0, 0.0, 0.0, 1.745267708648933E9, 0.0, 2025-04-21 15:35:08.648
164.0, -23989.724992480875, 281.0284830365757, 11045.785074923644, 5090.855668885192, 8291.647826629618, 15732.007113934413, -7541.143303053774, 10248.185425780466, 12391.337739388675, -14137.076036581522, -13450.408095170033, 46241.93712972845, -3837.1239706425636, 6689.0277491841025, 10963.284786139106, -187500.02235174447, 0.01, 0.972, -0.148, 192.0, 0.0, 0.0, 0.0, 0.0, 0.0, 0.0, 0.0, 0.0, 0.0, 1.745267708707554E9, 0.0, 2025-04-21 15:35:08.707
166.0, -23990.12732388107, 281.2520004811288, 11048.154359835908, 5100.332808534242, 8293.100690019213, 15739.919631471592, -7539.846901875366, 10262.624652698596, 12392.768251033815, -14144.116836084944, -13448.262327702323, 46214.33272532615, -3844.9917846908315, 6685.831449726993, 10958.188588403296, -187500.02235174447, 0.01, 0.972, -0.148, 192.0, 0.0, 0.0, 0.0, 0.0, 0.0, 0.0, 0.0, 0.0, 0.0, 1.745267708707842E9, 0.0, 2025-04-21 15:35:08.707
168.0, -23984.02529764477, 281.3637592034053, 11044.80159816761, 5105.339599292231, 8291.469012673977, 15747.653335053128, -7537.879948363298, 10266.849132400648, 12382.084117184177, -14145.502644241173, -13454.252595216347, 46219.71949573988, -3847.159903902996, 6691.79936549656, 10954.277033123617, -187500.02235174447, 0.01, 0.974, -0.152, 192.0, 0.0, 40.0, 15.0, 56.0, 125.5, 32.0, 0.0, 0.0, 0.0, 1.745267708708108E9, 0.0, 2025-04-21 15:35:08.708
170.0, -23990.350841325624, 281.14024175885226, 11042.097037088519, 5100.288105045332, 8291.603123140709, 15736.455111081019, -7531.934384338187, 10262.915225376515, 12383.31346312922, -14143.625097706927, -13454.766685338818, 46197.72537919586, -3851.9208254719765, 6692.760490508139, 10952.734762756201, -187500.02235174447, 0.01, 0.974, -0.152, 192.0, 0.0, 0.0, 0.0, 0.0, 0.0, 0.0, 0.0, 0.0, 0.0, 1.74526770870837E9, 0.0, 2025-04-21 15:35:08.708
172.0, -23989.345012825135, 280.9837795476651, 11044.242804556228, 5101.651561457105, 8290.194963240023, 15736.678628525571, -7529.274526748005, 10260.277719530788, 12381.860599739624, -14134.483234224706, -13452.129179493091, 46222.20053937442, -3857.754630774812, 6691.3746823519095, 10950.052553421565, -187500.02235174447, 0.01, 0.974, -0.152, 192.0, 0.0, 0.0, 0.0, 0.0, 0.0, 0.0, 0.0, 0.0, 0.0, 1.745267708708624E9, 0.0, 2025-04-21 15:35:08.708
174.0, -23976.582166741155, 292.33846573096105, 11059.28552857465, 5110.458148772496, 8301.303780234311, 15746.64750655264, -7523.507776678536, 10270.470115002408, 12385.459230596929, -14137.858347637457, -13447.18944396847, 46194.082044849645, -3850.9373487159432, 6693.587505052985, 10953.606480789958, -187500.02235174447, 0.01, 0.974, -0.152, 192.0, 0.0, 0.0, 0.0, 0.0, 0.0, 0.0, 0.0, 0.0, 0.0, 1.745267708708881E9, 0.0, 2025-04-21 15:35:08.708
176.0, -23971.351858538612, 296.0265035660867, 11062.750048965223, 5117.923631420569, 8297.88396333265, 15748.457997853518, -7535.7565326400445, 10262.55759746523, 12393.483506856384, -14122.41329221884, -13435.588888596165, 46236.930338970466, -3836.6322322645465, 6707.959676737747, 10965.944643729288, -187500.02235174447, 0.01, 0.974, -0.152, 192.0, 0.0, 0.0, 0.0, 0.0, 0.0, 0.0, 0.0, 0.0, 0.0, 1.745267708709128E9, 0.0, 2025-04-21 15:35:08.709
178.0, -23966.41212301399, 304.9448496037543, 11061.252482086717, 5122.4833872894515, 8296.609913898697, 15748.50270134243, -7531.196776771161, 10270.023080113302, 12391.225980666397, -14117.585315416494, -13433.353714150635, 46220.81473121819, -3842.622499778569, 6715.46986287473, 10964.491780339693, -187500.02235174447, 0.008, 0.974, -0.151, 192.0, 0.0, 24.0, 15.0, 56.0, 125.5, 40.0, 0.0, 0.0, 0.0, 1.745267708709392E9, 0.0, 2025-04-21 15:35:08.709
180.0, -23971.910652149996, 302.03912282456434, 11062.370069309482, 5127.713695491993, 8300.700283134018, 15748.92738448708, -7523.9548115676425, 10279.276702317798, 12398.937332503478, -14112.153841513855, -13429.933897248971, 46256.354004902125, -3843.4495143234153, 6718.643810587384, 10971.867856009943, -187500.02235174447, 0.008, 0.974, -0.151, 192.0, 0.0, 0.0, 0.0, 0.0, 0.0, 0.0, 0.0, 0.0, 0.0, 1.74526770876849E9, 0.0, 2025-04-21 15:35:08.768
182.0, -23971.620079472075, 301.45797746872637, 11065.119333877485, 5130.0606286598, 8301.460242445499, 15755.767018290404, -7529.118064536819, 10273.353490037143, 12397.104489458143, -14107.41527168933, -13430.693856560452, 46228.52608305527, -3843.2483486233177, 6715.581621597007, 10971.577283332024, -187500.02235174447, 0.008, 0.974, -0.151, 192.0, 0.0, 0.0, 0.0, 0.0, 0.0, 0.0, 0.0, 0.0, 0.0, 1.745267708768767E9, 0.0, 2025-04-21 15:35:08.768
184.0, -23964.065189846184, 304.58722169246937, 11071.28841534715, 5137.392000841141, 8314.960696096503, 15766.138227717665, -7518.545689409458, 10283.32236806421, 12396.858620269135, -14113.941981070278, -13428.570440837198, 46262.5677898607, -3836.5428252867255, 6720.029618743613, 10983.200190448784, -187500.02235174447, 0.008, 0.974, -0.151, 192.0, 0.0, 0.0, 0.0, 0.0, 0.0, 0.0, 0.0, 0.0, 0.0, 1.74526770876903E9, 0.0, 2025-04-21 15:35:08.769
186.0, -23963.72991367935, 305.0342565815755, 11069.76849672419, 5136.788503740848, 8313.68664666255, 15760.907919515124, -7506.185174725673, 10278.874370917603, 12391.628312066594, -14119.775786373113, -13428.168109437003, 46231.968251701386, -3835.5593485306918, 6722.9576972672585, 10986.575303861537, -187500.02235174447, 0.008, 0.974, -0.151, 192.0, 0.0, 0.0, 0.0, 0.0, 0.0, 0.0, 0.0, 0.0, 0.0, 1.745267708769277E9, 0.0, 2025-04-21 15:35:08.769
188.0, -23969.83193991565, 307.80587289403354, 11063.174732109874, 5134.374515339675, 8306.668198903584, 15760.796160792848, -7520.15501501024, 10272.74999293685, 12384.073422440699, -14112.9808560587, -13434.672467073497, 46265.29470268425, -3843.0918864121304, 6719.828453043516, 10984.116611971453, -187500.02235174447, 0.009000000000000001, 0.972, -0.1515, 192.0, 0.0, 40.0, 15.0, 40.0, 125.5, 32.0, 0.0, 0.0, 0.0, 1.745267708769518E9, 0.0, 2025-04-21 15:35:08.769
190.0, -23970.904823649507, 303.40257923633806, 11060.559578008602, 5125.657335002105, 8298.666274388584, 15751.676649055082, -7530.973259326609, 10267.139705078567, 12387.135611431077, -14117.451204949763, -13434.672467073497, 46240.37250761659, -3832.586566518136, 6713.704075062761, 10978.50632411317, -187500.02235174447, 0.009000000000000001, 0.972, -0.1515, 192.0, 0.0, 0.0, 0.0, 0.0, 0.0, 0.0, 0.0, 0.0, 0.0, 1.74526770876978E9, 0.0, 2025-04-21 15:35:08.769
192.0, -23966.12155033607, 303.2461170251509, 11065.454610044315, 5129.412428070596, 8300.610876156197, 15748.122721686688, -7530.68268664869, 10270.850094658148, 12383.805201507235, -14122.592106174483, -13436.952345007938, 46258.812696792214, -3842.466037567382, 6706.260944159144, 10976.673481067835, -187500.02235174447, 0.009000000000000001, 0.972, -0.1515, 192.0, 0.0, 0.0, 0.0, 0.0, 0.0, 0.0, 0.0, 0.0, 0.0, 1.745267708770021E9, 0.0, 2025-04-21 15:35:08.770
194.0, -23978.88439642005, 292.7407971311566, 11052.200025582317, 5121.164634366588, 8291.960751051993, 15752.92834674458, -7537.745837896567, 10255.2709287728, 12393.148230689554, -14112.734986869693, -13434.51600486231, 46233.17524590198, -3841.907243955999, 6704.651618558361, 10975.108858955964, -187500.02235174447, 0.009000000000000001, 0.972, -0.1515, 192.0, 0.0, 0.0, 0.0, 0.0, 0.0, 0.0, 0.0, 0.0, 0.0, 1.745267708828891E9, 0.0, 2025-04-21 15:35:08.828
196.0, -23990.350841325624, 290.5726779189918, 11046.656792957401, 5114.235593585443, 8288.272713216867, 15740.25490763842, -7540.316288508927, 10258.26606252981, 12376.250311881342, -14134.550289458071, -13448.552900380242, 46247.68152805347, -3854.0218894507757, 6693.922781219814, 10959.21676864824, -187500.02235174447, 0.009000000000000001, 0.972, -0.1515, 192.0, 0.0, 0.0, 0.0, 0.0, 0.0, 0.0, 0.0, 0.0, 0.0, 1.745267708829189E9, 0.0, 2025-04-21 15:35:08.829
198.0, -23989.188550613948, 289.63390465186893, 11044.868653400976, 5110.502852261407, 8289.814983584283, 15742.333619872765, -7531.509701193536, 10262.714059676417, 12380.20657064993, -14142.46280699525, -13449.514025391822, 46218.02076316128, -3855.7653255182895, 6691.285275374088, 10957.11570466944, -187500.02235174447, 0.0115, 0.973, -0.15475, 192.0, 0.0, 56.0, 15.0, 56.0, 125.5, 8.0, 0.0, 0.0, 0.0, 1.745267708829445E9, 0.0, 2025-04-21 15:35:08.829
200.0, -23989.4120680585, 294.5736401764918, 11045.762723179188, 5109.318209805276, 8290.820812084772, 15754.247099667444, -7521.809044099933, 10277.577969739195, 12386.35330037514, -14134.66204818035, -13449.603432369642, 46232.41528659049, -3852.5019708278146, 6692.782842252594, 10957.674498280823, -187500.02235174447, 0.0115, 0.973, -0.15475, 192.0, 0.0, 0.0, 0.0, 0.0, 0.0, 0.0, 0.0, 0.0, 0.0, 1.745267708829717E9, 0.0, 2025-04-21 15:35:08.829
202.0, -23983.5112075223, 295.0653785545085, 11047.863787157989, 5110.01111388339, 8291.804288840805, 15749.39677112064, -7520.937326066176, 10281.422469785508, 12384.296939885253, -14122.390940474384, -13448.128217235591, 46226.87205396558, -3849.8868167265437, 6692.51462131913, 10959.59674830398, -187500.02235174447, 0.0115, 0.973, -0.15475, 192.0, 0.0, 0.0, 0.0, 0.0, 0.0, 0.0, 0.0, 0.0, 0.0, 1.745267708829971E9, 0.0, 2025-04-21 15:35:08.829
204.0, -23968.714352692885, 307.53765196056986, 11059.531397763658, 5121.8351867002475, 8309.484518704954, 15763.433666638573, -7502.921820035198, 10290.094946634168, 12388.186143420477, -14124.737873642192, -13439.768664809308, 46236.70682152591, -3846.7352207583453, 6698.70605453325, 10966.481085596215, -187500.02235174447, 0.0115, 0.973, -0.15475, 192.0, 0.0, 0.0, 0.0, 0.0, 0.0, 0.0, 0.0, 0.0, 0.0, 1.745267708830222E9, 0.0, 2025-04-21 15:35:08.830
206.0, -23979.577300498164, 298.28402975607275, 11051.462418015291, 5118.929459921058, 8300.230896500456, 15760.170311948099, -7515.7964248414555, 10276.79565868326, 12379.0219281938, -14122.457995707751, -13442.495577632855, 46244.93226348547, -3848.4116015924933, 6698.437833599786, 10971.800800776578, -187500.02235174447, 0.0115, 0.973, -0.15475, 192.0, 0.0, 0.0, 0.0, 0.0, 0.0, 0.0, 0.0, 0.0, 0.0, 1.74526770883047E9, 0.0, 2025-04-21 15:35:08.830
208.0, -23982.125399366072, 301.03329432407554, 11051.37301103747, 5123.578622767762, 8300.387358711643, 15760.93027125958, -7522.680762133689, 10276.505086005342, 12378.574893304694, -14118.635847405892, -13443.94844102245, 46234.71751626939, -3846.042316680231, 6708.786691282594, 10968.559797830558, -187500.02235174447, 0.01175, 0.9724999999999999, -0.15337499999999998, 192.0, 0.0, 48.0, 15.0, 48.0, 125.5, 32.0, 0.0, 0.0, 0.0, 1.745267708830708E9, 0.0, 2025-04-21 15:35:08.830
210.0, -23984.382925556056, 299.93805884576545, 11048.154359835908, 5117.9012796761135, 8291.893695818628, 15746.535747830361, -7530.168596526218, 10258.020193340803, 12378.820762493702, -14110.633922890893, -13448.888176547072, 46237.22091164839, -3848.679822525957, 6715.358104152454, 10960.200245404274, -187500.02235174447, 0.01175, 0.9724999999999999, -0.15337499999999998, 192.0, 0.0, 0.0, 0.0, 0.0, 0.0, 0.0, 0.0, 0.0, 0.0, 1.745267708887799E9, 0.0, 2025-04-21 15:35:08.887
212.0, -23980.22550108737, 293.76897737610074, 11058.123237862974, 5120.069398888279, 8300.02973080036, 15749.083846698268, -7525.921765079709, 10268.078478345691, 12389.191971920965, -14123.75439688616, -13438.89694677555, 46226.782646987755, -3843.494217812326, 6699.331903377999, 10965.899940240377, -187500.02235174447, 0.01175, 0.9724999999999999, -0.15337499999999998, 192.0, 0.0, 0.0, 0.0, 0.0, 0.0, 0.0, 0.0, 0.0, 0.0, 1.745267708888103E9, 0.0, 2025-04-21 15:35:08.888
214.0, -23985.209940100904, 283.308360971017, 11058.771438452177, 5117.543651764829, 8293.033634785848, 15745.999305963434, -7536.002401829052, 10264.636309699574, 12395.226942923897, -14137.970106359733, -13438.248746186346, 46237.15385641502, -3845.684688768946, 6692.335807363487, 10963.97769021722, -187500.02235174447, 0.01175, 0.9724999999999999, -0.15337499999999998, 192.0, 0.0, 0.0, 0.0, 0.0, 0.0, 0.0, 0.0, 0.0, 0.0, 1.745267708888364E9, 0.0, 2025-04-21 15:35:08.888
216.0, -23992.183684370957, 273.49594515513724, 11054.412848283393, 5105.116081847677, 8294.732367364451, 15732.722369756983, -7534.7060006506445, 10260.367126508609, 12394.735204545881, -14146.284955297107, -13435.477129873889, 46211.11407412458, -3845.170598646474, 6684.356234592943, 10961.139018671396, -187500.02235174447, 0.01175, 0.9724999999999999, -0.15337499999999998, 192.0, 0.0, 0.0, 0.0, 0.0, 0.0, 0.0, 0.0, 0.0, 0.0, 1.745267708888619E9, 0.0, 2025-04-21 15:35:08.888
218.0, -24001.191437386446, 252.5523606005145, 11041.538243477136, 5087.838183383726, 8289.54676265082, 15720.898296940124, -7539.10929430834, 10252.365201993609, 12383.358166618129, -14161.528845015628, -13449.648135858553, 46215.33855382664, -3844.835322479644, 6659.74696394765, 10952.98063194521, -187500.02235174447, 0.008875000000000001, 0.97225, -0.15368749999999998, 192.0, 0.0, 24.0, 15.0, 48.0, 125.5, 24.0, 0.0, 0.0, 0.0, 1.745267708888885E9, 0.0, 2025-04-21 15:35:08.888
220.0, -24013.686062536963, 246.33857564193914, 11031.524661961159, 5073.734232632427, 8288.675044617063, 15728.073206910278, -7548.564082212935, 10243.31274548921, 12381.301806128242, -14194.922351231857, -13457.337135951178, 46167.25995150327, -3847.8975114700215, 6653.488475500164, 10951.728934255712, -187500.02235174447, 0.008875000000000001, 0.97225, -0.15368749999999998, 192.0, 0.0, 0.0, 0.0, 0.0, 0.0, 0.0, 0.0, 0.0, 0.0, 1.745267708889154E9, 0.0, 2025-04-21 15:35:08.889
222.0, -24028.572324344197, 224.43386607573822, 11019.23120251074, 5055.785781834815, 8278.884980545638, 15712.62815149166, -7553.615576459834, 10234.707323873918, 12373.92573045799, -14228.807595826102, -13476.269063504824, 46175.3512829961, -3861.5320755877588, 6631.226138022678, 10937.960259671243, -187500.02235174447, 0.008875000000000001, 0.97225, -0.15368749999999998, 192.0, 0.0, 0.0, 0.0, 0.0, 0.0, 0.0, 0.0, 0.0, 0.0, 1.745267708889412E9, 0.0, 2025-04-21 15:35:08.889
224.0, -24035.255495936337, 217.95186018369918, 11022.136929289929, 5053.6847178560165, 8284.02588177036, 15709.96829390148, -7545.233672289094, 10244.586794923163, 12368.673070510993, -14237.614183141493, -13479.532418195298, 46137.97916626682, -3857.754630774812, 6617.569222160486, 10934.652201491857, -187500.02235174447, 0.008875000000000001, 0.97225, -0.15368749999999998, 192.0, 0.0, 0.0, 0.0, 0.0, 0.0, 0.0, 0.0, 0.0, 0.0, 1.745267708889661E9, 0.0, 2025-04-21 15:35:08.889
226.0, -24042.452757650943, 209.1899763572188, 11014.157356519385, 5049.527293387329, 8270.681890330541, 15702.949846142514, -7557.25891080605, 10235.154358763022, 12368.360146088618, -14239.536433164649, -13479.845342617673, 46162.36491946756, -3858.9839767198537, 6616.45163493772, 10935.076884636508, -187500.02235174447, 0.008875000000000001, 0.97225, -0.15368749999999998, 192.0, 0.0, 0.0, 0.0, 0.0, 0.0, 0.0, 0.0, 0.0, 0.0, 1.745267708948181E9, 0.0, 2025-04-21 15:35:08.948
228.0, -24048.353618187146, 205.30077282199537, 11012.458623940782, 5047.694450341994, 8267.329128662244, 15703.933322898547, -7560.634024218801, 10229.655829627018, 12356.312555827208, -14251.539319937148, -13492.585836957198, 46124.36695389354, -3870.3163111586946, 6601.811242319494, 10922.649314719358, -187500.02235174447, 0.0074375000000000005, 0.9721249999999999, -0.15184375, 192.0, 0.0, 24.0, 15.0, 48.0, 125.5, 40.0, 0.0, 0.0, 0.0, 1.745267708948463E9, 0.0, 2025-04-21 15:35:08.948
230.0, -24041.357522172635, 207.08891237841993, 11012.100996029496, 5048.297947442287, 8264.579864094241, 15700.58056123025, -7566.266663821539, 10224.202003979923, 12363.331003586174, -14253.685087404858, -13488.920150866528, 46164.443631701906, -3869.7351658028565, 6605.275762710066, 10926.225593832207, -187500.02235174447, 0.0074375000000000005, 0.9721249999999999, -0.15184375, 192.0, 0.0, 0.0, 0.0, 0.0, 0.0, 0.0, 0.0, 0.0, 0.0, 1.745267708948732E9, 0.0, 2025-04-21 15:35:08.948
232.0, -24041.536336128276, 207.75946471207914, 11012.972714063253, 5047.806209064271, 8269.11726821867, 15702.301645553309, -7557.750649184067, 10231.108693016613, 12354.92674767098, -14258.714229907302, -13495.156287569558, 46129.77607605173, -3875.5689711056916, 6594.591628860429, 10919.49771875116, -187500.02235174447, 0.0074375000000000005, 0.9721249999999999, -0.15184375, 192.0, 0.0, 0.0, 0.0, 0.0, 0.0, 0.0, 0.0, 0.0, 0.0, 1.745267708948975E9, 0.0, 2025-04-21 15:35:08.948
234.0, -24029.37698714459, 217.68363925023547, 11019.097092044007, 5056.344575446198, 8271.866532786671, 15706.950808400014, -7551.179236314206, 10227.688876114951, 12360.537035529262, -14243.135064021953, -13487.534342710298, 46150.98788153981, -3866.8741425125772, 6600.9842277746475, 10927.767864199623, -187500.02235174447, 0.0074375000000000005, 0.9721249999999999, -0.15184375, 192.0, 0.0, 0.0, 0.0, 0.0, 0.0, 0.0, 0.0, 0.0, 0.0, 1.745267708949224E9, 0.0, 2025-04-21 15:35:08.949
236.0, -24024.861934764616, 221.97517418565445, 11019.119443788462, 5056.702203357483, 8271.397146153111, 15703.218067075977, -7551.670974692223, 10226.638344125551, 12361.967547174401, -14248.521834435682, -13482.818124630228, 46127.18327369491, -3865.1754099339737, 6606.929791799759, 10928.796044444567, -187500.02235174447, 0.0074375000000000005, 0.9721249999999999, -0.15184375, 192.0, 0.0, 0.0, 0.0, 0.0, 0.0, 0.0, 0.0, 0.0, 0.0, 1.745267708949475E9, 0.0, 2025-04-21 15:35:08.949
238.0, -24032.774452301797, 215.00142991559864, 11014.649094897402, 5050.019031765346, 8261.405916381587, 15697.808944917793, -7567.11603011084, 10220.312800444699, 12373.679861268982, -14243.827968100068, -13477.207836771946, 46151.41256468446, -3859.6992325424235, 6613.54590815853, 10930.15950085634, -187500.02235174447, 0.00771875, 0.9650624999999999, -0.15392187499999999, 192.0, 0.0, 32.0, 14.5, 120.0, 125.5, 16.0, 0.0, 0.0, 0.0, 1.745267708949715E9, 0.0, 2025-04-21 15:35:08.949
240.0, -24036.350731414645, 209.92758392424392, 11009.08351052803, 5044.18522646251, 8256.510884345877, 15688.376508757652, -7568.50183826707, 10215.238954453345, 12357.608957005616, -14252.053410059621, -13493.010520101849, 46132.99472725329, -3877.9382560179542, 6591.127108469857, 10908.411253501326, -187500.02235174447, 0.00771875, 0.9650624999999999, -0.15392187499999999, 192.0, 0.0, 0.0, 0.0, 0.0, 0.0, 0.0, 0.0, 0.0, 0.0, 1.74526770900983E9, 0.0, 2025-04-21 15:35:09.009
242.0, -24028.773490044296, 214.12971188184167, 11010.312856473072, 5040.09485722719, 8259.461314613976, 15696.110212339188, -7570.960530157153, 10210.88036428456, 12366.97433793239, -14252.545148437637, -13486.707328165452, 46160.62148340005, -3869.891628014044, 6595.642160849829, 10915.429701260293, -187500.02235174447, 0.00771875, 0.9650624999999999, -0.15392187499999999, 192.0, 0.0, 0.0, 0.0, 0.0, 0.0, 0.0, 0.0, 0.0, 0.0, 1.745267709010118E9, 0.0, 2025-04-21 15:35:09.010
244.0, -24026.6724260655, 221.66224976328013, 11009.441138439315, 5041.95005201698, 8257.851989013194, 15689.896427380614, -7579.655358750268, 10212.64615209653, 12368.516608299806, -14248.275965246674, -13480.493543206876, 46143.96943378085, -3863.8566570111107, 6594.837498049438, 10911.54049772507, -187500.02235174447, 0.00771875, 0.9650624999999999, -0.15392187499999999, 192.0, 0.0, 0.0, 0.0, 0.0, 0.0, 0.0, 0.0, 0.0, 0.0, 1.745267709010384E9, 0.0, 2025-04-21 15:35:09.010
