%OpenBCI Raw EXG Data
%Number of channels = 16
%Sample Rate = 125 Hz
%Board = OpenBCI_GUI$BoardCytonSerialDaisy
Sample Index, EXG Channel 0, EXG Channel 1, EXG Channel 2, EXG Channel 3, EXG Channel 4, EXG Channel 5, EXG Channel 6, EXG Channel 7, EXG Channel 8, EXG Channel 9, EXG Channel 10, EXG Channel 11, EXG Channel 12, EXG Channel 13, EXG Channel 14, EXG Channel 15, Accel Channel 0, Accel Channel 1, Accel Channel 2, Not Used, Digital Channel 0 (D11), Digital Channel 1 (D12), Digital Channel 2 (D13), Digital Channel 3 (D17), Not Used, Digital Channel 4 (D18), Analog Channel 0, Analog Channel 1, Analog Channel 2, Timestamp, Marker Channel, Timestamp (Formatted)
72.0, -16024.636152343292, -37277.61355371637, -40418.659498531764, -9983.317253985078, -18084.639976577757, -11288.837944130653, -25199.624919846647, -32778.67678149662, -6557.219512131156, -16109.461022551182, -13320.276238951235, -5474.1433828047975, -24904.425430825406, -17789.775763723348, -187500.02235174447, -35898.95795571303, 0.0, 0.0, 0.0, 192.0, 0.0, 0.0, 0.0, 0.0, 0.0, 0.0, 0.0, 0.0, 0.0, 1.742502845657186E9, 0.0, 2025-03-20 15:34:05.657
74.0, -15980.670270999703, -37259.8439168744, -40413.49624556259, -9981.842038851028, -18065.126903668275, -11303.925371637986, -25199.535512868824, -32774.96639191704, -6567.098983180402, -16109.99746441811, -13321.483233151823, -5472.712871159658, -24910.370994850517, -17782.243225841907, -187500.02235174447, -35895.046400433355, 0.0, 0.0, 0.0, 192.0, 0.0, 0.0, 0.0, 0.0, 0.0, 0.0, 0.0, 0.0, 0.0, 1.742502845657416E9, 0.0, 2025-03-20 15:34:05.657
76.0, -16027.877155289312, -37277.0994635939, -40420.31352762145, -9979.875085338961, -18089.82558129139, -11299.678540191477, -25209.12441124015, -32782.878909454215, -6559.521741810053, -16086.997519373599, -13318.01871276125, -5468.354280990873, -24916.07068968662, -17780.14216186311, -187500.02235174447, -35893.23590913247, 0.0, 0.0, 0.0, 192.0, 0.0, 0.0, 0.0, 0.0, 0.0, 0.0, 0.0, 0.0, 0.0, 1.742502845657575E9, 0.0, 2025-03-20 15:34:05.657
78.0, -16003.513753833027, -37277.27827754954, -40430.684737048716, -9995.342492502034, -18090.697299325144, -11308.28396180677, -25219.875600323154, -32795.99938344948, -6580.487678109131, -16121.843888979423, -13332.63675363502, -5484.425185254238, -24907.55467504915, -17781.840894441713, -187500.02235174447, -35899.4720458355, 0.0, 0.0, 0.0, 192.0, 0.0, 0.0, 0.0, 0.0, 0.0, 0.0, 0.0, 0.0, 0.0, 1.742502845657735E9, 0.0, 2025-03-20 15:34:05.657
80.0, -16036.862556560345, -37291.33752481193, -40440.92183600925, -9999.45521348181, -18103.996587276055, -11318.85633693413, -25216.925170055052, -32798.41337185066, -6580.040643220025, -16136.86426125339, -13338.850538593595, -5492.427109769239, -24913.299073374164, -17782.71261247547, -187500.02235174447, -35912.25724366394, 0.014, 0.491, 0.002, 192.0, 0.0, 112.0, 15.0, 88.0, 0.0, 16.0, 0.0, 0.0, 0.0, 1.742502845657898E9, 0.0, 2025-03-20 15:34:05.657
82.0, -15995.109497917832, -37267.68937917821, -40428.00252771408, -9993.710815156795, -18081.555435842925, -11307.926333895486, -25212.700690353002, -32788.95858394606, -6585.762689800584, -16134.517328085582, -13335.810701347675, -5491.644798713302, -24909.20870413884, -17788.18878986702, -187500.02235174447, -35911.54198784137, 0.014, 0.491, 0.002, 192.0, 0.0, 0.0, 0.0, 0.0, 0.0, 0.0, 0.0, 0.0, 0.0, 1.742502845658057E9, 0.0, 2025-03-20 15:34:05.658
84.0, -16018.779995296001, -37276.42891126024, -40426.46025734666, -9980.836210350539, -18084.10353471083, -11305.020607116296, -25203.201198959494, -32774.92168842813, -6579.839477519927, -16115.786566232035, -13325.551250642688, -5480.51362997456, -24902.413773824428, -17779.0469263848, -187500.02235174447, -35903.31654588182, 0.014, 0.491, 0.002, 192.0, 0.0, 0.0, 0.0, 0.0, 0.0, 0.0, 0.0, 0.0, 0.0, 1.742502845658204E9, 0.0, 2025-03-20 15:34:05.658
86.0, -15981.49728554455, -37252.51254469306, -40409.60704202736, -9967.514570655176, -18064.031668189964, -11291.22958078737, -25193.902873266088, -32771.971258160025, -6568.9318262257375, -16096.295845067007, -13317.72814008333, -5469.807144380467, -24891.93080567489, -17765.591176222704, -187500.02235174447, -35887.51386255191, 0.014, 0.491, 0.002, 192.0, 0.0, 0.0, 0.0, 0.0, 0.0, 0.0, 0.0, 0.0, 0.0, 1.742502845658356E9, 0.0, 2025-03-20 15:34:05.658
88.0, -16031.229916957607, -37277.45709150518, -40441.01124298707, -9992.07913781156, -18090.898465025242, -11312.083758364173, -25205.27991119384, -32786.72340950053, -6580.487678109131, -16103.783679459535, -13323.293724452702, -5478.166696806753, -24883.16892184841, -17765.255900055876, -187500.02235174447, -35894.264089377415, 0.014, 0.491, 0.002, 192.0, 0.0, 0.0, 0.0, 0.0, 0.0, 0.0, 0.0, 0.0, 0.0, 1.742502845658513E9, 0.0, 2025-03-20 15:34:05.658
0.0, -7976.421174576423, -18609.190715454904, -20191.47070544609, -4988.618789746617, -9046.153312462964, -5653.225559380718, -12597.823154666801, -16374.843284469043, -3298.6033914808504, -8060.664899428475, -6668.3076820740325, -2744.861274345073, -12445.160740037054, -8891.926275721346, -93750.01117587223, -17951.7365040465, 0.026000000000000002, 0.98, -0.014, 192.0, 0.0, 104.0, 15.0, 80.0, 127.5, 72.0, 0.0, 0.0, 0.0, 1.742502845691753E9, 0.0, 2025-03-20 15:34:05.691
2.0, -15974.188265107665, -37233.111230505856, -40396.508919776556, -9979.45040219431, -18101.33672968587, -11309.155679840527, -25203.22355070395, -32759.230763820502, -6652.594405721951, -16061.158902783263, -13316.498794138288, -5596.183907530774, -24915.7801170087, -17762.014897109853, -187500.02235174447, -35867.553754753324, 0.026000000000000002, 0.98, -0.014, 192.0, 0.0, 0.0, 0.0, 0.0, 0.0, 0.0, 0.0, 0.0, 0.0, 1.74250284575022E9, 0.0, 2025-03-20 15:34:05.750
4.0, -15982.994852423055, -37233.49121016159, -40384.32721904841, -9977.93048357135, -18105.71767159911, -11309.490956007357, -25196.40626864508, -32756.39209227468, -6677.784821723083, -16074.547597711993, -13328.97106754435, -5608.499718725649, -24919.177582165907, -17782.466743286463, -187500.02235174447, -35877.09794963574, 0.026000000000000002, 0.98, -0.014, 192.0, 0.0, 0.0, 0.0, 0.0, 0.0, 0.0, 0.0, 0.0, 0.0, 1.742502845750444E9, 0.0, 2025-03-20 15:34:05.750
6.0, -15973.830637196379, -37236.82162008544, -40383.500204503565, -9985.463021452788, -18106.96936928861, -11317.157604355527, -25204.56465537127, -32759.72250219852, -6656.260091812622, -16053.916937579745, -13314.241267948302, -5597.279143009084, -24925.816050269135, -17780.008051396377, -187500.02235174447, -35875.77919671288, 0.026000000000000002, 0.98, -0.014, 192.0, 0.0, 0.0, 0.0, 0.0, 0.0, 0.0, 0.0, 0.0, 0.0, 1.742502845750614E9, 0.0, 2025-03-20 15:34:05.750
8.0, -15990.661500771226, -37244.018881800046, -40379.298076545965, -9981.59616966202, -18106.54468614396, -11303.612447215612, -25192.22649243194, -32745.10446132475, -6670.811077453027, -16084.270606550052, -13331.452111178889, -5613.774730417101, -24926.844230514078, -17779.09162987371, -187500.02235174447, -35875.35451356823, 0.03, 0.982, -0.024, 192.0, 0.0, 120.0, 15.0, 88.0, 127.5, 32.0, 0.0, 0.0, 0.0, 1.742502845750781E9, 0.0, 2025-03-20 15:34:05.750
10.0, -15965.985174892567, -37230.69724210468, -40384.260163815045, -9992.59322793403, -18100.241494207563, -11314.721264209898, -25195.869826778155, -32752.301723039356, -6662.9656151492145, -16072.893568622301, -13324.59012563111, -5607.069207080509, -24923.89380024598, -17773.57074899325, -187500.02235174447, -35874.21457460101, 0.03, 0.982, -0.024, 192.0, 0.0, 0.0, 0.0, 0.0, 0.0, 0.0, 0.0, 0.0, 0.0, 1.742502845750945E9, 0.0, 2025-03-20 15:34:05.750
12.0, -15987.331090847385, -37235.30170146247, -40377.956971878644, -9979.02571904966, -18102.76724133101, -11304.238296060359, -25186.996184229396, -32750.513583482934, -6674.968501921714, -16067.238577275108, -13331.608573390076, -5609.527898970592, -24927.35832063655, -17776.38706879462, -187500.02235174447, -35875.84625194624, 0.03, 0.982, -0.024, 192.0, 0.0, 0.0, 0.0, 0.0, 0.0, 0.0, 0.0, 0.0, 0.0, 1.74250284575111E9, 0.0, 2025-03-20 15:34:05.751
14.0, -15962.185378335165, -37233.446506672684, -40391.323315062924, -9993.196725034324, -18101.180267474683, -11318.364598556114, -25197.769725056856, -32760.974199888016, -6673.158010620834, -16070.032545332022, -13328.479329166334, -5606.152785557841, -24929.705253804357, -17777.214083339462, -187500.02235174447, -35875.68978973506, 0.03, 0.982, -0.024, 192.0, 0.0, 0.0, 0.0, 0.0, 0.0, 0.0, 0.0, 0.0, 0.0, 1.742502845751258E9, 0.0, 2025-03-20 15:34:05.751
16.0, -15999.825715997902, -37249.98679756961, -40386.04830337147, -9989.084004054548, -18114.390148447772, -11306.384063528069, -25191.399477887095, -32748.05489159285, -6683.46216481473, -16068.803199386979, -13335.765997858764, -5612.657143194336, -24927.157154936453, -17785.37247006565, -187500.02235174447, -35879.91426943711, 0.03, 0.982, -0.024, 192.0, 0.0, 0.0, 0.0, 0.0, 0.0, 0.0, 0.0, 0.0, 0.0, 1.742502845810582E9, 0.0, 2025-03-20 15:34:05.810
18.0, -15962.610061479816, -37234.09470726189, -40384.17075683722, -9987.206457520302, -18101.180267474683, -11315.14594735455, -25191.734754053923, -32752.949923628563, -6656.684774957273, -16083.197722816198, -13325.439491920411, -5613.014771105621, -24927.93946599239, -17773.32487980424, -187500.02235174447, -35873.789891456356, 0.036000000000000004, 0.986, -0.034, 192.0, 0.5, 16.0, 15.0, 104.0, 127.0, 120.0, 0.0, 0.0, 0.0, 1.742502845810751E9, 0.0, 2025-03-20 15:34:05.810
20.0, -16006.26301840103, -37257.5416871955, -40391.01039064055, -9994.873105868472, -18115.06070078143, -11320.353903812636, -25193.56759709926, -32753.598124217766, -6674.968501921714, -16085.119972839353, -13336.771826359252, -5620.502605498148, -24941.79754755468, -17779.181036851533, -187500.02235174447, -35880.87539444869, 0.036000000000000004, 0.986, -0.034, 192.0, 0.0, 0.0, 0.0, 0.0, 0.0, 0.0, 0.0, 0.0, 0.0, 1.742502845810943E9, 0.0, 2025-03-20 15:34:05.810
22.0, -15962.274785312986, -37232.44067817219, -40381.93558239169, -9988.033472065148, -18092.77601155949, -11308.105147851127, -25184.872768506142, -32744.947999113563, -6674.253246099144, -16088.003347874088, -13333.083788524127, -5619.20620431974, -24936.053149229665, -17771.447333269996, -187500.02235174447, -35876.87443219119, 0.036000000000000004, 0.986, -0.034, 192.0, 0.0, 0.0, 0.0, 0.0, 0.0, 0.0, 0.0, 0.0, 0.0, 1.742502845811121E9, 0.0, 2025-03-20 15:34:05.811
24.0, -15997.367024107818, -37241.89546607679, -40381.9802858806, -9980.635044650442, -18106.34352044386, -11302.5172117373, -25183.755181283377, -32740.90233336715, -6671.74985072015, -16066.925652852733, -13327.96523904386, -5608.678532681291, -24923.737338034793, -17766.529949489828, -187500.02235174447, -35868.76074895391, 0.036000000000000004, 0.986, -0.034, 192.0, 0.0, 0.0, 0.0, 0.0, 0.0, 0.0, 0.0, 0.0, 0.0, 1.742502845811297E9, 0.0, 2025-03-20 15:34:05.811
26.0, -15957.715029444103, -37232.194808983186, -40389.26695457303, -9991.542695944632, -18102.58842737537, -11319.504537523335, -25197.85913203468, -32762.427063277613, -6669.201751852245, -16083.644757705302, -13334.06726528016, -5615.719332184713, -24929.325274148618, -17771.335574547717, -187500.02235174447, -35883.11056889422, 0.036000000000000004, 0.986, -0.034, 192.0, 0.0, 0.0, 0.0, 0.0, 0.0, 0.0, 0.0, 0.0, 0.0, 1.742502845811484E9, 0.0, 2025-03-20 15:34:05.811
28.0, -15996.092974673866, -37248.53393418001, -40386.294172560476, -9989.441631965832, -18116.625322893302, -11309.960342640918, -25189.924262753044, -32746.400862503157, -6667.03363264008, -16083.711812938669, -13328.59108788861, -5611.49485248266, -24929.057053215154, -17767.75929543487, -187500.02235174447, -35879.310772336816, 0.042, 0.988, -0.036000000000000004, 192.0, 0.5, 40.0, 15.0, 112.0, 127.0, 112.0, 0.0, 0.0, 0.0, 1.742502845811657E9, 0.0, 2025-03-20 15:34:05.811
30.0, -15957.133884088265, -37230.54077989349, -40382.85200391436, -9987.944065087328, -18098.587465117867, -11314.274229320792, -25187.197349929495, -32754.805118418353, -6662.742097704661, -16075.106391323376, -13329.194584988903, -5611.517204227114, -24934.26500967324, -17760.7408476759, -187500.02235174447, -35873.14169086715, 0.042, 0.988, -0.036000000000000004, 192.0, 0.0, 0.0, 0.0, 0.0, 0.0, 0.0, 0.0, 0.0, 0.0, 1.742502845811834E9, 0.0, 2025-03-20 15:34:05.811
32.0, -16009.481669602594, -37259.06160581847, -40395.592498253885, -9995.700120413318, -18116.044177537464, -11323.147871869549, -25195.333384911228, -32762.024731877416, -6675.460240299731, -16084.47177225015, -13338.40350370449, -5620.882585153889, -24945.66439934545, -17780.209217096475, -187500.02235174447, -35883.33408633877, 0.042, 0.988, -0.036000000000000004, 192.0, 0.0, 0.0, 0.0, 0.0, 0.0, 0.0, 0.0, 0.0, 0.0, 1.742502845870868E9, 0.0, 2025-03-20 15:34:05.870
34.0, -15974.545893018949, -37246.96931206815, -40389.5351755065, -9996.013044835692, -18098.67687209569, -11320.756235212832, -25184.246919661397, -32755.54272598538, -6673.60504550994, -16081.029603604033, -13336.101274025594, -5617.976858374698, -24926.777175280713, -17762.23841455441, -187500.02235174447, -35882.596478771746, 0.042, 0.988, -0.036000000000000004, 192.0, 0.0, 0.0, 0.0, 0.0, 0.0, 0.0, 0.0, 0.0, 0.0, 1.742502845871061E9, 0.0, 2025-03-20 15:34:05.871
36.0, -16000.764489265024, -37248.757451624566, -40387.27764931651, -9988.413451720888, -18105.002415776544, -11308.753348440332, -25178.45781784747, -32740.879981622697, -6687.530182305597, -16092.026661876043, -13341.152768272492, -5623.385980532883, -24936.768405052237, -17767.58048147923, -187500.02235174447, -35882.01533341591, 0.042, 0.988, -0.036000000000000004, 192.0, 0.0, 0.0, 0.0, 0.0, 0.0, 0.0, 0.0, 0.0, 0.0, 1.742502845871208E9, 0.0, 2025-03-20 15:34:05.871
38.0, -15968.086238871365, -37229.9372827932, -40397.268879088035, -9992.16854478938, -18106.857610566334, -11316.308238066225, -25192.405306387584, -32758.314342297836, -6669.380565807887, -16065.338678996406, -13331.87679432354, -5611.628962949391, -24929.057053215154, -17764.786513422314, -187500.02235174447, -35874.79571995684, 0.044, 0.98, -0.038, 192.0, 0.5, 48.0, 15.0, 80.0, 127.0, 104.0, 0.0, 0.0, 0.0, 1.742502845871361E9, 0.0, 2025-03-20 15:34:05.871
40.0, -15991.086183915877, -37236.95573055217, -40383.343742292374, -9979.562160916586, -18113.406671691737, -11312.351979297637, -25186.482094106927, -32754.15691782915, -6677.203676367245, -16084.248254805596, -13336.883585081529, -5620.703771198246, -24939.428262642417, -17770.70972570297, -187500.02235174447, -35882.97645842749, 0.044, 0.98, -0.038, 192.0, 0.0, 0.0, 0.0, 0.0, 0.0, 0.0, 0.0, 0.0, 0.0, 1.742502845871519E9, 0.0, 2025-03-20 15:34:05.871
42.0, -15965.53814000346, -37230.719593849135, -40378.09108234538, -9973.326024213557, -18093.491267382058, -11308.462775762413, -25172.154625911073, -32745.640903191677, -6661.959786648726, -16058.901376593278, -13323.316076197158, -5602.956486100732, -24928.006521225754, -17757.678658685527, -187500.02235174447, -35866.592629741746, 0.044, 0.98, -0.038, 192.0, 0.0, 0.0, 0.0, 0.0, 0.0, 0.0, 0.0, 0.0, 0.0, 1.742502845871695E9, 0.0, 2025-03-20 15:34:05.871
44.0, -15987.554608291937, -37244.06358528895, -40386.69650396067, -9981.372652217467, -18102.230799464083, -11299.991464613851, -25181.22943415993, -32748.121946826217, -6661.423344781798, -16082.169542571253, -13320.298590695691, -5606.9798001026875, -24914.081384430097, -17752.627164438625, -187500.02235174447, -35874.8180717013, 0.044, 0.98, -0.038, 192.0, 0.0, 0.0, 0.0, 0.0, 0.0, 0.0, 0.0, 0.0, 0.0, 1.74250284587182E9, 0.0, 2025-03-20 15:34:05.871
46.0, -15987.956939692134, -37248.64569290229, -40389.62458248432, -9994.850754124016, -18105.315340198915, -11318.409302045024, -25185.722134795444, -32763.499947011467, -6689.810060240038, -16092.227827576142, -13338.06822753766, -5620.279088053595, -24926.285436902697, -17760.047943597787, -187500.02235174447, -35885.34574333975, 0.041999999999999996, 0.983, -0.038, 192.0, 0.5, 32.0, 15.0, 104.0, 127.0, 104.0, 0.0, 0.0, 0.0, 1.7425028459316E9, 0.0, 2025-03-20 15:34:05.931
48.0, -15993.455468828139, -37249.13743128031, -40394.00552439756, -9991.654454666908, -18109.740985601067, -11311.100281608138, -25181.855283004676, -32756.90618239715, -6678.611836267929, -16078.570911713949, -13334.760169358275, -5618.982686875187, -24925.21255316884, -17761.456103498473, -187500.02235174447, -35890.1737201421, 0.041999999999999996, 0.983, -0.038, 192.0, 0.0, 0.0, 0.0, 0.0, 0.0, 0.0, 0.0, 0.0, 0.0, 1.742502845931836E9, 0.0, 2025-03-20 15:34:05.931
50.0, -15993.947207206156, -37243.41538469975, -40391.21155634065, -9993.979036090259, -18105.985892532575, -11314.944781654453, -25183.97869872793, -32763.634057478197, -6682.881019458892, -16083.309481538474, -13335.453073436389, -5621.1284543428965, -24923.625579312513, -17758.08099008572, -187500.02235174447, -35879.95897292602, 0.041999999999999996, 0.983, -0.038, 192.0, 0.0, 0.0, 0.0, 0.0, 0.0, 0.0, 0.0, 0.0, 0.0, 1.742502845931993E9, 0.0, 2025-03-20 15:34:05.931
52.0, -15987.688718758669, -37236.01695728504, -40394.07257963093, -9986.379442975456, -18105.941189043664, -11323.147871869549, -25183.196387671996, -32760.996551632474, -6675.214371110723, -16080.180237314731, -13337.040047292716, -5617.105140340941, -24926.598361325072, -17761.009068609364, -187500.02235174447, -35895.448731833545, 0.041999999999999996, 0.983, -0.038, 192.0, 0.0, 0.0, 0.0, 0.0, 0.0, 0.0, 0.0, 0.0, 0.0, 1.742502845932159E9, 0.0, 2025-03-20 15:34:05.932
54.0, -15992.114364160821, -37238.38624219731, -40399.70521923366, -9991.07330931107, -18115.507735670537, -11311.167336841505, -25180.13419868162, -32756.056816107848, -6682.791612481072, -16080.873141392845, -13334.849576336095, -5609.617305948414, -24909.968663450323, -17744.915812601546, -187500.02235174447, -35874.88512693466, 0.041999999999999996, 0.983, -0.038, 192.0, 0.0, 0.0, 0.0, 0.0, 0.0, 0.0, 0.0, 0.0, 0.0, 1.742502845932325E9, 0.0, 2025-03-20 15:34:05.932
56.0, -15981.832561711379, -37243.54949516648, -40406.94718443718, -9993.59905643452, -18116.33475021538, -11313.693083964954, -25188.449047618993, -32766.137452857194, -6678.030690912091, -16093.591283987915, -13337.777654859741, -5617.3063060410395, -24923.40206186796, -17761.031420353822, -187500.02235174447, -35882.55177528284, 0.039, 0.9844999999999999, -0.040999999999999995, 192.0, 0.5, 16.0, 15.0, 104.0, 127.0, 80.0, 0.0, 0.0, 0.0, 1.742502845932483E9, 0.0, 2025-03-20 15:34:05.932
58.0, -15988.8733612148, -37231.54660839398, -40397.201823854666, -9980.366823716979, -18104.600084376347, -11300.952589625429, -25173.853358489676, -32749.060720093337, -6684.266827615122, -16075.933405868222, -13336.570660659154, -5611.58425946048, -24923.938503734887, -17744.222908523432, -187500.02235174447, -35872.53819376686, 0.039, 0.9844999999999999, -0.040999999999999995, 192.0, 0.0, 0.0, 0.0, 0.0, 0.0, 0.0, 0.0, 0.0, 0.0, 1.742502845932645E9, 0.0, 2025-03-20 15:34:05.932
60.0, -15980.849084955345, -37241.67194863224, -40404.17556812472, -9991.654454666908, -18110.657407123734, -11313.6707322205, -25184.09045745021, -32762.985856888994, -6674.923798432804, -16074.502894223082, -13335.296611225202, -5609.39378850386, -24922.26212290074, -17750.056713826267, -187500.02235174447, -35874.30398157883, 0.039, 0.9844999999999999, -0.040999999999999995, 192.0, 0.0, 0.0, 0.0, 0.0, 0.0, 0.0, 0.0, 0.0, 0.0, 1.742502845932796E9, 0.0, 2025-03-20 15:34:05.932
62.0, -16004.8772102448, -37247.304588234976, -40397.51474827704, -9987.005291820204, -18114.367796703315, -11303.05365360423, -25176.133236424117, -32751.80998466134, -6695.08507193149, -16088.18216182973, -13347.92534684245, -5622.290745054573, -24920.07165194412, -17760.874958142635, -187500.02235174447, -35882.305906093825, 0.039, 0.9844999999999999, -0.040999999999999995, 192.0, 0.0, 0.0, 0.0, 0.0, 0.0, 0.0, 0.0, 0.0, 0.0, 1.742502845991379E9, 0.0, 2025-03-20 15:34:05.991
64.0, -15975.328204074885, -37239.4367741867, -40410.32229784993, -9999.254047781713, -18109.808040834432, -11316.688217721965, -25187.17499818504, -32763.857574922753, -6673.94032167677, -16086.70694669568, -13338.582317660132, -5616.68045719629, -24906.012404681733, -17751.12959756012, -187500.02235174447, -35878.68492349207, 0.039, 0.9844999999999999, -0.040999999999999995, 192.0, 0.0, 0.0, 0.0, 0.0, 0.0, 0.0, 0.0, 0.0, 0.0, 1.742502845991528E9, 0.0, 2025-03-20 15:34:05.991
66.0, -16015.941323750178, -37253.876001104836, -40413.071562417936, -9989.240466265735, -18118.905200827743, -11310.809708930221, -25187.398515629593, -32760.214240576537, -6707.780862782105, -16088.830362418934, -13358.74359115882, -5627.722218957212, -24920.384576366494, -17765.211196566965, -187500.02235174447, -35887.469159063, 0.036500000000000005, 0.98825, -0.042499999999999996, 192.0, 0.5, 8.0, 15.5, 0.0, 127.0, 80.0, 0.0, 0.0, 0.0, 1.742502845991639E9, 0.0, 2025-03-20 15:34:05.991
68.0, -15985.677061757693, -37248.64569290229, -40433.50105685009, -10006.473661240776, -18119.553401416946, -11326.90296493804, -25201.45776289198, -32778.72148498553, -6685.630284026895, -16090.260874064074, -13355.904919612994, -5624.168291588819, -24905.230093625796, -17758.684487186016, -187500.02235174447, -35895.20286264454, 0.036500000000000005, 0.98825, -0.042499999999999996, 192.0, 0.0, 0.0, 0.0, 0.0, 0.0, 0.0, 0.0, 0.0, 0.0, 1.74250284599175E9, 0.0, 2025-03-20 15:34:05.991
70.0, -16011.918009748222, -37249.13743128031, -40423.30866137846, -9997.242390780735, -18128.96348583263, -11315.637685732567, -25187.17499818504, -32763.96933364503, -6712.564136095541, -16095.669996222257, -13363.21394004988, -5631.387905047883, -24929.571143337627, -17763.624222710638, -187500.02235174447, -35892.54300505436, 0.036500000000000005, 0.98825, -0.042499999999999996, 192.0, 0.0, 0.0, 0.0, 0.0, 0.0, 0.0, 0.0, 0.0, 0.0, 1.742502845991873E9, 0.0, 2025-03-20 15:34:05.991
72.0, -15977.87630294279, -37233.04417527249, -40422.213425900154, -9987.407623220399, -18112.892581569264, -11312.642551975556, -25179.575405070234, -32754.983932373994, -6684.84797297096, -16072.401830244284, -13350.674611410454, -5620.3014397980505, -24913.16496290743, -17749.430864981518, -187500.02235174447, -35889.41376083061, 0.036500000000000005, 0.98825, -0.042499999999999996, 192.0, 0.0, 0.0, 0.0, 0.0, 0.0, 0.0, 0.0, 0.0, 0.0, 1.742502845991979E9, 0.0, 2025-03-20 15:34:05.991
74.0, -16015.829565027901, -37254.65831216077, -40430.34946088189, -9999.634027437452, -18130.7292736446, -11310.116804852105, -25186.660908062568, -32758.20258357556, -6700.0695109450235, -16076.13457156832, -13355.524939957255, -5617.440416507771, -24905.878294215, -17747.486263213905, -187500.02235174447, -35879.60134501474, 0.036500000000000005, 0.98825, -0.042499999999999996, 192.0, 0.0, 0.0, 0.0, 0.0, 0.0, 0.0, 0.0, 0.0, 0.0, 1.742502845992084E9, 0.0, 2025-03-20 15:34:05.992
76.0, -15976.803419208934, -37239.70499512017, -40428.74013528111, -10002.964437361294, -18108.15401174474, -11321.918525924508, -25190.393649386606, -32769.06553138084, -6695.129775420401, -16085.812876917467, -13359.078867325648, -5626.984611390187, -24897.272872599708, -17766.50759774537, -187500.02235174447, -35894.554662055336, 0.03325, 0.9881249999999999, -0.042249999999999996, 192.0, 0.0, 120.0, 15.0, 112.0, 127.0, 88.0, 0.0, 0.0, 0.0, 1.742502846050889E9, 0.0, 2025-03-20 15:34:06.050
78.0, -16017.975332495611, -37255.46297496116, -40423.196902656186, -10001.802146649617, -18124.02375030801, -11312.687255464465, -25181.69882079349, -32756.839127163785, -6687.1502026498565, -16080.94019662621, -13356.821341135663, -5627.252832323651, -24907.532323304695, -17767.55812973477, -187500.02235174447, -35897.01335394542, 0.03325, 0.9881249999999999, -0.042249999999999996, 192.0, 0.0, 0.0, 0.0, 0.0, 0.0, 0.0, 0.0, 0.0, 0.0, 1.742502846051039E9, 0.0, 2025-03-20 15:34:06.051
80.0, -15973.763581963014, -37233.22298922813, -40423.73334452312, -9994.381367490456, -18109.76333734552, -11315.48122352138, -25170.12061716564, -32753.464013751032, -6685.339711348976, -16089.724432197147, -13348.506492198288, -5621.083750853986, -24875.658735711426, -17742.792396878292, -187500.02235174447, -35881.7694642269, 0.03325, 0.9881249999999999, -0.042249999999999996, 192.0, 0.0, 0.0, 0.0, 0.0, 0.0, 0.0, 0.0, 0.0, 0.0, 1.742502846051137E9, 0.0, 2025-03-20 15:34:06.051
82.0, -16018.712940062636, -37253.451317960185, -40428.87424574784, -9996.035396580148, -18125.0295788085, -11313.894249665052, -25180.26830914835, -32752.592295717277, -6707.2220691707225, -16096.787583445024, -13360.129399315048, -5625.554099745047, -24883.146570103952, -17758.595080208193, -187500.02235174447, -35887.424455574095, 0.03325, 0.9881249999999999, -0.042249999999999996, 192.0, 0.0, 0.0, 0.0, 0.0, 0.0, 0.0, 0.0, 0.0, 0.0, 1.742502846051234E9, 0.0, 2025-03-20 15:34:06.051
84.0, -15976.557550019927, -37227.70210834767, -40428.49426609209, -9988.011120320692, -18111.216200735118, -11307.971037384395, -25179.30718413677, -32758.739025442486, -6685.2726561156105, -16078.190932058209, -13350.249928265803, -5614.288820539573, -24880.48671251377, -17746.860414369155, -187500.02235174447, -35884.38461832817, 0.03325, 0.9881249999999999, -0.042249999999999996, 192.0, 0.0, 0.0, 0.0, 0.0, 0.0, 0.0, 0.0, 0.0, 0.0, 1.742502846051343E9, 0.0, 2025-03-20 15:34:06.051
86.0, -16016.522469106016, -37248.064547546455, -40434.43983011721, -9987.944065087328, -18113.138450758273, -11304.730034438377, -25180.022439959343, -32757.82260391982, -6697.789633010582, -16071.105429065876, -13358.385963247534, -5616.434588007282, -24881.894872414457, -17750.190824292997, -187500.02235174447, -35875.98036241298, 0.034625, 0.9890625, -0.041124999999999995, 192.0, 0.5, 16.0, 15.0, 120.0, 127.0, 96.0, 0.0, 0.0, 0.0, 1.742502846051463E9, 0.0, 2025-03-20 15:34:06.051
88.0, -15978.770372721003, -37225.80221006897, -40422.23577764461, -9988.391099976434, -18106.321168699404, -11313.693083964954, -25183.308146394273, -32760.504813254454, -6691.598199796463, -16091.46786826466, -13359.45884698139, -5621.955468887743, -24880.598471236048, -17759.33268777522, -187500.02235174447, -35878.08142639177, 0.034625, 0.9890625, -0.041124999999999995, 192.0, 0.0, 0.0, 0.0, 0.0, 0.0, 0.0, 0.0, 0.0, 0.0, 1.742502846051584E9, 0.0, 2025-03-20 15:34:06.051
90.0, -16010.375739380806, -37236.665157874246, -40437.189094685215, -9994.694291912829, -18123.666122396724, -11317.783453200276, -25187.689088307514, -32765.735121456997, -6688.0889759169795, -16065.65160341878, -13351.83690212213, -5613.484157739182, -24881.604299736537, -17755.912870873555, -187500.02235174447, -35886.373923584695, 0.034625, 0.9890625, -0.041124999999999995, 192.0, 0.0, 0.0, 0.0, 0.0, 0.0, 0.0, 0.0, 0.0, 0.0, 1.742502846051695E9, 0.0, 2025-03-20 15:34:06.051
92.0, -15968.153294104732, -37212.2347011846, -40417.85483573137, -9978.332814971545, -18105.62826462129, -11301.265514047804, -25176.46851259095, -32747.361987514734, -6698.683702788795, -16082.258949549074, -13353.73680040083, -5615.786387418078, -24876.843378167556, -17752.068370827245, -187500.02235174447, -35881.50124329344, 0.034625, 0.9890625, -0.041124999999999995, 192.0, 0.0, 0.0, 0.0, 0.0, 0.0, 0.0, 0.0, 0.0, 0.0, 1.742502846111187E9, 0.0, 2025-03-20 15:34:06.111
94.0, -15999.155163664242, -37231.278387460516, -40432.785801027516, -9996.638893680441, -18117.63115139379, -11320.935049168475, -25187.867902263155, -32763.00820863345, -6675.9966821666585, -16073.318251766952, -13339.945774071906, -5605.1022535684415, -24873.848244410547, -17743.70881840096, -187500.02235174447, -35886.77625498489, 0.034625, 0.9890625, -0.041124999999999995, 192.0, 0.0, 0.0, 0.0, 0.0, 0.0, 0.0, 0.0, 0.0, 0.0, 1.742502846111323E9, 0.0, 2025-03-20 15:34:06.111
96.0, -15991.64497752726, -37223.4329251567, -40429.768315526046, -9989.64279766593, -18105.136526243274, -11301.891362892553, -25174.903890479076, -32757.75554868645, -6696.269714387622, -16078.66031869177, -13354.139131801026, -5620.860233409433, -24885.426448038394, -17756.717533673946, -187500.02235174447, -35890.26312711991, 0.0333125, 0.98653125, -0.0405625, 192.0, 0.5, 0.0, 15.0, 96.0, 127.0, 96.0, 0.0, 0.0, 0.0, 1.742502846111433E9, 0.0, 2025-03-20 15:34:06.111
98.0, -16011.292160903475, -37246.00818705656, -40440.675966820236, -10004.327893773067, -18118.480517683092, -11323.90783118103, -25187.912605752066, -32763.835223178296, -6685.429118326798, -16074.346432011895, -13347.366553231068, -5615.093483339963, -24883.705363715337, -17753.387123750108, -187500.02235174447, -35886.59744102925, 0.0333125, 0.98653125, -0.0405625, 192.0, 0.0, 0.0, 0.0, 0.0, 0.0, 0.0, 0.0, 0.0, 0.0, 1.742502846111547E9, 0.0, 2025-03-20 15:34:06.111
100.0, -15999.378681108796, -37241.89546607679, -40430.37181262634, -9996.974169847272, -18120.514526428524, -11314.341284554159, -25181.22943415993, -32753.128737584204, -6714.1511099518675, -16081.61074895987, -13364.89032088403, -5626.314059056528, -24887.661622483927, -17764.71945818895, -187500.02235174447, -35893.86175797722, 0.0333125, 0.98653125, -0.0405625, 192.0, 0.0, 0.0, 0.0, 0.0, 0.0, 0.0, 0.0, 0.0, 0.0, 1.742502846111645E9, 0.0, 2025-03-20 15:34:06.111
102.0, -16001.300931131951, -37244.0412335445, -40428.0919346919, -9995.118975057481, -18118.81579384992, -11300.416147758502, -25183.777533027835, -32761.980028388505, -6694.593333553474, -16111.47267955216, -13356.441361479923, -5630.069152125019, -24878.87738691299, -17747.508614958362, -187500.02235174447, -35886.23981311796, 0.0333125, 0.98653125, -0.0405625, 192.0, 0.0, 0.0, 0.0, 0.0, 0.0, 0.0, 0.0, 0.0, 0.0, 1.742502846111746E9, 0.0, 2025-03-20 15:34:06.111
104.0, -16004.541934077972, -37232.75360259457, -40422.995736956094, -9987.318216242578, -18109.092785011864, -11296.95162736793, -25182.7940562718, -32758.403749275658, -6689.430080584298, -16073.809990144968, -13350.272280010258, -5614.087654839475, -24893.696593486857, -17754.951745861978, -187500.02235174447, -35876.74032172446, 0.0333125, 0.98653125, -0.0405625, 192.0, 0.0, 0.0, 0.0, 0.0, 0.0, 0.0, 0.0, 0.0, 0.0, 1.742502846111846E9, 0.0, 2025-03-20 15:34:06.111
106.0, -15984.045384412455, -37226.9868525251, -40422.48164683362, -9986.915884842383, -18103.504848898036, -11311.681426963976, -25183.732829538923, -32760.81773767683, -6686.8596299719375, -16070.9936703436, -13343.83497760713, -5608.343256514461, -24867.47799724078, -17745.027571323822, -187500.02235174447, -35880.7189322375, 0.03165625, 0.987265625, -0.041281250000000005, 192.0, 0.0, 120.0, 15.0, 112.0, 127.0, 88.0, 0.0, 0.0, 0.0, 1.742502846171507E9, 0.0, 2025-03-20 15:34:06.171
108.0, -16003.580809066394, -37227.009204269554, -40423.2416061451, -9978.086945782536, -18119.82162235041, -11303.85831640462, -25174.16628291205, -32759.00724637595, -6681.316397347021, -16078.257987291574, -13348.30532649819, -5614.288820539573, -24882.900700914946, -17742.010085822356, -187500.02235174447, -35881.3671328267, 0.03165625, 0.987265625, -0.041281250000000005, 192.0, 0.0, 0.0, 0.0, 0.0, 0.0, 0.0, 0.0, 0.0, 0.0, 1.742502846171665E9, 0.0, 2025-03-20 15:34:06.171
110.0, -15986.951111191645, -37228.66323335925, -40428.87424574784, -9995.141326801935, -18111.26090422403, -11313.737787453865, -25178.435466103016, -32763.54465050038, -6682.232818869689, -16068.914958109255, -13344.416122962968, -5608.186794303274, -24865.30987802862, -17744.580536434714, -187500.02235174447, -35882.037685160365, 0.03165625, 0.987265625, -0.041281250000000005, 192.0, 0.0, 0.0, 0.0, 0.0, 0.0, 0.0, 0.0, 0.0, 0.0, 1.742502846171781E9, 0.0, 2025-03-20 15:34:06.171
112.0, -16004.631341055792, -37224.21523621264, -40416.31256536395, -9979.808030105594, -18106.67879661069, -11300.036168102763, -25167.55016655328, -32750.424176505112, -6682.970426436714, -16085.924635639745, -13346.338372986123, -5621.284916554084, -24875.144645588953, -17751.80014989378, -187500.02235174447, -35884.3175630948, 0.03165625, 0.987265625, -0.041281250000000005, 192.0, 0.0, 0.0, 0.0, 0.0, 0.0, 0.0, 0.0, 0.0, 0.0, 1.742502846171895E9, 0.0, 2025-03-20 15:34:06.171
114.0, -15997.791707252469, -37235.10053576238, -40441.63709183181, -10004.260838539702, -18114.323093214403, -11311.52496475279, -25189.32076565275, -32770.76426395944, -6680.623493268907, -16066.903301108277, -13343.052666551193, -5612.29951528305, -24860.750122159734, -17749.050885325778, -187500.02235174447, -35883.2670311054, 0.03165625, 0.987265625, -0.041281250000000005, 192.0, 0.0, 0.0, 0.0, 0.0, 0.0, 0.0, 0.0, 0.0, 0.0, 1.742502846172008E9, 0.0, 2025-03-20 15:34:06.172
116.0, -16020.12109996332, -37245.60585565637, -40422.95103346718, -9988.771079632173, -18119.88867758378, -11295.007025600318, -25177.049657946787, -32752.25701955045, -6711.312438406043, -16099.201571846197, -13362.051649338204, -5634.360687060438, -24878.45270376834, -17760.293812786796, -187500.02235174447, -35888.54204279686, 0.031828125, 0.9856328125, -0.039640625, 192.0, 0.5, 0.0, 15.0, 96.0, 127.0, 104.0, 0.0, 0.0, 0.0, 1.742502846172115E9, 0.0, 2025-03-20 15:34:06.172
118.0, -15989.0745269149, -37233.111230505856, -40447.82852504594, -10000.416338493389, -18126.169517775717, -11310.675598463487, -25187.689088307514, -32767.657371480153, -6675.102612388446, -16090.819667675456, -13348.662954409476, -5626.425817778804, -24852.234107522265, -17755.823463895736, -187500.02235174447, -35887.44680731855, 0.031828125, 0.9856328125, -0.039640625, 192.0, 0.0, 0.0, 0.0, 0.0, 0.0, 0.0, 0.0, 0.0, 0.0, 1.742502846172228E9, 0.0, 2025-03-20 15:34:06.172
120.0, -16027.899507033768, -37237.80509684147, -40434.3951266283, -9981.953797573304, -18120.380415961794, -11287.876819119076, -25166.74550375289, -32749.932438127096, -6695.375644609409, -16073.318251766952, -13356.866044624574, -5623.050704366053, -24879.726753202292, -17753.32006851674, -187500.02235174447, -35883.73641773897, 0.031828125, 0.9856328125, -0.039640625, 192.0, 0.0, 0.0, 0.0, 0.0, 0.0, 0.0, 0.0, 0.0, 0.0, 1.742502846172339E9, 0.0, 2025-03-20 15:34:06.172
122.0, -15980.379698321785, -37224.505808890564, -40435.84799001789, -9984.568951674575, -18106.812907077423, -11303.85831640462, -25180.80475101528, -32763.187022589093, -6687.485478816686, -16059.46017020466, -13344.684343896432, -5605.549288457548, -24863.83466289457, -17731.013027550343, -187500.02235174447, -35867.17377509758, 0.031828125, 0.9856328125, -0.039640625, 192.0, 0.0, 0.0, 0.0, 0.0, 0.0, 0.0, 0.0, 0.0, 0.0, 1.742502846230945E9, 0.0, 2025-03-20 15:34:06.230
124.0, -16042.69636186318, -37257.11700405085, -40448.07439423494, -10002.427995494365, -18122.861459596334, -11312.642551975556, -25189.968966241955, -32767.277391824413, -6708.786691282594, -16104.968321915667, -13368.153675574504, -5640.462713296737, -24889.986203907276, -17758.32685927473, -187500.02235174447, -35891.134845153676, 0.031828125, 0.9856328125, -0.039640625, 192.0, 0.0, 0.0, 0.0, 0.0, 0.0, 0.0, 0.0, 0.0, 0.0, 1.742502846231056E9, 0.0, 2025-03-20 15:34:06.231
126.0, -16002.127945676799, -37243.3930329553, -40451.449507647696, -10004.305542028611, -18114.54661065896, -11309.71447345191, -25185.36450688416, -32765.891583668184, -6695.509755076141, -16083.868275149856, -13359.525902214755, -5628.30336431305, -24874.339982788562, -17752.18012954952, -187500.02235174447, -35885.166929384104, 0.0329140625, 0.98381640625, -0.0418203125, 192.0, 0.5, 8.0, 15.0, 88.0, 127.0, 80.0, 0.0, 0.0, 0.0, 1.742502846231153E9, 0.0, 2025-03-20 15:34:06.231
128.0, -16046.429103187216, -37262.324960508944, -40438.88782726382, -10000.12576581547, -18121.319189228918, -11303.791261171255, -25182.436428360514, -32760.66127546564, -6703.824604013515, -16101.883781180833, -13370.187684319937, -5640.172140618818, -24871.21073856482, -17762.953670376977, -187500.02235174447, -35890.66545852011, 0.0329140625, 0.98381640625, -0.0418203125, 192.0, 0.0, 0.0, 0.0, 0.0, 0.0, 0.0, 0.0, 0.0, 0.0, 1.742502846231286E9, 0.0, 2025-03-20 15:34:06.231
130.0, -16018.534126106993, -37258.480460462626, -40458.26678970656, -10016.17431833438, -18120.514526428524, -11317.582287500178, -25190.527759853336, -32769.57962150331, -6707.534993593096, -16111.38327257434, -13375.395640778022, -5643.524902287114, -24866.74038967376, -17767.46872275695, -187500.02235174447, -35888.36322884121, 0.0329140625, 0.98381640625, -0.0418203125, 192.0, 0.0, 0.0, 0.0, 0.0, 0.0, 0.0, 0.0, 0.0, 0.0, 1.742502846231406E9, 0.0, 2025-03-20 15:34:06.231
132.0, -16058.811969615457, -37273.47848099214, -40453.72938558214, -10009.111167086503, -18118.43581419418, -11318.342246811659, -25183.6434225611, -32768.909069169655, -6715.760435552649, -16110.220981862663, -13385.230408338359, -5647.816437222533, -24898.569273778114, -17781.32680431924, -187500.02235174447, -35901.886034236675, 0.0329140625, 0.98381640625, -0.0418203125, 192.0, 0.0, 0.0, 0.0, 0.0, 0.0, 0.0, 0.0, 0.0, 0.0, 1.742502846231511E9, 0.0, 2025-03-20 15:34:06.231
134.0, -16000.228047398097, -37236.35223345187, -40434.305719650474, -9988.346396487523, -18103.840125064868, -11302.360749526115, -25173.763951511857, -32766.539784257388, -6708.071435460024, -16102.442574792216, -13366.320832529169, -5631.499663770159, -24874.809369422124, -17758.99741160839, -187500.02235174447, -35890.1737201421, 0.0329140625, 0.98381640625, -0.0418203125, 192.0, 0.0, 0.0, 0.0, 0.0, 0.0, 0.0, 0.0, 0.0, 0.0, 1.742502846231636E9, 0.0, 2025-03-20 15:34:06.231
136.0, -16026.960733766644, -37243.14716376628, -40433.3445946389, -9986.781774375651, -18117.497040927057, -11304.819441416197, -25175.350925368184, -32755.430967263103, -6673.850914698949, -16082.236597804618, -13341.44334095041, -5611.450148993748, -24860.884232626468, -17739.08200729871, -187500.02235174447, -35883.44584506105, 0.033457031250000005, 0.984908203125, -0.04291015625, 192.0, 0.5, 8.0, 15.0, 104.0, 127.0, 80.0, 0.0, 0.0, 0.0, 1.742502846290758E9, 0.0, 2025-03-20 15:34:06.290
138.0, -15982.659576256227, -37222.337689678396, -40425.32031837944, -9988.413451720888, -18097.24636045055, -11294.694101177944, -25160.062332160753, -32745.5291444694, -6687.530182305597, -16084.51647573906, -13344.170253773958, -5612.165404816318, -24865.131064072975, -17743.105321300667, -187500.02235174447, -35881.38948457116, 0.033457031250000005, 0.984908203125, -0.04291015625, 192.0, 0.0, 0.0, 0.0, 0.0, 0.0, 0.0, 0.0, 0.0, 0.0, 1.742502846290906E9, 0.0, 2025-03-20 15:34:06.290
140.0, -16033.956829781155, -37244.57767541143, -40448.923760524245, -9998.918771614883, -18123.755529374546, -11311.301447308237, -25178.591928314203, -32760.72833069901, -6670.922836175303, -16074.301728522985, -13337.844710093106, -5607.628000691891, -24857.151491302433, -17743.909984101057, -187500.02235174447, -35879.42253105909, 0.033457031250000005, 0.984908203125, -0.04291015625, 192.0, 0.0, 0.0, 0.0, 0.0, 0.0, 0.0, 0.0, 0.0, 0.0, 1.742502846291018E9, 0.0, 2025-03-20 15:34:06.291
142.0, -16010.286332402986, -37239.30266371997, -40452.12005998135, -9998.382329747956, -18116.848840337854, -11307.18872632846, -25184.09045745021, -32766.115101112737, -6703.6457900578735, -16086.550484484493, -13366.723163929364, -5629.152730602352, -24883.92888115989, -17764.294775044298, -187500.02235174447, -35897.10276092324, 0.033457031250000005, 0.984908203125, -0.04291015625, 192.0, 0.0, 0.0, 0.0, 0.0, 0.0, 0.0, 0.0, 0.0, 0.0, 1.742502846291118E9, 0.0, 2025-03-20 15:34:06.291
144.0, -16034.381512925806, -37245.78466961201, -40441.86060927637, -9988.100527298515, -18110.657407123734, -11296.348130267635, -25172.378143355625, -32754.46984225152, -6692.46991783022, -16090.37263278635, -13352.038067822226, -5622.469559010215, -24858.403188991928, -17752.13542606061, -187500.02235174447, -35889.48081606398, 0.033457031250000005, 0.984908203125, -0.04291015625, 192.0, 0.0, 0.0, 0.0, 0.0, 0.0, 0.0, 0.0, 0.0, 0.0, 1.742502846291216E9, 0.0, 2025-03-20 15:34:06.291
146.0, -16000.16099216473, -37229.289082204, -40424.76152476806, -9975.02475679216, -18099.593293618356, -11269.28016773226, -25159.570593782737, -32738.086013565782, -6690.279446873599, -16080.671975692747, -13352.082771311138, -5617.4851199966815, -24864.795787906147, -17742.300658500273, -187500.02235174447, -35866.6149814862, 0.030728515625, 0.9884541015625, -0.044455078125, 192.0, 0.0, 112.0, 15.5, 0.0, 127.0, 72.0, 0.0, 0.0, 0.0, 1.742502846291311E9, 0.0, 2025-03-20 15:34:06.291
148.0, -16022.959771509144, -37245.4940969341, -40437.07733596293, -9986.960588331292, -18105.561209387924, -11301.354921025626, -25179.75421902588, -32754.402787018156, -6680.265865357622, -16088.56214148547, -13343.946736329406, -5617.663933952324, -24867.433293751874, -17742.680638156013, -187500.02235174447, -35873.27580133388, 0.030728515625, 0.9884541015625, -0.044455078125, 192.0, 0.0, 0.0, 0.0, 0.0, 0.0, 0.0, 0.0, 0.0, 0.0, 1.742502846291416E9, 0.0, 2025-03-20 15:34:06.291
150.0, -16011.381567881295, -37233.13358225031, -40436.071507462446, -9980.009195805693, -18108.757508845032, -11286.513362707301, -25188.761972041368, -32758.046121364372, -6685.138545648879, -16076.179275057231, -13349.758189887785, -5612.075997838498, -24852.748197644734, -17728.621390893626, -187500.02235174447, -35869.319542565296, 0.030728515625, 0.9884541015625, -0.044455078125, 192.0, 0.0, 0.0, 0.0, 0.0, 0.0, 0.0, 0.0, 0.0, 0.0, 1.742502846291534E9, 0.0, 2025-03-20 15:34:06.291
152.0, -16007.35825387934, -37229.043213014986, -40439.91600750876, -9989.084004054548, -18104.06364250942, -11290.313159264704, -25177.83196900272, -32752.994627117474, -6675.326129832999, -16069.361992998362, -13343.298535740201, -5608.432663492282, -24845.886212096957, -17737.047998553277, -187500.02235174447, -35876.69561823554, 0.030728515625, 0.9884541015625, -0.044455078125, 192.0, 0.0, 0.0, 0.0, 0.0, 0.0, 0.0, 0.0, 0.0, 0.0, 1.742502846351059E9, 0.0, 2025-03-20 15:34:06.351
154.0, -16016.321303405919, -37237.223951485634, -40437.92670225223, -9991.36388198899, -18095.68173833868, -11293.531810466267, -25164.465625818448, -32749.060720093337, -6701.812947012538, -16080.269644292552, -13352.01571607777, -5617.887451396877, -24848.21079352031, -17738.500861942874, -187500.02235174447, -35874.058112389816, 0.030728515625, 0.9884541015625, -0.044455078125, 192.0, 0.0, 0.0, 0.0, 0.0, 0.0, 0.0, 0.0, 0.0, 0.0, 1.742502846351189E9, 0.0, 2025-03-20 15:34:06.351
156.0, -16017.818870284424, -37248.31041673546, -40461.41838567476, -10005.132556573459, -18116.982950804588, -11316.688217721965, -25180.670640548546, -32770.518394770435, -6682.612798525429, -16086.550484484493, -13350.339335243623, -5624.324753800006, -24849.998933076735, -17751.84485338269, -187500.02235174447, -35889.972554442, 0.029364257812500003, 0.9862270507812501, -0.0442275390625, 192.0, 0.0, 112.0, 15.0, 96.0, 127.0, 80.0, 0.0, 0.0, 0.0, 1.742502846351316E9, 0.0, 2025-03-20 15:34:06.351
158.0, -16052.486425934605, -37265.118928565855, -40474.18123175875, -10012.978018877271, -18132.606820178848, -11316.71056946642, -25194.528722110837, -32775.72635122852, -6707.1103104484455, -16112.791432475024, -13374.03218436625, -5649.582225034503, -24874.854072911035, -17767.13344659012, -187500.02235174447, -35901.10372318074, 0.029364257812500003, 0.9862270507812501, -0.0442275390625, 192.0, 0.0, 0.0, 0.0, 0.0, 0.0, 0.0, 0.0, 0.0, 0.0, 1.742502846351433E9, 0.0, 2025-03-20 15:34:06.351
160.0, -16019.942286007677, -37243.929474822224, -40461.82071707496, -9998.941123359338, -18109.115136756318, -11306.920505394997, -25185.69978305099, -32769.49021452549, -6699.510717333641, -16102.084946880932, -13363.348050516612, -5638.249890595662, -24859.05138958113, -17768.18397857952, -187500.02235174447, -35906.87047325021, 0.029364257812500003, 0.9862270507812501, -0.0442275390625, 192.0, 0.0, 0.0, 0.0, 0.0, 0.0, 0.0, 0.0, 0.0, 0.0, 1.74250284635154E9, 0.0, 2025-03-20 15:34:06.351
162.0, -16048.060780532454, -37262.83905063141, -40474.98589455913, -9999.634027437452, -18121.4756514401, -11312.508441508824, -25190.013669730863, -32773.513528527445, -6712.497080862175, -16098.173391601253, -13370.92529188696, -5637.9146144288325, -24872.507139743226, -17763.020725610342, -187500.02235174447, -35899.06971443531, 0.029364257812500003, 0.9862270507812501, -0.0442275390625, 192.0, 0.0, 0.0, 0.0, 0.0, 0.0, 0.0, 0.0, 0.0, 0.0, 1.742502846351647E9, 0.0, 2025-03-20 15:34:06.351
164.0, -15998.529314819494, -37235.32405320693, -40446.86740003436, -9980.523285928164, -18108.556343144937, -11304.6182757161, -25173.31691662275, -32756.97323763052, -6696.4261765988085, -16088.495086252105, -13349.467617209866, -5620.256736309139, -24855.78803489066, -17743.79822537878, -187500.02235174447, -35886.8209584738, 0.029364257812500003, 0.9862270507812501, -0.0442275390625, 192.0, 0.0, 0.0, 0.0, 0.0, 0.0, 0.0, 0.0, 0.0, 0.0, 1.742502846351749E9, 0.0, 2025-03-20 15:34:06.351
166.0, -16045.51268166455, -37258.614570929356, -40461.10546125239, -9987.944065087328, -18122.012093307032, -11301.980769870373, -25182.928166738533, -32764.19285108958, -6699.935400478292, -16083.957682127677, -13350.49579745481, -5619.429721764293, -24862.270040782696, -17758.595080208193, -187500.02235174447, -35881.255374104425, 0.02968212890625, 0.985113525390625, -0.04311376953125, 192.0, 0.0, 120.0, 15.0, 96.0, 127.0, 88.0, 0.0, 0.0, 0.0, 1.742502846411285E9, 0.0, 2025-03-20 15:34:06.411
168.0, -16011.985064981589, -37243.50479167757, -40457.730347839635, -9984.50189644121, -18105.71767159911, -11304.037130360262, -25176.557919568768, -32764.90810691215, -6704.383397624898, -16091.713737453669, -13358.676535925453, -5622.693076454768, -24861.0183430932, -17751.95661210497, -187500.02235174447, -35884.22815611698, 0.02968212890625, 0.985113525390625, -0.04311376953125, 192.0, 0.0, 0.0, 0.0, 0.0, 0.0, 0.0, 0.0, 0.0, 0.0, 1.742502846411419E9, 0.0, 2025-03-20 15:34:06.411
170.0, -16045.065646775443, -37254.12187029384, -40447.42619364574, -9976.991710304226, -18113.49607866956, -11293.017720343796, -25172.31108812226, -32752.368778272725, -6695.822679498516, -16082.504818738082, -13351.92630909995, -5617.216899063218, -24850.15539528792, -17749.967306848444, -187500.02235174447, -35882.84234796075, 0.02968212890625, 0.985113525390625, -0.04311376953125, 192.0, 0.0, 0.0, 0.0, 0.0, 0.0, 0.0, 0.0, 0.0, 0.0, 1.742502846411538E9, 0.0, 2025-03-20 15:34:06.411
172.0, -16018.958809251644, -37247.86338184636, -40467.47570842215, -9991.609751177997, -18110.031558278984, -11314.698912465443, -25192.047678476298, -32772.99943840497, -6690.502964318152, -16086.662243206769, -13349.221748020858, -5616.032256607086, -24855.609220935014, -17750.88372837111, -187500.02235174447, -35881.411836315616, 0.02968212890625, 0.985113525390625, -0.04311376953125, 192.0, 0.0, 0.0, 0.0, 0.0, 0.0, 0.0, 0.0, 0.0, 0.0, 1.742502846411659E9, 0.0, 2025-03-20 15:34:06.411
174.0, -16062.56706268395, -37261.52029770855, -40464.21235373168, -9988.92754184336, -18130.572811433412, -11311.726130452887, -25186.817370273755, -32767.277391824413, -6715.536918108096, -16100.52032476906, -13369.584187219643, -5630.851463180955, -24865.26517453971, -17769.502731502384, -187500.02235174447, -35898.68973477957, 0.02968212890625, 0.985113525390625, -0.04311376953125, 192.0, 0.0, 0.0, 0.0, 0.0, 0.0, 0.0, 0.0, 0.0, 0.0, 1.742502846411775E9, 0.0, 2025-03-20 15:34:06.411
176.0, -16014.421405127217, -37236.91102706326, -40454.75756582708, -9984.703062141307, -18099.749755829544, -11309.535659496267, -25180.447123103993, -32762.360008044245, -6707.557345337552, -16082.303653037985, -13355.748457401807, -5619.429721764293, -24858.0679128251, -17759.489149986406, -187500.02235174447, -35884.47402530599, 0.027841064453125, 0.9845567626953124, -0.040556884765624995, 192.0, 0.0, 104.0, 15.0, 96.0, 127.0, 104.0, 0.0, 0.0, 0.0, 1.742502846411887E9, 0.0, 2025-03-20 15:34:06.411
178.0, -16035.297934448474, -37238.475649175125, -40450.98012101414, -9973.661300380385, -18104.57773263189, -11279.740784137342, -25174.926242223533, -32749.932438127096, -6689.94417070677, -16075.687536679214, -13346.338372986123, -5611.0925210824635, -24850.960058088313, -17747.061580069254, -187500.02235174447, -35877.701446736035, 0.027841064453125, 0.9845567626953124, -0.040556884765624995, 192.0, 0.0, 0.0, 0.0, 0.0, 0.0, 0.0, 0.0, 0.0, 0.0, 1.742502846412006E9, 0.0, 2025-03-20 15:34:06.412
180.0, -15997.344672363362, -37225.44458215768, -40453.03648150402, -9977.081117282047, -18088.082145223874, -11290.313159264704, -25175.932070724022, -32759.76720568743, -6690.190039895778, -16071.641870932803, -13343.991439818317, -5611.3830937603825, -24844.47805219627, -17749.564975448247, -187500.02235174447, -35878.50610953642, 0.027841064453125, 0.9845567626953124, -0.040556884765624995, 192.0, 0.0, 0.0, 0.0, 0.0, 0.0, 0.0, 0.0, 0.0, 0.0, 1.742502846412112E9, 0.0, 2025-03-20 15:34:06.412
182.0, -16042.249326974075, -37245.80702135647, -40460.56901938546, -9983.250198751712, -18109.986854790077, -11292.391871499047, -25190.728925553434, -32763.81287143384, -6686.278484616099, -16075.933405868222, -13341.152768272492, -5610.77959666009, -24828.653017121916, -17760.494978486895, -187500.02235174447, -35875.62273450169, 0.027841064453125, 0.9845567626953124, -0.040556884765624995, 192.0, 0.0, 0.0, 0.0, 0.0, 0.0, 0.0, 0.0, 0.0, 0.0, 1.742502846471599E9, 0.0, 2025-03-20 15:34:06.471
184.0, -16008.587599824383, -37233.22298922813, -40460.70312985219, -9981.663224895385, -18101.53789538597, -11293.33064476617, -25186.526797595838, -32760.281295809902, -6698.795461511071, -16075.866350634857, -13347.92534684245, -5617.172195574307, -24839.359502716008, -17765.613527967158, -187500.02235174447, -35881.747112482444, 0.027841064453125, 0.9845567626953124, -0.040556884765624995, 192.0, 0.0, 0.0, 0.0, 0.0, 0.0, 0.0, 0.0, 0.0, 0.0, 1.74250284647176E9, 0.0, 2025-03-20 15:34:06.471
186.0, -16036.393169926783, -37240.643768387294, -40458.087975750925, -9983.339605729534, -18115.35127345935, -11297.488069234858, -25179.485998092416, -32755.58742947429, -6685.004435182147, -16080.694327437202, -13345.533710185733, -5619.5414804865695, -24852.077645311078, -17772.363754792663, -187500.02235174447, -35887.35740034073, 0.027920532226562503, 0.9862783813476562, -0.0382784423828125, 192.0, 0.0, 112.0, 15.0, 112.0, 127.0, 112.0, 0.0, 0.0, 0.0, 1.742502846471858E9, 0.0, 2025-03-20 15:34:06.471
188.0, -16019.115271462832, -37240.509657920564, -40473.22010674717, -9998.605847192508, -18117.653503138245, -11307.434595517469, -25195.489847122415, -32761.30947605485, -6691.03940618508, -16075.195798301196, -13344.282012496235, -5614.333524028483, -24853.619915678493, -17763.937147133012, -187500.02235174447, -35880.67422874859, 0.027920532226562503, 0.9862783813476562, -0.0382784423828125, 192.0, 0.0, 0.0, 0.0, 0.0, 0.0, 0.0, 0.0, 0.0, 0.0, 1.742502846471966E9, 0.0, 2025-03-20 15:34:06.471
190.0, -16050.675934633726, -37257.496983706595, -40483.65837140779, -10006.317199029589, -18130.326942244406, -11321.180918357482, -25204.072916993253, -32763.656409222654, -6713.905240762859, -16088.025699618544, -13365.493817984321, -5632.97487890421, -24859.72194191479, -17788.367603822662, -187500.02235174447, -35900.991964458466, 0.027920532226562503, 0.9862783813476562, -0.0382784423828125, 192.0, 0.0, 0.0, 0.0, 0.0, 0.0, 0.0, 0.0, 0.0, 0.0, 1.742502846472068E9, 0.0, 2025-03-20 15:34:06.472
192.0, -16011.381567881295, -37230.451372915675, -40465.30758920999, -9989.955722088305, -18108.064604766918, -11302.450156503935, -25191.757105798377, -32748.97131311552, -6699.622476055918, -16070.971318599144, -13354.295594012214, -5621.35197178745, -24853.932840100868, -17774.08483911572, -187500.02235174447, -35890.084313164276, 0.027920532226562503, 0.9862783813476562, -0.0382784423828125, 192.0, 0.0, 0.0, 0.0, 0.0, 0.0, 0.0, 0.0, 0.0, 0.0, 1.742502846472188E9, 0.0, 2025-03-20 15:34:06.472
194.0, -16021.305742419452, -37232.61949212784, -40456.05396700549, -9987.161754031391, -18107.43875592217, -11300.19263031395, -25191.89121626511, -32739.11419381073, -6688.178382894801, -16069.205530787174, -13340.236346749825, -5608.2091460477295, -24835.783223603157, -17771.380278036628, -187500.02235174447, -35880.428359559584, 0.027920532226562503, 0.9862783813476562, -0.0382784423828125, 192.0, 0.0, 0.0, 0.0, 0.0, 0.0, 0.0, 0.0, 0.0, 0.0, 1.742502846472305E9, 0.0, 2025-03-20 15:34:06.472
196.0, -16004.16195442223, -37224.34934667937, -40444.98985350011, -9982.065556295582, -18091.211389447617, -11298.985636113362, -25182.727001038435, -32730.106440795236, -6683.640978770373, -16058.677859148725, -13333.687285624419, -5610.734893171179, -24853.10582555602, -17775.202426338485, -187500.02235174447, -35878.10377813623, 0.02796026611328125, 0.9881391906738282, -0.03813922119140625, 192.0, 0.0, 112.0, 15.0, 120.0, 127.0, 104.0, 0.0, 0.0, 0.0, 1.742502846531869E9, 0.0, 2025-03-20 15:34:06.531
198.0, -16017.349483650862, -37237.55922765246, -40452.969426270654, -9986.558256931097, -18088.730345813077, -11301.354921025626, -25189.141951697107, -32731.559304184833, -6677.60600776744, -16059.46017020466, -13328.68049486643, -5611.159576315829, -24846.78028187517, -17778.80105719579, -187500.02235174447, -35876.18152811307, 0.02796026611328125, 0.9881391906738282, -0.03813922119140625, 192.0, 0.0, 0.0, 0.0, 0.0, 0.0, 0.0, 0.0, 0.0, 0.0, 1.742502846532061E9, 0.0, 2025-03-20 15:34:06.532
200.0, -16005.50305908955, -37232.97712003912, -40439.848952275395, -9979.159829516391, -18097.335767428372, -11287.206266785415, -25183.50931209437, -32724.09382153676, -6693.632208541895, -16066.165693541254, -13342.203300261892, -5626.224652078707, -24841.57232541708, -17785.7971532103, -187500.02235174447, -35871.822937944286, 0.02796026611328125, 0.9881391906738282, -0.03813922119140625, 192.0, 0.0, 0.0, 0.0, 0.0, 0.0, 0.0, 0.0, 0.0, 0.0, 1.742502846532166E9, 0.0, 2025-03-20 15:34:06.532
202.0, -16002.709091032637, -37231.479553160614, -40452.634150103826, -9981.059727795093, -18088.57388360189, -11294.492935477845, -25183.59871907219, -32728.027728560894, -6670.1852286082785, -16058.789617871002, -13325.953582042883, -5616.0769600959975, -24834.330360213564, -17773.257824570876, -187500.02235174447, -35863.97747564047, 0.02796026611328125, 0.9881391906738282, -0.03813922119140625, 192.0, 0.0, 0.0, 0.0, 0.0, 0.0, 0.0, 0.0, 0.0, 0.0, 1.742502846532274E9, 0.0, 2025-03-20 15:34:06.532
204.0, -16003.960788722134, -37232.15010549428, -40449.03551924652, -9983.607826662997, -18095.726441827588, -11293.777679655275, -25184.09045745021, -32722.79742035835, -6682.299874103055, -16052.776998612524, -13332.770864101753, -5622.536614243581, -24854.759854645712, -17781.259749085875, -187500.02235174447, -35861.116452350194, 0.02796026611328125, 0.9881391906738282, -0.03813922119140625, 192.0, 0.0, 0.0, 0.0, 0.0, 0.0, 0.0, 0.0, 0.0, 0.0, 1.742502846532381E9, 0.0, 2025-03-20 15:34:06.532
206.0, -15996.964692707623, -37231.010166527056, -40457.08214725043, -9989.821611621574, -18080.43784862016, -11297.957455868418, -25189.857207519675, -32731.514600695922, -6676.197847866756, -16060.533053938516, -13329.68632336692, -5622.961297388232, -24864.281697783674, -17778.130504862133, -187500.02235174447, -35866.77144369739, 0.026980133056640626, 0.9870695953369141, -0.03706961059570313, 192.0, 0.0, 104.0, 15.0, 104.0, 127.0, 112.0, 0.0, 0.0, 0.0, 1.742502846532486E9, 0.0, 2025-03-20 15:34:06.532
208.0, -15995.891808973767, -37226.5845211249, -40440.117173208855, -9970.487352667733, -18089.110325468817, -11279.003176570319, -25183.66577430556, -32714.124943509694, -6682.433984569787, -16047.926670065723, -13330.222765233848, -5623.050704366053, -24859.029037836677, -17777.750525206393, -187500.02235174447, -35863.95512389602, 0.026980133056640626, 0.9870695953369141, -0.03706961059570313, 192.0, 0.0, 0.0, 0.0, 0.0, 0.0, 0.0, 0.0, 0.0, 0.0, 1.742502846532593E9, 0.0, 2025-03-20 15:34:06.532
210.0, -15976.579901764382, -37215.92273901973, -40446.062737233966, -9970.330890456546, -18081.6671945652, -11281.484220204857, -25173.205157900473, -32710.436905674567, -6659.121115102901, -16031.989876269088, -13310.642637090998, -5605.3928262463605, -24833.928028813367, -17755.398780751086, -187500.02235174447, -35852.48867899045, 0.026980133056640626, 0.9870695953369141, -0.03706961059570313, 192.0, 0.0, 0.0, 0.0, 0.0, 0.0, 0.0, 0.0, 0.0, 0.0, 1.742502846532693E9, 0.0, 2025-03-20 15:34:06.532
212.0, -16010.420442869718, -37236.866323574344, -40455.18224897173, -9978.824553349561, -18097.04519475045, -11291.587208698656, -25187.219701673952, -32722.90917908063, -6670.676966986295, -16046.250289231575, -13324.344256442102, -5618.759169430634, -24845.260363252208, -17771.42498152554, -187500.02235174447, -35857.003731370416, 0.026980133056640626, 0.9870695953369141, -0.03706961059570313, 192.0, 0.0, 0.0, 0.0, 0.0, 0.0, 0.0, 0.0, 0.0, 0.0, 1.74250284659135E9, 0.0, 2025-03-20 15:34:06.591
214.0, -15972.847160440346, -37222.71766933414, -40454.645807104804, -9977.550503915609, -18075.408706117716, -11286.401603985025, -25176.759085268866, -32716.382469699678, -6672.621568753907, -16047.949021810178, -13328.881660566529, -5620.994343876165, -24841.482918439262, -17773.883673415625, -187500.02235174447, -35864.826841929775, 0.026980133056640626, 0.9870695953369141, -0.03706961059570313, 192.0, 0.0, 0.0, 0.0, 0.0, 0.0, 0.0, 0.0, 0.0, 0.0, 1.742502846591492E9, 0.0, 2025-03-20 15:34:06.591
216.0, -16007.961750979634, -37235.45816367366, -40443.67110057725, -9971.090849768025, -18087.38924114576, -11288.212095285904, -25173.473378833936, -32715.28723422137, -6673.985025165681, -16052.687591634703, -13330.53568965622, -5620.659067709335, -24854.938668601357, -17786.534760777326, -187500.02235174447, -35860.44590001654, 0.028490066528320312, 0.987534797668457, -0.03753480529785157, 192.0, 0.0, 120.0, 15.0, 112.0, 127.0, 104.0, 0.0, 0.0, 0.0, 1.742502846591607E9, 0.0, 2025-03-20 15:34:06.591
218.0, -15966.074581870387, -37213.12877096281, -40445.88392327833, -9975.02475679216, -18086.67398532319, -11297.80099365723, -25186.973832484942, -32727.468934949513, -6662.943263404759, -16037.913088549745, -13316.58820111611, -5603.2247070341955, -24846.19913651933, -17767.155798334577, -187500.02235174447, -35847.213667298995, 0.028490066528320312, 0.987534797668457, -0.03753480529785157, 192.0, 0.0, 0.0, 0.0, 0.0, 0.0, 0.0, 0.0, 0.0, 0.0, 1.742502846591719E9, 0.0, 2025-03-20 15:34:06.591
220.0, -16008.162916679732, -37225.26576820204, -40433.61281557236, -9964.92176829836, -18078.78381953047, -11289.419089486491, -25170.992335199397, -32708.76052484042, -6673.582693765485, -16045.244460731086, -13325.886526809518, -5612.25481179414, -24857.531470958173, -17779.829237440736, -187500.02235174447, -35855.57321972528, 0.028490066528320312, 0.987534797668457, -0.03753480529785157, 192.0, 0.0, 0.0, 0.0, 0.0, 0.0, 0.0, 0.0, 0.0, 0.0, 1.742502846591842E9, 0.0, 2025-03-20 15:34:06.591
222.0, -15975.350555819341, -37220.862474544345, -40441.52533310954, -9970.956739301293, -18082.80713353242, -11296.862220390109, -25179.396591114593, -32720.42813544609, -6668.50884777413, -16048.17253925473, -13319.225706961835, -5608.075035580997, -24855.095130812544, -17777.258786828374, -187500.02235174447, -35850.789946411845, 0.028490066528320312, 0.987534797668457, -0.03753480529785157, 192.0, 0.0, 0.0, 0.0, 0.0, 0.0, 0.0, 0.0, 0.0, 0.0, 1.742502846591945E9, 0.0, 2025-03-20 15:34:06.591
224.0, -16010.196925425163, -37233.312396205954, -40428.38250736982, -9960.20555021829, -18089.780877802477, -11280.724260893378, -25171.97581195543, -32713.81201908732, -6673.046251898558, -16053.581661412914, -13324.50071865329, -5611.248983293651, -24849.909526098912, -17783.18199910903, -187500.02235174447, -35855.327350536274, 0.028490066528320312, 0.987534797668457, -0.03753480529785157, 192.0, 0.0, 0.0, 0.0, 0.0, 0.0, 0.0, 0.0, 0.0, 0.0, 1.742502846592055E9, 0.0, 2025-03-20 15:34:06.592
226.0, -15975.864645941812, -37223.723497834624, -40442.53116161003, -9965.16763748737, -18078.470895108094, -11288.010929585807, -25181.251785904384, -32723.691490136564, -6670.632263497385, -16047.993725299088, -13315.15768947097, -5603.023541334098, -24835.29148522514, -17774.263653071364, -187500.02235174447, -35852.01929235688, 0.029245033264160156, 0.9857673988342285, -0.03776740264892578, 192.0, 0.0, 120.0, 15.0, 96.0, 127.0, 104.0, 0.0, 0.0, 0.0, 1.742502846650993E9, 0.0, 2025-03-20 15:34:06.650
228.0, -16007.98410272409, -37235.23464622911, -40432.204655671674, -9966.441686921322, -18089.602063846836, -11280.277226004271, -25170.25472763237, -32709.565187640812, -6669.648786741351, -16044.8868328198, -13321.416177918456, -5609.751416415145, -24864.21464255031, -17773.458990270974, -187500.02235174447, -35858.92598139358, 0.029245033264160156, 0.9857673988342285, -0.03776740264892578, 192.0, 0.0, 0.0, 0.0, 0.0, 0.0, 0.0, 0.0, 0.0, 0.0, 1.74250284665114E9, 0.0, 2025-03-20 15:34:06.651
230.0, -15970.276709827986, -37213.17347445172, -40433.38929812781, -9968.609806133487, -18078.113267196808, -11288.726185408377, -25172.087570677708, -32718.70705112303, -6677.60600776744, -16035.32028619293, -13317.817547061151, -5605.906916368833, -24844.232183007265, -17773.32487980424, -187500.02235174447, -35856.10966159221, 0.029245033264160156, 0.9857673988342285, -0.03776740264892578, 192.0, 0.0, 0.0, 0.0, 0.0, 0.0, 0.0, 0.0, 0.0, 0.0, 1.742502846651243E9, 0.0, 2025-03-20 15:34:06.651
232.0, -16010.845126014368, -37234.429983428716, -40444.72163256665, -9977.036413793137, -18091.993700503554, -11290.737842409355, -25182.145855682596, -32719.846990090253, -6667.614777995918, -16038.918917050234, -13318.130471483526, -5606.421006491305, -24844.67921789637, -17772.497865259393, -187500.02235174447, -35859.35066453823, 0.029245033264160156, 0.9857673988342285, -0.03776740264892578, 192.0, 0.0, 0.0, 0.0, 0.0, 0.0, 0.0, 0.0, 0.0, 0.0, 1.74250284665135E9, 0.0, 2025-03-20 15:34:06.651
234.0, -15978.25628259853, -37225.98102402461, -40454.75756582708, -9990.067480810581, -18090.384374902773, -11296.415185501002, -25195.400440144593, -32732.922760596608, -6672.420403053809, -16046.362047953851, -13326.042989020705, -5617.1945473187625, -24846.9143923419, -17781.483266530427, -187500.02235174447, -35865.47504251898, 0.029245033264160156, 0.9857673988342285, -0.03776740264892578, 192.0, 0.0, 0.0, 0.0, 0.0, 0.0, 0.0, 0.0, 0.0, 0.0, 1.742502846651449E9, 0.0, 2025-03-20 15:34:06.651
236.0, -16006.128907934299, -37230.36196593785, -40445.1463157113, -9978.64573939392, -18085.690508567157, -11299.790298913753, -25179.530701581327, -32719.13173426768, -6672.308644331532, -16045.155053753264, -13323.897221552996, -5615.451111251248, -24852.748197644734, -17786.557112521783, -187500.02235174447, -35869.319542565296, 0.03162251663208008, 0.9868836994171142, -0.03688370132446289, 192.0, 0.5, 8.0, 15.0, 112.0, 127.0, 112.0, 0.0, 0.0, 0.0, 1.742502846651576E9, 0.0, 2025-03-20 15:34:06.651
238.0, -15974.9705761636, -37217.97909950961, -40436.987928985116, -9972.901341068906, -18078.67206080819, -11286.46865921839, -25178.92720448103, -32723.132696525183, -6669.045289641058, -16037.153129238264, -13318.130471483526, -5610.131396070886, -24849.57424993208, -17777.012917639368, -187500.02235174447, -35859.32831279377, 0.03162251663208008, 0.9868836994171142, -0.03688370132446289, 192.0, 0.0, 0.0, 0.0, 0.0, 0.0, 0.0, 0.0, 0.0, 0.0, 1.742502846651694E9, 0.0, 2025-03-20 15:34:06.651
240.0, -16006.240666656575, -37236.82162008544, -40443.17936219923, -9977.081117282047, -18095.748793572046, -11289.240275530849, -25185.856245262177, -32729.01120531693, -6662.2056558377335, -16041.623478129326, -13315.962352271361, -5609.751416415145, -24850.758892388214, -17776.454124027983, -187500.02235174447, -35865.586801241254, 0.03162251663208008, 0.9868836994171142, -0.03688370132446289, 192.0, 0.0, 0.0, 0.0, 0.0, 0.0, 0.0, 0.0, 0.0, 0.0, 1.742502846651797E9, 0.0, 2025-03-20 15:34:06.651
242.0, -15978.390393065261, -37216.682698331206, -40433.38929812781, -9957.746858328206, -18087.63511033477, -11276.700946891422, -25171.88640497761, -32710.168684741104, -6674.253246099144, -16041.623478129326, -13322.73493084132, -5607.739759414168, -24851.742369144245, -17772.52021700385, -187500.02235174447, -35857.629580215165, 0.03162251663208008, 0.9868836994171142, -0.03688370132446289, 192.0, 0.0, 0.0, 0.0, 0.0, 0.0, 0.0, 0.0, 0.0, 0.0, 1.742502846711195E9, 0.0, 2025-03-20 15:34:06.711
244.0, -16004.251361400053, -37232.93241655021, -40445.503943622585, -9964.295919453612, -18087.702165568135, -11283.808801628209, -25173.428675345025, -32716.605987144234, -6667.03363264008, -16037.130777493809, -13316.074110993637, -5599.693131410258, -24844.43334870736, -17770.70972570297, -187500.02235174447, -35855.64027495865, 0.03162251663208008, 0.9868836994171142, -0.03688370132446289, 192.0, 0.0, 0.0, 0.0, 0.0, 0.0, 0.0, 0.0, 0.0, 0.0, 1.742502846711329E9, 0.0, 2025-03-20 15:34:06.711
246.0, -15997.523486319005, -37234.58644563991, -40455.562228627474, -9974.510666669687, -18090.116153969306, -11285.261665017804, -25189.70074530849, -32732.609836174233, -6674.0073769101355, -16038.673047861224, -13325.193622731404, -5607.806814647533, -24848.8142906206, -17772.341403048205, -187500.02235174447, -35854.45563250251, 0.031811258316040036, 0.9844418497085571, -0.03844185066223145, 192.0, 0.5, 0.0, 15.0, 88.0, 127.0, 96.0, 0.0, 0.0, 0.0, 1.742502846711436E9, 0.0, 2025-03-20 15:34:06.711
248.0, -15999.758660764535, -37235.94990205168, -40457.08214725043, -9981.3055969841, -18101.604950619334, -11285.507534206812, -25190.88538776462, -32736.320225753814, -6676.376661822398, -16054.520434680038, -13335.140149014014, -5625.241175322673, -24866.606279207026, -17794.51433354787, -187500.02235174447, -35875.28745833486, 0.031811258316040036, 0.9844418497085571, -0.03844185066223145, 192.0, 0.0, 0.0, 0.0, 0.0, 0.0, 0.0, 0.0, 0.0, 0.0, 1.742502846711552E9, 0.0, 2025-03-20 15:34:06.711
250.0, -15995.958864207134, -37225.86926530233, -40447.180324456735, -9975.874123081461, -18090.540837113957, -11278.064403303195, -25177.161416669063, -32724.317338981313, -6679.349443834954, -16043.277507219018, -13328.30051521069, -5619.943811886766, -24850.423616221386, -17794.76020273688, -187500.02235174447, -35863.70925470701, 0.031811258316040036, 0.9844418497085571, -0.03844185066223145, 192.0, 0.0, 0.0, 0.0, 0.0, 0.0, 0.0, 0.0, 0.0, 0.0, 1.742502846711649E9, 0.0, 2025-03-20 15:34:06.711
252.0, -15994.729518262091, -37231.8371810719, -40456.746871083604, -9984.613655163486, -18089.959691758122, -11295.118784322594, -25179.30718413677, -32728.698280894554, -6661.89273141536, -16048.08313227691, -13319.248058706291, -5613.774730417101, -24845.796805119135, -17789.976929423443, -187500.02235174447, -35871.8676414332, 0.031811258316040036, 0.9844418497085571, -0.03844185066223145, 192.0, 0.0, 0.0, 0.0, 0.0, 0.0, 0.0, 0.0, 0.0, 0.0, 1.742502846711746E9, 0.0, 2025-03-20 15:34:06.711
254.0, -16002.01618695452, -37232.50773340556, -40448.230856446135, -9975.047108536615, -18102.476668653093, -11285.619292929088, -25177.65315504708, -32735.24734201996, -6677.851876956449, -16053.983992813111, -13330.893317567507, -5618.625058963902, -24857.375008746985, -17788.65817650058, -187500.02235174447, -35865.743263452445, 0.031811258316040036, 0.9844418497085571, -0.03844185066223145, 192.0, 0.0, 0.0, 0.0, 0.0, 0.0, 0.0, 0.0, 0.0, 0.0, 1.742502846711844E9, 0.0, 2025-03-20 15:34:06.711
0.0, -15985.58765477987, -37221.26480594454, -40448.40967040177, -9971.381422445944, -18083.455334121627, -11285.552237695723, -25178.815445758755, -32729.637054161678, -6665.826638439494, -16040.505890906561, -13317.571677872143, -5602.844727378456, -24851.742369144245, -17780.76801070786, -187500.02235174447, -35860.289437805346, 0.03290562915802002, 0.9842209248542786, -0.03922092533111572, 192.0, 0.5, 8.0, 15.0, 96.0, 127.0, 96.0, 0.0, 0.0, 0.0, 1.742502846771453E9, 0.0, 2025-03-20 15:34:06.771
2.0, -16008.721710291115, -37232.48538166111, -40451.71772858116, -9974.30950096959, -18095.81584880541, -11280.768964382287, -25183.41990511655, -32731.313434995824, -6675.370833321909, -16042.383437440807, -13324.858346564573, -5606.488061724671, -24848.121386542487, -17777.951690906488, -187500.02235174447, -35854.72385343598, 0.03290562915802002, 0.9842209248542786, -0.03922092533111572, 192.0, 0.0, 0.0, 0.0, 0.0, 0.0, 0.0, 0.0, 0.0, 0.0, 1.742502846771631E9, 0.0, 2025-03-20 15:34:06.771
4.0, -16005.704224789648, -37250.009149314064, -40477.28812423803, -9996.773004147173, -18106.47763091059, -11312.441386275457, -25200.31782392476, -32752.592295717277, -6679.595313023962, -16058.23082425962, -13337.241212992814, -5619.787349675578, -24859.319610514594, -17795.743679492913, -187500.02235174447, -35877.969667669495, 0.03290562915802002, 0.9842209248542786, -0.03922092533111572, 192.0, 0.0, 0.0, 0.0, 0.0, 0.0, 0.0, 0.0, 0.0, 0.0, 1.742502846771744E9, 0.0, 2025-03-20 15:34:06.771
6.0, -16023.69737907617, -37247.8410301019, -40450.398975658296, -9981.663224895385, -18102.856648308833, -11298.538601224256, -25181.050620204285, -32737.14724029866, -6702.014112712635, -16069.876083120835, -13347.388904975523, -5631.566719003525, -24866.74038967376, -17814.60855181319, -187500.02235174447, -35884.9210601951, 0.03290562915802002, 0.9842209248542786, -0.03922092533111572, 192.0, 0.0, 0.0, 0.0, 0.0, 0.0, 0.0, 0.0, 0.0, 0.0, 1.742502846771853E9, 0.0, 2025-03-20 15:34:06.771
8.0, -15986.034689668977, -37238.56505615295, -40454.802269315995, -9980.903265583906, -18095.413517405213, -11295.275246533782, -25184.358678383673, -32740.634112433687, -6674.1191356324125, -16062.522359195038, -13326.713541354364, -5617.038085107575, -24860.30308727063, -17798.157667894087, -187500.02235174447, -35872.024103644384, 0.03290562915802002, 0.9842209248542786, -0.03922092533111572, 192.0, 0.0, 0.0, 0.0, 0.0, 0.0, 0.0, 0.0, 0.0, 0.0, 1.742502846771967E9, 0.0, 2025-03-20 15:34:06.771
10.0, -16016.74598655057, -37244.980006811624, -40454.24347570461, -9977.5058004267, -18098.453354651137, -11286.401603985025, -25183.106980694174, -32731.84987686275, -6677.293083345066, -16064.712830151659, -13334.089617024616, -5625.621154978413, -24861.130101815477, -17795.162534137075, -187500.02235174447, -35867.553754753324, 0.03145281457901001, 0.9851104624271393, -0.03861046266555786, 192.0, 0.0, 120.0, 15.0, 104.0, 127.0, 104.0, 0.0, 0.0, 0.0, 1.742502846772074E9, 0.0, 2025-03-20 15:34:06.772
12.0, -15977.026936653489, -37224.79638156848, -40452.0977082369, -9976.187047503836, -18084.14823819974, -11280.970130082385, -25187.30910865177, -32733.28038850789, -6671.615740253418, -16053.916937579745, -13324.008980275272, -5615.518166484615, -24844.67921789637, -17794.8496097147, -187500.02235174447, -35863.508089006915, 0.03145281457901001, 0.9851104624271393, -0.03861046266555786, 192.0, 0.0, 0.0, 0.0, 0.0, 0.0, 0.0, 0.0, 0.0, 0.0, 1.742502846772183E9, 0.0, 2025-03-20 15:34:06.772
14.0, -16028.212431456142, -37246.388166712306, -40458.04327226201, -9983.78664061864, -18112.02086353551, -11285.194609784437, -25190.527759853336, -32734.308568752836, -6682.1657636363225, -16060.51070219406, -13333.776692602241, -5621.575489232003, -24861.82300589359, -17796.369528337662, -187500.02235174447, -35856.46728950349, 0.03145281457901001, 0.9851104624271393, -0.03861046266555786, 192.0, 0.0, 0.0, 0.0, 0.0, 0.0, 0.0, 0.0, 0.0, 0.0, 1.742502846772294E9, 0.0, 2025-03-20 15:34:06.772
16.0, -15984.894750701756, -37228.70793684816, -40462.73713859763, -9991.341530244534, -18090.831409791877, -11294.649397689032, -25186.616204573656, -32738.19777228806, -6678.880057201392, -16059.862501604857, -13333.217898990859, -5623.9447741442655, -24855.072779068087, -17797.397708582605, -187500.02235174447, -35862.65872271761, 0.03145281457901001, 0.9851104624271393, -0.03861046266555786, 192.0, 0.0, 0.0, 0.0, 0.0, 0.0, 0.0, 0.0, 0.0, 0.0, 1.742502846831742E9, 0.0, 2025-03-20 15:34:06.831
18.0, -16022.289219175485, -37244.13064052232, -40455.8975047943, -9991.83326862255, -18100.33090118538, -11289.888476120053, -25187.622033074145, -32733.056871063338, -6679.058871157035, -16055.302745735973, -13333.150843757492, -5624.324753800006, -24864.147587316944, -17804.729080763947, -187500.02235174447, -35868.78310069837, 0.03145281457901001, 0.9851104624271393, -0.03861046266555786, 192.0, 0.0, 0.0, 0.0, 0.0, 0.0, 0.0, 0.0, 0.0, 0.0, 1.742502846831861E9, 0.0, 2025-03-20 15:34:06.831
20.0, -15982.547817533949, -37225.86926530233, -40453.52821988204, -9988.681672654351, -18087.948034757144, -11291.5648569542, -25186.817370273755, -32734.308568752836, -6681.472859558208, -16061.538882439005, -13335.207204247381, -5624.97295438921, -24860.30308727063, -17804.61732204167, -187500.02235174447, -35870.25831583242, 0.031726407289505, 0.9845552312135697, -0.03730523133277893, 192.0, 0.5, 0.0, 15.0, 96.0, 127.0, 112.0, 0.0, 0.0, 0.0, 1.742502846831961E9, 0.0, 2025-03-20 15:34:06.831
22.0, -16019.472899374117, -37238.31918696394, -40443.2464174326, -9976.611730648487, -18103.61660762031, -11282.132420794062, -25176.08853293521, -32725.14435352616, -6670.162876863823, -16050.072437533432, -13327.764073343764, -5617.127492085397, -24845.617991163494, -17794.626092270148, -187500.02235174447, -35858.546001737835, 0.031726407289505, 0.9845552312135697, -0.03730523133277893, 192.0, 0.0, 0.0, 0.0, 0.0, 0.0, 0.0, 0.0, 0.0, 0.0, 1.742502846832086E9, 0.0, 2025-03-20 15:34:06.832
24.0, -15987.264035614018, -37229.37848918182, -40452.0977082369, -9979.964492316782, -18090.96552025861, -11285.887513862554, -25180.201253914984, -32731.08991755127, -6677.762469978627, -16055.28039399152, -13332.189718745914, -5617.060436852031, -24855.16218604591, -17791.295682346306, -187500.02235174447, -35853.80743191331, 0.031726407289505, 0.9845552312135697, -0.03730523133277893, 192.0, 0.0, 0.0, 0.0, 0.0, 0.0, 0.0, 0.0, 0.0, 0.0, 1.742502846832205E9, 0.0, 2025-03-20 15:34:06.832
26.0, -16030.916992535234, -37250.9926260701, -40451.2483419476, -9978.444573693821, -18094.184171460172, -11284.009967328308, -25177.206120157975, -32724.496152936958, -6692.112289918935, -16061.51653069455, -13341.242175250314, -5620.122625842408, -24855.720979657293, -17799.074089416754, -187500.02235174447, -35860.75882443891, 0.031726407289505, 0.9845552312135697, -0.03730523133277893, 192.0, 0.0, 0.0, 0.0, 0.0, 0.0, 0.0, 0.0, 0.0, 0.0, 1.742502846832325E9, 0.0, 2025-03-20 15:34:06.832
28.0, -15983.73245999008, -37229.75846883756, -40440.02776623103, -9971.381422445944, -18075.364002628805, -11279.047880059228, -25173.071047433743, -32722.90917908063, -6679.528257790596, -16057.336754481406, -13331.697980367897, -5616.993381618665, -24856.77151164669, -17795.94484519301, -187500.02235174447, -35857.920152893086, 0.031726407289505, 0.9845552312135697, -0.03730523133277893, 192.0, 0.0, 0.0, 0.0, 0.0, 0.0, 0.0, 0.0, 0.0, 0.0, 1.742502846832446E9, 0.0, 2025-03-20 15:34:06.832
30.0, -16019.674065074214, -37242.70012887718, -40449.50490588009, -9981.193838261825, -18095.122944727296, -11290.313159264704, -25177.40728585807, -32731.67106290711, -6670.207580352733, -16057.13558878131, -13325.126567498037, -5612.210108305229, -24851.787072633157, -17786.33359507723, -187500.02235174447, -35859.97651338298, 0.028863203644752502, 0.9852776156067848, -0.037652615666389465, 192.0, 0.0, 104.0, 15.0, 104.0, 127.0, 104.0, 0.0, 0.0, 0.0, 1.742502846891959E9, 0.0, 2025-03-20 15:34:06.891
32.0, -15991.26499787152, -37237.06748927444, -40453.125888481845, -9995.208382035302, -18093.312453426417, -11295.387005256058, -25190.17013194205, -32739.404766488646, -6692.648731785862, -16072.51358896656, -13341.376285717046, -5630.762056203134, -24866.181596062375, -17809.95938896649, -187500.02235174447, -35875.0192374014, 0.028863203644752502, 0.9852776156067848, -0.037652615666389465, 192.0, 0.0, 0.0, 0.0, 0.0, 0.0, 0.0, 0.0, 0.0, 0.0, 1.742502846892114E9, 0.0, 2025-03-20 15:34:06.892
34.0, -16019.003512740555, -37254.479498205124, -40472.281333480045, -10001.377463504967, -18109.673930367702, -11308.015740873307, -25200.27312043585, -32756.548554485867, -6676.622531011407, -16073.809990144968, -13333.910803068973, -5628.1692538463185, -24865.24282279525, -17811.367548867172, -187500.02235174447, -35883.80347297233, 0.028863203644752502, 0.9852776156067848, -0.037652615666389465, 192.0, 0.0, 0.0, 0.0, 0.0, 0.0, 0.0, 0.0, 0.0, 0.0, 1.742502846892218E9, 0.0, 2025-03-20 15:34:06.892
36.0, -16000.8762479873, -37241.44843118768, -40462.692435108715, -9997.622370436475, -18108.936322800677, -11305.33353153867, -25196.920358767555, -32752.10055733926, -6695.84503124297, -16071.865388377357, -13342.78444561773, -5630.382076547394, -24871.34484903155, -17812.507487834395, -187500.02235174447, -35885.90453695113, 0.028863203644752502, 0.9852776156067848, -0.037652615666389465, 192.0, 0.0, 0.0, 0.0, 0.0, 0.0, 0.0, 0.0, 0.0, 0.0, 1.74250284689233E9, 0.0, 2025-03-20 15:34:06.892
38.0, -16025.97725701061, -37260.156841296775, -40472.66131313578, -10008.328856030566, -18119.709863628133, -11314.85537467663, -25207.000995516897, -32766.83035693531, -6689.139507906379, -16083.108315838375, -13346.78540787523, -5636.372344061416, -24867.142721073953, -17824.599781584715, -187500.02235174447, -35893.95116495504, 0.028863203644752502, 0.9852776156067848, -0.037652615666389465, 192.0, 0.0, 0.0, 0.0, 0.0, 0.0, 0.0, 0.0, 0.0, 0.0, 1.742502846892429E9, 0.0, 2025-03-20 15:34:06.892
40.0, -16015.740158050081, -37252.49019294861, -40463.34063569792, -10001.55627746061, -18112.177325746696, -11313.871897920597, -25199.28964367982, -32751.25119104996, -6699.957752222747, -16081.543693726504, -13352.328640500145, -5639.300422585061, -24877.268061312207, -17818.94479023752, -187500.02235174447, -35890.24077537546, 0.030431601822376253, 0.9866388078033924, -0.03882630783319473, 192.0, 0.5, 0.0, 15.0, 112.0, 127.0, 96.0, 0.0, 0.0, 0.0, 1.742502846892528E9, 0.0, 2025-03-20 15:34:06.892
42.0, -16021.752777308559, -37255.060643560966, -40468.03450203354, -10003.009140850203, -18107.371700688804, -11313.067235120207, -25197.881483779132, -32755.00628411845, -6684.199772381756, -16082.415411760261, -13347.411256719979, -5635.791198705578, -24869.087322841566, -17820.174136182563, -187500.02235174447, -35886.373923584695, 0.030431601822376253, 0.9866388078033924, -0.03882630783319473, 192.0, 0.0, 0.0, 0.0, 0.0, 0.0, 0.0, 0.0, 0.0, 0.0, 1.742502846892629E9, 0.0, 2025-03-20 15:34:06.892
44.0, -16018.802347040457, -37246.63403590131, -40460.5019641521, -9995.320140757578, -18086.38341264527, -11306.09349085015, -25187.018535973853, -32745.5291444694, -6695.219182398222, -16078.436801247217, -13350.004059076795, -5638.920442929321, -24863.432331494372, -17817.000188469912, -187500.02235174447, -35884.78694972837, 0.030431601822376253, 0.9866388078033924, -0.03882630783319473, 192.0, 0.0, 0.0, 0.0, 0.0, 0.0, 0.0, 0.0, 0.0, 0.0, 1.742502846892746E9, 0.0, 2025-03-20 15:34:06.892
46.0, -16009.705187047148, -37244.622378900334, -40453.394109415305, -9984.121916785469, -18089.82558129139, -11289.732013908866, -25181.02826845983, -32739.941208355573, -6685.898504960359, -16066.009231330067, -13338.40350370449, -5622.558965988036, -24873.155340332432, -17805.8019644978, -187500.02235174447, -35876.04741764634, 0.030431601822376253, 0.9866388078033924, -0.03882630783319473, 192.0, 0.0, 0.0, 0.0, 0.0, 0.0, 0.0, 0.0, 0.0, 0.0, 1.742502846951433E9, 0.0, 2025-03-20 15:34:06.951
48.0, -16030.60406811286, -37251.618474914845, -40457.81975481746, -9982.266721995678, -18106.54468614396, -11292.883609877064, -25185.386858628615, -32743.696301424065, -6689.251266628656, -16075.575777956938, -13345.64546890801, -5630.2256143362065, -24855.184537790363, -17799.074089416754, -187500.02235174447, -35869.61011524321, 0.030431601822376253, 0.9866388078033924, -0.03882630783319473, 192.0, 0.0, 0.0, 0.0, 0.0, 0.0, 0.0, 0.0, 0.0, 0.0, 1.742502846951574E9, 0.0, 2025-03-20 15:34:06.951
50.0, -16000.809192753935, -37238.45329743067, -40447.33678666792, -9973.370727702466, -18085.422287633693, -11283.920560350485, -25176.44616084649, -32731.514600695922, -6677.985987423181, -16067.104466808376, -13334.313134469168, -5618.200375819251, -24854.424578478884, -17799.47642081695, -187500.02235174447, -35864.80449018532, 0.03221580091118813, 0.9843194039016963, -0.04141315391659736, 192.0, 0.5, 8.0, 15.0, 88.0, 127.0, 80.0, 0.0, 0.0, 0.0, 1.742502846951699E9, 0.0, 2025-03-20 15:34:06.951
52.0, -16025.26200118804, -37248.08689929091, -40459.00439727359, -9985.798297619618, -18099.883866296277, -11291.989540098852, -25194.662832577567, -32749.306589282347, -6680.511734546631, -16064.064629562454, -13337.285916481724, -5620.413198520327, -24858.157319802922, -17801.868057473668, -187500.02235174447, -35866.4138157861, 0.03221580091118813, 0.9843194039016963, -0.04141315391659736, 192.0, 0.0, 0.0, 0.0, 0.0, 0.0, 0.0, 0.0, 0.0, 0.0, 1.742502846951803E9, 0.0, 2025-03-20 15:34:06.951
54.0, -15989.968596693112, -37227.1880182252, -40448.990815757614, -9983.138440029436, -18089.602063846836, -11292.615388943601, -25185.90094875109, -32742.489307223477, -6679.394147323865, -16069.898434865288, -13332.010904790272, -5621.620192720913, -24858.53729945866, -17810.182906411042, -187500.02235174447, -35878.819033958796, 0.03221580091118813, 0.9843194039016963, -0.04141315391659736, 192.0, 0.0, 0.0, 0.0, 0.0, 0.0, 0.0, 0.0, 0.0, 0.0, 1.742502846951912E9, 0.0, 2025-03-20 15:34:06.951
56.0, -16017.036559228489, -37239.77205035354, -40447.26973143456, -9983.987806318737, -18096.553456372436, -11293.487106977356, -25177.675506791533, -32734.509734452935, -6678.857705456938, -16062.924690595233, -13323.919573297451, -5614.221765306207, -24852.47997671127, -17803.924417963557, -187500.02235174447, -35866.57027799729, 0.03221580091118813, 0.9843194039016963, -0.04141315391659736, 192.0, 0.0, 0.0, 0.0, 0.0, 0.0, 0.0, 0.0, 0.0, 0.0, 1.742502846952017E9, 0.0, 2025-03-20 15:34:06.952
58.0, -16002.373814865807, -37239.97321605364, -40461.75366184159, -10000.237524537746, -18095.949959272144, -11310.317970552203, -25192.09238196521, -32755.14039458518, -6688.468955572719, -16075.396964001295, -13329.105178011081, -5622.603669476947, -24863.40997974992, -17810.42877560005, -187500.02235174447, -35881.32242933779, 0.03221580091118813, 0.9843194039016963, -0.04141315391659736, 192.0, 0.0, 0.0, 0.0, 0.0, 0.0, 0.0, 0.0, 0.0, 0.0, 1.74250284695212E9, 0.0, 2025-03-20 15:34:06.952
60.0, -16039.74593159508, -37253.89835284929, -40464.12294675386, -10001.3104082716, -18104.890657054264, -11308.730996695876, -25193.03115523233, -32753.62047596222, -6693.051063186057, -16081.633100704326, -13348.037105564727, -5635.724143472212, -24860.10192157053, -17818.788328026334, -187500.02235174447, -35889.99490618645, 0.031107900455594063, 0.9821597019508481, -0.04270657695829868, 192.0, 0.0, 120.0, 15.0, 80.0, 127.0, 80.0, 0.0, 0.0, 0.0, 1.74250284701121E9, 0.0, 2025-03-20 15:34:07.011
62.0, -15995.891808973767, -37239.03444278651, -40463.050063020004, -9997.376501247467, -18098.34159592886, -11301.757252425821, -25191.04184997581, -32753.598124217766, -6668.933530918781, -16072.312423266463, -13333.419064690956, -5622.715428199223, -24849.14956678743, -17810.317016877772, -187500.02235174447, -35883.33408633877, 0.031107900455594063, 0.9821597019508481, -0.04270657695829868, 192.0, 0.0, 0.0, 0.0, 0.0, 0.0, 0.0, 0.0, 0.0, 0.0, 1.742502847011353E9, 0.0, 2025-03-20 15:34:07.011
64.0, -16047.233765987608, -37266.862364633365, -40465.57581014345, -9999.969303604283, -18113.138450758273, -11300.19263031395, -25195.489847122415, -32752.525240483912, -6695.3085893760435, -16094.060670621477, -13354.228538778847, -5640.64152725238, -24868.72969493028, -17826.94671475252, -187500.02235174447, -35886.26216486242, 0.031107900455594063, 0.9821597019508481, -0.04270657695829868, 192.0, 0.0, 0.0, 0.0, 0.0, 0.0, 0.0, 0.0, 0.0, 0.0, 1.742502847011449E9, 0.0, 2025-03-20 15:34:07.011
66.0, -16000.295102631462, -37245.047062044985, -40456.9480367837, -9987.966416831781, -18090.33967141386, -11297.532772723767, -25186.213873173463, -32749.75362417145, -6686.122022404912, -16080.671975692747, -13338.470558937855, -5626.828149179, -24859.67723842588, -17813.20039191251, -187500.02235174447, -35880.38365607067, 0.031107900455594063, 0.9821597019508481, -0.04270657695829868, 192.0, 0.0, 0.0, 0.0, 0.0, 0.0, 0.0, 0.0, 0.0, 0.0, 1.742502847011588E9, 0.0, 2025-03-20 15:34:07.011
68.0, -16039.298896705974, -37264.068396576455, -40455.092841993915, -9986.290035997634, -18101.850819808344, -11293.80003139973, -25182.16820742705, -32745.126813069204, -6686.278484616099, -16081.543693726504, -13338.112931026571, -5627.878681168399, -24856.97267734679, -17808.28300813234, -187500.02235174447, -35875.62273450169, 0.031107900455594063, 0.9821597019508481, -0.04270657695829868, 192.0, 0.0, 0.0, 0.0, 0.0, 0.0, 0.0, 0.0, 0.0, 0.0, 1.742502847011693E9, 0.0, 2025-03-20 15:34:07.011
70.0, -16011.158050436743, -37254.32303599394, -40468.41448168927, -9994.359015746, -18087.14337195675, -11300.214982058404, -25190.751277297888, -32758.62726672021, -6689.743005006672, -16087.958644385177, -13343.745570629308, -5634.383038804894, -24853.128177300478, -17813.781537268347, -187500.02235174447, -35878.19318511405, 0.03155395022779703, 0.981079850975424, -0.044353288479149336, 192.0, 0.5, 0.0, 15.0, 80.0, 127.0, 72.0, 0.0, 0.0, 0.0, 1.742502847011798E9, 0.0, 2025-03-20 15:34:07.011
72.0, -16040.394132184283, -37264.046044832, -40459.47378390715, -9988.055823809604, -18097.402822661737, -11305.646455961045, -25189.03019297483, -32750.15595557165, -6689.519487562119, -16086.774001929047, -13350.048762565704, -5639.859216196444, -24861.375971004483, -17810.205258155496, -187500.02235174447, -35882.52942353838, 0.03155395022779703, 0.981079850975424, -0.044353288479149336, 192.0, 0.0, 0.0, 0.0, 0.0, 0.0, 0.0, 0.0, 0.0, 0.0, 1.742502847011927E9, 0.0, 2025-03-20 15:34:07.011
74.0, -16003.513753833027, -37249.22683825813, -40456.36689142787, -9988.212286020791, -18101.515543641515, -11299.298560535737, -25198.373222157148, -32763.879926667207, -6679.2823886015885, -16077.118048324353, -13338.35880021558, -5629.443303280271, -24850.513023199204, -17802.248037129408, -187500.02235174447, -35882.37296132719, 0.03155395022779703, 0.981079850975424, -0.044353288479149336, 192.0, 0.0, 0.0, 0.0, 0.0, 0.0, 0.0, 0.0, 0.0, 0.0, 1.742502847012032E9, 0.0, 2025-03-20 15:34:07.012
76.0, -16053.492254435094, -37274.32784728144, -40470.22497299015, -9994.202553534813, -18113.49607866956, -11295.252894789326, -25194.908701766577, -32756.43679576359, -6693.1404701638785, -16079.308519280974, -13344.036143307227, -5632.617250992925, -24859.453720981328, -17808.05949068779, -187500.02235174447, -35881.45653980452, 0.03155395022779703, 0.981079850975424, -0.044353288479149336, 192.0, 0.0, 0.0, 0.0, 0.0, 0.0, 0.0, 0.0, 0.0, 0.0, 1.742502847071432E9, 0.0, 2025-03-20 15:34:07.071
78.0, -16014.086128960387, -37254.05481506047, -40466.15695549929, -9994.716643657284, -18104.600084376347, -11313.6707322205, -25193.634652332625, -32757.174403330613, -6700.740063278683, -16094.597112488404, -13357.581300447144, -5645.290690099084, -24875.25640431123, -17821.04585421632, -187500.02235174447, -35890.03960967536, 0.03155395022779703, 0.981079850975424, -0.044353288479149336, 192.0, 0.0, 0.0, 0.0, 0.0, 0.0, 0.0, 0.0, 0.0, 0.0, 1.742502847071573E9, 0.0, 2025-03-20 15:34:07.071
80.0, -16034.582678625904, -37256.40174822829, -40452.45533614819, -9987.765251131685, -18096.352290672337, -11297.443365745947, -25181.587062071212, -32749.351292771258, -6680.89171420237, -16082.683632693725, -13339.07405603815, -5628.124550357407, -24854.670447667893, -17805.265522630874, -187500.02235174447, -35881.81416771581, 0.032776975113898515, 0.9805399254877121, -0.04517664423957467, 192.0, 0.5, 8.0, 15.0, 80.0, 127.0, 72.0, 0.0, 0.0, 0.0, 1.742502847071677E9, 0.0, 2025-03-20 15:34:07.071
82.0, -16006.598294567859, -37246.43287020122, -40463.49709790911, -9999.298751270622, -18103.61660762031, -11314.85537467663, -25191.622995331647, -32758.739025442486, -6690.190039895778, -16078.36974601385, -13341.488044439322, -5629.01862013562, -24850.15539528792, -17809.937037222033, -187500.02235174447, -35881.970629927, 0.032776975113898515, 0.9805399254877121, -0.04517664423957467, 192.0, 0.0, 0.0, 0.0, 0.0, 0.0, 0.0, 0.0, 0.0, 0.0, 1.742502847071785E9, 0.0, 2025-03-20 15:34:07.071
84.0, -16031.006399513055, -37257.496983706595, -40466.62634213285, -10003.255010039213, -18103.326034942394, -11311.14498509705, -25192.51706510986, -32759.87896440971, -6684.51269680413, -16089.65737696378, -13348.797064876208, -5634.204224849252, -24859.319610514594, -17827.39374964163, -187500.02235174447, -35897.79566500136, 0.032776975113898515, 0.9805399254877121, -0.04517664423957467, 192.0, 0.0, 0.0, 0.0, 0.0, 0.0, 0.0, 0.0, 0.0, 0.0, 1.742502847071881E9, 0.0, 2025-03-20 15:34:07.071
86.0, -16003.558457321938, -37241.761355610055, -40455.29400769401, -9989.911018599394, -18104.130697742785, -11296.459888989913, -25191.980623242933, -32755.38626377419, -6686.010263682636, -16080.94019662621, -13348.484140453833, -5631.745532959168, -24871.21073856482, -17820.844688516223, -187500.02235174447, -35884.697542750546, 0.032776975113898515, 0.9805399254877121, -0.04517664423957467, 192.0, 0.0, 0.0, 0.0, 0.0, 0.0, 0.0, 0.0, 0.0, 0.0, 1.742502847071985E9, 0.0, 2025-03-20 15:34:07.071
88.0, -16023.473861631617, -37248.64569290229, -40454.89167629382, -9984.948931330317, -18101.314377941417, -11290.357862753614, -25186.571501084745, -32751.653522450153, -6674.722632732705, -16069.741972654103, -13331.474462923345, -5613.886489139377, -24856.905622113423, -17797.66592951607, -187500.02235174447, -35867.352589053226, 0.032776975113898515, 0.9805399254877121, -0.04517664423957467, 192.0, 0.0, 0.0, 0.0, 0.0, 0.0, 0.0, 0.0, 0.0, 0.0, 1.742502847072103E9, 0.0, 2025-03-20 15:34:07.072
90.0, -16021.17163195272, -37246.67873939023, -40449.281388435535, -9980.59034116153, -18103.61660762031, -11290.42491798698, -25181.430599860025, -32749.284237537893, -6694.615685297929, -16079.688498936714, -13345.421951463457, -5626.247003823162, -24863.141758816455, -17809.646464544116, -187500.02235174447, -35866.99496114194, 0.03338848755694926, 0.981269962743856, -0.04258832211978733, 192.0, 0.5, 8.0, 15.0, 88.0, 127.0, 96.0, 0.0, 0.0, 0.0, 1.742502847131736E9, 0.0, 2025-03-20 15:34:07.131
92.0, -16015.270771416519, -37246.879905090325, -40442.32999590993, -9975.136515514436, -18091.47961038108, -11287.608598185612, -25175.283870134816, -32745.707958425042, -6674.32030133251, -16077.766248913558, -13331.54151815671, -5615.4287595067935, -24850.647133665938, -17806.24899938691, -187500.02235174447, -35867.79962394233, 0.03338848755694926, 0.981269962743856, -0.04258832211978733, 192.0, 0.0, 0.0, 0.0, 0.0, 0.0, 0.0, 0.0, 0.0, 0.0, 1.742502847131898E9, 0.0, 2025-03-20 15:34:07.131
94.0, -16025.373759910317, -37249.807983613966, -40449.43785064672, -9983.384309218443, -18087.34453765685, -11304.506516993824, -25182.36937312715, -32746.87024913672, -6681.9869496806805, -16075.41931574575, -13335.743646114308, -5620.1896810757735, -24845.886212096957, -17808.260656387887, -187500.02235174447, -35867.486699519955, 0.03338848755694926, 0.981269962743856, -0.04258832211978733, 192.0, 0.0, 0.0, 0.0, 0.0, 0.0, 0.0, 0.0, 0.0, 0.0, 1.742502847132015E9, 0.0, 2025-03-20 15:34:07.132
96.0, -16032.012228013544, -37264.13545180982, -40472.415443946775, -10006.875992640971, -18111.931456557686, -11316.442348532957, -25205.41402166057, -32771.568926759835, -6695.733272520694, -16096.340548555918, -13349.489968954322, -5636.864082439432, -24853.239936022754, -17820.39765362712, -187500.02235174447, -35894.28644112187, 0.03338848755694926, 0.981269962743856, -0.04258832211978733, 192.0, 0.0, 0.0, 0.0, 0.0, 0.0, 0.0, 0.0, 0.0, 0.0, 1.742502847132126E9, 0.0, 2025-03-20 15:34:07.132
98.0, -16014.935495249689, -37240.442602687195, -40437.68083306323, -9983.74193712973, -18095.949959272144, -11291.676615676477, -25185.07393420624, -32755.67683645211, -6689.117156161923, -16085.924635639745, -13341.622154906054, -5632.125512614908, -24843.87455509598, -17819.10125244871, -187500.02235174447, -35891.71599050951, 0.03338848755694926, 0.981269962743856, -0.04258832211978733, 192.0, 0.0, 0.0, 0.0, 0.0, 0.0, 0.0, 0.0, 0.0, 0.0, 1.74250284713223E9, 0.0, 2025-03-20 15:34:07.132
100.0, -16010.867477758824, -37240.442602687195, -40452.52239138155, -9992.794393634129, -18100.129735485287, -11299.969112869396, -25188.024364474342, -32756.056816107848, -6670.386394308376, -16075.553426212482, -13326.333561698624, -5618.848576408455, -24853.10582555602, -17803.879714474646, -187500.02235174447, -35880.562470026314, 0.03169424377847463, 0.986634981371928, -0.04129416105989367, 192.0, 0.0, 120.0, 15.5, 0.0, 127.0, 96.0, 0.0, 0.0, 0.0, 1.742502847132342E9, 0.0, 2025-03-20 15:34:07.132
102.0, -16036.54963213797, -37247.46105044616, -40444.185190699725, -9988.279341254156, -18104.957712287633, -11297.912752379509, -25187.711440051968, -32750.223010805013, -6691.844068985471, -16080.113182081364, -13344.527881685244, -5630.0468003805645, -24861.465377982306, -17810.272313388865, -187500.02235174447, -35878.90844093662, 0.03169424377847463, 0.986634981371928, -0.04129416105989367, 192.0, 0.0, 0.0, 0.0, 0.0, 0.0, 0.0, 0.0, 0.0, 0.0, 1.742502847132443E9, 0.0, 2025-03-20 15:34:07.132
104.0, -16014.846088271868, -37245.292931234, -40448.74494656861, -9994.046091323626, -18094.854723793833, -11305.489993749858, -25183.55401558328, -32756.459147508045, -6681.472859558208, -16082.750687927091, -13338.35880021558, -5625.308230556039, -24854.9163168569, -17813.781537268347, -187500.02235174447, -35878.28259209187, 0.03169424377847463, 0.986634981371928, -0.04129416105989367, 192.0, 0.0, 0.0, 0.0, 0.0, 0.0, 0.0, 0.0, 0.0, 0.0, 1.742502847132545E9, 0.0, 2025-03-20 15:34:07.132
106.0, -16041.288201962496, -37257.340521495404, -40452.76826057056, -9995.744823902229, -18112.043215279962, -11304.439461760458, -25190.5948150867, -32752.05585385035, -6697.901391732859, -16090.394984530805, -13352.01571607777, -5636.618213250425, -24861.688895426858, -17821.33642689424, -187500.02235174447, -35877.969667669495, 0.03169424377847463, 0.986634981371928, -0.04129416105989367, 192.0, 0.0, 0.0, 0.0, 0.0, 0.0, 0.0, 0.0, 0.0, 0.0, 1.742502847192004E9, 0.0, 2025-03-20 15:34:07.192
108.0, -16003.200829410653, -37239.99556779809, -40447.806173301484, -9992.369710489478, -18106.701148355147, -11301.243162303348, -25205.302262938294, -32757.174403330613, -6684.646807270862, -16084.114144338864, -13342.337410728624, -5627.386942790383, -24850.043636565642, -17804.639673786125, -187500.02235174447, -35881.85887120472, 0.03169424377847463, 0.986634981371928, -0.04129416105989367, 192.0, 0.0, 0.0, 0.0, 0.0, 0.0, 0.0, 0.0, 0.0, 0.0, 1.742502847192136E9, 0.0, 2025-03-20 15:34:07.192
110.0, -16024.50204187656, -37237.581579396916, -40439.17839994173, -9976.008233548193, -18109.226895478594, -11291.609560443112, -25198.28381517933, -32745.99853110296, -6692.916952719325, -16080.917844881755, -13342.583279917631, -5626.358762545438, -24860.504252970728, -17806.47251683146, -187500.02235174447, -35876.89678393564, 0.029847121889237313, 0.987317490685964, -0.04064708052994684, 192.0, 0.0, 112.0, 15.0, 112.0, 127.0, 96.0, 0.0, 0.0, 0.0, 1.742502847192256E9, 0.0, 2025-03-20 15:34:07.192
112.0, -15990.683852515682, -37230.00433802656, -40436.45148711819, -9976.634082392942, -18084.86349402231, -11286.982749340863, -25191.22066393145, -32751.362949772236, -6672.219237353711, -16063.639946417803, -13324.992457031305, -5610.131396070886, -24847.495537697738, -17796.99537718241, -187500.02235174447, -35869.7665774544, 0.029847121889237313, 0.987317490685964, -0.04064708052994684, 192.0, 0.0, 0.0, 0.0, 0.0, 0.0, 0.0, 0.0, 0.0, 0.0, 1.74250284719238E9, 0.0, 2025-03-20 15:34:07.192
114.0, -16036.169652482231, -37246.7904981125, -40428.583673069916, -9973.862466080484, -18104.6224361208, -11296.437537245458, -25182.65994580507, -32748.97131311552, -6689.765356751127, -16076.671013435247, -13339.543442671711, -5620.927288642799, -24862.225337293785, -17806.651330787103, -187500.02235174447, -35868.738397209454, 0.029847121889237313, 0.987317490685964, -0.04064708052994684, 192.0, 0.0, 0.0, 0.0, 0.0, 0.0, 0.0, 0.0, 0.0, 0.0, 1.742502847192496E9, 0.0, 2025-03-20 15:34:07.192
116.0, -15993.567227550415, -37231.45720141616, -40434.05985046147, -9976.388213203933, -18093.53597087097, -11283.831153372665, -25181.296489393295, -32750.915914883128, -6680.13175489089, -16075.642833190303, -13330.803910589686, -5615.741683929167, -24849.842470865548, -17800.772821995357, -187500.02235174447, -35865.72091170799, 0.029847121889237313, 0.987317490685964, -0.04064708052994684, 192.0, 0.0, 0.0, 0.0, 0.0, 0.0, 0.0, 0.0, 0.0, 0.0, 1.742502847192609E9, 0.0, 2025-03-20 15:34:07.192
118.0, -16035.02971351501, -37241.493134676595, -40433.791629528, -9975.896474825917, -18093.35715691533, -11287.94387435244, -25182.056448704774, -32744.76918515792, -6689.452432328753, -16078.816780902956, -13336.101274025594, -5619.3626665309275, -24859.47607272578, -17811.34519712272, -187500.02235174447, -35864.73743495195, 0.029847121889237313, 0.987317490685964, -0.04064708052994684, 192.0, 0.0, 0.0, 0.0, 0.0, 0.0, 0.0, 0.0, 0.0, 0.0, 1.742502847192714E9, 0.0, 2025-03-20 15:34:07.192
120.0, -15995.087146173377, -37230.27255896003, -40441.793554043004, -9985.284207497145, -18094.698261582646, -11301.421976258991, -25193.478190121437, -32762.47176676652, -6677.896580445359, -16071.351298254884, -13329.194584988903, -5613.774730417101, -24850.44596796584, -17809.04296744382, -187500.02235174447, -35867.95608615352, 0.029923560944618656, 0.9856587453429819, -0.03932354026497342, 192.0, 0.0, 120.0, 15.0, 96.0, 127.0, 104.0, 0.0, 0.0, 0.0, 1.742502847252559E9, 0.0, 2025-03-20 15:34:07.252
122.0, -16043.232803730109, -37257.0946523064, -40448.32026342396, -9995.990693091237, -18112.400843191248, -11307.300485050737, -25189.343117397206, -32753.68753119559, -6694.593333553474, -16088.13745834082, -13346.87481485305, -5628.236309079684, -24857.956154102823, -17815.61438031368, -187500.02235174447, -35876.941487424556, 0.029923560944618656, 0.9856587453429819, -0.03932354026497342, 192.0, 0.0, 0.0, 0.0, 0.0, 0.0, 0.0, 0.0, 0.0, 0.0, 1.742502847252715E9, 0.0, 2025-03-20 15:34:07.252
124.0, -16010.398091125262, -37243.437736444204, -40446.01803374506, -9997.085928569548, -18087.299834167938, -11309.245086818348, -25194.573425599745, -32766.740949957486, -6689.877115473404, -16083.600054216393, -13340.839843850119, -5624.727085200201, -24855.16218604591, -17814.921476235566, -187500.02235174447, -35875.309810079314, 0.029923560944618656, 0.9856587453429819, -0.03932354026497342, 192.0, 0.0, 0.0, 0.0, 0.0, 0.0, 0.0, 0.0, 0.0, 0.0, 1.742502847252813E9, 0.0, 2025-03-20 15:34:07.252
126.0, -16051.480597434116, -37261.207373286175, -40445.59335060041, -9993.666111667886, -18100.934398285677, -11301.220810558892, -25189.65604181958, -32759.655446965153, -6703.265810402133, -16093.390118287816, -13350.78637013273, -5634.785370205089, -24872.998878121245, -17821.984627483445, -187500.02235174447, -35882.4176648161, 0.029923560944618656, 0.9856587453429819, -0.03932354026497342, 192.0, 0.0, 0.0, 0.0, 0.0, 0.0, 0.0, 0.0, 0.0, 0.0, 1.742502847252915E9, 0.0, 2025-03-20 15:34:07.252
128.0, -15997.612893296826, -37231.1889804827, -40432.47287660514, -9978.69044288283, -18092.641901092757, -11290.335511009158, -25176.535567824314, -32756.637961463686, -6685.60793228244, -16079.196760558698, -13336.347143214602, -5618.4238932638045, -24860.72777041528, -17808.126545921154, -187500.02235174447, -35868.403121042626, 0.029923560944618656, 0.9856587453429819, -0.03932354026497342, 192.0, 0.0, 0.0, 0.0, 0.0, 0.0, 0.0, 0.0, 0.0, 0.0, 1.742502847253012E9, 0.0, 2025-03-20 15:34:07.253
130.0, -16041.377608940318, -37256.155879039274, -40444.69928082219, -9985.865352852983, -18107.170534988705, -11291.967188354396, -25184.202216172485, -32756.213278319035, -6679.41649906832, -16077.430972746728, -13329.954544300384, -5613.595916461458, -24849.037808065154, -17804.416156341573, -187500.02235174447, -35868.69369372055, 0.03096178047230933, 0.984829372671491, -0.03766177013248671, 192.0, 0.5, 0.0, 15.0, 96.0, 127.0, 112.0, 0.0, 0.0, 0.0, 1.742502847253125E9, 0.0, 2025-03-20 15:34:07.253
132.0, -16030.626419857315, -37264.26956227655, -40457.462126906175, -10000.103414071014, -18112.758471102534, -11306.33936003916, -25202.597701859202, -32765.77982494591, -6699.220144655722, -16094.015967132565, -13348.193567775914, -5630.605593991947, -24863.25351753873, -17828.220764186473, -187500.02235174447, -35880.13778688166, 0.03096178047230933, 0.984829372671491, -0.03766177013248671, 192.0, 0.0, 0.0, 0.0, 0.0, 0.0, 0.0, 0.0, 0.0, 0.0, 1.742502847253242E9, 0.0, 2025-03-20 15:34:07.253
134.0, -16043.702190363669, -37266.97412335564, -40446.21919944516, -9987.251161009212, -18103.21427622012, -11302.606618715123, -25190.952442997987, -32760.035426620892, -6701.477670845708, -16096.318196811462, -13351.747495144307, -5632.706657970746, -24868.640287952458, -17824.823299029267, -187500.02235174447, -35885.70337125103, 0.03096178047230933, 0.984829372671491, -0.03766177013248671, 192.0, 0.0, 0.0, 0.0, 0.0, 0.0, 0.0, 0.0, 0.0, 0.0, 1.742502847253353E9, 0.0, 2025-03-20 15:34:07.253
136.0, -16020.143451707776, -37249.673873147236, -40436.00445222908, -9980.59034116153, -18089.8702847803, -11300.729072180877, -25181.095323693196, -32756.14622308567, -6707.691455804284, -16093.367766543362, -13352.239233522325, -5632.483140526193, -24854.290468012154, -17812.77570876786, -187500.02235174447, -35874.50514727893, 0.03096178047230933, 0.984829372671491, -0.03766177013248671, 192.0, 0.0, 0.0, 0.0, 0.0, 0.0, 0.0, 0.0, 0.0, 0.0, 1.742502847312463E9, 0.0, 2025-03-20 15:34:07.312
138.0, -16028.972390767622, -37258.27929476253, -40441.52533310954, -9985.753594130707, -18106.54468614396, -11299.499726235834, -25190.773629042345, -32762.203545833057, -6683.953903192748, -16082.862446649367, -13334.156672257981, -5619.586183975481, -24857.799691891636, -17803.253865629897, -187500.02235174447, -35873.61107750071, 0.03096178047230933, 0.984829372671491, -0.03766177013248671, 192.0, 0.0, 0.0, 0.0, 0.0, 0.0, 0.0, 0.0, 0.0, 0.0, 1.742502847312592E9, 0.0, 2025-03-20 15:34:07.312
140.0, -16022.065701730931, -37252.043158059496, -40436.987928985116, -9986.915884842383, -18106.701148355147, -11300.393796014047, -25192.293547665304, -32764.662237723143, -6694.503926575652, -16082.28130129353, -13343.320887484657, -5627.677515468302, -24866.181596062375, -17812.70865353449, -187500.02235174447, -35874.50514727893, 0.03148089023615466, 0.9844146863357455, -0.03783088506624335, 192.0, 0.5, 0.0, 15.0, 96.0, 127.0, 104.0, 0.0, 0.0, 0.0, 1.742502847312713E9, 0.0, 2025-03-20 15:34:07.312
142.0, -16027.161899466742, -37256.8934866063, -40436.36208014037, -9983.674881896362, -18107.192886733163, -11296.392833756547, -25192.45000987649, -32762.53882199989, -6685.026786926603, -16082.683632693725, -13334.246079235803, -5623.855367166444, -24854.938668601357, -17812.038101200833, -187500.02235174447, -35879.10960663672, 0.03148089023615466, 0.9844146863357455, -0.03783088506624335, 192.0, 0.0, 0.0, 0.0, 0.0, 0.0, 0.0, 0.0, 0.0, 0.0, 1.742502847312827E9, 0.0, 2025-03-20 15:34:07.312
144.0, -16029.46412914564, -37258.346349995896, -40436.9432254962, -9979.204533005302, -18103.34838668685, -11289.866124375598, -25185.69978305099, -32755.632132963197, -6688.580714294996, -16080.336699525918, -13337.911765326473, -5623.1848148327845, -24858.894927369944, -17813.82624075726, -187500.02235174447, -35873.27580133388, 0.03148089023615466, 0.9844146863357455, -0.03783088506624335, 192.0, 0.0, 0.0, 0.0, 0.0, 0.0, 0.0, 0.0, 0.0, 0.0, 1.74250284731293E9, 0.0, 2025-03-20 15:34:07.312
146.0, -16036.013190271044, -37264.783652399026, -40446.28625467852, -9990.849791866516, -18111.73029085759, -11306.227601316883, -25202.75416407039, -32764.684589467597, -6692.112289918935, -16089.255045563585, -13340.325753727646, -5624.63767822238, -24859.364314003506, -17822.655179817102, -187500.02235174447, -35880.495414792946, 0.03148089023615466, 0.9844146863357455, -0.03783088506624335, 192.0, 0.0, 0.0, 0.0, 0.0, 0.0, 0.0, 0.0, 0.0, 0.0, 1.742502847313026E9, 0.0, 2025-03-20 15:34:07.313
148.0, -16038.762454839047, -37260.80504188598, -40441.63709183181, -9989.955722088305, -18102.856648308833, -11304.260647804815, -25191.8465127762, -32755.453319007556, -6709.2784296606105, -16091.154943842286, -13350.652259665998, -5633.556024260048, -24859.409017492417, -17820.777633282858, -187500.02235174447, -35882.23885086046, 0.03148089023615466, 0.9844146863357455, -0.03783088506624335, 192.0, 0.0, 0.0, 0.0, 0.0, 0.0, 0.0, 0.0, 0.0, 0.0, 1.742502847313119E9, 0.0, 2025-03-20 15:34:07.313
150.0, -16014.846088271868, -37244.33180622242, -40439.558379597474, -9987.474678453766, -18089.8702847803, -11307.009912372818, -25186.75031504039, -32750.424176505112, -6675.482592044186, -16077.833304146923, -13328.188756488415, -5616.479291496193, -24854.134005800966, -17804.23734238593, -187500.02235174447, -35878.260240347416, 0.02774044511807733, 0.9862073431678727, -0.03991544253312168, 192.0, 0.0, 96.0, 15.0, 112.0, 127.0, 88.0, 0.0, 0.0, 0.0, 1.742502847371466E9, 0.0, 2025-03-20 15:34:07.371
152.0, -16031.676951846714, -37246.32111147894, -40441.3465191539, -9986.133573786447, -18096.754622072534, -11296.526944223278, -25185.766838284355, -32735.67202516461, -6686.144374149368, -16074.480542478626, -13336.704771125886, -5622.268393310117, -24846.9143923419, -17809.84763024421, -187500.02235174447, -35876.159176368616, 0.02774044511807733, 0.9862073431678727, -0.03991544253312168, 192.0, 0.0, 0.0, 0.0, 0.0, 0.0, 0.0, 0.0, 0.0, 0.0, 1.742502847371629E9, 0.0, 2025-03-20 15:34:07.371
154.0, -16008.967579480122, -37247.55045742398, -40454.377586171344, -9992.056786067104, -18089.736174313566, -11302.5172117373, -25193.299376165793, -32736.454336220544, -6682.903371203348, -16072.357126755373, -13335.095445525105, -5622.290745054573, -24857.084436069064, -17802.225685384954, -187500.02235174447, -35875.8686036907, 0.02774044511807733, 0.9862073431678727, -0.03991544253312168, 192.0, 0.0, 0.0, 0.0, 0.0, 0.0, 0.0, 0.0, 0.0, 0.0, 1.742502847371739E9, 0.0, 2025-03-20 15:34:07.371
156.0, -16037.488405405094, -37260.290951763505, -40448.47672563514, -9984.54659993012, -18101.180267474683, -11291.117822065095, -25187.666736563056, -32720.13756276817, -6704.5845633249955, -16082.974205371644, -13351.568681188666, -5637.892262684377, -24869.310840286118, -17812.798060512312, -187500.02235174447, -35877.67909499158, 0.02774044511807733, 0.9862073431678727, -0.03991544253312168, 192.0, 0.0, 0.0, 0.0, 0.0, 0.0, 0.0, 0.0, 0.0, 0.0, 1.742502847371847E9, 0.0, 2025-03-20 15:34:07.371
158.0, -15996.115326418321, -37241.984873054615, -40451.2483419476, -9988.07817555406, -18087.277482423484, -11300.371444269591, -25192.98645174342, -32725.501981437446, -6680.154106635346, -16064.17638828473, -13329.261640222268, -5619.20620431974, -24844.54510742964, -17793.732022491935, -187500.02235174447, -35869.520708265394, 0.02774044511807733, 0.9862073431678727, -0.03991544253312168, 192.0, 0.0, 0.0, 0.0, 0.0, 0.0, 0.0, 0.0, 0.0, 0.0, 1.742502847371972E9, 0.0, 2025-03-20 15:34:07.371
160.0, -16039.231841472609, -37264.85070763239, -40456.545705383505, -9998.44938498132, -18104.465973909613, -11314.162470598516, -25200.6978035805, -32730.262903006424, -6710.239554672188, -16086.774001929047, -13354.049724823204, -5648.64345176738, -24869.57906121958, -17816.508450091893, -187500.02235174447, -35881.81416771581, 0.02687022255903867, 0.9881036715839364, -0.03795772126656084, 192.0, 0.0, 104.0, 15.0, 120.0, 127.0, 112.0, 0.0, 0.0, 0.0, 1.742502847372077E9, 0.0, 2025-03-20 15:34:07.372
162.0, -15978.50215178754, -37231.23368397161, -40440.20658018668, -9983.585474918542, -18088.39506964625, -11298.628008202078, -25192.248844176396, -32728.497115194456, -6693.9004294753595, -16076.291033779507, -13336.347143214602, -5638.562815018036, -24869.802578664134, -17807.09836567621, -187500.02235174447, -35883.4681968055, 0.02687022255903867, 0.9881036715839364, -0.03795772126656084, 192.0, 0.0, 0.0, 0.0, 0.0, 0.0, 0.0, 0.0, 0.0, 0.0, 1.742502847372189E9, 0.0, 2025-03-20 15:34:07.372
164.0, -16007.894695746267, -37236.240474729595, -40420.22412064363, -9965.838189821028, -18082.67302306569, -11280.299577748727, -25173.205157900473, -32707.70999285102, -6674.610874010429, -16055.99564981409, -13321.974971529839, -5625.799968934056, -24850.647133665938, -17784.254882842884, -187500.02235174447, -35855.23794355845, 0.02687022255903867, 0.9881036715839364, -0.03795772126656084, 192.0, 0.0, 0.0, 0.0, 0.0, 0.0, 0.0, 0.0, 0.0, 0.0, 1.742502847372293E9, 0.0, 2025-03-20 15:34:07.372
166.0, -15971.550759261938, -37228.32795719242, -40428.941300981205, -9976.410564948388, -18073.91113923921, -11289.977883097874, -25188.024364474342, -32714.706088865532, -6666.65365298434, -16048.060780532454, -13308.049834734182, -5616.0769600959975, -24838.95717131581, -17779.695126974002, -187500.02235174447, -35844.15147830862, 0.02687022255903867, 0.9881036715839364, -0.03795772126656084, 192.0, 0.0, 0.0, 0.0, 0.0, 0.0, 0.0, 0.0, 0.0, 0.0, 1.742502847431777E9, 0.0, 2025-03-20 15:34:07.431
168.0, -16014.510812105038, -37244.93530332271, -40433.47870510563, -9978.377518460455, -18093.513619126516, -11291.43074648747, -25180.201253914984, -32713.43203943158, -6688.401900339353, -16069.697269165192, -13329.239288477815, -5638.428704551305, -24859.185500047864, -17802.493906318417, -187500.02235174447, -35866.68203671957, 0.02687022255903867, 0.9881036715839364, -0.03795772126656084, 192.0, 0.0, 0.0, 0.0, 0.0, 0.0, 0.0, 0.0, 0.0, 0.0, 1.742502847431887E9, 0.0, 2025-03-20 15:34:07.431
170.0, -15969.002660394033, -37218.31437567644, -40427.91312073626, -9972.16373350188, -18063.361115856304, -11292.503630221323, -25183.151684183085, -32714.504923165434, -6667.592426251463, -16049.26777473304, -13308.5415731122, -5618.44624500826, -24845.372121974484, -17785.640690999116, -187500.02235174447, -35852.57808596827, 0.028435111279519334, 0.9850518357919682, -0.03597886063328042, 192.0, 0.0, 120.0, 15.0, 88.0, 127.0, 120.0, 0.0, 0.0, 0.0, 1.742502847431987E9, 0.0, 2025-03-20 15:34:07.431
172.0, -16027.40776865575, -37255.21710577215, -40445.95097851169, -9991.45328896681, -18096.10642148333, -11304.797089671743, -25189.678393564034, -32723.91500758112, -6684.1774206373, -16069.60786218737, -13324.321904697646, -5635.321812072017, -24860.884232626468, -17802.76212725188, -187500.02235174447, -35870.19126059905, 0.028435111279519334, 0.9850518357919682, -0.03597886063328042, 192.0, 0.0, 0.0, 0.0, 0.0, 0.0, 0.0, 0.0, 0.0, 0.0, 1.742502847432109E9, 0.0, 2025-03-20 15:34:07.432
174.0, -15982.838390211868, -37245.203524256176, -40452.410632659274, -9994.962512846294, -18089.400898146738, -11311.703778708432, -25198.21675994596, -32738.801269388354, -6684.222124126211, -16075.553426212482, -13331.563869901165, -5643.301384842562, -24850.2671540102, -17800.48224931744, -187500.02235174447, -35874.88512693466, 0.028435111279519334, 0.9850518357919682, -0.03597886063328042, 192.0, 0.0, 0.0, 0.0, 0.0, 0.0, 0.0, 0.0, 0.0, 0.0, 1.742502847432227E9, 0.0, 2025-03-20 15:34:07.432
176.0, -16019.919934263222, -37258.122832551344, -40448.74494656861, -9991.922675600372, -18099.012148262518, -11299.209153557917, -25194.88635002212, -32725.14435352616, -6694.146298664367, -16084.024737361044, -13342.248003750803, -5653.1138006584415, -24872.73065718778, -17808.327711621252, -187500.02235174447, -35883.8705282057, 0.028435111279519334, 0.9850518357919682, -0.03597886063328042, 192.0, 0.0, 0.0, 0.0, 0.0, 0.0, 0.0, 0.0, 0.0, 0.0, 1.742502847432349E9, 0.0, 2025-03-20 15:34:07.432
178.0, -15980.983195422077, -37239.61558814235, -40438.70901330817, -9989.061652310093, -18079.94611024214, -11300.170278569494, -25190.348945897695, -32719.19878950105, -6687.105499160945, -16063.148208039787, -13328.166404743959, -5638.808684207044, -24861.465377982306, -17787.09355438871, -187500.02235174447, -35863.373978540185, 0.028435111279519334, 0.9850518357919682, -0.03597886063328042, 192.0, 0.0, 0.0, 0.0, 0.0, 0.0, 0.0, 0.0, 0.0, 0.0, 1.742502847432465E9, 0.0, 2025-03-20 15:34:07.432
180.0, -16023.429158142706, -37253.7418906381, -40451.225990203144, -9994.068443068081, -18089.736174313566, -11298.560952968712, -25185.140989439606, -32717.634167389177, -6689.631246284395, -16071.910091866266, -13333.843747835606, -5644.396620320871, -24855.676276168382, -17809.28883663283, -187500.02235174447, -35869.29719082084, 0.027217555639759666, 0.9855259178959841, -0.034989430316640216, 192.0, 0.0, 104.0, 15.0, 104.0, 127.0, 120.0, 0.0, 0.0, 0.0, 1.742502847491996E9, 0.0, 2025-03-20 15:34:07.491
182.0, -15974.098858129842, -37226.40570716926, -40432.56228358296, -9981.082079539548, -18075.140485184253, -11293.151830810528, -25178.167245169552, -32718.014147044916, -6689.899467217859, -16065.22692027413, -13332.703808868386, -5638.2051871067515, -24863.320572772096, -17806.0031301979, -187500.02235174447, -35870.571240254794, 0.027217555639759666, 0.9855259178959841, -0.034989430316640216, 192.0, 0.0, 0.0, 0.0, 0.0, 0.0, 0.0, 0.0, 0.0, 0.0, 1.742502847492138E9, 0.0, 2025-03-20 15:34:07.492
184.0, -16007.78293702399, -37240.733175365116, -40440.63126333133, -9988.458155209799, -18085.891674267255, -11295.297598278237, -25188.761972041368, -32719.109382523227, -6674.700280988251, -16057.962603326156, -13317.482270894323, -5625.129416600396, -24856.033904079664, -17790.51337129037, -187500.02235174447, -35857.89780114863, 0.027217555639759666, 0.9855259178959841, -0.034989430316640216, 192.0, 0.0, 0.0, 0.0, 0.0, 0.0, 0.0, 0.0, 0.0, 0.0, 1.742502847492243E9, 0.0, 2025-03-20 15:34:07.492
186.0, -15974.121209874298, -37223.81290481245, -40425.56618756845, -9981.372652217467, -18074.134656683764, -11287.51919120779, -25180.55888182627, -32714.080240020783, -6684.065661915024, -16059.661335904759, -13325.3947884315, -5632.639602737379, -24851.87647961098, -17791.116868390665, -187500.02235174447, -35863.10575760672, 0.027217555639759666, 0.9855259178959841, -0.034989430316640216, 192.0, 0.0, 0.0, 0.0, 0.0, 0.0, 0.0, 0.0, 0.0, 0.0, 1.742502847492361E9, 0.0, 2025-03-20 15:34:07.492
188.0, -15989.946244948656, -37235.10053576238, -40427.77901026953, -9984.725413885762, -18077.621528818792, -11302.226639059381, -25179.26248064786, -32716.203655744037, -6665.089030872468, -16054.162806768752, -13308.809794045663, -5620.748474687157, -24839.314799227097, -17792.61443526917, -187500.02235174447, -35857.85309765972, 0.027217555639759666, 0.9855259178959841, -0.034989430316640216, 192.0, 0.0, 0.0, 0.0, 0.0, 0.0, 0.0, 0.0, 0.0, 0.0, 1.742502847492461E9, 0.0, 2025-03-20 15:34:07.492
190.0, -15990.370928093307, -37241.31432072095, -40432.60698707187, -9993.800222134618, -18082.158932943217, -11310.876764163586, -25186.95148074049, -32724.563208170322, -6685.898504960359, -16064.109333051365, -13323.204317474881, -5636.707620228246, -24858.716113414303, -17792.882656202633, -187500.02235174447, -35865.78796694135, 0.02760877781987983, 0.982762958947992, -0.03349471515832011, 192.0, 0.0, 112.0, 15.0, 80.0, 127.5, 0.0, 0.0, 0.0, 0.0, 1.74250284749256E9, 0.0, 2025-03-20 15:34:07.492
192.0, -15997.88111423029, -37241.22491374313, -40434.171609183744, -9993.442594223332, -18079.901406753233, -11298.449194246436, -25178.994259714396, -32718.729402867488, -6683.46216481473, -16069.451399976184, -13325.372436687047, -5641.982631919698, -24854.33517150106, -17808.41711859907, -187500.02235174447, -35884.20580437253, 0.02760877781987983, 0.982762958947992, -0.03349471515832011, 192.0, 0.0, 0.0, 0.0, 0.0, 0.0, 0.0, 0.0, 0.0, 0.0, 1.742502847492663E9, 0.0, 2025-03-20 15:34:07.492
194.0, -15988.314567603418, -37229.289082204, -40429.88007424833, -9980.947969072815, -18084.014127733008, -11299.030339602274, -25176.580271313225, -32717.94709181155, -6682.121060147412, -16056.12976028082, -13319.337465684113, -5634.606556249447, -24847.54024118665, -17798.13531614963, -187500.02235174447, -35873.25344958943, 0.02760877781987983, 0.982762958947992, -0.03349471515832011, 192.0, 0.0, 0.0, 0.0, 0.0, 0.0, 0.0, 0.0, 0.0, 0.0, 1.74250284749277E9, 0.0, 2025-03-20 15:34:07.492
196.0, -15987.934587947679, -37235.25699797356, -40439.71484180866, -9990.492163955232, -18072.480627594072, -11309.915639152008, -25181.765876026857, -32719.95874881253, -6669.581731507985, -16056.12976028082, -13311.626113847033, -5629.599765491458, -24851.07181681059, -17787.607644511183, -187500.02235174447, -35876.29328683535, 0.02760877781987983, 0.982762958947992, -0.03349471515832011, 192.0, 0.0, 0.0, 0.0, 0.0, 0.0, 0.0, 0.0, 0.0, 0.0, 1.742502847552221E9, 0.0, 2025-03-20 15:34:07.552
198.0, -16000.630378798292, -37236.82162008544, -40441.927664509734, -9985.015986563682, -18092.15016271474, -11293.934141866463, -25184.64925106159, -32716.024841788396, -6686.993740438669, -16061.672992905736, -13322.936096541418, -5637.378172561905, -24860.325439015083, -17794.8496097147, -187500.02235174447, -35873.18639435606, 0.02760877781987983, 0.982762958947992, -0.03349471515832011, 192.0, 0.0, 0.0, 0.0, 0.0, 0.0, 0.0, 0.0, 0.0, 0.0, 1.742502847552361E9, 0.0, 2025-03-20 15:34:07.552
200.0, -15990.393279837763, -37237.04513752999, -40450.1978099582, -9992.302655256111, -18089.087973724363, -11301.489031492358, -25191.01949823135, -32728.899446594653, -6680.824658969004, -16067.640908675303, -13325.193622731404, -5638.048724895564, -24864.281697783674, -17804.19263889702, -187500.02235174447, -35876.42739730208, 0.023804388909939918, 0.979381479473996, -0.035747357579160054, 192.0, 0.0, 80.0, 15.0, 64.0, 127.0, 104.0, 0.0, 0.0, 0.0, 1.742502847552493E9, 0.0, 2025-03-20 15:34:07.552
202.0, -16004.296064888964, -37232.08305026091, -40445.16866745576, -9986.73707088674, -18094.742965071557, -11294.604694200123, -25183.66577430556, -32720.919873824107, -6687.776051494605, -16062.32119349494, -13327.115872754559, -5637.087599883986, -24860.414845992906, -17794.067298658767, -187500.02235174447, -35869.40894954312, 0.023804388909939918, 0.979381479473996, -0.035747357579160054, 192.0, 0.0, 0.0, 0.0, 0.0, 0.0, 0.0, 0.0, 0.0, 0.0, 1.742502847552601E9, 0.0, 2025-03-20 15:34:07.552
204.0, -15988.716899003613, -37233.446506672684, -40441.68179532073, -9997.287094269645, -18086.7186888121, -11301.310217536715, -25189.499579608393, -32719.422306945602, -6681.808135725038, -16069.853731376379, -13327.227631476837, -5640.127437129908, -24870.02609610869, -17792.23445561343, -187500.02235174447, -35875.51097577941, 0.023804388909939918, 0.979381479473996, -0.035747357579160054, 192.0, 0.0, 0.0, 0.0, 0.0, 0.0, 0.0, 0.0, 0.0, 0.0, 1.742502847552711E9, 0.0, 2025-03-20 15:34:07.552
206.0, -16018.377663895806, -37243.32597772193, -40437.63612957432, -9988.97224533227, -18093.223046448595, -11298.940932624451, -25185.990355728907, -32723.356213969735, -6701.835298756993, -16074.61465294536, -13337.889413582017, -5650.051611668064, -24867.47799724078, -17810.89816223361, -187500.02235174447, -35876.53915602436, 0.023804388909939918, 0.979381479473996, -0.035747357579160054, 192.0, 0.0, 0.0, 0.0, 0.0, 0.0, 0.0, 0.0, 0.0, 0.0, 1.742502847552813E9, 0.0, 2025-03-20 15:34:07.552
208.0, -15980.334994832874, -37225.46693390214, -40435.155085939776, -9988.435803465343, -18078.850874763833, -11295.901095378531, -25185.476265606438, -32723.37856571419, -6675.460240299731, -16066.433914474717, -13324.992457031305, -5638.540463273581, -24849.753063887725, -17798.202371383, -187500.02235174447, -35875.33216182377, 0.023804388909939918, 0.979381479473996, -0.035747357579160054, 192.0, 0.0, 0.0, 0.0, 0.0, 0.0, 0.0, 0.0, 0.0, 0.0, 1.742502847552918E9, 0.0, 2025-03-20 15:34:07.552
