%OpenBCI Raw EXG Data
%Number of channels = 16
%Sample Rate = 125 Hz
%Board = OpenBCI_GUI$BoardCytonSerialDaisy
Sample Index, EXG Channel 0, EXG Channel 1, EXG Channel 2, EXG Channel 3, EXG Channel 4, EXG Channel 5, EXG Channel 6, EXG Channel 7, EXG Channel 8, EXG Channel 9, EXG Channel 10, EXG Channel 11, EXG Channel 12, EXG Channel 13, EXG Channel 14, EXG Channel 15, Accel Channel 0, Accel Channel 1, Accel Channel 2, Not Used, Digital Channel 0 (D11), Digital Channel 1 (D12), Digital Channel 2 (D13), Digital Channel 3 (D17), Not Used, Digital Channel 4 (D18), Analog Channel 0, Analog Channel 1, Analog Channel 2, Timestamp, Marker Channel, Timestamp (Formatted)
72.0, -15976.915177931212, -36911.78255221636, -40154.08189941429, -9976.142344014925, -17907.033015135887, -11205.264771612261, -24894.478904542793, -32370.489224253804, -6659.076411613991, -16066.255100519074, -13230.578688452088, -6026.946726673452, -24568.702229106693, -17588.654767114494, -187500.02235174447, -35641.35410086562, 0.0, 0.0, 0.0, 192.0, 0.0, 0.0, 0.0, 0.0, 0.0, 0.0, 0.0, 0.0, 0.0, 1.742502898341392E9, 0.0, 2025-03-20 15:34:58.341
74.0, -15994.193076395164, -36915.80586621832, -40145.81175396583, -9967.961605544282, -17904.082584867785, -11198.179268619928, -24888.68980272887, -32368.45521550837, -6668.553551263041, -16050.586527655903, -13237.261860044226, -6024.376276061092, -24582.269737991064, -17594.130944506043, -187500.02235174447, -35625.14908613552, 0.0, 0.0, 0.0, 192.0, 0.0, 0.0, 0.0, 0.0, 0.0, 0.0, 0.0, 0.0, 0.0, 1.742502898341603E9, 0.0, 2025-03-20 15:34:58.341
76.0, -15975.954052919633, -36911.46962779399, -40152.18200113559, -9972.297843968612, -17893.97959637399, -11204.147184389494, -24892.556654519638, -32373.059674866163, -6668.151219862845, -16049.379533455318, -13230.086950074072, -6022.141101615561, -24594.33967999693, -17586.44194441342, -187500.02235174447, -35629.9100077045, 0.0, 0.0, 0.0, 192.0, 0.0, 0.0, 0.0, 0.0, 0.0, 0.0, 0.0, 0.0, 0.0, 1.74250289834178E9, 0.0, 2025-03-20 15:34:58.341
78.0, -16008.699358546659, -36926.758221001415, -40159.66983552812, -9980.411527205888, -17914.45379429505, -11215.88185022853, -24904.11250640303, -32384.16849186045, -6687.127850905401, -16073.452362233684, -13248.370677038512, -6036.982659933885, -24579.09579027841, -17609.86657260258, -187500.02235174447, -35639.454202586916, 0.0, 0.0, 0.0, 192.0, 0.0, 0.0, 0.0, 0.0, 0.0, 0.0, 0.0, 0.0, 0.0, 1.742502898341956E9, 0.0, 2025-03-20 15:34:58.341
80.0, -15971.439000539662, -36903.758275956905, -40148.0245766669, -9973.25896898019, -17896.68415745308, -11210.942114703908, -24909.432221583396, -32392.192768119905, -6664.999623894647, -16050.765341611546, -13231.875089630495, -6021.381142304081, -24585.398982214807, -17598.601293397107, -187500.02235174447, -35648.08197594666, 0.007, 0.494, -0.003, 192.0, 0.0, 56.0, 15.0, 112.0, 127.5, 104.0, 0.0, 0.0, 0.0, 1.742502898342126E9, 0.0, 2025-03-20 15:34:58.342
82.0, -15990.348576348852, -36907.42396204758, -40134.79234394936, -9957.344526928011, -17913.78324196139, -11196.07820464113, -24888.175712606397, -32377.060637123664, -6667.637129740373, -16056.375629469829, -13233.819691398108, -6024.599793505645, -24589.44464796122, -17603.67513938846, -187500.02235174447, -35651.39003412605, 0.007, 0.494, -0.003, 192.0, 0.0, 0.0, 0.0, 0.0, 0.0, 0.0, 0.0, 0.0, 0.0, 1.742502898342304E9, 0.0, 2025-03-20 15:34:58.342
84.0, -15952.551776474927, -36895.66694446409, -40141.810791708325, -9961.390192674422, -17891.47620099499, -11202.157879132972, -24892.243730097263, -32376.367733045547, -6651.253301054633, -16042.450492674172, -13218.173470279393, -6006.517232241301, -24567.18231048373, -17579.937586776923, -187500.02235174447, -35634.000376939824, 0.007, 0.494, -0.003, 192.0, 0.0, 0.0, 0.0, 0.0, 0.0, 0.0, 0.0, 0.0, 0.0, 1.742502898342472E9, 0.0, 2025-03-20 15:34:58.342
86.0, -16002.21735265462, -36914.956499929016, -40142.7719167199, -9958.372707172955, -17901.243913321963, -11193.68656798441, -24891.081439385587, -32372.7914539327, -6670.207580352733, -16055.168635269241, -13232.411531497424, -6022.342267315658, -24573.77607509805, -17593.996834039313, -187500.02235174447, -35635.00620544031, 0.007, 0.494, -0.003, 192.0, 0.0, 0.0, 0.0, 0.0, 0.0, 0.0, 0.0, 0.0, 0.0, 1.742502898342637E9, 0.0, 2025-03-20 15:34:58.342
88.0, -15970.50022727254, -36909.72619172647, -40155.42300408161, -9977.081117282047, -17901.422727277604, -11213.154937404983, -24904.13485814749, -32384.771988960743, -6673.090955387468, -16054.632193402314, -13234.423188498402, -6023.102226627139, -24588.796447372013, -17590.085278759634, -187500.02235174447, -35635.40853684051, 0.007, 0.494, -0.003, 192.0, 0.0, 0.0, 0.0, 0.0, 0.0, 0.0, 0.0, 0.0, 0.0, 1.742502898342848E9, 0.0, 2025-03-20 15:34:58.342
0.0, -7969.559189028644, -18408.919085135352, -20054.186291001595, -4977.644083219062, -8922.682276091848, -5603.694093667757, -12430.78856835229, -16140.14996768832, -3341.429333857219, -8035.653297382987, -6625.392332719843, -3017.4855014664536, -12293.90648530799, -8805.782652590591, -93750.01117587223, -17824.689188562537, 0.012, 0.986, -0.002, 192.0, 0.0, 48.0, 15.0, 104.0, 127.5, 120.0, 0.0, 0.0, 0.0, 1.742502898519469E9, 0.0, 2025-03-20 15:34:58.519
2.0, -15998.59637005286, -36837.23948445791, -40091.54171842834, -9944.425218632845, -17852.651220876127, -11189.037405137708, -24849.14956678743, -32267.313571848106, -6711.245383172677, -16013.907315004744, -13223.04615057065, -6160.8560277051965, -24544.98702823961, -17560.491569100806, -187500.02235174447, -35577.98690533482, 0.012, 0.986, -0.002, 192.0, 0.0, 0.0, 0.0, 0.0, 0.0, 0.0, 0.0, 0.0, 0.0, 1.742502898519691E9, 0.0, 2025-03-20 15:34:58.519
4.0, -15946.293288027442, -36810.0374114558, -40079.60588688921, -9930.053046948082, -17830.500642120915, -11188.210390592862, -24851.429444721874, -32269.124063148985, -6689.385377095387, -15989.566265292915, -13200.739109604254, -6138.370172783158, -24526.77035650854, -17552.064961441156, -187500.02235174447, -35561.67013188245, 0.012, 0.986, -0.002, 192.0, 0.0, 0.0, 0.0, 0.0, 0.0, 0.0, 0.0, 0.0, 0.0, 1.74250289851992E9, 0.0, 2025-03-20 15:34:58.519
6.0, -15985.945282691157, -36833.75261232288, -40090.67000039459, -9940.178387186335, -17842.10119749322, -11186.623416736535, -24853.95519184532, -32267.090054403554, -6688.826583484004, -16001.815021254424, -13204.203629994827, -6149.12136186616, -24527.37385360883, -17554.23308065332, -187500.02235174447, -35570.07438779764, 0.012, 0.986, -0.002, 192.0, 0.0, 0.0, 0.0, 0.0, 0.0, 0.0, 0.0, 0.0, 0.0, 1.742502898520097E9, 0.0, 2025-03-20 15:34:58.520
8.0, -15947.120302572288, -36809.99270796689, -40078.98003804446, -9930.388323114912, -17838.748435824924, -11182.287178312205, -24850.177747032376, -32267.29122010365, -6695.867382987426, -15975.618776752804, -13206.930542818374, -6144.5392542528225, -24528.357330364863, -17548.578089306127, -187500.02235174447, -35571.482547698324, 0.014, 0.986, 0.006, 192.0, 0.0, 56.0, 15.0, 104.0, 0.0, 24.0, 0.0, 0.0, 0.0, 1.742502898520272E9, 0.0, 2025-03-20 15:34:58.520
10.0, -15980.603215766338, -36827.76234480886, -40098.1131312982, -9941.094808709004, -17856.451017433526, -11194.893562184998, -24864.929898372877, -32279.182348153874, -6691.709958518739, -15990.437983326672, -13199.353301448024, -6143.3099083077805, -24523.462298329152, -17546.499377071785, -187500.02235174447, -35571.23667850932, 0.014, 0.986, 0.006, 192.0, 0.0, 0.0, 0.0, 0.0, 0.0, 0.0, 0.0, 0.0, 0.0, 1.742502898520465E9, 0.0, 2025-03-20 15:34:58.520
12.0, -15952.618831708292, -36811.51262658985, -40079.85175607822, -9932.914070238361, -17847.756188840413, -11182.130716101017, -24855.92214535739, -32260.406882811414, -6696.806156254549, -15988.44867807015, -13204.56125790611, -6147.847312432207, -24534.548763578983, -17551.237946896308, -187500.02235174447, -35572.75659713228, 0.014, 0.986, 0.006, 192.0, 0.0, 0.0, 0.0, 0.0, 0.0, 0.0, 0.0, 0.0, 0.0, 1.742502898520629E9, 0.0, 2025-03-20 15:34:58.520
14.0, -15971.282538328474, -36821.392097639095, -40090.1112067832, -9932.422331860344, -17845.05162776132, -11180.20846607786, -24851.87647961098, -32270.129891649474, -6687.574885794507, -15979.440925054661, -13197.833382825063, -6138.414876272068, -24531.598333310885, -17545.895879971493, -187500.02235174447, -35574.72355064435, 0.014, 0.986, 0.006, 192.0, 0.0, 0.0, 0.0, 0.0, 0.0, 0.0, 0.0, 0.0, 0.0, 1.742502898520792E9, 0.0, 2025-03-20 15:34:58.520
16.0, -15970.723744717092, -36823.157885451066, -40092.56989867329, -9943.486445365721, -17852.338296453752, -11192.390166806003, -24863.7676076612, -32275.695476018846, -6694.570981809018, -15992.44964032765, -13208.986903308261, -6153.83757994623, -24539.2426299146, -17554.680115542425, -187500.02235174447, -35576.06465531167, 0.014, 0.986, 0.006, 192.0, 0.0, 0.0, 0.0, 0.0, 0.0, 0.0, 0.0, 0.0, 0.0, 1.742502898579758E9, 0.0, 2025-03-20 15:34:58.579
18.0, -15974.791762207959, -36829.036394242816, -40098.9177940986, -9942.324154654045, -17855.668706377593, -11193.418347050947, -24854.603392434525, -32281.261060388217, -6690.167688151323, -15997.791707252469, -13209.053958541628, -6155.782181713842, -24528.267923387044, -17562.257356912774, -187500.02235174447, -35582.390198992514, 0.016, 0.98, 0.002, 192.0, 0.0, 64.0, 15.0, 80.0, 0.0, 8.0, 0.0, 0.0, 0.0, 1.74250289857998E9, 0.0, 2025-03-20 15:34:58.579
20.0, -15973.294195329452, -36826.84592328619, -40093.2628027514, -9944.268756421658, -17852.830034831768, -11201.420271565947, -24854.759854645712, -32275.851938230033, -6696.381473109898, -15990.683852515682, -13213.256086499225, -6153.099972379205, -24530.48074608812, -17558.926946988937, -187500.02235174447, -35573.78477737722, 0.016, 0.98, 0.002, 192.0, 0.0, 0.0, 0.0, 0.0, 0.0, 0.0, 0.0, 0.0, 0.0, 1.742502898580191E9, 0.0, 2025-03-20 15:34:58.580
22.0, -15957.87149165529, -36814.59716732468, -40085.84202359224, -9937.227956918236, -17846.28097370636, -11191.7419662168, -24854.603392434525, -32273.28148761767, -6692.715787019228, -15991.197942638153, -13204.494202672746, -6146.305042064791, -24533.43117635622, -17558.256394655276, -187500.02235174447, -35577.62927742353, 0.016, 0.98, 0.002, 192.0, 0.0, 0.0, 0.0, 0.0, 0.0, 0.0, 0.0, 0.0, 0.0, 1.742502898580393E9, 0.0, 2025-03-20 15:34:58.580
24.0, -15961.581881234872, -36811.84790275668, -40082.62337239068, -9935.506872595177, -17846.8621190622, -11192.658387739468, -24853.798729634134, -32269.593449782547, -6685.60793228244, -15981.385526822272, -13199.912095059408, -6142.751114696398, -24532.179478666723, -17549.494510828794, -187500.02235174447, -35575.70702740038, 0.016, 0.98, 0.002, 192.0, 0.0, 0.0, 0.0, 0.0, 0.0, 0.0, 0.0, 0.0, 0.0, 1.742502898580576E9, 0.0, 2025-03-20 15:34:58.580
26.0, -15931.764654131492, -36792.9830304364, -40077.75069209942, -9926.901450979884, -17844.179909727565, -11181.460163767359, -24844.63451440746, -32267.514737548205, -6670.006414652636, -15984.939454190668, -13191.396080421935, -6138.526634994345, -24525.51865881904, -17556.177682420934, -187500.02235174447, -35585.25122228279, 0.016, 0.98, 0.002, 192.0, 0.0, 0.0, 0.0, 0.0, 0.0, 0.0, 0.0, 0.0, 0.0, 1.742502898580778E9, 0.0, 2025-03-20 15:34:58.580
28.0, -15945.801549649424, -36786.97041117793, -40066.865392549684, -9912.372817083933, -17841.00596201491, -11170.328995028614, -24833.123366012976, -32253.43313854136, -6669.1346966188785, -15954.9657648761, -13181.203684950315, -6122.835710386719, -24502.831638196905, -17534.071807154633, -187500.02235174447, -35560.93252431542, 0.014, 0.976, 0.004, 192.0, 0.0, 56.0, 15.0, 64.0, 0.0, 16.0, 0.0, 0.0, 0.0, 1.742502898580959E9, 0.0, 2025-03-20 15:34:58.580
30.0, -15914.017369033978, -36780.62251575262, -40075.1578897426, -9915.502061307676, -17828.533688608848, -11178.755602688267, -24843.136947528954, -32260.786862467157, -6667.03363264008, -15952.104741585821, -13178.454420382312, -6117.7171609064535, -24515.639187769793, -17524.818184950138, -187500.02235174447, -35551.47773641083, 0.014, 0.976, 0.004, 192.0, 0.0, 0.0, 0.0, 0.0, 0.0, 0.0, 0.0, 0.0, 0.0, 1.742502898640011E9, 0.0, 2025-03-20 15:34:58.640
32.0, -15940.0124478355, -36782.34360007568, -40066.239543704934, -9910.897601949884, -17838.48021489146, -11169.6360909505, -24838.39837770443, -32255.400092053427, -6674.655577499339, -15961.336012045862, -13186.36693791949, -6128.758922667375, -24520.288350616498, -17534.89882169948, -187500.02235174447, -35554.89755331249, 0.014, 0.976, 0.004, 192.0, 0.0, 0.0, 0.0, 0.0, 0.0, 0.0, 0.0, 0.0, 0.0, 1.742502898640239E9, 0.0, 2025-03-20 15:34:58.640
34.0, -15904.003787518, -36766.2279923234, -40069.27938095086, -9912.77514848413, -17830.210069442997, -11181.16959108944, -24843.986313818255, -32264.09492064654, -6658.003527880136, -15938.82780537937, -13164.864559753485, -6105.177832267026, -24512.264074357045, -17522.56065876015, -187500.02235174447, -35551.38832943301, 0.014, 0.976, 0.004, 192.0, 0.0, 0.0, 0.0, 0.0, 0.0, 0.0, 0.0, 0.0, 0.0, 1.742502898640409E9, 0.0, 2025-03-20 15:34:58.640
36.0, -15944.05811358191, -36786.99276292238, -40078.60005838872, -9919.212450887258, -17847.845595818235, -11180.297873055682, -24857.173843046887, -32265.011342169208, -6679.148278134857, -15954.071695097888, -13183.192990206837, -6122.16515805306, -24527.217391397644, -17541.626696780528, -187500.02235174447, -35556.104547513074, 0.014, 0.976, 0.004, 192.0, 0.0, 0.0, 0.0, 0.0, 0.0, 0.0, 0.0, 0.0, 0.0, 1.742502898640574E9, 0.0, 2025-03-20 15:34:58.640
38.0, -15894.057261235388, -36766.65267546805, -40078.22007873298, -9925.046256190093, -17834.881584034156, -11194.267713340249, -24856.726808157782, -32277.01422894171, -6664.46318202772, -15955.77042767649, -13172.240635423737, -6117.225422528437, -24525.89863847478, -17530.80845246416, -187500.02235174447, -35560.26197198176, 0.018000000000000002, 0.986, 0.004, 192.0, 0.0, 72.0, 15.0, 104.0, 0.0, 16.0, 0.0, 0.0, 0.0, 1.742502898640738E9, 0.0, 2025-03-20 15:34:58.640
40.0, -15940.43713098015, -36785.56225127724, -40079.091796766734, -9919.994761943193, -17855.9145755666, -11186.198733591884, -24849.753063887725, -32267.090054403554, -6669.112344874424, -15973.137733118265, -13183.192990206837, -6129.295364534302, -24523.507001818063, -17546.834653238613, -187500.02235174447, -35566.36399821806, 0.018000000000000002, 0.986, 0.004, 192.0, 0.0, 0.0, 0.0, 0.0, 0.0, 0.0, 0.0, 0.0, 0.0, 1.742502898640931E9, 0.0, 2025-03-20 15:34:58.640
42.0, -15886.725889054047, -36756.16970731851, -40067.44653790552, -9918.854822975973, -17826.38792114114, -11182.957730645863, -24842.533450428662, -32267.38062708147, -6662.831504682482, -15949.064904339899, -13175.481638369756, -6117.40423648408, -24510.632397011806, -17540.643220024493, -187500.02235174447, -35559.189088247906, 0.018000000000000002, 0.986, 0.004, 192.0, 0.0, 0.0, 0.0, 0.0, 0.0, 0.0, 0.0, 0.0, 0.0, 1.742502898641122E9, 0.0, 2025-03-20 15:34:58.641
44.0, -15935.54209894444, -36776.46509128393, -40073.436805419544, -9916.485538063711, -17835.77565381237, -11173.391184018992, -24840.20886900531, -32263.983161924265, -6655.991870879158, -15942.180567047664, -13170.832475523053, -6113.000942826384, -24500.23883584009, -17532.440129809398, -187500.02235174447, -35554.5399254012, 0.018000000000000002, 0.986, 0.004, 192.0, 0.0, 0.0, 0.0, 0.0, 0.0, 0.0, 0.0, 0.0, 0.0, 1.742502898641313E9, 0.0, 2025-03-20 15:34:58.641
46.0, -15887.754069298991, -36754.96271311792, -40060.91982852457, -9913.266886862146, -17827.840784530734, -11169.949015372875, -24843.852203351522, -32268.654676515423, -6660.3281093034875, -15947.053247338921, -13168.954928988807, -6114.230288771426, -24518.075527915422, -17534.250621110277, -187500.02235174447, -35554.76344284576, 0.018000000000000002, 0.989, 0.005, 192.0, 0.0, 72.0, 15.5, 0.0, 0.0, 24.0, 0.0, 0.0, 0.0, 1.742502898699552E9, 0.0, 2025-03-20 15:34:58.699
48.0, -15947.477930483572, -36781.71775123093, -40075.29200020934, -9918.430139831322, -17841.900031793124, -11170.485457239802, -24842.24287775074, -32269.86167071601, -6660.529275003586, -15955.479854998572, -13168.46319061079, -6112.240983514904, -24519.237818627098, -17532.84246120959, -187500.02235174447, -35555.903381812976, 0.018000000000000002, 0.989, 0.005, 192.0, 0.0, 0.0, 0.0, 0.0, 0.0, 0.0, 0.0, 0.0, 0.0, 1.742502898699787E9, 0.0, 2025-03-20 15:34:58.699
50.0, -15910.53049689895, -36768.37375979111, -40069.88287805115, -9928.600183558487, -17839.73191258096, -11181.326053300627, -24844.835680107557, -32280.92578422139, -6681.808135725038, -15948.081427583866, -13177.962682004296, -6117.873623117641, -24520.265998872044, -17542.09608341409, -187500.02235174447, -35563.100643527585, 0.018000000000000002, 0.989, 0.005, 192.0, 0.0, 0.0, 0.0, 0.0, 0.0, 0.0, 0.0, 0.0, 0.0, 1.742502898699974E9, 0.0, 2025-03-20 15:34:58.699
52.0, -15950.62952645177, -36789.250289112366, -40080.25408747841, -9932.556442327075, -17861.569566913793, -11186.511658014257, -24862.717075671804, -32284.18913891186, -6670.632263497385, -15959.279651555975, -13179.482600627256, -6121.852233630685, -24520.645978527784, -17542.18549039191, -187500.02235174447, -35575.90819310048, 0.018000000000000002, 0.989, 0.005, 192.0, 0.0, 0.0, 0.0, 0.0, 0.0, 0.0, 0.0, 0.0, 0.0, 1.742502898700155E9, 0.0, 2025-03-20 15:34:58.700
54.0, -15899.533438626939, -36767.41263477953, -40075.51551765389, -9924.48746257871, -17839.798967814324, -11184.276483568727, -24851.9658865888, -32283.451531344836, -6665.334900061477, -15960.173721334188, -13177.828571537564, -6120.153501052082, -24517.941417448692, -17540.330295602118, -187500.02235174447, -35578.277478012744, 0.018000000000000002, 0.989, 0.005, 192.0, 0.0, 0.0, 0.0, 0.0, 0.0, 0.0, 0.0, 0.0, 0.0, 1.742502898700337E9, 0.0, 2025-03-20 15:34:58.700
56.0, -15944.125168815277, -36784.914050688036, -40076.6107531322, -9922.341695111001, -17853.67940112107, -11189.439736537903, -24853.038770322655, -32279.830548743077, -6669.089993129968, -15972.310718573419, -13181.740126817242, -6120.801701641286, -24520.51186806105, -17549.248641639788, -187500.02235174447, -35582.61371643707, 0.017, 0.9915, 0.0015, 192.0, 0.0, 64.0, 15.5, 8.0, 127.5, 120.0, 0.0, 0.0, 0.0, 1.742502898700505E9, 0.0, 2025-03-20 15:34:58.700
58.0, -15905.769575329969, -36762.00351262135, -40072.72154959697, -9920.464148576755, -17835.77565381237, -11181.817791678643, -24844.790976618646, -32277.215394641808, -6674.230894354689, -15945.130997315766, -13179.169676204881, -6112.263335259358, -24519.975426194123, -17547.169929405445, -187500.02235174447, -35568.66622789696, 0.017, 0.9915, 0.0015, 192.0, 0.0, 0.0, 0.0, 0.0, 0.0, 0.0, 0.0, 0.0, 0.0, 1.742502898700681E9, 0.0, 2025-03-20 15:34:58.700
60.0, -15939.72187515758, -36786.098693144166, -40073.92854379756, -9922.744026511196, -17846.81741557329, -11181.25899806726, -24852.211755777807, -32277.729484764277, -6668.575903007496, -15960.687811456659, -13177.336833159547, -6118.611230684666, -24537.1415659358, -17534.340028088096, -187500.02235174447, -35567.39217846301, 0.017, 0.9915, 0.0015, 192.0, 0.0, 0.0, 0.0, 0.0, 0.0, 0.0, 0.0, 0.0, 0.0, 1.742502898761139E9, 0.0, 2025-03-20 15:34:58.761
62.0, -15935.899726855723, -36788.64679201207, -40091.69818063953, -9937.272660407145, -17857.501549422926, -11188.925646415431, -24859.49842447024, -32279.405865598426, -6674.9461501772585, -15958.385581777762, -13186.948083275329, -6125.003829598883, -24525.563362307952, -17543.347781103585, -187500.02235174447, -35566.56516391816, 0.017, 0.9915, 0.0015, 192.0, 0.0, 0.0, 0.0, 0.0, 0.0, 0.0, 0.0, 0.0, 0.0, 1.742502898761379E9, 0.0, 2025-03-20 15:34:58.761
64.0, -15947.34382001684, -36794.59235603719, -40086.17729975907, -9939.306669152578, -17858.082694778765, -11183.78474519071, -24848.00962782021, -32277.43891208636, -6672.0627751425245, -15968.354459804828, -13189.876161798975, -6128.669515689554, -24523.954036707168, -17549.539214317705, -187500.02235174447, -35577.60692567908, 0.017, 0.9915, 0.0015, 192.0, 0.0, 0.0, 0.0, 0.0, 0.0, 0.0, 0.0, 0.0, 0.0, 1.742502898761575E9, 0.0, 2025-03-20 15:34:58.761
66.0, -15940.146558302231, -36790.12200714612, -40088.77010211589, -9944.380515143934, -17860.116703524196, -11187.83041093712, -24855.698627912836, -32278.400037097937, -6690.480612573697, -15978.524503531993, -13201.99080729375, -6142.88522516313, -24530.81602225495, -17561.698563301394, -187500.02235174447, -35580.35619024708, 0.0145, 0.99275, -0.00125, 192.0, 0.0, 48.0, 15.5, 8.0, 127.5, 112.0, 0.0, 0.0, 0.0, 1.742502898761758E9, 0.0, 2025-03-20 15:34:58.761
68.0, -15932.077578553866, -36782.36595182013, -40077.59422988823, -9935.305706895078, -17847.376209184673, -11180.230817822316, -24848.747235387236, -32279.383513853973, -6670.788725708571, -15986.235855369076, -13185.048184996627, -6136.626736715643, -24510.05125165597, -17553.026086452734, -187500.02235174447, -35579.05978906868, 0.0145, 0.99275, -0.00125, 192.0, 0.0, 0.0, 0.0, 0.0, 0.0, 0.0, 0.0, 0.0, 0.0, 1.742502898761981E9, 0.0, 2025-03-20 15:34:58.761
70.0, -15931.027046564466, -36778.29793432927, -40072.09570075222, -9930.321267881545, -17843.0623225048, -11188.612721993057, -24846.15443303042, -32271.04631317214, -6670.945187919759, -15965.314622558908, -13182.880065784462, -6125.562623210267, -24522.635283784304, -17552.266127141254, -187500.02235174447, -35570.07438779764, 0.0145, 0.99275, -0.00125, 192.0, 0.0, 0.0, 0.0, 0.0, 0.0, 0.0, 0.0, 0.0, 0.0, 1.742502898762157E9, 0.0, 2025-03-20 15:34:58.762
72.0, -15927.875450596268, -36773.04527438227, -40076.14136649864, -9934.791616772607, -17844.82811031677, -11196.54759127469, -24851.183575532865, -32282.848034244544, -6677.427193811798, -15963.638241724759, -13185.428164652369, -6124.266222031859, -24537.745063036095, -17545.98528694931, -187500.02235174447, -35583.95482110439, 0.0145, 0.99275, -0.00125, 192.0, 0.0, 0.0, 0.0, 0.0, 0.0, 0.0, 0.0, 0.0, 0.0, 1.742502898762341E9, 0.0, 2025-03-20 15:34:58.762
74.0, -15937.732569901058, -36774.60989649414, -40068.94410478403, -9921.045293932593, -17827.170232197077, -11172.228893307316, -24842.779319617668, -32270.688685260855, -6671.3028158310435, -15956.664497454703, -13181.002519250218, -6122.723951664442, -24518.053176170968, -17545.493548571296, -187500.02235174447, -35566.96749531836, 0.0145, 0.99275, -0.00125, 192.0, 0.0, 0.0, 0.0, 0.0, 0.0, 0.0, 0.0, 0.0, 0.0, 1.742502898762514E9, 0.0, 2025-03-20 15:34:58.762
76.0, -15920.208802248098, -36770.38541679209, -40070.39696817362, -9922.229936388723, -17841.430645159562, -11170.999547362275, -24846.19913651933, -32273.370894595493, -6668.173571607301, -15957.715029444103, -13180.84605703903, -6116.666628917054, -24520.176591894222, -17543.861871226058, -187500.02235174447, -35566.96749531836, 0.013250000000000001, 0.989375, -0.002625, 192.0, 0.0, 48.0, 15.0, 104.0, 127.5, 112.0, 0.0, 0.0, 0.0, 1.742502898819423E9, 0.0, 2025-03-20 15:34:58.819
78.0, -15946.807378149913, -36786.50102454436, -40073.28034320836, -9931.930593482328, -17859.66966863509, -11176.45337300937, -24849.44013946535, -32275.091978918554, -6671.191057108767, -15964.666421969703, -13183.818839051586, -6127.820149400252, -24514.36513833584, -17548.153406161477, -187500.02235174447, -35562.92182957195, 0.013250000000000001, 0.989375, -0.002625, 192.0, 0.0, 0.0, 0.0, 0.0, 0.0, 0.0, 0.0, 0.0, 0.0, 1.742502898819617E9, 0.0, 2025-03-20 15:34:58.819
80.0, -15918.66653188068, -36772.59823949316, -40076.47664266547, -9937.54088134061, -17849.09729350773, -11184.187076590906, -24856.30212501313, -32282.62451679999, -6667.279501829088, -15975.037631396966, -13179.773173305175, -6127.171948811048, -24525.161030907755, -17550.992077707302, -187500.02235174447, -35572.51072794327, 0.013250000000000001, 0.989375, -0.002625, 192.0, 0.0, 0.0, 0.0, 0.0, 0.0, 0.0, 0.0, 0.0, 0.0, 1.742502898819783E9, 0.0, 2025-03-20 15:34:58.819
82.0, -15947.142654316744, -36775.70513197245, -40075.98490428745, -9929.15897716987, -17857.278031978374, -11185.282312069216, -24853.284639511665, -32287.273679646696, -6682.813964225526, -15976.132866875276, -13188.42329840938, -6129.965916867962, -24521.651807028273, -17554.769522520248, -187500.02235174447, -35576.176414033944, 0.013250000000000001, 0.989375, -0.002625, 192.0, 0.0, 0.0, 0.0, 0.0, 0.0, 0.0, 0.0, 0.0, 0.0, 1.742502898819949E9, 0.0, 2025-03-20 15:34:58.819
84.0, -15896.784174058936, -36756.3261695297, -40071.291037951836, -9927.77316901364, -17846.191566728543, -11194.066547640152, -24848.099034798033, -32287.877176746988, -6666.228969839689, -15956.753904432524, -13174.74403080273, -6111.145748036593, -24521.204772139165, -17544.71123751536, -187500.02235174447, -35576.534041945226, 0.013250000000000001, 0.989375, -0.002625, 192.0, 0.0, 0.0, 0.0, 0.0, 0.0, 0.0, 0.0, 0.0, 0.0, 1.742502898820177E9, 0.0, 2025-03-20 15:34:58.820
86.0, -15947.187357805653, -36776.867422684125, -40069.949933284515, -9924.509814323166, -17852.718276109492, -11185.371719047036, -24845.260363252208, -32277.751836508734, -6676.84604845596, -15966.700430715136, -13186.612807108499, -6120.801701641286, -24534.70522579017, -17544.666534026448, -187500.02235174447, -35577.159890789975, 0.013625000000000002, 0.9866874999999999, -0.0033125000000000003, 192.0, 0.0, 56.0, 15.0, 96.0, 127.5, 112.0, 0.0, 0.0, 0.0, 1.742502898820365E9, 0.0, 2025-03-20 15:34:58.820
88.0, -15908.72000559807, -36762.31643704372, -40079.06944502228, -9933.249346405191, -17837.67555209107, -11190.199695849384, -24847.71905514229, -32281.8198539996, -6668.754716963139, -15959.883148656269, -13182.634196595454, -6114.632620171621, -24521.338882605898, -17542.09608341409, -187500.02235174447, -35573.40479772149, 0.013625000000000002, 0.9866874999999999, -0.0033125000000000003, 192.0, 0.0, 0.0, 0.0, 0.0, 0.0, 0.0, 0.0, 0.0, 0.0, 1.742502898820559E9, 0.0, 2025-03-20 15:34:58.820
90.0, -15954.16110207571, -36783.90822218755, -40083.62920089116, -9939.150206941391, -17853.366476698695, -11187.942169659396, -24851.027113321677, -32285.15026392344, -6673.247417598655, -15968.913253416213, -13192.826592067075, -6125.294402276802, -24512.0852604014, -17550.410932351464, -187500.02235174447, -35581.2502600253, 0.013625000000000002, 0.9866874999999999, -0.0033125000000000003, 192.0, 0.0, 0.0, 0.0, 0.0, 0.0, 0.0, 0.0, 0.0, 0.0, 1.742502898879796E9, 0.0, 2025-03-20 15:34:58.879
92.0, -15920.43231969265, -36781.02484715281, -40090.17826201657, -9945.185177944324, -17843.15172948262, -11189.283274326715, -24863.00764834972, -32296.95198499584, -6682.970426436714, -15977.742192476058, -13197.252237469225, -6135.330335537235, -24529.43021409872, -17570.751019805793, -187500.02235174447, -35585.09476007161, 0.013625000000000002, 0.9866874999999999, -0.0033125000000000003, 192.0, 0.0, 0.0, 0.0, 0.0, 0.0, 0.0, 0.0, 0.0, 0.0, 1.742502898880019E9, 0.0, 2025-03-20 15:34:58.880
94.0, -15968.533273760471, -36800.5379200623, -40093.12869228467, -9945.431047133332, -17867.604537916726, -11196.726405230333, -24862.58296520507, -32299.120104208007, -6685.384414837888, -15984.492419301561, -13203.04133928315, -6138.21371057197, -24534.034673456514, -17572.628566340038, -187500.02235174447, -35588.71574267337, 0.013625000000000002, 0.9866874999999999, -0.0033125000000000003, 192.0, 0.0, 0.0, 0.0, 0.0, 0.0, 0.0, 0.0, 0.0, 0.0, 1.742502898880201E9, 0.0, 2025-03-20 15:34:58.880
96.0, -15904.584932873839, -36766.65267546805, -40075.85079382072, -9931.170634170847, -17845.968049283987, -11187.83041093712, -24853.083473811566, -32281.39517085495, -6671.74985072015, -15968.82384643839, -13184.668205340888, -6125.339105765714, -24526.70330127517, -17555.976516720835, -187500.02235174447, -35584.31244901568, 0.013812500000000002, 0.98534375, -0.00565625, 192.0, 0.0, 56.0, 15.0, 96.0, 127.5, 96.0, 0.0, 0.0, 0.0, 1.742502898880384E9, 0.0, 2025-03-20 15:34:58.880
98.0, -15952.819997408391, -36785.674009999515, -40075.1578897426, -9932.57879407153, -17858.797950601336, -11183.136544601506, -24853.30699125612, -32286.62547905749, -6668.620606496407, -15965.135808603265, -13183.28239718466, -6122.92511736454, -24538.974408981136, -17548.84631023959, -187500.02235174447, -35577.62927742353, 0.013812500000000002, 0.98534375, -0.00565625, 192.0, 0.0, 0.0, 0.0, 0.0, 0.0, 0.0, 0.0, 0.0, 0.0, 1.742502898880569E9, 0.0, 2025-03-20 15:34:58.880
100.0, -15919.314732469886, -36769.536050502786, -40077.996561288426, -9932.645849304898, -17850.61721213069, -11194.424175551436, -24854.469281967795, -32292.235766915772, -6674.074432143501, -15970.746096461547, -13182.298920428626, -6124.9367743655175, -24517.315568603943, -17545.627659038026, -187500.02235174447, -35574.0977017996, 0.013812500000000002, 0.98534375, -0.00565625, 192.0, 0.0, 0.0, 0.0, 0.0, 0.0, 0.0, 0.0, 0.0, 0.0, 1.742502898880735E9, 0.0, 2025-03-20 15:34:58.880
102.0, -15959.369058533795, -36786.47867279991, -40080.76817760088, -9939.709000552773, -17863.938851826057, -11181.035480622708, -24857.754988402725, -32285.507891834724, -6679.595313023962, -15981.832561711379, -13192.04428101114, -6131.083504090728, -24534.638170556806, -17563.397295879997, -187500.02235174447, -35582.121978059055, 0.013812500000000002, 0.98534375, -0.00565625, 192.0, 0.0, 0.0, 0.0, 0.0, 0.0, 0.0, 0.0, 0.0, 0.0, 1.742502898880903E9, 0.0, 2025-03-20 15:34:58.880
104.0, -15920.857002837301, -36769.044312124766, -40072.542735641335, -9934.523395839144, -17849.276107463375, -11182.30953005666, -24848.948401087335, -32286.24549940175, -6673.113307131924, -15977.853951198334, -13186.74691757523, -6130.412951757068, -24514.43219356921, -17552.601403308083, -187500.02235174447, -35577.6963326569, 0.013812500000000002, 0.98534375, -0.00565625, 192.0, 0.0, 0.0, 0.0, 0.0, 0.0, 0.0, 0.0, 0.0, 0.0, 1.742502898881076E9, 0.0, 2025-03-20 15:34:58.881
106.0, -15962.721820202092, -36793.452417069966, -40093.12869228467, -9946.839207034018, -17866.174026271587, -11181.795439934187, -24855.92214535739, -32295.856749517534, -6672.84508619846, -15971.126076117287, -13189.049147254127, -6126.657858688576, -24515.594484280886, -17551.50616782977, -187500.02235174447, -35580.37854199154, 0.01190625, 0.985671875, -0.008828125, 192.0, 0.0, 40.0, 15.0, 104.0, 127.5, 80.0, 0.0, 0.0, 0.0, 1.742502898940096E9, 0.0, 2025-03-20 15:34:58.940
108.0, -15928.098968040822, -36777.53797501779, -40085.618506147686, -9940.06662846406, -17855.15461625512, -11195.765280218755, -24861.800654149134, -32295.610880328524, -6682.635150269884, -15975.328204074885, -13201.342606704548, -6138.21371057197, -24525.809231496958, -17559.75396153378, -187500.02235174447, -35586.726437416844, 0.01190625, 0.985671875, -0.008828125, 192.0, 0.0, 0.0, 0.0, 0.0, 0.0, 0.0, 0.0, 0.0, 0.0, 1.742502898940332E9, 0.0, 2025-03-20 15:34:58.940
110.0, -15964.82288418089, -36797.05104792727, -40092.99458181794, -9950.236672191224, -17861.43545644706, -11190.154992360473, -24857.419712235896, -32289.15122618094, -6676.399013566854, -15980.0220704105, -13198.459231669813, -6139.890091406119, -24545.85874627337, -17561.787970279216, -187500.02235174447, -35590.90621362999, 0.01190625, 0.985671875, -0.008828125, 192.0, 0.0, 0.0, 0.0, 0.0, 0.0, 0.0, 0.0, 0.0, 0.0, 1.742502898940528E9, 0.0, 2025-03-20 15:34:58.940
112.0, -15935.743264644536, -36780.19783260797, -40090.89351783914, -9947.599166345497, -17854.394656943638, -11194.267713340249, -24857.77734014718, -32294.24742391675, -6687.306664861044, -15977.183398864676, -13203.04133928315, -6140.985326884428, -24538.885002003313, -17561.720915045848, -187500.02235174447, -35588.134597317534, 0.01190625, 0.985671875, -0.008828125, 192.0, 0.0, 0.0, 0.0, 0.0, 0.0, 0.0, 0.0, 0.0, 0.0, 1.742502898940737E9, 0.0, 2025-03-20 15:34:58.940
114.0, -15959.547872489438, -36790.54669029077, -40093.95570682952, -9949.92374776885, -17858.797950601336, -11182.30953005666, -24856.59269769105, -32291.38640062647, -6682.031653169591, -15979.530332032482, -13195.955836290817, -6137.654916960588, -24529.743138521095, -17567.107685459578, -187500.02235174447, -35586.65938218348, 0.01190625, 0.985671875, -0.008828125, 192.0, 0.0, 0.0, 0.0, 0.0, 0.0, 0.0, 0.0, 0.0, 0.0, 1.742502898940926E9, 0.0, 2025-03-20 15:34:58.940
116.0, -15953.401142764229, -36783.572946020715, -40090.021799805385, -9948.783808801629, -17854.372305199184, -11185.282312069216, -24854.223412778785, -32290.894662248455, -6698.3037231330545, -15996.249436885053, -13207.176412007382, -6143.980460641439, -24519.617798282838, -17567.018278481755, -187500.02235174447, -35590.05684734069, 0.014953125000000001, 0.9878359375, -0.0084140625, 192.0, 0.0, 72.0, 15.0, 120.0, 127.5, 96.0, 0.0, 0.0, 0.0, 1.742502898941103E9, 0.0, 2025-03-20 15:34:58.941
118.0, -15960.48664575656, -36793.05008566977, -40097.44257896455, -9958.216244961768, -17863.737686125958, -11193.395995306491, -24859.386665747963, -32298.270737918705, -6676.51077228913, -15977.317509331408, -13198.973321792284, -6134.525672736844, -24541.611914826863, -17562.43617086842, -187500.02235174447, -35589.78862640722, 0.014953125000000001, 0.9878359375, -0.0084140625, 192.0, 0.0, 0.0, 0.0, 0.0, 0.0, 0.0, 0.0, 0.0, 0.0, 1.742502898941298E9, 0.0, 2025-03-20 15:34:58.941
120.0, -15966.946299904144, -36800.068533428734, -40097.353171986724, -9955.73520132723, -17866.933985583066, -11201.174402376939, -24864.21464255031, -32302.450514131848, -6703.779900524605, -15986.817000724914, -13215.960647578318, -6148.339050810225, -24544.070606716945, -17569.342859905108, -187500.02235174447, -35593.00727760879, 0.014953125000000001, 0.9878359375, -0.0084140625, 192.0, 0.0, 0.0, 0.0, 0.0, 0.0, 0.0, 0.0, 0.0, 0.0, 1.742502899000367E9, 0.0, 2025-03-20 15:34:59.000
122.0, -15949.981325862567, -36784.10938788765, -40079.516479911385, -9940.87129126445, -17851.62304063118, -11191.652559238979, -24851.787072633157, -32293.465112860813, -6691.531144563097, -15996.674120029704, -13208.47281318579, -6146.461504275979, -24545.1434904508, -17569.63343258303, -187500.02235174447, -35594.72836193185, 0.014953125000000001, 0.9878359375, -0.0084140625, 192.0, 0.0, 0.0, 0.0, 0.0, 0.0, 0.0, 0.0, 0.0, 0.0, 1.742502899000551E9, 0.0, 2025-03-20 15:34:59.000
124.0, -15959.458465511618, -36783.88587044309, -40074.04030251984, -9937.652640062886, -17860.563738413304, -11184.745870202289, -24839.33715097155, -32282.53510982217, -6674.722632732705, -15981.96667217811, -13193.005406022718, -6134.480969247934, -24520.981254694612, -17559.038705711213, -187500.02235174447, -35576.95872508988, 0.014953125000000001, 0.9878359375, -0.0084140625, 192.0, 0.0, 0.0, 0.0, 0.0, 0.0, 0.0, 0.0, 0.0, 0.0, 1.74250289900072E9, 0.0, 2025-03-20 15:34:59.000
126.0, -15947.857910139313, -36792.20071938047, -40082.377503201664, -9945.811026789073, -17852.38299994266, -11195.675873240933, -24851.49649995524, -32288.95006048084, -6678.32126359001, -15984.626529768293, -13193.18421997836, -6134.123341336649, -24526.07745243042, -17556.08827544311, -187500.02235174447, -35577.47281521235, 0.0154765625, 0.98691796875, -0.00820703125, 192.0, 0.0, 64.0, 15.0, 104.0, 127.5, 96.0, 0.0, 0.0, 0.0, 1.742502899000925E9, 0.0, 2025-03-20 15:34:59.000
128.0, -15982.950148934146, -36805.254138142365, -40084.277401480365, -9939.619593574953, -17862.709505881012, -11185.036442880208, -24850.043636565642, -32291.34169713756, -6702.0588162015465, -15997.21056189663, -13212.56318242111, -6150.462466533479, -24533.073548444936, -17570.147522705498, -187500.02235174447, -35578.970382090854, 0.0154765625, 0.98691796875, -0.00820703125, 192.0, 0.0, 0.0, 0.0, 0.0, 0.0, 0.0, 0.0, 0.0, 0.0, 1.742502899001155E9, 0.0, 2025-03-20 15:34:59.001
130.0, -15951.143616574243, -36797.05104792727, -40088.07719803777, -9949.521416368654, -17844.87281380568, -11191.943131916898, -24853.798729634134, -32302.383458898483, -6677.985987423181, -15992.337881605374, -13203.689539872354, -6143.421667030057, -24538.125042691834, -17560.603327823083, -187500.02235174447, -35581.786701892226, 0.0154765625, 0.98691796875, -0.00820703125, 192.0, 0.0, 0.0, 0.0, 0.0, 0.0, 0.0, 0.0, 0.0, 0.0, 1.742502899001352E9, 0.0, 2025-03-20 15:34:59.001
132.0, -15994.081317672888, -36815.692402803, -40096.48145395297, -9948.82851229054, -17861.368401213695, -11187.539838259201, -24852.50232845573, -32292.05695296013, -6703.735197035694, -16000.69743403166, -13225.102511060539, -6161.0348416608385, -24541.187231682212, -17575.042554741212, -187500.02235174447, -35587.75461766179, 0.0154765625, 0.98691796875, -0.00820703125, 192.0, 0.0, 0.0, 0.0, 0.0, 0.0, 0.0, 0.0, 0.0, 0.0, 1.742502899001547E9, 0.0, 2025-03-20 15:34:59.001
134.0, -15959.369058533795, -36801.78961775179, -40094.15687252962, -9949.744933813206, -17861.72602912498, -11183.40476553497, -24857.039732580153, -32292.571043082604, -6696.180307409801, -15990.21446588212, -13216.56414467861, -6147.959071154484, -24542.058949715967, -17563.084371457622, -187500.02235174447, -35578.65745766848, 0.0154765625, 0.98691796875, -0.00820703125, 192.0, 0.0, 0.0, 0.0, 0.0, 0.0, 0.0, 0.0, 0.0, 0.0, 1.742502899001738E9, 0.0, 2025-03-20 15:34:59.001
136.0, -16005.056024200443, -36819.42514412703, -40101.91292785561, -9955.578739116043, -17869.68325015107, -11190.847896438587, -24856.123311057487, -32288.39126686946, -6699.600124311462, -15989.610968781826, -13221.079197058583, -6153.010565401383, -24547.065740473958, -17558.166987677454, -187500.02235174447, -35583.12780655954, 0.013738281250000001, 0.987458984375, -0.004103515625, 192.0, 0.0, 48.0, 15.0, 112.0, 0.0, 0.0, 0.0, 0.0, 0.0, 1.742502899059615E9, 0.0, 2025-03-20 15:34:59.059
138.0, -15959.570224233894, -36801.85667298516, -40092.16756727309, -9952.963585014772, -17853.455883676517, -11189.730309215822, -24851.429444721874, -32300.19298794186, -6704.673970302817, -16010.711015547637, -13228.343514006558, -6162.666519006076, -24548.496252119097, -17569.901653516492, -187500.02235174447, -35592.962574119876, 0.013738281250000001, 0.987458984375, -0.004103515625, 192.0, 0.0, 0.0, 0.0, 0.0, 0.0, 0.0, 0.0, 0.0, 0.0, 1.742502899059834E9, 0.0, 2025-03-20 15:34:59.059
140.0, -16003.73727127758, -36818.79929528228, -40088.613639904695, -9948.962622757272, -17861.547215169336, -11189.707957471366, -24847.115558041998, -32284.099731934042, -6694.3698161089205, -16002.440870099172, -13220.878031358485, -6156.005699158394, -24538.1920979252, -17567.979403493333, -187500.02235174447, -35587.26287928377, 0.013738281250000001, 0.987458984375, -0.004103515625, 192.0, 0.0, 0.0, 0.0, 0.0, 0.0, 0.0, 0.0, 0.0, 0.0, 1.742502899060016E9, 0.0, 2025-03-20 15:34:59.060
142.0, -15950.316602029396, -36799.04035318379, -40078.130671755156, -9946.63804133392, -17849.879604563666, -11188.45625978187, -24840.231220749763, -32290.179406425883, -6692.51462131913, -15995.869457229312, -13212.943162076852, -6146.439152531523, -24541.209583426666, -17570.19222619441, -187500.02235174447, -35588.15694906199, 0.013738281250000001, 0.987458984375, -0.004103515625, 192.0, 0.0, 0.0, 0.0, 0.0, 0.0, 0.0, 0.0, 0.0, 0.0, 1.74250289906018E9, 0.0, 2025-03-20 15:34:59.060
144.0, -15979.39622156575, -36798.392152594584, -40068.78764257284, -9922.095825921991, -17865.83875010476, -11175.805172420165, -24849.57424993208, -32284.233842400772, -6687.753699750149, -15983.978329179088, -13206.461156184812, -6139.3760012836465, -24517.919065704235, -17559.32927838913, -187500.02235174447, -35579.462120468874, 0.013738281250000001, 0.987458984375, -0.004103515625, 192.0, 0.0, 0.0, 0.0, 0.0, 0.0, 0.0, 0.0, 0.0, 0.0, 1.742502899060351E9, 0.0, 2025-03-20 15:34:59.060
146.0, -15929.596534919327, -36774.98987614988, -40063.40087215911, -9916.396131085889, -17852.941793554044, -11172.944149129886, -24855.519813957195, -32287.072513946598, -6680.690548502273, -15977.87630294279, -13194.950007790329, -6127.4625214889675, -24526.546839063983, -17546.097045671588, -187500.02235174447, -35570.34260873111, 0.013869140625000002, 0.9887294921875001, -0.0020517578125, 192.0, 0.0, 56.0, 15.0, 120.0, 0.0, 0.0, 0.0, 0.0, 0.0, 1.742502899060519E9, 0.0, 2025-03-20 15:34:59.060
148.0, -15972.0201458955, -36783.99762916537, -40061.568029113776, -9915.613820029954, -17849.745494096936, -11165.568073459635, -24844.902735340922, -32277.707133019823, -6681.495211302664, -15959.905500400722, -13192.200743222325, -6120.980515596929, -24525.76452800805, -17539.592688035096, -187500.02235174447, -35564.397044706, 0.013869140625000002, 0.9887294921875001, -0.0020517578125, 192.0, 0.0, 0.0, 0.0, 0.0, 0.0, 0.0, 0.0, 0.0, 0.0, 1.742502899060672E9, 0.0, 2025-03-20 15:34:59.060
150.0, -15938.62663967927, -36774.341675560674, -40063.937314026036, -9919.123043909436, -17824.130394951153, -11175.872227653532, -24839.091281782545, -32282.222185399794, -6684.289179359577, -15971.371945306295, -13195.03941476815, -6126.300230777291, -24527.910295475758, -17548.488682328305, -187500.02235174447, -35563.21240224986, 0.013869140625000002, 0.9887294921875001, -0.0020517578125, 192.0, 0.0, 0.0, 0.0, 0.0, 0.0, 0.0, 0.0, 0.0, 0.0, 1.742502899119425E9, 0.0, 2025-03-20 15:34:59.119
152.0, -15992.628454283293, -36810.149170178076, -40085.23852649194, -9936.177424928836, -17858.037991289853, -11192.747794717288, -24847.182613275363, -32296.840226273565, -6700.3600836229425, -15992.024957182999, -13210.32800797558, -6141.097085606705, -24530.033711199012, -17557.2952696437, -187500.02235174447, -35574.634143666524, 0.013869140625000002, 0.9887294921875001, -0.0020517578125, 192.0, 0.0, 0.0, 0.0, 0.0, 0.0, 0.0, 0.0, 0.0, 0.0, 1.742502899119584E9, 0.0, 2025-03-20 15:34:59.119
154.0, -15948.997849106534, -36787.95388793396, -40079.963514800496, -9928.577831814031, -17849.119645252187, -11185.461126024858, -24849.06015980961, -32293.10748494953, -6702.304685390554, -15993.276654872496, -13223.493185459756, -6153.614062501677, -24539.555554336974, -17561.407990623473, -187500.02235174447, -35581.0490943252, 0.013869140625000002, 0.9887294921875001, -0.0020517578125, 192.0, 0.0, 0.0, 0.0, 0.0, 0.0, 0.0, 0.0, 0.0, 0.0, 1.742502899120734E9, 0.0, 2025-03-20 15:34:59.120
156.0, -15987.912236203223, -36803.84597824168, -40078.1083200107, -9930.991820215204, -17858.708543623514, -11176.87805615402, -24843.1145957845, -32289.128874436487, -6693.341635863976, -15972.601291251338, -13209.27747598618, -6137.900786149596, -24531.33011237742, -17552.690810285905, -187500.02235174447, -35559.63612313702, 0.013934570312500002, 0.98836474609375, 9.7412109375E-4, 192.0, 0.0, 56.0, 15.0, 112.0, 0.0, 16.0, 0.0, 0.0, 0.0, 1.742502899120856E9, 0.0, 2025-03-20 15:34:59.120
158.0, -15967.862721426813, -36807.489312587895, -40097.286116753356, -9944.760494799673, -17862.28482273636, -11188.255094081771, -24859.274907025687, -32300.39415364196, -6710.1054442054565, -16001.815021254424, -13235.160796065426, -6164.141734140127, -24542.662446816263, -17562.1455981905, -187500.02235174447, -35568.66622789696, 0.013934570312500002, 0.98836474609375, 9.7412109375E-4, 192.0, 0.0, 0.0, 0.0, 0.0, 0.0, 0.0, 0.0, 0.0, 0.0, 1.742502899120982E9, 0.0, 2025-03-20 15:34:59.120
160.0, -16001.636207298781, -36824.74485930739, -40097.93431734256, -9951.890701280916, -17859.557909912815, -11185.014091135752, -24854.983372090268, -32297.980165240788, -6715.7380838081945, -16009.88400100279, -13237.194804810859, -6167.047460919316, -24559.739179580116, -17567.912348259968, -187500.02235174447, -35578.210422779375, 0.013934570312500002, 0.98836474609375, 9.7412109375E-4, 192.0, 0.0, 0.0, 0.0, 0.0, 0.0, 0.0, 0.0, 0.0, 0.0, 1.742502899121097E9, 0.0, 2025-03-20 15:34:59.121
162.0, -15976.40108780874, -36806.10350443167, -40090.69235213904, -9950.549596613599, -17866.308136738317, -11184.812925435654, -24851.228279021776, -32295.47676986179, -6712.720598306728, -16000.719785776113, -13236.81482515512, -6164.834638218241, -24547.42336838524, -17559.843368511603, -187500.02235174447, -35576.57874543414, 0.013934570312500002, 0.98836474609375, 9.7412109375E-4, 192.0, 0.0, 0.0, 0.0, 0.0, 0.0, 0.0, 0.0, 0.0, 0.0, 1.742502899121211E9, 0.0, 2025-03-20 15:34:59.121
164.0, -15988.247512370053, -36813.85955975766, -40088.77010211589, -9952.315384425567, -17863.737686125958, -11187.539838259201, -24851.004761577224, -32296.9743367403, -6700.717711534227, -15997.992872952567, -13226.4212639834, -6159.872550949162, -24542.036597971513, -17569.409915138473, -187500.02235174447, -35583.597193193105, 0.013934570312500002, 0.98836474609375, 9.7412109375E-4, 192.0, 0.0, 0.0, 0.0, 0.0, 0.0, 0.0, 0.0, 0.0, 0.0, 1.742502899121324E9, 0.0, 2025-03-20 15:34:59.121
166.0, -15984.715936746114, -36817.1899696815, -40095.90030859713, -9961.16667522987, -17863.044782047844, -11204.482460556324, -24858.090264569553, -32304.328060666096, -6708.9878569826915, -16004.676044544703, -13233.015028597716, -6165.281673107347, -24539.510850848063, -17573.455580884885, -187500.02235174447, -35589.878033385045, 0.015967285156250004, 0.9861823730468751, 0.0024870605468750003, 192.0, 0.0, 72.0, 15.0, 96.0, 0.0, 16.0, 0.0, 0.0, 0.0, 1.742502899180181E9, 0.0, 2025-03-20 15:34:59.180
168.0, -15986.191151880164, -36819.22397842693, -40086.512575925895, -9963.02187001966, -17856.92040406709, -11205.153012889983, -24856.19036629085, -32304.551578110648, -6715.447511130275, -16009.749890536057, -13238.535909478178, -6171.629568532654, -24549.032693986024, -17589.34767119261, -187500.02235174447, -35601.277423057254, 0.015967285156250004, 0.9861823730468751, 0.0024870605468750003, 192.0, 0.0, 0.0, 0.0, 0.0, 0.0, 0.0, 0.0, 0.0, 0.0, 1.742502899180305E9, 0.0, 2025-03-20 15:34:59.180
170.0, -15987.375794336296, -36810.707963789464, -40092.815767862296, -9958.663279850874, -17863.35770647022, -11205.063605912163, -24856.97267734679, -32302.070534476108, -6702.617609812929, -16005.145431178265, -13229.148176806948, -6164.298196351314, -24538.639132814307, -17586.71016534688, -187500.02235174447, -35587.66521068397, 0.015967285156250004, 0.9861823730468751, 0.0024870605468750003, 192.0, 0.0, 0.0, 0.0, 0.0, 0.0, 0.0, 0.0, 0.0, 0.0, 1.742502899180452E9, 0.0, 2025-03-20 15:34:59.180
172.0, -15975.238797097063, -36808.04810619928, -40087.31723872629, -9954.818779804562, -17861.815436102803, -11202.806079722177, -24861.420674493394, -32305.669165333413, -6699.2424964001775, -16007.78293702399, -13225.23662152727, -6161.548931783311, -24548.250382930088, -17578.68588908743, -187500.02235174447, -35590.99562060781, 0.015967285156250004, 0.9861823730468751, 0.0024870605468750003, 192.0, 0.0, 0.0, 0.0, 0.0, 0.0, 0.0, 0.0, 0.0, 0.0, 1.742502899180574E9, 0.0, 2025-03-20 15:34:59.180
174.0, -15990.437983326672, -36810.48444634491, -40091.474663194975, -9955.802256560595, -17862.39658145864, -11195.474707540836, -24855.78803489066, -32300.550615853146, -6704.85278425846, -16007.715881790626, -13227.292982017158, -6161.0348416608385, -24552.47486263214, -17572.628566340038, -187500.02235174447, -35585.13946356052, 0.015967285156250004, 0.9861823730468751, 0.0024870605468750003, 192.0, 0.0, 0.0, 0.0, 0.0, 0.0, 0.0, 0.0, 0.0, 0.0, 1.742502899180694E9, 0.0, 2025-03-20 15:34:59.180
176.0, -15970.343765061352, -36799.12976016161, -40092.72636088447, -9952.069515236559, -17861.211939002507, -11183.561227746157, -24860.25838378172, -32302.606976343035, -6693.520449819619, -15992.181419394186, -13219.514574946712, -6150.976556655951, -24535.487536846107, -17573.38852565152, -187500.02235174447, -35587.26287928377, 0.018983642578125, 0.9840911865234375, 0.0022435302734375, 192.0, 0.0, 88.0, 15.0, 88.0, 0.0, 8.0, 0.0, 0.0, 0.0, 1.742502899180832E9, 0.0, 2025-03-20 15:34:59.180
178.0, -16003.44669859966, -36824.49899011839, -40106.00329709092, -9962.619538619463, -17876.433476976574, -11190.758489460766, -24856.235069779763, -32305.266833933216, -6720.4319501438085, -16003.290236388475, -13239.072351345105, -6168.679138264553, -24542.058949715967, -17574.57316810765, -187500.02235174447, -35576.98107683433, 0.018983642578125, 0.9840911865234375, 0.0022435302734375, 192.0, 0.0, 0.0, 0.0, 0.0, 0.0, 0.0, 0.0, 0.0, 0.0, 1.742502899180953E9, 0.0, 2025-03-20 15:34:59.180
180.0, -15976.244625597552, -36808.673955044025, -40107.43380873607, -9960.965509529771, -17870.71143039601, -11192.658387739468, -24857.844395380547, -32302.651679831946, -6709.367836638432, -16016.79069003948, -13239.944069378862, -6172.166010399582, -24551.849013787392, -17574.372002407552, -187500.02235174447, -35586.122940316556, 0.018983642578125, 0.9840911865234375, 0.0022435302734375, 192.0, 0.0, 0.0, 0.0, 0.0, 0.0, 0.0, 0.0, 0.0, 0.0, 1.742502899239869E9, 0.0, 2025-03-20 15:34:59.239
182.0, -16001.613855554326, -36815.51358884735, -40092.324029484276, -9957.076305994548, -17863.29065123685, -11190.914951671954, -24852.47997671127, -32291.67697330439, -6721.057798988557, -15984.335957090374, -13240.502862990244, -6161.638338761132, -24529.743138521095, -17573.299118673698, -187500.02235174447, -35581.29496351421, 0.018983642578125, 0.9840911865234375, 0.0022435302734375, 192.0, 0.0, 0.0, 0.0, 0.0, 0.0, 0.0, 0.0, 0.0, 0.0, 1.742502899240008E9, 0.0, 2025-03-20 15:34:59.240
184.0, -15962.63241322427, -36800.5379200623, -40079.13650025565, -9953.008288503683, -17844.604592872216, -11179.604968977568, -24848.031979564665, -32289.10652269203, -6702.796423768571, -15998.350500863851, -13227.292982017158, -6158.263225348381, -24556.96756326766, -17563.374944135543, -187500.02235174447, -35580.870280369556, 0.018983642578125, 0.9840911865234375, 0.0022435302734375, 192.0, 0.0, 0.0, 0.0, 0.0, 0.0, 0.0, 0.0, 0.0, 0.0, 1.742502899240127E9, 0.0, 2025-03-20 15:34:59.240
186.0, -15998.484611330583, -36812.876083001625, -40083.025703790874, -9952.315384425567, -17860.29551747984, -11176.632186965011, -24843.58398241806, -32280.836377243566, -6694.749795764661, -15995.601236295848, -13221.012141825217, -6155.849236947208, -24546.372836395843, -17559.932775489426, -187500.02235174447, -35573.91888784395, 0.0184918212890625, 0.9860455932617187, 0.0031217651367187503, 192.0, 0.0, 72.0, 15.0, 112.0, 0.0, 16.0, 0.0, 0.0, 0.0, 1.742502899240237E9, 0.0, 2025-03-20 15:34:59.240
188.0, -15945.578032204872, -36794.32413510372, -40080.45525317851, -9953.835303048529, -17843.844633560733, -11196.100556385583, -24847.696703397836, -32290.15705468143, -6696.56028706554, -15992.919026961212, -13216.608848167522, -6150.261300833381, -24538.66148455876, -17561.85502551258, -187500.02235174447, -35576.95872508988, 0.0184918212890625, 0.9860455932617187, 0.0031217651367187503, 192.0, 0.0, 0.0, 0.0, 0.0, 0.0, 0.0, 0.0, 0.0, 0.0, 1.742502899240353E9, 0.0, 2025-03-20 15:34:59.240
190.0, -15985.051212912944, -36807.44460909899, -40075.29200020934, -9945.11812271096, -17848.851424318724, -11193.239533095304, -24842.779319617668, -32277.349505108537, -6695.554458565052, -15995.98121595159, -13213.233734754771, -6152.183550856537, -24520.601275038873, -17563.106723202076, -187500.02235174447, -35576.265821011766, 0.0184918212890625, 0.9860455932617187, 0.0031217651367187503, 192.0, 0.0, 0.0, 0.0, 0.0, 0.0, 0.0, 0.0, 0.0, 0.0, 1.742502899240465E9, 0.0, 2025-03-20 15:34:59.240
192.0, -15935.206822777609, -36786.76924547783, -40079.69529386703, -9951.711887325275, -17849.454921419016, -11198.492193042302, -24852.032941822166, -32286.133740679474, -6696.873211487915, -15983.620701267804, -13211.020912053695, -6142.996983885406, -24538.549725836485, -17563.687868557914, -187500.02235174447, -35579.75269314679, 0.0184918212890625, 0.9860455932617187, 0.0031217651367187503, 192.0, 0.0, 0.0, 0.0, 0.0, 0.0, 0.0, 0.0, 0.0, 0.0, 1.742502899240606E9, 0.0, 2025-03-20 15:34:59.240
194.0, -15964.420552780695, -36790.59139377969, -40068.273552450366, -9932.243517904702, -17842.659991104603, -11179.917893399941, -24833.81627009109, -32262.776167723678, -6680.332920590988, -15977.563378520415, -13206.215286995804, -6142.415838529568, -24520.064833171946, -17560.80449352318, -187500.02235174447, -35574.03064656623, 0.0184918212890625, 0.9860455932617187, 0.0031217651367187503, 192.0, 0.0, 0.0, 0.0, 0.0, 0.0, 0.0, 0.0, 0.0, 0.0, 1.742502899240724E9, 0.0, 2025-03-20 15:34:59.240
196.0, -15918.15244175821, -36772.06179762624, -40068.29590419482, -9932.847015004994, -17834.635714845146, -11192.300759828182, -24848.72488364278, -32273.996743440242, -6690.70413001825, -15963.794703935946, -13198.928618303373, -6130.323544779247, -24531.19600191069, -17544.264202626255, -187500.02235174447, -35559.65847488147, 0.01724591064453125, 0.9850227966308593, 0.002560882568359375, 192.0, 0.0, 64.0, 15.0, 96.0, 0.0, 8.0, 0.0, 0.0, 0.0, 1.742502899300324E9, 0.0, 2025-03-20 15:34:59.300
198.0, -15957.737381188559, -36786.590431522185, -40077.6612851216, -9936.244480162202, -17844.761055083403, -11175.939282886897, -24840.544145172138, -32261.546821778637, -6682.32222584751, -15963.191206835654, -13196.380519435468, -6137.990193127417, -24527.977350709123, -17536.821071722636, -187500.02235174447, -35567.10160578509, 0.01724591064453125, 0.9850227966308593, 0.002560882568359375, 192.0, 0.0, 0.0, 0.0, 0.0, 0.0, 0.0, 0.0, 0.0, 0.0, 1.742502899300511E9, 0.0, 2025-03-20 15:34:59.300
200.0, -15915.872563823768, -36774.47578602741, -40076.76721534338, -9940.49131160871, -17830.29947642082, -11184.432945779914, -24842.958133573313, -32272.074493417087, -6684.89267645987, -15980.290291343963, -13196.447574668835, -6141.097085606705, -24521.048309927977, -17544.867699726547, -187500.02235174447, -35563.19005050541, 0.01724591064453125, 0.9850227966308593, 0.002560882568359375, 192.0, 0.0, 0.0, 0.0, 0.0, 0.0, 0.0, 0.0, 0.0, 0.0, 1.742502899300627E9, 0.0, 2025-03-20 15:34:59.300
202.0, -15946.270936282986, -36789.78673097929, -40070.75459608491, -9936.512701095666, -17842.481177148962, -11181.795439934187, -24835.06796778059, -32262.44089155685, -6684.870324715415, -15972.10955287332, -13193.340682189546, -6140.694754206509, -24530.257228643564, -17537.245754867286, -187500.02235174447, -35564.12882377253, 0.01724591064453125, 0.9850227966308593, 0.002560882568359375, 192.0, 0.0, 0.0, 0.0, 0.0, 0.0, 0.0, 0.0, 0.0, 0.0, 1.742502899300742E9, 0.0, 2025-03-20 15:34:59.300
204.0, -15909.234095720542, -36771.23478308139, -40070.151098984614, -9938.144378440902, -17827.77372929737, -11188.88094292652, -24836.610238148005, -32269.504042804725, -6680.064699657524, -15966.074581870387, -13190.971397277284, -6142.080562362738, -24526.122155919333, -17538.18452813441, -187500.02235174447, -35563.07829178313, 0.01724591064453125, 0.9850227966308593, 0.002560882568359375, 192.0, 0.0, 0.0, 0.0, 0.0, 0.0, 0.0, 0.0, 0.0, 0.0, 1.742502899300862E9, 0.0, 2025-03-20 15:34:59.300
206.0, -15957.44680851064, -36798.258042127854, -40084.52327066938, -9950.594300102508, -17850.483101663962, -11189.484440026814, -24842.041712050643, -32272.409769583915, -6691.017054440625, -15967.706259215625, -13199.219190981292, -6151.423591545056, -24528.782013509513, -17546.81230149416, -187500.02235174447, -35567.83921335211, 0.016622955322265626, 0.9865113983154297, 0.007280441284179688, 192.0, 0.0, 64.0, 15.0, 112.0, 0.0, 48.0, 0.0, 0.0, 0.0, 1.74250289930097E9, 0.0, 2025-03-20 15:34:59.300
208.0, -15918.644180136227, -36774.85576568315, -40072.520383896874, -9940.58071858653, -17838.189642213543, -11186.891637669998, -24839.135985271452, -32269.43698757136, -6677.136621133879, -15963.817055680402, -13191.172562977383, -6146.729725209442, -24516.309740103454, -17539.905612457467, -187500.02235174447, -35562.85477433858, 0.016622955322265626, 0.9865113983154297, 0.007280441284179688, 192.0, 0.0, 0.0, 0.0, 0.0, 0.0, 0.0, 0.0, 0.0, 0.0, 1.742502899301087E9, 0.0, 2025-03-20 15:34:59.301
210.0, -15944.751017660024, -36788.31151584524, -40074.55439264231, -9948.11325646797, -17846.14686323963, -11190.959655160863, -24844.209831262808, -32268.297048604138, -6687.9772171947025, -15969.695564472147, -13197.051071769129, -6152.6976409790095, -24524.579885551917, -17545.247679382286, -187500.02235174447, -35569.247373252794, 0.016622955322265626, 0.9865113983154297, 0.007280441284179688, 192.0, 0.0, 0.0, 0.0, 0.0, 0.0, 0.0, 0.0, 0.0, 0.0, 1.742502899360596E9, 0.0, 2025-03-20 15:34:59.360
212.0, -15922.287514482441, -36774.4310825385, -40072.07334900777, -9934.746913283696, -17835.39567415663, -11181.97425388983, -24836.29731372563, -32267.939420692855, -6674.677929243795, -15942.717008914593, -13184.958778018807, -6138.236062316426, -24535.80046126848, -17539.547984546185, -187500.02235174447, -35554.20464923437, 0.016622955322265626, 0.9865113983154297, 0.007280441284179688, 192.0, 0.0, 0.0, 0.0, 0.0, 0.0, 0.0, 0.0, 0.0, 0.0, 1.742502899360727E9, 0.0, 2025-03-20 15:34:59.360
214.0, -15928.389540718741, -36779.97431516342, -40078.24243047743, -9944.15699769938, -17851.086598764254, -11194.915913929453, -24841.862898095, -32272.834452728566, -6681.94224619177, -15973.182436607176, -13191.150211232927, -6149.255472332892, -24527.53031582002, -17554.43424635342, -187500.02235174447, -35569.18031801943, 0.016622955322265626, 0.9865113983154297, 0.007280441284179688, 192.0, 0.0, 0.0, 0.0, 0.0, 0.0, 0.0, 0.0, 0.0, 0.0, 1.742502899360859E9, 0.0, 2025-03-20 15:34:59.360
216.0, -15914.889087067735, -36766.4291580235, -40067.80416581681, -9933.450512105288, -17842.883508549156, -11184.008262635263, -24843.941610329344, -32269.459339315814, -6676.153144377845, -15953.043514852943, -13186.32223443058, -6139.308946050281, -24521.18242039471, -17537.066940911645, -187500.02235174447, -35559.27849522573, 0.016311477661132813, 0.9842556991577148, 0.006640220642089844, 192.0, 0.0, 64.0, 15.0, 88.0, 0.0, 24.0, 0.0, 0.0, 0.0, 1.742502899360989E9, 0.0, 2025-03-20 15:34:59.360
218.0, -15923.561563916393, -36775.056931383246, -40068.67588385056, -9930.701247537285, -17842.838805060244, -11187.383376048014, -24842.39933996193, -32267.693551503846, -6678.544781034563, -15957.849139910835, -13183.148286717927, -6135.7326669374315, -24521.271827372533, -17537.17869963392, -187500.02235174447, -35559.50201267028, 0.016311477661132813, 0.9842556991577148, 0.006640220642089844, 192.0, 0.0, 0.0, 0.0, 0.0, 0.0, 0.0, 0.0, 0.0, 0.0, 1.742502899361121E9, 0.0, 2025-03-20 15:34:59.361
220.0, -15919.67236038117, -36765.49038475638, -40058.3046744233, -9926.119139923947, -17840.134243981152, -11184.432945779914, -24835.470299180783, -32256.92001067639, -6669.335862318977, -15951.277727040975, -13180.376670405469, -6128.4012947560905, -24508.285463844, -17538.18452813441, -187500.02235174447, -35547.18620147541, 0.016311477661132813, 0.9842556991577148, 0.006640220642089844, 192.0, 0.0, 0.0, 0.0, 0.0, 0.0, 0.0, 0.0, 0.0, 0.0, 1.74250289936125E9, 0.0, 2025-03-20 15:34:59.361
222.0, -15920.119395270276, -36764.55161148925, -40071.134575740645, -9928.957811469772, -17835.14980496762, -11181.728384700822, -24829.72590085577, -32258.90931593291, -6677.851876956449, -15963.146503346743, -13177.672109326377, -6129.720047678954, -24530.972484466136, -17533.736530987804, -187500.02235174447, -35556.46217542436, 0.016311477661132813, 0.9842556991577148, 0.006640220642089844, 192.0, 0.0, 0.0, 0.0, 0.0, 0.0, 0.0, 0.0, 0.0, 0.0, 1.74250289936137E9, 0.0, 2025-03-20 15:34:59.361
224.0, -15925.10383428381, -36766.98795163488, -40057.857639534195, -9921.738198010707, -17828.82426128677, -11179.82848642212, -24827.982464788256, -32256.942362420843, -6676.957807178236, -15940.727703658069, -13181.896589028429, -6125.920251121552, -24521.42828958372, -17541.693752013893, -187500.02235174447, -35549.15315498748, 0.016311477661132813, 0.9842556991577148, 0.006640220642089844, 192.0, 0.0, 0.0, 0.0, 0.0, 0.0, 0.0, 0.0, 0.0, 0.0, 1.742502899361485E9, 0.0, 2025-03-20 15:34:59.361
226.0, -15923.136880771743, -36777.157995362046, -40080.94699155653, -9940.178387186335, -17836.44620614603, -11194.938265673909, -24839.672427138383, -32268.878193959976, -6666.787763451071, -15965.314622558908, -13181.60601635051, -6135.062114603772, -24516.600312781375, -17543.034856681214, -187500.02235174447, -35563.50297492778, 0.012155738830566407, 0.9851278495788574, 0.007320110321044922, 192.0, 0.0, 32.0, 15.0, 104.0, 0.0, 32.0, 0.0, 0.0, 0.0, 1.742502899419962E9, 0.0, 2025-03-20 15:34:59.419
228.0, -15949.981325862567, -36793.85474847016, -40084.18799450254, -9943.262927921169, -17848.851424318724, -11195.161783118461, -24840.655903894414, -32273.326191106582, -6696.694397532273, -15974.836465696868, -13205.812955595607, -6154.709297979987, -24535.643999057294, -17556.37884812103, -187500.02235174447, -35569.00150406379, 0.012155738830566407, 0.9851278495788574, 0.007320110321044922, 192.0, 0.0, 0.0, 0.0, 0.0, 0.0, 0.0, 0.0, 0.0, 0.0, 1.742502899420091E9, 0.0, 2025-03-20 15:34:59.420
230.0, -15914.24088647853, -36774.4310825385, -40084.12093926918, -9943.598204087997, -17834.09927297822, -11182.555399245668, -24832.519868912685, -32265.659542758414, -6683.551571792552, -15968.287404571463, -13198.570990392089, -6150.5518735113, -24521.47299307263, -17547.505205572274, -187500.02235174447, -35567.61569590756, 0.012155738830566407, 0.9851278495788574, 0.007320110321044922, 192.0, 0.0, 0.0, 0.0, 0.0, 0.0, 0.0, 0.0, 0.0, 0.0, 1.742502899420201E9, 0.0, 2025-03-20 15:34:59.420
232.0, -15935.206822777609, -36772.59823949316, -40071.24633446292, -9937.607936573975, -17849.320810952286, -11188.210390592862, -24828.38479618845, -32256.875307187478, -6683.797440981561, -15955.748075932037, -13188.535057131656, -6139.778332683842, -24515.460373814152, -17540.442054324398, -187500.02235174447, -35556.4398236799, 0.012155738830566407, 0.9851278495788574, 0.007320110321044922, 192.0, 0.0, 0.0, 0.0, 0.0, 0.0, 0.0, 0.0, 0.0, 0.0, 1.742502899420313E9, 0.0, 2025-03-20 15:34:59.420
234.0, -15902.282703194942, -36766.0268266233, -40080.74582585643, -9948.895567523905, -17848.09146500724, -11197.464012797358, -24844.902735340922, -32275.00257194073, -6664.597292494452, -15956.798607921435, -13179.728469816266, -6138.705448949987, -24526.412728597254, -17538.60921127906, -187500.02235174447, -35568.30859998567, 0.012155738830566407, 0.9851278495788574, 0.007320110321044922, 192.0, 0.0, 0.0, 0.0, 0.0, 0.0, 0.0, 0.0, 0.0, 0.0, 1.742502899420441E9, 0.0, 2025-03-20 15:34:59.420
236.0, -15958.229119566575, -36787.082169900204, -40081.57284040128, -9945.565157600066, -17847.599726629225, -11205.93532394592, -24837.660770137405, -32268.855842215522, -6684.244475870666, -15964.10762835832, -13191.150211232927, -6142.393486785113, -24534.66052230126, -17559.37398187804, -187500.02235174447, -35578.076312312645, 0.011077869415283204, 0.9875639247894287, 0.0056600551605224605, 192.0, 0.0, 40.0, 15.0, 120.0, 0.0, 16.0, 0.0, 0.0, 0.0, 1.742502899420569E9, 0.0, 2025-03-20 15:34:59.420
238.0, -15919.180622003154, -36781.181309364, -40086.55727941481, -9956.428105405344, -17841.184775970552, -11196.212315107861, -24848.8142906206, -32285.68670579037, -6689.765356751127, -15984.134791390275, -13194.212400223303, -6152.272957834359, -24528.223219898133, -17553.13784517501, -187500.02235174447, -35577.31635300116, 0.011077869415283204, 0.9875639247894287, 0.0056600551605224605, 192.0, 0.0, 0.0, 0.0, 0.0, 0.0, 0.0, 0.0, 0.0, 0.0, 1.742502899420699E9, 0.0, 2025-03-20 15:34:59.420
240.0, -15964.286442313964, -36797.25221362737, -40087.294886981836, -9949.610823346475, -17850.326639452775, -11185.25996032476, -24843.1145957845, -32275.226089385284, -6694.258057386644, -15977.518675031504, -13203.957760805817, -6162.97944342845, -24534.95109497918, -17556.08827544311, -187500.02235174447, -35577.42811172344, 0.011077869415283204, 0.9875639247894287, 0.0056600551605224605, 192.0, 0.0, 0.0, 0.0, 0.0, 0.0, 0.0, 0.0, 0.0, 0.0, 1.742502899479776E9, 0.0, 2025-03-20 15:34:59.479
242.0, -15896.784174058936, -36766.04917836776, -40071.51455539639, -9936.15507318438, -17835.708598579004, -11177.146277087484, -24832.519868912685, -32263.267906101693, -6672.263940842622, -15964.867587669802, -13190.122030987983, -6148.294347321314, -24516.04151916999, -17540.106778157566, -187500.02235174447, -35566.83338485163, 0.011077869415283204, 0.9875639247894287, 0.0056600551605224605, 192.0, 0.0, 0.0, 0.0, 0.0, 0.0, 0.0, 0.0, 0.0, 0.0, 1.74250289947996E9, 0.0, 2025-03-20 15:34:59.479
244.0, -15947.075599083377, -36787.30568734476, -40077.0577880213, -9933.986953972215, -17852.561813898305, -11182.890675412498, -24835.559706158605, -32265.212507869306, -6686.993740438669, -15952.551776474927, -13191.463135655302, -6147.5343880098335, -24522.255304128565, -17536.597554278083, -187500.02235174447, -35557.40094869148, 0.011077869415283204, 0.9875639247894287, 0.0056600551605224605, 192.0, 0.0, 0.0, 0.0, 0.0, 0.0, 0.0, 0.0, 0.0, 0.0, 1.74250289948008E9, 0.0, 2025-03-20 15:34:59.480
246.0, -15904.964912529578, -36769.69251271397, -40077.75069209942, -9935.171596428347, -17843.9116887941, -11182.711861456855, -24830.7093776118, -32268.229993370773, -6674.36500482142, -15953.11057008631, -13183.08123148456, -6140.448885017501, -24518.924894204723, -17527.165118117944, -187500.02235174447, -35557.22213473584, 0.013538934707641602, 0.9897819623947144, 8.300275802612302E-4, 192.0, 0.0, 64.0, 15.5, 0.0, 127.5, 112.0, 0.0, 0.0, 0.0, 1.742502899480198E9, 0.0, 2025-03-20 15:34:59.480
248.0, -15966.119285359298, -36799.15211190607, -40089.93239282756, -9948.11325646797, -17864.83292160427, -11189.998530149285, -24847.361427231008, -32279.24940338724, -6682.366929336421, -15984.268901857007, -13195.240580468248, -6150.9989084004055, -24523.596408795886, -17559.53044408923, -187500.02235174447, -35568.912097085966, 0.013538934707641602, 0.9897819623947144, 8.300275802612302E-4, 192.0, 0.0, 0.0, 0.0, 0.0, 0.0, 0.0, 0.0, 0.0, 0.0, 1.742502899480329E9, 0.0, 2025-03-20 15:34:59.480
250.0, -15915.827860334857, -36768.15024234656, -40079.02474153337, -9937.965564485261, -17844.44813066103, -11191.339634816604, -24838.10780502651, -32272.700342261833, -6683.126888647901, -15960.933680645667, -13194.413565923402, -6144.069867619261, -24531.263057144053, -17551.394409107495, -187500.02235174447, -35571.013161064766, 0.013538934707641602, 0.9897819623947144, 8.300275802612302E-4, 192.0, 0.0, 0.0, 0.0, 0.0, 0.0, 0.0, 0.0, 0.0, 0.0, 1.742502899480443E9, 0.0, 2025-03-20 15:34:59.480
252.0, -15955.748075932037, -36783.95292567646, -40081.774006101376, -9934.098712694493, -17829.651275831613, -11174.642881708489, -24830.329397956062, -32262.127967134475, -6685.94320844927, -15967.907424915724, -13193.13951648945, -6138.750152438897, -24530.078414687923, -17548.131054417023, -187500.02235174447, -35568.10743428558, 0.013538934707641602, 0.9897819623947144, 8.300275802612302E-4, 192.0, 0.0, 0.0, 0.0, 0.0, 0.0, 0.0, 0.0, 0.0, 0.0, 1.742502899480553E9, 0.0, 2025-03-20 15:34:59.480
254.0, -15920.38761620374, -36781.67304774202, -40087.31723872629, -9948.135608212426, -17843.084674249254, -11182.242474823293, -24834.933857313856, -32270.889850960953, -6692.604028296952, -15976.915177931212, -13195.553504890622, -6148.607271743688, -24521.18242039471, -17550.969725962845, -187500.02235174447, -35565.29111448421, 0.013538934707641602, 0.9897819623947144, 8.300275802612302E-4, 192.0, 0.0, 0.0, 0.0, 0.0, 0.0, 0.0, 0.0, 0.0, 0.0, 1.742502899480669E9, 0.0, 2025-03-20 15:34:59.480
0.0, -15952.864700897302, -36788.557385034255, -40074.912020553595, -9942.100637209493, -17850.63956387515, -11175.715765442344, -24832.00577879021, -32265.883060202967, -6671.168705364312, -15962.34184054635, -13189.518533887689, -6145.768600197864, -24515.99681568108, -17540.978496191325, -187500.02235174447, -35569.537945930715, 0.0147694673538208, 0.9908909811973572, -0.004584986209869385, 192.0, 0.0, 64.0, 15.5, 0.0, 127.5, 88.0, 0.0, 0.0, 0.0, 1.742502899539917E9, 0.0, 2025-03-20 15:34:59.539
2.0, -15922.712197627092, -36771.637114481586, -40075.94020079854, -9939.574890086042, -17842.34706668223, -11180.253169566771, -24830.28469446715, -32262.91027819041, -6682.2775223585995, -15963.168855091199, -13192.692481600343, -6147.221463587459, -24519.260170371555, -17542.319600858642, -187500.02235174447, -35564.8440795951, 0.0147694673538208, 0.9908909811973572, -0.004584986209869385, 192.0, 0.0, 0.0, 0.0, 0.0, 0.0, 0.0, 0.0, 0.0, 0.0, 1.742502899540062E9, 0.0, 2025-03-20 15:34:59.540
4.0, -15932.122282042776, -36772.37472204861, -40070.95576178501, -9934.3445818835, -17839.620153858683, -11177.034518365208, -24820.87461005147, -32257.322342076583, -6669.93935941927, -15955.882186398769, -13181.114277972494, -6138.325469294246, -24514.61100752485, -17541.067903169143, -187500.02235174447, -35566.65457089598, 0.0147694673538208, 0.9908909811973572, -0.004584986209869385, 192.0, 0.0, 0.0, 0.0, 0.0, 0.0, 0.0, 0.0, 0.0, 0.0, 1.742502899540183E9, 0.0, 2025-03-20 15:34:59.540
6.0, -15918.353607458308, -36762.78582367728, -40062.12682272516, -9927.124968424436, -17825.47149961847, -11170.708974684356, -24818.237104205742, -32248.336940805548, -6671.995719909159, -15947.857910139313, -13170.676013311866, -6124.869719132152, -24510.341824333886, -17524.79583320568, -187500.02235174447, -35550.42720442143, 0.0147694673538208, 0.9908909811973572, -0.004584986209869385, 192.0, 0.0, 0.0, 0.0, 0.0, 0.0, 0.0, 0.0, 0.0, 0.0, 1.74250289954032E9, 0.0, 2025-03-20 15:34:59.540
8.0, -15949.556642717916, -36783.75175997636, -40089.038323049346, -9952.360087914478, -17854.10408426572, -11190.266751082749, -24845.841508608046, -32282.311592377617, -6684.602103781951, -15973.741230218558, -13186.903379786418, -6140.40418152859, -24527.306798375466, -17550.94737421839, -187500.02235174447, -35565.31346622866, 0.0147694673538208, 0.9908909811973572, -0.004584986209869385, 192.0, 0.0, 0.0, 0.0, 0.0, 0.0, 0.0, 0.0, 0.0, 0.0, 1.742502899540443E9, 0.0, 2025-03-20 15:34:59.540
10.0, -15933.0610553099, -36771.88298367059, -40067.223020460966, -9933.91989873885, -17850.2148807305, -11179.49321025529, -24830.843488078535, -32274.041446929154, -6684.535048548585, -15974.009451152022, -13193.98888277875, -6148.920196166062, -24524.80340299647, -17556.870586499048, -187500.02235174447, -35576.243469267305, 0.0133847336769104, 0.9884454905986786, -0.006292493104934693, 192.0, 0.0, 48.0, 15.0, 104.0, 127.5, 96.0, 0.0, 0.0, 0.0, 1.742502899540563E9, 0.0, 2025-03-20 15:34:59.540
12.0, -15934.044532065933, -36773.22408833791, -40074.80026183132, -9937.071494707048, -17855.892223822146, -11186.221085336338, -24838.934819571357, -32273.594412040045, -6663.323243060499, -15956.195110821141, -13172.307690657102, -6130.077675590239, -24501.490533529584, -17538.631563023515, -187500.02235174447, -35564.17352726144, 0.0133847336769104, 0.9884454905986786, -0.006292493104934693, 192.0, 0.0, 0.0, 0.0, 0.0, 0.0, 0.0, 0.0, 0.0, 0.0, 1.742502899540686E9, 0.0, 2025-03-20 15:34:59.540
14.0, -15947.701447928126, -36779.460225040944, -40072.14040424114, -9937.853805762983, -17841.989438770943, -11185.304663813671, -24835.87263058098, -32277.90829871992, -6690.033577684591, -15969.852026683335, -13194.950007790329, -6151.602405500699, -24528.983179209612, -17552.75786551927, -187500.02235174447, -35565.201707506385, 0.0133847336769104, 0.9884454905986786, -0.006292493104934693, 192.0, 0.0, 0.0, 0.0, 0.0, 0.0, 0.0, 0.0, 0.0, 0.0, 1.742502899600342E9, 0.0, 2025-03-20 15:34:59.600
16.0, -15930.445901208628, -36772.15120460406, -40057.9023430231, -9926.499119579688, -17825.605610085204, -11175.760468931256, -24822.9086187969, -32259.5128130332, -6670.945187919759, -15960.77721843448, -13185.182295463359, -6139.577166983744, -24516.510905803552, -17547.326391616632, -187500.02235174447, -35561.51366967126, 0.0133847336769104, 0.9884454905986786, -0.006292493104934693, 192.0, 0.0, 0.0, 0.0, 0.0, 0.0, 0.0, 0.0, 0.0, 0.0, 1.742502899600463E9, 0.0, 2025-03-20 15:34:59.600
18.0, -15943.96870660409, -36776.84507093967, -40057.231790689446, -9919.234802631712, -17835.306267178807, -11159.577805945613, -24814.996101259723, -32248.761623950202, -6676.868400200415, -15958.407933522218, -13181.047222739127, -6139.130132094638, -24509.447754555673, -17530.00378966377, -187500.02235174447, -35539.631311849516, 0.0133847336769104, 0.9884454905986786, -0.006292493104934693, 192.0, 0.0, 0.0, 0.0, 0.0, 0.0, 0.0, 0.0, 0.0, 0.0, 1.742502899600574E9, 0.0, 2025-03-20 15:34:59.600
20.0, -15934.82684312187, -36784.57877452121, -40087.60781140421, -9943.68761106582, -17845.43160741706, -11182.778916690222, -24835.224429991777, -32263.9161066909, -6677.181324622789, -15969.203826094132, -13184.377632662969, -6142.6617077185765, -24516.265036614543, -17539.838557224102, -187500.02235174447, -35546.98503577531, 0.0146923668384552, 0.9892227452993393, -0.008146246552467346, 192.0, 0.0, 64.0, 15.0, 120.0, 127.5, 88.0, 0.0, 0.0, 0.0, 1.742502899600688E9, 0.0, 2025-03-20 15:34:59.600
22.0, -15963.34766904684, -36793.89945195907, -40075.78373858735, -9936.937384240317, -17839.620153858683, -11170.150181072973, -24834.911505569402, -32266.620667769992, -6717.839147786993, -15981.340823333363, -13214.977170822283, -6167.673309764065, -24528.37968210932, -17557.585842321616, -187500.02235174447, -35561.11133827107, 0.0146923668384552, 0.9892227452993393, -0.008146246552467346, 192.0, 0.0, 0.0, 0.0, 0.0, 0.0, 0.0, 0.0, 0.0, 0.0, 1.742502899600843E9, 0.0, 2025-03-20 15:34:59.600
24.0, -15915.20201149011, -36761.75764343234, -40075.94020079854, -9928.86840449195, -17832.62405784417, -11166.886826382497, -24822.215714718786, -32264.00551366872, -6664.418478538809, -15959.77138993399, -13186.612807108499, -6137.520806493856, -24511.794687723483, -17527.433339051408, -187500.02235174447, -35549.42137592094, 0.0146923668384552, 0.9892227452993393, -0.008146246552467346, 192.0, 0.0, 0.0, 0.0, 0.0, 0.0, 0.0, 0.0, 0.0, 0.0, 1.742502899600972E9, 0.0, 2025-03-20 15:34:59.600
26.0, -15944.996886849034, -36766.2279923234, -40072.743901341426, -9926.834395746517, -17842.99526727143, -11166.551550215669, -24832.251647979218, -32257.612914754503, -6674.543818777063, -15941.979401347568, -13186.121068730483, -6131.731704679931, -24519.617798282838, -17530.115548386046, -187500.02235174447, -35546.7391665863, 0.0146923668384552, 0.9892227452993393, -0.008146246552467346, 192.0, 0.0, 0.0, 0.0, 0.0, 0.0, 0.0, 0.0, 0.0, 0.0, 1.74250289960109E9, 0.0, 2025-03-20 15:34:59.601
28.0, -15921.52755517096, -36763.18815507748, -40087.60781140421, -9939.641945319408, -17838.43551140255, -11182.890675412498, -24832.273999723675, -32267.738254992757, -6679.684720001784, -15960.553700989927, -13194.122993245483, -6143.578129241244, -24517.784955237505, -17544.08538867061, -187500.02235174447, -35562.69831212739, 0.0146923668384552, 0.9892227452993393, -0.008146246552467346, 192.0, 0.0, 0.0, 0.0, 0.0, 0.0, 0.0, 0.0, 0.0, 0.0, 1.742502899601232E9, 0.0, 2025-03-20 15:34:59.601
30.0, -15954.697543942637, -36776.442739539474, -40068.65353210611, -9932.06470394906, -17841.698866093026, -11173.033556107708, -24827.02133977668, -32264.541955535646, -6683.640978770373, -15969.919081916702, -13193.966531034295, -6148.9425479105175, -24515.75094649207, -17543.258374125766, -187500.02235174447, -35556.03749227971, 0.0163461834192276, 0.9886113726496697, -0.006073123276233673, 192.0, 0.0, 72.0, 15.0, 112.0, 127.5, 112.0, 0.0, 0.0, 0.0, 1.742502899660758E9, 0.0, 2025-03-20 15:34:59.660
32.0, -15924.165061016687, -36778.2308790959, -40082.042227034835, -9950.236672191224, -17839.843671303235, -11195.050024396185, -24837.68312188186, -32280.076417932087, -6685.540877049074, -15973.87534068529, -13192.379557177968, -6148.920196166062, -24531.37481586633, -17538.117472901045, -187500.02235174447, -35559.3455504591, 0.0163461834192276, 0.9886113726496697, -0.006073123276233673, 192.0, 0.0, 0.0, 0.0, 0.0, 0.0, 0.0, 0.0, 0.0, 0.0, 1.74250289966092E9, 0.0, 2025-03-20 15:34:59.660
34.0, -15976.73636397557, -36799.95677470646, -40076.0072560319, -9946.168654700357, -17845.521014394883, -11187.226913836826, -24830.73172935626, -32269.593449782547, -6711.46890061723, -15987.264035614018, -13215.401853966934, -6170.355519098702, -24526.882115230816, -17568.158217448978, -187500.02235174447, -35581.60788793658, 0.0163461834192276, 0.9886113726496697, -0.006073123276233673, 192.0, 0.0, 0.0, 0.0, 0.0, 0.0, 0.0, 0.0, 0.0, 0.0, 1.74250289966104E9, 0.0, 2025-03-20 15:34:59.661
36.0, -15924.857965094801, -36777.87325118462, -40066.530116382855, -9940.58071858653, -17824.063339717788, -11176.92275964293, -24834.285656724653, -32273.214432384306, -6681.964597936225, -15981.16200937772, -13194.212400223303, -6153.792876457319, -24528.0891094314, -17544.644182281994, -187500.02235174447, -35565.693445884404, 0.0163461834192276, 0.9886113726496697, -0.006073123276233673, 192.0, 0.0, 0.0, 0.0, 0.0, 0.0, 0.0, 0.0, 0.0, 0.0, 1.742502899661156E9, 0.0, 2025-03-20 15:34:59.661
38.0, -15970.835503439368, -36792.84891996967, -40071.000465273915, -9934.679858050331, -17856.451017433526, -11173.905274141463, -24833.682159624357, -32275.24844112974, -6674.901446688348, -15967.773314448992, -13193.89947580093, -6154.798704957808, -24516.689719759193, -17546.36526660505, -187500.02235174447, -35563.257105738776, 0.0163461834192276, 0.9886113726496697, -0.006073123276233673, 192.0, 0.0, 0.0, 0.0, 0.0, 0.0, 0.0, 0.0, 0.0, 0.0, 1.742502899661263E9, 0.0, 2025-03-20 15:34:59.661
40.0, -15924.142709272232, -36766.76443419033, -40070.709892595994, -9930.835358004017, -17841.117720737187, -11176.766297431743, -24827.535429899148, -32261.457414800814, -6682.054004914046, -15965.515788259005, -13191.396080421935, -6145.053344375294, -24515.303911602965, -17538.050417667677, -187500.02235174447, -35553.534096900716, 0.0181730917096138, 0.9873056863248348, -0.0050365616381168364, 192.0, 0.0, 80.0, 15.0, 104.0, 127.5, 112.0, 0.0, 0.0, 0.0, 1.742502899661382E9, 0.0, 2025-03-20 15:34:59.661
42.0, -15964.085276613865, -36785.02580941031, -40081.6622473791, -9937.898509251894, -17847.7114853515, -11173.704108441367, -24832.72103461278, -32264.631362513468, -6677.896580445359, -15976.177570364187, -13193.877124056475, -6147.579091498744, -24511.45941155665, -17551.237946896308, -187500.02235174447, -35558.9432190589, 0.0181730917096138, 0.9873056863248348, -0.0050365616381168364, 192.0, 0.0, 0.0, 0.0, 0.0, 0.0, 0.0, 0.0, 0.0, 0.0, 1.742502899661505E9, 0.0, 2025-03-20 15:34:59.661
44.0, -15911.469270166073, -36759.03073060879, -40061.81389830278, -9922.945192211293, -17822.81164202829, -11167.512675227246, -24824.406185675405, -32267.447682314836, -6684.669159015318, -15961.291308556953, -13190.457307154813, -6143.68988796352, -24540.963714237656, -17543.191318892397, -187500.02235174447, -35556.14925100199, 0.0181730917096138, 0.9873056863248348, -0.0050365616381168364, 192.0, 0.0, 0.0, 0.0, 0.0, 0.0, 0.0, 0.0, 0.0, 0.0, 1.742502899721075E9, 0.0, 2025-03-20 15:34:59.721
46.0, -15954.675192198181, -36780.04137039678, -40065.27841869336, -9929.58366031452, -17847.73383709596, -11175.335785786603, -24829.591790389037, -32261.882097945465, -6667.681833229284, -15962.565357990905, -13177.068612226083, -6138.012544871873, -24506.22910335411, -17543.191318892397, -187500.02235174447, -35552.75178584478, 0.0181730917096138, 0.9873056863248348, -0.0050365616381168364, 192.0, 0.0, 0.0, 0.0, 0.0, 0.0, 0.0, 0.0, 0.0, 0.0, 1.742502899721244E9, 0.0, 2025-03-20 15:34:59.721
48.0, -15924.992075561533, -36768.619628980116, -40057.58941860073, -9928.555480069575, -17833.741645066937, -11174.039384608197, -24840.410034705405, -32272.92385970639, -6682.612798525429, -15977.563378520415, -13188.333891431557, -6152.004736900894, -24526.70330127517, -17545.739417760306, -187500.02235174447, -35555.970437046344, 0.0181730917096138, 0.9873056863248348, -0.0050365616381168364, 192.0, 0.0, 0.0, 0.0, 0.0, 0.0, 0.0, 0.0, 0.0, 0.0, 1.742502899721371E9, 0.0, 2025-03-20 15:34:59.721
50.0, -15961.738343446059, -36780.9801436639, -40063.087947736734, -9927.3931893579, -17831.707636321502, -11167.02093684923, -24827.401319432418, -32270.91220270541, -6669.291158830066, -15964.10762835832, -13181.740126817242, -6140.6053472286885, -24509.917141189235, -17540.86673746905, -187500.02235174447, -35550.78483233271, 0.0170865458548069, 0.9886528431624174, -0.0035182808190584182, 192.0, 0.0, 64.0, 15.0, 120.0, 127.5, 120.0, 0.0, 0.0, 0.0, 1.742502899721508E9, 0.0, 2025-03-20 15:34:59.721
52.0, -15935.586802433349, -36772.41942553752, -40074.68850310904, -9938.97139298575, -17840.357761425705, -11175.31343404215, -24834.24095323574, -32267.514737548205, -6672.12983037589, -15960.151369589732, -13187.775097820175, -6142.125265851649, -24496.483742771597, -17537.782196734213, -187500.02235174447, -35547.92380904243, 0.0170865458548069, 0.9886528431624174, -0.0035182808190584182, 192.0, 0.0, 0.0, 0.0, 0.0, 0.0, 0.0, 0.0, 0.0, 0.0, 1.742502899721629E9, 0.0, 2025-03-20 15:34:59.721
54.0, -15959.927852145178, -36790.61374552414, -40078.26478222189, -9945.788675044618, -17849.1643487411, -11171.871265396032, -24831.514040412196, -32275.404903340925, -6680.355272335443, -15990.169762393209, -13200.359129948512, -6161.660690505587, -24537.074510702434, -17556.870586499048, -187500.02235174447, -35566.118129029055, 0.0170865458548069, 0.9886528431624174, -0.0035182808190584182, 192.0, 0.0, 0.0, 0.0, 0.0, 0.0, 0.0, 0.0, 0.0, 0.0, 1.742502899721747E9, 0.0, 2025-03-20 15:34:59.721
56.0, -15947.232061294564, -36787.57390827822, -40091.5640701728, -9955.48933213822, -17850.885433064155, -11176.632186965011, -24838.554839915614, -32276.477787074782, -6692.447566085764, -15967.370983048795, -13201.432013682368, -6156.363327069679, -24528.536144320507, -17542.56547004765, -187500.02235174447, -35553.75761434527, 0.0170865458548069, 0.9886528431624174, -0.0035182808190584182, 192.0, 0.0, 0.0, 0.0, 0.0, 0.0, 0.0, 0.0, 0.0, 0.0, 1.742502899721865E9, 0.0, 2025-03-20 15:34:59.721
58.0, -15953.378791019773, -36794.704114759465, -40078.890631066635, -9954.595262360008, -17837.094406735232, -11186.802230692176, -24835.045616036132, -32279.53997606516, -6677.829525211993, -15983.218369867609, -13196.291112457648, -6157.078582892249, -24523.261132629053, -17555.775351020737, -187500.02235174447, -35569.42618720844, 0.0170865458548069, 0.9886528431624174, -0.0035182808190584182, 192.0, 0.0, 0.0, 0.0, 0.0, 0.0, 0.0, 0.0, 0.0, 0.0, 1.742502899721975E9, 0.0, 2025-03-20 15:34:59.721
60.0, -15946.762674661002, -36788.46797805643, -40067.98297977245, -9943.799369788096, -17834.300438678318, -11182.756564945767, -24835.090319525043, -32279.9199557209, -6689.094804417468, -15980.200884366142, -13204.449499183835, -6162.197132372515, -24517.561437792952, -17552.981382963822, -187500.02235174447, -35570.856698853575, 0.01654327292740345, 0.9903264215812086, -0.0067591404095292094, 192.0, 0.0, 64.0, 15.5, 0.0, 127.5, 88.0, 0.0, 0.0, 0.0, 1.742502899780378E9, 0.0, 2025-03-20 15:34:59.780
62.0, -15943.231099037064, -36784.44466405448, -40064.18318321505, -9935.01513421716, -17830.880621776658, -11177.325091043127, -24832.408110190405, -32280.255231887728, -6670.542856519563, -15971.93073891768, -13185.361109419002, -6146.528559509345, -24520.221295383133, -17547.773426505737, -187500.02235174447, -35559.52436441474, 0.01654327292740345, 0.9903264215812086, -0.0067591404095292094, 192.0, 0.0, 0.0, 0.0, 0.0, 0.0, 0.0, 0.0, 0.0, 0.0, 1.742502899780522E9, 0.0, 2025-03-20 15:34:59.780
64.0, -15954.63048870927, -36783.32707683171, -40064.6078663597, -9930.790654515107, -17837.317924179784, -11167.937358371897, -24824.316778697586, -32268.5652695376, -6681.852839213949, -15970.343765061352, -13193.22892346727, -6148.4731612769565, -24510.85591445636, -17557.787008021714, -187500.02235174447, -35549.24256196529, 0.01654327292740345, 0.9903264215812086, -0.0067591404095292094, 192.0, 0.0, 0.0, 0.0, 0.0, 0.0, 0.0, 0.0, 0.0, 0.0, 1.742502899780662E9, 0.0, 2025-03-20 15:34:59.780
66.0, -15934.692732655138, -36772.01709413732, -40066.5077646384, -9924.10748292297, -17838.144938724632, -11169.725497928323, -24828.608313633005, -32270.06283641611, -6674.499115288153, -15982.346651833852, -13190.390251921446, -6143.399315285602, -24519.438984327197, -17545.605307293572, -187500.02235174447, -35550.82953582162, 0.01654327292740345, 0.9903264215812086, -0.0067591404095292094, 192.0, 0.0, 0.0, 0.0, 0.0, 0.0, 0.0, 0.0, 0.0, 0.0, 1.742502899780793E9, 0.0, 2025-03-20 15:34:59.780
68.0, -15942.649953681226, -36771.972390648414, -40064.69727333752, -9919.480671820722, -17843.9116887941, -11165.702183926367, -24827.28956071014, -32265.34661833604, -6686.814926483027, -15951.031857851965, -13190.65847285491, -6133.698658191998, -24531.128946677323, -17543.772464248235, -187500.02235174447, -35545.82274506363, 0.01654327292740345, 0.9903264215812086, -0.0067591404095292094, 192.0, 0.0, 0.0, 0.0, 0.0, 0.0, 0.0, 0.0, 0.0, 0.0, 1.742502899780918E9, 0.0, 2025-03-20 15:34:59.780
70.0, -15919.135918514243, -36760.05891085374, -40053.946084254516, -9917.357256097468, -17832.62405784417, -11163.601119947567, -24829.167107244386, -32263.446720057338, -6671.638091997874, -15963.437076024662, -13179.572007605078, -6132.9163471360625, -24525.384548352307, -17532.37307457603, -187500.02235174447, -35546.78387007521, 0.015271636463701724, 0.9921632107906043, -0.006379570204764605, 192.0, 0.0, 56.0, 15.5, 8.0, 127.5, 104.0, 0.0, 0.0, 0.0, 1.742502899781046E9, 0.0, 2025-03-20 15:34:59.781
72.0, -15945.734494416058, -36770.452472025456, -40048.8051830298, -9910.741139738697, -17836.42385440157, -11153.92281459842, -24815.756060571202, -32257.72467347678, -6678.70124324575, -15959.324355044886, -13179.4602488828, -6135.419742515057, -24501.781106207505, -17538.76567349025, -187500.02235174447, -35546.806221819665, 0.015271636463701724, 0.9921632107906043, -0.006379570204764605, 192.0, 0.0, 0.0, 0.0, 0.0, 0.0, 0.0, 0.0, 0.0, 0.0, 1.742502899781178E9, 0.0, 2025-03-20 15:34:59.781
74.0, -15911.20104923261, -36758.11430908612, -40053.029662731846, -9910.987008927705, -17830.81356654329, -11160.740096657288, -24829.167107244386, -32273.52735680668, -6662.898559915849, -15949.087256084355, -13167.926748743863, -6123.595669698199, -24503.032803897, -17522.851231438068, -187500.02235174447, -35530.55650360066, 0.015271636463701724, 0.9921632107906043, -0.006379570204764605, 192.0, 0.0, 0.0, 0.0, 0.0, 0.0, 0.0, 0.0, 0.0, 0.0, 1.742502899840036E9, 0.0, 2025-03-20 15:34:59.840
76.0, -15961.850102168335, -36788.44562631197, -40061.769194813874, -9921.24645963269, -17852.226537731476, -11169.010242105753, -24830.016473533688, -32276.410731841414, -6687.664292772329, -15967.862721426813, -13191.261969955203, -6141.789989684819, -24537.454490358174, -17555.641240554007, -187500.02235174447, -35550.56131488816, 0.015271636463701724, 0.9921632107906043, -0.006379570204764605, 192.0, 0.0, 0.0, 0.0, 0.0, 0.0, 0.0, 0.0, 0.0, 0.0, 1.742502899840176E9, 0.0, 2025-03-20 15:34:59.840
78.0, -15917.794813846926, -36762.85287891065, -40053.61080808769, -9919.145395653892, -17828.37722639766, -11158.035535578196, -24818.214752461285, -32267.894717203944, -6672.219237353711, -15967.30392781543, -13178.74499306023, -6131.955222124484, -24518.053176170968, -17537.357513589563, -187500.02235174447, -35551.433032921916, 0.015271636463701724, 0.9921632107906043, -0.006379570204764605, 192.0, 0.0, 0.0, 0.0, 0.0, 0.0, 0.0, 0.0, 0.0, 0.0, 1.742502899840294E9, 0.0, 2025-03-20 15:34:59.840
80.0, -15969.136770860765, -36791.10548390216, -40066.999503016414, -9931.707076037774, -17844.157557983108, -11167.467971738335, -24825.032034520154, -32270.24165037175, -6690.279446873599, -15966.58867199286, -13191.552542633122, -6138.370172783158, -24522.43411808421, -17539.525632801728, -187500.02235174447, -35551.924771299935, 0.012635818231850861, 0.9910816053953022, -0.005189785102382303, 192.0, 0.0, 40.0, 15.0, 120.0, 127.5, 112.0, 0.0, 0.0, 0.0, 1.742502899840416E9, 0.0, 2025-03-20 15:34:59.840
82.0, -15921.706369126603, -36777.04623663977, -40064.36199717069, -9942.614727331964, -17829.092482220232, -11175.514599742246, -24821.701624596313, -32274.33201960707, -6675.214371110723, -15960.576052734383, -13188.870333298486, -6142.348783296202, -24514.923931947225, -17547.03581893871, -187500.02235174447, -35559.52436441474, 0.012635818231850861, 0.9910816053953022, -0.005189785102382303, 192.0, 0.0, 0.0, 0.0, 0.0, 0.0, 0.0, 0.0, 0.0, 0.0, 1.742502899840534E9, 0.0, 2025-03-20 15:34:59.840
84.0, -15974.188265107665, -36799.21916713943, -40057.47765987845, -9944.06759072156, -17845.655124861612, -11181.750736445278, -24824.987331031243, -32270.353409094027, -6681.94224619177, -15973.54006451846, -13194.815897323597, -6156.765658469875, -24521.450641328174, -17559.396333622495, -187500.02235174447, -35568.621524408045, 0.012635818231850861, 0.9910816053953022, -0.005189785102382303, 192.0, 0.0, 0.0, 0.0, 0.0, 0.0, 0.0, 0.0, 0.0, 0.0, 1.74250289984064E9, 0.0, 2025-03-20 15:34:59.840
86.0, -15927.71898838508, -36785.15991987704, -40059.24344769042, -9941.54184359811, -17830.81356654329, -11184.030614379719, -24833.19042124634, -32279.96465920981, -6673.001548409647, -15978.92683493219, -13188.915036787395, -6155.513960780378, -24511.8840947013, -17556.155330676476, -187500.02235174447, -35561.916001071455, 0.012635818231850861, 0.9910816053953022, -0.005189785102382303, 192.0, 0.0, 0.0, 0.0, 0.0, 0.0, 0.0, 0.0, 0.0, 0.0, 1.74250289984077E9, 0.0, 2025-03-20 15:34:59.840
88.0, -15966.655727226225, -36792.84891996967, -40050.21334293048, -9918.184270642314, -17842.458825404505, -11169.658442694956, -24826.306083954107, -32265.078397402576, -6676.019033911113, -15984.470067557106, -13189.362071676502, -6156.273920091859, -24501.311719573943, -17562.61498482406, -187500.02235174447, -35554.13759400101, 0.012635818231850861, 0.9910816053953022, -0.005189785102382303, 192.0, 0.0, 0.0, 0.0, 0.0, 0.0, 0.0, 0.0, 0.0, 0.0, 1.74250289984089E9, 0.0, 2025-03-20 15:34:59.840
90.0, -15905.411947418685, -36757.26494279682, -40040.78090677034, -9901.219296600735, -17830.791214798835, -11153.006393075751, -24830.30704621161, -32267.470034059294, -6666.385432050876, -15951.322430529885, -13173.268815668682, -6126.479044732934, -24516.0862226589, -17531.836632709103, -187500.02235174447, -35536.65852983696, 0.01231790911592543, 0.9885408026976511, -0.0015948925511911514, 192.0, 0.0, 48.0, 15.0, 104.0, 0.0, 8.0, 0.0, 0.0, 0.0, 1.742502899900275E9, 0.0, 2025-03-20 15:34:59.900
92.0, -15958.296174799942, -36778.16382386253, -40042.25612190439, -9896.883058176405, -17838.05553174681, -11153.811055876144, -24827.535429899148, -32262.91027819041, -6666.385432050876, -15948.68492468416, -13172.620615079477, -6118.834748129219, -24512.688757501695, -17521.599533748573, -187500.02235174447, -35533.059898979656, 0.01231790911592543, 0.9885408026976511, -0.0015948925511911514, 192.0, 0.0, 0.0, 0.0, 0.0, 0.0, 0.0, 0.0, 0.0, 0.0, 1.742502899900458E9, 0.0, 2025-03-20 15:34:59.900
94.0, -15922.600438904816, -36762.76347193283, -40054.19195344352, -9903.29800883508, -17839.016656758387, -11163.221140291827, -24839.20304050482, -32274.71199926281, -6693.878077730904, -15941.510014714006, -13188.155077475916, -6121.226384785937, -24512.353481334863, -17527.27687684022, -187500.02235174447, -35544.593399118596, 0.01231790911592543, 0.9885408026976511, -0.0015948925511911514, 192.0, 0.0, 0.0, 0.0, 0.0, 0.0, 0.0, 0.0, 0.0, 0.0, 1.742502899900578E9, 0.0, 2025-03-20 15:34:59.900
96.0, -15966.722782459592, -36785.65165825506, -40061.88095353615, -9914.451529318278, -17843.844633560733, -11161.343593757581, -24833.2127729908, -32276.81306324161, -6688.401900339353, -15950.62952645177, -13189.116202487494, -6123.238041786914, -24528.290275131498, -17525.935772172903, -187500.02235174447, -35547.40971891996, 0.01231790911592543, 0.9885408026976511, -0.0015948925511911514, 192.0, 0.0, 0.0, 0.0, 0.0, 0.0, 0.0, 0.0, 0.0, 0.0, 1.742502899900696E9, 0.0, 2025-03-20 15:34:59.900
98.0, -15921.013465048489, -36765.15510858955, -40052.202648187005, -9916.06085491906, -17838.25669744691, -11155.39802973247, -24812.20213320281, -32269.034656171163, -6687.41842358332, -15958.989078878056, -13192.714833344799, -6134.0339343588275, -24524.311664618454, -17534.02710366572, -187500.02235174447, -35547.94616078689, 0.01231790911592543, 0.9885408026976511, -0.0015948925511911514, 192.0, 0.0, 0.0, 0.0, 0.0, 0.0, 0.0, 0.0, 0.0, 0.0, 1.742502899900808E9, 0.0, 2025-03-20 15:34:59.900
100.0, -15959.234948067064, -36784.779940221306, -40055.68952032203, -9923.973372456237, -17842.458825404505, -11160.650689679467, -24817.298330938618, -32264.787824724655, -6677.807173467538, -15968.868549927302, -13190.077327499072, -6136.134998337627, -24521.920027961736, -17544.15244390398, -187500.02235174447, -35545.12984098552, 0.013158954557962715, 0.9862704013488255, 0.004202553724404425, 192.0, 0.0, 56.0, 15.0, 96.0, 0.0, 40.0, 0.0, 0.0, 0.0, 1.742502899900923E9, 0.0, 2025-03-20 15:34:59.900
102.0, -15930.959991331101, -36777.51562327333, -40054.23665693244, -9930.164805670358, -17829.271296175873, -11175.358137531059, -24824.29442695313, -32275.874289974487, -6687.597237538963, -15973.718878474103, -13193.675958356376, -6150.864797933674, -24513.42636506872, -17543.124263659032, -187500.02235174447, -35555.16577424595, 0.013158954557962715, 0.9862704013488255, 0.004202553724404425, 192.0, 0.0, 0.0, 0.0, 0.0, 0.0, 0.0, 0.0, 0.0, 0.0, 1.742502899901043E9, 0.0, 2025-03-20 15:34:59.901
104.0, -15968.82384643839, -36804.89651023108, -40077.34836069922, -9951.555425114087, -17869.01269781741, -11196.16761161895, -24850.423616221386, -32306.317365922616, -6683.596275281463, -15977.96570992061, -13194.882952556964, -6155.178684613548, -24532.0900716889, -17559.08340920012, -187500.02235174447, -35573.51655644376, 0.013158954557962715, 0.9862704013488255, 0.004202553724404425, 192.0, 0.0, 0.0, 0.0, 0.0, 0.0, 0.0, 0.0, 0.0, 0.0, 1.742502899960542E9, 0.0, 2025-03-20 15:34:59.960
106.0, -15946.405046749718, -36783.61764950963, -40058.21526744548, -9934.568099328053, -17849.678438863568, -11174.039384608197, -24829.792956089135, -32277.751836508734, -6692.9616562082365, -15975.68583198617, -13203.488374172257, -6160.297234093814, -24524.557533807463, -17552.824920752635, -187500.02235174447, -35574.41062622197, 0.013158954557962715, 0.9862704013488255, 0.004202553724404425, 192.0, 0.0, 0.0, 0.0, 0.0, 0.0, 0.0, 0.0, 0.0, 0.0, 1.742502899960715E9, 0.0, 2025-03-20 15:34:59.960
108.0, -15952.663535197204, -36791.418408324535, -40052.64968307611, -9940.87129126445, -17845.588069628247, -11174.821695664132, -24836.945514314833, -32273.505005062227, -6672.263940842622, -15988.247512370053, -13192.46896415579, -6152.898806679107, -24530.726615277126, -17553.20490040838, -187500.02235174447, -35566.49810868479, 0.013158954557962715, 0.9862704013488255, 0.004202553724404425, 192.0, 0.0, 0.0, 0.0, 0.0, 0.0, 0.0, 0.0, 0.0, 0.0, 1.742502899960864E9, 0.0, 2025-03-20 15:34:59.960
110.0, -15947.075599083377, -36789.69732400147, -40054.97426449946, -9931.34944812649, -17844.62694461667, -11178.934416643908, -24826.663711865393, -32274.689647518357, -6682.32222584751, -15964.375849291784, -13193.161868233905, -6147.601443243199, -24524.199905896177, -17556.200034165387, -187500.02235174447, -35560.55254465968, 0.016579477278981358, 0.9871352006744127, 0.008101276862202213, 192.0, 0.0, 80.0, 15.0, 112.0, 0.0, 48.0, 0.0, 0.0, 0.0, 1.742502899960985E9, 0.0, 2025-03-20 15:34:59.960
112.0, -15953.557604975416, -36797.90041421657, -40051.86737202017, -9934.3445818835, -17829.695979320524, -11172.050079351673, -24821.187534473844, -32279.562327809614, -6676.264903100122, -15974.948224419144, -13184.377632662969, -6143.891053663619, -24511.95114993467, -17555.529481831727, -187500.02235174447, -35549.756652087766, 0.016579477278981358, 0.9871352006744127, 0.008101276862202213, 192.0, 0.0, 0.0, 0.0, 0.0, 0.0, 0.0, 0.0, 0.0, 0.0, 1.742502899961118E9, 0.0, 2025-03-20 15:34:59.961
114.0, -15962.34184054635, -36803.39894335258, -40053.70021506551, -9940.11133195297, -17823.370435639674, -11173.838218908098, -24822.126307740964, -32281.506929577226, -6698.996627211169, -15991.421460082705, -13204.427147439379, -6164.40995507359, -24518.388452337796, -17565.744229047803, -187500.02235174447, -35552.684730611414, 0.016579477278981358, 0.9871352006744127, 0.008101276862202213, 192.0, 0.0, 0.0, 0.0, 0.0, 0.0, 0.0, 0.0, 0.0, 0.0, 1.742502899961258E9, 0.0, 2025-03-20 15:34:59.961
116.0, -15945.890956627245, -36794.32413510372, -40053.76727029887, -9928.06374169156, -17827.95254325301, -11176.073393353628, -24823.57917113056, -32274.667295773903, -6680.467031057719, -15985.16297163522, -13193.787717078652, -6158.464391048478, -24515.79564998098, -17551.57322306314, -187500.02235174447, -35559.61377139256, 0.016579477278981358, 0.9871352006744127, 0.008101276862202213, 192.0, 0.0, 0.0, 0.0, 0.0, 0.0, 0.0, 0.0, 0.0, 0.0, 1.742502899961384E9, 0.0, 2025-03-20 15:34:59.961
118.0, -15963.146503346743, -36790.68080075751, -40045.340662639224, -9914.607991529465, -17837.273220690873, -11164.383431003504, -24822.640397863437, -32270.889850960953, -6683.46216481473, -15972.802456951435, -13192.357205433513, -6145.545082753311, -24514.633359269304, -17537.826900223125, -187500.02235174447, -35546.06861425265, 0.016579477278981358, 0.9871352006744127, 0.008101276862202213, 192.0, 0.0, 0.0, 0.0, 0.0, 0.0, 0.0, 0.0, 0.0, 0.0, 1.7425028999615E9, 0.0, 2025-03-20 15:34:59.961
120.0, -15938.716046657091, -36781.47188204192, -40059.69048257953, -9914.160956640359, -17837.764959068892, -11158.415515233937, -24823.310950197098, -32276.38838009696, -6683.283350859088, -15972.422477295695, -13194.99471127924, -6145.276861819847, -24508.03959465499, -17546.655839282972, -187500.02235174447, -35548.41554742045, 0.01528973863949068, 0.9835676003372064, 0.009050638431101106, 192.0, 0.0, 56.0, 15.0, 80.0, 0.0, 40.0, 0.0, 0.0, 0.0, 1.742502900020898E9, 0.0, 2025-03-20 15:35:00.020
122.0, -15951.568299718894, -36781.89656518657, -40042.92667423805, -9901.308703578557, -17834.211031700495, -11141.964631314831, -24818.77354607267, -32262.99968516823, -6663.524408760597, -15951.165968318699, -13182.433030895358, -6130.50235873489, -24506.050289398467, -17527.03100765121, -187500.02235174447, -35532.70227106837, 0.01528973863949068, 0.9835676003372064, 0.009050638431101106, 192.0, 0.0, 0.0, 0.0, 0.0, 0.0, 0.0, 0.0, 0.0, 0.0, 1.742502900021045E9, 0.0, 2025-03-20 15:35:00.021
124.0, -15918.15244175821, -36763.00934112183, -40049.92277025256, -9905.041444902594, -17831.886450277147, -11138.008372546241, -24818.684139094847, -32264.43019681337, -6665.759583206128, -15956.798607921435, -13181.628368094965, -6128.714219178465, -24524.624589040828, -17525.354626817065, -187500.02235174447, -35532.52345711273, 0.01528973863949068, 0.9835676003372064, 0.009050638431101106, 192.0, 0.0, 0.0, 0.0, 0.0, 0.0, 0.0, 0.0, 0.0, 0.0, 1.742502900021154E9, 0.0, 2025-03-20 15:35:00.021
126.0, -15960.933680645667, -36780.46605354143, -40061.03158724685, -9911.434043816811, -17846.213918472997, -11156.023878577218, -24826.57430488757, -32268.34175209305, -6678.5224292901075, -15958.20676782212, -13186.925731530873, -6132.178739569037, -24519.50603956056, -17537.446920567385, -187500.02235174447, -35534.91509376944, 0.01528973863949068, 0.9835676003372064, 0.009050638431101106, 192.0, 0.0, 0.0, 0.0, 0.0, 0.0, 0.0, 0.0, 0.0, 0.0, 1.742502900021268E9, 0.0, 2025-03-20 15:35:00.021
128.0, -15923.002770305011, -36766.27269581231, -40054.59428484372, -9920.82177648804, -17836.28974393484, -11172.608872963057, -24836.230258492265, -32278.936478964864, -6666.2513215841445, -15962.610061479816, -13178.677937826866, -6130.614117457166, -24522.56822855094, -17535.07763565512, -187500.02235174447, -35550.40485267697, 0.01528973863949068, 0.9835676003372064, 0.009050638431101106, 192.0, 0.0, 0.0, 0.0, 0.0, 0.0, 0.0, 0.0, 0.0, 0.0, 1.742502900021381E9, 0.0, 2025-03-20 15:35:00.021
130.0, -15965.381677792273, -36787.149225133566, -40055.95774125549, -9930.433026603821, -17851.511281908904, -11168.965538616842, -24835.29148522514, -32270.845147472042, -6670.3640425639205, -15968.086238871365, -13182.053051239616, -6140.560643739777, -24519.036652927003, -17540.173833390934, -187500.02235174447, -35553.534096900716, 0.01364486931974534, 0.9847838001686031, 0.010525319215550553, 192.0, 0.0, 48.0, 15.0, 104.0, 0.0, 48.0, 0.0, 0.0, 0.0, 1.742502900021524E9, 0.0, 2025-03-20 15:35:00.021
132.0, -15918.264200480486, -36772.93351565999, -40063.69144483703, -9943.464093621265, -17842.235307959952, -11184.947035902385, -24838.9124678269, -32274.935516707366, -6670.922836175303, -15964.465256269606, -13182.634196595454, -6145.232158330937, -24520.51186806105, -17540.509109557763, -187500.02235174447, -35559.43495743692, 0.01364486931974534, 0.9847838001686031, 0.010525319215550553, 192.0, 0.0, 0.0, 0.0, 0.0, 0.0, 0.0, 0.0, 0.0, 0.0, 1.742502900021652E9, 0.0, 2025-03-20 15:35:00.021
134.0, -15982.480762300584, -36803.75657126386, -40067.49124139443, -9954.77407631565, -17858.730895367968, -11194.960617418363, -24835.112671269497, -32275.7178277633, -6686.926685205303, -15993.187247894675, -13198.548638647633, -6164.40995507359, -24526.971522208634, -17570.460447127873, -187500.02235174447, -35572.08604479862, 0.01364486931974534, 0.9847838001686031, 0.010525319215550553, 192.0, 0.0, 0.0, 0.0, 0.0, 0.0, 0.0, 0.0, 0.0, 0.0, 1.742502900081226E9, 0.0, 2025-03-20 15:35:00.081
136.0, -15916.453709179606, -36771.346541803665, -40046.68176730654, -9935.3951138729, -17821.738758294436, -11180.63314922251, -24825.277903709164, -32258.886964188456, -6678.678891501295, -15970.902558672735, -13186.27753094167, -6149.657803733087, -24519.70720526066, -17545.113568915556, -187500.02235174447, -35562.675960382934, 0.01364486931974534, 0.9847838001686031, 0.010525319215550553, 192.0, 0.0, 0.0, 0.0, 0.0, 0.0, 0.0, 0.0, 0.0, 0.0, 1.742502900081406E9, 0.0, 2025-03-20 15:35:00.081
138.0, -15970.25435808353, -36794.99468743738, -40049.92277025256, -9936.736218540218, -17827.170232197077, -11177.995643376786, -24827.110746754497, -32252.51671701869, -6672.263940842622, -15970.634337739271, -13180.488429127745, -6148.4731612769565, -24512.80051622397, -17554.836577753613, -187500.02235174447, -35552.39415793349, 0.01364486931974534, 0.9847838001686031, 0.010525319215550553, 192.0, 0.0, 0.0, 0.0, 0.0, 0.0, 0.0, 0.0, 0.0, 0.0, 1.742502900081527E9, 0.0, 2025-03-20 15:35:00.081
140.0, -15911.782194588448, -36771.03361738129, -40049.945121997014, -9934.903375494883, -17819.660046060093, -11179.046175366186, -24828.317740955084, -32257.031769398665, -6667.011280895625, -15956.463331754607, -13177.068612226083, -6145.969765897962, -24505.580902764905, -17532.775405976226, -187500.02235174447, -35549.57783813213, 0.012822434659872671, 0.9873919000843016, 0.011262659607775276, 192.0, 0.0, 48.0, 15.0, 120.0, 0.0, 48.0, 0.0, 0.0, 0.0, 1.742502900081643E9, 0.0, 2025-03-20 15:35:00.081
142.0, -15952.842349152847, -36786.63513501109, -40058.88581977914, -9934.232823161225, -17833.58518285575, -11180.990777133797, -24833.883325324456, -32257.52350777668, -6682.836315969982, -15968.44386678265, -13185.741089074743, -6153.83757994623, -24518.65667327126, -17542.923097958934, -187500.02235174447, -35558.96557080335, 0.012822434659872671, 0.9873919000843016, 0.011262659607775276, 192.0, 0.0, 0.0, 0.0, 0.0, 0.0, 0.0, 0.0, 0.0, 0.0, 1.742502900081771E9, 0.0, 2025-03-20 15:35:00.081
144.0, -15898.415851404174, -36759.70128294245, -40053.11906970967, -9927.907279480372, -17819.548287337817, -11177.861532910054, -24827.49072641024, -32250.70622571781, -6679.03651941258, -15959.145541089243, -13176.196894192326, -6142.639355974121, -24519.08135641591, -17532.350722831576, -187500.02235174447, -35549.73430034331, 0.012822434659872671, 0.9873919000843016, 0.011262659607775276, 192.0, 0.0, 0.0, 0.0, 0.0, 0.0, 0.0, 0.0, 0.0, 0.0, 1.742502900081877E9, 0.0, 2025-03-20 15:35:00.081
146.0, -15930.647066908727, -36767.300876057256, -40053.029662731846, -9914.853860718473, -17827.840784530734, -11159.197826289872, -24818.61708386148, -32243.397205280926, -6671.414574553321, -15951.59065146335, -13166.205664420804, -6135.822073915252, -24508.21840861063, -17528.32740882962, -187500.02235174447, -35538.357262415564, 0.012822434659872671, 0.9873919000843016, 0.011262659607775276, 192.0, 0.0, 0.0, 0.0, 0.0, 0.0, 0.0, 0.0, 0.0, 0.0, 1.742502900081989E9, 0.0, 2025-03-20 15:35:00.081
148.0, -15897.767650814969, -36753.26398053932, -40050.28039816384, -9914.943267696293, -17822.789290283836, -11164.763410659243, -24831.33522645655, -32252.13673736295, -6675.7061094887395, -15950.361305518307, -13170.720716800775, -6143.7792949413415, -24521.540048305997, -17522.851231438068, -187500.02235174447, -35538.491372882294, 0.012822434659872671, 0.9873919000843016, 0.011262659607775276, 192.0, 0.0, 0.0, 0.0, 0.0, 0.0, 0.0, 0.0, 0.0, 0.0, 1.742502900082098E9, 0.0, 2025-03-20 15:35:00.082
150.0, -15914.9561423011, -36752.03463459428, -40040.57974107024, -9898.112404121448, -17814.832069257747, -11138.790683602178, -24816.895999538425, -32237.71986218928, -6651.700335943739, -15931.496433198028, -13149.866539223975, -6125.897899377096, -24514.722766247127, -17518.358530802554, -187500.02235174447, -35529.327157655614, 0.011411217329936336, 0.9886959500421508, 0.008631329803887637, 192.0, 0.0, 40.0, 15.0, 120.0, 0.0, 24.0, 0.0, 0.0, 0.0, 1.742502900140586E9, 0.0, 2025-03-20 15:35:00.140
152.0, -15903.802621817902, -36748.92774211499, -40043.19489517152, -9910.651732760874, -17824.46567111798, -11157.074410566618, -24829.77060434468, -32241.027920368666, -6668.665309985317, -15934.066883810388, -13159.32132712857, -6132.536367480322, -24502.56341726344, -17502.667606194926, -187500.02235174447, -35526.80141053217, 0.011411217329936336, 0.9886959500421508, 0.008631329803887637, 192.0, 0.0, 0.0, 0.0, 0.0, 0.0, 0.0, 0.0, 0.0, 0.0, 1.742502900140753E9, 0.0, 2025-03-20 15:35:00.140
154.0, -15918.19714524712, -36757.98019861939, -40037.83047650224, -9910.696436249786, -17824.130394951153, -11156.269747766228, -24821.63456936295, -32243.799536681123, -6664.038498883069, -15934.983305333057, -13159.41073410639, -6136.537329737822, -24509.09012664439, -17503.449917250862, -187500.02235174447, -35539.206628704866, 0.011411217329936336, 0.9886959500421508, 0.008631329803887637, 192.0, 0.0, 0.0, 0.0, 0.0, 0.0, 0.0, 0.0, 0.0, 0.0, 1.742502900140882E9, 0.0, 2025-03-20 15:35:00.140
156.0, -15902.081537494843, -36752.548724716755, -40033.29307237781, -9914.004494429171, -17819.257714659896, -11156.537968699691, -24815.398432659917, -32240.84910641302, -6659.165818591812, -15935.184471033153, -13158.181388161349, -6136.917309393562, -24506.76554522104, -17510.825992921113, -187500.02235174447, -35525.8849890095, 0.011411217329936336, 0.9886959500421508, 0.008631329803887637, 192.0, 0.0, 0.0, 0.0, 0.0, 0.0, 0.0, 0.0, 0.0, 0.0, 1.742502900141007E9, 0.0, 2025-03-20 15:35:00.141
158.0, -15912.542153899927, -36767.993780135366, -40040.53503758133, -9927.72846552473, -17823.10221470621, -11164.718707170334, -24826.887229309945, -32244.984179137253, -6653.756696433627, -15944.080465326366, -13156.817931749574, -6140.203015828492, -24504.396260308775, -17524.639370994493, -187500.02235174447, -35532.43405013491, 0.011411217329936336, 0.9886959500421508, 0.008631329803887637, 192.0, 0.0, 0.0, 0.0, 0.0, 0.0, 0.0, 0.0, 0.0, 0.0, 1.742502900141128E9, 0.0, 2025-03-20 15:35:00.141
160.0, -15910.843421321324, -36759.99185562037, -40038.143400924615, -9923.43693058931, -17814.653255302102, -11165.21044554835, -24817.52184838317, -32243.352501792015, -6668.1288681183905, -15948.103779328321, -13167.6585278104, -6148.115533365672, -24513.739289491095, -17529.199126863376, -187500.02235174447, -35540.97241651683, 0.011705608664968168, 0.9903479750210754, 0.006315664901943819, 192.0, 0.0, 48.0, 15.5, 0.0, 0.0, 16.0, 0.0, 0.0, 0.0, 1.742502900141248E9, 0.0, 2025-03-20 15:35:00.141
162.0, -15920.879354581757, -36771.57005924822, -40045.72064229496, -9934.165767927858, -17827.43845313054, -11183.918855657443, -24825.032034520154, -32252.472013529783, -6659.389336036365, -15953.44584625314, -13163.456399852801, -6147.579091498744, -24515.974463936625, -17535.32350484413, -187500.02235174447, -35542.46998339534, 0.011705608664968168, 0.9903479750210754, 0.006315664901943819, 192.0, 0.0, 0.0, 0.0, 0.0, 0.0, 0.0, 0.0, 0.0, 0.0, 1.742502900141373E9, 0.0, 2025-03-20 15:35:00.141
164.0, -15934.983305333057, -36776.19687035047, -40051.80031678681, -9935.506872595177, -17818.09542394822, -11180.92372190043, -24825.903752553913, -32255.534202520157, -6683.506868303642, -15956.30686954342, -13180.913112272396, -6158.799667215308, -24522.411766339752, -17537.491624056296, -187500.02235174447, -35551.500088155284, 0.011705608664968168, 0.9903479750210754, 0.006315664901943819, 192.0, 0.0, 0.0, 0.0, 0.0, 0.0, 0.0, 0.0, 0.0, 0.0, 1.742502900200465E9, 0.0, 2025-03-20 15:35:00.200
166.0, -15926.601401162316, -36770.586582492186, -40061.32215992477, -9940.603070330986, -17831.394711899127, -11185.25996032476, -24832.251647979218, -32260.786862467157, -6673.537990276574, -15950.338953773851, -13177.314481415091, -6151.714164222975, -24517.159106392755, -17533.89299319899, -187500.02235174447, -35555.836326579614, 0.011705608664968168, 0.9903479750210754, 0.006315664901943819, 192.0, 0.0, 0.0, 0.0, 0.0, 0.0, 0.0, 0.0, 0.0, 0.0, 1.742502900200598E9, 0.0, 2025-03-20 15:35:00.200
168.0, -15941.733532158558, -36779.63903899658, -40061.23275294695, -9942.63707907642, -17839.843671303235, -11181.16959108944, -24836.72199687028, -32258.752853721722, -6685.160897393334, -15958.072657355387, -13186.791621064142, -6161.951263183506, -24531.128946677323, -17540.956144446867, -187500.02235174447, -35557.06567252465, 0.011705608664968168, 0.9903479750210754, 0.006315664901943819, 192.0, 0.0, 0.0, 0.0, 0.0, 0.0, 0.0, 0.0, 0.0, 0.0, 1.742502900200708E9, 0.0, 2025-03-20 15:35:00.200
170.0, -15900.740432827526, -36750.35825376013, -40048.268741162865, -9928.421369602844, -17814.407386113096, -11165.121038570529, -24820.87461005147, -32242.95017039182, -6665.98310065068, -15949.48958748455, -13166.250367909715, -6146.103876364694, -24529.22904839862, -17530.56258327515, -187500.02235174447, -35551.433032921916, 0.011852804332484083, 0.9891739875105376, 0.005157832450971909, 192.0, 0.0, 48.0, 15.0, 112.0, 0.0, 16.0, 0.0, 0.0, 0.0, 1.742502900200817E9, 0.0, 2025-03-20 15:35:00.200
172.0, -15930.021218063977, -36757.22023930791, -40046.86058126218, -9922.252288133179, -17831.975857254965, -11156.381506488504, -24807.843543034025, -32237.630455211456, -6667.03363264008, -15933.999828577022, -13162.31646088558, -6140.448885017501, -24514.700414502673, -17532.440129809398, -187500.02235174447, -35534.82568679162, 0.011852804332484083, 0.9891739875105376, 0.005157832450971909, 192.0, 0.0, 0.0, 0.0, 0.0, 0.0, 0.0, 0.0, 0.0, 0.0, 1.742502900200962E9, 0.0, 2025-03-20 15:35:00.200
174.0, -15891.173886200653, -36746.69256766946, -40051.06270921978, -9923.638096289409, -17833.249906688918, -11162.841160636088, -24822.10395599651, -32247.644036727434, -6660.50692325913, -15932.278744253963, -13155.186254404338, -6133.229271558437, -24521.94237970619, -17526.360455317554, -187500.02235174447, -35537.731413570815, 0.011852804332484083, 0.9891739875105376, 0.005157832450971909, 192.0, 0.0, 0.0, 0.0, 0.0, 0.0, 0.0, 0.0, 0.0, 0.0, 1.742502900201086E9, 0.0, 2025-03-20 15:35:00.201
176.0, -15921.214630748587, -36753.77807066179, -40045.0500899613, -9915.747930496686, -17828.533688608848, -11156.292099510682, -24822.260418207698, -32241.631417468958, -6652.974385377692, -15924.187412761143, -13151.922899713863, -6131.843463402208, -24523.574057051428, -17525.533440772706, -187500.02235174447, -35532.478753623815, 0.011852804332484083, 0.9891739875105376, 0.005157832450971909, 192.0, 0.0, 0.0, 0.0, 0.0, 0.0, 0.0, 0.0, 0.0, 0.0, 1.742502900201213E9, 0.0, 2025-03-20 15:35:00.201
178.0, -15893.297301923909, -36746.49140196936, -40042.39023237112, -9916.77611074163, -17817.53663033684, -11162.148256557974, -24825.993159531732, -32247.018187882688, -6662.2056558377335, -15928.970686074577, -13157.577891061055, -6132.223443057948, -24524.445775085187, -17522.717120971338, -187500.02235174447, -35538.67018683794, 0.011852804332484083, 0.9891739875105376, 0.005157832450971909, 192.0, 0.0, 0.0, 0.0, 0.0, 0.0, 0.0, 0.0, 0.0, 0.0, 1.742502900201343E9, 0.0, 2025-03-20 15:35:00.201
180.0, -15937.263183267498, -36764.082224855694, -40041.20558991499, -9913.646866517885, -17825.113871707188, -11150.34653548557, -24816.739537327237, -32238.77039417868, -6662.473876771197, -15927.026084306966, -13157.488484083235, -6134.592727970211, -24515.549780791975, -17520.303132570163, -187500.02235174447, -35528.41073613295, 0.012926402166242041, 0.9905869937552688, 0.006578916225485955, 192.0, 0.0, 56.0, 15.5, 0.0, 0.0, 32.0, 0.0, 0.0, 0.0, 1.74250290026063E9, 0.0, 2025-03-20 15:35:00.260
182.0, -15905.367243929773, -36760.26007655383, -40050.48156386394, -9926.789692257607, -17815.413214613585, -11164.182265303405, -24827.758947343704, -32249.543935006135, -6662.943263404759, -15940.951221102623, -13166.026850465161, -6146.5956147427105, -24529.81019375446, -17531.702522242373, -187500.02235174447, -35538.26785543774, 0.012926402166242041, 0.9905869937552688, 0.006578916225485955, 192.0, 0.0, 0.0, 0.0, 0.0, 0.0, 0.0, 0.0, 0.0, 0.0, 1.742502900260776E9, 0.0, 2025-03-20 15:35:00.260
184.0, -15962.073619612887, -36787.484501300394, -40056.82945928925, -9932.623497560442, -17830.746511309924, -11177.705070698867, -24829.52473515567, -32253.656655985913, -6683.41746132582, -15951.657706696715, -13180.89076052794, -6159.872550949162, -24524.557533807463, -17548.175757905934, -187500.02235174447, -35543.676977595926, 0.012926402166242041, 0.9905869937552688, 0.006578916225485955, 192.0, 0.0, 0.0, 0.0, 0.0, 0.0, 0.0, 0.0, 0.0, 0.0, 1.742502900260898E9, 0.0, 2025-03-20 15:35:00.260
186.0, -15902.19329621712, -36759.79068992027, -40053.34258715422, -9930.67889579283, -17823.079862961753, -11177.213332320849, -24826.507249654205, -32252.51671701869, -6662.406821537831, -15947.723799672582, -13172.262987168193, -6158.151466626105, -24522.81409773995, -17547.1922811499, -187500.02235174447, -35544.101660740576, 0.012926402166242041, 0.9905869937552688, 0.006578916225485955, 192.0, 0.0, 0.0, 0.0, 0.0, 0.0, 0.0, 0.0, 0.0, 0.0, 1.742502900261015E9, 0.0, 2025-03-20 15:35:00.261
188.0, -15950.718933429593, -36784.93640243249, -40058.23761918994, -9937.965564485261, -17840.62598235917, -11172.363003774048, -24832.408110190405, -32259.825737455576, -6671.168705364312, -15947.366171761296, -13180.600187850021, -6165.058155662794, -24524.46812682964, -17555.820054509648, -187500.02235174447, -35546.828573564126, 0.012926402166242041, 0.9905869937552688, 0.006578916225485955, 192.0, 0.0, 0.0, 0.0, 0.0, 0.0, 0.0, 0.0, 0.0, 0.0, 1.742502900261128E9, 0.0, 2025-03-20 15:35:00.261
190.0, -15909.949351543111, -36767.166765590526, -40059.89164827963, -9938.97139298575, -17822.63282807265, -11179.604968977568, -24826.95428454331, -32260.80921421161, -6675.907275188837, -15951.389485763251, -13181.248388439226, -6164.298196351314, -24527.798536753482, -17563.48670285782, -187500.02235174447, -35548.929637542926, 0.016, 0.984, 0.004, 192.0, 0.0, 64.0, 15.0, 96.0, 0.0, 16.0, 0.0, 0.0, 0.0, 1.742502900261237E9, 0.0, 2025-03-20 15:35:00.261
192.0, -15952.77529391948, -36781.60599250865, -40055.913037766586, -9932.377628371434, -17832.847575288724, -11174.464067752848, -24829.971770044776, -32253.500193774726, -6673.94032167677, -15952.216500308097, -13184.444687896335, -6164.275844606858, -24538.885002003313, -17562.05619121268, -187500.02235174447, -35553.46704166735, 0.016, 0.984, 0.004, 192.0, 0.0, 0.0, 0.0, 0.0, 0.0, 0.0, 0.0, 0.0, 0.0, 1.742502900261359E9, 0.0, 2025-03-20 15:35:00.261
194.0, -15916.520764412971, -36762.8752306551, -40052.87320052066, -9929.20368065878, -17826.14205195213, -11172.094782840584, -24826.23902872074, -32263.267906101693, -6665.379603550387, -15939.923040857679, -13173.112353457494, -6152.02708864535, -24513.828696468914, -17554.747170775794, -187500.02235174447, -35538.69253858239, 0.016, 0.984, 0.004, 192.0, 0.0, 0.0, 0.0, 0.0, 0.0, 0.0, 0.0, 0.0, 0.0, 1.742502900320888E9, 0.0, 2025-03-20 15:35:00.320
196.0, -15959.749038189537, -36781.04719889727, -40055.98009299995, -9934.612802816964, -17841.96708702649, -11174.911102641952, -24824.62970311996, -32260.33982757805, -6676.756641478139, -15953.959936375612, -13177.806219793109, -6156.609196258688, -24542.28246716052, -17565.677173814438, -187500.02235174447, -35544.6381026075, 0.016, 0.984, 0.004, 192.0, 0.0, 0.0, 0.0, 0.0, 0.0, 0.0, 0.0, 0.0, 0.0, 1.742502900321039E9, 0.0, 2025-03-20 15:35:00.321
198.0, -15911.066938765878, -36754.64978869555, -40052.80614528729, -9922.92284046684, -17823.504546106404, -11167.982061860808, -24818.728842583758, -32254.260153086205, -6673.158010620834, -15951.367134018796, -13177.403888392913, -6152.921158423563, -24532.00066471108, -17553.04843819719, -187500.02235174447, -35540.41362290545, 0.016, 0.984, 0.004, 192.0, 0.0, 0.0, 0.0, 0.0, 0.0, 0.0, 0.0, 0.0, 0.0, 1.742502900321161E9, 0.0, 2025-03-20 15:35:00.321
200.0, -15942.739360659047, -36770.2289545809, -40059.69048257953, -9921.268811377146, -17839.441339903038, -11168.272634538727, -24821.321644940574, -32260.71980723379, -6667.927702418292, -15944.974535104579, -13171.905359256907, -6145.433324031034, -24534.682874045717, -17549.181586406423, -187500.02235174447, -35540.525381627725, 0.014, 0.986, 0.004, 192.0, 0.0, 56.0, 15.0, 104.0, 0.0, 16.0, 0.0, 0.0, 0.0, 1.742502900321303E9, 0.0, 2025-03-20 15:35:00.321
202.0, -15913.503278911505, -36753.93453287298, -40044.91597949457, -9909.19886937128, -17816.933133236544, -11152.358192486548, -24815.48783963774, -32241.00556862421, -6674.968501921714, -15942.940526359145, -13171.793600534631, -6142.751114696398, -24525.67512103023, -17544.599478793083, -187500.02235174447, -35535.31742516964, 0.014, 0.986, 0.004, 192.0, 0.0, 0.0, 0.0, 0.0, 0.0, 0.0, 0.0, 0.0, 0.0, 1.742502900321457E9, 0.0, 2025-03-20 15:35:00.321
204.0, -15935.363284988796, -36767.2785243128, -40047.441726618024, -9911.09876764998, -17827.86313627519, -11150.570052930123, -24818.281807694653, -32246.705263460313, -6656.505961001631, -15939.25248852402, -13158.203739905804, -6134.302155292292, -24537.00745546907, -17532.574240276128, -187500.02235174447, -35532.25523617926, 0.014, 0.986, 0.004, 192.0, 0.0, 0.0, 0.0, 0.0, 0.0, 0.0, 0.0, 0.0, 0.0, 1.742502900321581E9, 0.0, 2025-03-20 15:35:00.321
206.0, -15929.887107597246, -36762.18232657699, -40044.64775856111, -9912.506927550665, -17832.48994737744, -11154.034573320696, -24815.24197044873, -32248.29223731664, -6660.551626748041, -15946.1144740718, -13161.422391107368, -6140.35947803968, -24524.110498918355, -17534.205917621366, -187500.02235174447, -35525.61676807603, 0.014, 0.986, 0.004, 192.0, 0.0, 0.0, 0.0, 0.0, 0.0, 0.0, 0.0, 0.0, 0.0, 1.742502900321699E9, 0.0, 2025-03-20 15:35:00.321
208.0, -15937.218479778587, -36771.078320870205, -40044.06661320527, -9927.482596335722, -17830.29947642082, -11171.960672373853, -24829.703549111313, -32253.500193774726, -6661.333937803976, -15945.354514760318, -13165.579815576055, -6139.8453879172075, -24536.51571709105, -17528.059187896157, -187500.02235174447, -35529.327157655614, 0.014, 0.986, 0.004, 192.0, 0.0, 0.0, 0.0, 0.0, 0.0, 0.0, 0.0, 0.0, 0.0, 1.742502900321812E9, 0.0, 2025-03-20 15:35:00.321
210.0, -15935.452691966617, -36767.926724902005, -40043.7536887829, -9935.3951138729, -17828.62309558667, -11173.54764623018, -24827.222505476777, -32256.763548465202, -6673.314472832021, -15954.004639864523, -13178.856751782509, -6156.296271836313, -24549.055045730478, -17559.1951679224, -187500.02235174447, -35536.971454259336, 0.018000000000000002, 0.988, 0.002, 192.0, 0.0, 72.0, 15.0, 112.0, 0.0, 8.0, 0.0, 0.0, 0.0, 1.742502900381045E9, 0.0, 2025-03-20 15:35:00.381
212.0, -15926.19906976212, -36765.22216382291, -40044.87127600566, -9933.53991908311, -17821.112909449686, -11167.669137438434, -24819.131173983955, -32250.72857746227, -6666.921873917803, -15953.155273575221, -13172.017117979183, -6153.390545057124, -24533.922914734238, -17559.95512723388, -187500.02235174447, -35539.050166493675, 0.018000000000000002, 0.988, 0.002, 192.0, 0.0, 0.0, 0.0, 0.0, 0.0, 0.0, 0.0, 0.0, 0.0, 1.74250290038117E9, 0.0, 2025-03-20 15:35:00.381
