%OpenBCI Raw EXG Data
%Number of channels = 16
%Sample Rate = 125 Hz
%Board = OpenBCI_GUI$BoardCytonSerialDaisy
Sample Index, EXG Channel 0, EXG Channel 1, EXG Channel 2, EXG Channel 3, EXG Channel 4, EXG Channel 5, EXG Channel 6, EXG Channel 7, EXG Channel 8, EXG Channel 9, EXG Channel 10, EXG Channel 11, EXG Channel 12, EXG Channel 13, EXG Channel 14, EXG Channel 15, Accel Channel 0, Accel Channel 1, Accel Channel 2, Not Used, Digital Channel 0 (D11), Digital Channel 1 (D12), Digital Channel 2 (D13), Digital Channel 3 (D17), Not Used, Digital Channel 4 (D18), Analog Channel 0, Analog Channel 1, Analog Channel 2, Timestamp, Marker Channel, Timestamp (Formatted)
152.0, -32856.46085220109, -12815.35033170585, -6919.809510685148, 11905.075538763469, -28556.07462597783, 9782.889161454339, -4357.986671684584, 3694.2516200842406, 4624.218299891746, -1740.373878523574, -11748.032182220482, 29376.29424050978, -12601.466489013015, -6511.1749185532235, 6791.197573089311, 5099.371683522664, 0.0, 0.0, 0.0, 192.0, 0.0, 0.0, 0.0, 0.0, 0.0, 0.0, 0.0, 0.0, 0.0, 1.741146859026401E9, 0.0, 2025-03-04 21:54:19.026
154.0, -32856.3043899899, -12819.239535241073, -6921.999981641768, 11890.68101533425, -28686.9217380192, 9801.21759190769, -4366.569741555421, 3700.0407218981654, 4617.289259110601, -1752.6002827406269, -11753.217786934112, 29351.23793497538, -12637.54220456388, -6517.053427344969, 6792.762195201182, 5091.302703774298, 0.0, 0.0, 0.0, 192.0, 0.0, 0.0, 0.0, 0.0, 0.0, 0.0, 0.0, 0.0, 0.0, 1.741146859026732E9, 0.0, 2025-03-04 21:54:19.026
156.0, -32851.40935795419, -12819.507756174537, -6913.595725726572, 11906.617809130885, -28586.56240541487, 9797.171926161282, -4360.0430321744725, 3702.879393443989, 4621.178462645825, -1752.2873583182525, -11732.65418203523, 29368.605240417153, -12625.8298904693, -6522.417846014243, 6790.594075989017, 5090.118061318167, 0.0, 0.0, 0.0, 192.0, 0.0, 0.0, 0.0, 0.0, 0.0, 0.0, 0.0, 0.0, 0.0, 1.741146859026976E9, 0.0, 2025-03-04 21:54:19.026
158.0, -32857.31021849039, -12818.658389885235, -6921.1282636080105, 11888.848172288916, -28656.858641726812, 9791.315769113991, -4364.28986362098, 3703.862870200023, 4615.992857932193, -1742.7431634358363, -11705.876792177773, 29371.779188129807, -12610.854221684245, -6506.101072561869, 6793.745671957216, 5094.610761953683, 0.0, 0.0, 0.0, 192.0, 0.0, 0.0, 0.0, 0.0, 0.0, 0.0, 0.0, 0.0, 0.0, 1.741146859027198E9, 0.0, 2025-03-04 21:54:19.027
160.0, -32859.254820258, -12821.765282364522, -6920.9494496523685, 11903.890896307337, -28583.81314084687, 9792.031024936561, -4353.985709427084, 3682.8075269231235, 4623.793616747095, -1746.0288698707666, -11743.60653681833, 29365.453644448957, -12634.122387662219, -6495.327531734411, 6781.273398551154, 5088.821660139759, -0.012, 0.47900000000000004, 0.11900000000000001, 192.0, 127.5, 32.0, 14.5, 120.0, 3.5, 56.0, 0.0, 0.0, 0.0, 1.741146859027447E9, 0.0, 2025-03-04 21:54:19.027
162.0, -32862.54052669293, -12824.559250421436, -6921.307077563653, 11879.326329150956, -28604.71202191258, 9794.020330193083, -4368.514343323033, 3689.557753748626, 4594.356369299456, -1759.238750843853, -11745.394676374755, 29368.225260761414, -12632.982448694998, -6512.605430198363, 6769.583436201029, 5075.276502999843, -0.012, 0.47900000000000004, 0.11900000000000001, 192.0, 0.0, 0.0, 0.0, 0.0, 0.0, 0.0, 0.0, 0.0, 0.0, 1.7411468590277E9, 0.0, 2025-03-04 21:54:19.027
164.0, -32855.387968467236, -12824.268677743517, -6918.51310950674, 11891.709195579195, -28607.930673114144, 9774.775478217063, -4342.251043588048, 3700.331294576084, 4606.828642705517, -1756.2883205757526, -11739.493815838554, 29349.00276052985, -12629.540280048881, -6531.917337407749, 6777.115974082467, 5074.225971010444, -0.012, 0.47900000000000004, 0.11900000000000001, 192.0, 0.0, 0.0, 0.0, 0.0, 0.0, 0.0, 0.0, 0.0, 0.0, 1.741146859027919E9, 0.0, 2025-03-04 21:54:19.027
166.0, -32857.01964581247, -12819.016017796519, -6918.446054273374, 11885.96479725418, -28597.492408453516, 9795.406138349312, -4372.5823608139, 3681.1982013223414, 4625.358238858967, -1755.0142711418, -11742.041914706459, 29350.746196597363, -12622.20890786754, -6511.241973786589, 6769.717546667761, 5068.056889540779, -0.012, 0.47900000000000004, 0.11900000000000001, 192.0, 0.0, 0.0, 0.0, 0.0, 0.0, 0.0, 0.0, 0.0, 0.0, 1.741146859028156E9, 0.0, 2025-03-04 21:54:19.028
168.0, -32864.44042497163, -12821.63117189779, -6919.451882773863, 11897.632407859852, -28625.074461111362, 9810.962952490205, -4352.734011737587, 3705.0251609116985, 4605.7557589716625, -1755.4166025419954, -11747.652202564741, 29336.977522012894, -12645.611184312247, -6514.684142432707, 6770.343395512509, 5078.785726879326, -0.012, 0.47900000000000004, 0.11900000000000001, 192.0, 0.0, 0.0, 0.0, 0.0, 0.0, 0.0, 0.0, 0.0, 0.0, 1.741146859028391E9, 0.0, 2025-03-04 21:54:19.028
0.0, -15205.601180267477, -5122.058704144801, -2865.4489356814547, 9135.068551906175, -11593.067537911838, 5989.842830877642, 6958.120400681544, 16338.298182284616, 2303.2578591415718, -871.7180337569754, -5854.748887389766, 14680.357537312215, -6322.995581983993, -3250.88241706877, 3383.8752965778467, 2544.522588792156, -0.008, 0.916, 0.36, 192.0, 127.5, 96.0, 14.0, 80.0, 5.5, 32.0, 0.0, 0.0, 0.0, 1.741146859178116E9, 0.0, 2025-03-04 21:54:19.178
2.0, -30410.39769773456, -10245.279699001278, -5734.205929542295, 18271.053525335017, -23244.182556174106, 11970.32028082851, 13907.680083236704, 32660.32429460577, 33561.01018917682, 1994.1555850691302, -4422.560861415966, 27336.69755896301, -9273.917588462542, -3833.23476710734, 2090.960990305065, 4078.8580869267093, -0.008, 0.916, 0.36, 192.0, 0.0, 0.0, 0.0, 0.0, 0.0, 0.0, 0.0, 0.0, 0.0, 1.741146859178404E9, 0.0, 2025-03-04 21:54:19.178
4.0, -30419.53956121678, -10247.380762980076, -5736.0611243320855, 18254.28971699354, -23188.9737473695, 11958.004469633635, 13887.071774848911, 32644.99099790943, 33584.23365166588, 2012.484015522482, -4413.173128744737, 27348.90161143561, -9285.115812434651, -3836.431066564449, 2080.8803535557217, 4065.4246885090697, -0.008, 0.916, 0.36, 192.0, 0.0, 0.0, 0.0, 0.0, 0.0, 0.0, 0.0, 0.0, 0.0, 1.741146859178621E9, 0.0, 2025-03-04 21:54:19.178
6.0, -30419.651319939057, -10248.945385091947, -5734.854130131499, 18259.832949618452, -23386.38435439877, 11957.915062655815, 13898.314702309932, 32632.22815182545, 33166.45719605174, 1994.1555850691302, -4418.4481404361895, 27321.78894541132, -9267.54734129278, -3836.2746043532616, 2086.512993158459, 4062.4295547520587, -0.008, 0.916, 0.36, 192.0, 0.0, 0.0, 0.0, 0.0, 0.0, 0.0, 0.0, 0.0, 0.0, 1.741146859178858E9, 0.0, 2025-03-04 21:54:19.178
8.0, -30440.527849260314, -10264.3233852772, -5757.5411507536355, 18247.047751790018, -23272.50221639898, 11955.054039365536, 13870.799704885449, 32646.3544543212, 33283.93796490884, 2011.031152132887, -4424.326649227935, 27329.768518181863, -9275.862190230155, -3841.8625404670884, 2078.55577213237, 4059.3450140172263, -0.006, 0.896, 0.41600000000000004, 192.0, 127.5, 104.0, 14.0, 0.0, 6.5, 0.0, 0.0, 0.0, 0.0, 1.741146859179102E9, 0.0, 2025-03-04 21:54:19.179
10.0, -30438.940875403987, -10270.760687680327, -5760.312767066093, 18242.867975576875, -23513.297559416005, 11948.326164284488, 13865.234120516077, 32628.383651779135, 33198.643708067386, 1984.0302448308762, -4451.886350141329, 27290.92118631854, -9292.111908449162, -3874.205514693918, 2056.5393038438924, 4040.234272507939, -0.006, 0.896, 0.41600000000000004, 192.0, 0.0, 0.0, 0.0, 0.0, 0.0, 0.0, 0.0, 0.0, 0.0, 1.741146859179337E9, 0.0, 2025-03-04 21:54:19.179
12.0, -30442.69596847248, -10258.668393930006, -5754.61307222999, 18254.602641415913, -23344.13955737824, 11962.161894102323, 13842.50239640503, 32634.46332627098, 33321.533599082664, 2009.578288743292, -4427.858224851874, 27315.17282905255, -9281.763050766356, -3850.5126655712925, 2060.5179143569367, 4035.071019538763, -0.006, 0.896, 0.41600000000000004, 192.0, 0.0, 0.0, 0.0, 0.0, 0.0, 0.0, 0.0, 0.0, 0.0, 1.741146859179559E9, 0.0, 2025-03-04 21:54:19.179
14.0, -30435.36459629114, -10256.880254373582, -5753.6072437295015, 18250.445216947224, -23557.017571570585, 11945.93452762777, 13820.64239032774, 32607.842398624707, 33196.29677489958, 2011.2993730663507, -4441.582195947432, 27299.526607933833, -9281.718347277445, -3845.2823573687506, 2067.2457894379845, 4039.384906218637, -0.006, 0.896, 0.41600000000000004, 192.0, 0.0, 0.0, 0.0, 0.0, 0.0, 0.0, 0.0, 0.0, 0.0, 1.741146859179799E9, 0.0, 2025-03-04 21:54:19.179
16.0, -30432.995311378876, -10257.304937518233, -5752.444953017825, 18266.873749121874, -23386.33965090986, 11952.46123700872, 13829.73955032105, 32610.703421914986, 33182.058713681545, 2039.8649024802332, -4417.084684024416, 27322.280683789337, -9271.034213427809, -3840.923767199966, 2068.899818527677, 4040.9495283305087, -0.006, 0.896, 0.41600000000000004, 192.0, 0.0, 0.0, 0.0, 0.0, 0.0, 0.0, 0.0, 0.0, 0.0, 1.741146859237931E9, 0.0, 2025-03-04 21:54:19.237
18.0, -30436.30336955826, -10253.393382238553, -5752.444953017825, 18257.597775172922, -23579.52577823708, 11943.431132248776, 13813.758053035504, 32589.20104374898, 33119.764401884604, 2022.519948782915, -4438.944690101706, 27291.859959585665, -9291.419004371048, -3855.8323807516554, 2058.036870722398, 4037.708525384489, 0.004, 0.882, 0.44, 192.0, 0.0, 16.0, 13.5, 72.0, 6.5, 96.0, 0.0, 0.0, 0.0, 1.741146859238187E9, 0.0, 2025-03-04 21:54:19.238
20.0, -30433.911732901543, -10253.639251427561, -5751.66264196189, 18268.8630543784, -23365.351362866328, 11948.996716618147, 13794.736718504038, 32592.397343206092, 33082.03465724405, 2046.257501394451, -4410.222698476637, 27311.060108072772, -9270.7883442388, -3843.3154038566836, 2063.8483242807774, 4043.3188132427713, 0.004, 0.882, 0.44, 192.0, 0.0, 0.0, 0.0, 0.0, 0.0, 0.0, 0.0, 0.0, 0.0, 1.741146859238449E9, 0.0, 2025-03-04 21:54:19.238
22.0, -30436.482183513905, -10248.78892288076, -5752.7578774402, 18261.822254874976, -23550.7590831231, 11951.678925952785, 13803.92328547517, 32604.802561378787, 33105.95102381123, 2047.933882228599, -4425.287774239513, 27293.82691309773, -9274.565789051747, -3840.0296974217536, 2056.3381381437944, 4048.482066211947, 0.004, 0.882, 0.44, 192.0, 0.0, 0.0, 0.0, 0.0, 0.0, 0.0, 0.0, 0.0, 0.0, 1.741146859238668E9, 0.0, 2025-03-04 21:54:19.238
24.0, -30425.798049664267, -10250.375896737087, -5755.395383285926, 18265.443237476735, -23414.34638671236, 11944.928699127282, 13786.06424165538, 32598.722886886942, 33011.96193837666, 2055.6899375545904, -4411.541451399499, 27302.365279479658, -9264.373393580127, -3857.3746511190716, 2060.1826381901074, 4045.6880981550335, 0.004, 0.882, 0.44, 192.0, 0.0, 0.0, 0.0, 0.0, 0.0, 0.0, 0.0, 0.0, 0.0, 1.741146859238891E9, 0.0, 2025-03-04 21:54:19.238
26.0, -30434.425823024016, -10250.040620570258, -5766.057165391107, 18248.455911690704, -23569.981583354664, 11938.133768812868, 13783.136163131734, 32581.422636678537, 33073.6080495844, 2064.3400626587945, -4417.107035768871, 27296.6432328991, -9270.31895760524, -3839.1579793879964, 2053.9912049759873, 4042.51415044238, 0.004, 0.882, 0.44, 192.0, 0.0, 0.0, 0.0, 0.0, 0.0, 0.0, 0.0, 0.0, 0.0, 1.74114685923911E9, 0.0, 2025-03-04 21:54:19.239
28.0, -30456.30818084576, -10281.489525018875, -5790.018235447197, 18220.829155543943, -23388.53012186648, 11895.061957247492, 13748.513310970464, 32555.025226476817, 32980.24481299458, 2050.9737194745207, -4418.358733458368, 27287.903700817074, -9273.872884973633, -3864.9295407449654, 2036.3333268562947, 4023.515167655369, 0.002, 0.864, 0.444, 192.0, 0.0, 8.0, 13.5, 0.0, 6.5, 112.0, 0.0, 0.0, 0.0, 1.741146859239323E9, 0.0, 2025-03-04 21:54:19.239
30.0, -30454.296523844783, -10276.683899960983, -5776.853057963021, 18208.8486205159, -23529.65903635729, 11911.73635861115, 13763.1984070776, 32567.92218302753, 33138.74103292716, 2032.935861699088, -4432.842663865407, 27270.268174441837, -9289.02736771433, -3881.2463141973394, 2027.3926290741717, 4016.6531821075896, 0.002, 0.864, 0.444, 192.0, 0.0, 0.0, 0.0, 0.0, 0.0, 0.0, 0.0, 0.0, 0.0, 1.741146859299015E9, 0.0, 2025-03-04 21:54:19.299
32.0, -30449.580305764714, -10281.020138385313, -5773.254427105717, 18215.934123508232, -23397.806095815435, 11909.232963232156, 13728.62025840524, 32564.502366125867, 32982.748208373574, 2054.795867776378, -4420.996239304094, 27284.953270548973, -9273.939940206998, -3862.3814418770603, 2034.1428558996745, 4031.9864788039304, 0.002, 0.864, 0.444, 192.0, 0.0, 0.0, 0.0, 0.0, 0.0, 0.0, 0.0, 0.0, 0.0, 1.741146859299259E9, 0.0, 2025-03-04 21:54:19.299
34.0, -30448.842698197688, -10263.719888176905, -5748.309880293594, 18214.905943263286, -23489.917634715755, 11916.765501113594, 13730.967191573047, 32572.30312494077, 33200.78947553509, 2056.516952099437, -4432.060352809472, 27268.837662796697, -9284.869943245643, -3868.1258402020744, 2034.1875593885852, 4031.22651949245, 0.002, 0.864, 0.444, 192.0, 0.0, 0.0, 0.0, 0.0, 0.0, 0.0, 0.0, 0.0, 0.0, 1.74114685929949E9, 0.0, 2025-03-04 21:54:19.299
36.0, -30463.25957337136, -10293.335949580187, -5751.059144861597, 18208.915675749264, -23400.35419468334, 11889.25050368911, 13699.51828712443, 32554.66759856553, 33034.82777295444, 2063.0436614803866, -4444.867902382362, 27262.802691793764, -9274.11875416264, -3872.3503199041274, 2035.193387889074, 4025.7950455898103, 0.002, 0.864, 0.444, 192.0, 0.0, 0.0, 0.0, 0.0, 0.0, 0.0, 0.0, 0.0, 0.0, 1.741146859299731E9, 0.0, 2025-03-04 21:54:19.299
38.0, -30480.068085201754, -10303.595400285174, -5760.5362845106465, 18185.02166092654, -23438.933305613198, 11886.121259465368, 13666.504760563943, 32550.420767119023, 33291.269337090176, 2041.094248425275, -4476.450917297711, 27235.511211813835, -9278.812620498255, -3896.646666127046, 2015.0097626459317, 3995.843708019699, -0.01, 0.876, 0.438, 192.0, 127.5, 88.0, 13.5, 48.0, 6.5, 88.0, 0.0, 0.0, 0.0, 1.741146859300074E9, 0.0, 2025-03-04 21:54:19.300
40.0, -30468.22166064044, -10290.720795478916, -5745.739429681234, 18192.621254041347, -23393.089877735365, 11878.096983205913, 13656.2229581145, 32558.62385733412, 33087.64494510233, 2026.5432627848702, -4492.655932027809, 27227.464583809924, -9282.075975188729, -3897.3395702051607, 2011.2546695774402, 3996.6707225645455, -0.01, 0.876, 0.438, 192.0, 0.0, 0.0, 0.0, 0.0, 0.0, 0.0, 0.0, 0.0, 0.0, 1.741146859300326E9, 0.0, 2025-03-04 21:54:19.300
42.0, -30492.07097197425, -10301.382577584098, -5758.211703087295, 18163.742800205087, -23390.407668400727, 11852.191311382212, 13646.231728342978, 32539.803688502754, 33352.62487561999, 2049.610263062747, -4487.157402891803, 27240.272133382816, -9267.770858737333, -3881.6709973419906, 2010.450006777049, 4003.778577301333, -0.01, 0.876, 0.438, 192.0, 0.0, 0.0, 0.0, 0.0, 0.0, 0.0, 0.0, 0.0, 0.0, 1.74114685930058E9, 0.0, 2025-03-04 21:54:19.300
44.0, -30506.957233781486, -10335.893671023092, -5779.445860319836, 18136.563078947434, -23383.25511017503, 11829.10195935988, 13616.325094261778, 32535.892133223075, 33176.49312931218, 2026.16328312913, -4509.106815946915, 27203.70467945393, -9302.37135915415, -3912.9634395794205, 1988.1206140661973, 3980.0186729453417, -0.01, 0.876, 0.438, 192.0, 0.0, 0.0, 0.0, 0.0, 0.0, 0.0, 0.0, 0.0, 0.0, 1.741146859300801E9, 0.0, 2025-03-04 21:54:19.300
46.0, -30514.109792007184, -10331.892708765592, -5783.826802233077, 18114.9265903147, -23340.29505733193, 11824.72101744664, 13592.83341083925, 32508.690060220968, 33475.44771140191, 2032.064143665331, -4506.514013590099, 27211.52779001329, -9291.910742749065, -3913.2763640017947, 1985.7960326428454, 3975.816544987744, -0.01, 0.876, 0.438, 192.0, 0.0, 0.0, 0.0, 0.0, 0.0, 0.0, 0.0, 0.0, 0.0, 1.741146859358686E9, 0.0, 2025-03-04 21:54:19.358
48.0, -30531.90178059361, -10362.179322502532, -5822.092988740563, 18070.983060715564, -23394.185113213673, 11780.486915169588, 13542.67609628154, 32450.75433859281, 33283.31211606409, 2002.5598409843258, -4526.3400109219565, 27185.085676322662, -9317.883469806131, -3950.983756897898, 1962.7960875983345, 3948.458009774448, -0.024, 0.872, 0.442, 192.0, 127.5, 32.0, 13.5, 32.0, 6.5, 104.0, 0.0, 0.0, 0.0, 1.741146859358932E9, 0.0, 2025-03-04 21:54:19.358
50.0, -30537.221495773974, -10365.554435915285, -5827.7256283433, 18051.24647036153, -23307.23682728253, 11785.337243716389, 13573.83442805224, 32470.490928946845, 33548.62732274858, 2007.8348526757782, -4521.512034119611, 27192.8193799042, -9326.332429210237, -3972.5308385528137, 1960.6726718750801, 3932.3424020221714, -0.024, 0.872, 0.442, 192.0, 0.0, 0.0, 0.0, 0.0, 0.0, 0.0, 0.0, 0.0, 0.0, 1.741146859359174E9, 0.0, 2025-03-04 21:54:19.359
52.0, -30508.499504148902, -10337.972383257436, -5803.809261776121, 18072.480627594072, -23408.53493315398, 11825.235107569111, 13594.085108528747, 32516.24494984686, 33378.575250932605, 2025.9174139401216, -4511.789025281551, 27198.072039851195, -9302.684283576524, -3943.942957394476, 1984.1420035531526, 3970.0497949182745, -0.024, 0.872, 0.442, 192.0, 0.0, 0.0, 0.0, 0.0, 0.0, 0.0, 0.0, 0.0, 0.0, 1.741146859359412E9, 0.0, 2025-03-04 21:54:19.359
54.0, -30520.61414964368, -10364.928587070535, -5823.121168985506, 18033.56624049738, -23298.81021962288, 11800.938761346193, 13560.892768012616, 32481.62209768559, 33579.137453930074, 2043.9552717155543, -4481.770632478075, 27225.00589191984, -9284.892294990099, -3935.002259612353, 1995.4519862475381, 3980.4880595789027, -0.024, 0.872, 0.442, 192.0, 0.0, 0.0, 0.0, 0.0, 0.0, 0.0, 0.0, 0.0, 0.0, 1.741146859359624E9, 0.0, 2025-03-04 21:54:19.359
56.0, -30517.104925764197, -10358.625395134139, -5817.91321252742, 18025.72077819357, -23410.859514577332, 11797.161316533246, 13547.749942272896, 32461.639638142544, 33400.14468433198, 2022.8775766942, -4515.968801494694, 27195.926272383487, -9306.774652811844, -3939.204387569951, 1980.9457040960438, 3965.0877076491965, -0.029, 0.869, 0.444, 192.0, 127.0, 120.0, 13.5, 8.0, 6.5, 120.0, 0.0, 0.0, 0.0, 1.741146859359852E9, 0.0, 2025-03-04 21:54:19.359
58.0, -30534.069899805774, -10375.81388662027, -5830.988983033774, 17998.921036591655, -23219.327416339805, 11778.56466514643, 13532.282535109824, 32459.09153927464, 33576.768169017814, 2037.540321056881, -4510.917307247795, 27209.069098123207, -9307.60166735669, -3957.3540040676603, 1986.935971610066, 3957.4434110454813, -0.029, 0.869, 0.444, 192.0, 0.0, 0.0, 0.0, 0.0, 0.0, 0.0, 0.0, 0.0, 0.0, 1.741146859360113E9, 0.0, 2025-03-04 21:54:19.360
60.0, -30530.180696270552, -10367.141409771612, -5823.232927707783, 18001.491487204014, -23347.447615557627, 11784.75609836055, 13550.454503351988, 32471.09442604714, 33441.76363250776, 2022.229376104996, -4530.296269690546, 27182.604632688122, -9302.08078647623, -3959.0303849018082, 1988.0759105772868, 3959.2986058352717, -0.029, 0.869, 0.444, 192.0, 0.0, 0.0, 0.0, 0.0, 0.0, 0.0, 0.0, 0.0, 0.0, 1.741146859419554E9, 0.0, 2025-03-04 21:54:19.419
62.0, -30519.451858932003, -10361.084087024223, -5822.249450951749, 17996.439992957115, -23149.500566661427, 11784.353766960356, 13526.046398406792, 32448.139184491538, 33555.26579085181, 2040.580158302803, -4511.409045625812, 27201.402449775036, -9293.050681716286, -3954.1800563550064, 1987.8300413882782, 3956.750506967367, -0.029, 0.869, 0.444, 192.0, 0.0, 0.0, 0.0, 0.0, 0.0, 0.0, 0.0, 0.0, 0.0, 1.741146859419813E9, 0.0, 2025-03-04 21:54:19.419
64.0, -30504.163265724572, -10337.055961734768, -5804.971552487797, 18003.793716882912, -23307.125068560254, 11819.177784821724, 13546.766465516863, 32480.593917440645, 33435.88512371601, 2061.344928901783, -4501.015484454094, 27215.68521448198, -9275.102230918674, -3928.3861432535823, 2008.1477770981523, 3984.3102078807606, -0.029, 0.869, 0.444, 192.0, 0.0, 0.0, 0.0, 0.0, 0.0, 0.0, 0.0, 0.0, 0.0, 1.741146859420053E9, 0.0, 2025-03-04 21:54:19.420
66.0, -30496.18369295403, -10351.942223542002, -5814.716913070311, 17976.435181669614, -23083.965251918467, 11796.848392110873, 13505.706310952462, 32455.47055667288, 33495.541929667226, 2064.384766147705, -4481.636522011343, 27232.91840945702, -9278.633806542612, -3937.393896269071, 2013.6239544897026, 3986.903010237576, -0.0375, 0.8614999999999999, 0.449, 192.0, 127.0, 72.0, 13.0, 88.0, 7.0, 24.0, 0.0, 0.0, 0.0, 1.741146859420282E9, 0.0, 2025-03-04 21:54:19.420
68.0, -30486.70655330498, -10317.587592314196, -5790.979360458775, 17969.75201007748, -23249.03288472091, 11823.849299412883, 13511.428357533021, 32456.27521947327, 33469.122167721056, 2065.1000219702746, -4484.564600534988, 27225.184705875483, -9265.78155348081, -3928.743771164867, 2019.5918702592696, 3989.5852195722127, -0.0375, 0.8614999999999999, 0.449, 192.0, 0.0, 0.0, 0.0, 0.0, 0.0, 0.0, 0.0, 0.0, 0.0, 1.741146859420518E9, 0.0, 2025-03-04 21:54:19.420
70.0, -30490.573405095747, -10337.167720457044, -5796.008502961219, 17946.21562316604, -23061.94878362999, 11796.423708966222, 13512.43418603351, 32437.164477963983, 33481.549737638205, 2079.583952377314, -4458.301300800002, 27249.302238142758, -9253.01870739683, -3915.9585733364315, 2029.0019546749538, 4001.9457342559976, -0.0375, 0.8614999999999999, 0.449, 192.0, 0.0, 0.0, 0.0, 0.0, 0.0, 0.0, 0.0, 0.0, 0.0, 1.741146859420737E9, 0.0, 2025-03-04 21:54:19.420
72.0, -30488.852320772687, -10332.719723310438, -5777.970645185786, 17953.658754069656, -23234.995989202976, 11801.89988635777, 13527.67807575203, 32441.768937321776, 33490.91511856498, 2069.5927226057916, -4472.4499550402115, 27234.7289007579, -9253.130466119108, -3920.8983088610544, 2040.960137958543, 4016.5414233853135, -0.0375, 0.8614999999999999, 0.449, 192.0, 0.0, 0.0, 0.0, 0.0, 0.0, 0.0, 0.0, 0.0, 0.0, 1.741146859420955E9, 0.0, 2025-03-04 21:54:19.420
74.0, -30481.073913702243, -10338.62058384664, -5778.2612178637055, 17962.375934407228, -23074.89044366961, 11789.673482140719, 13528.907421697071, 32449.010902525297, 33439.17083015094, 2080.0309872664197, -4455.484980998634, 27249.57045907622, -9238.82534966771, -3918.2831547597834, 2046.3916118611828, 4018.5307286418356, -0.0375, 0.8614999999999999, 0.449, 192.0, 0.0, 0.0, 0.0, 0.0, 0.0, 0.0, 0.0, 0.0, 0.0, 1.74114685942117E9, 0.0, 2025-03-04 21:54:19.421
76.0, -30474.5919078102, -10318.168737670034, -5763.598473501024, 17966.287489686907, -23276.458475167572, 11805.766738148539, 13503.649950462575, 32470.334466735658, 33474.12895847904, 2079.0251587659313, -4453.741544931119, 27237.187592647984, -9244.480341014903, -3917.9255268484985, 2062.1495917021743, 4029.2819177248384, -0.053750000000000006, 0.8627499999999999, 0.4515, 192.0, 126.5, 104.0, 13.5, 0.0, 7.0, 24.0, 0.0, 0.0, 0.0, 1.741146859478357E9, 0.0, 2025-03-04 21:54:19.478
78.0, -30470.434483341516, -10310.815013744237, -5757.317633309082, 17981.30786196087, -23168.00781107042, 11816.80849990946, 13512.34477905569, 32485.332487265172, 33309.73187801026, 2105.579031178836, -4426.293602740002, 27263.942630760987, -9219.222869780406, -3892.6680556140013, 2085.373054191238, 4046.3362987442374, -0.053750000000000006, 0.8627499999999999, 0.4515, 192.0, 0.0, 0.0, 0.0, 0.0, 0.0, 0.0, 0.0, 0.0, 0.0, 1.741146859478633E9, 0.0, 2025-03-04 21:54:19.478
80.0, -30484.8960620041, -10332.943240754992, -5778.216514374794, 17935.777358505413, -23331.823746183367, 11795.194363021179, 13485.880313620606, 32456.006998539808, 33397.57423371962, 2088.904629815177, -4429.3110882414685, 27240.406243849546, -9236.411361266537, -3910.7506168783448, 2080.232152966518, 4037.2391387509274, -0.053750000000000006, 0.8627499999999999, 0.4515, 192.0, 0.0, 0.0, 0.0, 0.0, 0.0, 0.0, 0.0, 0.0, 0.0, 1.741146859478886E9, 0.0, 2025-03-04 21:54:19.478
82.0, -30476.424750855538, -10321.253278404865, -5772.002729416219, 17942.237012652997, -23240.82979450581, 11813.43338649671, 13504.43226151851, 32484.840748887153, 33169.11705364192, 2073.8172023078446, -4425.8465678508965, 27219.887342439575, -9221.480395970393, -3921.9935443393642, 2090.513955415959, 4032.32175497076, -0.053750000000000006, 0.8627499999999999, 0.4515, 192.0, 0.0, 0.0, 0.0, 0.0, 0.0, 0.0, 0.0, 0.0, 0.0, 1.741146859479107E9, 0.0, 2025-03-04 21:54:19.479
84.0, -30475.150701421586, -10298.253333360355, -5761.631519988957, 17937.185518406095, -23356.634182528756, 11829.05725587097, 13522.403064060578, 32492.37328676859, 33310.82711348857, 2110.2728975144505, -4423.521986427544, 27241.14385141657, -9220.318105258717, -3886.878953800077, 2123.795702909911, 4062.4966099854246, -0.053750000000000006, 0.8627499999999999, 0.4515, 192.0, 0.0, 0.0, 0.0, 0.0, 0.0, 0.0, 0.0, 0.0, 0.0, 1.741146859479335E9, 0.0, 2025-03-04 21:54:19.479
86.0, -30452.530736032815, -10307.596362542674, -5761.631519988957, 17937.945477717578, -23302.967644091565, 11811.198212051178, 13498.441994004488, 32478.04581857274, 33101.033640031055, 2102.7850631219226, -4414.2236607341365, 27246.418863108025, -9220.631029681092, -3910.1471197780515, 2127.394333767216, 4054.8523133817093, -0.066875, 0.8623749999999999, 0.45675, 192.0, 126.5, 64.0, 13.0, 120.0, 7.0, 56.0, 0.0, 0.0, 0.0, 1.741146859479565E9, 0.0, 2025-03-04 21:54:19.479
88.0, -30464.243050127396, -10294.408833314043, -5761.430354288859, 17931.910506714645, -23351.493281304036, 11837.953250164182, 13518.223287847435, 32504.95731889693, 33331.50247710973, 2116.4643307285705, -4404.567707129444, 27271.072837242227, -9217.501785457347, -3889.8293840681777, 2152.897674190721, 4079.61804623819, -0.066875, 0.8623749999999999, 0.45675, 192.0, 0.0, 0.0, 0.0, 0.0, 0.0, 0.0, 0.0, 0.0, 0.0, 1.741146859479808E9, 0.0, 2025-03-04 21:54:19.479
90.0, -30455.905849445564, -10312.04435968928, -5769.208761359306, 17916.487803040483, -23334.394196795725, 11810.885287628806, 13481.544075196276, 32473.977801081874, 33148.709910954225, 2099.6558188981794, -4413.217832233648, 27262.35565690466, -9220.899250614555, -3904.3803697085823, 2144.4934182755255, 4067.27988329886, -0.066875, 0.8623749999999999, 0.45675, 192.0, 0.0, 0.0, 0.0, 0.0, 0.0, 0.0, 0.0, 0.0, 0.0, 1.741146859538572E9, 0.0, 2025-03-04 21:54:19.538
92.0, -30452.97777092192, -10293.805336213749, -5759.28458682115, 17920.287599597883, -23303.928769103142, 11834.712247218162, 13472.983357069894, 32481.398580241035, 33476.23002245784, 2105.377865478738, -4400.700855338676, 27281.44404666949, -9206.504727185336, -3897.9877707943647, 2177.4622413471034, 4080.065081127296, -0.066875, 0.8623749999999999, 0.45675, 192.0, 0.0, 0.0, 0.0, 0.0, 0.0, 0.0, 0.0, 0.0, 0.0, 1.741146859538825E9, 0.0, 2025-03-04 21:54:19.538
94.0, -30440.59490449368, -10287.479792532897, -5752.556711740102, 17936.626724794714, -23325.364092035783, 11838.82496819794, 13479.24184551738, 32472.256716758817, 33322.53942758315, 2123.8180546543663, -4382.461831863146, 27300.621843412144, -9188.265703709807, -3863.2084564219067, 2194.9636572556087, 4101.031017426374, -0.066875, 0.8623749999999999, 0.45675, 192.0, 0.0, 0.0, 0.0, 0.0, 0.0, 0.0, 0.0, 0.0, 0.0, 1.741146859539053E9, 0.0, 2025-03-04 21:54:19.539
96.0, -30459.12450064713, -10294.297074591765, -5768.180581114362, 17914.36438731723, -23257.012457491455, 11839.20494785368, 13464.467342432421, 32473.642524915045, 33623.28214922931, 2119.8170923968664, -4398.10805298186, 27296.754991621376, -9208.15875627503, -3881.782756064267, 2181.507907093514, 4084.736595718455, -0.0754375, 0.8671875, 0.465375, 192.0, 126.5, 48.0, 13.5, 32.0, 7.0, 104.0, 0.0, 0.0, 0.0, 1.74114685953927E9, 0.0, 2025-03-04 21:54:19.539
98.0, -30441.757195205355, -10285.89281867657, -5758.882255420954, 17924.936762444588, -23323.195972823618, 11839.920203676249, 13469.362374468134, 32452.542478149237, 33456.82870827064, 2130.389467524227, -4401.460814650156, 27284.863863571154, -9202.146137016553, -3862.783773277256, 2198.7858055574666, 4103.467357572003, -0.0754375, 0.8671875, 0.465375, 192.0, 0.0, 0.0, 0.0, 0.0, 0.0, 0.0, 0.0, 0.0, 0.0, 1.741146859539518E9, 0.0, 2025-03-04 21:54:19.539
100.0, -30450.9884656654, -10297.985112426892, -5769.186409614851, 17913.24680009446, -23224.848297220266, 11845.48578804562, 13450.452798658944, 32496.865987404108, 33734.43737440555, 2134.703354204101, -4393.280076179513, 27298.856055600176, -9204.716587628913, -3860.392136620538, 2201.356256169827, 4102.8862122161645, -0.0754375, 0.8671875, 0.465375, 192.0, 0.0, 0.0, 0.0, 0.0, 0.0, 0.0, 0.0, 0.0, 0.0, 1.741146859539744E9, 0.0, 2025-03-04 21:54:19.539
102.0, -30454.765910478345, -10313.586630056696, -5780.630502775968, 17911.01162564893, -23291.99293756401, 11829.012552382059, 13463.930900565494, 32484.37136225359, 33617.537750904296, 2113.9162318606654, -4411.720265355142, 27281.354639691668, -9193.361901445616, -3876.172468205985, 2204.1725759711953, 4111.446930342547, -0.0754375, 0.8671875, 0.465375, 192.0, 0.0, 0.0, 0.0, 0.0, 0.0, 0.0, 0.0, 0.0, 0.0, 1.74114685953997E9, 0.0, 2025-03-04 21:54:19.539
104.0, -30466.32176236174, -10301.404929328553, -5775.623712017979, 17925.316742100327, -23131.932095519554, 11835.114578618357, 13452.285641704279, 32489.780484411778, 33901.11433280878, 2120.9793831085426, -4397.862183792851, 27297.850227099687, -9192.780756089778, -3875.4125088945043, 2221.919861068709, 4109.390569852659, -0.0754375, 0.8671875, 0.465375, 192.0, 0.0, 0.0, 0.0, 0.0, 0.0, 0.0, 0.0, 0.0, 0.0, 1.741146859540203E9, 0.0, 2025-03-04 21:54:19.540
106.0, -30451.614314510145, -10297.471022304419, -5771.600398016024, 17936.26909688343, -23263.762684316956, 11846.983354924127, 13470.837589602184, 32503.035068873774, 33819.083430657796, 2124.488606988026, -4381.2324859181035, 27305.181599281026, -9190.925561299988, -3855.564159818192, 2242.4834659675917, 4133.083418975284, -0.07571875, 0.8675937499999999, 0.4746875, 192.0, 126.5, 80.0, 13.5, 16.0, 7.5, 16.0, 0.0, 0.0, 0.0, 1.741146859600336E9, 0.0, 2025-03-04 21:54:19.600
108.0, -30462.387855337605, -10323.42139761703, -5797.215497161806, 17910.765756459925, -23115.57061857827, 11817.233183054112, 13445.557766623231, 32463.785405610255, 34072.37339882534, 2124.4662552435702, -4364.669843276721, 27309.808410383277, -9197.944009058954, -3869.0199099802867, 2244.0927915683737, 4128.098979961751, -0.07571875, 0.8675937499999999, 0.4746875, 192.0, 0.0, 0.0, 0.0, 0.0, 0.0, 0.0, 0.0, 0.0, 0.0, 1.741146859600617E9, 0.0, 2025-03-04 21:54:19.600
110.0, -30460.063273914253, -10308.713949765439, -5787.604247046023, 17925.897887456165, -23273.8433210663, 11838.892023431305, 13449.08934224717, 32469.261583001804, 34013.61066265233, 2109.3788277362382, -4372.068270691428, 27287.702535116976, -9211.265648754317, -3871.500953614826, 2247.222035792117, 4136.614994599223, -0.07571875, 0.8675937499999999, 0.4746875, 192.0, 0.0, 0.0, 0.0, 0.0, 0.0, 0.0, 0.0, 0.0, 0.0, 1.741146859600869E9, 0.0, 2025-03-04 21:54:19.600
112.0, -30470.166262408053, -10312.714912022939, -5798.95893322932, 17917.136003629686, -23109.11096443069, 11831.091264616403, 13448.284679446779, 32459.51622241929, 34201.74529573265, 2124.6227174547575, -4348.934215180185, 27305.31570974776, -9206.616485907613, -3856.458229596404, 2264.54463774498, 4159.279663476904, -0.07571875, 0.8675937499999999, 0.4746875, 192.0, 0.0, 0.0, 0.0, 0.0, 0.0, 0.0, 0.0, 0.0, 0.0, 1.741146859601089E9, 0.0, 2025-03-04 21:54:19.601
114.0, -30466.277058872827, -10309.362150354642, -5791.851078492532, 17912.665654738626, -23303.012347580476, 11835.047523384992, 13433.353714150635, 32452.6095333826, 34168.821176149984, 2116.9113656176764, -4350.074154147405, 27291.50233167438, -9210.05865455373, -3862.8955319995325, 2288.304542100971, 4185.453556234069, -0.07571875, 0.8675937499999999, 0.4746875, 192.0, 0.0, 0.0, 0.0, 0.0, 0.0, 0.0, 0.0, 0.0, 0.0, 1.741146859601312E9, 0.0, 2025-03-04 21:54:19.601
116.0, -30460.510308803357, -10306.858754975648, -5787.157212156918, 17923.506250799448, -23127.037063483844, 11839.62963099833, 13447.792941068763, 32460.700864875424, 34271.08040703302, 2127.7519616785007, -4320.838072399863, 27315.329291263737, -9192.646645623046, -3855.3853458625495, 2305.9624202206637, 4211.1804141021275, -0.069859375, 0.8587968749999999, 0.48434374999999996, 192.0, 127.0, 0.0, 13.0, 72.0, 7.5, 56.0, 0.0, 0.0, 0.0, 1.741146859601526E9, 0.0, 2025-03-04 21:54:19.601
118.0, -30461.247916370383, -10311.843193989182, -5792.678093037378, 17909.849334937255, -23325.252333313507, 11822.172918578735, 13447.99410676886, 32434.45991688489, 34269.5381366656, 2119.0124295964756, -4327.185967825171, 27312.155343551083, -9207.890535341565, -3847.2493108808176, 2299.1674899062505, 4227.318373598859, -0.069859375, 0.8587968749999999, 0.48434374999999996, 192.0, 0.0, 0.0, 0.0, 0.0, 0.0, 0.0, 0.0, 0.0, 0.0, 1.741146859601754E9, 0.0, 2025-03-04 21:54:19.601
120.0, -30468.22166064044, -10321.096816193678, -5805.150366443439, 17912.710358227534, -23160.810549355814, 11823.156395334769, 13450.586909125675, 32434.88460002954, 34284.73732289521, 2119.481816230037, -4318.379380509779, 27322.526552978346, -9205.811823107222, -3853.0607644391976, 2285.376463577326, 4231.699315512099, -0.069859375, 0.8587968749999999, 0.48434374999999996, 192.0, 0.0, 0.0, 0.0, 0.0, 0.0, 0.0, 0.0, 0.0, 0.0, 1.741146859659225E9, 0.0, 2025-03-04 21:54:19.659
122.0, -30460.443253569993, -10308.333970109697, -5793.393348859948, 17911.0786808823, -23343.536060277947, 11844.792883967506, 13431.856147272129, 32445.769899579278, 34336.191038631325, 2111.9269266041433, -4330.538729493467, 27297.939634077506, -9204.53777367327, -3857.24054065234, 2279.5203065300357, 4234.515635313468, -0.069859375, 0.8587968749999999, 0.48434374999999996, 192.0, 0.0, 0.0, 0.0, 0.0, 0.0, 0.0, 0.0, 0.0, 0.0, 1.741146859659468E9, 0.0, 2025-03-04 21:54:19.659
124.0, -30458.811576224754, -10311.41851084453, -5801.752901286233, 17914.54320127287, -23188.102029335743, 11841.596584510396, 13417.171051164993, 32441.52306813277, 34335.09580315302, 2131.70822044709, -4307.762301893509, 27314.479924974436, -9187.751613587334, -3844.209473634896, 2291.0538066689737, 4253.4475628671125, -0.069859375, 0.8587968749999999, 0.48434374999999996, 192.0, 0.0, 0.0, 0.0, 0.0, 0.0, 0.0, 0.0, 0.0, 0.0, 1.741146859659703E9, 0.0, 2025-03-04 21:54:19.659
126.0, -30472.960230464963, -10311.306752122255, -5801.864660008509, 17900.573360988303, -23361.886842475757, 11836.790959452506, 13422.803690767729, 32433.565847106678, 34468.178089639914, 2121.448769742104, -4328.035334114473, 27292.329346219227, -9199.888610826565, -3857.4193546079823, 2276.7039867286667, 4242.182283661638, -0.0609296875, 0.8523984375, 0.489171875, 192.0, 127.0, 48.0, 13.0, 56.0, 7.5, 56.0, 0.0, 0.0, 0.0, 1.741146859659942E9, 0.0, 2025-03-04 21:54:19.659
128.0, -30481.833873013722, -10327.958801741457, -5814.560450859124, 17898.896980154157, -23247.80353877587, 11825.883308158316, 13398.417937566988, 32434.75048956281, 34411.09173430106, 2126.8578919002885, -4322.872081145297, 27305.650985914588, -9206.169451018506, -3850.5797208046583, 2274.4688122831362, 4240.483551083034, -0.0609296875, 0.8523984375, 0.489171875, 192.0, 0.0, 0.0, 0.0, 0.0, 0.0, 0.0, 0.0, 0.0, 0.0, 1.741146859660168E9, 0.0, 2025-03-04 21:54:19.660
130.0, -30476.82708225573, -10315.821804502226, -5805.798567032643, 17890.984462616976, -23407.573808142402, 11830.443064027198, 13402.955341691417, 32434.728137818354, 34569.140919344536, 2101.8239381103444, -4353.024584415506, 27279.052410012773, -9224.631991938591, -3870.919808258988, 2251.7817916609993, 4226.804283476386, -0.0609296875, 0.8523984375, 0.489171875, 192.0, 0.0, 0.0, 0.0, 0.0, 0.0, 0.0, 0.0, 0.0, 0.0, 1.741146859660391E9, 0.0, 2025-03-04 21:54:19.660
132.0, -30472.379085109125, -10313.094891678678, -5805.396235632448, 17903.859067423233, -23319.910266388688, 11838.266174586555, 13403.3129696027, 32429.18490519344, 34483.01964795824, 2126.6120227112797, -4337.534825507978, 27306.433296970525, -9210.259820253828, -3848.14338065903, 2253.9275591287087, 4236.9519754590965, -0.0609296875, 0.8523984375, 0.489171875, 192.0, 0.0, 0.0, 0.0, 0.0, 0.0, 0.0, 0.0, 0.0, 0.0, 1.741146859660633E9, 0.0, 2025-03-04 21:54:19.660
134.0, -30472.35673336467, -10307.171679398023, -5794.734453527267, 17893.130230084687, -23462.313230313448, 11839.316706575955, 13391.846524697128, 32424.04400396872, 34681.59254569919, 2116.1961097951066, -4352.152866381749, 27295.749163120887, -9210.438634209471, -3857.4193546079823, 2241.678803167201, 4226.826635220842, -0.0609296875, 0.8523984375, 0.489171875, 192.0, 0.0, 0.0, 0.0, 0.0, 0.0, 0.0, 0.0, 0.0, 0.0, 1.741146859660854E9, 0.0, 2025-03-04 21:54:19.660
136.0, -30477.922317734043, -10316.961743469446, -5803.138709442462, 17901.065099366322, -23398.811924315924, 11821.256497056067, 13359.436495236934, 32402.631032780533, 34544.62105567707, 2118.900670874199, -4352.264625104025, 27299.5936631672, -9210.595096420659, -3851.384383605049, 2242.505817712047, 4215.539004270912, -0.05746484375, 0.8551992187499999, 0.4885859375, 192.0, 127.0, 40.0, 13.0, 104.0, 7.5, 32.0, 0.0, 0.0, 0.0, 1.741146859718536E9, 0.0, 2025-03-04 21:54:19.718
138.0, -30490.863977773664, -10311.485566077896, -5802.803433275632, 17886.424706748094, -23468.147035616286, 11826.643267469797, 13357.335431258134, 32406.11790491556, 34803.186035536055, 2118.0513045848975, -4371.285959635492, 27284.34977344868, -9222.620334937614, -3863.9013605000214, 2220.7799221014884, 4196.092986594795, -0.05746484375, 0.8551992187499999, 0.4885859375, 192.0, 0.0, 0.0, 0.0, 0.0, 0.0, 0.0, 0.0, 0.0, 0.0, 1.741146859718795E9, 0.0, 2025-03-04 21:54:19.718
140.0, -30475.530681077325, -10318.70517953696, -5800.031816963175, 17899.612235976725, -23482.49685555659, 11826.91148840326, 13352.26158526678, 32419.66306205548, 34620.39346938056, 2110.3176010033612, -4371.218904402126, 27271.11754073114, -9199.642741637557, -3866.672976812479, 2223.730352369589, 4197.54584998439, -0.05746484375, 0.8551992187499999, 0.4885859375, 192.0, 0.0, 0.0, 0.0, 0.0, 0.0, 0.0, 0.0, 0.0, 0.0, 1.741146859719024E9, 0.0, 2025-03-04 21:54:19.719
142.0, -30496.18369295403, -10306.590534042185, -5807.653761822434, 17899.567532487814, -23504.31215814497, 11857.779247496039, 13360.375268504056, 32436.203352952405, 34862.01582694243, 2110.8763946147437, -4380.740747540087, 27261.10395921516, -9211.511517943325, -3863.7672500332897, 2212.4874249085697, 4187.085233579306, -0.05746484375, 0.8551992187499999, 0.4885859375, 192.0, 0.0, 0.0, 0.0, 0.0, 0.0, 0.0, 0.0, 0.0, 0.0, 1.741146859719255E9, 0.0, 2025-03-04 21:54:19.719
144.0, -30488.919376006055, -10315.128900424112, -5813.822843292099, 17911.525715771404, -23537.213925983182, 11850.492578803609, 13351.635736422031, 32444.8087745677, 34656.49153667588, 2129.89772914621, -4376.024529460016, 27257.550031846768, -9213.25495401084, -3844.2541771238066, 2217.673029622201, 4202.552640742379, -0.05746484375, 0.8551992187499999, 0.4885859375, 192.0, 0.0, 0.0, 0.0, 0.0, 0.0, 0.0, 0.0, 0.0, 0.0, 1.74114685971948E9, 0.0, 2025-03-04 21:54:19.719
146.0, -30510.84643731671, -10344.543796127296, -5838.700334870856, 17873.21482577501, -23504.781544778532, 11831.024209383037, 13308.362759156556, 32400.909948457476, 34877.86321376124, 2108.060074813375, -4387.401567387768, 27241.30031362776, -9230.175224563507, -3873.5796658491695, 2196.5953346008464, 4173.473021206024, -0.050732421875, 0.861599609375, 0.48429296875, 192.0, 127.0, 80.0, 13.5, 16.0, 7.5, 0.0, 0.0, 0.0, 0.0, 1.741146859719708E9, 0.0, 2025-03-04 21:54:19.719
148.0, -30496.071934231753, -10326.215365673945, -5830.0949132555625, 17893.420802762605, -23580.598661970933, 11845.016401412058, 13316.990532516305, 32408.50954157228, 34649.76366159483, 2092.5256124169364, -4390.240238933592, 27229.63270302209, -9220.854547125644, -3878.5194013737923, 2194.404863644226, 4168.175657770116, -0.050732421875, 0.861599609375, 0.48429296875, 192.0, 0.0, 0.0, 0.0, 0.0, 0.0, 0.0, 0.0, 0.0, 0.0, 1.74114685971996E9, 0.0, 2025-03-04 21:54:19.719
150.0, -30510.824085572254, -10333.077351221724, -5842.991869806275, 17884.63656719167, -23509.207190180685, 11837.573270508441, 13302.126622453527, 32385.062561638664, 34859.49007981898, 2115.32439176135, -4369.698985779165, 27260.120482459126, -9225.168433805518, -3869.936331502954, 2193.8460700328437, 4180.469117220535, -0.050732421875, 0.861599609375, 0.48429296875, 192.0, 0.0, 0.0, 0.0, 0.0, 0.0, 0.0, 0.0, 0.0, 0.0, 1.741146859779193E9, 0.0, 2025-03-04 21:54:19.779
152.0, -30503.068030246264, -10333.546737855284, -5837.940375559375, 17885.1730090586, -23622.28466538008, 11830.15249134928, 13305.457032377368, 32359.805090404167, 34671.60131592766, 2105.7801968789336, -4373.230561403103, 27251.96209573294, -9221.346285503661, -3861.777944776767, 2189.4204246306927, 4177.719852652533, -0.050732421875, 0.861599609375, 0.48429296875, 192.0, 0.0, 0.0, 0.0, 0.0, 0.0, 0.0, 0.0, 0.0, 0.0, 1.741146859779473E9, 0.0, 2025-03-04 21:54:19.779
154.0, -30505.347908180705, -10328.584650586206, -5841.784875605688, 17879.093334566754, -23542.198364996715, 11842.20008161069, 13294.258808405259, 32369.528099242223, 34882.557080096856, 2120.7111621750787, -4360.199494385659, 27273.956212276964, -9221.346285503661, -3859.0957354421303, 2184.726558295078, 4171.416660716136, -0.050732421875, 0.861599609375, 0.48429296875, 192.0, 0.0, 0.0, 0.0, 0.0, 0.0, 0.0, 0.0, 0.0, 0.0, 1.74114685977973E9, 0.0, 2025-03-04 21:54:19.779
156.0, -30507.29250994832, -10334.038476233301, -5848.915082086931, 17879.316852011307, -23703.10857333047, 11840.948383921193, 13309.480346379321, 32359.000427603776, 34722.00449967438, 2121.873452886755, -4371.15184916876, 27265.373142406126, -9228.610602451636, -3852.613729550091, 2184.1007094503298, 4185.408852745158, -0.0423662109375, 0.8607998046875001, 0.480146484375, 192.0, 127.0, 120.0, 13.0, 112.0, 7.0, 112.0, 0.0, 0.0, 0.0, 1.74114685977997E9, 0.0, 2025-03-04 21:54:19.779
158.0, -30509.974719282953, -10340.47577863643, -5851.820808866121, 17865.905805338123, -23593.853246432933, 11841.86480544386, 13279.4843053203, 32364.49895673978, 34905.35585944127, 2122.856929642788, -4375.845715504374, 27265.976639506418, -9230.421093752515, -3856.4805813408593, 2175.249418646028, 4164.375861212714, -0.0423662109375, 0.8607998046875001, 0.480146484375, 192.0, 0.0, 0.0, 0.0, 0.0, 0.0, 0.0, 0.0, 0.0, 0.0, 1.741146859780212E9, 0.0, 2025-03-04 21:54:19.780
160.0, -30512.098135006207, -10327.802339530272, -5844.690602384878, 17878.95922410002, -23777.964565511294, 11847.028058413036, 13261.848778945063, 32352.11609031154, 34778.241488723936, 2115.36909525026, -4385.367558642335, 27258.667619069533, -9227.470663484415, -3860.3474331316274, 2184.078357705874, 4175.618788673733, -0.0423662109375, 0.8607998046875001, 0.480146484375, 192.0, 0.0, 0.0, 0.0, 0.0, 0.0, 0.0, 0.0, 0.0, 0.0, 1.741146859780422E9, 0.0, 2025-03-04 21:54:19.780
162.0, -30529.130164281152, -10346.398990917087, -5862.773163649222, 17866.218729760498, -23621.457650835237, 11820.273020300034, 13233.439711742367, 32312.933482281387, 34905.55702514137, 2118.4312842406375, -4390.4861081226, 27264.41201739455, -9237.774817678312, -3871.2774361702727, 2168.052156931419, 4145.756858081443, -0.0423662109375, 0.8607998046875001, 0.480146484375, 192.0, 0.0, 0.0, 0.0, 0.0, 0.0, 0.0, 0.0, 0.0, 0.0, 1.741146859780631E9, 0.0, 2025-03-04 21:54:19.780
164.0, -30527.342024724727, -10345.884900794614, -5859.196884536372, 17871.20316877403, -23829.418281247414, 11838.19911935319, 13251.09758986206, 32357.12288106953, 34791.11609353019, 2106.964839335065, -4406.758178086064, 27248.363464875638, -9242.580442736202, -3871.7021193149235, 2168.09686042033, 4153.267044218426, -0.0423662109375, 0.8607998046875001, 0.480146484375, 192.0, 0.0, 0.0, 0.0, 0.0, 0.0, 0.0, 0.0, 0.0, 0.0, 1.741146859780868E9, 0.0, 2025-03-04 21:54:19.780
166.0, -30522.33523396674, -10342.42038040404, -5863.823695638621, 17879.24979677794, -23673.805436349565, 11840.00961065407, 13252.617508485022, 32345.25410476376, 34822.85557065673, 2113.6256591827464, -4391.424881389723, 27265.663715084043, -9238.35596303415, -3882.0509769977307, 2165.481706319059, 4153.468209918525, -0.036183105468750004, 0.8603999023437501, 0.4760732421875, 192.0, 127.5, 8.0, 13.0, 112.0, 7.0, 96.0, 0.0, 0.0, 0.0, 1.741146859839113E9, 0.0, 2025-03-04 21:54:19.839
168.0, -30525.57623691276, -10345.504921138874, -5870.797439908676, 17869.05740130632, -23884.358869118558, 11841.037790899014, 13241.24047055727, 32317.11325849453, 34795.49703544343, 2111.0775603148413, -4396.096395980882, 27258.48880511389, -9245.597928237668, -3851.4067353495047, 2163.581808040358, 4157.089192520284, -0.036183105468750004, 0.8603999023437501, 0.4760732421875, 192.0, 0.0, 0.0, 0.0, 0.0, 0.0, 0.0, 0.0, 0.0, 0.0, 1.741146859839382E9, 0.0, 2025-03-04 21:54:19.839
170.0, -30513.573350140257, -10333.926717511025, -5861.208541537349, 17888.235198048973, -23731.361178321982, 11848.659735758274, 13241.374581024002, 32319.259025962238, 34772.54179388783, 2115.972592350554, -4381.545410340477, 27268.837662796697, -9235.651401955058, -3861.5097238433036, 2151.0648311453856, 4142.806427813342, -0.036183105468750004, 0.8603999023437501, 0.4760732421875, 192.0, 0.0, 0.0, 0.0, 0.0, 0.0, 0.0, 0.0, 0.0, 0.0, 1.741146859839631E9, 0.0, 2025-03-04 21:54:19.839
172.0, -30512.075783261753, -10320.269801648832, -5844.578843662602, 17896.415936519617, -23913.438488654912, 11865.82587549995, 13256.216139342325, 32342.79541287368, 34804.8177128813, 2135.4186100266706, -4374.348148625869, 27278.001878023373, -9217.30061975725, -3835.8275694641557, 2174.0647761898967, 4177.295169507882, -0.036183105468750004, 0.8603999023437501, 0.4760732421875, 192.0, 0.0, 0.0, 0.0, 0.0, 0.0, 0.0, 0.0, 0.0, 0.0, 1.741146859839846E9, 0.0, 2025-03-04 21:54:19.839
174.0, -30500.98931801192, -10323.846080761681, -5844.645898895968, 17896.88532315318, -23789.43101041687, 11849.307936347477, 13222.397949981447, 32300.61767108651, 34765.92567752906, 2142.481761274548, -4356.690270506176, 27287.97075605044, -9211.73503538788, -3841.7731334892674, 2168.432136587159, 4166.611035658245, -0.036183105468750004, 0.8603999023437501, 0.4760732421875, 192.0, 0.0, 0.0, 0.0, 0.0, 0.0, 0.0, 0.0, 0.0, 0.0, 1.741146859840078E9, 0.0, 2025-03-04 21:54:19.840
176.0, -30502.50923663488, -10320.582726071207, -5835.682849369389, 17894.292520796364, -24003.85129497663, 11855.34290735041, 13230.399874496447, 32312.911130536933, 34821.93914913406, 2139.218406584073, -4370.9059799797515, 27281.30993620276, -9201.520288171803, -3845.8635027245887, 2167.403956342215, 4170.25437000446, -0.031091552734375003, 0.8571999511718751, 0.47003662109375, 192.0, 127.5, 24.0, 13.0, 88.0, 7.0, 64.0, 0.0, 0.0, 0.0, 1.741146859840316E9, 0.0, 2025-03-04 21:54:19.840
178.0, -30508.298338448807, -10328.428188375019, -5839.549701160157, 17901.53448599988, -23885.230587152313, 11854.471189316653, 13209.99273180875, 32315.593339871568, 34713.06380189226, 2143.8228659418664, -4367.083831677894, 27292.642270641598, -9202.459061438925, -3829.4796740388483, 2165.280540618961, 4172.690710150088, -0.031091552734375003, 0.8571999511718751, 0.47003662109375, 192.0, 0.0, 0.0, 0.0, 0.0, 0.0, 0.0, 0.0, 0.0, 0.0, 1.741146859840547E9, 0.0, 2025-03-04 21:54:19.840
180.0, -30513.79686758481, -10329.836348275703, -5836.465160425325, 17887.519942226405, -24024.70547255343, 11855.722887006152, 13196.335815946559, 32282.937441222366, 34833.45029752854, 2133.608118725791, -4388.385044143802, 27275.565537877745, -9216.227736023395, -3839.6720695104686, 2143.5322932639474, 4157.960910554041, -0.031091552734375003, 0.8571999511718751, 0.47003662109375, 192.0, 0.0, 0.0, 0.0, 0.0, 0.0, 0.0, 0.0, 0.0, 0.0, 1.741146859898936E9, 0.0, 2025-03-04 21:54:19.898
182.0, -30508.186579726527, -10329.635182575606, -5830.541948144669, 17903.9261226566, -23926.380148694534, 11858.87448297435, 13195.642911868443, 32283.406827855928, 34652.132946507096, 2149.209636355595, -4375.175163170715, 27286.674354872033, -9199.575686404192, -3827.244499593318, 2151.2659968454836, 4165.247579246471, -0.031091552734375003, 0.8571999511718751, 0.47003662109375, 192.0, 0.0, 0.0, 0.0, 0.0, 0.0, 0.0, 0.0, 0.0, 0.0, 1.741146859899186E9, 0.0, 2025-03-04 21:54:19.899
184.0, -30511.60639662819, -10327.735284296905, -5830.206671977839, 17883.474276479992, -24028.438213877467, 11866.339965622421, 13197.028720024673, 32302.986955998775, 34808.48339897196, 2129.8753774017546, -4403.2489542065805, 27266.87070928463, -9210.081006298185, -3848.791581248234, 2133.3622495367827, 4152.931768051597, -0.031091552734375003, 0.8571999511718751, 0.47003662109375, 192.0, 0.0, 0.0, 0.0, 0.0, 0.0, 0.0, 0.0, 0.0, 0.0, 1.741146859899401E9, 0.0, 2025-03-04 21:54:19.899
186.0, -30501.548111623302, -10319.0851591927, -5829.290250455171, 17902.78618368938, -23974.279937062256, 11869.11158193488, 13192.42426066688, 32297.242557673762, 34589.056323654215, 2149.7237264780674, -4384.920523753229, 27286.942575805497, -9195.57472414669, -3826.3727815595607, 2149.0084706554976, 4176.266989262937, -0.0315457763671875, 0.8605999755859375, 0.46301831054687503, 192.0, 127.5, 0.0, 13.5, 0.0, 7.0, 32.0, 0.0, 0.0, 0.0, 1.741146859899637E9, 0.0, 2025-03-04 21:54:19.899
188.0, -30518.84836183171, -10329.635182575606, -5838.946204059864, 17884.10012532474, -24031.455699378934, 11856.996936440104, 13167.546769088123, 32264.229031113275, 34795.80995986581, 2151.7130317345895, -4390.262590678048, 27285.78028509382, -9207.331741730182, -3830.843130450622, 2133.831636170344, 4163.705308879055, -0.0315457763671875, 0.8605999755859375, 0.46301831054687503, 192.0, 0.0, 0.0, 0.0, 0.0, 0.0, 0.0, 0.0, 0.0, 0.0, 1.741146859899858E9, 0.0, 2025-03-04 21:54:19.899
190.0, -30499.335288922226, -10322.169699927534, -5826.496282398258, 17902.808535433833, -24013.820173003696, 11865.580006310942, 13158.091981183528, 32266.91124044791, 34603.13792266106, 2146.214502598584, -4396.834003547908, 27276.996049522884, -9202.861392839122, -3836.341659586628, 2129.6295082127463, 4159.167904754628, -0.0315457763671875, 0.8605999755859375, 0.46301831054687503, 192.0, 0.0, 0.0, 0.0, 0.0, 0.0, 0.0, 0.0, 0.0, 0.0, 1.741146859900088E9, 0.0, 2025-03-04 21:54:19.900
192.0, -30519.317748465273, -10328.249374419376, -5832.911233056931, 17893.01847136241, -24010.579170057677, 11867.97164296766, 13163.903434741907, 32278.04240918665, 34822.87792240118, 2155.1999038696176, -4389.77085230003, 27286.16026474956, -9204.761291117822, -3833.145360129519, 2133.7645809369783, 4163.995881556974, -0.0315457763671875, 0.8605999755859375, 0.46301831054687503, 192.0, 0.0, 0.0, 0.0, 0.0, 0.0, 0.0, 0.0, 0.0, 0.0, 1.741146859900334E9, 0.0, 2025-03-04 21:54:19.900
194.0, -30509.818257071765, -10321.052112704769, -5828.910270799431, 17914.051462894855, -24030.18164994498, 11883.036718730536, 13156.639117793933, 32279.607031298525, 34618.89590250205, 2148.628490999757, -4391.961323256651, 27268.994125007885, -9199.419224193005, -3833.435932807438, 2137.6984879611123, 4167.259236247449, -0.0315457763671875, 0.8605999755859375, 0.46301831054687503, 192.0, 0.0, 0.0, 0.0, 0.0, 0.0, 0.0, 0.0, 0.0, 0.0, 1.741146859900549E9, 0.0, 2025-03-04 21:54:19.900
196.0, -30512.299300706305, -10316.715874280439, -5834.051172024152, 17904.596674990258, -23989.4120680585, 11879.125163450857, 13138.534204785134, 32264.229031113275, 34913.89422582319, 2159.9161219496873, -4380.338416139891, 27278.426561168024, -9196.222924735896, -3828.2503280938067, 2137.832598427844, 4166.29811123587, -0.035772888183593754, 0.8662999877929687, 0.4575091552734375, 192.0, 127.0, 96.0, 13.5, 32.0, 7.0, 16.0, 0.0, 0.0, 0.0, 1.741146859959155E9, 0.0, 2025-03-04 21:54:19.959
198.0, -30531.387690471136, -10350.355249685676, -5857.788724635688, 17894.381927774182, -24050.72290309941, 11854.448837572198, 13112.114442838962, 32237.541048233637, 34746.90434299759, 2152.85297070181, -4389.614390088844, 27270.268174441837, -9206.48237544088, -3830.0384676502313, 2138.056115872397, 4169.673224648622, -0.035772888183593754, 0.8662999877929687, 0.4575091552734375, 192.0, 0.0, 0.0, 0.0, 0.0, 0.0, 0.0, 0.0, 0.0, 0.0, 1.741146859959432E9, 0.0, 2025-03-04 21:54:19.959
200.0, -30524.793925856822, -10330.864528520648, -5840.779047105199, 17899.902808654646, -23954.208070541394, 11873.224302914656, 13116.093053352006, 32242.19021108034, 35013.3147851604, 2133.8539879147993, -4404.411244918257, 27259.896965014574, -9223.8273291382, -3854.290110384239, 2117.8501388847994, 4146.114485992728, -0.035772888183593754, 0.8662999877929687, 0.4575091552734375, 192.0, 0.0, 0.0, 0.0, 0.0, 0.0, 0.0, 0.0, 0.0, 0.0, 1.741146859959656E9, 0.0, 2025-03-04 21:54:19.959
202.0, -30505.325556436248, -10327.42235987453, -5830.720762100311, 17910.40812854864, -24077.85792086815, 11867.546959823008, 13098.703396165776, 32209.444905453314, 34819.30164328833, 2165.0346714299526, -4382.908866752251, 27277.845415812186, -9196.446442180448, -3822.729447213346, 2150.416630556182, 4178.59157068629, -0.035772888183593754, 0.8662999877929687, 0.4575091552734375, 192.0, 0.0, 0.0, 0.0, 0.0, 0.0, 0.0, 0.0, 0.0, 0.0, 1.741146859959876E9, 0.0, 2025-03-04 21:54:19.959
204.0, -30527.319672980273, -10337.011258245857, -5840.086143027084, 17905.289579068372, -23939.970009323362, 11875.414773871276, 13085.292349492593, 32229.33795801854, 35009.9620234921, 2161.7936684839333, -4382.417128374234, 27273.86680529914, -9186.522267642293, -3851.8984737275214, 2139.5536827509027, 4146.360355181737, -0.035772888183593754, 0.8662999877929687, 0.4575091552734375, 192.0, 0.0, 0.0, 0.0, 0.0, 0.0, 0.0, 0.0, 0.0, 0.0, 1.741146859960095E9, 0.0, 2025-03-04 21:54:19.960
206.0, -30527.36437646918, -10346.600156617184, -5838.923852315409, 17908.485878525484, -24054.880327568095, 11877.11350644988, 13103.486669479213, 32256.942362420843, 34864.87685023271, 2152.383584068249, -4392.743634312586, 27262.06508422674, -9192.601942134135, -3834.5311682857478, 2151.7800869679554, 4168.801506614865, -0.03788644409179688, 0.8721499938964843, 0.4577545776367188, 192.0, 127.0, 96.0, 13.5, 56.0, 7.0, 40.0, 0.0, 0.0, 0.0, 1.741146859960309E9, 0.0, 2025-03-04 21:54:19.960
208.0, -30532.415870716082, -10348.589461873706, -5833.738247601777, 17911.525715771404, -23880.514369072243, 11887.931750766249, 13115.713073696264, 32271.649810272436, 35048.89876233325, 2158.99970042702, -4381.634817318299, 27277.73365708991, -9194.881820068576, -3833.9053194409994, 2164.3864708407486, 4172.333082238803, -0.03788644409179688, 0.8721499938964843, 0.4577545776367188, 192.0, 0.0, 0.0, 0.0, 0.0, 0.0, 0.0, 0.0, 0.0, 0.0, 1.741146859960539E9, 0.0, 2025-03-04 21:54:19.960
210.0, -30519.675376376556, -10341.682772837017, -5822.2270992072945, 17916.085471640286, -24047.258382708835, 11896.492468892631, 13113.209678317271, 32256.09299613154, 34919.303347981375, 2156.541008536936, -4379.645512061777, 27274.984392521907, -9181.738994328856, -3825.523415270259, 2186.022959473486, 4197.478794751024, -0.03788644409179688, 0.8721499938964843, 0.4577545776367188, 192.0, 0.0, 0.0, 0.0, 0.0, 0.0, 0.0, 0.0, 0.0, 0.0, 1.74114686001955E9, 0.0, 2025-03-04 21:54:20.019
212.0, -30530.247751503917, -10357.53015965583, -5829.491416155269, 17900.9756923885, -23843.075197109607, 11880.64508207382, 13085.717032637243, 32227.147487061917, 35054.01731181351, 2160.8101917278996, -4368.29082587848, 27293.15636076407, -9186.477564153382, -3830.485502539337, 2192.8178897878993, 4192.539059226401, -0.03788644409179688, 0.8721499938964843, 0.4577545776367188, 192.0, 0.0, 0.0, 0.0, 0.0, 0.0, 0.0, 0.0, 0.0, 0.0, 1.7411468600198E9, 0.0, 2025-03-04 21:54:20.019
214.0, -30531.387690471136, -10352.612775875661, -5821.109511984529, 17897.980558631487, -24004.387736843557, 11881.136820451835, 13083.772430869632, 32219.078507313552, 34963.58215374734, 2141.319470562872, -4378.527924839011, 27271.274002942326, -9181.135497228563, -3841.259043366795, 2202.250325948039, 4198.708140696066, -0.03788644409179688, 0.8721499938964843, 0.4577545776367188, 192.0, 0.0, 0.0, 0.0, 0.0, 0.0, 0.0, 0.0, 0.0, 0.0, 1.74114686002006E9, 0.0, 2025-03-04 21:54:20.020
216.0, -30542.742376654434, -10365.129752770634, -5831.458369667336, 17893.197285318052, -23808.653510648433, 11876.867637260872, 13072.104820263961, 32203.27582398365, 35004.0611629559, 2144.001679897509, -4373.990520714584, 27274.380895421615, -9197.541677658759, -3842.2872236117396, 2208.15118648424, 4192.2261348040265, -0.03394322204589844, 0.8690749969482421, 0.46187728881835943, 192.0, 127.5, 8.0, 13.5, 8.0, 7.0, 72.0, 0.0, 0.0, 0.0, 1.741146860020274E9, 0.0, 2025-03-04 21:54:20.020
218.0, -30531.14182128213, -10342.465083892952, -5813.934602014376, 17901.288616810874, -23989.65793724751, 11903.555620140509, 13083.861837847453, 32215.010489822685, 34957.65894146668, 2140.1348281067408, -4383.780584786008, 27260.54516560378, -9191.10437525563, -3840.722601499868, 2230.949965828653, 4204.206669832071, -0.03394322204589844, 0.8690749969482421, 0.46187728881835943, 192.0, 0.0, 0.0, 0.0, 0.0, 0.0, 0.0, 0.0, 0.0, 0.0, 1.741146860020506E9, 0.0, 2025-03-04 21:54:20.020
220.0, -30538.786117885844, -10360.078258523734, -5825.19988121985, 17896.170067330608, -23825.01498758972, 11895.553695625507, 13072.283634219604, 32205.354536217994, 34933.76492664396, 2156.3621945812934, -4362.725241509109, 27281.77932283632, -9175.43580239246, -3833.391229318527, 2257.213265563639, 4214.443768792602, -0.03394322204589844, 0.8690749969482421, 0.46187728881835943, 192.0, 0.0, 0.0, 0.0, 0.0, 0.0, 0.0, 0.0, 0.0, 0.0, 1.741146860020738E9, 0.0, 2025-03-04 21:54:20.020
222.0, -30524.704518879, -10340.699296080982, -5809.151328700939, 17901.422727277604, -23998.576283285176, 11921.258201749111, 13079.749116867677, 32214.38464097794, 34930.74744114249, 2145.4545432871037, -4375.890418993285, 27254.644305067577, -9172.843000035644, -3848.52336031477, 2250.865370138332, 4217.148329871694, -0.03394322204589844, 0.8690749969482421, 0.46187728881835943, 192.0, 0.0, 0.0, 0.0, 0.0, 0.0, 0.0, 0.0, 0.0, 0.0, 1.741146860020966E9, 0.0, 2025-03-04 21:54:20.020
224.0, -30542.652969676612, -10360.659403879572, -5830.832520822588, 17893.286692295875, -23806.373632713992, 11902.460384662198, 13035.693828546266, 32183.22630920724, 34872.543498580875, 2159.647901016224, -4364.893360721274, 27262.243898182383, -9168.52911335577, -3826.1045606260973, 2243.690460168178, 4218.154158372183, -0.03394322204589844, 0.8690749969482421, 0.46187728881835943, 192.0, 0.0, 0.0, 0.0, 0.0, 0.0, 0.0, 0.0, 0.0, 0.0, 1.741146860021183E9, 0.0, 2025-03-04 21:54:20.021
226.0, -30544.128184810663, -10354.0432875208, -5835.772256347211, 17867.895110594643, -23959.88541363304, 11887.64117808833, 13012.448014312748, 32132.912532438342, 35007.033944968454, 2144.001679897509, -4394.755291313564, 27233.790127490774, -9191.05967176672, -3849.5738923041695, 2219.282355222983, 4188.202820802071, -0.02797161102294922, 0.870537498474121, 0.46793864440917976, 192.0, 127.5, 40.0, 13.5, 32.0, 7.0, 104.0, 0.0, 0.0, 0.0, 1.741146860078924E9, 0.0, 2025-03-04 21:54:20.078
228.0, -30550.699597680523, -10374.517485441862, -5836.800436592154, 17877.34989849924, -23823.629179433487, 11914.150347012324, 13040.655915815345, 32212.9541293328, 34922.70081313858, 2143.7558107085006, -4382.8194597744305, 27241.657941539044, -9178.63210184957, -3850.71383127139, 2235.3532594863486, 4189.16394581365, -0.02797161102294922, 0.870537498474121, 0.46793864440917976, 192.0, 0.0, 0.0, 0.0, 0.0, 0.0, 0.0, 0.0, 0.0, 0.0, 1.741146860079181E9, 0.0, 2025-03-04 21:54:20.079
230.0, -30561.540193741348, -10372.908159841081, -5835.34757320256, 17863.067133792298, -23944.663875658975, 11919.201841259222, 13032.050494200052, 32197.84435008101, 35151.269751938555, 2116.3972754952047, -4404.9476867851845, 27222.7260139854, -9204.068387039708, -3871.255084425817, 2226.4572651931367, 4192.539059226401, -0.02797161102294922, 0.870537498474121, 0.46793864440917976, 192.0, 0.0, 0.0, 0.0, 0.0, 0.0, 0.0, 0.0, 0.0, 0.0, 1.741146860079405E9, 0.0, 2025-03-04 21:54:20.079
232.0, -30574.370095058694, -10396.623360708161, -5850.323241987615, 17856.875700578177, -23816.051938063138, 11904.427338174264, 13013.923229446797, 32180.61115510597, 35141.23381867812, 2119.057133085386, -4400.63380010531, 27228.112784399127, -9184.53296238577, -3863.4766773553706, 2230.3911722172707, 4207.000637888985, -0.02797161102294922, 0.870537498474121, 0.46793864440917976, 192.0, 0.0, 0.0, 0.0, 0.0, 0.0, 0.0, 0.0, 0.0, 0.0, 1.74114686007963E9, 0.0, 2025-03-04 21:54:20.079
234.0, -30582.014391662407, -10385.67100592506, -5845.808189607643, 17843.53170913836, -23906.084764729116, 11919.827690103972, 13011.978627679186, 32182.93573652932, 35519.51474183974, 2106.674266657146, -4423.700800383187, 27206.208074832928, -9200.469756182403, -3883.0791572426747, 2212.2639074640165, 4200.809204674864, -0.02797161102294922, 0.870537498474121, 0.46793864440917976, 192.0, 0.0, 0.0, 0.0, 0.0, 0.0, 0.0, 0.0, 0.0, 0.0, 1.741146860079862E9, 0.0, 2025-03-04 21:54:20.079
236.0, -30568.782158944865, -10384.084032068735, -5839.169721504417, 17855.087561021755, -23833.687464438375, 11918.464233692197, 13004.177868864283, 32175.961992259265, 35538.625483349024, 2124.890938388221, -4398.800957059974, 27224.24593260836, -9188.936256043466, -3870.271607669784, 2230.0782477948965, 4219.897594439697, -0.02598580551147461, 0.8712687492370605, 0.47196932220458987, 192.0, 127.5, 32.0, 13.5, 32.0, 7.0, 112.0, 0.0, 0.0, 0.0, 1.741146860080099E9, 0.0, 2025-03-04 21:54:20.080
238.0, -30604.232025650985, -10417.768110962881, -5865.388317750492, 17808.305359876795, -23850.205403590848, 11893.273817691066, 12970.04675508103, 32140.243904619685, 36570.71728357283, 2104.8190718673554, -4414.87186132334, 27200.57543523019, -9207.689369641468, -3888.5329828897698, 2209.738160340567, 4201.859736664264, -0.02598580551147461, 0.8712687492370605, 0.47196932220458987, 192.0, 0.0, 0.0, 0.0, 0.0, 0.0, 0.0, 0.0, 0.0, 0.0, 1.741146860080329E9, 0.0, 2025-03-04 21:54:20.080
240.0, -30617.754831046444, -10435.090712915744, -5875.021919610729, 17802.13627840713, -23776.578757355066, 11867.703422034196, 12946.778589103054, 32091.38299124038, 38494.80014977457, 2099.4993566869925, -4434.362582488368, 27173.730990139367, -9221.39098899257, -3902.9945615523534, 2198.830509046377, 4185.051224833873, -0.02598580551147461, 0.8712687492370605, 0.47196932220458987, 192.0, 0.0, 0.0, 0.0, 0.0, 0.0, 0.0, 0.0, 0.0, 0.0, 1.741146860138702E9, 0.0, 2025-03-04 21:54:20.138
242.0, -30636.239723710984, -10438.845805984236, -5877.25709405626, 17793.84378121421, -23733.12696613395, 11894.659625847296, 12933.166376729772, 32138.232247618707, 40813.6818782904, 2097.7559206194783, -4441.001050591594, 27168.210109258904, -9233.7291519319, -3912.806977368233, 2194.181346199673, 4197.076463350829, -0.02598580551147461, 0.8712687492370605, 0.47196932220458987, 192.0, 0.0, 0.0, 0.0, 0.0, 0.0, 0.0, 0.0, 0.0, 0.0, 1.741146860138967E9, 0.0, 2025-03-04 21:54:20.138
244.0, -30627.790764306876, -10441.013925196401, -5869.679852685911, 17800.28108361734, -23724.4991927742, 11897.744166582128, 12928.98660051663, 32121.803715444057, 42261.538477127375, 2092.5256124169364, -4451.416963507768, 27154.016751529784, -9252.750486463367, -3914.7739308803, 2187.7887472854554, 4200.920963397141, -0.02598580551147461, 0.8712687492370605, 0.47196932220458987, 192.0, 0.0, 0.0, 0.0, 0.0, 0.0, 0.0, 0.0, 0.0, 0.0, 1.741146860139202E9, 0.0, 2025-03-04 21:54:20.139
246.0, -30632.842258553777, -10438.64464028414, -5866.774125906722, 17787.33942357772, -23661.757846088156, 11903.086233506947, 12911.149908441295, 32119.389727042882, 43923.45773261282, 2114.363266749772, -4446.253710538592, 27157.973010298374, -9238.959460134443, -3920.071294316208, 2193.8460700328437, 4214.264954836959, -0.024992902755737303, 0.8706343746185303, 0.4769846611022949, 192.0, 127.5, 32.0, 13.5, 24.0, 7.5, 8.0, 0.0, 0.0, 0.0, 1.741146860139419E9, 0.0, 2025-03-04 21:54:20.139
248.0, -30623.499229371457, -10443.606727553217, -5863.108439816051, 17791.072164901754, -23732.478765544747, 11898.63823636034, 12914.234449176127, 32093.86403487492, 44449.908369768666, 2115.8161301393666, -4454.300338542502, 27149.52405089427, -9226.889518128577, -3901.9216778184987, 2200.1269102247848, 4228.7935887329095, -0.024992902755737303, 0.8706343746185303, 0.4769846611022949, 192.0, 0.0, 0.0, 0.0, 0.0, 0.0, 0.0, 0.0, 0.0, 0.0, 1.741146860139657E9, 0.0, 2025-03-04 21:54:20.139
250.0, -30633.043424253876, -10437.63881178365, -5854.2795007562045, 17790.200446868, -23642.66945632332, 11921.235850004656, 12945.7057053692, 32126.8328579465, 45281.95205711747, 2123.8180546543663, -4444.867902382362, 27163.47153943438, -9217.993523835365, -3905.9226400759985, 2211.503948152536, 4236.527292314446, -0.024992902755737303, 0.8706343746185303, 0.4769846611022949, 192.0, 0.0, 0.0, 0.0, 0.0, 0.0, 0.0, 0.0, 0.0, 0.0, 1.741146860139875E9, 0.0, 2025-03-04 21:54:20.139
252.0, -30621.085240970286, -10442.466788585996, -5842.1872070058835, 17799.319958605764, -23773.695382320333, 11928.813091375005, 12946.018629791573, 32122.921302666822, 45477.99920773497, 2125.2038628105956, -4440.956347102684, 27158.80002484322, -9195.15004100204, -3897.853660327633, 2242.416410734226, 4269.183190963649, -0.024992902755737303, 0.8706343746185303, 0.4769846611022949, 192.0, 0.0, 0.0, 0.0, 0.0, 0.0, 0.0, 0.0, 0.0, 0.0, 1.741146860140097E9, 0.0, 2025-03-04 21:54:20.140
254.0, -30632.462278898038, -10445.439570598552, -5821.802416062644, 17798.582351038738, -23667.055209524064, 11945.755713672128, 12945.593946646923, 32125.022366645622, 45505.6930191151, 2132.155255336196, -4425.645402150798, 27178.022525074786, -9189.96443628841, -3893.8526980701326, 2248.116105570329, 4273.541781132434, -0.024992902755737303, 0.8706343746185303, 0.4769846611022949, 192.0, 0.0, 0.0, 0.0, 0.0, 0.0, 0.0, 0.0, 0.0, 0.0, 1.741146860140322E9, 0.0, 2025-03-04 21:54:20.140
0.0, -30632.88696204269, -10455.07317245879, -5808.7266455562885, 17796.034252170833, -23885.543511574688, 11942.51471072611, 12938.441388421224, 32086.465607460217, 44318.211891438, 2140.47010427357, -4425.220719006147, 27173.239251761348, -9171.14426745704, -3865.4659826118927, 2280.0343966525074, 4311.785615895465, -0.01949645137786865, 0.8653171873092651, 0.4834923305511475, 192.0, 127.5, 72.0, 13.0, 112.0, 7.5, 40.0, 0.0, 0.0, 0.0, 1.741146860198963E9, 0.0, 2025-03-04 21:54:20.198
2.0, -30623.6780433271, -10451.027506712378, -5792.4098721039145, 17807.746566265414, -23795.354222697526, 11977.115211142924, 12962.357754988403, 32131.817296960035, 43052.00791978931, 2123.1027988317965, -4425.39953296179, 27178.357801241615, -9166.897436010533, -3873.5796658491695, 2279.140326874295, 4299.1121767893055, -0.01949645137786865, 0.8653171873092651, 0.4834923305511475, 192.0, 0.0, 0.0, 0.0, 0.0, 0.0, 0.0, 0.0, 0.0, 0.0, 1.74114686019923E9, 0.0, 2025-03-04 21:54:20.199
4.0, -30637.245552211472, -10458.671803316094, -5786.173735400884, 17816.977836725455, -23960.287745033234, 11986.815868236527, 12967.588063190946, 32135.527686539615, 41860.7269955548, 2125.3156215328722, -4410.535622899011, 27199.279034051782, -9143.673973521469, -3840.074400910664, 2333.142141478317, 4363.5075525650445, -0.01949645137786865, 0.8653171873092651, 0.4834923305511475, 192.0, 0.0, 0.0, 0.0, 0.0, 0.0, 0.0, 0.0, 0.0, 0.0, 1.741146860199462E9, 0.0, 2025-03-04 21:54:20.199
6.0, -30632.909313787142, -10450.11108518971, -5784.854982478021, 17824.86800251818, -23823.58447594458, 12000.405728865353, 12969.510313214101, 32116.97573864171, 41432.66873749122, 2135.217444326573, -4413.1060735113715, 27209.739650456864, -9146.087961922642, -3845.23765387984, 2336.539606635524, 4338.0936191193605, -0.01949645137786865, 0.8653171873092651, 0.4834923305511475, 192.0, 0.0, 0.0, 0.0, 0.0, 0.0, 0.0, 0.0, 0.0, 0.0, 1.741146860199703E9, 0.0, 2025-03-04 21:54:20.199
8.0, -30636.06090975534, -10464.013870240911, -5785.212610389306, 17842.704694593514, -24026.493612109854, 12032.23461296971, 12982.921359887287, 32142.03204417611, 40638.35479478297, 2129.2942320459165, -4407.87576530883, 27203.637624220566, -9137.482540307348, -3828.429142049449, 2375.94573211023, 4351.683479748187, -0.01949645137786865, 0.8653171873092651, 0.4834923305511475, 192.0, 0.0, 0.0, 0.0, 0.0, 0.0, 0.0, 0.0, 0.0, 0.0, 1.741146860199924E9, 0.0, 2025-03-04 21:54:20.199
10.0, -30674.79648289639, -10497.787356112882, -5819.030799750185, 17818.251886159407, -23798.99755704374, 12005.2337056677, 12956.725115385667, 32089.818369128512, 40407.97536468213, 2118.5206912184585, -4409.194518231692, 27206.453944021934, -9157.040316705743, -3848.2104358923957, 2353.75044986611, 4345.7826192119865, -0.014748225688934326, 0.8546585936546325, 0.49574616527557375, 192.0, 127.5, 88.0, 13.0, 48.0, 7.5, 112.0, 0.0, 0.0, 0.0, 1.741146860200166E9, 0.0, 2025-03-04 21:54:20.200
12.0, -30678.842148642798, -10492.467640932518, -5805.150366443439, 17815.301455891306, -23946.20614602639, 12020.745816319682, 12972.058412082008, 32082.486996947173, 41273.61372394726, 2099.9016880871877, -4425.824216106441, 27180.90590010952, -9180.040261750253, -3867.1423634460407, 2317.2947546595046, 4360.5124188080335, -0.014748225688934326, 0.8546585936546325, 0.49574616527557375, 192.0, 0.0, 0.0, 0.0, 0.0, 0.0, 0.0, 0.0, 0.0, 0.0, 1.741146860200402E9, 0.0, 2025-03-04 21:54:20.200
14.0, -30683.133683578217, -10507.108033550743, -5815.633334592979, 17806.874848231655, -23755.12108267797, 12003.289103900088, 12962.223644521671, 32038.297598159028, 40947.457068855416, 2124.9579936215873, -4397.504555881566, 27203.72703119839, -9160.393078374038, -3869.489296613848, 2316.1995191811943, 4387.20040168767, -0.014748225688934326, 0.8546585936546325, 0.49574616527557375, 192.0, 0.0, 0.0, 0.0, 0.0, 0.0, 0.0, 0.0, 0.0, 0.0, 1.741146860259381E9, 0.0, 2025-03-04 21:54:20.259
16.0, -30688.475750503036, -10506.526888194907, -5806.804395533132, 17812.61924655667, -23966.143902080526, 12009.636999325396, 12982.85430465392, 32037.090603958444, 40423.688641034205, 2082.713196601057, -4407.987524031106, 27172.501644194323, -9159.566063829192, -3864.661319811502, 2309.382237122326, 4399.605619860366, -0.014748225688934326, 0.8546585936546325, 0.49574616527557375, 192.0, 0.0, 0.0, 0.0, 0.0, 0.0, 0.0, 0.0, 0.0, 0.0, 1.74114686025962E9, 0.0, 2025-03-04 21:54:20.259
18.0, -30694.30955580587, -10530.219737317531, -5819.477834639291, 17826.56673509678, -23793.029641274174, 11996.583580563496, 12970.7620109036, 32029.312196887997, 39727.34239427357, 2067.514010371448, -4403.472471651134, 27170.177062770974, -9162.941177241943, -3867.321177401683, 2308.801091766488, 4413.843681078396, -0.014748225688934326, 0.8546585936546325, 0.49574616527557375, 192.0, 0.0, 0.0, 0.0, 0.0, 0.0, 0.0, 0.0, 0.0, 0.0, 1.741146860259839E9, 0.0, 2025-03-04 21:54:20.259
20.0, -30706.22303560055, -10524.095359336778, -5812.392331646959, 17831.10413922121, -23956.063265331184, 12015.314342417043, 12990.81152568001, 32051.015740754097, 39303.7768368455, 2063.5353998584033, -4411.429692677223, 27153.256792218304, -9158.783752773255, -3866.292997156739, 2315.350152891893, 4440.755181402586, -0.012374112844467162, 0.8413292968273163, 0.5038730826377869, 192.0, 127.5, 88.0, 12.5, 112.0, 8.0, 0.0, 0.0, 0.0, 0.0, 1.741146860260068E9, 0.0, 2025-03-04 21:54:20.260
22.0, -30702.69145997661, -10538.489882765994, -5813.800491547643, 17832.847575288724, -23867.080970654606, 12008.273542913621, 12987.6152262229, 32033.111993445396, 38590.55502302111, 2053.387707875694, -4412.547279899988, 27166.690190635945, -9152.94994747042, -3889.6952736014455, 2327.88948153132, 4451.752239674597, -0.012374112844467162, 0.8413292968273163, 0.5038730826377869, 192.0, 0.0, 0.0, 0.0, 0.0, 0.0, 0.0, 0.0, 0.0, 0.0, 1.741146860260297E9, 0.0, 2025-03-04 21:54:20.260
24.0, -30713.42029731516, -10534.690086208593, -5802.110529197518, 17824.756243795902, -24016.27886489378, 12031.80992982506, 12987.257598311615, 32044.53373486206, 38195.37618105128, 2012.6851812225798, -4423.186710260715, 27177.575490185678, -9140.90235720901, -3880.352244419127, 2335.3326124349373, 4451.059335596483, -0.012374112844467162, 0.8413292968273163, 0.5038730826377869, 192.0, 0.0, 0.0, 0.0, 0.0, 0.0, 0.0, 0.0, 0.0, 0.0, 1.741146860260521E9, 0.0, 2025-03-04 21:54:20.260
26.0, -30728.775945755955, -10542.647307234682, -5819.097854983551, 17818.363644881683, -23910.331596175623, 12012.967409249237, 12986.7658599336, 32027.971092220676, 37457.05335820358, 2002.1351578396748, -4427.411189962768, 27152.452129417914, -9145.283299122251, -3853.753668517312, 2338.014821769574, 4453.674489697753, -0.012374112844467162, 0.8413292968273163, 0.5038730826377869, 192.0, 0.0, 0.0, 0.0, 0.0, 0.0, 0.0, 0.0, 0.0, 0.0, 1.741146860260758E9, 0.0, 2025-03-04 21:54:20.260
28.0, -30736.50964933749, -10540.70270546707, -5827.0997794985515, 17791.675662002046, -24025.711301053918, 11999.399900364864, 12972.952481860219, 31995.538711016026, 37145.69355794115, 1987.4947652214487, -4460.804696178996, 27123.260751159283, -9145.082133422153, -3901.8993260740435, 2320.3569436498815, 4430.316916741957, -0.012374112844467162, 0.8413292968273163, 0.5038730826377869, 192.0, 0.0, 0.0, 0.0, 0.0, 0.0, 0.0, 0.0, 0.0, 0.0, 1.741146860260966E9, 0.0, 2025-03-04 21:54:20.260
30.0, -30747.283190164948, -10575.079688439333, -5845.092933785073, 17791.072164901754, -23994.37415532758, 11971.326109328998, 12924.158623714284, 31974.125739827843, 36376.68178995631, 1981.5715529407923, -4463.822181680463, 27133.520201864267, -9135.828511217656, -3907.2413929988616, 2309.024609211041, 4403.047788506483, -0.011187056422233582, 0.8366646484136582, 0.5129365413188934, 192.0, 127.5, 88.0, 13.0, 0.0, 8.0, 40.0, 0.0, 0.0, 0.0, 1.741146860319991E9, 0.0, 2025-03-04 21:54:20.319
32.0, -30783.180091760172, -10582.81339202087, -5869.59044570809, 17762.305469787774, -24056.020266535317, 11981.89848445636, 12977.109906328906, 32029.267493399086, 36127.683356724185, 1975.804802871323, -4506.268144401091, 27120.489134846823, -9157.912034739498, -3922.2841170172833, 2295.2335828821165, 4389.122651710827, -0.011187056422233582, 0.8366646484136582, 0.5129365413188934, 192.0, 0.0, 0.0, 0.0, 0.0, 0.0, 0.0, 0.0, 0.0, 0.0, 1.741146860320285E9, 0.0, 2025-03-04 21:54:20.320
34.0, -30770.886632309754, -10569.782325003425, -5871.44564049788, 17768.251033812885, -24038.630609349086, 11979.439792566276, 12952.612394405889, 32008.592129777928, 35407.91248177439, 1928.419104626072, -4519.99211549665, 27084.413419295957, -9162.29297665274, -3959.2091988574507, 2300.888574229309, 4391.693102323187, -0.011187056422233582, 0.8366646484136582, 0.5129365413188934, 192.0, 0.0, 0.0, 0.0, 0.0, 0.0, 0.0, 0.0, 0.0, 0.0, 1.74114686032051E9, 0.0, 2025-03-04 21:54:20.320
36.0, -30746.098547708818, -10541.32855431182, -5839.214424993328, 17779.47160952945, -24022.76087078582, 12004.80902252305, 13008.558810777524, 32045.181935451263, 35237.65924425831, 1947.6416048576361, -4479.8483824549185, 27112.442506842915, -9126.060798890687, -3922.9323176064872, 2324.737885563122, 4411.697913610687, -0.011187056422233582, 0.8366646484136582, 0.5129365413188934, 192.0, 0.0, 0.0, 0.0, 0.0, 0.0, 0.0, 0.0, 0.0, 0.0, 1.741146860320732E9, 0.0, 2025-03-04 21:54:20.320
38.0, -30733.246294647015, -10527.112844838244, -5821.377732917993, 17808.752394765903, -24044.598525118654, 12002.216220166234, 12996.645330982845, 32046.299522674028, 34610.871626242595, 1998.5588787268257, -4448.421829750756, 27129.854515773597, -9098.456394488383, -3882.967398520398, 2352.1634760097836, 4448.086553583927, -0.011187056422233582, 0.8366646484136582, 0.5129365413188934, 192.0, 0.0, 0.0, 0.0, 0.0, 0.0, 0.0, 0.0, 0.0, 0.0, 1.741146860320954E9, 0.0, 2025-03-04 21:54:20.320
40.0, -30728.150096911206, -10580.198237919598, -5819.947221272853, 17791.80977246878, -23980.069038876183, 11998.394071864375, 12991.437374524758, 32038.163487692298, 34544.531648699245, 1980.2975035068398, -4433.982602832628, 27152.474481162368, -9099.70809217788, -3925.7486374078558, 2353.6163393993784, 4454.88148389834, -0.00859352821111679, 0.8313323242068291, 0.5144682706594468, 192.0, 127.5, 104.0, 12.5, 104.0, 8.0, 16.0, 0.0, 0.0, 0.0, 1.74114686032116E9, 0.0, 2025-03-04 21:54:20.321
42.0, -30711.296881591905, -10522.553088969362, -5795.6955785388445, 17804.52791506385, -24047.705417597943, 12023.517432632141, 13017.588915537468, 32037.738804547647, 34092.69113453521, 2004.6609049631245, -4425.310125983969, 27149.4569956609, -9085.693548404402, -3901.496994673848, 2369.1508017958167, 4474.372205063368, -0.00859352821111679, 0.8313323242068291, 0.5144682706594468, 192.0, 0.0, 0.0, 0.0, 0.0, 0.0, 0.0, 0.0, 0.0, 0.0, 1.741146860321412E9, 0.0, 2025-03-04 21:54:20.321
44.0, -30709.218169357562, -10446.914785732602, -5792.074595937085, 17768.60866172417, -23930.984608052328, 12038.80602583957, 13035.135034934883, 32052.446252399237, 34094.30046013599, 2055.868751510233, -4378.4832213501, 27165.617306902088, -9086.65467341598, -3899.261820228317, 2363.831086615454, 4483.804641223507, -0.00859352821111679, 0.8313323242068291, 0.5144682706594468, 192.0, 0.0, 0.0, 0.0, 0.0, 0.0, 0.0, 0.0, 0.0, 0.0, 1.741146860379894E9, 0.0, 2025-03-04 21:54:20.379
46.0, -30686.017058612953, -10485.873876318203, -5767.822953203077, 17732.667056640035, -24049.582964132187, 12030.938211791303, 13026.194337152761, 32029.803935266013, 33626.94783531998, 2097.9347345751207, -4409.507442654067, 27161.638696389044, -9039.738361804291, -3928.900233376054, 2375.878676876864, 4498.623847797376, -0.00859352821111679, 0.8313323242068291, 0.5144682706594468, 192.0, 0.0, 0.0, 0.0, 0.0, 0.0, 0.0, 0.0, 0.0, 0.0, 1.741146860380147E9, 0.0, 2025-03-04 21:54:20.380
48.0, -30683.468959745045, -10447.585338066261, -5755.730659452755, 17699.54177135727, -23897.76991579174, 12045.37743870943, 13005.206049109227, 32019.030394438556, 33503.722668137874, 2103.299153244395, -4406.177032730226, 27144.472556647368, -9060.167856236441, -3944.814675428233, 2382.8300694024647, 4478.283760343046, -0.00859352821111679, 0.8313323242068291, 0.5144682706594468, 192.0, 0.0, 0.0, 0.0, 0.0, 0.0, 0.0, 0.0, 0.0, 0.0, 1.741146860380394E9, 0.0, 2025-03-04 21:54:20.380
50.0, -30664.157052535662, -10364.86153183717, -5724.4382172153255, 17718.65251286656, -24013.08256543667, 12065.516360463664, 13068.01445102864, 32098.669659932813, 33037.37587182235, 2169.505020321014, -4396.856355292363, 27120.399727869004, -9042.197053694374, -3897.563087649714, 2412.043799405551, 4497.4615570857, -0.009296764105558394, 0.8366661621034146, 0.5142341353297234, 192.0, 127.5, 88.0, 13.0, 40.0, 8.0, 8.0, 0.0, 0.0, 0.0, 1.741146860380608E9, 0.0, 2025-03-04 21:54:20.380
52.0, -30664.87230835823, -10403.574753233761, -5747.728734937756, 17696.434878877983, -23840.23652556378, 12032.256964714166, 13018.840613226965, 32046.366577907396, 32828.45411639859, 2201.8032910589327, -4324.213185812615, 27135.733024565343, -9035.804454780156, -3921.658268172535, 2412.0885028944617, 4485.302208102013, -0.009296764105558394, 0.8366661621034146, 0.5142341353297234, 192.0, 0.0, 0.0, 0.0, 0.0, 0.0, 0.0, 0.0, 0.0, 0.0, 1.741146860380843E9, 0.0, 2025-03-04 21:54:20.380
54.0, -30678.037485842407, -10366.71672662696, -5733.46832197527, 17686.913035740024, -23973.22940507286, 12050.652450400883, 13014.794947480554, 32064.20326998273, 32386.873052939543, 2162.0842411618523, -4317.32884852038, 27103.88178871653, -9052.322393932629, -3950.626128986613, 2393.536554996557, 4454.792076920518, -0.009296764105558394, 0.8366661621034146, 0.5142341353297234, 192.0, 0.0, 0.0, 0.0, 0.0, 0.0, 0.0, 0.0, 0.0, 0.0, 1.741146860381084E9, 0.0, 2025-03-04 21:54:20.381
56.0, -30665.185232780605, -10301.986074684391, -5722.672429403357, 17681.83918974867, -23785.407696414914, 12051.412409712364, 13087.929855338318, 32083.44812195875, 32130.185619614796, 2216.7789598439886, -4304.968333836596, 27134.74954780931, -9033.323411145617, -3929.6378409430795, 2426.2148053902156, 4475.623902752865, -0.009296764105558394, 0.8366661621034146, 0.5142341353297234, 192.0, 0.0, 0.0, 0.0, 0.0, 0.0, 0.0, 0.0, 0.0, 0.0, 1.741146860381304E9, 0.0, 2025-03-04 21:54:20.381
58.0, -30642.565267391834, -10223.598506879629, -5703.584039638525, 17672.429105332983, -23936.192564510413, 12052.529996935129, 13082.811305858053, 32071.422883441795, 31861.383540795272, 2222.568061657913, -4272.446545654124, 27108.50859981878, -9022.281649384697, -3943.87590216111, 2439.5811485744894, 4481.301245844513, -0.009296764105558394, 0.8366661621034146, 0.5142341353297234, 192.0, 0.0, 0.0, 0.0, 0.0, 0.0, 0.0, 0.0, 0.0, 0.0, 1.741146860381522E9, 0.0, 2025-03-04 21:54:20.381
60.0, -30671.01903808344, -10223.531451646264, -5730.227319029251, 17624.43990998744, -23726.577905008544, 12016.946019762281, 13050.334221164492, 32020.796182250524, 31673.897108304158, 2227.44074194917, -4272.267731698481, 27120.667948802467, -9036.363248391539, -3987.841783504699, 2421.856215221431, 4471.310016072991, -0.011648382052779196, 0.8413330810517072, 0.5101170676648616, 192.0, 127.5, 72.0, 13.0, 56.0, 7.5, 104.0, 0.0, 0.0, 0.0, 1.741146860439217E9, 0.0, 2025-03-04 21:54:20.439
62.0, -30647.795575594377, -10156.856197936082, -5719.699647390801, 17599.24949398631, -23886.459933097358, 12029.731217590717, 13117.858841163976, 32026.87585674237, 31416.36030869011, 2217.225994733095, -4285.701130116121, 27103.568864294157, -9050.154274720464, -3987.3723968711374, 2396.6434474758444, 4469.499524772111, -0.011648382052779196, 0.8413330810517072, 0.5101170676648616, 192.0, 0.0, 0.0, 0.0, 0.0, 0.0, 0.0, 0.0, 0.0, 0.0, 1.741146860439488E9, 0.0, 2025-03-04 21:54:20.439
64.0, -30635.613874866234, -10099.680435619406, -5715.028132799642, 17610.782994125246, -23696.268939527148, 12022.04221749809, 13017.834784726476, 32002.28893784153, 31005.065858968006, 2245.7915241469773, -4279.80026957992, 27147.646504360022, -9024.382713363495, -4000.4705191219473, 2403.4830812791683, 4464.962120647683, -0.011648382052779196, 0.8413330810517072, 0.5101170676648616, 192.0, 0.0, 0.0, 0.0, 0.0, 0.0, 0.0, 0.0, 0.0, 0.0, 1.741146860439733E9, 0.0, 2025-03-04 21:54:20.439
66.0, -30634.786860321386, -10068.812676526628, -5684.920333018343, 17607.698453390414, -23850.563031502134, 12067.595072698006, 13094.948303097284, 32062.549240893037, 30667.912145604154, 2244.405715990748, -4247.434943608635, 27123.5513238372, -8997.06888163911, -4000.6940365665005, 2454.9591487597404, 4470.661815483787, -0.011648382052779196, 0.8413330810517072, 0.5101170676648616, 192.0, 0.0, 0.0, 0.0, 0.0, 0.0, 0.0, 0.0, 0.0, 0.0, 1.741146860439945E9, 0.0, 2025-03-04 21:54:20.439
68.0, -30654.612857653246, -10061.682470045385, -5707.9426298073095, 17583.2009414674, -23684.78014287712, 12041.689400874306, 13108.180535814827, 32057.140118734853, 30174.519738497704, 2269.797297691977, -4202.776158186932, 27164.365609212593, -9019.420626094416, -4002.258658678372, 2468.526657644112, 4468.001957893605, -0.011648382052779196, 0.8413330810517072, 0.5101170676648616, 192.0, 0.0, 0.0, 0.0, 0.0, 0.0, 0.0, 0.0, 0.0, 0.0, 1.741146860440172E9, 0.0, 2025-03-04 21:54:20.440
70.0, -30642.11823250273, -10021.471681770288, -5693.995141267198, 17574.95314776339, -23812.140382783462, 12062.185950539822, 13090.947340839784, 32035.615388824393, 29797.356402558853, 2241.8129136339326, -4251.592368077322, 27157.32480970917, -9050.400143909472, -4019.8494815646986, 2436.049572950551, 4432.1274080428375, -0.007824191026389598, 0.8446665405258535, 0.5060585338324308, 192.0, 127.5, 112.0, 13.0, 64.0, 7.5, 88.0, 0.0, 0.0, 0.0, 1.741146860440417E9, 0.0, 2025-03-04 21:54:20.440
72.0, -30636.418537666625, -9989.173411032369, -5669.251760155173, 17614.62749417156, -23670.07269502553, 12061.560101695073, 13105.006588102173, 32012.704850757702, 29108.3191762351, 2275.184068105706, -4182.033739332407, 27189.667783935998, -9010.189355634375, -4029.9524700584975, 2439.0000032186513, 4445.359640760379, -0.007824191026389598, 0.8446665405258535, 0.5060585338324308, 192.0, 0.0, 0.0, 0.0, 0.0, 0.0, 0.0, 0.0, 0.0, 0.0, 1.741146860440645E9, 0.0, 2025-03-04 21:54:20.440
74.0, -30647.527354660913, -9968.051012522104, -5665.317853131039, 17625.825718143667, -23780.55736786811, 12034.559194393063, 13129.101768624994, 32003.361821575385, 28796.98172771713, 2278.2239053516278, -4154.027003529907, 27207.99621438935, -9013.743283002768, -4026.13032175664, 2421.520939054601, 4445.359640760379, -0.007824191026389598, 0.8446665405258535, 0.5060585338324308, 192.0, 0.0, 0.0, 0.0, 0.0, 0.0, 0.0, 0.0, 0.0, 0.0, 1.741146860499096E9, 0.0, 2025-03-04 21:54:20.499
76.0, -30649.44960468407, -9962.328965941544, -5670.436402611304, 17652.938384167956, -23640.322523155515, 12039.342467706498, 13087.728689638221, 31985.860405666877, 28271.0228289393, 2274.312350071949, -4156.1280675087055, 27225.788202975775, -9017.923059215911, -4059.099144828218, 2379.9913978566406, 4435.033134822027, -0.007824191026389598, 0.8446665405258535, 0.5060585338324308, 192.0, 0.0, 0.0, 0.0, 0.0, 0.0, 0.0, 0.0, 0.0, 0.0, 1.741146860499373E9, 0.0, 2025-03-04 21:54:20.499
78.0, -30661.139567034195, -9957.836265306029, -5674.236199168707, 17643.930631152467, -23728.075471887052, 12020.924630275325, 13059.386677668892, 31946.297817980987, 27988.049744135114, 2258.688480697689, -4161.514837922435, 27223.24010410787, -9033.748094290268, -4059.3450140172263, 2323.665001829267, 4405.238259463103, -0.007824191026389598, 0.8446665405258535, 0.5060585338324308, 192.0, 0.0, 0.0, 0.0, 0.0, 0.0, 0.0, 0.0, 0.0, 0.0, 1.74114686049961E9, 0.0, 2025-03-04 21:54:20.499
80.0, -30649.717825617532, -9940.468959864254, -5667.59773106548, 17682.487390337872, -23673.49251192719, 12009.771109792127, 13091.126154795427, 31994.354068559896, 26938.90356289191, 2268.0315098800074, -4154.675204119111, 27234.505383313346, -9003.59559102006, -4066.7657931763883, 2313.4502546131916, 4416.034152035017, -0.0079120955131948, 0.8423332702629267, 0.5020292669162154, 192.0, 127.5, 96.0, 13.0, 32.0, 7.5, 72.0, 0.0, 0.0, 0.0, 1.741146860499835E9, 0.0, 2025-03-04 21:54:20.499
82.0, -30629.087165485285, -9895.00551164216, -5656.690079771291, 17683.895550238558, -23728.45545154279, 12014.129699960911, 13086.275826248626, 31971.488233982116, 26114.34770993563, 2255.089849840385, -4178.345701497281, 27240.54035431628, -9028.830710510101, -4104.7637587504105, 2234.7721141305105, 4390.173183700226, -0.0079120955131948, 0.8423332702629267, 0.5020292669162154, 192.0, 0.0, 0.0, 0.0, 0.0, 0.0, 0.0, 0.0, 0.0, 0.0, 1.741146860500068E9, 0.0, 2025-03-04 21:54:20.500
84.0, -30609.305871642337, -9882.913217891839, -5617.172195574307, 17749.050885325778, -23752.014190198683, 12078.68153794784, 13111.823870161043, 31987.268565567563, 24122.986092923416, 2288.885687456809, -4149.6684133611225, 27279.7900175798, -8970.023270848187, -4057.132191316151, 2280.481431541614, 4423.656096894276, -0.0079120955131948, 0.8423332702629267, 0.5020292669162154, 192.0, 0.0, 0.0, 0.0, 0.0, 0.0, 0.0, 0.0, 0.0, 0.0, 1.741146860500285E9, 0.0, 2025-03-04 21:54:20.500
86.0, -30638.00551152295, -9860.941453092271, -5644.418972065327, 17750.973135348933, -23761.69249554783, 12053.28995624661, 13138.802425718597, 31973.56694621646, 21546.79108223809, 2281.397853064281, -4160.39725069967, 27297.02321255484, -8959.62970967647, -4073.3372060462484, 2287.1646031337505, 4399.560916371455, -0.0079120955131948, 0.8423332702629267, 0.5020292669162154, 192.0, 0.0, 0.0, 0.0, 0.0, 0.0, 0.0, 0.0, 0.0, 0.0, 1.741146860500499E9, 0.0, 2025-03-04 21:54:20.500
88.0, -30637.804345822853, -9862.304909504046, -5654.946643703776, 17763.400705266085, -23766.967507239286, 12007.893563257881, 13004.826069453487, 31921.26386419104, 20987.86336038868, 2261.951835388164, -4209.705198968077, 27271.96690702044, -8976.102945340032, -4095.264267356905, 2258.8225911644213, 4353.71748849362, -0.0079120955131948, 0.8423332702629267, 0.5020292669162154, 192.0, 0.0, 0.0, 0.0, 0.0, 0.0, 0.0, 0.0, 0.0, 0.0, 1.741146860500726E9, 0.0, 2025-03-04 21:54:20.500
90.0, -30636.373834177713, -9832.778255078585, -5664.714356030746, 17769.86035941367, -23714.46325951377, 12012.47567087122, 12997.829973438977, 31929.98104452861, 20898.18816163399, 2270.601960492368, -4206.307733810871, 27297.291433488303, -8968.995090603245, -4077.360520048204, 2263.4494022666695, 4344.1956453556595, -0.0079560477565974, 0.8391666351314633, 0.5050146334581077, 192.0, 127.5, 96.0, 13.0, 16.0, 7.5, 112.0, 0.0, 0.0, 0.0, 1.741146860559382E9, 0.0, 2025-03-04 21:54:20.559
92.0, -30628.818944551822, -9831.839481811463, -5661.138076917896, 17791.22862711294, -23798.70698436582, 11986.257074625144, 13028.451863342747, 31913.708974565146, 19929.08357728524, 2228.1336460272846, -4241.198806905604, 27266.289563928793, -8992.106794370031, -4108.943534963552, 2228.8489018498544, 4310.533918205967, -0.0079560477565974, 0.8391666351314633, 0.5050146334581077, 192.0, 0.0, 0.0, 0.0, 0.0, 0.0, 0.0, 0.0, 0.0, 0.0, 1.741146860559678E9, 0.0, 2025-03-04 21:54:20.559
94.0, -30628.10368872925, -9798.13305117286, -5659.506399572659, 17824.130394951153, -23706.3942797654, 11969.247397094656, 13077.20101799977, 31975.243327050608, 19788.69227036146, 2231.7769803734996, -4238.158969659683, 27289.714192117954, -8990.855096680534, -4131.965831752519, 2207.3018201949385, 4294.37360696478, -0.0079560477565974, 0.8391666351314633, 0.5050146334581077, 192.0, 0.0, 0.0, 0.0, 0.0, 0.0, 0.0, 0.0, 0.0, 0.0, 1.741146860559908E9, 0.0, 2025-03-04 21:54:20.559
96.0, -30613.709165300035, -9800.211763407204, -5663.239140896695, 17865.19054951555, -23828.032473091185, 12031.698171102784, 13032.877508744898, 31945.26963773604, 19392.753469080148, 2227.999535560553, -4244.037478451429, 27275.006744266364, -8966.849323135535, -4119.828834513287, 2215.013172032019, 4307.628191426777, -0.0079560477565974, 0.8391666351314633, 0.5050146334581077, 192.0, 0.0, 0.0, 0.0, 0.0, 0.0, 0.0, 0.0, 0.0, 0.0, 1.741146860560128E9, 0.0, 2025-03-04 21:54:20.560
98.0, -30656.49040418749, -9838.23208072568, -5727.768627139167, 17836.937944524045, -23726.75671896419, 11934.088103066457, 12906.165469427762, 31872.626468256294, 19519.91254328639, 2184.1007094503298, -4270.300778186414, 27259.226412680917, -8986.58591348957, -4117.504253089935, 2166.8451627308327, 4268.646749096722, -0.0079560477565974, 0.8391666351314633, 0.5050146334581077, 192.0, 0.0, 0.0, 0.0, 0.0, 0.0, 0.0, 0.0, 0.0, 0.0, 1.741146860560361E9, 0.0, 2025-03-04 21:54:20.560
100.0, -30618.604197335746, -9800.055301196016, -5709.4625484302705, 17899.723994699, -23931.990436552816, 11957.289213811066, 12985.648272710834, 31967.554326957983, 19338.952820176222, 2121.381714508738, -4320.815720655408, 27208.979691145385, -8998.477041539794, -4187.331102768315, 2125.2038628105956, 4241.131751672238, -0.0179780238782987, 0.8335833175657317, 0.5135073167290538, 192.0, 127.5, 16.0, 12.5, 112.0, 8.0, 40.0, 0.0, 0.0, 0.0, 1.741146860560586E9, 0.0, 2025-03-04 21:54:20.560
102.0, -30629.310682929838, -9819.769539805597, -5744.9794703697535, 17924.489727555483, -23749.60020179751, 11903.913248051793, 12950.533682171546, 31920.45920139065, 19549.796825623136, 2118.8559673852883, -4309.908069361219, 27241.747348516867, -8963.854189378522, -4138.805465555843, 2151.4001073122154, 4261.047155981917, -0.0179780238782987, 0.8335833175657317, 0.5135073167290538, 192.0, 0.0, 0.0, 0.0, 0.0, 0.0, 0.0, 0.0, 0.0, 0.0, 1.741146860560814E9, 0.0, 2025-03-04 21:54:20.560
104.0, -30612.837447266276, -9816.32737115948, -5759.485752521247, 17961.280698928917, -23925.86605857206, 11909.389425443343, 12901.6951205367, 31884.78581723998, 19478.13713289942, 2049.967890974032, -4345.268529089514, 27212.712432469423, -8959.24973002073, -4189.968608614041, 2148.4720287885702, 4226.871338709752, -0.0179780238782987, 0.8335833175657317, 0.5135073167290538, 192.0, 0.0, 0.0, 0.0, 0.0, 0.0, 0.0, 0.0, 0.0, 0.0, 1.74114686061963E9, 0.0, 2025-03-04 21:54:20.619
106.0, -30633.982197520996, -9837.919156303305, -5799.137747184962, 17990.829705098833, -23742.38058833845, 11894.547867125018, 12891.323911109437, 31921.487381635594, 19598.814201213623, 2013.3110300673284, -4370.302482879458, 27234.371272846613, -8966.134067312965, -4154.898721563664, 2173.7518517675226, 4228.3242020993475, -0.0179780238782987, 0.8335833175657317, 0.5135073167290538, 192.0, 0.0, 0.0, 0.0, 0.0, 0.0, 0.0, 0.0, 0.0, 0.0, 1.741146860619878E9, 0.0, 2025-03-04 21:54:20.619
108.0, -30636.463241155536, -9844.289403473069, -5834.945241802364, 18014.075519332353, -23929.487041173823, 11853.510064305076, 12901.65041704779, 31921.196808957677, 19625.54688758217, 1931.4142383830833, -4404.053617006972, 27209.6725952235, -8964.927073112378, -4176.0211200739295, 2205.4689771496032, 4221.2834025959255, -0.0179780238782987, 0.8335833175657317, 0.5135073167290538, 192.0, 0.0, 0.0, 0.0, 0.0, 0.0, 0.0, 0.0, 0.0, 0.0, 1.741146860620106E9, 0.0, 2025-03-04 21:54:20.620
110.0, -30654.97048556453, -9876.028880599604, -5874.5301812327125, 18030.884031162743, -23769.247385173727, 11812.025226596026, 12854.912919391743, 31875.26397410202, 19644.501166880273, 1860.7603741598577, -4417.2187944911475, 27221.18374361798, -8970.872637137489, -4203.334951798314, 2174.6235698012792, 4163.638253645689, -0.02598901193914935, 0.8317916587828659, 0.5067536583645269, 192.0, 127.0, 120.0, 12.5, 120.0, 7.5, 80.0, 0.0, 0.0, 0.0, 1.741146860620343E9, 0.0, 2025-03-04 21:54:20.620
112.0, -30639.525430145914, -9871.513828219633, -5880.118117346539, 18028.85002241731, -23982.23715808835, 11809.655941683763, 12860.143227594284, 31904.276538405007, 19668.976327058834, 1790.0171029588107, -4441.582195947432, 27194.629871205078, -9010.16700388992, -4204.430187276625, 2130.4565227575927, 4121.013476969419, -0.02598901193914935, 0.8317916587828659, 0.5067536583645269, 192.0, 0.0, 0.0, 0.0, 0.0, 0.0, 0.0, 0.0, 0.0, 0.0, 1.74114686062058E9, 0.0, 2025-03-04 21:54:20.620
114.0, -30626.851991039755, -9873.704299176252, -5869.858666641554, 18076.66040380721, -23825.19380154536, 11810.080624828413, 12823.978105065598, 31910.825599530413, 19611.845268231067, 1799.8295187746905, -4384.853468519863, 27245.837717752187, -8945.078724036066, -4156.217474486527, 2194.181346199673, 4128.613070084223, -0.02598901193914935, 0.8317916587828659, 0.5067536583645269, 192.0, 0.0, 0.0, 0.0, 0.0, 0.0, 0.0, 0.0, 0.0, 0.0, 1.74114686062081E9, 0.0, 2025-03-04 21:54:20.620
116.0, -30648.39907269467, -9900.325226822522, -5902.849841457587, 18096.10642148333, -24058.411903192035, 11759.744496315063, 12778.537008587959, 31898.01804995752, 19674.899539339487, 1768.1347451370652, -4427.500596940589, 27221.228447106892, -8957.640404419948, -4146.360355181737, 2193.287276421461, 4114.218546655005, -0.02598901193914935, 0.8317916587828659, 0.5067536583645269, 192.0, 0.0, 0.0, 0.0, 0.0, 0.0, 0.0, 0.0, 0.0, 0.0, 1.741146860621045E9, 0.0, 2025-03-04 21:54:20.621
118.0, -30653.182346008107, -9930.656544048376, -5915.567984052656, 18144.408541251247, -23912.902046787985, 11730.70958026762, 12761.504979313015, 31880.78485498248, 19532.96596204829, 1723.922994604468, -4459.26242581158, 27218.859162194633, -8983.859000666023, -4165.962835069041, 2160.8101917278996, 4069.6938717000335, -0.02598901193914935, 0.8317916587828659, 0.5067536583645269, 192.0, 0.0, 0.0, 0.0, 0.0, 0.0, 0.0, 0.0, 0.0, 0.0, 1.741146860621256E9, 0.0, 2025-03-04 21:54:20.621
120.0, -30673.991820096, -9955.154055971392, -5944.468789633369, 18149.035352353498, -24112.190200351502, 11706.346178811335, 12690.649949389692, 31834.53909570445, 19657.487530408805, 1713.8423578551244, -4485.861001713396, 27219.75323197284, -8990.944503658355, -4150.24955871696, 2133.6528222147017, 4047.2527202669053, -0.024994505969574678, 0.8468958293914329, 0.5083768291822635, 192.0, 127.5, 32.0, 13.0, 120.0, 7.5, 120.0, 0.0, 0.0, 0.0, 1.741146860679916E9, 0.0, 2025-03-04 21:54:20.679
122.0, -30668.06860781534, -9985.463021452788, -5943.194740199416, 18184.239349870604, -24119.275703343836, 11679.747602909518, 12768.076392182875, 31928.997567772578, 19459.831054190523, 1684.181592962932, -4524.4624643877105, 27223.933008185984, -9012.469233568816, -4151.657718617645, 2117.738380162523, 4022.5093391548803, -0.024994505969574678, 0.8468958293914329, 0.5083768291822635, 192.0, 0.0, 0.0, 0.0, 0.0, 0.0, 0.0, 0.0, 0.0, 0.0, 1.741146860680182E9, 0.0, 2025-03-04 21:54:20.680
124.0, -30683.960698123065, -10022.3657515485, -5961.411411930491, 18204.80295476949, -24479.295251285464, 11747.965126987116, 12721.42830150465, 31901.415515114728, 19627.960875983343, 1684.7403865743145, -4542.634432629876, 27231.778470489797, -9010.457576567838, -4111.536337320368, 2169.8402964878437, 4050.069040068274, -0.024994505969574678, 0.8468958293914329, 0.5083768291822635, 192.0, 0.0, 0.0, 0.0, 0.0, 0.0, 0.0, 0.0, 0.0, 0.0, 1.741146860680408E9, 0.0, 2025-03-04 21:54:20.680
126.0, -30671.64488692819, -10070.42200212741, -5981.505630195812, 18219.063367731975, -24960.148329752486, 11673.489114462032, 12685.441992931605, 31864.51278501902, 19416.51337343614, 1646.7200692558372, -4584.231029061202, 27206.722164955398, -8990.788041447167, -4107.71418901851, 2173.327168622872, 4036.993269561919, -0.024994505969574678, 0.8468958293914329, 0.5083768291822635, 192.0, 0.0, 0.0, 0.0, 0.0, 0.0, 0.0, 0.0, 0.0, 0.0, 1.741146860680637E9, 0.0, 2025-03-04 21:54:20.680
128.0, -30683.98304986752, -10111.10217703607, -5991.765080900798, 18213.18485894023, -25231.76672837338, 11660.480399189044, 12663.403172898672, 31861.517651262006, 19730.04129291073, 1611.4937199942733, -4616.976334688226, 27183.588109444157, -9010.435224823383, -4100.561630792812, 2170.4661453325925, 4039.384906218637, -0.024994505969574678, 0.8468958293914329, 0.5083768291822635, 192.0, 0.0, 0.0, 0.0, 0.0, 0.0, 0.0, 0.0, 0.0, 0.0, 1.741146860680853E9, 0.0, 2025-03-04 21:54:20.680
130.0, -30700.83626518682, -10178.872666224559, -6043.643479781566, 18220.80680379949, -25134.49193650388, 11602.745843260986, 12665.8395130443, 31835.947255605133, 19591.39342205446, 1581.6764928908938, -4618.987991689204, 27183.85633037762, -9013.855041725044, -4093.0514446558295, 2210.2298987185836, 4041.6200806641677, -0.01349725298478734, 0.8454479146957165, 0.5061884145911317, 192.0, 127.5, 120.0, 13.0, 48.0, 7.5, 96.0, 0.0, 0.0, 0.0, 1.741146860681072E9, 0.0, 2025-03-04 21:54:20.681
132.0, -30712.347413581305, -10246.88902460206, -6072.432526640002, 18193.64943428629, -25128.16639282303, 11549.951022857551, 12644.068913944831, 31804.63246162325, 19947.94844960552, 1468.219038035755, -4708.21615555479, 27133.967236753375, -9059.586710880603, -4128.031924728385, 2215.1696342432065, 4006.684304080523, -0.01349725298478734, 0.8454479146957165, 0.5061884145911317, 192.0, 0.0, 0.0, 0.0, 0.0, 0.0, 0.0, 0.0, 0.0, 0.0, 1.741146860681309E9, 0.0, 2025-03-04 21:54:20.681
134.0, -30698.489332019013, -10269.173713824, -6049.611395551133, 18219.152774709793, -25119.67272993001, 11519.08326376477, 12683.139763252708, 31806.845284324325, 19905.748356073902, 1390.189098142278, -4744.470685061298, 27110.85553298659, -9056.680984101413, -4140.1018667342505, 2251.535922471991, 4002.683341823023, -0.01349725298478734, 0.8454479146957165, 0.5061884145911317, 192.0, 0.0, 0.0, 0.0, 0.0, 0.0, 0.0, 0.0, 0.0, 0.0, 1.741146860740278E9, 0.0, 2025-03-04 21:54:20.740
136.0, -30701.68563147612, -10273.755821437338, -6062.173075935016, 18185.40164058228, -25278.95126091853, 11595.682692013108, 12676.098963749286, 31805.72769710156, 20432.89189730786, 1363.1434873513565, -4749.253958374734, 27123.37250988156, -9100.289237533718, -4131.787017796876, 2251.155942816251, 4029.4383799360253, -0.01349725298478734, 0.8454479146957165, 0.5061884145911317, 192.0, 0.0, 0.0, 0.0, 0.0, 0.0, 0.0, 0.0, 0.0, 0.0, 1.74114686074056E9, 0.0, 2025-03-04 21:54:20.740
138.0, -30674.77413115193, -10282.450650030452, -6056.4957328433675, 18133.366779490327, -25705.780173037074, 11583.523343029421, 12590.983520863478, 31774.748179286504, 20562.844939571016, 1344.9268156202813, -4762.79911551465, 27117.963387723375, -9113.722635951357, -4110.061122186318, 2282.426033309225, 4036.054496294796, -0.01349725298478734, 0.8454479146957165, 0.5061884145911317, 192.0, 0.0, 0.0, 0.0, 0.0, 0.0, 0.0, 0.0, 0.0, 0.0, 1.741146860740804E9, 0.0, 2025-03-04 21:54:20.740
140.0, -30665.49815720298, -10276.236865071878, -6084.413061668046, 18096.084069738874, -25755.021066072117, 11559.718735184519, 12595.029186609887, 31771.887155996224, 21269.49534052555, 1330.6664026577953, -4765.101345193547, 27123.17134418146, -9112.13566209503, -4107.222450640494, 2332.6727548447557, 4015.8932227961095, -0.00474862649239367, 0.8407239573478582, 0.5040942072955659, 192.0, 0.0, 16.0, 13.0, 16.0, 7.5, 88.0, 0.0, 0.0, 0.0, 1.741146860741019E9, 0.0, 2025-03-04 21:54:20.741
142.0, -30637.670235356123, -10266.200931811445, -6090.559791393255, 18108.95867454513, -25976.4821501353, 11561.506874740944, 12590.089451085265, 31772.62476356325, 21577.010640741664, 1305.453634912209, -4797.109043253547, 27124.37833838205, -9131.715790237879, -4090.726863232477, 2377.555057711012, 4015.93792628502, -0.00474862649239367, 0.8407239573478582, 0.5040942072955659, 192.0, 0.0, 0.0, 0.0, 0.0, 0.0, 0.0, 0.0, 0.0, 0.0, 1.741146860741252E9, 0.0, 2025-03-04 21:54:20.741
144.0, -30636.127964988707, -10258.17665555199, -6086.11179424665, 18090.943168514154, -25896.149980562925, 11515.395225929646, 12549.096351754231, 31771.685990296126, 22321.122565403293, 1277.9162857432707, -4827.976802346326, 27135.80007979871, -9146.177368900462, -4099.1311191476725, 2402.0302178895736, 4003.5550598567797, -0.00474862649239367, 0.8407239573478582, 0.5040942072955659, 192.0, 0.0, 0.0, 0.0, 0.0, 0.0, 0.0, 0.0, 0.0, 0.0, 1.741146860741488E9, 0.0, 2025-03-04 21:54:20.741
146.0, -30622.76162180443, -10255.293280517255, -6084.189544223493, 18105.829430321388, -25955.404455113945, 11501.380682156168, 12554.170197745587, 31767.349751871796, 22707.606578780007, 1252.4129453197654, -4850.686174712918, 27137.342350166127, -9141.86348222059, -4063.390679763637, 2400.4432440332466, 4010.193527960006, -0.00474862649239367, 0.8407239573478582, 0.5040942072955659, 192.0, 0.0, 0.0, 0.0, 0.0, 0.0, 0.0, 0.0, 0.0, 0.0, 1.741146860741703E9, 0.0, 2025-03-04 21:54:20.741
148.0, -30625.555589861346, -10260.300071275244, -6091.63267512711, 18071.00541246002, -25848.96544801777, 11461.438114814535, 12554.997212290433, 31778.123292699256, 23492.510437072568, 1215.2866977795004, -4869.126363888546, 27131.486193118835, -9167.8138575332, -4066.89990364312, 2337.456028158191, 3971.323844352227, -0.00474862649239367, 0.8407239573478582, 0.5040942072955659, 192.0, 0.0, 0.0, 0.0, 0.0, 0.0, 0.0, 0.0, 0.0, 0.0, 1.741146860741929E9, 0.0, 2025-03-04 21:54:20.741
150.0, -30598.509979070426, -10249.45947521442, -6074.153610963061, 18048.34074358234, -25977.778551313706, 11466.824885228263, 12484.790382956313, 31800.653851110204, 23887.06343019765, 1192.0855870348917, -4896.3060851462, 27119.90798949099, -9174.944064014444, -4061.066098340285, 2351.045888787018, 3992.379187629126, -0.006374313246196835, 0.849361978673929, 0.5010471036477829, 192.0, 127.5, 96.0, 13.0, 104.0, 7.5, 72.0, 0.0, 0.0, 0.0, 1.741146860799494E9, 0.0, 2025-03-04 21:54:20.799
152.0, -30582.72964748498, -10231.421617438988, -6070.15264870556, 18020.17754556865, -25795.455371791766, 11516.624571874687, 12514.80877575979, 31782.28071716794, 24535.442833357196, 1177.8698775613163, -4891.120480432568, 27124.490097104324, -9183.169505973996, -4078.254589826416, 2327.8000745534987, 4004.9185162685535, -0.006374313246196835, 0.849361978673929, 0.5010471036477829, 192.0, 0.0, 0.0, 0.0, 0.0, 0.0, 0.0, 0.0, 0.0, 0.0, 1.741146860799776E9, 0.0, 2025-03-04 21:54:20.799
154.0, -30571.732589212967, -10219.530489388764, -6078.042814498283, 18013.0026355985, -25945.86026023153, 11486.51677209339, 12493.194638871508, 31756.866783722257, 24906.41473608193, 1155.071098216903, -4907.325495162666, 27117.628111556543, -9153.866368993089, -3967.032309416808, 2335.3326124349373, 4058.7191651724775, -0.006374313246196835, 0.849361978673929, 0.5010471036477829, 192.0, 0.0, 0.0, 0.0, 0.0, 0.0, 0.0, 0.0, 0.0, 0.0, 1.741146860800019E9, 0.0, 2025-03-04 21:54:20.800
156.0, -30578.795740460842, -10237.993030308848, -6107.122434034638, 17936.35850386125, -25756.13865329488, 11378.624901607622, 12407.341588418674, 31724.74732693998, 25430.339626114324, 1057.0586987803815, -4937.857978088615, 27105.178189894938, -9192.892514812054, -3989.4958125943917, 2320.3122401609708, 4042.6259091646566, -0.006374313246196835, 0.849361978673929, 0.5010471036477829, 192.0, 0.0, 0.0, 0.0, 0.0, 0.0, 0.0, 0.0, 0.0, 0.0, 1.741146860800238E9, 0.0, 2025-03-04 21:54:20.800
158.0, -30576.404103804125, -10237.970678564392, -6135.196225070504, 17892.280863795386, -25965.37333314101, 11323.19257535846, 12476.9449206525, 31758.453757578583, 25884.37061123498, 919.4613599135113, -4972.79375467226, 27079.764256449256, -9217.971172090909, -4000.515222610858, 2296.0382456825073, 4046.224540021961, -0.006374313246196835, 0.849361978673929, 0.5010471036477829, 192.0, 0.0, 0.0, 0.0, 0.0, 0.0, 0.0, 0.0, 0.0, 0.0, 1.741146860800463E9, 0.0, 2025-03-04 21:54:20.800
160.0, -30557.092196594742, -10233.857957584614, -6133.586899469722, 17947.579079577816, -25921.94389366435, 11344.002049446352, 12416.304637945252, 31710.33045176631, 26384.8261695893, 788.2566199608589, -4963.115449323112, 27104.060602672173, -9240.054695612753, -4012.6969233390005, 2302.319085874449, 4032.7911416043216, -0.008187156623098418, 0.8486809893369645, 0.49652355182389146, 192.0, 127.5, 88.0, 13.0, 64.0, 7.5, 48.0, 0.0, 0.0, 0.0, 1.741146860800701E9, 0.0, 2025-03-04 21:54:20.800
162.0, -30554.544097726837, -10221.050408011724, -6124.981477854429, 18057.549662297926, -26039.804642177183, 11325.472453292901, 12438.723437633926, 31719.651129204172, 26753.451139146226, 631.906167495986, -5004.265010865332, 27113.403631854493, -9242.02164912482, -3972.2849693638054, 2341.993432282619, 4042.871778353665, -0.008187156623098418, 0.8486809893369645, 0.49652355182389146, 192.0, 0.0, 0.0, 0.0, 0.0, 0.0, 0.0, 0.0, 0.0, 0.0, 1.741146860800918E9, 0.0, 2025-03-04 21:54:20.800
164.0, -30552.9124203816, -10222.011533023302, -6125.249698787892, 18138.82060513742, -25792.30377582357, 11257.187873981939, 12404.0782337282, 31704.1837220411, 27115.571751066658, 523.0308202541853, -5039.670174082538, 27158.442396931936, -9270.855399472166, -3940.523140492814, 2361.7747261255654, 4045.710449899489, -0.008187156623098418, 0.8486809893369645, 0.49652355182389146, 192.0, 0.0, 0.0, 0.0, 0.0, 0.0, 0.0, 0.0, 0.0, 0.0, 1.741146860860229E9, 0.0, 2025-03-04 21:54:20.860
166.0, -30552.42068200358, -10218.077625999169, -6117.113663806161, 18148.945945375675, -25944.630914286485, 11215.568925806157, 12418.003370523855, 31753.581077287326, 27545.284038219936, 442.63159544844575, -5115.196718597022, 27153.502661407314, -9329.573432156258, -3964.998300671375, 2375.789269899043, 4040.3460312302154, -0.008187156623098418, 0.8486809893369645, 0.49652355182389146, 192.0, 0.0, 0.0, 0.0, 0.0, 0.0, 0.0, 0.0, 0.0, 0.0, 1.741146860860527E9, 0.0, 2025-03-04 21:54:20.860
168.0, -30552.845365148234, -10243.580966422674, -6112.39744572609, 18182.98765218111, -25807.570017286544, 11305.825269916686, 12330.29512528123, 31677.07105601681, 27663.234193710592, 373.3411876369939, -5156.7039080505265, 27171.451112204926, -9358.161313314595, -3969.7145187514448, 2385.892258392842, 4032.411161948581, -0.008187156623098418, 0.8486809893369645, 0.49652355182389146, 192.0, 0.0, 0.0, 0.0, 0.0, 0.0, 0.0, 0.0, 0.0, 0.0, 1.74114686086074E9, 0.0, 2025-03-04 21:54:20.860
170.0, -30517.775478097854, -10220.581021378162, -6061.748392790365, 18193.26945463055, -25991.2343014758, 11360.050601965262, 12326.33886651264, 31702.95437609606, 27854.07338787, 311.5162624736145, -5211.309219754841, 27158.57650739867, -9369.113668097696, -3932.4094572555373, 2363.9875488266407, 4058.8532756392096, -0.014093578311549209, 0.8663404946684823, 0.48826177591194575, 192.0, 127.5, 48.0, 13.5, 80.0, 7.5, 0.0, 0.0, 0.0, 0.0, 1.741146860860959E9, 0.0, 2025-03-04 21:54:20.860
172.0, -30506.934882037032, -10238.730637875871, -6081.552038377767, 18175.678631744224, -25880.392000721935, 11320.33155206818, 12285.032842759234, 31703.1331900517, 27735.430328301234, 316.52305323160334, -5186.342321198264, 27177.508434952313, -9353.154522556606, -3914.326895991194, 2386.7863281710543, 4109.457625086025, -0.014093578311549209, 0.8663404946684823, 0.48826177591194575, 192.0, 0.0, 0.0, 0.0, 0.0, 0.0, 0.0, 0.0, 0.0, 0.0, 1.741146860861188E9, 0.0, 2025-03-04 21:54:20.861
174.0, -30505.28085294734, -10247.671335657995, -6114.051474815783, 18121.006264806543, -25995.19056024439, 11250.258833200793, 12324.10369206711, 31718.108858836757, 27816.723622885183, 290.8185471080002, -5217.657115180149, 27157.213050986895, -9372.734650699455, -3932.4988642333587, 2331.1975397107053, 4121.281697902882, -0.014093578311549209, 0.8663404946684823, 0.48826177591194575, 192.0, 0.0, 0.0, 0.0, 0.0, 0.0, 0.0, 0.0, 0.0, 0.0, 1.741146860861396E9, 0.0, 2025-03-04 21:54:20.861
176.0, -30493.50148361939, -10245.190292023455, -6115.034951571817, 18122.97321831861, -25905.18008532287, 11279.226694014871, 12276.09214497711, 31701.52386445092, 27710.910464633762, 278.30157021302824, -5223.468568738529, 27161.102254522117, -9389.587866018757, -3937.7738759248114, 2279.3861960633035, 4138.581948111289, -0.014093578311549209, 0.8663404946684823, 0.48826177591194575, 192.0, 0.0, 0.0, 0.0, 0.0, 0.0, 0.0, 0.0, 0.0, 0.0, 1.741146860861627E9, 0.0, 2025-03-04 21:54:20.861
178.0, -30481.677410802535, -10236.160187263511, -6125.897899377096, 18063.53992981195, -25985.534606639696, 11244.514434875779, 12281.456563646385, 31684.40242819815, 28021.890285240446, 301.212108279718, -5227.8495106517685, 27180.168292542494, -9375.886246667653, -3900.4688144289034, 2263.1364778442953, 4166.655739147155, -0.014093578311549209, 0.8663404946684823, 0.48826177591194575, 192.0, 0.0, 0.0, 0.0, 0.0, 0.0, 0.0, 0.0, 0.0, 0.0, 1.74114686086184E9, 0.0, 2025-03-04 21:54:20.861
180.0, -30455.570573278736, -10247.827797869182, -6127.2837075333255, 18028.38063578375, -25935.042015915158, 11217.55823106268, 12236.082522402112, 31657.110948218222, 27879.37556259341, 329.7999894380557, -5237.974850890023, 27190.897129881043, -9367.61610121919, -3896.5349074047695, 2243.1316665567956, 4183.933637611108, -0.03, 0.88, 0.47400000000000003, 192.0, 127.5, 8.0, 13.5, 64.0, 7.0, 104.0, 0.0, 0.0, 0.0, 1.741146860921307E9, 0.0, 2025-03-04 21:54:20.921
182.0, -30456.64345701259, -10237.322477975187, -6132.312850035769, 17993.13193477773, -25966.267402919224, 11204.5942192786, 12257.00375521228, 31663.727064576993, 28142.85792623257, 337.10900987494114, -5261.980624435023, 27203.19058933146, -9371.550008243325, -3897.3172184607056, 2226.6584308932343, 4203.133786098217, -0.03, 0.88, 0.47400000000000003, 192.0, 0.0, 0.0, 0.0, 0.0, 0.0, 0.0, 0.0, 0.0, 0.0, 1.741146860921618E9, 0.0, 2025-03-04 21:54:20.921
184.0, -30458.185727380005, -10250.085324059168, -6151.7588677118865, 18008.733452407534, -25961.484129605786, 11181.59427423409, 12201.951408618857, 31630.490020571953, 27989.256738335698, 381.76779529664464, -5250.670641740638, 27226.7269762429, -9360.597653460223, -3884.4202619099933, 2230.994669317564, 4240.148274916205, -0.03, 0.88, 0.47400000000000003, 192.0, 0.0, 0.0, 0.0, 0.0, 0.0, 0.0, 0.0, 0.0, 0.0, 1.741146860921835E9, 0.0, 2025-03-04 21:54:20.921
186.0, -30456.64345701259, -10251.60524268213, -6163.404126573101, 17988.549827164392, -25942.66396077442, 11150.63710816349, 12193.480097470296, 31633.08282292877, 28263.445587568953, 380.9631324962536, -5300.939715020623, 27205.42576377699, -9392.180668375573, -3922.418227484015, 2196.058892733919, 4211.40393154668, -0.03, 0.88, 0.47400000000000003, 192.0, 0.0, 0.0, 0.0, 0.0, 0.0, 0.0, 0.0, 0.0, 0.0, 1.741146860922063E9, 0.0, 2025-03-04 21:54:20.922
188.0, -30451.92723893252, -10255.226225283888, -6183.721862282975, 18002.676129660147, -25981.600699615563, 11145.227986005306, 12159.1701697314, 31617.660119254604, 28099.1826175669, 444.9338251273424, -5325.683096132648, 27231.15262164505, -9384.46931653849, -3881.8945147865434, 2205.178404471684, 4229.240623622015, -0.03, 0.88, 0.47400000000000003, 192.0, 0.0, 0.0, 0.0, 0.0, 0.0, 0.0, 0.0, 0.0, 0.0, 1.741146860922295E9, 0.0, 2025-03-04 21:54:20.922
190.0, -30454.40828256706, -10255.293280517255, -6190.695606553031, 17999.099850547296, -25942.306332863132, 11135.952012056352, 12193.614207937027, 31628.277197870877, 28426.322749414772, 474.1475551304287, -5385.228143361586, 27224.6259122641, -9420.701494300543, -3895.327913204183, 2160.4525638166147, 4217.573013016345, -0.028, 0.884, 0.466, 192.0, 127.5, 16.0, 13.5, 80.0, 7.0, 72.0, 0.0, 0.0, 0.0, 1.741146860922512E9, 0.0, 2025-03-04 21:54:20.922
192.0, -30433.50940150135, -10253.415733983009, -6168.992062686928, 18011.549772208902, -26033.38969151851, 11114.941372268364, 12147.681373081372, 31624.924436202582, 28282.153997678044, 536.3524599495482, -5410.2173936626195, 27210.499609768347, -9385.788069461354, -3891.2822474577724, 2192.4155583877036, 4233.286289368426, -0.028, 0.884, 0.466, 192.0, 0.0, 0.0, 0.0, 0.0, 0.0, 0.0, 0.0, 0.0, 0.0, 1.741146860922741E9, 0.0, 2025-03-04 21:54:20.922
194.0, -30438.27032307033, -10254.019231083303, -6183.431289605056, 18001.51383894847, -25957.773740026205, 11124.485567150781, 12113.68436976485, 31587.57467121776, 28569.79859707339, 592.1871175989053, -5423.963716502633, 27211.617196991112, -9388.738499729456, -3897.361921949616, 2181.083223948863, 4235.74498125851, -0.028, 0.884, 0.466, 192.0, 0.0, 0.0, 0.0, 0.0, 0.0, 0.0, 0.0, 0.0, 0.0, 1.741146860980008E9, 0.0, 2025-03-04 21:54:20.980
196.0, -30435.096375357676, -10260.210664297421, -6179.720900025475, 17995.70238539009, -26104.87057028658, 11118.025913003197, 12141.199367189332, 31621.72813674547, 28418.8572667667, 651.6874613389327, -5462.766344877046, 27205.62692947709, -9389.900790441132, -3881.0227967527867, 2160.0949359053297, 4239.857702238286, -0.028, 0.884, 0.466, 192.0, 0.0, 0.0, 0.0, 0.0, 0.0, 0.0, 0.0, 0.0, 0.0, 1.741146860980268E9, 0.0, 2025-03-04 21:54:20.980
198.0, -30442.137174861098, -10269.218417312912, -6186.113498939693, 17972.635385112215, -26004.600644660073, 11115.209593201827, 12141.646402078439, 31648.93020974758, 28664.994676708542, 690.7136071578989, -5474.433955482717, 27222.949531429953, -9394.773470732389, -3901.876974329588, 2184.927723995176, 4268.0656037408835, -0.028, 0.884, 0.466, 192.0, 0.0, 0.0, 0.0, 0.0, 0.0, 0.0, 0.0, 0.0, 0.0, 1.741146860980492E9, 0.0, 2025-03-04 21:54:20.980
200.0, -30472.446140342494, -10301.360225839642, -6209.605182362221, 17952.474111613526, -26208.627368048117, 11091.986130712763, 12104.453099304808, 31600.3598690462, 28581.980297801532, 747.509389818834, -5509.794415211012, 27223.977711674896, -9413.526584330391, -3888.6000381231356, 2173.640093045246, 4277.98977827904, -0.036000000000000004, 0.874, 0.466, 192.0, 127.0, 112.0, 13.5, 40.0, 7.0, 72.0, 0.0, 0.0, 0.0, 1.741146860980709E9, 0.0, 2025-03-04 21:54:20.980
202.0, -30472.75906476487, -10307.976342198413, -6194.160126943604, 17963.135893718707, -26078.629622296052, 11114.002599001242, 12091.667901476372, 31599.39874403462, 28698.835217813878, 764.7872882827864, -5527.228775886152, 27221.675481996, -9431.407979894637, -3899.7088551174234, 2161.7713167394777, 4273.027691009962, -0.036000000000000004, 0.874, 0.466, 192.0, 0.0, 0.0, 0.0, 0.0, 0.0, 0.0, 0.0, 0.0, 0.0, 1.741146860980955E9, 0.0, 2025-03-04 21:54:20.980
204.0, -30501.27989068984, -10326.014199973846, -6204.151356715126, 17973.194178723596, -26294.18984582303, 11090.734433023266, 12101.703834736805, 31605.34430805973, 28582.94142281311, 808.9766870709285, -5548.172360440774, 27230.23620012238, -9412.788976763366, -3891.8633928136105, 2197.0423694899523, 4307.583487937866, -0.036000000000000004, 0.874, 0.466, 192.0, 0.0, 0.0, 0.0, 0.0, 0.0, 0.0, 0.0, 0.0, 0.0, 1.741146860981198E9, 0.0, 2025-03-04 21:54:20.981
206.0, -30538.070862063276, -10384.016976835368, -6234.728543129986, 17948.584908078305, -26162.739236681373, 11057.18446459585, 12083.420107772365, 31607.266558082887, 28658.020932438485, 825.5616814567663, -5567.059584505509, 27230.526772800302, -9454.340869705782, -3901.206421995929, 2171.5390290664473, 4305.840051870353, -0.036000000000000004, 0.874, 0.466, 192.0, 0.0, 0.0, 0.0, 0.0, 0.0, 0.0, 0.0, 0.0, 0.0, 1.741146860981404E9, 0.0, 2025-03-04 21:54:20.981
208.0, -30555.81814716079, -10409.743834703426, -6232.023982050894, 17962.286527429405, -26391.777562114905, 11089.281569633671, 12044.639831142405, 31588.334630529243, 28581.75678035698, 829.0932570807049, -5612.0312943495865, 27181.911728610008, -9457.738334862988, -3916.6067739256355, 2176.568171568891, 4300.050950056428, -0.036000000000000004, 0.874, 0.466, 192.0, 0.0, 0.0, 0.0, 0.0, 0.0, 0.0, 0.0, 0.0, 0.0, 1.74114686098162E9, 0.0, 2025-03-04 21:54:20.981
210.0, -30572.76076945791, -10456.123704448188, -6244.987993834972, 17953.770512791936, -26240.702121341485, 11051.909452904398, 11964.08414412548, 31555.231696990933, 28600.17461778815, 863.6714057530648, -5611.025465849098, 27176.90493785202, -9459.749991863966, -3896.2443347268504, 2207.3688754283044, 4312.7914443959535, -0.034, 0.88, 0.466, 192.0, 127.0, 120.0, 13.5, 64.0, 7.0, 72.0, 0.0, 0.0, 0.0, 1.741146861040387E9, 0.0, 2025-03-04 21:54:21.040
212.0, -30588.943432443553, -10466.606672597727, -6246.418505480112, 17953.79286453639, -26471.81915900936, 11034.050409084608, 11993.700205528761, 31584.78070316085, 28484.839616398767, 879.2058681495033, -5620.63671596488, 27153.23444047385, -9473.92099784863, -3917.791416381767, 2203.189099215162, 4310.80213913943, -0.034, 0.88, 0.466, 192.0, 0.0, 0.0, 0.0, 0.0, 0.0, 0.0, 0.0, 0.0, 0.0, 1.74114686104067E9, 0.0, 2025-03-04 21:54:21.040
214.0, -30619.744136302965, -10501.073062547812, -6277.599188995265, 17947.02028596643, -26347.185831926567, 11031.23408928324, 11965.738173215172, 31521.41350763005, 28443.555944389816, 903.0775312277713, -5615.942849629266, 27158.37534169857, -9493.679939947122, -3938.846759658666, 2207.8159103174103, 4321.218052055604, -0.034, 0.88, 0.466, 192.0, 0.0, 0.0, 0.0, 0.0, 0.0, 0.0, 0.0, 0.0, 0.0, 1.741146861040898E9, 0.0, 2025-03-04 21:54:21.040
216.0, -30594.710182513023, -10459.431762627573, -6229.162958760615, 17973.820027568345, -26536.840383629846, 11055.217511083783, 11964.218254592211, 31584.11015082719, 28502.005756140443, 922.6800111150756, -5649.135190145396, 27131.62030358557, -9511.02489364444, -3931.15775956604, 2200.216317202606, 4307.985819338062, -0.034, 0.88, 0.466, 192.0, 0.0, 0.0, 0.0, 0.0, 0.0, 0.0, 0.0, 0.0, 0.0, 1.741146861041111E9, 0.0, 2025-03-04 21:54:21.041
218.0, -30587.44586556505, -10457.420105626596, -6234.28150824088, 17980.346736949294, -26414.21871354803, 11055.776304695166, 11971.683737240284, 31583.52900547135, 28429.04966223832, 998.6088870297536, -5595.379244730383, 27186.09150482315, -9481.230018285516, -3894.970285292898, 2262.912960399742, 4366.480334577601, -0.034, 0.88, 0.466, 192.0, 0.0, 0.0, 0.0, 0.0, 0.0, 0.0, 0.0, 0.0, 0.0, 1.741146861041327E9, 0.0, 2025-03-04 21:54:21.041
220.0, -30584.070752152296, -10445.193701409544, -6234.370915218701, 17967.583890865313, -26613.21629443363, 11043.99693536722, 11949.779027674083, 31564.19474651751, 28661.708970273612, 1014.210404659558, -5608.410311747827, 27172.032257560764, -9500.094890605795, -3902.9722098078983, 2250.6195009493235, 4354.544503038466, -0.024, 0.882, 0.47000000000000003, 192.0, 127.5, 32.0, 13.5, 72.0, 7.0, 88.0, 0.0, 0.0, 0.0, 1.741146861041545E9, 0.0, 2025-03-04 21:54:21.041
222.0, -30595.20192089104, -10448.792332266848, -6252.051145082849, 17981.88900731671, -26490.505217373993, 11006.110728515474, 11938.2678792796, 31544.458156163473, 28746.623247459323, 1032.337669412812, -5597.212087775718, 27178.80483613072, -9514.176489612639, -3917.232622770384, 2244.696288668667, 4345.268529089514, -0.024, 0.882, 0.47000000000000003, 192.0, 0.0, 0.0, 0.0, 0.0, 0.0, 0.0, 0.0, 0.0, 0.0, 1.741146861041781E9, 0.0, 2025-03-04 21:54:21.041
224.0, -30588.49639755445, -10429.25690761291, -6237.5225111868995, 17980.994937538497, -26610.89171301028, 11035.771493407667, 11894.659625847296, 31556.081063280235, 29073.38339965146, 1035.8692450367505, -5607.940925114265, 27161.43753068895, -9524.234774617527, -3943.3841637830933, 2246.35031775836, 4343.636851744277, -0.024, 0.882, 0.47000000000000003, 192.0, 0.0, 0.0, 0.0, 0.0, 0.0, 0.0, 0.0, 0.0, 0.0, 1.741146861099995E9, 0.0, 2025-03-04 21:54:21.099
