%OpenBCI Raw EXG Data
%Number of channels = 16
%Sample Rate = 125 Hz
%Board = OpenBCI_GUI$BoardCytonSerialDaisy
Sample Index, EXG Channel 0, EXG Channel 1, EXG Channel 2, EXG Channel 3, EXG Channel 4, EXG Channel 5, EXG Channel 6, EXG Channel 7, EXG Channel 8, EXG Channel 9, EXG Channel 10, EXG Channel 11, EXG Channel 12, EXG Channel 13, EXG Channel 14, EXG Channel 15, Accel Channel 0, Accel Channel 1, Accel Channel 2, Not Used, Digital Channel 0 (D11), Digital Channel 1 (D12), Digital Channel 2 (D13), Digital Channel 3 (D17), Not Used, Digital Channel 4 (D18), Analog Channel 0, Analog Channel 1, Analog Channel 2, Timestamp, Marker Channel, Timestamp (Formatted)
88.0, -14235.535470907149, -31972.449358993694, -36038.924579492166, -9181.20255246193, -15736.030427936368, -9937.697343551796, -22340.590934823864, -29299.69481226144, -3349.3865548833082, -13547.079389939236, -11644.744771092508, -5492.158888835775, -21875.317022242194, -14826.672056516654, -187500.02235174447, -32760.594220232277, 0.0, 0.0, 0.0, 192.0, 0.0, 0.0, 0.0, 0.0, 0.0, 0.0, 0.0, 0.0, 0.0, 1.74250329410456E9, 0.0, 2025-03-20 15:41:34.104
90.0, -14299.26029434923, -31996.43278079424, -36042.70202430511, -9186.00817751982, -15765.065343983812, -9944.179349443835, -22352.012676240527, -29308.14377166555, -3358.0143282430568, -13546.20767190548, -11651.740867107019, -5491.220115568652, -21881.307289756216, -14831.254164129992, -187500.02235174447, -32756.34738878577, 0.026000000000000002, 0.493, -0.035, 192.0, 0.5, 80.0, 15.0, 104.0, 126.5, 104.0, 0.0, 0.0, 0.0, 1.742503294104841E9, 0.0, 2025-03-20 15:41:34.104
92.0, -14236.138968007443, -31972.158786315777, -36034.923617234665, -9183.728299585378, -15744.837015251758, -9936.87032900695, -22341.283838901978, -29303.60636754112, -3364.1163544793553, -13545.179491660536, -11651.673811873652, -5487.442670755705, -21869.349106472626, -14830.60596354079, -187500.02235174447, -32760.81773767683, 0.026000000000000002, 0.493, -0.035, 192.0, 0.0, 0.0, 0.0, 0.0, 0.0, 0.0, 0.0, 0.0, 0.0, 1.742503294105099E9, 0.0, 2025-03-20 15:41:34.105
94.0, -14293.73941346877, -31991.13541735833, -36029.201570654106, -9178.922674527488, -15752.25779441092, -9922.900488722384, -22339.22747841209, -29300.5665302952, -3353.409868885263, -13542.609041048176, -11646.801131582395, -5488.560257978471, -21878.781542632765, -14827.208498383583, -187500.02235174447, -32750.982970116496, 0.026000000000000002, 0.493, -0.035, 192.0, 0.0, 0.0, 0.0, 0.0, 0.0, 0.0, 0.0, 0.0, 0.0, 1.74250329410534E9, 0.0, 2025-03-20 15:41:34.105
96.0, -14238.597659897527, -31974.90805088378, -36042.612617327286, -9186.34345368665, -15747.474521097485, -9933.696381294296, -22344.524841847997, -29306.601501298133, -3352.9851857406125, -13542.87726198164, -11643.4483699141, -5488.135574833819, -21866.845711093632, -14822.112300647772, -187500.02235174447, -32748.993664859972, 0.026000000000000002, 0.493, -0.035, 192.0, 0.0, 0.0, 0.0, 0.0, 0.0, 0.0, 0.0, 0.0, 0.0, 1.742503294105573E9, 0.0, 2025-03-20 15:41:34.105
98.0, -14282.898817407944, -31988.274394068052, -36033.806030011896, -9180.330834428172, -15753.30832640032, -9926.342657368501, -22339.003960967537, -29304.075754174683, -3356.9861479981123, -13548.576956817742, -11647.4493321716, -5490.661321957269, -21881.463751967403, -14823.989847182018, -187500.02235174447, -32757.040292863883, 0.026000000000000002, 0.493, -0.035, 192.0, 0.0, 0.0, 0.0, 0.0, 0.0, 0.0, 0.0, 0.0, 0.0, 1.742503294105794E9, 0.0, 2025-03-20 15:41:34.105
100.0, -14224.29254344613, -31961.027617577034, -36026.76523050848, -9176.039299492753, -15732.54355580134, -9928.354314369479, -22335.315923132413, -29298.08548666066, -3344.022136214034, -13533.333067099222, -11634.01593375396, -5476.713833417158, -21869.572623917178, -14814.959742422074, -187500.02235174447, -32750.312417782836, 0.04, 0.7415, -0.0545, 192.0, 0.5, 88.0, 15.0, 120.0, 126.5, 88.0, 0.0, 0.0, 0.0, 1.742503294106035E9, 0.0, 2025-03-20 15:41:34.106
102.0, -14283.703480208336, -31989.771960946557, -36035.88474224624, -9180.777869317279, -15744.188814662555, -9935.261003406167, -22334.198335909645, -29297.012602926807, -3353.6557380742715, -13542.072599181247, -11643.224852469546, -5480.491278230104, -21878.9156530995, -14822.022893669951, -187500.02235174447, -32759.074301609315, 0.04, 0.7415, -0.0545, 192.0, 0.0, 0.0, 0.0, 0.0, 0.0, 0.0, 0.0, 0.0, 0.0, 1.742503294106326E9, 0.0, 2025-03-20 15:41:34.106
104.0, -14237.949459308322, -31968.8954316253, -36030.05093694341, -9172.395965146537, -15739.718465771493, -9934.411637116866, -22338.065187700413, -29298.107838405114, -3351.7334880511153, -13540.664439280563, -11645.504730403987, -5479.0160630960545, -21869.818493106188, -14818.804242468386, -187500.02235174447, -32754.201621318058, 0.04, 0.7415, -0.0545, 192.0, 0.0, 0.0, 0.0, 0.0, 0.0, 0.0, 0.0, 0.0, 0.0, 1.742503294106582E9, 0.0, 2025-03-20 15:41:34.106
0.0, -7139.907138336556, -16011.113346947832, -17970.55667287787, -4589.2601715636465, -7865.221245911271, -4964.0542225902345, -11151.575881430612, -14631.340161721726, -1670.9493602453902, -6772.712680424772, -5820.48366313978, -2737.976937052839, -10932.193509601773, -7408.575106689347, -93750.01117587223, -16376.072630414086, 0.047, 0.86375, -0.06025, 192.0, 0.5, 88.0, 15.0, 104.0, 126.5, 120.0, 0.0, 0.0, 0.0, 1.742503294226588E9, 0.0, 2025-03-20 15:41:34.226
2.0, -14218.078758487554, -31990.017830135566, -35941.89565681168, -9174.295863425239, -15721.434738807053, -9928.331962625023, -22307.08566988536, -29261.629791454056, -3326.9006999612693, -13533.981267688427, -11641.861396057773, -5482.279417786529, -21858.307344711702, -14777.07353557033, -187500.02235174447, -32716.91891156661, 0.047, 0.86375, -0.06025, 192.0, 0.0, 0.0, 0.0, 0.0, 0.0, 0.0, 0.0, 0.0, 0.0, 1.742503294286302E9, 0.0, 2025-03-20 15:41:34.286
4.0, -14259.474189218783, -31999.874949440356, -35942.58856088979, -9163.947005742431, -15731.403616834119, -9915.63617177441, -22293.60756797881, -29251.482099471345, -3316.551842278462, -13518.178584358524, -11633.770064564951, -5470.187124036208, -21849.791330074233, -14764.578910419812, -187500.02235174447, -32709.29696670735, 0.047, 0.86375, -0.06025, 192.0, 0.0, 0.0, 0.0, 0.0, 0.0, 0.0, 0.0, 0.0, 0.0, 1.742503294286586E9, 0.0, 2025-03-20 15:41:34.286
6.0, -14212.155546206897, -31979.534861986027, -35943.57203764583, -9159.968395229387, -15718.841936450237, -9912.171651383836, -22291.12652434427, -29256.3547797626, -3324.03967667099, -13504.298151051778, -11635.40174191019, -5462.9898623215995, -21850.059551007696, -14756.956965560552, -187500.02235174447, -32700.17745496958, 0.047, 0.86375, -0.06025, 192.0, 0.0, 0.0, 0.0, 0.0, 0.0, 0.0, 0.0, 0.0, 0.0, 1.742503294286828E9, 0.0, 2025-03-20 15:41:34.286
8.0, -14250.667601903393, -31998.28797558403, -35943.39322369018, -9160.169560929486, -15718.149032372123, -9912.216354872746, -22290.701841199618, -29244.307189501193, -3317.3788568233085, -13505.326331296723, -11631.311372674869, -5458.251292497074, -21859.290821467737, -14756.554634160357, -187500.02235174447, -32704.200768971536, 0.046, 0.99, -0.056, 192.0, 0.5, 56.0, 15.0, 120.0, 127.0, 32.0, 0.0, 0.0, 0.0, 1.74250329428707E9, 0.0, 2025-03-20 15:41:34.287
10.0, -14231.065122016087, -31990.308402813484, -35947.52829641441, -9168.05972672221, -15718.68547423905, -9931.572965571042, -22298.435544781154, -29254.946619861916, -3340.42350535673, -13510.981322643915, -11641.704933846586, -5461.894626843289, -21865.817530848686, -14759.125084772717, -187500.02235174447, -32701.60796661472, 0.046, 0.99, -0.056, 192.0, 0.0, 0.0, 0.0, 0.0, 0.0, 0.0, 0.0, 0.0, 0.0, 1.742503294287316E9, 0.0, 2025-03-20 15:41:34.287
12.0, -14254.266232760696, -32002.557158774995, -35947.30477896986, -9171.032508734765, -15730.196622633532, -9924.219241645247, -22303.37528030578, -29259.506375730798, -3327.6606592727494, -13521.307828582267, -11638.910965789672, -5465.068574555943, -21866.890414582544, -14762.567253418834, -187500.02235174447, -32705.653632361133, 0.046, 0.99, -0.056, 192.0, 0.0, 0.0, 0.0, 0.0, 0.0, 0.0, 0.0, 0.0, 0.0, 1.742503294287544E9, 0.0, 2025-03-20 15:41:34.287
14.0, -14225.030151013156, -31978.931364885735, -35931.6809095956, -9154.201645159917, -15713.566924758785, -9910.987008927705, -22290.008937121504, -29249.850422126106, -3329.1135226623446, -13515.496375023888, -11637.748675077997, -5465.247388511585, -21860.698981368423, -14762.142570274184, -187500.02235174447, -32703.306699193326, 0.046, 0.99, -0.056, 192.0, 0.0, 0.0, 0.0, 0.0, 0.0, 0.0, 0.0, 0.0, 0.0, 1.74250329428777E9, 0.0, 2025-03-20 15:41:34.287
16.0, -14236.876575574468, -31989.391981290817, -35939.39226143268, -9163.634081320059, -15721.568849273785, -9923.72750326723, -22304.17994310617, -29259.260506541792, -3315.2330893555986, -13503.985226629404, -11625.946954005594, -5453.60212965037, -21849.56781262968, -14749.983221290497, -187500.02235174447, -32698.501074135434, 0.046, 0.99, -0.056, 192.0, 0.0, 0.0, 0.0, 0.0, 0.0, 0.0, 0.0, 0.0, 0.0, 1.742503294346522E9, 0.0, 2025-03-20 15:41:34.346
18.0, -14237.368313952484, -31987.42502777875, -35938.92287479912, -9165.802200532222, -15717.232610849454, -9924.822738745539, -22300.04487038194, -29261.115701331582, -3334.6344035428056, -13506.689787708496, -11640.520291390454, -5466.856714112368, -21846.907955039496, -14760.622651651223, -187500.02235174447, -32704.491341649456, 0.044, 0.984, -0.06, 192.0, 0.5, 48.0, 15.0, 96.0, 127.0, 16.0, 0.0, 0.0, 0.0, 1.742503294346808E9, 0.0, 2025-03-20 15:41:34.346
20.0, -14224.918392290878, -31984.80987367748, -35932.999662518465, -9162.896473753033, -15712.382282302653, -9925.605049801476, -22300.246036082037, -29266.882451401052, -3315.009571911046, -13503.471136506932, -11625.58932609431, -5454.853827339867, -21853.74758884282, -14758.275718483415, -187500.02235174447, -32703.37375442669, 0.044, 0.984, -0.06, 192.0, 0.0, 0.0, 0.0, 0.0, 0.0, 0.0, 0.0, 0.0, 0.0, 1.74250329434708E9, 0.0, 2025-03-20 15:41:34.347
22.0, -14230.662790615892, -31979.17723407474, -35935.41365091964, -9156.258005649806, -15712.337578813742, -9916.977276441727, -22299.59783549283, -29253.27023902777, -3321.268060358532, -13497.77144167083, -11629.724398818542, -5452.909225572255, -21853.36760918708, -14757.426352194114, -187500.02235174447, -32706.01126027242, 0.044, 0.984, -0.06, 192.0, 0.0, 0.0, 0.0, 0.0, 0.0, 0.0, 0.0, 0.0, 0.0, 1.742503294347452E9, 0.0, 2025-03-20 15:41:34.347
24.0, -14216.871764286967, -31981.41240852027, -35946.94715105857, -9164.841075520644, -15715.913857926591, -9924.286296878612, -22298.815524436897, -29256.153614062503, -3316.328324833909, -13501.750052183874, -11627.511576117466, -5450.003498793066, -21855.960411543896, -14750.296145712871, -187500.02235174447, -32706.212425972513, 0.044, 0.984, -0.06, 192.0, 0.0, 0.0, 0.0, 0.0, 0.0, 0.0, 0.0, 0.0, 0.0, 1.742503294347638E9, 0.0, 2025-03-20 15:41:34.347
26.0, -14243.380933210961, -31987.737952201125, -35938.095860254274, -9160.750706285324, -15725.368645831186, -9924.4427590898, -22296.93797790265, -29257.002980351805, -3326.386609838797, -13505.48279350791, -11635.424093654645, -5457.0666500409425, -21859.5590424012, -14756.644041138177, -187500.02235174447, -32700.400972414136, 0.044, 0.984, -0.06, 192.0, 0.0, 0.0, 0.0, 0.0, 0.0, 0.0, 0.0, 0.0, 0.0, 1.742503294347804E9, 0.0, 2025-03-20 15:41:34.347
28.0, -14209.38392989444, -31976.003286362087, -35943.05794752335, -9161.868293508089, -15717.567887016285, -9931.77413127114, -22297.474419769576, -29256.69005592943, -3307.32057181842, -13503.471136506932, -11623.10828245977, -5449.1988359926745, -21844.829242805154, -14751.257270724449, -187500.02235174447, -32700.24451020295, 0.042, 0.98, -0.056, 192.0, 0.5, 40.0, 15.0, 80.0, 127.0, 32.0, 0.0, 0.0, 0.0, 1.742503294347964E9, 0.0, 2025-03-20 15:41:34.347
30.0, -14245.481997189761, -31986.1509783448, -35936.844162564776, -9158.806104517711, -15722.038235907345, -9919.972410198738, -22293.495809256532, -29252.64439018302, -3322.3856475812972, -13507.181526086513, -11631.669000586153, -5456.641966896292, -21845.879774794554, -14757.582814405301, -187500.02235174447, -32706.927681795085, 0.042, 0.98, -0.056, 192.0, 0.0, 0.0, 0.0, 0.0, 0.0, 0.0, 0.0, 0.0, 0.0, 1.742503294348136E9, 0.0, 2025-03-20 15:41:34.348
32.0, -14187.680386028336, -31958.501870453583, -35925.310662425836, -9150.647717791524, -15699.507677496396, -9918.29602936459, -22292.46762901159, -29246.162384290983, -3307.097054373867, -13500.207781816458, -11617.00625622347, -5446.315460957941, -21843.108158482097, -14745.19994797706, -187500.02235174447, -32705.94420503905, 0.042, 0.98, -0.056, 192.0, 0.0, 0.0, 0.0, 0.0, 0.0, 0.0, 0.0, 0.0, 0.0, 1.742503294405865E9, 0.0, 2025-03-20 15:41:34.405
34.0, -14244.453816944817, -31980.674800953246, -35935.726575342014, -9154.961604471398, -15719.311323083797, -9922.587564300009, -22297.40736453621, -29239.83684061013, -3315.300144588965, -13491.803525901261, -11619.129671946726, -5449.26589122604, -21852.630001620055, -14744.216471221027, -187500.02235174447, -32701.5185596369, 0.042, 0.98, -0.056, 192.0, 0.0, 0.0, 0.0, 0.0, 0.0, 0.0, 0.0, 0.0, 0.0, 1.742503294406047E9, 0.0, 2025-03-20 15:41:34.406
36.0, -14190.876685485446, -31965.05093157899, -35950.41167144915, -9167.992671488842, -15711.041177635334, -9940.267794164158, -22303.30822507241, -29245.35772149059, -3314.450778299663, -13492.161153812547, -11617.475642857033, -5447.298937713974, -21842.214088703884, -14742.227165964505, -187500.02235174447, -32701.384449170167, 0.042, 0.98, -0.056, 192.0, 0.0, 0.0, 0.0, 0.0, 0.0, 0.0, 0.0, 0.0, 0.0, 1.742503294406206E9, 0.0, 2025-03-20 15:41:34.406
38.0, -14249.862939103, -31988.60967023488, -35944.84608707978, -9166.115124954596, -15725.614515020194, -9934.031657461126, -22296.647405224732, -29239.41215746548, -3330.0746476739228, -13507.650912720075, -11635.759369821475, -5468.577798435426, -21862.956507558407, -14758.543939416879, -187500.02235174447, -32711.934472553072, 0.048, 0.984, -0.052000000000000005, 192.0, 0.5, 64.0, 15.0, 96.0, 127.0, 48.0, 0.0, 0.0, 0.0, 1.742503294406375E9, 0.0, 2025-03-20 15:41:34.406
40.0, -14178.829095224035, -31957.473690208637, -35937.26884570943, -9161.510665596803, -15702.748680442415, -9927.862575991461, -22288.868998154285, -29232.21489575087, -3310.6509817422607, -13496.877371892617, -11616.738035290007, -5456.485504685104, -21853.36760918708, -14741.064875252829, -187500.02235174447, -32700.84800730324, 0.048, 0.984, -0.052000000000000005, 192.0, 0.0, 0.0, 0.0, 0.0, 0.0, 0.0, 0.0, 0.0, 0.0, 1.742503294406559E9, 0.0, 2025-03-20 15:41:34.406
42.0, -14241.05635178761, -31985.011039377576, -35943.281464967906, -9164.371688887082, -15719.221916105977, -9918.92187820934, -22298.480248270065, -29232.59487540661, -3319.7481417355707, -13495.782136414307, -11618.213250424058, -5460.84409485389, -21838.61545784658, -14743.009477020441, -187500.02235174447, -32694.880091533672, 0.048, 0.984, -0.052000000000000005, 192.0, 0.0, 0.0, 0.0, 0.0, 0.0, 0.0, 0.0, 0.0, 0.0, 1.742503294406721E9, 0.0, 2025-03-20 15:41:34.406
44.0, -14176.415106822862, -31957.13841404181, -35936.419479420125, -9159.186084173452, -15696.445488506019, -9920.397093343388, -22289.383088276754, -29234.87475334105, -3308.773435208015, -13493.077575335214, -11612.53590733241, -5457.647795396781, -21847.42204516197, -14738.829700807299, -187500.02235174447, -32690.3650391537, 0.048, 0.984, -0.052000000000000005, 192.0, 0.0, 0.0, 0.0, 0.0, 0.0, 0.0, 0.0, 0.0, 0.0, 1.742503294406898E9, 0.0, 2025-03-20 15:41:34.406
46.0, -14240.00581979821, -31980.540690486516, -35945.67310162462, -9165.802200532222, -15725.055721408811, -9922.140529410903, -22296.647405224732, -29238.741605131818, -3322.542109792484, -13499.269008549334, -11618.123843446238, -5465.202685022675, -21854.529899898756, -14743.076532253806, -187500.02235174447, -32697.60700435722, 0.048, 0.984, -0.052000000000000005, 192.0, 0.0, 0.0, 0.0, 0.0, 0.0, 0.0, 0.0, 0.0, 0.0, 1.742503294465672E9, 0.0, 2025-03-20 15:41:34.465
48.0, -14168.591996263505, -31942.587428401403, -35928.08227873829, -9151.47473233637, -15692.1539535706, -9911.255229861168, -22276.910814870695, -29218.557979888676, -3310.740388720082, -13487.735508410397, -11607.104433429771, -5457.021946552032, -21846.930306783954, -14732.571212359813, -187500.02235174447, -32688.778065297374, 0.052000000000000005, 0.982, -0.054, 192.0, 0.5, 80.0, 15.0, 88.0, 127.0, 40.0, 0.0, 0.0, 0.0, 1.742503294465876E9, 0.0, 2025-03-20 15:41:34.465
50.0, -14224.516060890683, -31969.99066710361, -35939.81694457733, -9159.208435917906, -15711.510564268896, -9920.553555554576, -22285.918567886183, -29224.794116591707, -3300.36917929282, -13481.231150773901, -11601.58355254931, -5451.568120904937, -21840.068321236173, -14728.659657080134, -187500.02235174447, -32682.60898382771, 0.052000000000000005, 0.982, -0.054, 192.0, 0.0, 0.0, 0.0, 0.0, 0.0, 0.0, 0.0, 0.0, 0.0, 1.742503294466051E9, 0.0, 2025-03-20 15:41:34.466
52.0, -14176.102182400487, -31954.769129129545, -35930.18334271709, -9157.152075428019, -15698.323035040265, -9919.01128518716, -22280.621204450275, -29222.670700868453, -3308.3711038078195, -13483.712194408441, -11604.802203750874, -5456.8878360853005, -21840.716521825376, -14730.693665825567, -187500.02235174447, -32681.916079749597, 0.052000000000000005, 0.982, -0.054, 192.0, 0.0, 0.0, 0.0, 0.0, 0.0, 0.0, 0.0, 0.0, 0.0, 1.742503294466209E9, 0.0, 2025-03-20 15:41:34.466
54.0, -14228.874651059468, -31981.971202131655, -35935.77127883092, -9159.476656851371, -15701.049947863812, -9910.204697871768, -22285.091553341335, -29224.190619491415, -3303.5654787499284, -13486.081479320703, -11604.10929967276, -5460.12883903132, -21846.684437594944, -14735.387532161181, -187500.02235174447, -32687.012277485406, 0.052000000000000005, 0.982, -0.054, 192.0, 0.0, 0.0, 0.0, 0.0, 0.0, 0.0, 0.0, 0.0, 0.0, 1.742503294466359E9, 0.0, 2025-03-20 15:41:34.466
56.0, -14194.47531634275, -31974.304553783484, -35939.16874398813, -9164.259930164806, -15698.457145506996, -9924.800387001085, -22290.210102821602, -29239.54626793221, -3317.334153334398, -13493.09992707967, -11617.5426980904, -5470.8576763698675, -21838.79427180222, -14739.701418841056, -187500.02235174447, -32692.443751388044, 0.052000000000000005, 0.982, -0.054, 192.0, 0.0, 0.0, 0.0, 0.0, 0.0, 0.0, 0.0, 0.0, 0.0, 1.742503294466508E9, 0.0, 2025-03-20 15:41:34.466
58.0, -14232.38387493895, -31990.62132723586, -35944.15318300166, -9162.941177241943, -15709.834183434748, -9922.252288133179, -22283.951614374117, -29232.192544006415, -3315.2777928445093, -13496.542095725787, -11615.419282367146, -5470.030661825021, -21842.772882315265, -14739.366142674226, -187500.02235174447, -32695.416533400603, 0.05, 0.978, -0.056, 192.0, 0.5, 72.0, 15.0, 72.0, 127.0, 32.0, 0.0, 0.0, 0.0, 1.742503294466668E9, 0.0, 2025-03-20 15:41:34.466
60.0, -14193.469487842262, -31967.46491998016, -35930.07158399482, -9150.781828258256, -15702.525162997863, -9920.598259043487, -22282.722268429075, -29232.818392851164, -3332.220415141632, -13487.62374968812, -11616.559221334366, -5464.93446408921, -21844.89629803852, -14733.10765422674, -187500.02235174447, -32681.46904486049, 0.05, 0.978, -0.056, 192.0, 0.0, 0.0, 0.0, 0.0, 0.0, 0.0, 0.0, 0.0, 0.0, 1.742503294466842E9, 0.0, 2025-03-20 15:41:34.466
62.0, -14215.932991019845, -31978.75255093009, -35928.86458979423, -9151.631194547557, -15705.028558376856, -9924.018075945149, -22281.202349806113, -29223.63182588003, -3297.441100769174, -13486.729679909908, -11599.907171715162, -5454.675013384225, -21847.109120739595, -14726.893869268164, -187500.02235174447, -32685.60411758472, 0.05, 0.978, -0.056, 192.0, 0.0, 0.0, 0.0, 0.0, 0.0, 0.0, 0.0, 0.0, 0.0, 1.742503294525937E9, 0.0, 2025-03-20 15:41:34.525
64.0, -14203.974807736256, -31974.595126461405, -35928.7304793275, -9155.408639360505, -15698.121869340166, -9918.698360764785, -22281.425867250666, -29226.179924747936, -3310.427464297708, -13489.702461922463, -11608.646703797187, -5461.492295443094, -21841.69999858141, -14734.471110638513, -187500.02235174447, -32683.279536161368, 0.05, 0.978, -0.056, 192.0, 0.0, 0.0, 0.0, 0.0, 0.0, 0.0, 0.0, 0.0, 0.0, 1.742503294526129E9, 0.0, 2025-03-20 15:41:34.526
66.0, -14213.004912496199, -31982.261774809573, -35940.21927597753, -9170.00432848982, -15701.608741475195, -9923.258116633668, -22284.39864926322, -29234.964160318872, -3312.059141642945, -13497.458517248455, -11611.574782320831, -5467.147286790287, -21830.859402520586, -14741.981296775497, -187500.02235174447, -32692.957841510517, 0.05, 0.978, -0.056, 192.0, 0.0, 0.0, 0.0, 0.0, 0.0, 0.0, 0.0, 0.0, 0.0, 1.742503294526312E9, 0.0, 2025-03-20 15:41:34.526
68.0, -14215.57536310856, -31977.791425918513, -35944.71197661304, -9178.408584405015, -15707.978988644958, -9931.528262082133, -22290.925358644174, -29237.668721397964, -3311.835624198392, -13498.397290515577, -11611.15009917618, -5470.276531014029, -21843.443434648925, -14745.691686355078, -187500.02235174447, -32692.399047899136, 0.05, 0.976, -0.058, 192.0, 0.5, 72.0, 15.0, 64.0, 127.0, 24.0, 0.0, 0.0, 0.0, 1.742503294526472E9, 0.0, 2025-03-20 15:41:34.526
70.0, -14206.0535199706, -31974.28220203903, -35947.461241181045, -9175.547561114736, -15710.2588665794, -9935.573927828542, -22286.74558243103, -29240.753262132795, -3314.6072405108503, -13499.984264371904, -11618.906154502172, -5475.439783983205, -21853.457016164903, -14754.744142859478, -187500.02235174447, -32707.218254473002, 0.05, 0.976, -0.058, 192.0, 0.0, 0.0, 0.0, 0.0, 0.0, 0.0, 0.0, 0.0, 0.0, 1.742503294526655E9, 0.0, 2025-03-20 15:41:34.526
72.0, -14211.216772939775, -31972.114082826865, -35932.41851716262, -9166.159828443508, -15704.447413021018, -9932.958773727272, -22277.737829415542, -29229.82325909415, -3316.1495108782665, -13485.746203153874, -11613.63114281072, -5468.466039713149, -21843.912821282487, -14743.143587487173, -187500.02235174447, -32707.397068428647, 0.05, 0.976, -0.058, 192.0, 0.0, 0.0, 0.0, 0.0, 0.0, 0.0, 0.0, 0.0, 0.0, 1.742503294526812E9, 0.0, 2025-03-20 15:41:34.526
74.0, -14193.156563419887, -31972.13643457132, -35938.27467420992, -9171.77011630179, -15705.900276410614, -9934.545747583597, -22286.90204464222, -29230.426756194447, -3295.205926323644, -13488.227246788412, -11600.689482771097, -5461.1123157873535, -21836.38028340105, -14740.01434326343, -187500.02235174447, -32704.33487943827, 0.05, 0.976, -0.058, 192.0, 0.0, 0.0, 0.0, 0.0, 0.0, 0.0, 0.0, 0.0, 0.0, 1.742503294526965E9, 0.0, 2025-03-20 15:41:34.526
76.0, -14223.733749834748, -31980.116007341865, -35936.285368953395, -9167.52328485528, -15711.756433457904, -9928.957811469772, -22284.510407985497, -29234.40536670749, -3317.915298690236, -13496.318578281234, -11613.519384088444, -5472.84698162639, -21847.287934695236, -14745.758741588443, -187500.02235174447, -32706.99473702845, 0.05, 0.976, -0.058, 192.0, 0.0, 0.0, 0.0, 0.0, 0.0, 0.0, 0.0, 0.0, 0.0, 1.74250329458624E9, 0.0, 2025-03-20 15:41:34.586
78.0, -14185.914598216368, -31967.979010102634, -35935.39129917518, -9169.378479645071, -15712.11406136919, -9936.892680751405, -22301.005995393516, -29243.79309937872, -3294.4683187566184, -13497.659682948552, -11605.718625273541, -5467.683728657214, -21844.94100152743, -14736.303953683848, -187500.02235174447, -32700.84800730324, 0.054, 0.982, -0.05, 192.0, 0.5, 88.0, 15.0, 88.0, 127.0, 56.0, 0.0, 0.0, 0.0, 1.742503294586434E9, 0.0, 2025-03-20 15:41:34.586
80.0, -14236.898927318924, -31983.91580389927, -35937.87234280972, -9168.506761611314, -15717.143203871634, -9932.690552793807, -22286.924396386672, -29235.99234056382, -3312.2826590874984, -13489.47894447791, -11615.463985856055, -5470.8576763698675, -21852.22767021986, -14744.641154365678, -187500.02235174447, -32702.792609070853, 0.054, 0.982, -0.05, 192.0, 0.0, 0.0, 0.0, 0.0, 0.0, 0.0, 0.0, 0.0, 0.0, 1.742503294586606E9, 0.0, 2025-03-20 15:41:34.586
82.0, -14182.986519692722, -31963.106329811377, -35941.73919460049, -9175.234636692363, -15699.530029240852, -9929.762474270163, -22286.477361497567, -29238.048701053704, -3307.834661940892, -13490.820049145228, -11612.602962565776, -5470.254179269574, -21855.736894099344, -14736.974506017508, -187500.02235174447, -32702.70320209303, 0.054, 0.982, -0.05, 192.0, 0.0, 0.0, 0.0, 0.0, 0.0, 0.0, 0.0, 0.0, 0.0, 1.742503294586784E9, 0.0, 2025-03-20 15:41:34.586
84.0, -14232.406226683406, -31980.495986997605, -35940.15222074416, -9169.110258711607, -15715.913857926591, -9921.604087543976, -22279.74948641652, -29234.025387051748, -3313.087321887889, -13491.781174156808, -11618.570878335344, -5473.718699660147, -21855.64748712152, -14744.574099132313, -187500.02235174447, -32699.32808868028, 0.054, 0.982, -0.05, 192.0, 0.0, 0.0, 0.0, 0.0, 0.0, 0.0, 0.0, 0.0, 0.0, 1.742503294586947E9, 0.0, 2025-03-20 15:41:34.586
86.0, -14183.813534237568, -31967.822547891446, -35938.87817131021, -9176.307520426217, -15703.173363587066, -9940.245442419702, -22290.143047588237, -29245.737701146332, -3307.834661940892, -13496.184467814503, -11615.86631725625, -5470.500048458583, -21858.977897045363, -14740.39432291917, -187500.02235174447, -32706.301832950336, 0.054, 0.982, -0.05, 192.0, 0.0, 0.0, 0.0, 0.0, 0.0, 0.0, 0.0, 0.0, 0.0, 1.742503294587105E9, 0.0, 2025-03-20 15:41:34.587
88.0, -14244.72203787828, -31993.974088904157, -35939.34755794377, -9172.395965146537, -15718.417253305586, -9936.043314462104, -22290.45597201061, -29246.989398835827, -3322.206833625655, -13511.830688933218, -11625.768140049951, -5480.55833346347, -21867.873891338575, -14753.984183547997, -187500.02235174447, -32709.364021940713, 0.046, 0.982, -0.05, 192.0, 0.5, 56.0, 15.0, 88.0, 127.0, 56.0, 0.0, 0.0, 0.0, 1.742503294587284E9, 0.0, 2025-03-20 15:41:34.587
90.0, -14181.220731880752, -31968.537803714014, -35937.42530792062, -9166.33864239915, -15697.58542747324, -9928.86840449195, -22286.924396386672, -29243.904858100996, -3306.0465223844676, -13490.216552044934, -11611.507727087466, -5464.979167578122, -21852.004152775306, -14739.030866507395, -187500.02235174447, -32705.117190494206, 0.046, 0.982, -0.05, 192.0, 0.0, 0.0, 0.0, 0.0, 0.0, 0.0, 0.0, 0.0, 0.0, 1.742503294587453E9, 0.0, 2025-03-20 15:41:34.587
92.0, -14261.262328775209, -32011.29669085702, -35959.978218076016, -9188.82449732119, -15726.665047009594, -9944.469922121754, -22299.687242470653, -29249.962180848383, -3334.6344035428056, -13507.874430164627, -11634.530023876432, -5484.156964320775, -21865.057571537207, -14759.259195239449, -187500.02235174447, -32713.38733594267, 0.046, 0.982, -0.05, 192.0, 0.0, 0.0, 0.0, 0.0, 0.0, 0.0, 0.0, 0.0, 0.0, 1.74250329464655E9, 0.0, 2025-03-20 15:41:34.646
94.0, -14190.541409318615, -31974.03633285002, -35940.263979466436, -9172.95475875792, -15700.602912974706, -9934.63515456142, -22281.291756783936, -29244.64246566802, -3310.092188130878, -13504.253447562867, -11622.594192337297, -5478.2561037845735, -21864.498777925823, -14756.688744627088, -187500.02235174447, -32709.676946363088, 0.046, 0.982, -0.05, 192.0, 0.0, 0.0, 0.0, 0.0, 0.0, 0.0, 0.0, 0.0, 0.0, 1.742503294646734E9, 0.0, 2025-03-20 15:41:34.646
96.0, -14249.929994336368, -31994.644641237814, -35941.96271204504, -9168.618520333592, -15721.144166129134, -9931.327096382034, -22284.331594029856, -29241.93790458893, -3319.971659180124, -13501.414776017044, -11626.148119705693, -5476.736185161613, -21863.314135469693, -14750.452607924059, -187500.02235174447, -32709.05109751834, 0.045, 0.985, -0.054000000000000006, 192.0, 0.5, 48.0, 15.0, 112.0, 127.0, 24.0, 0.0, 0.0, 0.0, 1.742503294646893E9, 0.0, 2025-03-20 15:41:34.646
98.0, -14187.009833694678, -31967.397864746796, -35931.792668317874, -9164.796372031733, -15693.897389638114, -9928.309610880568, -22277.3578497598, -29236.64054115302, -3306.7394264625823, -13490.596531700676, -11617.363884134757, -5465.895589100789, -21862.308306969204, -14742.942421787075, -187500.02235174447, -32704.55839688282, 0.045, 0.985, -0.054000000000000006, 192.0, 0.0, 0.0, 0.0, 0.0, 0.0, 0.0, 0.0, 0.0, 0.0, 1.742503294647052E9, 0.0, 2025-03-20 15:41:34.647
100.0, -14245.459645445306, -31996.589243005426, -35935.726575342014, -9165.086944709652, -15715.332712570753, -9935.35041038399, -22283.37046901828, -29238.518087687266, -3308.7287317191044, -13499.693691693985, -11616.872145756739, -5468.242522268596, -21869.70673438391, -14741.53426188639, -187500.02235174447, -32703.75373408243, 0.045, 0.985, -0.054000000000000006, 192.0, 0.0, 0.0, 0.0, 0.0, 0.0, 0.0, 0.0, 0.0, 0.0, 1.742503294647202E9, 0.0, 2025-03-20 15:41:34.647
102.0, -14194.274150642652, -31976.182100317732, -35936.285368953395, -9163.745840042335, -15704.58152348775, -9934.769265028151, -22293.562864489897, -29245.000093579307, -3316.7977114674704, -13498.933732382506, -11621.364846392256, -5470.343586247395, -21864.834054092655, -14746.295183455371, -187500.02235174447, -32699.775123569387, 0.045, 0.985, -0.054000000000000006, 192.0, 0.0, 0.0, 0.0, 0.0, 0.0, 0.0, 0.0, 0.0, 0.0, 1.742503294647371E9, 0.0, 2025-03-20 15:41:34.647
104.0, -14239.357619209006, -31993.929385415246, -35942.14152600068, -9164.394040631538, -15707.219029333477, -9932.020000460148, -22281.805846906405, -29238.093404542615, -3310.3380573198865, -13498.598456215675, -11618.168546935147, -5467.348452490384, -21865.594013404134, -14745.892852055176, -187500.02235174447, -32699.104571235726, 0.045, 0.985, -0.054000000000000006, 192.0, 0.0, 0.0, 0.0, 0.0, 0.0, 0.0, 0.0, 0.0, 0.0, 1.742503294647547E9, 0.0, 2025-03-20 15:41:34.647
106.0, -14199.727976289747, -31971.75645491558, -35936.24066546448, -9164.95283424292, -15700.647616463617, -9931.77413127114, -22286.991451620037, -29244.731872645843, -3323.167958637233, -13501.14655508358, -11625.075235971837, -5470.3882897363055, -21855.200452232417, -14748.262136967438, -187500.02235174447, -32696.37765841218, 0.0445, 0.9864999999999999, -0.057, 192.0, 0.5, 48.0, 15.0, 112.0, 127.0, 16.0, 0.0, 0.0, 0.0, 1.742503294706847E9, 0.0, 2025-03-20 15:41:34.706
108.0, -14232.38387493895, -31984.362838788373, -35927.52348512691, -9168.126781955574, -15705.050910121312, -9930.053046948082, -22283.772800418476, -29242.206125522393, -3311.5003480315627, -13497.436165504, -11617.073311456837, -5467.8625426128565, -21864.878757581566, -14746.675163111111, -187500.02235174447, -32703.016126515406, 0.0445, 0.9864999999999999, -0.057, 192.0, 0.0, 0.0, 0.0, 0.0, 0.0, 0.0, 0.0, 0.0, 0.0, 1.742503294707065E9, 0.0, 2025-03-20 15:41:34.707
110.0, -14203.460717613783, -31975.243327050608, -35926.65176709316, -9165.757497043312, -15698.881828651647, -9929.114273680958, -22282.901082384717, -29234.36066321858, -3315.098978888867, -13500.453651005466, -11617.453291112577, -5467.639025168303, -21862.643583136032, -14745.714038099533, -187500.02235174447, -32694.120132222193, 0.0445, 0.9864999999999999, -0.057, 192.0, 0.0, 0.0, 0.0, 0.0, 0.0, 0.0, 0.0, 0.0, 0.0, 1.742503294707242E9, 0.0, 2025-03-20 15:41:34.707
112.0, -14229.165223737387, -31987.514434756573, -35934.27371195242, -9172.731241313368, -15708.515430511885, -9926.834395746517, -22283.97396611857, -29242.07201505566, -3306.582964251395, -13498.4866974934, -11618.995561479995, -5470.32123450294, -21866.778655860264, -14746.675163111111, -187500.02235174447, -32694.343649666745, 0.0445, 0.9864999999999999, -0.057, 192.0, 0.0, 0.0, 0.0, 0.0, 0.0, 0.0, 0.0, 0.0, 0.0, 1.742503294707405E9, 0.0, 2025-03-20 15:41:34.707
114.0, -14206.18763043733, -31973.119911327354, -35923.34370891377, -9166.651566821523, -15705.475593265963, -9915.837337474506, -22276.64259393723, -29228.3480439601, -3314.22726085511, -13489.81422064474, -11614.72637828903, -5465.917940845245, -21851.646524864023, -14742.696552598067, -187500.02235174447, -32688.442789130546, 0.0445, 0.9864999999999999, -0.057, 192.0, 0.0, 0.0, 0.0, 0.0, 0.0, 0.0, 0.0, 0.0, 0.0, 1.742503294707567E9, 0.0, 2025-03-20 15:41:34.707
116.0, -14213.586057852037, -31980.56304223097, -35932.239703206986, -9172.060688979709, -15709.610665990194, -9935.417465617355, -22283.37046901828, -29239.859192354586, -3307.1417578627775, -13502.130031839613, -11613.117052688249, -5469.091888557898, -21857.592088889134, -14750.944346302074, -187500.02235174447, -32703.99960327144, 0.042249999999999996, 0.98425, -0.058499999999999996, 192.0, 0.5, 32.0, 15.0, 88.0, 127.0, 16.0, 0.0, 0.0, 0.0, 1.742503294707729E9, 0.0, 2025-03-20 15:41:34.707
118.0, -14206.679368815348, -31969.498928725596, -35921.68967982408, -9157.308537639206, -15713.991607903436, -9923.660448033865, -22287.147913831224, -29234.78534636323, -3310.740388720082, -13488.540171210787, -11613.809956766363, -5462.922807088234, -21860.117836012585, -14745.758741588443, -187500.02235174447, -32701.29504219235, 0.042249999999999996, 0.98425, -0.058499999999999996, 192.0, 0.0, 0.0, 0.0, 0.0, 0.0, 0.0, 0.0, 0.0, 0.0, 1.742503294707885E9, 0.0, 2025-03-20 15:41:34.707
120.0, -14198.14100243342, -31972.114082826865, -35923.433115891596, -9164.930482498465, -15706.034386877345, -9927.281430635623, -22279.302451527412, -29239.92624758795, -3296.3011618019536, -13492.00469160136, -11603.729320017019, -5457.468981441139, -21855.021638276772, -14737.846224051265, -187500.02235174447, -32698.925757280085, 0.042249999999999996, 0.98425, -0.058499999999999996, 192.0, 0.0, 0.0, 0.0, 0.0, 0.0, 0.0, 0.0, 0.0, 0.0, 1.742503294708039E9, 0.0, 2025-03-20 15:41:34.708
122.0, -14218.659903843392, -31973.388132260818, -35917.91223501113, -9157.397944617027, -15708.314264811786, -9930.522433581644, -22277.559015459898, -29238.49573594281, -3313.780225966004, -13493.256389290857, -11617.274477156936, -5464.8897606003, -21865.52695817077, -14743.098883998262, -187500.02235174447, -32699.462199147012, 0.042249999999999996, 0.98425, -0.058499999999999996, 192.0, 0.0, 0.0, 0.0, 0.0, 0.0, 0.0, 0.0, 0.0, 0.0, 1.74250329476616E9, 0.0, 2025-03-20 15:41:34.766
124.0, -14189.669691284858, -31964.00039958959, -35915.74411579897, -9145.797389244723, -15700.1558780856, -9917.4913665642, -22274.876806125263, -29227.83395383763, -3306.7394264625823, -13484.852133375662, -11610.457195098066, -5451.568120904937, -21853.81464407619, -14733.264116437927, -187500.02235174447, -32691.303812420825, 0.042249999999999996, 0.98425, -0.058499999999999996, 192.0, 0.0, 0.0, 0.0, 0.0, 0.0, 0.0, 0.0, 0.0, 0.0, 1.742503294766359E9, 0.0, 2025-03-20 15:41:34.766
126.0, -14229.366389437484, -31981.52416724255, -35915.453543121046, -9148.367839857083, -15701.117003097179, -9918.273677620135, -22272.842797379828, -29234.07009054066, -3307.32057181842, -13486.640272932085, -11609.25020089748, -5456.776077363023, -21850.640696363535, -14740.327267685803, -187500.02235174447, -32678.5633180813, 0.042124999999999996, 0.9841249999999999, -0.06125, 192.0, 0.5, 40.0, 15.0, 96.0, 127.0, 0.0, 0.0, 0.0, 0.0, 1.742503294766535E9, 0.0, 2025-03-20 15:41:34.766
128.0, -14196.419918110361, -31972.963449116167, -35922.80726704685, -9158.694345795435, -15693.875037893658, -9927.214375402258, -22274.56388170289, -29234.427718451945, -3305.4430252841744, -13497.48086899291, -11611.418320109644, -5460.777039620524, -21849.90308879651, -14738.650886851656, -187500.02235174447, -32684.978268739975, 0.042124999999999996, 0.9841249999999999, -0.06125, 192.0, 0.0, 0.0, 0.0, 0.0, 0.0, 0.0, 0.0, 0.0, 0.0, 1.742503294766703E9, 0.0, 2025-03-20 15:41:34.766
130.0, -14240.095226776031, -31986.799178934, -35921.19794144606, -9156.52622658327, -15703.218067075977, -9916.932572952815, -22271.859320623797, -29233.958331818383, -3315.613069011339, -13500.72187193893, -11619.956686491572, -5470.723565903136, -21855.066341765683, -14749.44677942357, -187500.02235174447, -32691.549681609835, 0.042124999999999996, 0.9841249999999999, -0.06125, 192.0, 0.0, 0.0, 0.0, 0.0, 0.0, 0.0, 0.0, 0.0, 0.0, 1.742503294766868E9, 0.0, 2025-03-20 15:41:34.766
132.0, -14199.102127445, -31973.097559582897, -35929.557493872344, -9162.225921419373, -15704.849744421213, -9935.417465617355, -22292.93701564515, -29253.918439616973, -3319.3681620798307, -13496.966778870437, -11624.784663293918, -5466.856714112368, -21874.244138508337, -14747.658639867144, -187500.02235174447, -32698.925757280085, 0.042124999999999996, 0.9841249999999999, -0.06125, 192.0, 0.0, 0.0, 0.0, 0.0, 0.0, 0.0, 0.0, 0.0, 0.0, 1.742503294767036E9, 0.0, 2025-03-20 15:41:34.767
134.0, -14248.097151291031, -31992.38711504783, -35929.40103166116, -9158.403773117516, -15722.440567307542, -9924.420407345344, -22287.93022488716, -29248.26344826978, -3317.2447463565763, -13503.046453362282, -11621.186032436613, -5465.426202467228, -21856.630963877556, -14747.703343356055, -187500.02235174447, -32699.149274724638, 0.042124999999999996, 0.9841249999999999, -0.06125, 192.0, 0.0, 0.0, 0.0, 0.0, 0.0, 0.0, 0.0, 0.0, 0.0, 1.742503294767193E9, 0.0, 2025-03-20 15:41:34.767
136.0, -14180.684290013825, -31963.061626322466, -35914.85004602075, -9149.105447424108, -15686.744831412416, -9917.401959586377, -22272.529872957453, -29241.669683655466, -3315.747179478071, -13498.397290515577, -11617.341532390301, -5459.07830704192, -21854.574603387668, -14738.405017662648, -187500.02235174447, -32697.204672957025, 0.0440625, 0.9810625, -0.062625, 192.0, 0.5, 56.0, 15.0, 72.0, 127.0, 0.0, 0.0, 0.0, 0.0, 1.742503294825949E9, 0.0, 2025-03-20 15:41:34.825
138.0, -14245.77256986768, -31993.303536570496, -35931.949130529065, -9165.310462154206, -15713.790442203337, -9928.913107980861, -22280.531797472453, -29250.275105270757, -3312.3720660653194, -13484.650967675563, -11616.514517845455, -5458.31834773044, -21859.89431856803, -14736.885099039686, -187500.02235174447, -32692.354344410225, 0.0440625, 0.9810625, -0.062625, 192.0, 0.0, 0.0, 0.0, 0.0, 0.0, 0.0, 0.0, 0.0, 0.0, 1.742503294826149E9, 0.0, 2025-03-20 15:41:34.826
140.0, -14188.485048828728, -31971.689399682215, -35928.35049967176, -9166.696270310435, -15701.228761819455, -9926.72263702424, -22290.634785966253, -29242.183773777935, -3309.9133741752357, -13501.414776017044, -11626.05871272787, -5468.935426346711, -21861.078961024163, -14751.547843402368, -187500.02235174447, -32701.116228236704, 0.0440625, 0.9810625, -0.062625, 192.0, 0.0, 0.0, 0.0, 0.0, 0.0, 0.0, 0.0, 0.0, 0.0, 1.742503294826299E9, 0.0, 2025-03-20 15:41:34.826
142.0, -14255.495578705739, -31998.24327209512, -35929.579845616805, -9165.556331343214, -15715.220953848477, -9934.389285372412, -22278.45308523811, -29244.508355201287, -3318.8540719573584, -13512.791813944796, -11629.500881373988, -5473.763403149057, -21868.097408783127, -14762.16492201864, -187500.02235174447, -32698.590481113257, 0.0440625, 0.9810625, -0.062625, 192.0, 0.0, 0.0, 0.0, 0.0, 0.0, 0.0, 0.0, 0.0, 0.0, 1.742503294826458E9, 0.0, 2025-03-20 15:41:34.826
144.0, -14190.541409318615, -31970.102425825888, -35921.24264493497, -9161.130685941063, -15695.305549538798, -9927.035561446615, -22283.661041696196, -29246.363549991078, -3306.9852956515906, -13500.855982405661, -11617.341532390301, -5463.03456581051, -21858.530862156258, -14747.993916033975, -187500.02235174447, -32699.86453054721, 0.0440625, 0.9810625, -0.062625, 192.0, 0.0, 0.0, 0.0, 0.0, 0.0, 0.0, 0.0, 0.0, 0.0, 1.742503294826615E9, 0.0, 2025-03-20 15:41:34.826
146.0, -14257.529587451172, -31998.377382561852, -35926.87528453771, -9165.846904021133, -15710.951770657513, -9922.833433489017, -22286.74558243103, -29250.07393957066, -3314.5401852774844, -13508.165002842547, -11621.901288259183, -5469.762440891557, -21864.252908736817, -14754.453570181558, -187500.02235174447, -32697.629356101676, 0.04803125, 0.98153125, -0.060312500000000005, 192.0, 0.5, 80.0, 15.0, 88.0, 127.0, 24.0, 0.0, 0.0, 0.0, 1.742503294826776E9, 0.0, 2025-03-20 15:41:34.826
148.0, -14199.52681058965, -31974.48336773913, -35928.19403746057, -9165.95866274341, -15706.190849088533, -9928.801349258585, -22290.03128886596, -29253.27023902777, -3316.641249256283, -13507.382691786612, -11622.750654548485, -5469.1589437912635, -21854.976934787865, -14755.772323104422, -187500.02235174447, -32696.80234155683, 0.04803125, 0.98153125, -0.060312500000000005, 192.0, 0.0, 0.0, 0.0, 0.0, 0.0, 0.0, 0.0, 0.0, 0.0, 1.742503294826959E9, 0.0, 2025-03-20 15:41:34.826
150.0, -14254.445046716339, -31998.53384477304, -35934.69839509707, -9175.10052622563, -15713.857497436704, -9933.383456871923, -22293.920492401183, -29254.097253572614, -3312.6402869987833, -13507.96383714245, -11625.209346438569, -5469.9412548472, -21856.27333596627, -14756.554634160357, -187500.02235174447, -32702.680850348577, 0.04803125, 0.98153125, -0.060312500000000005, 192.0, 0.0, 0.0, 0.0, 0.0, 0.0, 0.0, 0.0, 0.0, 0.0, 1.742503294827118E9, 0.0, 2025-03-20 15:41:34.827
152.0, -14201.225543168253, -31972.13643457132, -35920.63914783468, -9166.763325543801, -15693.942093127025, -9914.697398507285, -22275.54735845892, -29244.77657613475, -3316.350676578364, -13503.29232255129, -11627.556279606377, -5470.768269392046, -21858.642620878534, -14757.672221383122, -187500.02235174447, -32702.122056737193, 0.04803125, 0.98153125, -0.060312500000000005, 192.0, 0.0, 0.0, 0.0, 0.0, 0.0, 0.0, 0.0, 0.0, 0.0, 1.742503294886214E9, 0.0, 2025-03-20 15:41:34.886
154.0, -14259.20596828532, -32006.871045454867, -35940.64395912218, -9178.028604749275, -15707.599008989217, -9930.72359928174, -22287.17026557568, -29247.21291628038, -3321.871557458825, -13501.727700439418, -11629.724398818542, -5468.533094946515, -21860.631926135055, -14757.53811091639, -187500.02235174447, -32695.058905489317, 0.04803125, 0.98153125, -0.060312500000000005, 192.0, 0.0, 0.0, 0.0, 0.0, 0.0, 0.0, 0.0, 0.0, 0.0, 1.742503294886416E9, 0.0, 2025-03-20 15:41:34.886
156.0, -14217.38585440944, -31989.05670512399, -35927.27761593791, -9173.871180280588, -15703.933322898547, -9929.181328914325, -22289.852474910316, -29250.07393957066, -3326.028981927512, -13511.406005788567, -11633.323029675847, -5476.55737120597, -21865.50460642631, -14762.67901214111, -187500.02235174447, -32700.579786369777, 0.048015625, 0.982765625, -0.05815625000000001, 192.0, 0.5, 64.0, 15.0, 96.0, 127.0, 32.0, 0.0, 0.0, 0.0, 1.742503294886591E9, 0.0, 2025-03-20 15:41:34.886
158.0, -14249.885290847456, -32000.74666747411, -35930.65272935066, -9168.171485444485, -15710.01299739039, -9918.273677620135, -22280.64355619473, -29243.033140067237, -3314.2719643440205, -13514.311732567756, -11627.4445208841, -5472.17642929273, -21862.017734291287, -14756.040544037885, -187500.02235174447, -32703.485513148968, 0.048015625, 0.982765625, -0.05815625000000001, 192.0, 0.0, 0.0, 0.0, 0.0, 0.0, 0.0, 0.0, 0.0, 0.0, 1.742503294886758E9, 0.0, 2025-03-20 15:41:34.886
160.0, -14218.48108988775, -31983.66993471026, -35932.55262762936, -9168.05972672221, -15705.699110710517, -9919.525375309631, -22285.06920159688, -29249.023407581262, -3316.5965457673724, -13505.795717930285, -11627.086892972815, -5469.98595833611, -21860.877795324064, -14746.272831710916, -187500.02235174447, -32695.50594037842, 0.048015625, 0.982765625, -0.05815625000000001, 192.0, 0.0, 0.0, 0.0, 0.0, 0.0, 0.0, 0.0, 0.0, 0.0, 1.742503294886918E9, 0.0, 2025-03-20 15:41:34.886
162.0, -14244.587927411549, -32002.937138430734, -35949.003511548464, -9190.67969211098, -15715.444471293029, -9940.82658777554, -22299.240207581548, -29260.84748039812, -3311.098016631367, -13508.947313898483, -11626.30458191688, -5471.058842069965, -21872.18777801845, -14751.905471313654, -187500.02235174447, -32707.441771917558, 0.048015625, 0.982765625, -0.05815625000000001, 192.0, 0.0, 0.0, 0.0, 0.0, 0.0, 0.0, 0.0, 0.0, 0.0, 1.742503294887066E9, 0.0, 2025-03-20 15:41:34.887
164.0, -14239.91641282039, -31999.606728506893, -35949.986988304496, -9190.411471177516, -15716.874982938169, -9933.070532449548, -22295.2615970685, -29254.32077101717, -3334.813217498448, -13525.018218161847, -11645.929413548638, -5490.013121368065, -21874.445304208435, -14777.900550115175, -187500.02235174447, -32728.34065298327, 0.048015625, 0.982765625, -0.05815625000000001, 192.0, 0.0, 0.0, 0.0, 0.0, 0.0, 0.0, 0.0, 0.0, 0.0, 1.742503294887216E9, 0.0, 2025-03-20 15:41:34.887
166.0, -14234.551994151116, -31997.505664528093, -35940.44279342208, -9185.53879088626, -15714.215125347988, -9934.746913283696, -22286.767934175485, -29256.086558829138, -3319.256403357554, -13517.373921558134, -11636.072294243848, -5479.999539852088, -21868.969126816886, -14774.950119847075, -187500.02235174447, -32721.255149990935, 0.046007812499999995, 0.9853828124999999, -0.05807812500000001, 192.0, 0.5, 48.0, 15.0, 112.0, 127.0, 24.0, 0.0, 0.0, 0.0, 1.7425032949465E9, 0.0, 2025-03-20 15:41:34.946
168.0, -14235.66958137388, -31991.42599003625, -35928.28344443839, -9173.424145391482, -15709.275389823366, -9929.58366031452, -22285.806809163907, -29250.83389888214, -3325.291374360487, -13511.920095911039, -11634.552375620888, -5475.506839216571, -21863.51530116979, -14763.72954413051, -187500.02235174447, -32709.699298107542, 0.046007812499999995, 0.9853828124999999, -0.05807812500000001, 192.0, 0.0, 0.0, 0.0, 0.0, 0.0, 0.0, 0.0, 0.0, 0.0, 1.742503294946736E9, 0.0, 2025-03-20 15:41:34.946
170.0, -14231.646267371925, -31997.080981383442, -35945.80721209136, -9182.476601895882, -15713.097538125223, -9932.847015004994, -22292.110001100304, -29257.002980351805, -3307.1417578627775, -13515.496375023888, -11626.841023783807, -5470.634158925314, -21861.816568591188, -14760.868520840231, -187500.02235174447, -32704.42428641609, 0.046007812499999995, 0.9853828124999999, -0.05807812500000001, 192.0, 0.0, 0.0, 0.0, 0.0, 0.0, 0.0, 0.0, 0.0, 0.0, 1.742503294946906E9, 0.0, 2025-03-20 15:41:34.946
172.0, -14246.979564068266, -31993.169426103763, -35934.65369160815, -9166.38334588806, -15712.672854980572, -9919.480671820722, -22283.41517250719, -29246.07297731316, -3332.0416011859897, -13514.937581412505, -11641.034381512927, -5475.0821560719205, -21869.729086128365, -14767.886968599198, -187500.02235174447, -32704.647803860644, 0.046007812499999995, 0.9853828124999999, -0.05807812500000001, 192.0, 0.0, 0.0, 0.0, 0.0, 0.0, 0.0, 0.0, 0.0, 0.0, 1.742503294947063E9, 0.0, 2025-03-20 15:41:34.947
174.0, -14232.450930172317, -31999.56202501798, -35948.668235381636, -9181.493125139848, -15712.516392769385, -9937.898509251894, -22292.60173947832, -29266.256602556303, -3325.8948714607805, -13512.501241266877, -11635.312334932369, -5467.370804234839, -21874.17708327497, -14756.152302760162, -187500.02235174447, -32693.80720779982, 0.046007812499999995, 0.9853828124999999, -0.05807812500000001, 192.0, 0.0, 0.0, 0.0, 0.0, 0.0, 0.0, 0.0, 0.0, 0.0, 1.742503294947247E9, 0.0, 2025-03-20 15:41:34.947
176.0, -14253.841549616045, -31994.71169647118, -35933.51375264094, -9160.616595818592, -15713.0081311474, -9914.652695018374, -22279.414210249688, -29238.428680709447, -3340.04352570099, -13519.810261703762, -11644.208329225581, -5478.032586340021, -21866.286917482248, -14764.891834842187, -187500.02235174447, -32700.80330381433, 0.045003906249999996, 0.98269140625, -0.060039062500000004, 192.0, 0.5, 48.0, 15.0, 80.0, 127.0, 8.0, 0.0, 0.0, 0.0, 1.742503294947409E9, 0.0, 2025-03-20 15:41:34.947
178.0, -14211.283828173142, -31983.46876901016, -35934.72074684152, -9168.015023233298, -15700.669968208073, -9923.01224744466, -22283.12459982927, -29244.59776217911, -3310.807443953448, -13494.262217791345, -11621.320142903345, -5455.770248862535, -21861.771865102277, -14742.026000264408, -187500.02235174447, -32689.739190308952, 0.045003906249999996, 0.98269140625, -0.060039062500000004, 192.0, 0.0, 0.0, 0.0, 0.0, 0.0, 0.0, 0.0, 0.0, 0.0, 1.742503294947588E9, 0.0, 2025-03-20 15:41:34.947
180.0, -14263.676317176381, -32005.03820240953, -35936.48653465349, -9171.300729668228, -15718.417253305586, -9923.928668967328, -22287.952576631615, -29249.157518047992, -3329.5382058069954, -13512.255372077869, -11641.079085001837, -5473.428126982228, -21866.599841904623, -14763.438971452591, -187500.02235174447, -32707.464123662012, 0.045003906249999996, 0.98269140625, -0.060039062500000004, 192.0, 0.0, 0.0, 0.0, 0.0, 0.0, 0.0, 0.0, 0.0, 0.0, 1.742503294947742E9, 0.0, 2025-03-20 15:41:34.947
182.0, -14210.076833972555, -31986.039219622522, -35931.21152296204, -9173.804125047222, -15701.92166589757, -9922.699323022285, -22284.577463218866, -29251.817375638173, -3314.1825573661995, -13510.53428775481, -11628.20448019558, -5465.493257700594, -21867.963298316397, -14760.667355140133, -187500.02235174447, -32708.581710884777, 0.045003906249999996, 0.98269140625, -0.060039062500000004, 192.0, 0.0, 0.0, 0.0, 0.0, 0.0, 0.0, 0.0, 0.0, 0.0, 1.742503295006905E9, 0.0, 2025-03-20 15:41:35.006
184.0, -14265.173884054886, -32004.9040919428, -35935.54776138637, -9173.9158837695, -15716.517355026885, -9926.38736085741, -22285.739753930542, -29248.5540209477, -3327.4371418281967, -13514.155270356569, -11637.145177977703, -5471.438821725706, -21869.23734775035, -14764.869483097731, -187500.02235174447, -32709.408725429625, 0.045003906249999996, 0.98269140625, -0.060039062500000004, 192.0, 0.0, 0.0, 0.0, 0.0, 0.0, 0.0, 0.0, 0.0, 0.0, 1.742503295007099E9, 0.0, 2025-03-20 15:41:35.007
186.0, -14201.940798990823, -31979.244289308106, -35931.6809095956, -9172.932407013466, -15693.025671604357, -9924.331000367523, -22283.728096929564, -29250.699788415408, -3318.0494091569676, -13513.440014533999, -11633.479491887032, -5466.499086201083, -21868.633850650054, -14757.135779516195, -187500.02235174447, -32706.637109117164, 0.041501953125, 0.9813457031249999, -0.06201953125, 192.0, 0.5, 24.0, 15.0, 80.0, 127.0, 0.0, 0.0, 0.0, 0.0, 1.742503295007243E9, 0.0, 2025-03-20 15:41:35.007
188.0, -14267.9678521118, -32008.726240244658, -35937.09003175378, -9174.00529074732, -15717.165555616088, -9923.615744544953, -22286.209140564104, -29252.622038438567, -3322.0280196700123, -13505.259276063356, -11634.977058765538, -5465.783830378513, -21866.7116006269, -14761.270852240426, -187500.02235174447, -32702.61379511521, 0.041501953125, 0.9813457031249999, -0.06201953125, 192.0, 0.0, 0.0, 0.0, 0.0, 0.0, 0.0, 0.0, 0.0, 0.0, 1.742503295007417E9, 0.0, 2025-03-20 15:41:35.007
190.0, -14209.33922640553, -31985.636888222325, -35935.659520108646, -9173.20062794693, -15701.206410075, -9929.024866703137, -22286.209140564104, -29248.64342792552, -3330.901662218769, -13509.215534831947, -11637.905137289184, -5466.744955390091, -21864.990516303842, -14758.58864290579, -187500.02235174447, -32699.506902635923, 0.041501953125, 0.9813457031249999, -0.06201953125, 192.0, 0.0, 0.0, 0.0, 0.0, 0.0, 0.0, 0.0, 0.0, 0.0, 1.742503295007594E9, 0.0, 2025-03-20 15:41:35.007
192.0, -14263.475151476283, -31999.94200467372, -35922.24847343546, -9166.942139499442, -15713.678683481061, -9915.680875263319, -22276.79905614842, -29239.41215746548, -3321.1786533807103, -13506.779194686318, -11638.195709967102, -5469.315406002451, -21866.95746981591, -14759.572119661823, -187500.02235174447, -32706.14537073915, 0.041501953125, 0.9813457031249999, -0.06201953125, 192.0, 0.0, 0.0, 0.0, 0.0, 0.0, 0.0, 0.0, 0.0, 0.0, 1.742503295007754E9, 0.0, 2025-03-20 15:41:35.007
194.0, -14192.28484538613, -31965.721483912646, -35914.53712159838, -9158.068496950686, -15694.63499720514, -9908.036578659605, -22279.436561994145, -29241.669683655466, -3305.621839239817, -13493.77047941333, -11620.068445213848, -5455.367917462339, -21850.908917296998, -14741.355447930748, -187500.02235174447, -32695.349478167234, 0.041501953125, 0.9813457031249999, -0.06201953125, 192.0, 0.0, 0.0, 0.0, 0.0, 0.0, 0.0, 0.0, 0.0, 0.0, 1.742503295007907E9, 0.0, 2025-03-20 15:41:35.007
196.0, -14256.30024150613, -31995.24813833811, -35920.7285548125, -9161.041278963243, -15726.106253398211, -9910.629381016419, -22292.69114645614, -29249.49279421482, -3313.780225966004, -13496.989130614893, -11623.376503393234, -5457.3572227188615, -21864.31996397018, -14750.318497457327, -187500.02235174447, -32693.986021755463, 0.0417509765625, 0.9806728515625, -0.062009765625000005, 192.0, 0.5, 40.0, 15.0, 80.0, 127.0, 8.0, 0.0, 0.0, 0.0, 1.742503295066455E9, 0.0, 2025-03-20 15:41:35.066
198.0, -14197.202229166298, -31965.497966468094, -35908.815075017825, -9151.228863147362, -15700.133526341144, -9908.707130993263, -22283.79515216293, -29248.285800014237, -3310.159243364244, -13489.389537500088, -11618.593230079798, -5447.902434814267, -21860.542519157236, -14745.82579682181, -187500.02235174447, -32691.348515909736, 0.0417509765625, 0.9806728515625, -0.062009765625000005, 192.0, 0.0, 0.0, 0.0, 0.0, 0.0, 0.0, 0.0, 0.0, 0.0, 1.742503295066678E9, 0.0, 2025-03-20 15:41:35.066
200.0, -14251.29345074814, -31992.632984236836, -35913.86656926472, -9151.362973614094, -15712.62815149166, -9916.194965385792, -22280.68825968364, -29241.624980166554, -3313.802577710459, -13500.76657542784, -11622.303619659378, -5452.842170338889, -21863.023562791775, -14749.580889890301, -187500.02235174447, -32689.873300775685, 0.0417509765625, 0.9806728515625, -0.062009765625000005, 192.0, 0.0, 0.0, 0.0, 0.0, 0.0, 0.0, 0.0, 0.0, 0.0, 1.74250329506684E9, 0.0, 2025-03-20 15:41:35.066
202.0, -14206.56761009307, -31975.824472406446, -35914.85004602075, -9150.446552091427, -15700.558209485795, -9922.788730000108, -22277.089628826336, -29239.345102232113, -3315.4789585446074, -13495.402156758566, -11624.87407027174, -5450.450533682172, -21854.59695513212, -14744.797616576865, -187500.02235174447, -32685.022972228882, 0.0417509765625, 0.9806728515625, -0.062009765625000005, 192.0, 0.0, 0.0, 0.0, 0.0, 0.0, 0.0, 0.0, 0.0, 0.0, 1.742503295066998E9, 0.0, 2025-03-20 15:41:35.066
204.0, -14252.321630993085, -31998.824417450956, -35915.386487887685, -9155.319232382684, -15709.185982845544, -9924.889793978906, -22276.486131726044, -29241.580276677643, -3319.2116998686433, -13501.973569628426, -11630.260840685469, -5455.278510484518, -21851.825338819664, -14758.521587672423, -187500.02235174447, -32688.018105985895, 0.0417509765625, 0.9806728515625, -0.062009765625000005, 192.0, 0.0, 0.0, 0.0, 0.0, 0.0, 0.0, 0.0, 0.0, 0.0, 1.74250329506715E9, 0.0, 2025-03-20 15:41:35.067
206.0, -14210.926200261856, -31976.71854218466, -35907.339859883774, -9155.766267271789, -15697.048985606312, -9916.686703763808, -22281.13529457275, -29246.83293662464, -3310.785092208993, -13502.532363239809, -11621.811881281363, -5453.8927023282895, -21860.631926135055, -14751.838416080287, -187500.02235174447, -32687.66047807461, 0.04387548828125, 0.9803364257812499, -0.059004882812500006, 192.0, 0.5, 56.0, 15.0, 80.0, 127.0, 32.0, 0.0, 0.0, 0.0, 1.7425032950673E9, 0.0, 2025-03-20 15:41:35.067
208.0, -14251.24874725923, -31999.249100595607, -35923.94720601406, -9171.43484013496, -15714.975084659469, -9924.822738745539, -22284.353945774314, -29253.113776816583, -3317.7588364790486, -13507.986188886904, -11631.646648841697, -5464.17450477773, -21864.118798270083, -14761.315555729338, -187500.02235174447, -32702.345574181745, 0.04387548828125, 0.9803364257812499, -0.059004882812500006, 192.0, 0.0, 0.0, 0.0, 0.0, 0.0, 0.0, 0.0, 0.0, 0.0, 1.742503295067467E9, 0.0, 2025-03-20 15:41:35.067
210.0, -14214.48012763025, -31975.109216583875, -35907.406915117135, -9152.882892237056, -15700.289988552331, -9908.260096104157, -22272.373410746266, -29236.662892897475, -3321.4692260586294, -13499.269008549334, -11629.59028835181, -5459.324176230929, -21855.66983886598, -14755.772323104422, -187500.02235174447, -32693.628393844177, 0.04387548828125, 0.9803364257812499, -0.059004882812500006, 192.0, 0.0, 0.0, 0.0, 0.0, 0.0, 0.0, 0.0, 0.0, 0.0, 1.742503295067622E9, 0.0, 2025-03-20 15:41:35.067
212.0, -14234.641401128936, -31989.9507749022, -35911.69845005256, -9159.43195336246, -15706.503773510907, -9916.172613641336, -22276.97787010406, -29243.323712745158, -3307.3876270517862, -13500.3865957721, -11622.415378381656, -5453.155094761264, -21855.17810048796, -14751.458436424547, -187500.02235174447, -32687.95105075253, 0.04387548828125, 0.9803364257812499, -0.059004882812500006, 192.0, 0.0, 0.0, 0.0, 0.0, 0.0, 0.0, 0.0, 0.0, 0.0, 1.742503295126639E9, 0.0, 2025-03-20 15:41:35.126
214.0, -14235.20019474032, -31992.81179819248, -35912.078429708294, -9161.264796407795, -15700.759375185893, -9932.623497560442, -22279.570672460875, -29248.5540209477, -3328.130045906311, -13506.689787708496, -11632.652477342186, -5457.714850630146, -21858.016772033785, -14758.67804988361, -187500.02235174447, -32690.14152170915, 0.04387548828125, 0.9803364257812499, -0.059004882812500006, 192.0, 0.0, 0.0, 0.0, 0.0, 0.0, 0.0, 0.0, 0.0, 0.0, 1.742503295126835E9, 0.0, 2025-03-20 15:41:35.126
216.0, -14240.877537831968, -31999.651431995804, -35921.15323795715, -9167.500933110827, -15701.675796708561, -9926.655581790876, -22283.638689951742, -29256.421834995966, -3312.997914910068, -13508.276761564823, -11626.371637150245, -5454.786772106501, -21855.871004566074, -14758.566291161334, -187500.02235174447, -32699.261033446914, 0.043937744140625, 0.983168212890625, -0.05950244140625, 192.0, 0.5, 48.0, 15.0, 104.0, 127.0, 16.0, 0.0, 0.0, 0.0, 1.742503295127E9, 0.0, 2025-03-20 15:41:35.127
218.0, -14238.709418619803, -31989.86136792438, -35908.949185484555, -9155.587453316148, -15701.049947863812, -9916.53024155262, -22279.70478292761, -29245.000093579307, -3329.582909295906, -13514.691712223497, -11638.843910556307, -5464.912112344756, -21854.46284466539, -14767.954023832563, -187500.02235174447, -32699.23868170246, 0.043937744140625, 0.983168212890625, -0.05950244140625, 192.0, 0.0, 0.0, 0.0, 0.0, 0.0, 0.0, 0.0, 0.0, 0.0, 1.74250329512718E9, 0.0, 2025-03-20 15:41:35.127
220.0, -14219.017531754678, -31983.200548076697, -35904.03180170438, -9155.498046338325, -15693.62916870465, -9918.273677620135, -22280.352983516812, -29244.59776217911, -3298.1787083361996, -13496.072709092226, -11614.279343399923, -5443.812065578945, -21852.98762953134, -14746.049314266362, -187500.02235174447, -32685.939393751552, 0.043937744140625, 0.983168212890625, -0.05950244140625, 192.0, 0.0, 0.0, 0.0, 0.0, 0.0, 0.0, 0.0, 0.0, 0.0, 1.742503295127344E9, 0.0, 2025-03-20 15:41:35.127
222.0, -14243.179767510865, -31989.83901617992, -35907.74219128396, -9150.513607324792, -15703.598046731717, -9915.144433396392, -22271.233471779047, -29237.22168650886, -3319.9940109245795, -13504.968703385437, -11629.299715673891, -5453.535074417005, -21853.8593475651, -14751.100808513262, -187500.02235174447, -32686.632297829667, 0.043937744140625, 0.983168212890625, -0.05950244140625, 192.0, 0.0, 0.0, 0.0, 0.0, 0.0, 0.0, 0.0, 0.0, 0.0, 1.742503295127502E9, 0.0, 2025-03-20 15:41:35.127
224.0, -14228.137043492443, -31997.48331278364, -35923.85779903625, -9169.892569767544, -15707.129622355656, -9928.957811469772, -22286.365602775288, -29258.03116059675, -3318.22822311261, -13502.621770217631, -11629.478529629532, -5452.417487194239, -21863.22472849187, -14749.87146256822, -187500.02235174447, -32688.398085641635, 0.043937744140625, 0.983168212890625, -0.05950244140625, 192.0, 0.0, 0.0, 0.0, 0.0, 0.0, 0.0, 0.0, 0.0, 0.0, 1.742503295127663E9, 0.0, 2025-03-20 15:41:35.127
226.0, -14264.302166021129, -32006.356955332394, -35929.17751421661, -9172.641834335547, -15717.210259104999, -9929.136625425414, -22292.84760866733, -29251.77267214926, -3337.8530547443697, -13522.514822782854, -11648.25399497199, -5474.009272338066, -21867.829187849664, -14762.29903248537, -187500.02235174447, -32697.025859001384, 0.0459688720703125, 0.9845841064453125, -0.058751220703125, 192.0, 0.5, 64.0, 15.0, 104.0, 127.0, 24.0, 0.0, 0.0, 0.0, 1.74250329518703E9, 0.0, 2025-03-20 15:41:35.187
228.0, -14220.358636421995, -31994.04114413752, -35924.14837171416, -9169.713755811901, -15702.547514742319, -9931.416503359855, -22287.282024297958, -29257.919401874475, -3314.160205621744, -13510.489584265899, -11636.295811688402, -5464.420373966739, -21859.447283678925, -14757.605166149757, -187500.02235174447, -32701.65267010363, 0.0459688720703125, 0.9845841064453125, -0.058751220703125, 192.0, 0.0, 0.0, 0.0, 0.0, 0.0, 0.0, 0.0, 0.0, 0.0, 1.742503295187228E9, 0.0, 2025-03-20 15:41:35.187
230.0, -14256.63551767296, -32000.836074451934, -35907.94335698406, -9159.074325451174, -15707.956636900502, -9914.496232807187, -22272.239300279536, -29244.530706945745, -3320.0610661579453, -13511.070729621737, -11629.076198229337, -5459.190065764197, -21852.093559753128, -14758.16395976114, -187500.02235174447, -32693.22606244398, 0.0459688720703125, 0.9845841064453125, -0.058751220703125, 192.0, 0.0, 0.0, 0.0, 0.0, 0.0, 0.0, 0.0, 0.0, 0.0, 1.742503295187388E9, 0.0, 2025-03-20 15:41:35.187
232.0, -14202.432537368839, -31976.651486951294, -35901.886034236675, -9153.978127715365, -15694.456183249496, -9913.021017673138, -22271.68050666815, -29243.234305767335, -3304.593658994873, -13501.48183125041, -11612.670017799142, -5444.16969349023, -21839.487175880335, -14741.86953805322, -187500.02235174447, -32689.359210653212, 0.0459688720703125, 0.9845841064453125, -0.058751220703125, 192.0, 0.0, 0.0, 0.0, 0.0, 0.0, 0.0, 0.0, 0.0, 0.0, 1.74250329518755E9, 0.0, 2025-03-20 15:41:35.187
234.0, -14266.135009066464, -32001.19370236322, -35914.09008670927, -9161.24244466334, -15717.098500382723, -9911.925782194827, -22279.190692805136, -29236.193506263913, -3317.870595201325, -13509.14847959858, -11628.11507321776, -5458.743030875091, -21858.910841811998, -14760.533244673401, -187500.02235174447, -32694.65657408912, 0.0459688720703125, 0.9845841064453125, -0.058751220703125, 192.0, 0.0, 0.0, 0.0, 0.0, 0.0, 0.0, 0.0, 0.0, 0.0, 1.742503295187724E9, 0.0, 2025-03-20 15:41:35.187
236.0, -14214.502479374705, -31985.346315544408, -35922.941377513576, -9163.52232259778, -15699.597084474217, -9924.420407345344, -22278.564843960386, -29240.440337710425, -3311.433292798197, -13504.164040585047, -11623.175337693136, -5449.914091815244, -21854.775769087766, -14749.267965467927, -187500.02235174447, -32684.933565251064, 0.04198443603515625, 0.9882920532226562, -0.0583756103515625, 192.0, 0.5, 24.0, 15.5, 0.0, 127.0, 24.0, 0.0, 0.0, 0.0, 1.742503295187888E9, 0.0, 2025-03-20 15:41:35.187
238.0, -14274.874541148489, -32008.793295478023, -35926.718822326526, -9166.271587165784, -15719.49013703944, -9923.369875355946, -22274.452122980612, -29237.17698301995, -3324.3302493489086, -13515.943409912994, -11637.167529722159, -5463.727469888624, -21856.630963877556, -14754.006535292452, -187500.02235174447, -32692.577861854777, 0.04198443603515625, 0.9882920532226562, -0.0583756103515625, 192.0, 0.0, 0.0, 0.0, 0.0, 0.0, 0.0, 0.0, 0.0, 0.0, 1.74250329518807E9, 0.0, 2025-03-20 15:41:35.188
240.0, -14214.52483111916, -31989.369629546363, -35934.117249741226, -9177.67097683799, -15700.87113390817, -9932.82466326054, -22285.538588230444, -29236.72994813084, -3323.033848170501, -13513.887049423105, -11637.569861122354, -5465.962644334155, -21859.38022844556, -14754.610032392746, -187500.02235174447, -32705.497170149945, 0.04198443603515625, 0.9882920532226562, -0.0583756103515625, 192.0, 0.0, 0.0, 0.0, 0.0, 0.0, 0.0, 0.0, 0.0, 0.0, 1.742503295188236E9, 0.0, 2025-03-20 15:41:35.188
242.0, -14259.384782240963, -32003.67474599776, -35931.27857819541, -9171.501895368327, -15703.82156417627, -9914.831508974017, -22275.681468925653, -29226.045814281206, -3320.843377213881, -13507.740319697896, -11633.16656746466, -5467.348452490384, -21853.345257442626, -14753.179520747606, -187500.02235174447, -32700.959766025517, 0.04198443603515625, 0.9882920532226562, -0.0583756103515625, 192.0, 0.0, 0.0, 0.0, 0.0, 0.0, 0.0, 0.0, 0.0, 0.0, 1.742503295247129E9, 0.0, 2025-03-20 15:41:35.247
244.0, -14202.723110046758, -31986.732123700636, -35922.76256355793, -9174.09469772514, -15694.769107671871, -9927.147320168891, -22279.391858505234, -29230.314997472167, -3315.300144588965, -13509.327293554223, -11628.785625551418, -5469.583626935915, -21867.248042493826, -14753.492445169979, -187500.02235174447, -32698.344611924247, 0.04198443603515625, 0.9882920532226562, -0.0583756103515625, 192.0, 0.0, 0.0, 0.0, 0.0, 0.0, 0.0, 0.0, 0.0, 0.0, 1.742503295247316E9, 0.0, 2025-03-20 15:41:35.247
246.0, -14258.423657229383, -32007.13926638833, -35925.243607192475, -9170.786639545757, -15711.197639846521, -9930.276564392634, -22282.565806217888, -29222.424831679444, -3324.03967667099, -13512.233020333413, -11629.009142995972, -5468.9801298356215, -21856.541556899734, -14748.30684045635, -187500.02235174447, -32690.74501880944, 0.042992218017578125, 0.9881460266113281, -0.05618780517578125, 192.0, 0.5, 48.0, 15.0, 112.0, 127.0, 40.0, 0.0, 0.0, 0.0, 1.742503295247484E9, 0.0, 2025-03-20 15:41:35.247
248.0, -14189.08854592902, -31970.929440370735, -35912.05607796384, -9154.626328304568, -15686.320148267765, -9913.57981128452, -22272.12754155726, -29220.681395611933, -3323.525586548518, -13497.994959115382, -11625.812843538863, -5463.481600699616, -21852.451187664414, -14743.747084587465, -187500.02235174447, -32689.247451930936, 0.042992218017578125, 0.9881460266113281, -0.05618780517578125, 192.0, 0.0, 0.0, 0.0, 0.0, 0.0, 0.0, 0.0, 0.0, 0.0, 1.742503295247642E9, 0.0, 2025-03-20 15:41:35.247
250.0, -14238.374142452973, -31997.304498827994, -35921.84614203527, -9160.415430118494, -15700.379395530153, -9915.524413052131, -22275.256785781003, -29223.385956691025, -3302.425539782708, -13495.71508118094, -11611.999465465482, -5456.50785642956, -21845.41038816099, -14734.672276338611, -187500.02235174447, -32677.490434347445, 0.042992218017578125, 0.9881460266113281, -0.05618780517578125, 192.0, 0.0, 0.0, 0.0, 0.0, 0.0, 0.0, 0.0, 0.0, 0.0, 1.742503295247795E9, 0.0, 2025-03-20 15:41:35.247
252.0, -14185.154638904887, -31967.599030446894, -35905.19409241606, -9151.787656758745, -15685.493133722919, -9917.133738652914, -22266.517253698978, -29216.92630254344, -3314.8307579554034, -13493.390499757588, -11613.139404432703, -5458.608920408359, -21848.561984129192, -14737.622706606711, -187500.02235174447, -32684.352419895225, 0.042992218017578125, 0.9881460266113281, -0.05618780517578125, 192.0, 0.0, 0.0, 0.0, 0.0, 0.0, 0.0, 0.0, 0.0, 0.0, 1.74250329524795E9, 0.0, 2025-03-20 15:41:35.247
254.0, -14221.587982367038, -31985.882757411335, -35914.02303147591, -9151.854711992111, -15694.38912801613, -9909.467090304744, -22266.830178121352, -29212.09832574109, -3291.897868144258, -13485.165057798036, -11596.643817024687, -5447.433048180706, -21829.294780408716, -14720.098938953752, -187500.02235174447, -32673.08714068975, 0.042992218017578125, 0.9881460266113281, -0.05618780517578125, 192.0, 0.0, 0.0, 0.0, 0.0, 0.0, 0.0, 0.0, 0.0, 0.0, 1.742503295248118E9, 0.0, 2025-03-20 15:41:35.248
0.0, -14191.256665141185, -31976.427969506738, -35908.97153722901, -9158.403773117516, -15689.136468069133, -9913.557459540065, -22271.50169271251, -29221.5978171346, -3313.288487587987, -13493.837534646695, -11608.356131119268, -5458.7653826195465, -21839.934210769443, -14730.850128036755, -187500.02235174447, -32674.338838379248, 0.04149610900878906, 0.9860730133056641, -0.056093902587890626, 192.0, 0.5, 32.0, 15.0, 96.0, 127.0, 32.0, 0.0, 0.0, 0.0, 1.742503295306605E9, 0.0, 2025-03-20 15:41:35.306
2.0, -14222.683217845348, -31993.862330181877, -35915.76646754342, -9161.845941763633, -15688.220046546467, -9918.720712509241, -22267.83600662184, -29219.36264268907, -3297.5305077469957, -13492.518781723831, -11606.545639818387, -5460.151190775775, -21841.61059160359, -14734.761683316432, -187500.02235174447, -32687.95105075253, 0.04149610900878906, 0.9860730133056641, -0.056093902587890626, 192.0, 0.0, 0.0, 0.0, 0.0, 0.0, 0.0, 0.0, 0.0, 0.0, 1.742503295306803E9, 0.0, 2025-03-20 15:41:35.306
4.0, -14202.991330980221, -31985.39101903332, -35922.650804835655, -9161.19774117443, -15689.784668658338, -9925.403884101377, -22270.853492123308, -29221.73192760133, -3309.0193043970235, -13495.983302114404, -11613.452328855077, -5464.263911755552, -21844.046931749217, -14737.041561250873, -187500.02235174447, -32679.055056459318, 0.04149610900878906, 0.9860730133056641, -0.056093902587890626, 192.0, 0.0, 0.0, 0.0, 0.0, 0.0, 0.0, 0.0, 0.0, 0.0, 1.742503295306986E9, 0.0, 2025-03-20 15:41:35.306
6.0, -14212.736691562735, -31991.202472591696, -35918.89571176717, -9160.48248535186, -15693.226837304455, -9921.849956732984, -22276.508483470498, -29221.061375267673, -3306.7617782070374, -13502.845287662183, -11612.468852099044, -5467.728432146124, -21847.913783539985, -14740.036695007884, -187500.02235174447, -32693.18135895507, 0.04149610900878906, 0.9860730133056641, -0.056093902587890626, 192.0, 0.0, 0.0, 0.0, 0.0, 0.0, 0.0, 0.0, 0.0, 0.0, 1.742503295307144E9, 0.0, 2025-03-20 15:41:35.307
8.0, -14201.940798990823, -31979.065475352465, -35920.21446469003, -9154.67103179348, -15690.745793669916, -9918.430139831322, -22278.430733493657, -29220.457878167377, -3301.8443944268697, -13495.983302114404, -11607.797337507885, -5465.739126889602, -21839.576582858157, -14738.136796729184, -187500.02235174447, -32691.23675718746, 0.04149610900878906, 0.9860730133056641, -0.056093902587890626, 192.0, 0.0, 0.0, 0.0, 0.0, 0.0, 0.0, 0.0, 0.0, 0.0, 1.742503295307311E9, 0.0, 2025-03-20 15:41:35.307
10.0, -14198.208057666787, -31981.881795153833, -35925.33301417029, -9161.734183041357, -15691.125773325655, -9921.648791032887, -22271.166416545682, -29225.48702066982, -3291.6967024441606, -13493.47990673541, -11602.164697905147, -5461.849923354379, -21835.441510133925, -14734.694628083067, -187500.02235174447, -32682.3631146387, 0.04074805450439453, 0.983036506652832, -0.060046951293945314, 192.0, 0.5, 32.0, 15.0, 80.0, 127.0, 0.0, 0.0, 0.0, 0.0, 1.742503295307467E9, 0.0, 2025-03-20 15:41:35.307
12.0, -14211.306179917596, -31986.530958000538, -35931.23387470649, -9162.449438863927, -15697.540723984328, -9924.554517812076, -22275.904986370206, -29227.185753248425, -3311.2097753536436, -13501.593589972686, -11615.463985856055, -5470.567103691948, -21841.767053814776, -14743.76943633192, -187500.02235174447, -32689.5156728644, 0.04074805450439453, 0.983036506652832, -0.060046951293945314, 192.0, 0.0, 0.0, 0.0, 0.0, 0.0, 0.0, 0.0, 0.0, 0.0, 1.742503295307633E9, 0.0, 2025-03-20 15:41:35.307
14.0, -14201.42670886835, -31984.80987367748, -35931.6809095956, -9171.837171535155, -15698.971235629468, -9939.127855196935, -22285.426829508167, -29233.26542774027, -3309.6451532417723, -13502.062976606248, -11617.810919023863, -5470.70121415868, -21840.694170080922, -14743.009477020441, -187500.02235174447, -32700.646841603142, 0.04074805450439453, 0.983036506652832, -0.060046951293945314, 192.0, 0.0, 0.0, 0.0, 0.0, 0.0, 0.0, 0.0, 0.0, 0.0, 1.742503295307781E9, 0.0, 2025-03-20 15:41:35.307
16.0, -14217.095281731521, -31983.111141098874, -35911.27376690791, -9160.48248535186, -15696.758412928393, -9918.184270642314, -22266.56195718789, -29224.950578802895, -3310.0474846419675, -13497.547924226275, -11615.82161376734, -5469.002481580077, -21859.693152867934, -14743.05418050935, -187500.02235174447, -32696.243547945447, 0.04074805450439453, 0.983036506652832, -0.060046951293945314, 192.0, 0.0, 0.0, 0.0, 0.0, 0.0, 0.0, 0.0, 0.0, 0.0, 1.742503295367736E9, 0.0, 2025-03-20 15:41:35.367
18.0, -14178.829095224035, -31969.56598395896, -35919.923892012106, -9160.907168496511, -15683.660290677582, -9925.426235845833, -22269.78060838945, -29216.92630254344, -3297.9104874027357, -13483.62278743062, -11603.885782228206, -5454.093868028387, -21837.967257257376, -14730.134872214185, -187500.02235174447, -32690.3650391537, 0.04074805450439453, 0.983036506652832, -0.060046951293945314, 192.0, 0.0, 0.0, 0.0, 0.0, 0.0, 0.0, 0.0, 0.0, 0.0, 1.742503295367945E9, 0.0, 2025-03-20 15:41:35.367
20.0, -14224.516060890683, -31985.860405666877, -35926.361194415236, -9164.036412720254, -15701.049947863812, -9919.63713403191, -22279.011878849495, -29225.039985780717, -3312.126196876311, -13490.305959022757, -11614.145232933191, -5467.616673423848, -21846.058588750195, -14744.998782276964, -187500.02235174447, -32691.28146067637, 0.042374027252197265, 0.981518253326416, -0.060023475646972656, 192.0, 0.5, 48.0, 15.0, 80.0, 127.0, 16.0, 0.0, 0.0, 0.0, 1.742503295368118E9, 0.0, 2025-03-20 15:41:35.368
22.0, -14180.66193826937, -31973.254021794084, -35927.00939500444, -9165.24340692084, -15691.751622170405, -9928.108445180469, -22276.150855559215, -29225.44231718091, -3304.03486538349, -13488.026081088316, -11604.891610728695, -5460.017080309043, -21839.46482413588, -14734.53816587188, -187500.02235174447, -32691.32616416528, 0.042374027252197265, 0.981518253326416, -0.060023475646972656, 192.0, 0.0, 0.0, 0.0, 0.0, 0.0, 0.0, 0.0, 0.0, 0.0, 1.742503295368294E9, 0.0, 2025-03-20 15:41:35.368
24.0, -14230.14870049342, -31993.012963892575, -35925.020089747915, -9163.298805153228, -15708.49307876743, -9920.933535210317, -22277.581367204355, -29223.229494479838, -3312.8638044433364, -13491.736470667896, -11612.960590477061, -5468.063708312954, -21844.628077105055, -14742.316572942325, -187500.02235174447, -32690.074466475784, 0.042374027252197265, 0.981518253326416, -0.060023475646972656, 192.0, 0.0, 0.0, 0.0, 0.0, 0.0, 0.0, 0.0, 0.0, 0.0, 1.742503295368451E9, 0.0, 2025-03-20 15:41:35.368
26.0, -14178.13619114592, -31977.433798007227, -35935.0336712639, -9173.178276202474, -15693.62916870465, -9920.173575898836, -22275.97204160357, -29232.01373005077, -3298.93866764768, -13489.568351455731, -11607.529116574422, -5460.754687876069, -21836.112062467582, -14733.19706120456, -187500.02235174447, -32690.253280431425, 0.042374027252197265, 0.981518253326416, -0.060023475646972656, 192.0, 0.0, 0.0, 0.0, 0.0, 0.0, 0.0, 0.0, 0.0, 0.0, 1.74250329536863E9, 0.0, 2025-03-20 15:41:35.368
28.0, -14228.964058037289, -31987.290917312017, -35923.96955775852, -9166.316290654695, -15690.611683203184, -9917.513718308654, -22259.565861173378, -29217.283930454723, -3314.1378538772888, -13497.324406781723, -11618.25795391297, -5471.818801381445, -21848.986667273843, -14748.887985812187, -187500.02235174447, -32694.880091533672, 0.042374027252197265, 0.981518253326416, -0.060023475646972656, 192.0, 0.0, 0.0, 0.0, 0.0, 0.0, 0.0, 0.0, 0.0, 0.0, 1.742503295368785E9, 0.0, 2025-03-20 15:41:35.368
30.0, -14174.694022499803, -31971.689399682215, -35925.7800490594, -9173.133572713563, -15684.286139522332, -9923.481634078222, -22272.999259591015, -29222.290721212714, -3296.2117548241326, -13481.454668218455, -11604.288113628401, -5456.194932007186, -21829.339483897627, -14725.753930300943, -187500.02235174447, -32687.682829819067, 0.042187013626098634, 0.981759126663208, -0.05901173782348633, 192.0, 0.5, 40.0, 15.0, 88.0, 127.0, 24.0, 0.0, 0.0, 0.0, 1.742503295426864E9, 0.0, 2025-03-20 15:41:35.426
32.0, -14233.523813906171, -31989.48138826864, -35917.73342105549, -9160.057802207208, -15695.238494305433, -9908.796537971084, -22266.4054949767, -29215.78636357622, -3306.4041502957525, -13485.679147920508, -11610.233677653514, -5463.07926929942, -21847.533803884246, -14737.712113584534, -187500.02235174447, -32687.861643774708, 0.042187013626098634, 0.981759126663208, -0.05901173782348633, 192.0, 0.0, 0.0, 0.0, 0.0, 0.0, 0.0, 0.0, 0.0, 0.0, 1.742503295427069E9, 0.0, 2025-03-20 15:41:35.427
34.0, -14168.010850907667, -31959.61945767635, -35918.15810420014, -9159.454305106916, -15681.313357509776, -9911.836375217006, -22261.890442596727, -29215.83106706513, -3299.0504263699563, -13481.164095540536, -11605.226886895525, -5456.261987240552, -21842.616420104077, -14726.938572757075, -187500.02235174447, -32675.903460491118, 0.042187013626098634, 0.981759126663208, -0.05901173782348633, 192.0, 0.0, 0.0, 0.0, 0.0, 0.0, 0.0, 0.0, 0.0, 0.0, 1.742503295427224E9, 0.0, 2025-03-20 15:41:35.427
36.0, -14224.158432979399, -31980.116007341865, -35917.35344139975, -9151.787656758745, -15693.875037893658, -9900.705206478264, -22259.07412279536, -29213.64059610851, -3300.056254870445, -13473.765668125829, -11604.422224095133, -5452.9539290611665, -21833.251039177303, -14730.157223958638, -187500.02235174447, -32675.210556413003, 0.042187013626098634, 0.981759126663208, -0.05901173782348633, 192.0, 0.0, 0.0, 0.0, 0.0, 0.0, 0.0, 0.0, 0.0, 0.0, 1.742503295427377E9, 0.0, 2025-03-20 15:41:35.427
38.0, -14174.649319010892, -31967.576678702437, -35924.23777869198, -9157.777924272767, -15682.743869154916, -9912.886907206406, -22264.147968786714, -29224.07886076914, -3307.968772407624, -13473.385688470089, -11605.763328762452, -5449.467056926139, -21836.112062467582, -14723.116424455218, -187500.02235174447, -32674.048265701327, 0.042187013626098634, 0.981759126663208, -0.05901173782348633, 192.0, 0.0, 0.0, 0.0, 0.0, 0.0, 0.0, 0.0, 0.0, 0.0, 1.742503295427524E9, 0.0, 2025-03-20 15:41:35.427
40.0, -14241.704552376814, -32000.210225607185, -35935.368947430725, -9167.411526133004, -15712.49404102493, -9918.92187820934, -22275.770875903472, -29229.77855560524, -3314.4060748107527, -13492.474078234922, -11621.431901625623, -5465.828533867423, -21843.80106256021, -14741.243689208472, -187500.02235174447, -32693.09195197725, 0.04309350681304931, 0.983879563331604, -0.059505868911743164, 192.0, 0.5, 48.0, 15.0, 104.0, 127.0, 16.0, 0.0, 0.0, 0.0, 1.742503295427683E9, 0.0, 2025-03-20 15:41:35.427
42.0, -14186.898074972401, -31970.95179211519, -35929.91512178363, -9160.661299307501, -15695.35025302771, -9915.747930496686, -22270.74173340103, -29226.246979981304, -3305.0630456284343, -13482.795772885773, -11614.592267822298, -5458.743030875091, -21841.565888114677, -14730.313686169826, -187500.02235174447, -32694.85773978922, 0.04309350681304931, 0.983879563331604, -0.059505868911743164, 192.0, 0.0, 0.0, 0.0, 0.0, 0.0, 0.0, 0.0, 0.0, 0.0, 1.742503295427866E9, 0.0, 2025-03-20 15:41:35.427
44.0, -14241.324572721074, -31997.595071505915, -35932.932607285096, -9162.784715030755, -15705.229724076955, -9920.732369510219, -22276.374373003768, -29228.504506171288, -3312.3720660653194, -13490.395366000577, -11621.208384181069, -5464.196856522186, -21833.586315344135, -14739.746122329965, -187500.02235174447, -32695.70710607852, 0.04309350681304931, 0.983879563331604, -0.059505868911743164, 192.0, 0.0, 0.0, 0.0, 0.0, 0.0, 0.0, 0.0, 0.0, 0.0, 1.742503295428033E9, 0.0, 2025-03-20 15:41:35.428
46.0, -14191.055499441089, -31974.304553783484, -35925.869456037224, -9158.493180095336, -15693.383299515643, -9922.453453833277, -22275.681468925653, -29230.78438410573, -3311.187423609188, -13481.722889151919, -11615.799262022885, -5455.814952351446, -21848.69609459592, -14731.274811181405, -187500.02235174447, -32686.85581527422, 0.04309350681304931, 0.983879563331604, -0.059505868911743164, 192.0, 0.0, 0.0, 0.0, 0.0, 0.0, 0.0, 0.0, 0.0, 0.0, 1.742503295486921E9, 0.0, 2025-03-20 15:41:35.486
48.0, -14235.758988351703, -31996.030449394042, -35930.831543306296, -9164.259930164806, -15702.368700786676, -9923.01224744466, -22267.4560269661, -29226.850477081596, -3317.065932400934, -13496.497392236877, -11625.008180738472, -5464.286263500007, -21854.082865009652, -14741.400151419659, -187500.02235174447, -32698.054039246326, 0.04309350681304931, 0.983879563331604, -0.059505868911743164, 192.0, 0.0, 0.0, 0.0, 0.0, 0.0, 0.0, 0.0, 0.0, 0.0, 1.742503295487149E9, 0.0, 2025-03-20 15:41:35.487
50.0, -14194.43061285384, -31973.43283574973, -35921.28734842388, -9153.888720737545, -15693.67387219356, -9915.63617177441, -22271.188768290136, -29225.777593347742, -3311.5674032649285, -13486.595569443176, -11619.576706835833, -5458.519513430538, -21844.046931749217, -14734.828738549799, -187500.02235174447, -32689.716838564498, 0.044546753406524656, 0.983939781665802, -0.061752934455871586, 192.0, 0.5, 56.0, 15.0, 96.0, 127.0, 0.0, 0.0, 0.0, 0.0, 1.742503295487307E9, 0.0, 2025-03-20 15:41:35.487
52.0, -14219.710435832792, -31988.319097556963, -35923.65663333615, -9158.023793461776, -15694.947921627514, -9914.786805485106, -22263.4550647086, -29220.770802589752, -3303.2749060720093, -13490.685938678496, -11614.234639911014, -5456.709022129658, -21838.280181679747, -14732.727674570999, -187500.02235174447, -32692.24258568795, 0.044546753406524656, 0.983939781665802, -0.061752934455871586, 192.0, 0.0, 0.0, 0.0, 0.0, 0.0, 0.0, 0.0, 0.0, 0.0, 1.7425032954875E9, 0.0, 2025-03-20 15:41:35.487
54.0, -14196.53167683264, -31975.779768917535, -35915.05121172085, -9156.928557983465, -15694.210314060489, -9910.048235660583, -22260.281116995946, -29212.075973996638, -3303.4090165387415, -13488.540171210787, -11611.261857898458, -5456.440801196194, -21835.307399667192, -14732.973543760008, -187500.02235174447, -32679.859719259708, 0.044546753406524656, 0.983939781665802, -0.061752934455871586, 192.0, 0.0, 0.0, 0.0, 0.0, 0.0, 0.0, 0.0, 0.0, 0.0, 1.742503295487662E9, 0.0, 2025-03-20 15:41:35.487
56.0, -14216.156508464397, -31983.178196332243, -35928.01522350493, -9160.393078374038, -15696.400785017107, -9913.19983162878, -22265.667887409676, -29222.58129389063, -3299.7880339369817, -13478.504237950354, -11613.094700943793, -5450.4281819377165, -21841.543536370224, -14726.8268140348, -187500.02235174447, -32683.927736750575, 0.044546753406524656, 0.983939781665802, -0.061752934455871586, 192.0, 0.0, 0.0, 0.0, 0.0, 0.0, 0.0, 0.0, 0.0, 0.0, 1.742503295487812E9, 0.0, 2025-03-20 15:41:35.487
58.0, -14214.346017163518, -31980.339524786417, -35934.318415441325, -9164.326985398173, -15699.753546685404, -9920.262982876657, -22273.848625880317, -29223.698881113396, -3324.5314150490067, -13489.791868900284, -11630.35024766329, -5464.487429200105, -21842.974048015363, -14738.025038006906, -187500.02235174447, -32692.6672688326, 0.044546753406524656, 0.983939781665802, -0.061752934455871586, 192.0, 0.0, 0.0, 0.0, 0.0, 0.0, 0.0, 0.0, 0.0, 0.0, 1.742503295487959E9, 0.0, 2025-03-20 15:41:35.487
60.0, -14215.888287530934, -31989.213167335176, -35936.17361023112, -9169.780811045268, -15707.844878178226, -9925.985029457215, -22278.006050349006, -29231.58904690612, -3314.4060748107527, -13492.09409857918, -11624.87407027174, -5463.325138488429, -21841.6552950925, -14740.215508963527, -187500.02235174447, -32692.019068243393, 0.04427337670326233, 0.982969890832901, -0.06187646722793579, 192.0, 0.5, 48.0, 15.0, 88.0, 127.0, 8.0, 0.0, 0.0, 0.0, 1.742503295547246E9, 0.0, 2025-03-20 15:41:35.547
62.0, -14215.91063927539, -31978.95371663019, -35908.47979885099, -9153.24052014834, -15698.546552484817, -9905.086148391503, -22263.745637386517, -29217.68626185492, -3305.778301451004, -13491.401194501066, -11618.459119613066, -5464.800353622479, -21855.334562699147, -14744.887023554687, -187500.02235174447, -32695.10360897823, 0.04427337670326233, 0.982969890832901, -0.06187646722793579, 192.0, 0.0, 0.0, 0.0, 0.0, 0.0, 0.0, 0.0, 0.0, 0.0, 1.742503295547478E9, 0.0, 2025-03-20 15:41:35.547
64.0, -14193.961226220277, -31973.924574127745, -35910.78202852989, -9156.481523094359, -15689.359985513687, -9906.002569914172, -22263.544471686422, -29209.974910017838, -3289.4838797430853, -13487.601397943665, -11604.86925898424, -5454.563254661948, -21834.614495589078, -14732.995895504464, -187500.02235174447, -32690.722667064987, 0.04427337670326233, 0.982969890832901, -0.06187646722793579, 192.0, 0.0, 0.0, 0.0, 0.0, 0.0, 0.0, 0.0, 0.0, 0.0, 1.742503295547648E9, 0.0, 2025-03-20 15:41:35.547
66.0, -14223.756101579202, -31982.127664342843, -35909.73149654049, -9147.272604378773, -15690.768145414371, -9901.062834389548, -22258.247108250514, -29209.08084023963, -3301.8890979157804, -13484.963892097938, -11612.4912038435, -5459.368879719839, -21828.445414119415, -14730.492500125469, -187500.02235174447, -32684.978268739975, 0.04427337670326233, 0.982969890832901, -0.06187646722793579, 192.0, 0.0, 0.0, 0.0, 0.0, 0.0, 0.0, 0.0, 0.0, 0.0, 1.742503295547816E9, 0.0, 2025-03-20 15:41:35.547
68.0, -14195.749365776703, -31971.71175142667, -35910.40204887415, -9149.95481371341, -15681.268654020865, -9909.176517626825, -22260.951669329606, -29220.279064211736, -3306.292391573476, -13479.487714706387, -11613.5417358329, -5453.803295350468, -21841.297667181214, -14725.82098553431, -187500.02235174447, -32681.37963788267, 0.04427337670326233, 0.982969890832901, -0.06187646722793579, 192.0, 0.0, 0.0, 0.0, 0.0, 0.0, 0.0, 0.0, 0.0, 0.0, 1.742503295547983E9, 0.0, 2025-03-20 15:41:35.547
70.0, -14227.801767325613, -31981.770036431557, -35909.083295951285, -9142.064647920686, -15698.501848995907, -9902.091014634492, -22263.186843775136, -29213.014747263762, -3306.158281106744, -13478.727755394908, -11611.86535499875, -5449.645870881781, -21837.855498535097, -14726.96092450153, -187500.02235174447, -32676.75282678042, 0.04313668835163116, 0.9824849454164505, -0.0629382336139679, 192.0, 0.5, 40.0, 15.0, 88.0, 127.0, 0.0, 0.0, 0.0, 0.0, 1.742503295548153E9, 0.0, 2025-03-20 15:41:35.548
72.0, -14183.120630159454, -31969.0965973254, -35917.3757931442, -9153.62049980408, -15695.372604772165, -9922.453453833277, -22270.2052915341, -29223.341253202114, -3299.028074625501, -13485.477982220411, -11609.853697997773, -5449.444705181683, -21829.495946108815, -14733.889965282675, -187500.02235174447, -32688.599251341733, 0.04313668835163116, 0.9824849454164505, -0.0629382336139679, 192.0, 0.0, 0.0, 0.0, 0.0, 0.0, 0.0, 0.0, 0.0, 0.0, 1.742503295548324E9, 0.0, 2025-03-20 15:41:35.548
74.0, -14234.283773217652, -31986.977992889642, -35908.949185484555, -9150.7594765138, -15691.595159959217, -9909.645904260386, -22263.991506575527, -29215.048756009193, -3309.868670686325, -13475.620862915619, -11611.194802665092, -5451.970452305133, -21840.113024725084, -14742.16011073114, -187500.02235174447, -32686.18526294056, 0.04313668835163116, 0.9824849454164505, -0.0629382336139679, 192.0, 0.0, 0.0, 0.0, 0.0, 0.0, 0.0, 0.0, 0.0, 0.0, 1.742503295548487E9, 0.0, 2025-03-20 15:41:35.548
76.0, -14179.47729581324, -31962.61459143336, -35911.36317388573, -9147.741991012334, -15681.380412743141, -9920.419445087844, -22258.4035704617, -29222.916570057463, -3299.452757770152, -13480.985281584894, -11604.735148517508, -5449.377649948317, -21832.98281824384, -14734.985200760986, -187500.02235174447, -32685.157082695616, 0.04313668835163116, 0.9824849454164505, -0.0629382336139679, 192.0, 0.0, 0.0, 0.0, 0.0, 0.0, 0.0, 0.0, 0.0, 0.0, 1.742503295607557E9, 0.0, 2025-03-20 15:41:35.607
78.0, -14243.29152623314, -31993.057667381487, -35926.495304881966, -9156.302709138718, -15708.91776191208, -9909.981180427216, -22269.802960133908, -29227.901009070996, -3318.8540719573584, -13478.638348417086, -11619.666113813653, -5457.804257607968, -21845.008056760795, -14739.187328718583, -187500.02235174447, -32686.364076896203, 0.04313668835163116, 0.9824849454164505, -0.0629382336139679, 192.0, 0.0, 0.0, 0.0, 0.0, 0.0, 0.0, 0.0, 0.0, 0.0, 1.742503295607725E9, 0.0, 2025-03-20 15:41:35.607
80.0, -14184.975824949244, -31975.265678795062, -35923.94720601406, -9160.303671396217, -15699.306511796298, -9916.999628186182, -22278.095457326825, -29233.10896552908, -3313.1767288657106, -13490.998863100871, -11624.516442360455, -5461.536998932004, -21848.114949240084, -14738.047389751362, -187500.02235174447, -32691.348515909736, 0.04456834417581558, 0.9842424727082253, -0.06246911680698395, 192.0, 0.5, 56.0, 15.0, 104.0, 127.0, 8.0, 0.0, 0.0, 0.0, 1.74250329560789E9, 0.0, 2025-03-20 15:41:35.607
82.0, -14239.804654098112, -31992.9012051703, -35914.403011131646, -9146.445589833927, -15702.033424619845, -9902.158069867859, -22263.4550647086, -29216.43456416542, -3307.1417578627775, -13491.62471194562, -11615.575744578331, -5455.390269206795, -21839.04014099123, -14736.48276763949, -187500.02235174447, -32683.79362628384, 0.04456834417581558, 0.9842424727082253, -0.06246911680698395, 192.0, 0.0, 0.0, 0.0, 0.0, 0.0, 0.0, 0.0, 0.0, 0.0, 1.742503295608053E9, 0.0, 2025-03-20 15:41:35.608
84.0, -14182.85240922599, -31977.32203928495, -35921.22029319052, -9158.582587073159, -15685.180209300544, -9918.899526464884, -22269.557090944898, -29229.555038160688, -3317.222394612121, -13491.445897989977, -11617.274477156936, -5453.490370928093, -21838.66016133549, -14733.39822690466, -187500.02235174447, -32681.357286138213, 0.04456834417581558, 0.9842424727082253, -0.06246911680698395, 192.0, 0.0, 0.0, 0.0, 0.0, 0.0, 0.0, 0.0, 0.0, 0.0, 1.742503295608218E9, 0.0, 2025-03-20 15:41:35.608
86.0, -14246.979564068266, -32005.015850665077, -35928.01522350493, -9163.365860386593, -15702.97219788697, -9923.481634078222, -22269.22181477807, -29230.136183516526, -3314.6295922553054, -13494.686900935996, -11618.459119613066, -5457.60309190787, -21843.912821282487, -14744.752913087954, -187500.02235174447, -32688.28632691936, 0.04456834417581558, 0.9842424727082253, -0.06246911680698395, 192.0, 0.0, 0.0, 0.0, 0.0, 0.0, 0.0, 0.0, 0.0, 0.0, 1.742503295608392E9, 0.0, 2025-03-20 15:41:35.608
88.0, -14180.61723478046, -31972.024675849043, -35912.25724366394, -9157.397944617027, -15696.445488506019, -9927.527299824633, -22274.340364258333, -29235.96998881936, -3313.8249294549146, -13495.871543392128, -11617.29682890139, -5455.099696528876, -21844.918649782976, -14746.96573578903, -187500.02235174447, -32687.52636760788, 0.04456834417581558, 0.9842424727082253, -0.06246911680698395, 192.0, 0.0, 0.0, 0.0, 0.0, 0.0, 0.0, 0.0, 0.0, 0.0, 1.742503295608554E9, 0.0, 2025-03-20 15:41:35.608
90.0, -14237.323610463574, -31994.33171681544, -35911.63139481919, -9158.962566728898, -15710.907067168602, -9926.432064346322, -22275.681468925653, -29240.73091038834, -3305.934763662191, -13493.85988639115, -11611.843003254296, -5451.5457691604815, -21849.187832973937, -14747.859805567243, -187500.02235174447, -32692.130826965673, 0.04428417208790779, 0.9821212363541126, -0.06323455840349197, 192.0, 0.5, 48.0, 15.0, 80.0, 127.0, 0.0, 0.0, 0.0, 0.0, 1.74250329566687E9, 0.0, 2025-03-20 15:41:35.666
92.0, -14183.925292959846, -31973.522242727548, -35907.6751360506, -9159.163732428997, -15684.621415689162, -9922.498157322188, -22273.446294480123, -29231.142012017015, -3300.8162141819257, -13488.920150866528, -11606.791509007397, -5446.963661547144, -21829.093614708618, -14739.880232796697, -187500.02235174447, -32686.565242596298, 0.04428417208790779, 0.9821212363541126, -0.06323455840349197, 192.0, 0.0, 0.0, 0.0, 0.0, 0.0, 0.0, 0.0, 0.0, 0.0, 1.742503295667071E9, 0.0, 2025-03-20 15:41:35.667
94.0, -14246.510177434706, -32002.713620986182, -35920.974424001506, -9166.115124954596, -15704.022729876368, -9922.833433489017, -22272.46281772409, -29231.544343417212, -3324.5314150490067, -13504.633427218609, -11626.72926506153, -5463.839228610901, -21840.783577058744, -14758.320421972327, -187500.02235174447, -32693.09195197725, 0.04428417208790779, 0.9821212363541126, -0.06323455840349197, 192.0, 0.0, 0.0, 0.0, 0.0, 0.0, 0.0, 0.0, 0.0, 0.0, 1.742503295667238E9, 0.0, 2025-03-20 15:41:35.667
96.0, -14187.099240672498, -31969.029542092034, -35909.26210990693, -9150.71477302489, -15685.940168612024, -9900.52639252262, -22264.527948442454, -29228.012767793272, -3300.9279729042023, -13485.656796176052, -11614.659323055665, -5451.881045327312, -21833.429853132948, -14738.092093240273, -187500.02235174447, -32684.218309428492, 0.04428417208790779, 0.9821212363541126, -0.06323455840349197, 192.0, 0.0, 0.0, 0.0, 0.0, 0.0, 0.0, 0.0, 0.0, 0.0, 1.742503295667405E9, 0.0, 2025-03-20 15:41:35.667
98.0, -14241.481034932262, -31999.874949440356, -35930.898598539665, -9166.919787754989, -15711.667026480083, -9919.905354965373, -22277.22373929307, -29242.183773777935, -3311.2544788425544, -13493.904589880061, -11625.008180738472, -5457.9383680747, -21844.493966638325, -14744.082360754295, -187500.02235174447, -32680.642030315645, 0.04428417208790779, 0.9821212363541126, -0.06323455840349197, 192.0, 0.0, 0.0, 0.0, 0.0, 0.0, 0.0, 0.0, 0.0, 0.0, 1.74250329566757E9, 0.0, 2025-03-20 15:41:35.667
100.0, -14196.375214621452, -31967.531975213526, -35914.69358380957, -9153.888720737545, -15691.05871809229, -9910.383511827411, -22265.533776942942, -29224.034157280228, -3306.806481695948, -13478.95127283946, -11619.040264968904, -5450.606995893359, -21829.98768448683, -14730.894831525664, -187500.02235174447, -32682.787797783352, 0.04314208604395389, 0.9830606181770563, -0.06361727920174598, 192.0, 0.5, 40.0, 15.0, 96.0, 127.0, 0.0, 0.0, 0.0, 0.0, 1.742503295667721E9, 0.0, 2025-03-20 15:41:35.667
102.0, -14228.360560936995, -31989.168463846265, -35930.54097062838, -9168.842037778144, -15720.272448095377, -9919.257154376168, -22276.59789044832, -29233.958331818383, -3302.9843333940908, -13487.467287476933, -11621.275439414436, -5453.356260461362, -21840.02361774726, -14736.639229850678, -187500.02235174447, -32692.4661031325, 0.04314208604395389, 0.9830606181770563, -0.06361727920174598, 192.0, 0.0, 0.0, 0.0, 0.0, 0.0, 0.0, 0.0, 0.0, 0.0, 1.742503295667874E9, 0.0, 2025-03-20 15:41:35.667
104.0, -14200.465583856772, -31967.66608568026, -35909.28446165138, -9155.989784716343, -15686.945997112512, -9905.846107702984, -22259.31999198437, -29217.48509615482, -3298.782205436493, -13482.348737996666, -11614.122881188738, -5447.768324347535, -21828.17719318595, -14736.572174617313, -187500.02235174447, -32692.935489766063, 0.04314208604395389, 0.9830606181770563, -0.06361727920174598, 192.0, 0.0, 0.0, 0.0, 0.0, 0.0, 0.0, 0.0, 0.0, 0.0, 1.74250329566803E9, 0.0, 2025-03-20 15:41:35.668
106.0, -14214.502479374705, -31978.305516040986, -35911.25141516345, -9163.499970853325, -15702.279293808853, -9914.25036361818, -22268.238338022034, -29233.10896552908, -3288.5674582204174, -13478.973624583916, -11605.986846207004, -5440.481655655105, -21831.485251365335, -14733.018247248918, -187500.02235174447, -32691.974364754486, 0.04314208604395389, 0.9830606181770563, -0.06361727920174598, 192.0, 0.0, 0.0, 0.0, 0.0, 0.0, 0.0, 0.0, 0.0, 0.0, 1.742503295726628E9, 0.0, 2025-03-20 15:41:35.726
108.0, -14215.016569497177, -31977.70201894069, -35904.21061566003, -9158.046145206232, -15695.216142560977, -9904.169726868837, -22264.68441065364, -29224.101212513593, -3307.298220073965, -13485.165057798036, -11616.179241678625, -5451.255196482563, -21831.328789154148, -14745.646982866167, -187500.02235174447, -32686.252318173927, 0.04314208604395389, 0.9830606181770563, -0.06361727920174598, 192.0, 0.0, 0.0, 0.0, 0.0, 0.0, 0.0, 0.0, 0.0, 0.0, 1.742503295726843E9, 0.0, 2025-03-20 15:41:35.726
110.0, -14209.04865372761, -31980.272469553052, -35909.91031049613, -9156.772095772278, -15697.272503050865, -9912.752796739675, -22276.46377998159, -29234.852401596596, -3299.028074625501, -13495.156287569558, -11609.071386941838, -5447.388344691795, -21830.03238797574, -14736.192194961572, -187500.02235174447, -32683.32423965028, 0.044571043021976946, 0.9835303090885281, -0.06280863960087299, 192.0, 0.5, 56.0, 15.0, 96.0, 127.0, 8.0, 0.0, 0.0, 0.0, 1.742503295727001E9, 0.0, 2025-03-20 15:41:35.727
112.0, -14217.966999765278, -31974.081036338932, -35898.756790012936, -9140.410618830994, -15695.909046639092, -9910.607029271965, -22260.392875718222, -29225.330558458634, -3305.554784006451, -13478.437182716989, -11614.793433522396, -5444.750838846068, -21830.7029403094, -14739.388494418681, -187500.02235174447, -32685.13473095116, 0.044571043021976946, 0.9835303090885281, -0.06280863960087299, 192.0, 0.0, 0.0, 0.0, 0.0, 0.0, 0.0, 0.0, 0.0, 0.0, 1.742503295727189E9, 0.0, 2025-03-20 15:41:35.727
114.0, -14202.521944346661, -31976.495024740107, -35910.11147619623, -9151.787656758745, -15686.141334312122, -9923.01224744466, -22275.569710203377, -29229.532686416234, -3289.930914632191, -13478.012499572338, -11599.951875204073, -5427.74116131558, -21818.02950120324, -14728.458491380035, -187500.02235174447, -32673.26595464539, 0.044571043021976946, 0.9835303090885281, -0.06280863960087299, 192.0, 0.0, 0.0, 0.0, 0.0, 0.0, 0.0, 0.0, 0.0, 0.0, 1.74250329572735E9, 0.0, 2025-03-20 15:41:35.727
116.0, -14231.936840049844, -31985.793350433512, -35909.26210990693, -9148.010211945799, -15697.898351895614, -9923.191061400303, -22273.826274135863, -29238.87571559855, -3315.680124244705, -13488.853095633162, -11620.91781150315, -5447.701269114169, -21840.627114847557, -14747.748046844967, -187500.02235174447, -32687.056980974317, 0.044571043021976946, 0.9835303090885281, -0.06280863960087299, 192.0, 0.0, 0.0, 0.0, 0.0, 0.0, 0.0, 0.0, 0.0, 0.0, 1.742503295727518E9, 0.0, 2025-03-20 15:41:35.727
118.0, -14209.361578149985, -31988.52026325706, -35923.0307844914, -9166.00336623232, -15705.050910121312, -9933.562270827564, -22287.527893486964, -29256.868869885075, -3304.6607142282387, -13493.725775924418, -11615.598096322787, -5446.717792358136, -21833.787481044234, -14738.986163018486, -187500.02235174447, -32687.146387952136, 0.044571043021976946, 0.9835303090885281, -0.06280863960087299, 192.0, 0.0, 0.0, 0.0, 0.0, 0.0, 0.0, 0.0, 0.0, 0.0, 1.742503295727675E9, 0.0, 2025-03-20 15:41:35.727
120.0, -14239.089398275542, -31991.113065613878, -35915.85587452124, -9161.220092918884, -15708.336616556242, -9920.15122415438, -22275.882634625752, -29237.087576042126, -3319.234051613099, -13499.313712038245, -11632.63012559773, -5462.252254754574, -21841.051797992208, -14750.497311412968, -187500.02235174447, -32699.28338519137, 0.04828552151098847, 0.982765154544264, -0.061404319800436494, 192.0, 0.5, 80.0, 15.0, 88.0, 127.0, 16.0, 0.0, 0.0, 0.0, 1.74250329578852E9, 0.0, 2025-03-20 15:41:35.788
122.0, -14193.402432608895, -31977.232632307132, -35922.40493564665, -9167.76915404429, -15694.925569883058, -9926.230898646225, -22272.75339040201, -29240.149765032504, -3295.0271123680013, -13486.059127576247, -11615.598096322787, -5446.628385380314, -21825.964370484875, -14729.844299536266, -187500.02235174447, -32689.47096937549, 0.04828552151098847, 0.982765154544264, -0.061404319800436494, 192.0, 0.0, 0.0, 0.0, 0.0, 0.0, 0.0, 0.0, 0.0, 0.0, 1.7425032957887E9, 0.0, 2025-03-20 15:41:35.788
124.0, -14250.9134710924, -32000.031411651544, -35928.32814792731, -9173.535904113758, -15712.404634047109, -9922.855785233472, -22274.049791580415, -29238.07105279816, -3316.2165661116323, -13497.883200393106, -11630.976096508039, -5461.492295443094, -21851.266545208284, -14741.44485490857, -187500.02235174447, -32694.94714676704, 0.04828552151098847, 0.982765154544264, -0.061404319800436494, 192.0, 0.0, 0.0, 0.0, 0.0, 0.0, 0.0, 0.0, 0.0, 0.0, 1.742503295788878E9, 0.0, 2025-03-20 15:41:35.788
126.0, -14196.576380321549, -31978.081998596434, -35929.53514212789, -9164.684613309457, -15700.49115425243, -9913.713921751252, -22276.754352659507, -29241.870849355564, -3310.6286299978055, -13492.898761379573, -11631.19961395259, -5458.072478541431, -21840.98474275884, -14736.460415895035, -187500.02235174447, -32693.024896743882, 0.04828552151098847, 0.982765154544264, -0.061404319800436494, 192.0, 0.0, 0.0, 0.0, 0.0, 0.0, 0.0, 0.0, 0.0, 0.0, 1.74250329578904E9, 0.0, 2025-03-20 15:41:35.789
128.0, -14254.109770549509, -31999.76319071808, -35932.12794448471, -9169.557293600714, -15718.327846327764, -9911.81402347255, -22276.441428237133, -29235.54530567471, -3317.6023742678613, -13500.788927172296, -11636.072294243848, -5462.8781035993225, -21842.147033470515, -14745.714038099533, -187500.02235174447, -32687.839292030254, 0.04828552151098847, 0.982765154544264, -0.061404319800436494, 192.0, 0.0, 0.0, 0.0, 0.0, 0.0, 0.0, 0.0, 0.0, 0.0, 1.742503295789216E9, 0.0, 2025-03-20 15:41:35.789
130.0, -14192.173086663854, -31975.310382283973, -35927.545836871366, -9172.284206424261, -15704.894447910125, -9915.613820029954, -22286.991451620037, -29242.11671854457, -3312.126196876311, -13494.99982535837, -11628.11507321776, -5455.03264129551, -21851.020676019274, -14747.189253233582, -187500.02235174447, -32696.310603178812, 0.04914276075549424, 0.984382577272132, -0.06170215990021825, 192.0, 0.5, 72.0, 15.0, 104.0, 127.0, 8.0, 0.0, 0.0, 0.0, 1.74250329578939E9, 0.0, 2025-03-20 15:41:35.789
132.0, -14255.003840327721, -31999.204397106696, -35925.7800490594, -9176.687500081956, -15724.318113841788, -9924.509814323166, -22279.12363757177, -29238.87571559855, -3319.7481417355707, -13502.755880684363, -11631.02079999695, -5456.8878360853005, -21851.825338819664, -14754.811198092842, -187500.02235174447, -32699.484550891466, 0.04914276075549424, 0.984382577272132, -0.06170215990021825, 192.0, 0.0, 0.0, 0.0, 0.0, 0.0, 0.0, 0.0, 0.0, 0.0, 1.742503295789554E9, 0.0, 2025-03-20 15:41:35.789
134.0, -14202.588999580026, -31987.04504812301, -35924.48364788099, -9183.974168774386, -15712.941075914036, -9941.050105220093, -22289.60660572131, -29257.94175361893, -3311.098016631367, -13505.885124908105, -11625.231698183024, -5454.093868028387, -21850.394827174525, -14753.403038192158, -187500.02235174447, -32705.85479806123, 0.04914276075549424, 0.984382577272132, -0.06170215990021825, 192.0, 0.0, 0.0, 0.0, 0.0, 0.0, 0.0, 0.0, 0.0, 0.0, 1.742503295789734E9, 0.0, 2025-03-20 15:41:35.789
136.0, -14255.495578705739, -32000.81372270748, -35908.34568838426, -9165.869255765589, -15713.388110803142, -9924.666276534352, -22278.766009660485, -29240.97677957735, -3321.4692260586294, -13514.356436056667, -11631.11020697477, -5459.659452397758, -21848.47257715137, -14761.851997596264, -187500.02235174447, -32710.436905674567, 0.04914276075549424, 0.984382577272132, -0.06170215990021825, 192.0, 0.0, 0.0, 0.0, 0.0, 0.0, 0.0, 0.0, 0.0, 0.0, 1.74250329584821E9, 0.0, 2025-03-20 15:41:35.848
138.0, -14183.835885982024, -31965.341504256907, -35887.11153115172, -9154.693383537935, -15680.620453431662, -9920.039465432104, -22267.97011708857, -29229.935017816428, -3302.872574671814, -13490.529476467309, -11606.590343307298, -5435.139588730287, -21828.713635052878, -14741.333096186292, -187500.02235174447, -32687.45931237451, 0.04914276075549424, 0.984382577272132, -0.06170215990021825, 192.0, 0.0, 0.0, 0.0, 0.0, 0.0, 0.0, 0.0, 0.0, 0.0, 1.742503295848414E9, 0.0, 2025-03-20 15:41:35.848
140.0, -14257.14960779543, -32009.285033856042, -35911.474932608005, -9172.641834335547, -15713.477517780962, -9933.003477216182, -22285.002146363517, -29247.525840702754, -3307.3429235628755, -13504.991055129893, -11616.559221334366, -5447.209530736152, -21836.201469445405, -14757.44870393857, -187500.02235174447, -32692.24258568795, 0.04557138037774712, 0.985191288636066, -0.058851079950109124, 192.0, 0.5, 40.0, 15.0, 104.0, 127.0, 32.0, 0.0, 0.0, 0.0, 1.742503295848571E9, 0.0, 2025-03-20 15:41:35.848
142.0, -14211.552049106605, -31993.37059180386, -35922.53904611338, -9183.348319929639, -15705.319131054775, -9943.039410476615, -22292.40057377822, -29254.79015765073, -3318.295278345976, -13518.826784947729, -11631.780759308429, -5463.235731510607, -21842.07997823715, -14766.009422064952, -187500.02235174447, -32704.670155605098, 0.04557138037774712, 0.985191288636066, -0.058851079950109124, 192.0, 0.0, 0.0, 0.0, 0.0, 0.0, 0.0, 0.0, 0.0, 0.0, 1.742503295848736E9, 0.0, 2025-03-20 15:41:35.848
144.0, -14253.550976938126, -32007.407487321794, -35921.86849377972, -9178.207418704918, -15703.575694987261, -9928.06374169156, -22274.385067747244, -29243.904858100996, -3312.975563165613, -13523.006561160872, -11633.59125060931, -5466.655548412269, -21843.398731160014, -14766.724677887521, -187500.02235174447, -32712.00152778644, 0.04557138037774712, 0.985191288636066, -0.058851079950109124, 192.0, 0.0, 0.0, 0.0, 0.0, 0.0, 0.0, 0.0, 0.0, 0.0, 1.742503295848887E9, 0.0, 2025-03-20 15:41:35.848
146.0, -14208.489860116228, -31981.166539331265, -35918.56043560034, -9169.132610456063, -15695.685529194538, -9918.58660204251, -22274.250957280514, -29239.27804699875, -3315.32249633342, -13497.883200393106, -11636.429922155134, -5459.547693675482, -21835.03917873373, -14745.803445077354, -187500.02235174447, -32706.480646905977, 0.04557138037774712, 0.985191288636066, -0.058851079950109124, 192.0, 0.0, 0.0, 0.0, 0.0, 0.0, 0.0, 0.0, 0.0, 0.0, 1.742503295849033E9, 0.0, 2025-03-20 15:41:35.849
148.0, -14233.970848795278, -31987.46973126766, -35913.844217520265, -9158.984918473354, -15712.002302646913, -9905.644942002886, -22280.08476258335, -29233.332482973634, -3299.8997926592583, -13480.247674017868, -11623.510613859966, -5441.845112066879, -21830.077091464653, -14725.128081456196, -187500.02235174447, -32695.818864800796, 0.04557138037774712, 0.985191288636066, -0.058851079950109124, 192.0, 0.0, 0.0, 0.0, 0.0, 0.0, 0.0, 0.0, 0.0, 0.0, 1.742503295849191E9, 0.0, 2025-03-20 15:41:35.849
150.0, -14218.279924187653, -31987.46973126766, -35932.865552051735, -9166.562159843703, -15731.694189512038, -9914.58563978501, -22292.93701564515, -29246.07297731316, -3318.5411475349842, -13488.674281677519, -11637.435750655623, -5450.159961004253, -21846.505623639303, -14724.256363422439, -187500.02235174447, -32690.275632175882, 0.04478569018887356, 0.9855956443180329, -0.05742553997505456, 192.0, 0.5, 48.0, 15.0, 104.0, 127.0, 32.0, 0.0, 0.0, 0.0, 1.742503295849368E9, 0.0, 2025-03-20 15:41:35.849
152.0, -14241.72690412127, -32003.987670420134, -35928.84223804978, -9167.590340088647, -15719.266619594888, -9916.485538063711, -22281.649384695218, -29246.050625568703, -3324.5761185379174, -13498.866677149139, -11644.230680970035, -5457.089001785398, -21864.65524013701, -14735.655753094645, -187500.02235174447, -32699.305736935825, 0.04478569018887356, 0.9855956443180329, -0.05742553997505456, 192.0, 0.0, 0.0, 0.0, 0.0, 0.0, 0.0, 0.0, 0.0, 0.0, 1.742503295908517E9, 0.0, 2025-03-20 15:41:35.908
154.0, -14230.14870049342, -32001.81955120797, -35922.4272873911, -9170.116087212096, -15714.0586631368, -9921.425273588333, -22278.587195704844, -29240.417985965967, -3325.51489180504, -13502.375901028623, -11641.392009424211, -5460.486466942605, -21857.189757488937, -14742.137758986684, -187500.02235174447, -32698.545777624346, 0.04478569018887356, 0.9855956443180329, -0.05742553997505456, 192.0, 0.0, 0.0, 0.0, 0.0, 0.0, 0.0, 0.0, 0.0, 0.0, 1.742503295908704E9, 0.0, 2025-03-20 15:41:35.908
156.0, -14243.872671588979, -32012.682499013248, -35922.8296187913, -9173.58060760267, -15716.964389915991, -9931.282392893123, -22283.437524251643, -29250.342160504122, -3317.065932400934, -13509.014369131848, -11637.458102400078, -5462.676937899225, -21860.676629623966, -14752.06193352484, -187500.02235174447, -32702.591443370755, 0.04478569018887356, 0.9855956443180329, -0.05742553997505456, 192.0, 0.0, 0.0, 0.0, 0.0, 0.0, 0.0, 0.0, 0.0, 0.0, 1.742503295908886E9, 0.0, 2025-03-20 15:41:35.908
158.0, -14228.897002803924, -31995.270490082563, -35896.20869114503, -9154.447514348927, -15710.080052623756, -9920.732369510219, -22273.826274135863, -29240.06035805468, -3326.7889412389927, -13508.790851687296, -11634.664134343164, -5463.325138488429, -21845.18687071644, -14755.191177748584, -187500.02235174447, -32694.343649666745, 0.04478569018887356, 0.9855956443180329, -0.05742553997505456, 192.0, 0.0, 0.0, 0.0, 0.0, 0.0, 0.0, 0.0, 0.0, 0.0, 1.742503295909051E9, 0.0, 2025-03-20 15:41:35.909
160.0, -14219.53162187715, -31997.080981383442, -35904.21061566003, -9163.164694686497, -15701.96636938648, -9924.53216606762, -22276.061448581393, -29247.816413380675, -3295.9658856351243, -13506.689787708496, -11619.934334747117, -5450.294071470985, -21838.704864824398, -14749.87146256822, -187500.02235174447, -32688.95687925302, 0.04639284509443678, 0.9827978221590165, -0.05571276998752728, 192.0, 0.5, 64.0, 15.0, 80.0, 127.0, 40.0, 0.0, 0.0, 0.0, 1.742503295909213E9, 0.0, 2025-03-20 15:41:35.909
162.0, -14235.267249973685, -31998.377382561852, -35896.96865045651, -9151.832360247656, -15697.876000151158, -9912.283410106113, -22269.78060838945, -29235.21002950788, -3313.2661358435316, -13505.661607463553, -11630.193785452102, -5455.904359329267, -21844.158690471493, -14754.118294014728, -187500.02235174447, -32690.5662048538, 0.04639284509443678, 0.9827978221590165, -0.05571276998752728, 192.0, 0.0, 0.0, 0.0, 0.0, 0.0, 0.0, 0.0, 0.0, 0.0, 1.742503295909399E9, 0.0, 2025-03-20 15:41:35.909
164.0, -14219.978656766256, -32003.67474599776, -35905.104685438244, -9163.835247020155, -15698.412442018085, -9926.365009112957, -22272.909852613193, -29243.480174956345, -3302.1573188492443, -13502.644121962087, -11624.069407471348, -5448.640042381292, -21838.950734013408, -14743.635325865189, -187500.02235174447, -32690.163873453603, 0.04639284509443678, 0.9827978221590165, -0.05571276998752728, 192.0, 0.0, 0.0, 0.0, 0.0, 0.0, 0.0, 0.0, 0.0, 0.0, 1.742503295909548E9, 0.0, 2025-03-20 15:41:35.909
166.0, -14252.679258904369, -32013.24129262463, -35908.68096455109, -9165.735145298857, -15709.834183434748, -9924.979200956726, -22273.401590991212, -29242.69786390041, -3315.344848077875, -13506.91330515305, -11635.468797143556, -5457.021946552032, -21835.32975141165, -14756.576985904812, -187500.02235174447, -32701.451504403536, 0.04639284509443678, 0.9827978221590165, -0.05571276998752728, 192.0, 0.0, 0.0, 0.0, 0.0, 0.0, 0.0, 0.0, 0.0, 0.0, 1.742503295967942E9, 0.0, 2025-03-20 15:41:35.967
168.0, -14225.611296368992, -32013.28599611354, -35926.45060139306, -9182.476601895882, -15706.324959555264, -9930.433026603821, -22293.853437167818, -29261.182756564947, -3319.614031268839, -13525.062921650759, -11644.990640281516, -5469.404812980272, -21854.66401036549, -14759.840340595287, -187500.02235174447, -32706.346536439247, 0.04639284509443678, 0.9827978221590165, -0.05571276998752728, 192.0, 0.0, 0.0, 0.0, 0.0, 0.0, 0.0, 0.0, 0.0, 0.0, 1.742503295968134E9, 0.0, 2025-03-20 15:41:35.968
170.0, -14261.128218308475, -32017.219903137673, -35917.82282803331, -9175.14522971454, -15708.20250608951, -9920.017113687649, -22270.07118106737, -29244.39659647901, -3322.162130136744, -13512.903572667072, -11648.030477527438, -5471.1482490477865, -21846.080940494652, -14760.332078973304, -187500.02235174447, -32710.70512660803, 0.044196422547218395, 0.9813989110795083, -0.054856384993763635, 192.0, 0.5, 40.0, 15.0, 80.0, 127.0, 40.0, 0.0, 0.0, 0.0, 1.7425032959683E9, 0.0, 2025-03-20 15:41:35.968
172.0, -14212.513174118183, -31999.29380408452, -35928.43990664958, -9178.296825682739, -15699.820601918771, -9935.037485961615, -22275.904986370206, -29254.968971606373, -3313.5343567769955, -13507.762671442351, -11639.715628590064, -5461.089964042898, -21846.729141083855, -14752.285450969393, -187500.02235174447, -32700.557434625323, 0.044196422547218395, 0.9813989110795083, -0.054856384993763635, 192.0, 0.0, 0.0, 0.0, 0.0, 0.0, 0.0, 0.0, 0.0, 0.0, 1.742503295968487E9, 0.0, 2025-03-20 15:41:35.968
174.0, -14260.278852019173, -32008.122743144366, -35926.91998802662, -9172.731241313368, -15724.809852219803, -9926.230898646225, -22281.582329461853, -29250.476270970856, -3323.614993526339, -13509.506107509866, -11646.421151926656, -5465.157981533764, -21866.75630411581, -14751.279622468905, -187500.02235174447, -32701.250338703438, 0.044196422547218395, 0.9813989110795083, -0.054856384993763635, 192.0, 0.0, 0.0, 0.0, 0.0, 0.0, 0.0, 0.0, 0.0, 0.0, 1.742503295968657E9, 0.0, 2025-03-20 15:41:35.968
176.0, -14202.320778646563, -31982.798216676503, -35916.90640651064, -9163.142342942041, -15701.92166589757, -9923.526337567131, -22275.659117181196, -29247.7046546584, -3311.7015137316603, -13498.66551144904, -11634.68648608762, -5448.9082633147555, -21851.735931841842, -14743.523567142913, -187500.02235174447, -32698.590481113257, 0.044196422547218395, 0.9813989110795083, -0.054856384993763635, 192.0, 0.0, 0.0, 0.0, 0.0, 0.0, 0.0, 0.0, 0.0, 0.0, 1.742503295968822E9, 0.0, 2025-03-20 15:41:35.968
178.0, -14266.246767788742, -32006.692231499226, -35916.5264268549, -9159.297842895729, -15718.39490156113, -9925.001552701182, -22278.140160815736, -29242.608456922586, -3333.360354108853, -13503.068805106737, -11644.297736203402, -5453.825647094924, -21848.159652728995, -14749.089151512284, -187500.02235174447, -32696.914100279108, 0.044196422547218395, 0.9813989110795083, -0.054856384993763635, 192.0, 0.0, 0.0, 0.0, 0.0, 0.0, 0.0, 0.0, 0.0, 0.0, 1.742503295968991E9, 0.0, 2025-03-20 15:41:35.968
180.0, -14197.693967544314, -31981.18889107572, -35903.6741737931, -9157.308537639206, -15702.68162520905, -9919.681837520819, -22286.32089928638, -29249.895125615018, -3308.9746009081127, -13492.518781723831, -11628.316238917856, -5440.3922486772835, -21851.668876608477, -14739.321439185314, -187500.02235174447, -32685.291193162346, 0.0470982112736092, 0.9766994555397541, -0.056428192496881815, 192.0, 0.5, 72.0, 15.0, 48.0, 127.0, 24.0, 0.0, 0.0, 0.0, 1.742503295969153E9, 0.0, 2025-03-20 15:41:35.969
182.0, -14261.128218308475, -32007.38513557734, -35900.34376386926, -9153.464037592894, -15712.382282302653, -9913.95979094026, -22273.3568875023, -29238.518087687266, -3317.4682638011295, -13499.313712038245, -11633.792416309407, -5447.678917369713, -21860.22959473486, -14749.022096278919, -187500.02235174447, -32688.107512963717, 0.0470982112736092, 0.9766994555397541, -0.056428192496881815, 192.0, 0.0, 0.0, 0.0, 0.0, 0.0, 0.0, 0.0, 0.0, 0.0, 1.742503296029101E9, 0.0, 2025-03-20 15:41:36.029
184.0, -14205.271208914663, -31989.391981290817, -35899.40499060214, -9159.566063829192, -15696.937226884036, -9922.229936388723, -22284.197483563126, -29244.620113923564, -3314.160205621744, -13502.353549284167, -11630.35024766329, -5447.74597260308, -21854.03816152074, -14745.334058443792, -187500.02235174447, -32689.38156239767, 0.0470982112736092, 0.9766994555397541, -0.056428192496881815, 192.0, 0.0, 0.0, 0.0, 0.0, 0.0, 0.0, 0.0, 0.0, 0.0, 1.742503296029295E9, 0.0, 2025-03-20 15:41:36.029
186.0, -14255.741447894747, -32006.781638477045, -35886.06099916232, -9151.295918380729, -15697.71953793997, -9902.359235567956, -22262.337477485835, -29230.247942238802, -3314.1155021328336, -13504.208744073958, -11628.740922062509, -5449.757629604057, -21839.509527624792, -14746.563404388835, -187500.02235174447, -32693.538986866355, 0.0470982112736092, 0.9766994555397541, -0.056428192496881815, 192.0, 0.0, 0.0, 0.0, 0.0, 0.0, 0.0, 0.0, 0.0, 0.0, 1.742503296029449E9, 0.0, 2025-03-20 15:41:36.029
188.0, -14198.252761155696, -31987.693248712214, -35900.65668829164, -9167.299767410728, -15687.191866301522, -9924.710980023263, -22280.442390494634, -29245.625942424052, -3291.4284815106967, -13500.252485305367, -11613.564087577353, -5442.158036489253, -21829.31713215317, -14737.91327928463, -187500.02235174447, -32689.292155419847, 0.0470982112736092, 0.9766994555397541, -0.056428192496881815, 192.0, 0.0, 0.0, 0.0, 0.0, 0.0, 0.0, 0.0, 0.0, 0.0, 1.742503296029604E9, 0.0, 2025-03-20 15:41:36.029
190.0, -14257.596642684537, -32011.67667051276, -35914.98415648749, -9178.229770449374, -15703.262770564888, -9932.82466326054, -22279.414210249688, -29251.83972738263, -3302.872574671814, -13522.157194871568, -11628.96443950706, -5458.7653826195465, -21833.251039177303, -14760.577948162312, -187500.02235174447, -32710.056926018828, 0.0445491056368046, 0.979349727769877, -0.05521409624844091, 192.0, 0.5, 40.0, 15.0, 88.0, 127.0, 40.0, 0.0, 0.0, 0.0, 1.742503296029763E9, 0.0, 2025-03-20 15:41:36.029
192.0, -14216.268267186675, -31993.57175750396, -35929.80336306136, -9186.67872985348, -15694.970273371968, -9943.68761106582, -22293.182884834157, -29250.275105270757, -3307.208813096144, -13508.969665642939, -11635.558204121377, -5461.1123157873535, -21828.98185598634, -14757.15813126065, -187500.02235174447, -32716.829504588786, 0.0445491056368046, 0.979349727769877, -0.05521409624844091, 192.0, 0.0, 0.0, 0.0, 0.0, 0.0, 0.0, 0.0, 0.0, 0.0, 1.742503296029941E9, 0.0, 2025-03-20 15:41:36.029
194.0, -14253.707439149313, -32004.591167520426, -35917.44284837757, -9177.067479737698, -15688.53297096884, -9930.477730092733, -22270.853492123308, -29224.704709613885, -3312.327362576409, -13513.797642445285, -11637.279288444435, -5462.967510577144, -21841.118853225573, -14755.794674848876, -187500.02235174447, -32713.543798153856, 0.0445491056368046, 0.979349727769877, -0.05521409624844091, 192.0, 0.0, 0.0, 0.0, 0.0, 0.0, 0.0, 0.0, 0.0, 0.0, 1.74250329603011E9, 0.0, 2025-03-20 15:41:36.030
196.0, -14213.116671218477, -31989.257870824087, -35916.77229604391, -9183.124802485085, -15695.596122216717, -9929.002514958682, -22274.78739914744, -29228.236285237825, -3323.2797173595095, -13507.941485397994, -11636.944012277605, -5462.31930998794, -21841.990571259328, -14749.938517801585, -187500.02235174447, -32699.305736935825, 0.0445491056368046, 0.979349727769877, -0.05521409624844091, 192.0, 0.0, 0.0, 0.0, 0.0, 0.0, 0.0, 0.0, 0.0, 0.0, 1.742503296089466E9, 0.0, 2025-03-20 15:41:36.089
198.0, -14234.551994151116, -31996.81276044998, -35915.654708821145, -9178.00625300482, -15697.138392584133, -9920.799424743584, -22265.444369965124, -29214.15468623098, -3301.5985252378614, -13507.71796795344, -11629.925564518639, -5462.431068710216, -21837.296704923716, -14750.363200946236, -187500.02235174447, -32699.99864101394, 0.0445491056368046, 0.979349727769877, -0.05521409624844091, 192.0, 0.0, 0.0, 0.0, 0.0, 0.0, 0.0, 0.0, 0.0, 0.0, 1.742503296089697E9, 0.0, 2025-03-20 15:41:36.089
200.0, -14203.125441446953, -31983.602879476894, -35918.739249555976, -9175.189933203452, -15693.897389638114, -9926.767340513152, -22272.775742146463, -29221.530761901235, -3306.650019484761, -13494.508086980355, -11625.5446226054, -5458.0054233080655, -21838.66016133549, -14739.29908744086, -187500.02235174447, -32684.084198961762, 0.0422745528184023, 0.9806748638849385, -0.057607048124220454, 192.0, 0.5, 32.0, 15.0, 88.0, 127.0, 16.0, 0.0, 0.0, 0.0, 1.742503296089852E9, 0.0, 2025-03-20 15:41:36.089
202.0, -14223.644342856926, -31993.035315637033, -35910.73732504098, -9167.120953455085, -15700.468802507974, -9915.613820029954, -22266.94193684363, -29212.902988541486, -3313.444949799174, -13507.807374931263, -11627.06454122836, -5463.593359421892, -21852.250021964315, -14746.87632881121, -187500.02235174447, -32687.302850163323, 0.0422745528184023, 0.9806748638849385, -0.057607048124220454, 192.0, 0.0, 0.0, 0.0, 0.0, 0.0, 0.0, 0.0, 0.0, 0.0, 1.742503296090029E9, 0.0, 2025-03-20 15:41:36.090
204.0, -14197.24693265521, -31973.142263071808, -35898.667383035114, -9149.485427079848, -15690.410517503085, -9899.76643321114, -22262.471587952565, -29207.20329370538, -3311.410941053741, -13492.854057890661, -11614.279343399923, -5452.775115105524, -21836.201469445405, -14732.213584448527, -187500.02235174447, -32669.510861576902, 0.0422745528184023, 0.9806748638849385, -0.057607048124220454, 192.0, 0.0, 0.0, 0.0, 0.0, 0.0, 0.0, 0.0, 0.0, 0.0, 1.742503296090182E9, 0.0, 2025-03-20 15:41:36.090
206.0, -14209.450985127805, -31988.699077212703, -35909.44092386257, -9162.29297665274, -15693.718575682471, -9917.983104942216, -22276.508483470498, -29212.947692030397, -3306.0241706400125, -13490.998863100871, -11609.138442175203, -5449.869388326334, -21835.061530478186, -14727.787939046377, -187500.02235174447, -32671.008428455407, 0.0422745528184023, 0.9806748638849385, -0.057607048124220454, 192.0, 0.0, 0.0, 0.0, 0.0, 0.0, 0.0, 0.0, 0.0, 0.0, 1.742503296090344E9, 0.0, 2025-03-20 15:41:36.090
208.0, -14204.66771181437, -31979.892489897313, -35880.18249037057, -9143.47280782137, -15678.608796430684, -9901.085186134003, -22253.84381459282, -29206.085706482616, -3307.4323305406965, -13493.926941624517, -11606.053901440371, -5452.909225572255, -21837.27435317926, -14728.950229758053, -187500.02235174447, -32668.080349931763, 0.0422745528184023, 0.9806748638849385, -0.057607048124220454, 192.0, 0.0, 0.0, 0.0, 0.0, 0.0, 0.0, 0.0, 0.0, 0.0, 1.74250329609049E9, 0.0, 2025-03-20 15:41:36.090
210.0, -14207.416976382374, -31991.96243190318, -35899.4720458355, -9161.354203385616, -15689.739965169427, -9930.857709748472, -22273.26748052448, -29216.993357776806, -3299.4974612590627, -13497.05618584826, -11599.415433337144, -5447.9694900476325, -21835.217992689373, -14727.318552412815, -187500.02235174447, -32670.60609705521, 0.04313727640920115, 0.9793374319424692, -0.05880352406211023, 192.0, 0.5, 48.0, 15.0, 72.0, 127.0, 16.0, 0.0, 0.0, 0.0, 1.74250329609064E9, 0.0, 2025-03-20 15:41:36.090
212.0, -14224.538412635138, -31989.99547839111, -35888.65380151913, -9153.039354448241, -15685.694299423016, -9916.798462486084, -22257.621259405765, -29215.004052520282, -3312.0814933874008, -13505.527496996821, -11609.116090430749, -5458.452458197172, -21838.32488516866, -14737.332133928792, -187500.02235174447, -32677.490434347445, 0.04313727640920115, 0.9793374319424692, -0.05880352406211023, 192.0, 0.0, 0.0, 0.0, 0.0, 0.0, 0.0, 0.0, 0.0, 0.0, 1.742503296148178E9, 0.0, 2025-03-20 15:41:36.148
