%OpenBCI Raw EXG Data
%Number of channels = 8
%Sample Rate = 250 Hz
%Board = OpenBCI_GUI$BoardCytonSerial
Sample Index, EXG Channel 0, EXG Channel 1, EXG Channel 2, EXG Channel 3, EXG Channel 4, EXG Channel 5, EXG Channel 6, EXG Channel 7, Accel Channel 0, Accel Channel 1, Accel Channel 2, Not Used, Digital Channel 0 (D11), Digital Channel 1 (D12), Digital Channel 2 (D13), Digital Channel 3 (D17), Not Used, Digital Channel 4 (D18), Analog Channel 0, Analog Channel 1, Analog Channel 2, Timestamp, Marker Channel, Timestamp (Formatted)
88.0, 187500.0, 12090.080927620045, 35142.50786811207, -187500.02235174447, -187500.02235174447, 10095.545362895175, -16832.495252191457, 4870.690986000417, 0.0, 0.0, 0.0, 192.0, 0.0, 0.0, 0.0, 0.0, 0.0, 0.0, 0.0, 0.0, 0.0, 1.741476813863676E9, 0.0, 2025-03-08 17:33:33.863
89.0, 187500.0, 12076.647529202406, 35137.81400177646, -187500.02235174447, -187500.02235174447, 10097.914647807438, -16829.298952734345, 4876.234218625334, 0.0, 0.0, 0.0, 192.0, 0.0, 0.0, 0.0, 0.0, 0.0, 0.0, 0.0, 0.0, 0.0, 1.741476813863717E9, 0.0, 2025-03-08 17:33:33.863
90.0, 187500.0, 12065.605767441484, 35136.182324431225, -187500.02235174447, -187500.02235174447, 10091.454993659854, -16827.108481777726, 4877.865895970571, 0.0, 0.0, 0.0, 192.0, 0.0, 0.0, 0.0, 0.0, 0.0, 0.0, 0.0, 0.0, 0.0, 1.741476813863766E9, 0.0, 2025-03-08 17:33:33.863
91.0, 187500.0, 12072.244235544711, 35135.77999303103, -187500.02235174447, -187500.02235174447, 10096.640598373486, -16840.832452873285, 4867.897017943504, -0.224, 0.932, 0.22, 192.0, 249.0, 0.0, 29.0, 32.0, 6.0, 224.0, 0.0, 0.0, 0.0, 1.7414768138638E9, 0.0, 2025-03-08 17:33:33.863
92.0, 187500.0, 12087.510477007685, 35147.224086192145, -187500.02235174447, -187500.02235174447, 10095.47830766181, -16843.067627318815, 4860.789163206717, -0.224, 0.932, 0.22, 192.0, 0.0, 0.0, 0.0, 0.0, 0.0, 0.0, 0.0, 0.0, 0.0, 1.74147681386383E9, 0.0, 2025-03-08 17:33:33.863
93.0, 187500.0, 12079.262683303677, 35148.9451705152, -187500.02235174447, -187500.02235174447, 10099.211048985846, -16829.589525412266, 4869.238122610823, -0.224, 0.932, 0.22, 192.0, 0.0, 0.0, 0.0, 0.0, 0.0, 0.0, 0.0, 0.0, 0.0, 1.741476813863863E9, 0.0, 2025-03-08 17:33:33.863
94.0, 187500.0, 12067.080982575535, 35149.1463362153, -187500.02235174447, -187500.02235174447, 10102.3849966985, -16819.933571807574, 4883.498535573308, -0.224, 0.932, 0.22, 192.0, 0.0, 0.0, 0.0, 0.0, 0.0, 0.0, 0.0, 0.0, 0.0, 1.741476813863891E9, 0.0, 2025-03-08 17:33:33.863
95.0, 187500.0, 12071.528979722141, 35151.895600783304, -187500.02235174447, -187500.02235174447, 10100.149822252968, -16825.007417798926, 4881.285712872233, -0.224, 0.932, 0.22, 192.0, 0.0, 0.0, 0.0, 0.0, 0.0, 0.0, 0.0, 0.0, 0.0, 1.741476813863924E9, 0.0, 2025-03-08 17:33:33.863
96.0, 187500.0, 12083.554218239096, 35152.54380137251, -187500.02235174447, -187500.02235174447, 10094.316016950133, -16822.19109799756, 4876.122459903057, -0.224, 0.932, 0.22, 192.0, 0.0, 0.0, 0.0, 0.0, 0.0, 0.0, 0.0, 0.0, 0.0, 1.741476813863951E9, 0.0, 2025-03-08 17:33:33.863
97.0, 187500.0, 12083.554218239096, 35150.46508913816, -187500.02235174447, -187500.02235174447, 10107.61530490104, -16811.082281003273, 4886.046634441213, -0.224, 0.932, 0.22, 192.0, 0.0, 0.0, 0.0, 0.0, 0.0, 0.0, 0.0, 0.0, 0.0, 1.741476813863978E9, 0.0, 2025-03-08 17:33:33.863
98.0, 187500.0, 12066.902168619892, 35142.105536711875, -187500.02235174447, -187500.02235174447, 10112.599743914574, -16811.842240314752, 4889.421747853965, -0.224, 0.932, 0.22, 192.0, 0.0, 0.0, 0.0, 0.0, 0.0, 0.0, 0.0, 0.0, 0.0, 1.741476813864004E9, 0.0, 2025-03-08 17:33:33.864
99.0, 187500.0, 12068.62325294295, 35141.85966752287, -187500.02235174447, -187500.02235174447, 10109.112871779547, -16820.84999333024, 4886.292503630221, -0.224, 0.932, 0.22, 192.0, 0.0, 0.0, 0.0, 0.0, 0.0, 0.0, 0.0, 0.0, 0.0, 1.741476813864031E9, 0.0, 2025-03-08 17:33:33.864
100.0, 187500.0, 12082.816610672071, 35143.49134486811, -187500.02235174447, -187500.02235174447, 10108.867002590538, -16825.923839321596, 4882.939741961925, -0.222, 0.934, 0.218, 192.0, 249.0, 16.0, 29.0, 48.0, 6.0, 208.0, 0.0, 0.0, 0.0, 1.741476813864065E9, 0.0, 2025-03-08 17:33:33.864
101.0, 187500.0, 12087.152849096401, 35145.793574547, -187500.02235174447, -187500.02235174447, 10101.870906576027, -16820.648827630142, 4880.972788449859, -0.222, 0.934, 0.218, 192.0, 0.0, 0.0, 0.0, 0.0, 0.0, 0.0, 0.0, 0.0, 0.0, 1.741476813864094E9, 0.0, 2025-03-08 17:33:33.864
102.0, 187500.0, 12067.05863083108, 35133.231894163124, -187500.02235174447, -187500.02235174447, 10102.519107165232, -16822.884002075672, 4878.11176515958, -0.222, 0.934, 0.218, 192.0, 0.0, 0.0, 0.0, 0.0, 0.0, 0.0, 0.0, 0.0, 0.0, 1.741476813864122E9, 0.0, 2025-03-08 17:33:33.864
103.0, 187500.0, 12071.931311122336, 35130.41557436175, -187500.02235174447, -187500.02235174447, 10105.961275811349, -16837.502042949443, 4877.128288403545, -0.222, 0.934, 0.218, 192.0, 0.0, 0.0, 0.0, 0.0, 0.0, 0.0, 0.0, 0.0, 0.0, 1.741476813864149E9, 0.0, 2025-03-08 17:33:33.864
104.0, 187500.0, 12089.477430519752, 35139.57978958843, -187500.02235174447, -187500.02235174447, 10106.14008976699, -16841.503005206945, 4881.688044272429, -0.222, 0.934, 0.218, 192.0, 0.0, 0.0, 0.0, 0.0, 0.0, 0.0, 0.0, 0.0, 0.0, 1.741476813864183E9, 0.0, 2025-03-08 17:33:33.864
105.0, 187500.0, 12091.556142754096, 35144.22895243513, -187500.02235174447, -187500.02235174447, 10098.205220485357, -16824.38156895418, 4884.996102451814, -0.222, 0.934, 0.218, 192.0, 0.0, 0.0, 0.0, 0.0, 0.0, 0.0, 0.0, 0.0, 0.0, 1.741476813864215E9, 0.0, 2025-03-08 17:33:33.864
0.0, 0.0, 0.0, 0.0, 0.0, 0.0, 0.0, 0.0, 0.0, -0.23, 0.93, 0.228, 192.0, 248.0, 208.0, 29.0, 16.0, 7.0, 32.0, 0.0, 0.0, 0.0, 1.741476813953862E9, 0.0, 2025-03-08 17:33:33.953
1.0, 187500.0, 11492.75290879642, 34895.31992618083, -187500.02235174447, -187500.02235174447, 10144.138055341013, -16774.783048007852, 4745.498865306243, -0.23, 0.93, 0.228, 192.0, 0.0, 0.0, 0.0, 0.0, 0.0, 0.0, 0.0, 0.0, 0.0, 1.741476814014362E9, 0.0, 2025-03-08 17:33:34.014
2.0, 187500.0, 11491.970597740485, 34894.917594780636, -187500.02235174447, -187500.02235174447, 10142.729895440329, -16785.400126624125, 4737.6534030024295, -0.23, 0.93, 0.228, 192.0, 0.0, 0.0, 0.0, 0.0, 0.0, 0.0, 0.0, 0.0, 0.0, 1.741476814014402E9, 0.0, 2025-03-08 17:33:34.014
3.0, 187500.0, 11500.933647267062, 34897.80096981537, -187500.02235174447, -187500.02235174447, 10136.650220948484, -16781.913254489096, 4730.813769199106, -0.23, 0.93, 0.228, 192.0, 0.0, 0.0, 0.0, 0.0, 0.0, 0.0, 0.0, 0.0, 0.0, 1.741476814014457E9, 0.0, 2025-03-08 17:33:34.014
4.0, 187500.0, 11506.879211292173, 34901.62311811723, -187500.02235174447, -187500.02235174447, 10130.659953434462, -16770.357402605703, 4724.778798196173, -0.23, 0.93, 0.228, 192.0, 0.0, 0.0, 0.0, 0.0, 0.0, 0.0, 0.0, 0.0, 0.0, 1.741476814014491E9, 0.0, 2025-03-08 17:33:34.014
5.0, 187500.0, 11481.018242957383, 34884.769902797925, -187500.02235174447, -187500.02235174447, 10132.537499968708, -16779.07458294327, 4722.610678984008, -0.23, 0.93, 0.228, 192.0, 0.0, 0.0, 0.0, 0.0, 0.0, 0.0, 0.0, 0.0, 0.0, 1.741476814014518E9, 0.0, 2025-03-08 17:33:34.014
6.0, 187500.0, 11482.918141236085, 34891.47542613452, -187500.02235174447, -187500.02235174447, 10138.259546549267, -16772.346707862223, 4722.342458050544, -0.23, 0.93, 0.228, 192.0, 0.0, 0.0, 0.0, 0.0, 0.0, 0.0, 0.0, 0.0, 0.0, 1.741476814014545E9, 0.0, 2025-03-08 17:33:34.014
7.0, 187500.0, 11494.22812393047, 34906.24992921948, -187500.02235174447, -187500.02235174447, 10137.72310468234, -16746.016352893872, 4721.917774905894, -0.23, 0.93, 0.228, 192.0, 0.0, 0.0, 0.0, 0.0, 0.0, 0.0, 0.0, 0.0, 0.0, 1.741476814014572E9, 0.0, 2025-03-08 17:33:34.014
8.0, 187500.0, 11500.017225744394, 34909.0886007653, -187500.02235174447, -187500.02235174447, 10134.370343014043, -16751.000791907405, 4718.788530682151, -0.232, 0.928, 0.232, 192.0, 248.0, 192.0, 29.0, 0.0, 7.0, 64.0, 0.0, 0.0, 0.0, 1.741476814014603E9, 0.0, 2025-03-08 17:33:34.014
9.0, 187500.0, 11478.917178978585, 34903.925347796125, -187500.02235174447, -187500.02235174447, 10138.371305271543, -16751.760751218888, 4727.013972641704, -0.232, 0.928, 0.232, 192.0, 0.0, 0.0, 0.0, 0.0, 0.0, 0.0, 0.0, 0.0, 0.0, 1.741476814014639E9, 0.0, 2025-03-08 17:33:34.014
10.0, 187500.0, 11469.328280607258, 34899.589109371795, -187500.02235174447, -187500.02235174447, 10132.984534857815, -16761.282594356846, 4719.146158593436, -0.232, 0.928, 0.232, 192.0, 0.0, 0.0, 0.0, 0.0, 0.0, 0.0, 0.0, 0.0, 0.0, 1.741476814014666E9, 0.0, 2025-03-08 17:33:34.014
11.0, 187500.0, 11484.080431947761, 34904.99823152998, -187500.02235174447, -187500.02235174447, 10137.790159915705, -16761.506111801402, 4713.669981201885, -0.232, 0.928, 0.232, 192.0, 0.0, 0.0, 0.0, 0.0, 0.0, 0.0, 0.0, 0.0, 0.0, 1.741476814014693E9, 0.0, 2025-03-08 17:33:34.014
12.0, 187500.0, 11497.379719898669, 34909.40152518768, -187500.02235174447, -187500.02235174447, 10132.381037757521, -16752.677172741554, 4715.301658547122, -0.232, 0.928, 0.232, 192.0, 0.0, 0.0, 0.0, 0.0, 0.0, 0.0, 0.0, 0.0, 0.0, 1.74147681401472E9, 0.0, 2025-03-08 17:33:34.014
13.0, 187500.0, 11482.448754602523, 34897.33158318181, -187500.02235174447, -187500.02235174447, 10132.58220345762, -16761.707277501497, 4720.2190423272905, -0.232, 0.928, 0.232, 192.0, 0.0, 0.0, 0.0, 0.0, 0.0, 0.0, 0.0, 0.0, 0.0, 1.741476814014754E9, 0.0, 2025-03-08 17:33:34.014
14.0, 187500.0, 11478.134867922648, 34897.66685934864, -187500.02235174447, -187500.02235174447, 10139.265375049756, -16765.17179789207, 4725.717571463296, -0.232, 0.928, 0.232, 192.0, 0.0, 0.0, 0.0, 0.0, 0.0, 0.0, 0.0, 0.0, 0.0, 1.741476814014782E9, 0.0, 2025-03-08 17:33:34.014
15.0, 187500.0, 11489.757775039408, 34898.24800470448, -187500.02235174447, -187500.02235174447, 10134.057418591668, -16754.51001578689, 4719.548489993631, -0.232, 0.928, 0.232, 192.0, 0.0, 0.0, 0.0, 0.0, 0.0, 0.0, 0.0, 0.0, 0.0, 1.741476814014823E9, 0.0, 2025-03-08 17:33:34.014
16.0, 187500.0, 11505.18047871357, 34903.81358907385, -187500.02235174447, -187500.02235174447, 10131.397561001488, -16759.8073792228, 4702.4941089742315, -0.232, 0.928, 0.232, 192.0, 0.0, 0.0, 0.0, 0.0, 0.0, 0.0, 0.0, 0.0, 0.0, 1.741476814073913E9, 0.0, 2025-03-08 17:33:34.073
17.0, 187500.0, 11494.876324519673, 34902.874815806725, -187500.02235174447, -187500.02235174447, 10137.05255234868, -16755.717009987475, 4701.532983962654, -0.232, 0.928, 0.232, 192.0, 0.0, 0.0, 0.0, 0.0, 0.0, 0.0, 0.0, 0.0, 0.0, 1.741476814073955E9, 0.0, 2025-03-08 17:33:34.073
18.0, 187500.0, 11487.075565704772, 34904.215920474046, -187500.02235174447, -187500.02235174447, 10149.81539843266, -16748.475044783958, 4715.771045180684, -0.23600000000000002, 0.916, 0.23800000000000002, 192.0, 248.0, 160.0, 28.0, 160.0, 7.0, 112.0, 0.0, 0.0, 0.0, 1.741476814074004E9, 0.0, 2025-03-08 17:33:34.074
19.0, 187500.0, 11493.26699891889, 34903.500664651474, -187500.02235174447, -187500.02235174447, 10147.58022398713, -16764.83652172524, 4712.93237363486, -0.23600000000000002, 0.916, 0.23800000000000002, 192.0, 0.0, 0.0, 0.0, 0.0, 0.0, 0.0, 0.0, 0.0, 0.0, 1.741476814074041E9, 0.0, 2025-03-08 17:33:34.074
20.0, 187500.0, 11501.067757733794, 34901.489007650496, -187500.02235174447, -187500.02235174447, 10138.639526205006, -16773.84427474073, 4700.996542095726, -0.23600000000000002, 0.916, 0.23800000000000002, 192.0, 0.0, 0.0, 0.0, 0.0, 0.0, 0.0, 0.0, 0.0, 0.0, 1.741476814074068E9, 0.0, 2025-03-08 17:33:34.074
21.0, 187500.0, 11497.290312920846, 34900.10319949427, -187500.02235174447, -187500.02235174447, 10135.018543603248, -16774.492475329935, 4701.309466518101, -0.23600000000000002, 0.916, 0.23800000000000002, 192.0, 0.0, 0.0, 0.0, 0.0, 0.0, 0.0, 0.0, 0.0, 0.0, 1.741476814074094E9, 0.0, 2025-03-08 17:33:34.074
22.0, 187500.0, 11478.98423421195, 34895.118760480735, -187500.02235174447, -187500.02235174447, 10137.968973871348, -16757.482797799446, 4719.012048126704, -0.23600000000000002, 0.916, 0.23800000000000002, 192.0, 0.0, 0.0, 0.0, 0.0, 0.0, 0.0, 0.0, 0.0, 0.0, 1.741476814074121E9, 0.0, 2025-03-08 17:33:34.074
23.0, 187500.0, 11481.13000167966, 34902.65129836217, -187500.02235174447, -187500.02235174447, 10142.95341288488, -16746.284573827335, 4724.041190629147, -0.23600000000000002, 0.916, 0.23800000000000002, 192.0, 0.0, 0.0, 0.0, 0.0, 0.0, 0.0, 0.0, 0.0, 0.0, 1.741476814074147E9, 0.0, 2025-03-08 17:33:34.074
24.0, 187500.0, 11490.048347717327, 34905.98170828602, -187500.02235174447, -187500.02235174447, 10138.10308433808, -16755.94052743203, 4717.246260314734, -0.23600000000000002, 0.916, 0.23800000000000002, 192.0, 0.0, 0.0, 0.0, 0.0, 0.0, 0.0, 0.0, 0.0, 0.0, 1.74147681407418E9, 0.0, 2025-03-08 17:33:34.074
25.0, 187500.0, 11490.651844817621, 34902.673650106626, -187500.02235174447, -187500.02235174447, 10138.550119227186, -16768.971594449475, 4714.362885279999, -0.23600000000000002, 0.916, 0.23800000000000002, 192.0, 0.0, 0.0, 0.0, 0.0, 0.0, 0.0, 0.0, 0.0, 0.0, 1.741476814074206E9, 0.0, 2025-03-08 17:33:34.074
26.0, 187500.0, 11463.561530537789, 34885.7310278095, -187500.02235174447, -187500.02235174447, 10139.488892494308, -16765.194149636525, 4717.067446359092, -0.23600000000000002, 0.916, 0.23800000000000002, 192.0, 0.0, 0.0, 0.0, 0.0, 0.0, 0.0, 0.0, 0.0, 0.0, 1.741476814074233E9, 0.0, 2025-03-08 17:33:34.074
27.0, 187500.0, 11467.115457906182, 34893.24121394649, -187500.02235174447, -187500.02235174447, 10148.831921676627, -16750.97844016295, 4725.941088907849, -0.23600000000000002, 0.916, 0.23800000000000002, 192.0, 0.0, 0.0, 0.0, 0.0, 0.0, 0.0, 0.0, 0.0, 0.0, 1.74147681407426E9, 0.0, 2025-03-08 17:33:34.074
28.0, 187500.0, 11483.208713914004, 34897.2868796929, -187500.02235174447, -187500.02235174447, 10146.328526297633, -16771.69850727302, 4717.4027225259215, -0.23800000000000002, 0.916, 0.23600000000000002, 192.0, 248.0, 144.0, 28.0, 160.0, 7.0, 96.0, 0.0, 0.0, 0.0, 1.741476814074286E9, 0.0, 2025-03-08 17:33:34.074
29.0, 187500.0, 11490.651844817621, 34900.10319949427, -187500.02235174447, -187500.02235174447, 10142.975764629336, -16774.201902652014, 4715.949859136326, -0.23800000000000002, 0.916, 0.23600000000000002, 192.0, 0.0, 0.0, 0.0, 0.0, 0.0, 0.0, 0.0, 0.0, 0.0, 1.741476814074321E9, 0.0, 2025-03-08 17:33:34.074
30.0, 187500.0, 11473.84333298723, 34897.86802504874, -187500.02235174447, -187500.02235174447, 10152.899939167493, -16747.513919772377, 4736.2452431017455, -0.23800000000000002, 0.916, 0.23600000000000002, 192.0, 0.0, 0.0, 0.0, 0.0, 0.0, 0.0, 0.0, 0.0, 0.0, 1.741476814074354E9, 0.0, 2025-03-08 17:33:34.074
31.0, 187500.0, 11473.441001587034, 34901.0866762503, -187500.02235174447, -187500.02235174447, 10152.966994400858, -16751.35841981869, 4733.65244074493, -0.23800000000000002, 0.916, 0.23600000000000002, 192.0, 0.0, 0.0, 0.0, 0.0, 0.0, 0.0, 0.0, 0.0, 0.0, 1.741476814134209E9, 0.0, 2025-03-08 17:33:34.134
32.0, 187500.0, 11485.5109435929, 34907.076943764325, -187500.02235174447, -187500.02235174447, 10159.404296803987, -16750.397294807113, 4733.183054111369, -0.23800000000000002, 0.916, 0.23600000000000002, 192.0, 0.0, 0.0, 0.0, 0.0, 0.0, 0.0, 0.0, 0.0, 0.0, 1.741476814134251E9, 0.0, 2025-03-08 17:33:34.134
33.0, 187500.0, 11497.022091987383, 34912.77663860043, -187500.02235174447, -187500.02235174447, 10155.425686290942, -16744.854062182196, 4722.968306895293, -0.23800000000000002, 0.916, 0.23600000000000002, 192.0, 0.0, 0.0, 0.0, 0.0, 0.0, 0.0, 0.0, 0.0, 0.0, 1.741476814134305E9, 0.0, 2025-03-08 17:33:34.134
34.0, 187500.0, 11472.636338786644, 34895.34227792529, -187500.02235174447, -187500.02235174447, 10148.228424576333, -16757.348687332713, 4722.4542167728205, -0.23800000000000002, 0.916, 0.23600000000000002, 192.0, 0.0, 0.0, 0.0, 0.0, 0.0, 0.0, 0.0, 0.0, 0.0, 1.741476814134333E9, 0.0, 2025-03-08 17:33:34.134
35.0, 187500.0, 11466.020222427873, 34895.29757443638, -187500.02235174447, -187500.02235174447, 10153.078753123136, -16756.991059421427, 4736.625222757486, -0.23800000000000002, 0.916, 0.23600000000000002, 192.0, 0.0, 0.0, 0.0, 0.0, 0.0, 0.0, 0.0, 0.0, 0.0, 1.741476814134366E9, 0.0, 2025-03-08 17:33:34.134
36.0, 187500.0, 11476.346728366225, 34902.15955998416, -187500.02235174447, -187500.02235174447, 10156.431514791431, -16757.03576291034, 4731.46196978831, -0.23800000000000002, 0.916, 0.23600000000000002, 192.0, 0.0, 0.0, 0.0, 0.0, 0.0, 0.0, 0.0, 0.0, 0.0, 1.741476814134394E9, 0.0, 2025-03-08 17:33:34.134
37.0, 187500.0, 11491.009472728905, 34906.27228096393, -187500.02235174447, -187500.02235174447, 10146.194415830902, -16752.632469252643, 4722.476568517276, -0.23800000000000002, 0.916, 0.23600000000000002, 192.0, 0.0, 0.0, 0.0, 0.0, 0.0, 0.0, 0.0, 0.0, 0.0, 1.741476814134421E9, 0.0, 2025-03-08 17:33:34.134
38.0, 187500.0, 11476.145562666126, 34899.23148146051, -187500.02235174447, -187500.02235174447, 10145.680325708428, -16751.872509941164, 4723.3929900399435, -0.234, 0.92, 0.242, 192.0, 248.0, 176.0, 28.0, 192.0, 7.0, 144.0, 0.0, 0.0, 0.0, 1.741476814134448E9, 0.0, 2025-03-08 17:33:34.134
39.0, 187500.0, 11468.635376529142, 34898.04683900438, -187500.02235174447, -187500.02235174447, 10151.2459100778, -16736.94154464502, 4730.098513376536, -0.234, 0.92, 0.242, 192.0, 0.0, 0.0, 0.0, 0.0, 0.0, 0.0, 0.0, 0.0, 0.0, 1.741476814134478E9, 0.0, 2025-03-08 17:33:34.134
40.0, 187500.0, 11480.057117945806, 34904.4394379186, -187500.02235174447, -187500.02235174447, 10154.397506045998, -16725.430396250536, 4730.9031761769265, -0.234, 0.92, 0.242, 192.0, 0.0, 0.0, 0.0, 0.0, 0.0, 0.0, 0.0, 0.0, 0.0, 1.741476814134511E9, 0.0, 2025-03-08 17:33:34.134
41.0, 187500.0, 11496.686815820554, 34911.256719977464, -187500.02235174447, -187500.02235174447, 10152.072924622647, -16735.846309166707, 4722.051885372625, -0.234, 0.92, 0.242, 192.0, 0.0, 0.0, 0.0, 0.0, 0.0, 0.0, 0.0, 0.0, 0.0, 1.741476814134539E9, 0.0, 2025-03-08 17:33:34.134
42.0, 187500.0, 11489.064870961294, 34906.29463270839, -187500.02235174447, -187500.02235174447, 10152.587014745119, -16748.989134906427, 4713.357056779511, -0.234, 0.92, 0.242, 192.0, 0.0, 0.0, 0.0, 0.0, 0.0, 0.0, 0.0, 0.0, 0.0, 1.741476814134567E9, 0.0, 2025-03-08 17:33:34.134
43.0, 187500.0, 11465.640242772131, 34893.66589709114, -187500.02235174447, -187500.02235174447, 10148.20607283188, -16757.79572222182, 4704.528117719665, -0.234, 0.92, 0.242, 192.0, 0.0, 0.0, 0.0, 0.0, 0.0, 0.0, 0.0, 0.0, 0.0, 1.741476814134599E9, 0.0, 2025-03-08 17:33:34.134
44.0, 187500.0, 11475.542065565833, 34896.593975614785, -187500.02235174447, -187500.02235174447, 10153.43638103442, -16739.802567935298, 4716.843928914539, -0.234, 0.92, 0.242, 192.0, 0.0, 0.0, 0.0, 0.0, 0.0, 0.0, 0.0, 0.0, 0.0, 1.741476814134632E9, 0.0, 2025-03-08 17:33:34.134
45.0, 187500.0, 11494.541048352845, 34906.182873986116, -187500.02235174447, -187500.02235174447, 10152.966994400858, -16722.994056104908, 4727.349248808533, -0.234, 0.92, 0.242, 192.0, 0.0, 0.0, 0.0, 0.0, 0.0, 0.0, 0.0, 0.0, 0.0, 1.74147681413466E9, 0.0, 2025-03-08 17:33:34.134
46.0, 187500.0, 11484.41570811459, 34896.61632735924, -187500.02235174447, -187500.02235174447, 10146.574395486641, -16734.773425432853, 4719.593193482541, -0.234, 0.92, 0.242, 192.0, 0.0, 0.0, 0.0, 0.0, 0.0, 0.0, 0.0, 0.0, 0.0, 1.741476814194564E9, 0.0, 2025-03-08 17:33:34.194
47.0, 187500.0, 11455.98428916744, 34874.845728259774, -187500.02235174447, -187500.02235174447, 10143.132226840524, -16752.699524486008, 4708.573783466075, -0.234, 0.92, 0.242, 192.0, 0.0, 0.0, 0.0, 0.0, 0.0, 0.0, 0.0, 0.0, 0.0, 1.741476814194617E9, 0.0, 2025-03-08 17:33:34.194
48.0, 187500.0, 11458.085353146238, 34878.24319341698, -187500.02235174447, -187500.02235174447, 10142.416971017954, -16759.919137945075, 4706.137443320446, -0.226, 0.92, 0.23800000000000002, 192.0, 248.0, 240.0, 28.0, 192.0, 7.0, 112.0, 0.0, 0.0, 0.0, 1.741476814194645E9, 0.0, 2025-03-08 17:33:34.194
49.0, 187500.0, 11474.98327195445, 34891.25190868997, -187500.02235174447, -187500.02235174447, 10148.854273421082, -16748.095065128215, 4717.603888226019, -0.226, 0.92, 0.23800000000000002, 192.0, 0.0, 0.0, 0.0, 0.0, 0.0, 0.0, 0.0, 0.0, 0.0, 1.741476814194696E9, 0.0, 2025-03-08 17:33:34.194
50.0, 187500.0, 11476.793763255331, 34896.28105119241, -187500.02235174447, -187500.02235174447, 10146.574395486641, -16755.89582394312, 4716.821577170083, -0.226, 0.92, 0.23800000000000002, 192.0, 0.0, 0.0, 0.0, 0.0, 0.0, 0.0, 0.0, 0.0, 0.0, 1.741476814194731E9, 0.0, 2025-03-08 17:33:34.194
51.0, 187500.0, 11450.821036198264, 34884.993420242485, -187500.02235174447, -187500.02235174447, 10139.310078538667, -16759.31564084478, 4711.948896878826, -0.226, 0.92, 0.23800000000000002, 192.0, 0.0, 0.0, 0.0, 0.0, 0.0, 0.0, 0.0, 0.0, 0.0, 1.741476814194758E9, 0.0, 2025-03-08 17:33:34.194
52.0, 187500.0, 11456.431324056546, 34888.18971969959, -187500.02235174447, -187500.02235174447, 10146.932023397925, -16741.948335403005, 4732.847777944538, -0.226, 0.92, 0.23800000000000002, 192.0, 0.0, 0.0, 0.0, 0.0, 0.0, 0.0, 0.0, 0.0, 0.0, 1.741476814194785E9, 0.0, 2025-03-08 17:33:34.194
53.0, 187500.0, 11473.5080568204, 34896.12458898123, -187500.02235174447, -187500.02235174447, 10151.827055433638, -16727.799681162796, 4742.280214104679, -0.226, 0.92, 0.23800000000000002, 192.0, 0.0, 0.0, 0.0, 0.0, 0.0, 0.0, 0.0, 0.0, 0.0, 1.741476814194812E9, 0.0, 2025-03-08 17:33:34.194
54.0, 187500.0, 11481.80055401332, 34899.36559192724, -187500.02235174447, -187500.02235174447, 10151.357668800078, -16741.5013005139, 4733.853606445027, -0.226, 0.92, 0.23800000000000002, 192.0, 0.0, 0.0, 0.0, 0.0, 0.0, 0.0, 0.0, 0.0, 0.0, 1.741476814194839E9, 0.0, 2025-03-08 17:33:34.194
55.0, 187500.0, 11457.45950430149, 34894.738780825, -187500.02235174447, -187500.02235174447, 10148.854273421082, -16751.492530285424, 4731.774894210684, -0.226, 0.92, 0.23800000000000002, 192.0, 0.0, 0.0, 0.0, 0.0, 0.0, 0.0, 0.0, 0.0, 0.0, 1.741476814194874E9, 0.0, 2025-03-08 17:33:34.194
56.0, 187500.0, 11453.88322518864, 34894.38115291371, -187500.02235174447, -187500.02235174447, 10146.10500885308, -16757.393390821624, 4726.522234263687, -0.226, 0.92, 0.23800000000000002, 192.0, 0.0, 0.0, 0.0, 0.0, 0.0, 0.0, 0.0, 0.0, 0.0, 1.741476814194901E9, 0.0, 2025-03-08 17:33:34.194
57.0, 187500.0, 11465.953167194506, 34899.14207448269, -187500.02235174447, -187500.02235174447, 10148.429590276432, -16754.755884975897, 4732.6019087555305, -0.226, 0.92, 0.23800000000000002, 192.0, 0.0, 0.0, 0.0, 0.0, 0.0, 0.0, 0.0, 0.0, 0.0, 1.741476814194928E9, 0.0, 2025-03-08 17:33:34.194
58.0, 187500.0, 11477.911350478096, 34903.14303674019, -187500.02235174447, -187500.02235174447, 10141.165273328457, -16748.989134906427, 4729.070333131592, -0.224, 0.926, 0.232, 192.0, 249.0, 0.0, 28.0, 240.0, 7.0, 64.0, 0.0, 0.0, 0.0, 1.741476814194955E9, 0.0, 2025-03-08 17:33:34.194
59.0, 187500.0, 11458.442981057524, 34895.76696106994, -187500.02235174447, -187500.02235174447, 10145.836787919616, -16737.99207663442, 4733.451275044832, -0.224, 0.926, 0.232, 192.0, 0.0, 0.0, 0.0, 0.0, 0.0, 0.0, 0.0, 0.0, 0.0, 1.74147681419499E9, 0.0, 2025-03-08 17:33:34.194
60.0, 187500.0, 11458.577091524256, 34897.75626632646, -187500.02235174447, -187500.02235174447, 10152.117628111557, -16723.150518316095, 4741.162626881913, -0.224, 0.926, 0.232, 192.0, 0.0, 0.0, 0.0, 0.0, 0.0, 0.0, 0.0, 0.0, 0.0, 1.741476814195017E9, 0.0, 2025-03-08 17:33:34.195
61.0, 187500.0, 11468.523617806866, 34901.10902799476, -187500.02235174447, -187500.02235174447, 10148.67545946544, -16735.443977766514, 4735.351173323533, -0.224, 0.926, 0.232, 192.0, 0.0, 0.0, 0.0, 0.0, 0.0, 0.0, 0.0, 0.0, 0.0, 1.741476814254785E9, 0.0, 2025-03-08 17:33:34.254
62.0, 187500.0, 11478.827772000763, 34903.07598150682, -187500.02235174447, -187500.02235174447, 10144.62979371903, -16751.894861685618, 4728.578594753575, -0.224, 0.926, 0.232, 192.0, 0.0, 0.0, 0.0, 0.0, 0.0, 0.0, 0.0, 0.0, 0.0, 1.741476814254827E9, 0.0, 2025-03-08 17:33:34.254
63.0, 187500.0, 11459.873492702663, 34893.643545346684, -187500.02235174447, -187500.02235174447, 10141.165273328457, -16767.965765948986, 4719.593193482541, -0.224, 0.926, 0.232, 192.0, 0.0, 0.0, 0.0, 0.0, 0.0, 0.0, 0.0, 0.0, 0.0, 1.741476814254855E9, 0.0, 2025-03-08 17:33:34.254
64.0, 187500.0, 11441.634469227132, 34886.35687665425, -187500.02235174447, -187500.02235174447, 10139.041857605203, -16759.047419911316, 4715.435769013854, -0.224, 0.926, 0.232, 192.0, 0.0, 0.0, 0.0, 0.0, 0.0, 0.0, 0.0, 0.0, 0.0, 1.741476814254906E9, 0.0, 2025-03-08 17:33:34.254
65.0, 187500.0, 11452.74328622142, 34894.5376151249, -187500.02235174447, -187500.02235174447, 10139.600651216586, -16748.69856222851, 4719.436731271355, -0.224, 0.926, 0.232, 192.0, 0.0, 0.0, 0.0, 0.0, 0.0, 0.0, 0.0, 0.0, 0.0, 1.74147681425494E9, 0.0, 2025-03-08 17:33:34.254
66.0, 187500.0, 11479.4089173566, 34913.17897000063, -187500.02235174447, -187500.02235174447, 10147.312003053667, -16724.335160772225, 4727.818635442095, -0.224, 0.926, 0.232, 192.0, 0.0, 0.0, 0.0, 0.0, 0.0, 0.0, 0.0, 0.0, 0.0, 1.741476814254967E9, 0.0, 2025-03-08 17:33:34.254
67.0, 187500.0, 11471.384641097146, 34909.75915309896, -187500.02235174447, -187500.02235174447, 10145.412104774965, -16732.091216098215, 4733.339516322555, -0.224, 0.926, 0.232, 192.0, 0.0, 0.0, 0.0, 0.0, 0.0, 0.0, 0.0, 0.0, 0.0, 1.741476814254994E9, 0.0, 2025-03-08 17:33:34.254
68.0, 187500.0, 11452.564472265778, 34894.29174593589, -187500.02235174447, -187500.02235174447, 10145.590918730608, -16751.201957607504, 4731.350211066033, -0.228, 0.928, 0.234, 192.0, 248.0, 224.0, 29.0, 0.0, 7.0, 80.0, 0.0, 0.0, 0.0, 1.74147681425502E9, 0.0, 2025-03-08 17:33:34.255
69.0, 187500.0, 11458.97942292445, 34894.51526338044, -187500.02235174447, -187500.02235174447, 10145.412104774965, -16751.35841981869, 4725.583460996564, -0.228, 0.928, 0.234, 192.0, 0.0, 0.0, 0.0, 0.0, 0.0, 0.0, 0.0, 0.0, 0.0, 1.741476814255049E9, 0.0, 2025-03-08 17:33:34.255
70.0, 187500.0, 11473.93273996505, 34901.89133905069, -187500.02235174447, -187500.02235174447, 10140.740590183806, -16737.857966167685, 4720.755484194217, -0.228, 0.928, 0.234, 192.0, 0.0, 0.0, 0.0, 0.0, 0.0, 0.0, 0.0, 0.0, 0.0, 1.741476814255076E9, 0.0, 2025-03-08 17:33:34.255
71.0, 187500.0, 11472.591635297733, 34900.32671693882, -187500.02235174447, -187500.02235174447, 10142.729895440329, -16736.628620222644, 4726.969269152793, -0.228, 0.928, 0.234, 192.0, 0.0, 0.0, 0.0, 0.0, 0.0, 0.0, 0.0, 0.0, 0.0, 1.741476814255109E9, 0.0, 2025-03-08 17:33:34.255
72.0, 187500.0, 11456.163103123083, 34888.56969935533, -187500.02235174447, -187500.02235174447, 10150.664764721962, -16739.35553304619, 4733.920661678393, -0.228, 0.928, 0.234, 192.0, 0.0, 0.0, 0.0, 0.0, 0.0, 0.0, 0.0, 0.0, 0.0, 1.741476814255136E9, 0.0, 2025-03-08 17:33:34.255
73.0, 187500.0, 11463.65093751561, 34889.86610053374, -187500.02235174447, -187500.02235174447, 10154.308099068177, -16739.84727142421, 4736.066429146103, -0.228, 0.928, 0.234, 192.0, 0.0, 0.0, 0.0, 0.0, 0.0, 0.0, 0.0, 0.0, 0.0, 1.741476814255163E9, 0.0, 2025-03-08 17:33:34.255
74.0, 187500.0, 11476.547894066322, 34895.85636804776, -187500.02235174447, -187500.02235174447, 10147.356706542578, -16752.61011750819, 4729.3162023206005, -0.228, 0.928, 0.234, 192.0, 0.0, 0.0, 0.0, 0.0, 0.0, 0.0, 0.0, 0.0, 0.0, 1.74147681425519E9, 0.0, 2025-03-08 17:33:34.255
75.0, 187500.0, 11477.151391166615, 34894.828187802814, -187500.02235174447, -187500.02235174447, 10139.846520405594, -16760.880262956653, 4719.526138249175, -0.228, 0.928, 0.234, 192.0, 0.0, 0.0, 0.0, 0.0, 0.0, 0.0, 0.0, 0.0, 0.0, 1.741476814255223E9, 0.0, 2025-03-08 17:33:34.255
76.0, 187500.0, 11453.749114721908, 34886.736856309995, -187500.02235174447, -187500.02235174447, 10145.747380941795, -16751.850158196707, 4722.2754028171785, -0.228, 0.928, 0.234, 192.0, 0.0, 0.0, 0.0, 0.0, 0.0, 0.0, 0.0, 0.0, 0.0, 1.741476814315118E9, 0.0, 2025-03-08 17:33:34.315
77.0, 187500.0, 11453.324431577257, 34889.173196455624, -187500.02235174447, -187500.02235174447, 10150.105971110579, -16753.07950414175, 4724.890556918449, -0.228, 0.928, 0.234, 192.0, 0.0, 0.0, 0.0, 0.0, 0.0, 0.0, 0.0, 0.0, 0.0, 1.741476814315184E9, 0.0, 2025-03-08 17:33:34.315
78.0, 187500.0, 11468.143638151127, 34890.938984267596, -187500.02235174447, -187500.02235174447, 10149.793046688204, -16751.93956517453, 4726.991620897248, -0.228, 0.922, 0.24, 192.0, 248.0, 224.0, 28.0, 208.0, 7.0, 128.0, 0.0, 0.0, 0.0, 1.741476814315212E9, 0.0, 2025-03-08 17:33:34.315
79.0, 187500.0, 11477.643129544633, 34892.14597846818, -187500.02235174447, -187500.02235174447, 10145.993250130803, -16759.53915828933, 4724.890556918449, -0.228, 0.922, 0.24, 192.0, 0.0, 0.0, 0.0, 0.0, 0.0, 0.0, 0.0, 0.0, 0.0, 1.74147681431525E9, 0.0, 2025-03-08 17:33:34.315
80.0, 187500.0, 11450.93279492054, 34883.160577197144, -187500.02235174447, -187500.02235174447, 10143.802779174182, -16758.041591410827, 4725.248184829734, -0.228, 0.922, 0.24, 192.0, 0.0, 0.0, 0.0, 0.0, 0.0, 0.0, 0.0, 0.0, 0.0, 1.741476814315277E9, 0.0, 2025-03-08 17:33:34.315
81.0, 187500.0, 11453.615004255176, 34888.703809822066, -187500.02235174447, -187500.02235174447, 10144.67449720794, -16753.45948379749, 4728.958574409316, -0.228, 0.922, 0.24, 192.0, 0.0, 0.0, 0.0, 0.0, 0.0, 0.0, 0.0, 0.0, 0.0, 1.741476814315313E9, 0.0, 2025-03-08 17:33:34.315
82.0, 187500.0, 11468.70243176251, 34895.23051920301, -187500.02235174447, -187500.02235174447, 10145.054476863681, -16752.36424831918, 4722.163644094902, -0.228, 0.922, 0.24, 192.0, 0.0, 0.0, 0.0, 0.0, 0.0, 0.0, 0.0, 0.0, 0.0, 1.741476814315341E9, 0.0, 2025-03-08 17:33:34.315
83.0, 187500.0, 11482.158181924604, 34892.99534475748, -187500.02235174447, -187500.02235174447, 10143.981593129825, -16754.442960553522, 4711.188937567346, -0.228, 0.922, 0.24, 192.0, 0.0, 0.0, 0.0, 0.0, 0.0, 0.0, 0.0, 0.0, 0.0, 1.741476814315368E9, 0.0, 2025-03-08 17:33:34.315
84.0, 187500.0, 11465.573187538766, 34887.630926088204, -187500.02235174447, -187500.02235174447, 10147.334354798122, -16747.715085472475, 4722.320106306089, -0.228, 0.922, 0.24, 192.0, 0.0, 0.0, 0.0, 0.0, 0.0, 0.0, 0.0, 0.0, 0.0, 1.741476814315395E9, 0.0, 2025-03-08 17:33:34.315
85.0, 187500.0, 11462.913329948584, 34882.98176324151, -187500.02235174447, -187500.02235174447, 10145.054476863681, -16756.87930069915, 4730.79141745465, -0.228, 0.922, 0.24, 192.0, 0.0, 0.0, 0.0, 0.0, 0.0, 0.0, 0.0, 0.0, 0.0, 1.741476814315422E9, 0.0, 2025-03-08 17:33:34.315
86.0, 187500.0, 11470.378812596657, 34889.21789994453, -187500.02235174447, -187500.02235174447, 10142.43932276241, -16747.156291861094, 4729.338554065055, -0.228, 0.922, 0.24, 192.0, 0.0, 0.0, 0.0, 0.0, 0.0, 0.0, 0.0, 0.0, 0.0, 1.741476814315454E9, 0.0, 2025-03-08 17:33:34.315
87.0, 187500.0, 11479.028937700861, 34894.738780825, -187500.02235174447, -187500.02235174447, 10137.901918637983, -16741.74716970291, 4723.974135395782, -0.23, 0.926, 0.232, 192.0, 248.0, 208.0, 28.0, 240.0, 7.0, 64.0, 0.0, 0.0, 0.0, 1.741476814315482E9, 0.0, 2025-03-08 17:33:34.315
88.0, 187500.0, 11460.119361891671, 34886.28982142089, -187500.02235174447, -187500.02235174447, 10138.706581438373, -16757.862777455186, 4729.249147087235, -0.23, 0.926, 0.232, 192.0, 0.0, 0.0, 0.0, 0.0, 0.0, 0.0, 0.0, 0.0, 0.0, 1.741476814315511E9, 0.0, 2025-03-08 17:33:34.315
89.0, 187500.0, 11455.179626367048, 34883.942888253085, -187500.02235174447, -187500.02235174447, 10149.3460117991, -16766.73642000394, 4737.519292535698, -0.23, 0.926, 0.232, 192.0, 0.0, 0.0, 0.0, 0.0, 0.0, 0.0, 0.0, 0.0, 0.0, 1.741476814315538E9, 0.0, 2025-03-08 17:33:34.315
90.0, 187500.0, 11468.478914317957, 34886.69215282109, -187500.02235174447, -187500.02235174447, 10149.10014261009, -16773.710164273998, 4728.958574409316, -0.23, 0.926, 0.232, 192.0, 0.0, 0.0, 0.0, 0.0, 0.0, 0.0, 0.0, 0.0, 0.0, 1.74147681431557E9, 0.0, 2025-03-08 17:33:34.315
91.0, 187500.0, 11480.258283645902, 34891.92246102363, -187500.02235174447, -187500.02235174447, 10148.474293765343, -16749.25735583989, 4725.359943552011, -0.23, 0.926, 0.232, 192.0, 0.0, 0.0, 0.0, 0.0, 0.0, 0.0, 0.0, 0.0, 0.0, 1.741476814375742E9, 0.0, 2025-03-08 17:33:34.375
92.0, 187500.0, 11469.104763162704, 34883.875833019716, -187500.02235174447, -187500.02235174447, 10141.902880895483, -16729.207841063482, 4729.025629642681, -0.23, 0.926, 0.232, 192.0, 0.0, 0.0, 0.0, 0.0, 0.0, 0.0, 0.0, 0.0, 0.0, 1.741476814375818E9, 0.0, 2025-03-08 17:33:34.375
93.0, 187500.0, 11455.023164155862, 34875.65039106016, -187500.02235174447, -187500.02235174447, 10139.555947727675, -16729.274896296847, 4732.870129688994, -0.23, 0.926, 0.232, 192.0, 0.0, 0.0, 0.0, 0.0, 0.0, 0.0, 0.0, 0.0, 0.0, 1.741476814375846E9, 0.0, 2025-03-08 17:33:34.375
94.0, 187500.0, 11463.494475304422, 34878.354952139256, -187500.02235174447, -187500.02235174447, 10142.059343106668, -16737.36622778967, 4724.532929007164, -0.23, 0.926, 0.232, 192.0, 0.0, 0.0, 0.0, 0.0, 0.0, 0.0, 0.0, 0.0, 0.0, 1.741476814375873E9, 0.0, 2025-03-08 17:33:34.375
95.0, 187500.0, 11478.201923156015, 34885.70867606505, -187500.02235174447, -187500.02235174447, 10139.511244238764, -16733.007637620885, 4724.354115051522, -0.23, 0.926, 0.232, 192.0, 0.0, 0.0, 0.0, 0.0, 0.0, 0.0, 0.0, 0.0, 0.0, 1.741476814375907E9, 0.0, 2025-03-08 17:33:34.375
96.0, 187500.0, 11472.904559720107, 34877.46088236104, -187500.02235174447, -187500.02235174447, 10139.57829947213, -16741.45659702499, 4731.596080255042, -0.23, 0.926, 0.232, 192.0, 0.0, 0.0, 0.0, 0.0, 0.0, 0.0, 0.0, 0.0, 0.0, 1.74147681437594E9, 0.0, 2025-03-08 17:33:34.375
97.0, 187500.0, 11455.023164155862, 34872.78936776988, -187500.02235174447, -187500.02235174447, 10140.852348906083, -16739.869623168663, 4738.323955336089, -0.23, 0.93, 0.234, 192.0, 248.0, 208.0, 29.0, 16.0, 7.0, 80.0, 0.0, 0.0, 0.0, 1.741476814375967E9, 0.0, 2025-03-08 17:33:34.375
98.0, 187500.0, 11464.74617299392, 34873.884603248196, -187500.02235174447, -187500.02235174447, 10145.903843152983, -16752.36424831918, 4728.757408709217, -0.23, 0.93, 0.234, 192.0, 0.0, 0.0, 0.0, 0.0, 0.0, 0.0, 0.0, 0.0, 0.0, 1.741476814375996E9, 0.0, 2025-03-08 17:33:34.375
99.0, 187500.0, 11480.280635390358, 34877.572641083316, -187500.02235174447, -187500.02235174447, 10143.646316962995, -16753.21361460848, 4723.415341784399, -0.23, 0.93, 0.234, 192.0, 0.0, 0.0, 0.0, 0.0, 0.0, 0.0, 0.0, 0.0, 0.0, 1.741476814376023E9, 0.0, 2025-03-08 17:33:34.376
100.0, 187500.0, 11480.906484235107, 34873.437568359084, -187500.02235174447, -187500.02235174447, 10139.935927383414, -16768.971594449475, 4724.488225518254, -0.23, 0.93, 0.234, 192.0, 0.0, 0.0, 0.0, 0.0, 0.0, 0.0, 0.0, 0.0, 0.0, 1.74147681437605E9, 0.0, 2025-03-08 17:33:34.376
101.0, 187500.0, 11463.98621368244, 34868.40842585664, -187500.02235174447, -187500.02235174447, 10149.3460117991, -16769.999774694417, 4734.837083201061, -0.23, 0.93, 0.234, 192.0, 0.0, 0.0, 0.0, 0.0, 0.0, 0.0, 0.0, 0.0, 0.0, 1.741476814376082E9, 0.0, 2025-03-08 17:33:34.376
102.0, 187500.0, 11463.717992748976, 34870.68830379109, -187500.02235174447, -187500.02235174447, 10145.032125119225, -16756.02993440985, 4735.842911701549, -0.23, 0.93, 0.234, 192.0, 0.0, 0.0, 0.0, 0.0, 0.0, 0.0, 0.0, 0.0, 0.0, 1.74147681437611E9, 0.0, 2025-03-08 17:33:34.376
103.0, 187500.0, 11473.619815542677, 34881.350085896265, -187500.02235174447, -187500.02235174447, 10148.541348998708, -16735.399274277603, 4742.011993171214, -0.23, 0.93, 0.234, 192.0, 0.0, 0.0, 0.0, 0.0, 0.0, 0.0, 0.0, 0.0, 0.0, 1.741476814376137E9, 0.0, 2025-03-08 17:33:34.376
104.0, 187500.0, 11482.001719713417, 34887.496815621475, -187500.02235174447, -187500.02235174447, 10149.077790865635, -16730.660704453076, 4743.666022260907, -0.23, 0.93, 0.234, 192.0, 0.0, 0.0, 0.0, 0.0, 0.0, 0.0, 0.0, 0.0, 0.0, 1.741476814376163E9, 0.0, 2025-03-08 17:33:34.376
105.0, 187500.0, 11457.481856045944, 34874.3316381373, -187500.02235174447, -187500.02235174447, 10149.457770521376, -16734.88518415513, 4746.683507762374, -0.23, 0.93, 0.234, 192.0, 0.0, 0.0, 0.0, 0.0, 0.0, 0.0, 0.0, 0.0, 0.0, 1.741476814376196E9, 0.0, 2025-03-08 17:33:34.376
106.0, 187500.0, 11453.346783321713, 34867.24613514497, -187500.02235174447, -187500.02235174447, 10145.926194897436, -16751.000791907405, 4739.866225703505, -0.23, 0.93, 0.234, 192.0, 0.0, 0.0, 0.0, 0.0, 0.0, 0.0, 0.0, 0.0, 0.0, 1.74147681443424E9, 0.0, 2025-03-08 17:33:34.434
107.0, 187500.0, 11469.149466651616, 34876.76797828293, -187500.02235174447, -187500.02235174447, 10149.614232732563, -16742.663591225577, 4749.768048497206, -0.234, 0.932, 0.232, 192.0, 248.0, 176.0, 29.0, 32.0, 7.0, 64.0, 0.0, 0.0, 0.0, 1.741476814434312E9, 0.0, 2025-03-08 17:33:34.434
108.0, 187500.0, 11479.587731312244, 34886.46863537653, -187500.02235174447, -187500.02235174447, 10146.820264675649, -16736.293344055815, 4744.828312972583, -0.234, 0.932, 0.232, 192.0, 0.0, 0.0, 0.0, 0.0, 0.0, 0.0, 0.0, 0.0, 0.0, 1.741476814434343E9, 0.0, 2025-03-08 17:33:34.434
109.0, 187500.0, 11456.878358945653, 34872.4317398586, -187500.02235174447, -187500.02235174447, 10146.417933275454, -16743.624716237155, 4739.776818725684, -0.234, 0.932, 0.232, 192.0, 0.0, 0.0, 0.0, 0.0, 0.0, 0.0, 0.0, 0.0, 0.0, 1.741476814434371E9, 0.0, 2025-03-08 17:33:34.434
110.0, 187500.0, 11447.378867552146, 34871.24709740247, -187500.02235174447, -187500.02235174447, 10144.808607674671, -16761.21553912348, 4736.915795435405, -0.234, 0.932, 0.232, 192.0, 0.0, 0.0, 0.0, 0.0, 0.0, 0.0, 0.0, 0.0, 0.0, 1.741476814434404E9, 0.0, 2025-03-08 17:33:34.434
111.0, 187500.0, 11453.726762977454, 34874.95748698205, -187500.02235174447, -187500.02235174447, 10147.334354798122, -16761.930794946053, 4742.682545504874, -0.234, 0.932, 0.232, 192.0, 0.0, 0.0, 0.0, 0.0, 0.0, 0.0, 0.0, 0.0, 0.0, 1.741476814434439E9, 0.0, 2025-03-08 17:33:34.434
112.0, 187500.0, 11471.921082964074, 34881.774769040916, -187500.02235174447, -187500.02235174447, 10146.976726886836, -16753.325373330757, 4752.159685153924, -0.234, 0.932, 0.232, 192.0, 0.0, 0.0, 0.0, 0.0, 0.0, 0.0, 0.0, 0.0, 0.0, 1.741476814434466E9, 0.0, 2025-03-08 17:33:34.434
113.0, 187500.0, 11452.005678654396, 34872.051760202856, -187500.02235174447, -187500.02235174447, 10142.86400590706, -16743.580012748243, 4749.65628977493, -0.234, 0.932, 0.232, 192.0, 0.0, 0.0, 0.0, 0.0, 0.0, 0.0, 0.0, 0.0, 0.0, 1.741476814434493E9, 0.0, 2025-03-08 17:33:34.434
114.0, 187500.0, 11443.512015761378, 34872.834071258796, -187500.02235174447, -187500.02235174447, 10143.713372196362, -16733.722893443453, 4753.70195552134, -0.234, 0.932, 0.232, 192.0, 0.0, 0.0, 0.0, 0.0, 0.0, 0.0, 0.0, 0.0, 0.0, 1.74147681443452E9, 0.0, 2025-03-08 17:33:34.434
115.0, 187500.0, 11457.191283368025, 34880.925402751614, -187500.02235174447, -187500.02235174447, 10143.691020451906, -16725.385692761625, 4750.3715455975, -0.234, 0.932, 0.232, 192.0, 0.0, 0.0, 0.0, 0.0, 0.0, 0.0, 0.0, 0.0, 0.0, 1.741476814434547E9, 0.0, 2025-03-08 17:33:34.434
116.0, 187500.0, 11471.094068419226, 34885.887490020694, -187500.02235174447, -187500.02235174447, 10142.975764629336, -16724.804547405787, 4746.012955428714, -0.234, 0.932, 0.232, 192.0, 0.0, 0.0, 0.0, 0.0, 0.0, 0.0, 0.0, 0.0, 0.0, 1.741476814434579E9, 0.0, 2025-03-08 17:33:34.434
117.0, 187500.0, 11460.164065380583, 34880.67953356261, -187500.02235174447, -187500.02235174447, 10137.320773282145, -16736.248640566904, 4742.548435038142, -0.23800000000000002, 0.928, 0.228, 192.0, 248.0, 144.0, 29.0, 0.0, 7.0, 32.0, 0.0, 0.0, 0.0, 1.741476814434612E9, 0.0, 2025-03-08 17:33:34.434
118.0, 187500.0, 11442.193262838515, 34872.0294084584, -187500.02235174447, -187500.02235174447, 10134.52680522523, -16737.299172556304, 4741.341440837556, -0.23800000000000002, 0.928, 0.228, 192.0, 0.0, 0.0, 0.0, 0.0, 0.0, 0.0, 0.0, 0.0, 0.0, 1.741476814434641E9, 0.0, 2025-03-08 17:33:34.434
119.0, 187500.0, 11451.156312365094, 34877.080902705304, -187500.02235174447, -187500.02235174447, 10137.544290726697, -16740.048437124307, 4744.269519361201, -0.23800000000000002, 0.928, 0.228, 192.0, 0.0, 0.0, 0.0, 0.0, 0.0, 0.0, 0.0, 0.0, 0.0, 1.741476814434668E9, 0.0, 2025-03-08 17:33:34.434
120.0, 187500.0, 11468.70243176251, 34890.20137670057, -187500.02235174447, -187500.02235174447, 10141.947584384392, -16739.02025687936, 4744.448333316843, -0.23800000000000002, 0.928, 0.228, 192.0, 0.0, 0.0, 0.0, 0.0, 0.0, 0.0, 0.0, 0.0, 0.0, 1.741476814434696E9, 0.0, 2025-03-08 17:33:34.434
121.0, 187500.0, 11469.440039329535, 34886.58039409881, -187500.02235174447, -187500.02235174447, 10140.874700650538, -16746.083408127237, 4742.459028060321, -0.23800000000000002, 0.928, 0.228, 192.0, 0.0, 0.0, 0.0, 0.0, 0.0, 0.0, 0.0, 0.0, 0.0, 1.741476814494592E9, 0.0, 2025-03-08 17:33:34.494
122.0, 187500.0, 11449.144655364116, 34874.66691430413, -187500.02235174447, -187500.02235174447, 10142.662840206962, -16758.041591410827, 4746.638804273463, -0.23800000000000002, 0.928, 0.228, 192.0, 0.0, 0.0, 0.0, 0.0, 0.0, 0.0, 0.0, 0.0, 0.0, 1.741476814494662E9, 0.0, 2025-03-08 17:33:34.494
123.0, 187500.0, 11450.12813212015, 34874.55515558185, -187500.02235174447, -187500.02235174447, 10135.934965125914, -16772.994908451426, 4737.206368113323, -0.23800000000000002, 0.928, 0.228, 192.0, 0.0, 0.0, 0.0, 0.0, 0.0, 0.0, 0.0, 0.0, 0.0, 1.741476814496849E9, 0.0, 2025-03-08 17:33:34.496
124.0, 187500.0, 11461.259300858892, 34882.57943184131, -187500.02235174447, -187500.02235174447, 10134.660915691962, -16757.46044605499, 4740.55912978162, -0.23800000000000002, 0.928, 0.228, 192.0, 0.0, 0.0, 0.0, 0.0, 0.0, 0.0, 0.0, 0.0, 0.0, 1.741476814496882E9, 0.0, 2025-03-08 17:33:34.496
125.0, 187500.0, 11460.722858991965, 34888.72616156652, -187500.02235174447, -187500.02235174447, 10141.902880895483, -16733.722893443453, 4751.019746186704, -0.23800000000000002, 0.928, 0.228, 192.0, 0.0, 0.0, 0.0, 0.0, 0.0, 0.0, 0.0, 0.0, 0.0, 1.74147681449692E9, 0.0, 2025-03-08 17:33:34.496
126.0, 187500.0, 11442.59559423871, 34884.233460931, -187500.02235174447, -187500.02235174447, 10150.016564132759, -16730.750111430898, 4760.496885835753, -0.23800000000000002, 0.928, 0.228, 192.0, 0.0, 0.0, 0.0, 0.0, 0.0, 0.0, 0.0, 0.0, 0.0, 1.741476814496948E9, 0.0, 2025-03-08 17:33:34.496
127.0, 187500.0, 11446.12716986265, 34884.65814407565, -187500.02235174447, -187500.02235174447, 10152.922290911949, -16728.246716051905, 4765.481324849287, -0.234, 0.928, 0.232, 192.0, 248.0, 176.0, 29.0, 0.0, 7.0, 64.0, 0.0, 0.0, 0.0, 1.741476814496981E9, 0.0, 2025-03-08 17:33:34.496
128.0, 187500.0, 11450.530463520345, 34884.792254542386, -187500.02235174447, -187500.02235174447, 10147.133189098024, -16743.73647495943, 4761.681528291885, -0.234, 0.928, 0.232, 192.0, 0.0, 0.0, 0.0, 0.0, 0.0, 0.0, 0.0, 0.0, 0.0, 1.741476814497011E9, 0.0, 2025-03-08 17:33:34.497
129.0, 187500.0, 11465.5061323054, 34889.530824366906, -187500.02235174447, -187500.02235174447, 10149.05543912118, -16746.083408127237, 4760.765106769217, -0.234, 0.928, 0.232, 192.0, 0.0, 0.0, 0.0, 0.0, 0.0, 0.0, 0.0, 0.0, 0.0, 1.741476814497038E9, 0.0, 2025-03-08 17:33:34.497
130.0, 187500.0, 11446.440094285022, 34881.081864962805, -187500.02235174447, -187500.02235174447, 10150.24008157731, -16734.728721943942, 4764.117868437514, -0.234, 0.928, 0.232, 192.0, 0.0, 0.0, 0.0, 0.0, 0.0, 0.0, 0.0, 0.0, 0.0, 1.741476814497065E9, 0.0, 2025-03-08 17:33:34.497
131.0, 187500.0, 11443.400257039102, 34879.181966684104, -187500.02235174447, -187500.02235174447, 10148.67545946544, -16736.136881844628, 4770.555170840642, -0.234, 0.928, 0.232, 192.0, 0.0, 0.0, 0.0, 0.0, 0.0, 0.0, 0.0, 0.0, 0.0, 1.741476814497092E9, 0.0, 2025-03-08 17:33:34.497
132.0, 187500.0, 11447.02123964086, 34874.89043174868, -187500.02235174447, -187500.02235174447, 10140.561776228164, -16743.378847048145, 4757.65821428993, -0.234, 0.928, 0.232, 192.0, 0.0, 0.0, 0.0, 0.0, 0.0, 0.0, 0.0, 0.0, 0.0, 1.741476814497127E9, 0.0, 2025-03-08 17:33:34.497
133.0, 187500.0, 11458.063001401782, 34880.97010624053, -187500.02235174447, -187500.02235174447, 10141.321735539645, -16748.87737618415, 4752.0926299205585, -0.234, 0.928, 0.232, 192.0, 0.0, 0.0, 0.0, 0.0, 0.0, 0.0, 0.0, 0.0, 0.0, 1.741476814497154E9, 0.0, 2025-03-08 17:33:34.497
134.0, 187500.0, 11431.419722011056, 34861.345274608764, -187500.02235174447, -187500.02235174447, 10134.705619180873, -16776.347670119725, 4745.565920539609, -0.234, 0.928, 0.232, 192.0, 0.0, 0.0, 0.0, 0.0, 0.0, 0.0, 0.0, 0.0, 0.0, 1.741476814497181E9, 0.0, 2025-03-08 17:33:34.497
135.0, 187500.0, 11423.060169584773, 34850.92936169259, -187500.02235174447, -187500.02235174447, 10130.749360412283, -16787.769411536385, 4741.006164670725, -0.234, 0.928, 0.232, 192.0, 0.0, 0.0, 0.0, 0.0, 0.0, 0.0, 0.0, 0.0, 0.0, 1.741476814497208E9, 0.0, 2025-03-08 17:33:34.497
136.0, 187500.0, 11435.688905202021, 34866.79910025586, -187500.02235174447, -187500.02235174447, 10134.951488369881, -16767.4069723376, 4747.2199496293015, -0.234, 0.928, 0.232, 192.0, 0.0, 0.0, 0.0, 0.0, 0.0, 0.0, 0.0, 0.0, 0.0, 1.741476814554814E9, 0.0, 2025-03-08 17:33:34.554
137.0, 187500.0, 11449.301117575302, 34873.97401022602, -187500.02235174447, -187500.02235174447, 10133.968011613848, -16736.248640566904, 4755.870074733505, -0.23600000000000002, 0.924, 0.23, 192.0, 248.0, 160.0, 28.0, 224.0, 7.0, 48.0, 0.0, 0.0, 0.0, 1.741476814554857E9, 0.0, 2025-03-08 17:33:34.554
138.0, 187500.0, 11437.857024414185, 34867.514356078435, -187500.02235174447, -187500.02235174447, 10139.444189005399, -16735.667495211066, 4767.805906272639, -0.23600000000000002, 0.924, 0.23, 192.0, 0.0, 0.0, 0.0, 0.0, 0.0, 0.0, 0.0, 0.0, 0.0, 1.741476814554918E9, 0.0, 2025-03-08 17:33:34.554
139.0, 187500.0, 11427.508166731379, 34862.529917064894, -187500.02235174447, -187500.02235174447, 10144.361572785565, -16739.422588279558, 4767.850609761549, -0.23600000000000002, 0.924, 0.23, 192.0, 0.0, 0.0, 0.0, 0.0, 0.0, 0.0, 0.0, 0.0, 0.0, 1.741476814554946E9, 0.0, 2025-03-08 17:33:34.554
140.0, 187500.0, 11434.280745301336, 34871.492966591475, -187500.02235174447, -187500.02235174447, 10145.121532097046, -16741.63541098063, 4764.520199837709, -0.23600000000000002, 0.924, 0.23, 192.0, 0.0, 0.0, 0.0, 0.0, 0.0, 0.0, 0.0, 0.0, 0.0, 1.741476814554973E9, 0.0, 2025-03-08 17:33:34.554
141.0, 187500.0, 11447.915309419073, 34874.39869337067, -187500.02235174447, -187500.02235174447, 10140.450017505887, -16744.31762031527, 4756.94295846736, -0.23600000000000002, 0.924, 0.23, 192.0, 0.0, 0.0, 0.0, 0.0, 0.0, 0.0, 0.0, 0.0, 0.0, 1.741476814555006E9, 0.0, 2025-03-08 17:33:34.555
142.0, 187500.0, 11443.176739594548, 34865.837975244285, -187500.02235174447, -187500.02235174447, 10141.858177406571, -16749.25735583989, 4757.121772423002, -0.23600000000000002, 0.924, 0.23, 192.0, 0.0, 0.0, 0.0, 0.0, 0.0, 0.0, 0.0, 0.0, 0.0, 1.741476814555039E9, 0.0, 2025-03-08 17:33:34.555
143.0, 187500.0, 11429.07278884325, 34863.446338587564, -187500.02235174447, -187500.02235174447, 10148.898976909994, -16740.294306313313, 4771.270426663212, -0.23600000000000002, 0.924, 0.23, 192.0, 0.0, 0.0, 0.0, 0.0, 0.0, 0.0, 0.0, 0.0, 0.0, 1.741476814555067E9, 0.0, 2025-03-08 17:33:34.555
144.0, 187500.0, 11430.190376066015, 34872.92347823662, -187500.02235174447, -187500.02235174447, 10148.653107720984, -16739.064960368272, 4778.646502333463, -0.23600000000000002, 0.924, 0.23, 192.0, 0.0, 0.0, 0.0, 0.0, 0.0, 0.0, 0.0, 0.0, 0.0, 1.741476814555093E9, 0.0, 2025-03-08 17:33:34.555
145.0, 187500.0, 11440.829806426742, 34876.6338678162, -187500.02235174447, -187500.02235174447, 10144.540386741208, -16738.148538845606, 4769.750508040251, -0.23600000000000002, 0.924, 0.23, 192.0, 0.0, 0.0, 0.0, 0.0, 0.0, 0.0, 0.0, 0.0, 0.0, 1.74147681455512E9, 0.0, 2025-03-08 17:33:34.555
146.0, 187500.0, 11440.159254093081, 34872.99053346998, -187500.02235174447, -187500.02235174447, 10145.702677452884, -16740.495472013412, 4769.258769662234, -0.23600000000000002, 0.924, 0.23, 192.0, 0.0, 0.0, 0.0, 0.0, 0.0, 0.0, 0.0, 0.0, 0.0, 1.741476814555147E9, 0.0, 2025-03-08 17:33:34.555
147.0, 187500.0, 11419.752111405387, 34863.22282114301, -187500.02235174447, -187500.02235174447, 10146.574395486641, -16752.99009716393, 4772.455069119343, -0.228, 0.926, 0.234, 192.0, 248.0, 224.0, 28.0, 240.0, 7.0, 80.0, 0.0, 0.0, 0.0, 1.74147681455518E9, 0.0, 2025-03-08 17:33:34.555
148.0, 187500.0, 11419.327428260736, 34868.29666713437, -187500.02235174447, -187500.02235174447, 10149.39071528801, -16758.332164088748, 4772.767993541717, -0.228, 0.926, 0.234, 192.0, 0.0, 0.0, 0.0, 0.0, 0.0, 0.0, 0.0, 0.0, 0.0, 1.74147681455521E9, 0.0, 2025-03-08 17:33:34.555
149.0, 187500.0, 11422.814300395763, 34879.89722250667, -187500.02235174447, -187500.02235174447, 10153.078753123136, -16752.386600063634, 4776.388976143477, -0.228, 0.926, 0.234, 192.0, 0.0, 0.0, 0.0, 0.0, 0.0, 0.0, 0.0, 0.0, 0.0, 1.741476814555237E9, 0.0, 2025-03-08 17:33:34.555
150.0, 187500.0, 11426.949373119996, 34889.173196455624, -187500.02235174447, -187500.02235174447, 10149.837750177116, -16743.55766100379, 4777.774784299706, -0.228, 0.926, 0.234, 192.0, 0.0, 0.0, 0.0, 0.0, 0.0, 0.0, 0.0, 0.0, 0.0, 1.741476814555264E9, 0.0, 2025-03-08 17:33:34.555
151.0, 187500.0, 11398.964989061951, 34874.845728259774, -187500.02235174447, -187500.02235174447, 10145.792084430705, -16742.417722036567, 4776.701900565851, -0.228, 0.926, 0.234, 192.0, 0.0, 0.0, 0.0, 0.0, 0.0, 0.0, 0.0, 0.0, 0.0, 1.741476814615098E9, 0.0, 2025-03-08 17:33:34.615
152.0, 187500.0, 11389.711366857455, 34870.308324135345, -187500.02235174447, -187500.02235174447, 10142.729895440329, -16751.470178540967, 4771.248074918756, -0.228, 0.926, 0.234, 192.0, 0.0, 0.0, 0.0, 0.0, 0.0, 0.0, 0.0, 0.0, 0.0, 1.74147681461514E9, 0.0, 2025-03-08 17:33:34.615
153.0, 187500.0, 11392.035948280805, 34870.19656541307, -187500.02235174447, -187500.02235174447, 10137.544290726697, -16769.999774694417, 4769.057603962136, -0.228, 0.926, 0.234, 192.0, 0.0, 0.0, 0.0, 0.0, 0.0, 0.0, 0.0, 0.0, 0.0, 1.741476814615202E9, 0.0, 2025-03-08 17:33:34.615
154.0, 187500.0, 11396.975683805429, 34876.56681258283, -187500.02235174447, -187500.02235174447, 10133.744494169296, -16762.869568213173, 4773.5726563421085, -0.228, 0.926, 0.234, 192.0, 0.0, 0.0, 0.0, 0.0, 0.0, 0.0, 0.0, 0.0, 0.0, 1.741476814615229E9, 0.0, 2025-03-08 17:33:34.615
155.0, 187500.0, 11368.544264858278, 34858.1266234072, -187500.02235174447, -187500.02235174447, 10127.86598537755, -16755.538196031834, 4765.727194038295, -0.228, 0.926, 0.234, 192.0, 0.0, 0.0, 0.0, 0.0, 0.0, 0.0, 0.0, 0.0, 0.0, 1.741476814615257E9, 0.0, 2025-03-08 17:33:34.615
156.0, 187500.0, 11362.710459555443, 34858.19367864057, -187500.02235174447, -187500.02235174447, 10128.536537711208, -16732.918230643063, 4768.699976050852, -0.228, 0.926, 0.234, 192.0, 0.0, 0.0, 0.0, 0.0, 0.0, 0.0, 0.0, 0.0, 0.0, 1.74147681461529E9, 0.0, 2025-03-08 17:33:34.615
157.0, 187500.0, 11378.513142885346, 34865.18977465508, -187500.02235174447, -187500.02235174447, 10135.309116281167, -16727.330294529234, 4776.344272654566, -0.232, 0.926, 0.232, 192.0, 248.0, 192.0, 28.0, 240.0, 7.0, 64.0, 0.0, 0.0, 0.0, 1.741476814615322E9, 0.0, 2025-03-08 17:33:34.615
158.0, 187500.0, 11396.886276827607, 34870.308324135345, -187500.02235174447, -187500.02235174447, 10135.711447681362, -16738.997905134907, 4775.740775554273, -0.232, 0.926, 0.232, 192.0, 0.0, 0.0, 0.0, 0.0, 0.0, 0.0, 0.0, 0.0, 0.0, 1.741476814615352E9, 0.0, 2025-03-08 17:33:34.615
159.0, 187500.0, 11368.812485791743, 34853.20923962704, -187500.02235174447, -187500.02235174447, 10129.832938889616, -16745.79283544932, 4770.331653396089, -0.232, 0.926, 0.232, 192.0, 0.0, 0.0, 0.0, 0.0, 0.0, 0.0, 0.0, 0.0, 0.0, 1.741476814615379E9, 0.0, 2025-03-08 17:33:34.615
160.0, 187500.0, 11360.29647115427, 34853.36570183822, -187500.02235174447, -187500.02235174447, 10132.202223801878, -16743.93764065953, 4775.85253427655, -0.232, 0.926, 0.232, 192.0, 0.0, 0.0, 0.0, 0.0, 0.0, 0.0, 0.0, 0.0, 0.0, 1.741476814615406E9, 0.0, 2025-03-08 17:33:34.615
161.0, 187500.0, 11368.38780264709, 34859.06539667433, -187500.02235174447, -187500.02235174447, 10135.62204070354, -16744.74230345992, 4773.438545875376, -0.232, 0.926, 0.232, 192.0, 0.0, 0.0, 0.0, 0.0, 0.0, 0.0, 0.0, 0.0, 0.0, 1.741476814615432E9, 0.0, 2025-03-08 17:33:34.615
162.0, 187500.0, 11389.554904646267, 34872.744664280974, -187500.02235174447, -187500.02235174447, 10144.830959419127, -16737.723855700955, 4774.891409264971, -0.232, 0.926, 0.232, 192.0, 0.0, 0.0, 0.0, 0.0, 0.0, 0.0, 0.0, 0.0, 0.0, 1.741476814615466E9, 0.0, 2025-03-08 17:33:34.615
163.0, 187500.0, 11374.422773650023, 34868.363722367736, -187500.02235174447, -187500.02235174447, 10144.518034996752, -16737.902669656596, 4779.048833733658, -0.232, 0.926, 0.232, 192.0, 0.0, 0.0, 0.0, 0.0, 0.0, 0.0, 0.0, 0.0, 0.0, 1.741476814615492E9, 0.0, 2025-03-08 17:33:34.615
164.0, 187500.0, 11359.894139754075, 34862.194640898066, -187500.02235174447, -187500.02235174447, 10142.640488462506, -16740.629582480142, 4782.222781446312, -0.232, 0.926, 0.232, 192.0, 0.0, 0.0, 0.0, 0.0, 0.0, 0.0, 0.0, 0.0, 0.0, 1.741476814615519E9, 0.0, 2025-03-08 17:33:34.615
165.0, 187500.0, 11362.419886877524, 34852.80690822684, -187500.02235174447, -187500.02235174447, 10127.642467932996, -16761.55081529031, 4760.742755024762, -0.232, 0.926, 0.232, 192.0, 0.0, 0.0, 0.0, 0.0, 0.0, 0.0, 0.0, 0.0, 0.0, 1.741476814615546E9, 0.0, 2025-03-08 17:33:34.615
166.0, 187500.0, 11376.814410306743, 34854.3268268498, -187500.02235174447, -187500.02235174447, 10120.489909707298, -16773.151370662614, 4749.924510708393, -0.232, 0.926, 0.232, 192.0, 0.0, 0.0, 0.0, 0.0, 0.0, 0.0, 0.0, 0.0, 0.0, 1.741476814675391E9, 0.0, 2025-03-08 17:33:34.675
167.0, 187500.0, 11368.34309915818, 34852.538687293374, -187500.02235174447, -187500.02235174447, 10120.266392262745, -16768.74807700492, 4751.17620839789, -0.228, 0.93, 0.24, 192.0, 248.0, 224.0, 29.0, 16.0, 7.0, 128.0, 0.0, 0.0, 0.0, 1.741476814675455E9, 0.0, 2025-03-08 17:33:34.675
168.0, 187500.0, 11348.114770426128, 34844.76028022293, -187500.02235174447, -187500.02235174447, 10124.177947542423, -16772.346707862223, 4752.249092131745, -0.228, 0.93, 0.24, 192.0, 0.0, 0.0, 0.0, 0.0, 0.0, 0.0, 0.0, 0.0, 0.0, 1.741476814675494E9, 0.0, 2025-03-08 17:33:34.675
169.0, 187500.0, 11360.095305454171, 34853.14218439367, -187500.02235174447, -187500.02235174447, 10135.890261637005, -16758.242757110926, 4763.447316103854, -0.228, 0.93, 0.24, 192.0, 0.0, 0.0, 0.0, 0.0, 0.0, 0.0, 0.0, 0.0, 0.0, 1.74147681467553E9, 0.0, 2025-03-08 17:33:34.675
170.0, 187500.0, 11379.518971385834, 34869.9283444796, -187500.02235174447, -187500.02235174447, 10136.136130826013, -16725.564506717266, 4771.046909218659, -0.228, 0.93, 0.24, 192.0, 0.0, 0.0, 0.0, 0.0, 0.0, 0.0, 0.0, 0.0, 0.0, 1.741476814675558E9, 0.0, 2025-03-08 17:33:34.675
171.0, 187500.0, 11379.809544063753, 34874.06341720383, -187500.02235174447, -187500.02235174447, 10135.778502914727, -16728.02319860735, 4774.332615653589, -0.228, 0.93, 0.24, 192.0, 0.0, 0.0, 0.0, 0.0, 0.0, 0.0, 0.0, 0.0, 0.0, 1.741476814675594E9, 0.0, 2025-03-08 17:33:34.675
172.0, 187500.0, 11362.15166594406, 34867.49200433397, -187500.02235174447, -187500.02235174447, 10138.281898293722, -16741.098969113704, 4784.569714614119, -0.228, 0.93, 0.24, 192.0, 0.0, 0.0, 0.0, 0.0, 0.0, 0.0, 0.0, 0.0, 0.0, 1.741476814675621E9, 0.0, 2025-03-08 17:33:34.675
173.0, 187500.0, 11362.375183388613, 34865.16742291062, -187500.02235174447, -187500.02235174447, 10139.108912838568, -16751.6042890077, 4780.188772700879, -0.228, 0.93, 0.24, 192.0, 0.0, 0.0, 0.0, 0.0, 0.0, 0.0, 0.0, 0.0, 0.0, 1.741476814675654E9, 0.0, 2025-03-08 17:33:34.675
174.0, 187500.0, 11381.687090598, 34869.97304796852, -187500.02235174447, -187500.02235174447, 10139.779465172227, -16748.810320950786, 4773.103269708547, -0.228, 0.93, 0.24, 192.0, 0.0, 0.0, 0.0, 0.0, 0.0, 0.0, 0.0, 0.0, 0.0, 1.741476814675681E9, 0.0, 2025-03-08 17:33:34.675
175.0, 187500.0, 11389.241980223893, 34870.017751457424, -187500.02235174447, -187500.02235174447, 10141.612308217564, -16749.816149451275, 4769.951673740348, -0.228, 0.93, 0.24, 192.0, 0.0, 0.0, 0.0, 0.0, 0.0, 0.0, 0.0, 0.0, 0.0, 1.741476814675709E9, 0.0, 2025-03-08 17:33:34.675
176.0, 187500.0, 11370.06418348124, 34864.87685023271, -187500.02235174447, -187500.02235174447, 10147.937851898414, -16739.04260862382, 4775.427851131899, -0.228, 0.93, 0.24, 192.0, 0.0, 0.0, 0.0, 0.0, 0.0, 0.0, 0.0, 0.0, 0.0, 1.741476814675736E9, 0.0, 2025-03-08 17:33:34.675
177.0, 187500.0, 11379.407212663558, 34863.53574556539, -187500.02235174447, -187500.02235174447, 10148.831921676627, -16741.63541098063, 4782.915685524426, -0.232, 0.93, 0.242, 192.0, 248.0, 192.0, 29.0, 16.0, 7.0, 144.0, 0.0, 0.0, 0.0, 1.741476814675763E9, 0.0, 2025-03-08 17:33:34.675
178.0, 187500.0, 11388.571427890234, 34859.42302458561, -187500.02235174447, -187500.02235174447, 10134.43739824741, -16770.916196217084, 4773.952635997848, -0.232, 0.93, 0.242, 192.0, 0.0, 0.0, 0.0, 0.0, 0.0, 0.0, 0.0, 0.0, 0.0, 1.741476814675798E9, 0.0, 2025-03-08 17:33:34.675
179.0, 187500.0, 11399.926114073529, 34860.98764669748, -187500.02235174447, -187500.02235174447, 10128.692999922396, -16769.530388060855, 4766.643615560963, -0.232, 0.93, 0.242, 192.0, 0.0, 0.0, 0.0, 0.0, 0.0, 0.0, 0.0, 0.0, 0.0, 1.741476814675825E9, 0.0, 2025-03-08 17:33:34.675
180.0, 187500.0, 11382.514105142845, 34848.29185584687, -187500.02235174447, -187500.02235174447, 10132.090465079602, -16758.645088511123, 4769.504638851242, -0.232, 0.93, 0.242, 192.0, 0.0, 0.0, 0.0, 0.0, 0.0, 0.0, 0.0, 0.0, 0.0, 1.741476814675852E9, 0.0, 2025-03-08 17:33:34.675
181.0, 187500.0, 11380.413041164047, 34844.782631967384, -187500.02235174447, -187500.02235174447, 10132.917479624448, -16769.66449852759, 4766.397746371955, -0.232, 0.93, 0.242, 192.0, 0.0, 0.0, 0.0, 0.0, 0.0, 0.0, 0.0, 0.0, 0.0, 1.741476814734775E9, 0.0, 2025-03-08 17:33:34.734
182.0, 187500.0, 11390.5383814023, 34852.29281810437, -187500.02235174447, -187500.02235174447, 10137.29842153769, -16756.588728021234, 4766.911836494427, -0.232, 0.93, 0.242, 192.0, 0.0, 0.0, 0.0, 0.0, 0.0, 0.0, 0.0, 0.0, 0.0, 1.741476814734843E9, 0.0, 2025-03-08 17:33:34.734
183.0, 187500.0, 11404.172945520038, 34863.178117654104, -187500.02235174447, -187500.02235174447, 10131.732837168318, -16750.531405273843, 4772.544476097164, -0.232, 0.93, 0.242, 192.0, 0.0, 0.0, 0.0, 0.0, 0.0, 0.0, 0.0, 0.0, 0.0, 1.741476814734872E9, 0.0, 2025-03-08 17:33:34.734
184.0, 187500.0, 11384.190485976993, 34851.75637623744, -187500.02235174447, -187500.02235174447, 10132.559851713164, -16750.531405273843, 4778.825316289105, -0.232, 0.93, 0.242, 192.0, 0.0, 0.0, 0.0, 0.0, 0.0, 0.0, 0.0, 0.0, 0.0, 1.741476814734914E9, 0.0, 2025-03-08 17:33:34.734
185.0, 187500.0, 11380.413041164047, 34848.068338402314, -187500.02235174447, -187500.02235174447, 10140.181796572424, -16734.236983565926, 4783.072147735614, -0.232, 0.93, 0.242, 192.0, 0.0, 0.0, 0.0, 0.0, 0.0, 0.0, 0.0, 0.0, 0.0, 1.741476814734941E9, 0.0, 2025-03-08 17:33:34.734
186.0, 187500.0, 11387.520895900834, 34849.34238783627, -187500.02235174447, -187500.02235174447, 10137.119607582046, -16754.64412625362, 4772.8126970306275, -0.232, 0.93, 0.242, 192.0, 0.0, 0.0, 0.0, 0.0, 0.0, 0.0, 0.0, 0.0, 0.0, 1.741476814734968E9, 0.0, 2025-03-08 17:33:34.734
187.0, 187500.0, 11402.653026897076, 34853.946847194056, -187500.02235174447, -187500.02235174447, 10134.459749991865, -16770.871492728173, 4771.963330741326, -0.226, 0.926, 0.23800000000000002, 192.0, 248.0, 240.0, 28.0, 240.0, 7.0, 112.0, 0.0, 0.0, 0.0, 1.741476814735001E9, 0.0, 2025-03-08 17:33:34.735
188.0, 187500.0, 11392.170058747537, 34853.946847194056, -187500.02235174447, -187500.02235174447, 10137.611345960064, -16763.6071757802, 4783.005092502248, -0.226, 0.926, 0.23800000000000002, 192.0, 0.0, 0.0, 0.0, 0.0, 0.0, 0.0, 0.0, 0.0, 0.0, 1.741476814735036E9, 0.0, 2025-03-08 17:33:34.735
189.0, 187500.0, 11386.448012166979, 34858.30543736285, -187500.02235174447, -187500.02235174447, 10147.446113520398, -16739.444940024012, 4791.297589695167, -0.226, 0.926, 0.23800000000000002, 192.0, 0.0, 0.0, 0.0, 0.0, 0.0, 0.0, 0.0, 0.0, 0.0, 1.741476814735063E9, 0.0, 2025-03-08 17:33:34.735
190.0, 187500.0, 11392.25946572536, 34863.42398684311, -187500.02235174447, -187500.02235174447, 10141.72406693984, -16728.760806174374, 4787.676607093407, -0.226, 0.926, 0.23800000000000002, 192.0, 0.0, 0.0, 0.0, 0.0, 0.0, 0.0, 0.0, 0.0, 0.0, 1.74147681473509E9, 0.0, 2025-03-08 17:33:34.735
191.0, 187500.0, 11403.055358297272, 34867.40259735615, -187500.02235174447, -187500.02235174447, 10141.344087284098, -16732.672361454053, 4781.172249456912, -0.226, 0.926, 0.23800000000000002, 192.0, 0.0, 0.0, 0.0, 0.0, 0.0, 0.0, 0.0, 0.0, 0.0, 1.741476814735116E9, 0.0, 2025-03-08 17:33:34.735
192.0, 187500.0, 11393.667625626043, 34862.77578625391, -187500.02235174447, -187500.02235174447, 10144.786255930216, -16746.79866394981, 4777.037176732681, -0.226, 0.926, 0.23800000000000002, 192.0, 0.0, 0.0, 0.0, 0.0, 0.0, 0.0, 0.0, 0.0, 0.0, 1.741476814735144E9, 0.0, 2025-03-08 17:33:34.735
193.0, 187500.0, 11374.48982888339, 34856.33848385078, -187500.02235174447, -187500.02235174447, 10145.501511752786, -16756.633431510145, 4785.933171025893, -0.226, 0.926, 0.23800000000000002, 192.0, 0.0, 0.0, 0.0, 0.0, 0.0, 0.0, 0.0, 0.0, 0.0, 1.741476814735175E9, 0.0, 2025-03-08 17:33:34.735
194.0, 187500.0, 11389.085518012706, 34867.782577011894, -187500.02235174447, -187500.02235174447, 10152.274090322744, -16726.63739045112, 4809.76013061525, -0.226, 0.926, 0.23800000000000002, 192.0, 0.0, 0.0, 0.0, 0.0, 0.0, 0.0, 0.0, 0.0, 0.0, 1.741476814735202E9, 0.0, 2025-03-08 17:33:34.735
195.0, 187500.0, 11413.180698535527, 34883.00411498596, -187500.02235174447, -187500.02235174447, 10149.882453666027, -16718.099024069194, 4807.837880592094, -0.226, 0.926, 0.23800000000000002, 192.0, 0.0, 0.0, 0.0, 0.0, 0.0, 0.0, 0.0, 0.0, 0.0, 1.741476814735229E9, 0.0, 2025-03-08 17:33:34.735
196.0, 187500.0, 11410.319675245248, 34879.76311203994, -187500.02235174447, -187500.02235174447, 10140.606479717075, -16731.308905042282, 4799.791252588183, -0.226, 0.926, 0.23800000000000002, 192.0, 0.0, 0.0, 0.0, 0.0, 0.0, 0.0, 0.0, 0.0, 0.0, 1.741476814794605E9, 0.0, 2025-03-08 17:33:34.794
197.0, 187500.0, 11393.265294225848, 34872.47644334751, -187500.02235174447, -187500.02235174447, 10142.282860551222, -16730.861870153174, 4803.769863101228, -0.222, 0.924, 0.23800000000000002, 192.0, 249.0, 16.0, 28.0, 224.0, 7.0, 112.0, 0.0, 0.0, 0.0, 1.741476814794672E9, 0.0, 2025-03-08 17:33:34.794
198.0, 187500.0, 11398.741471617399, 34879.15961493964, -187500.02235174447, -187500.02235174447, 10147.15554084248, -16723.84342239421, 4809.00017130377, -0.222, 0.924, 0.23800000000000002, 192.0, 0.0, 0.0, 0.0, 0.0, 0.0, 0.0, 0.0, 0.0, 0.0, 1.741476814794703E9, 0.0, 2025-03-08 17:33:34.794
199.0, 187500.0, 11413.82889912473, 34887.027428987916, -187500.02235174447, -187500.02235174447, 10144.38392453002, -16729.40900676358, 4809.290743981689, -0.222, 0.924, 0.23800000000000002, 192.0, 0.0, 0.0, 0.0, 0.0, 0.0, 0.0, 0.0, 0.0, 0.0, 1.741476814794743E9, 0.0, 2025-03-08 17:33:34.794
200.0, 187500.0, 11420.40031199459, 34888.52499586642, -187500.02235174447, -187500.02235174447, 10141.947584384392, -16743.64706798161, 4802.47346192282, -0.222, 0.924, 0.23800000000000002, 192.0, 0.0, 0.0, 0.0, 0.0, 0.0, 0.0, 0.0, 0.0, 0.0, 1.74147681479477E9, 0.0, 2025-03-08 17:33:34.794
201.0, 187500.0, 11400.931942574018, 34876.18683292709, -187500.02235174447, -187500.02235174447, 10143.86983440755, -16749.27970758435, 4798.561906643142, -0.222, 0.924, 0.23800000000000002, 192.0, 0.0, 0.0, 0.0, 0.0, 0.0, 0.0, 0.0, 0.0, 0.0, 1.741476814794797E9, 0.0, 2025-03-08 17:33:34.794
202.0, 187500.0, 11404.977608320429, 34879.56194633984, -187500.02235174447, -187500.02235174447, 10142.416971017954, -16746.41868429407, 4792.348121684566, -0.222, 0.924, 0.23800000000000002, 192.0, 0.0, 0.0, 0.0, 0.0, 0.0, 0.0, 0.0, 0.0, 0.0, 1.74147681479483E9, 0.0, 2025-03-08 17:33:34.794
203.0, 187500.0, 11411.392558979102, 34878.66787656163, -187500.02235174447, -187500.02235174447, 10132.693962179896, -16754.375905320157, 4778.221819188812, -0.222, 0.924, 0.23800000000000002, 192.0, 0.0, 0.0, 0.0, 0.0, 0.0, 0.0, 0.0, 0.0, 0.0, 1.741476814794862E9, 0.0, 2025-03-08 17:33:34.794
204.0, 187500.0, 11419.796814894296, 34877.39382712768, -187500.02235174447, -187500.02235174447, 10128.402427244477, -16758.37686757766, 4765.1236969380025, -0.222, 0.924, 0.23800000000000002, 192.0, 0.0, 0.0, 0.0, 0.0, 0.0, 0.0, 0.0, 0.0, 0.0, 1.741476814794889E9, 0.0, 2025-03-08 17:33:34.794
205.0, 187500.0, 11400.909590829562, 34872.85642300325, -187500.02235174447, -187500.02235174447, 10133.945659869392, -16741.367190047167, 4768.096478950558, -0.222, 0.924, 0.23800000000000002, 192.0, 0.0, 0.0, 0.0, 0.0, 0.0, 0.0, 0.0, 0.0, 0.0, 1.741476814794916E9, 0.0, 2025-03-08 17:33:34.794
206.0, 187500.0, 11404.262352497859, 34879.62900157321, -187500.02235174447, -187500.02235174447, 10139.041857605203, -16743.289440070326, 4766.4200981164095, -0.222, 0.924, 0.23800000000000002, 192.0, 0.0, 0.0, 0.0, 0.0, 0.0, 0.0, 0.0, 0.0, 0.0, 1.741476814794944E9, 0.0, 2025-03-08 17:33:34.794
207.0, 187500.0, 11408.956218833473, 34880.21014692904, -187500.02235174447, -187500.02235174447, 10133.789197658205, -16760.03089666735, 4758.708746279329, -0.222, 0.93, 0.23800000000000002, 192.0, 249.0, 16.0, 29.0, 16.0, 7.0, 112.0, 0.0, 0.0, 0.0, 1.741476814794971E9, 0.0, 2025-03-08 17:33:34.794
208.0, 187500.0, 11421.428492239535, 34881.52889985191, -187500.02235174447, -187500.02235174447, 10129.207090044867, -16767.74224850443, 4750.617414786508, -0.222, 0.93, 0.23800000000000002, 192.0, 0.0, 0.0, 0.0, 0.0, 0.0, 0.0, 0.0, 0.0, 0.0, 1.741476814795007E9, 0.0, 2025-03-08 17:33:34.795
209.0, 187500.0, 11403.457689697469, 34871.73883578048, -187500.02235174447, -187500.02235174447, 10134.660915691962, -16762.82486472426, 4745.185940883868, -0.222, 0.93, 0.23800000000000002, 192.0, 0.0, 0.0, 0.0, 0.0, 0.0, 0.0, 0.0, 0.0, 0.0, 1.741476814795035E9, 0.0, 2025-03-08 17:33:34.795
210.0, 187500.0, 11401.78130886332, 34870.576545068805, -187500.02235174447, -187500.02235174447, 10142.126398340035, -16768.211635137992, 4742.213158871313, -0.222, 0.93, 0.23800000000000002, 192.0, 0.0, 0.0, 0.0, 0.0, 0.0, 0.0, 0.0, 0.0, 0.0, 1.741476814795062E9, 0.0, 2025-03-08 17:33:34.795
211.0, 187500.0, 11412.845422368697, 34875.29276314888, -187500.02235174447, -187500.02235174447, 10137.72310468234, -16773.777219507363, 4735.060600645614, -0.222, 0.93, 0.23800000000000002, 192.0, 0.0, 0.0, 0.0, 0.0, 0.0, 0.0, 0.0, 0.0, 0.0, 1.741476814855348E9, 0.0, 2025-03-08 17:33:34.855
212.0, 187500.0, 11426.368227764158, 34883.22763243051, -187500.02235174447, -187500.02235174447, 10134.057418591668, -16758.80155072231, 4731.104341877025, -0.222, 0.93, 0.23800000000000002, 192.0, 0.0, 0.0, 0.0, 0.0, 0.0, 0.0, 0.0, 0.0, 0.0, 1.74147681485539E9, 0.0, 2025-03-08 17:33:34.855
213.0, 187500.0, 11407.5927624217, 34869.41425435713, -187500.02235174447, -187500.02235174447, 10131.330505768121, -16753.325373330757, 4726.41047554141, -0.222, 0.93, 0.23800000000000002, 192.0, 0.0, 0.0, 0.0, 0.0, 0.0, 0.0, 0.0, 0.0, 0.0, 1.741476814855438E9, 0.0, 2025-03-08 17:33:34.855
214.0, 187500.0, 11394.762861104353, 34862.820489742815, -187500.02235174447, -187500.02235174447, 10135.018543603248, -16765.618832781176, 4725.65051622993, -0.222, 0.93, 0.23800000000000002, 192.0, 0.0, 0.0, 0.0, 0.0, 0.0, 0.0, 0.0, 0.0, 0.0, 1.741476814855472E9, 0.0, 2025-03-08 17:33:34.855
215.0, 187500.0, 11406.698692643487, 34874.59985907076, -187500.02235174447, -187500.02235174447, 10137.365476771054, -16760.03089666735, 4725.806978441117, -0.222, 0.93, 0.23800000000000002, 192.0, 0.0, 0.0, 0.0, 0.0, 0.0, 0.0, 0.0, 0.0, 0.0, 1.741476814855505E9, 0.0, 2025-03-08 17:33:34.855
216.0, 187500.0, 11422.16609980656, 34884.926365009116, -187500.02235174447, -187500.02235174447, 10134.258584291767, -16756.2534518544, 4719.593193482541, -0.222, 0.93, 0.23800000000000002, 192.0, 0.0, 0.0, 0.0, 0.0, 0.0, 0.0, 0.0, 0.0, 0.0, 1.741476814855532E9, 0.0, 2025-03-08 17:33:34.855
217.0, 187500.0, 11410.92317234554, 34878.690228306084, -187500.02235174447, -187500.02235174447, 10127.798930144183, -16764.52359730287, 4714.206423068813, -0.232, 0.926, 0.24, 192.0, 248.0, 192.0, 28.0, 240.0, 7.0, 128.0, 0.0, 0.0, 0.0, 1.741476814855564E9, 0.0, 2025-03-08 17:33:34.855
218.0, 187500.0, 11391.54420990279, 34870.55419332435, -187500.02235174447, -187500.02235174447, 10127.083674321613, -16755.64995475411, 4713.737036435251, -0.232, 0.926, 0.24, 192.0, 0.0, 0.0, 0.0, 0.0, 0.0, 0.0, 0.0, 0.0, 0.0, 1.741476814855598E9, 0.0, 2025-03-08 17:33:34.855
219.0, 187500.0, 11398.361491961658, 34874.66691430413, -187500.02235174447, -187500.02235174447, 10132.537499968708, -16754.062980897783, 4710.965420122793, -0.232, 0.926, 0.24, 192.0, 0.0, 0.0, 0.0, 0.0, 0.0, 0.0, 0.0, 0.0, 0.0, 1.74147681485563E9, 0.0, 2025-03-08 17:33:34.855
220.0, 187500.0, 11421.383788750623, 34889.262603433446, -187500.02235174447, -187500.02235174447, 10135.934965125914, -16747.26805058337, 4713.200594568324, -0.232, 0.926, 0.24, 192.0, 0.0, 0.0, 0.0, 0.0, 0.0, 0.0, 0.0, 0.0, 0.0, 1.741476814855658E9, 0.0, 2025-03-08 17:33:34.855
221.0, 187500.0, 11420.914402117063, 34892.391847657185, -187500.02235174447, -187500.02235174447, 10131.889299379505, -16749.145597117615, 4709.132577077458, -0.232, 0.926, 0.24, 192.0, 0.0, 0.0, 0.0, 0.0, 0.0, 0.0, 0.0, 0.0, 0.0, 1.741476814855685E9, 0.0, 2025-03-08 17:33:34.855
222.0, 187500.0, 11398.227381494926, 34884.27816441991, -187500.02235174447, -187500.02235174447, 10135.085598836613, -16754.442960553522, 4708.238507299246, -0.232, 0.926, 0.24, 192.0, 0.0, 0.0, 0.0, 0.0, 0.0, 0.0, 0.0, 0.0, 0.0, 1.741476814855712E9, 0.0, 2025-03-08 17:33:34.855
223.0, 187500.0, 11401.356625718669, 34881.506548107456, -187500.02235174447, -187500.02235174447, 10134.593860458597, -16763.160140891094, 4704.684579930852, -0.232, 0.926, 0.24, 192.0, 0.0, 0.0, 0.0, 0.0, 0.0, 0.0, 0.0, 0.0, 0.0, 1.741476814855739E9, 0.0, 2025-03-08 17:33:34.855
224.0, 187500.0, 11415.572335192244, 34885.01577198694, -187500.02235174447, -187500.02235174447, 10139.175968071935, -16771.497341572922, 4702.382350251955, -0.232, 0.926, 0.24, 192.0, 0.0, 0.0, 0.0, 0.0, 0.0, 0.0, 0.0, 0.0, 0.0, 1.741476814855771E9, 0.0, 2025-03-08 17:33:34.855
225.0, 187500.0, 11426.16706206406, 34890.3354871673, -187500.02235174447, -187500.02235174447, 10137.656049448973, -16764.568300791776, 4700.817728140084, -0.232, 0.926, 0.24, 192.0, 0.0, 0.0, 0.0, 0.0, 0.0, 0.0, 0.0, 0.0, 0.0, 1.741476814855798E9, 0.0, 2025-03-08 17:33:34.855
226.0, 187500.0, 11401.848364096686, 34878.24319341698, -187500.02235174447, -187500.02235174447, 10138.907747138472, -16759.382696078148, 4702.203536296312, -0.232, 0.926, 0.24, 192.0, 0.0, 0.0, 0.0, 0.0, 0.0, 0.0, 0.0, 0.0, 0.0, 1.741476814915057E9, 0.0, 2025-03-08 17:33:34.915
227.0, 187500.0, 11410.520840945344, 34883.71937080853, -187500.02235174447, -187500.02235174447, 10143.601613474086, -16750.710219229488, 4703.276420030167, -0.228, 0.93, 0.232, 192.0, 248.0, 224.0, 29.0, 16.0, 7.0, 64.0, 0.0, 0.0, 0.0, 1.741476814915097E9, 0.0, 2025-03-08 17:33:34.915
228.0, 187500.0, 11424.267163785358, 34888.413237144145, -187500.02235174447, -187500.02235174447, 10145.032125119225, -16749.011486650885, 4696.526193204665, -0.228, 0.93, 0.232, 192.0, 0.0, 0.0, 0.0, 0.0, 0.0, 0.0, 0.0, 0.0, 0.0, 1.741476814915155E9, 0.0, 2025-03-08 17:33:34.915
229.0, 187500.0, 11435.174815079548, 34893.509434879954, -187500.02235174447, -187500.02235174447, 10140.204148316878, -16748.631506995145, 4691.094719302025, -0.228, 0.93, 0.232, 192.0, 0.0, 0.0, 0.0, 0.0, 0.0, 0.0, 0.0, 0.0, 0.0, 1.74147681491519E9, 0.0, 2025-03-08 17:33:34.915
230.0, 187500.0, 11410.565544434256, 34880.791292284885, -187500.02235174447, -187500.02235174447, 10138.706581438373, -16760.16500713408, 4691.362940235489, -0.228, 0.93, 0.232, 192.0, 0.0, 0.0, 0.0, 0.0, 0.0, 0.0, 0.0, 0.0, 0.0, 1.741476814915223E9, 0.0, 2025-03-08 17:33:34.915
231.0, 187500.0, 11406.45282345448, 34875.76214978244, -187500.02235174447, -187500.02235174447, 10147.446113520398, -16768.546911304824, 4701.868260129483, -0.228, 0.93, 0.232, 192.0, 0.0, 0.0, 0.0, 0.0, 0.0, 0.0, 0.0, 0.0, 0.0, 1.74147681491525E9, 0.0, 2025-03-08 17:33:34.915
232.0, 187500.0, 11419.953277105484, 34883.518205108434, -187500.02235174447, -187500.02235174447, 10151.715296711362, -16755.739361731932, 4703.231716541257, -0.228, 0.93, 0.232, 192.0, 0.0, 0.0, 0.0, 0.0, 0.0, 0.0, 0.0, 0.0, 0.0, 1.741476814915283E9, 0.0, 2025-03-08 17:33:34.915
233.0, 187500.0, 11436.135940091126, 34884.16640569764, -187500.02235174447, -187500.02235174447, 10147.870796665049, -16747.089236627726, 4696.593248438031, -0.228, 0.93, 0.232, 192.0, 0.0, 0.0, 0.0, 0.0, 0.0, 0.0, 0.0, 0.0, 0.0, 1.74147681491531E9, 0.0, 2025-03-08 17:33:34.915
234.0, 187500.0, 11418.187489293516, 34871.69413229157, -187500.02235174447, -187500.02235174447, 10143.713372196362, -16749.056190139796, 4699.342513006033, -0.228, 0.93, 0.232, 192.0, 0.0, 0.0, 0.0, 0.0, 0.0, 0.0, 0.0, 0.0, 0.0, 1.741476814915343E9, 0.0, 2025-03-08 17:33:34.915
235.0, 187500.0, 11408.576239177733, 34872.47644334751, -187500.02235174447, -187500.02235174447, 10145.702677452884, -16752.207786107992, 4713.737036435251, -0.228, 0.93, 0.232, 192.0, 0.0, 0.0, 0.0, 0.0, 0.0, 0.0, 0.0, 0.0, 0.0, 1.74147681491537E9, 0.0, 2025-03-08 17:33:34.915
236.0, 187500.0, 11411.370207234646, 34873.035236958895, -187500.02235174447, -187500.02235174447, 10141.254680306278, -16763.51776880238, 4705.98098110926, -0.228, 0.93, 0.232, 192.0, 0.0, 0.0, 0.0, 0.0, 0.0, 0.0, 0.0, 0.0, 0.0, 1.74147681491541E9, 0.0, 2025-03-08 17:33:34.915
237.0, 187500.0, 11429.050437098795, 34880.41131262914, -187500.02235174447, -187500.02235174447, 10138.795988416194, -16767.250510126414, 4692.704044902807, -0.234, 0.92, 0.23, 192.0, 248.0, 176.0, 28.0, 192.0, 7.0, 48.0, 0.0, 0.0, 0.0, 1.741476814915431E9, 0.0, 2025-03-08 17:33:34.915
238.0, 187500.0, 11416.242887525903, 34875.22570791551, -187500.02235174447, -187500.02235174447, 10137.991325615803, -16746.284573827335, 4697.576725194064, -0.234, 0.92, 0.23, 192.0, 0.0, 0.0, 0.0, 0.0, 0.0, 0.0, 0.0, 0.0, 0.0, 1.741476814915452E9, 0.0, 2025-03-08 17:33:34.915
239.0, 187500.0, 11405.849326354186, 34868.11785317872, -187500.02235174447, -187500.02235174447, 10141.858177406571, -16742.998867392405, 4702.851736885516, -0.234, 0.92, 0.23, 192.0, 0.0, 0.0, 0.0, 0.0, 0.0, 0.0, 0.0, 0.0, 0.0, 1.741476814915486E9, 0.0, 2025-03-08 17:33:34.915
240.0, 187500.0, 11403.54709667529, 34865.480347332996, -187500.02235174447, -187500.02235174447, 10135.756151170273, -16750.866681440675, 4690.357111735, -0.234, 0.92, 0.23, 192.0, 0.0, 0.0, 0.0, 0.0, 0.0, 0.0, 0.0, 0.0, 0.0, 1.741476814915505E9, 0.0, 2025-03-08 17:33:34.915
241.0, 187500.0, 11418.187489293516, 34873.95165848156, -187500.02235174447, -187500.02235174447, 10133.118645324546, -16756.387562321135, 4686.669073899874, -0.234, 0.92, 0.23, 192.0, 0.0, 0.0, 0.0, 0.0, 0.0, 0.0, 0.0, 0.0, 0.0, 1.741476814975334E9, 0.0, 2025-03-08 17:33:34.975
242.0, 187500.0, 11412.845422368697, 34875.67274280462, -187500.02235174447, -187500.02235174447, 10133.610383702562, -16753.45948379749, 4693.173431536368, -0.234, 0.92, 0.23, 192.0, 0.0, 0.0, 0.0, 0.0, 0.0, 0.0, 0.0, 0.0, 0.0, 1.741476814975359E9, 0.0, 2025-03-08 17:33:34.975
243.0, 187500.0, 11392.728852358921, 34867.06732118932, -187500.02235174447, -187500.02235174447, 10133.990363358304, -16756.2534518544, 4698.2696292721785, -0.234, 0.92, 0.23, 192.0, 0.0, 0.0, 0.0, 0.0, 0.0, 0.0, 0.0, 0.0, 0.0, 1.741476814975391E9, 0.0, 2025-03-08 17:33:34.975
244.0, 187500.0, 11395.20989599346, 34869.57071656832, -187500.02235174447, -187500.02235174447, 10134.86208139206, -16743.11062611468, 4692.413472224888, -0.234, 0.92, 0.23, 192.0, 0.0, 0.0, 0.0, 0.0, 0.0, 0.0, 0.0, 0.0, 0.0, 1.741476814975409E9, 0.0, 2025-03-08 17:33:34.975
245.0, 187500.0, 11413.717140402454, 34875.62803931571, -187500.02235174447, -187500.02235174447, 10131.330505768121, -16750.821977951764, 4687.07140530007, -0.234, 0.92, 0.23, 192.0, 0.0, 0.0, 0.0, 0.0, 0.0, 0.0, 0.0, 0.0, 0.0, 1.741476814975434E9, 0.0, 2025-03-08 17:33:34.975
246.0, 187500.0, 11412.599553179689, 34874.66691430413, -187500.02235174447, -187500.02235174447, 10131.95635461287, -16760.209710622992, 4688.881896600949, -0.234, 0.92, 0.23, 192.0, 0.0, 0.0, 0.0, 0.0, 0.0, 0.0, 0.0, 0.0, 0.0, 1.741476814975452E9, 0.0, 2025-03-08 17:33:34.975
247.0, 187500.0, 11394.87461982663, 34871.492966591475, -187500.02235174447, -187500.02235174447, 10139.57829947213, -16757.147521632614, 4699.230754283757, -0.23, 0.918, 0.23600000000000002, 192.0, 248.0, 208.0, 28.0, 176.0, 7.0, 96.0, 0.0, 0.0, 0.0, 1.741476814975471E9, 0.0, 2025-03-08 17:33:34.975
248.0, 187500.0, 11397.914457072551, 34872.8787747477, -187500.02235174447, -187500.02235174447, 10136.873738393038, -16766.13292290365, 4691.921733846872, -0.23, 0.918, 0.23600000000000002, 192.0, 0.0, 0.0, 0.0, 0.0, 0.0, 0.0, 0.0, 0.0, 0.0, 1.741476814975494E9, 0.0, 2025-03-08 17:33:34.975
249.0, 187500.0, 11410.654951412076, 34877.03619921639, -187500.02235174447, -187500.02235174447, 10133.699790680384, -16769.41862933858, 4685.439727954832, -0.23, 0.918, 0.23600000000000002, 192.0, 0.0, 0.0, 0.0, 0.0, 0.0, 0.0, 0.0, 0.0, 0.0, 1.74147681497555E9, 0.0, 2025-03-08 17:33:34.975
250.0, 187500.0, 11416.511108459366, 34881.86417601874, -187500.02235174447, -187500.02235174447, 10138.930098882925, -16761.59551877922, 4685.21621051028, -0.23, 0.918, 0.23600000000000002, 192.0, 0.0, 0.0, 0.0, 0.0, 0.0, 0.0, 0.0, 0.0, 0.0, 1.741476814975569E9, 0.0, 2025-03-08 17:33:34.975
251.0, 187500.0, 11390.87365756913, 34867.20143165606, -187500.02235174447, -187500.02235174447, 10135.264412792256, -16771.74321076193, 4681.192896508324, -0.23, 0.918, 0.23600000000000002, 192.0, 0.0, 0.0, 0.0, 0.0, 0.0, 0.0, 0.0, 0.0, 0.0, 1.74147681497559E9, 0.0, 2025-03-08 17:33:34.975
252.0, 187500.0, 11390.694843613488, 34868.16255666764, -187500.02235174447, -187500.02235174447, 10137.857215149072, -16745.36815230467, 4685.104451788003, -0.23, 0.918, 0.23600000000000002, 192.0, 0.0, 0.0, 0.0, 0.0, 0.0, 0.0, 0.0, 0.0, 0.0, 1.741476814975608E9, 0.0, 2025-03-08 17:33:34.975
253.0, 187500.0, 11404.59762866469, 34876.92444049411, -187500.02235174447, -187500.02235174447, 10143.467503007354, -16743.49060577042, 4687.160812277891, -0.23, 0.918, 0.23600000000000002, 192.0, 0.0, 0.0, 0.0, 0.0, 0.0, 0.0, 0.0, 0.0, 0.0, 1.741476814975627E9, 0.0, 2025-03-08 17:33:34.975
254.0, 187500.0, 11411.504317701378, 34876.00801897145, -187500.02235174447, -187500.02235174447, 10135.018543603248, -16763.495417057922, 4679.4047569519, -0.23, 0.918, 0.23600000000000002, 192.0, 0.0, 0.0, 0.0, 0.0, 0.0, 0.0, 0.0, 0.0, 0.0, 1.741476814975648E9, 0.0, 2025-03-08 17:33:34.975
255.0, 187500.0, 11385.419831922036, 34860.54061180838, -187500.02235174447, -187500.02235174447, 10133.118645324546, -16765.574129292265, 4676.275512728156, -0.23, 0.918, 0.23600000000000002, 192.0, 0.0, 0.0, 0.0, 0.0, 0.0, 0.0, 0.0, 0.0, 0.0, 1.741476814975667E9, 0.0, 2025-03-08 17:33:34.975
0.0, 187500.0, 11390.292512213293, 34868.16255666764, -187500.02235174447, -187500.02235174447, 10147.49081700931, -16744.07175112626, 4693.709873403296, -0.23, 0.918, 0.23600000000000002, 192.0, 0.0, 0.0, 0.0, 0.0, 0.0, 0.0, 0.0, 0.0, 0.0, 1.741476815035485E9, 0.0, 2025-03-08 17:33:35.035
1.0, 187500.0, 11405.514050187356, 34883.89818476417, -187500.02235174447, -187500.02235174447, 10148.67545946544, -16726.525631728844, 4694.3357222480445, -0.232, 0.926, 0.23600000000000002, 192.0, 248.0, 192.0, 28.0, 240.0, 7.0, 96.0, 0.0, 0.0, 0.0, 1.741476815035509E9, 0.0, 2025-03-08 17:33:35.035
2.0, 187500.0, 11413.001884579884, 34885.90984176515, -187500.02235174447, -187500.02235174447, 10142.595784973597, -16733.141748087615, 4705.332780520056, -0.232, 0.926, 0.23600000000000002, 192.0, 0.0, 0.0, 0.0, 0.0, 0.0, 0.0, 0.0, 0.0, 0.0, 1.741476815035538E9, 0.0, 2025-03-08 17:33:35.035
3.0, 187500.0, 11394.271122726337, 34869.97304796852, -187500.02235174447, -187500.02235174447, 10141.589956473108, -16756.2534518544, 4702.516460718687, -0.232, 0.926, 0.23600000000000002, 192.0, 0.0, 0.0, 0.0, 0.0, 0.0, 0.0, 0.0, 0.0, 0.0, 1.741476815035556E9, 0.0, 2025-03-08 17:33:35.035
4.0, 187500.0, 11384.838686566198, 34863.3792833542, -187500.02235174447, -187500.02235174447, 10140.829997161627, -16762.288422857335, 4692.949914091815, -0.232, 0.926, 0.23600000000000002, 192.0, 0.0, 0.0, 0.0, 0.0, 0.0, 0.0, 0.0, 0.0, 0.0, 1.741476815035582E9, 0.0, 2025-03-08 17:33:35.035
5.0, 187500.0, 11393.421756437036, 34866.95556246705, -187500.02235174447, -187500.02235174447, 10136.58316571512, -16736.673323711555, 4695.766233893184, -0.232, 0.926, 0.23600000000000002, 192.0, 0.0, 0.0, 0.0, 0.0, 0.0, 0.0, 0.0, 0.0, 0.0, 1.741476815035601E9, 0.0, 2025-03-08 17:33:35.035
6.0, 187500.0, 11401.803660607775, 34857.165498395625, -187500.02235174447, -187500.02235174447, 10126.81545338815, -16761.707277501497, 4683.808050609595, -0.232, 0.926, 0.23600000000000002, 192.0, 0.0, 0.0, 0.0, 0.0, 0.0, 0.0, 0.0, 0.0, 0.0, 1.741476815035619E9, 0.0, 2025-03-08 17:33:35.035
7.0, 187500.0, 11394.584047148712, 34851.8234314708, -187500.02235174447, -187500.02235174447, 10136.2925930372, -16754.286498342335, 4686.244390755223, -0.232, 0.926, 0.23600000000000002, 192.0, 0.0, 0.0, 0.0, 0.0, 0.0, 0.0, 0.0, 0.0, 0.0, 1.741476815035644E9, 0.0, 2025-03-08 17:33:35.035
8.0, 187500.0, 11383.341119687691, 34850.34821633676, -187500.02235174447, -187500.02235174447, 10140.405314016976, -16742.037742380828, 4690.871201857472, -0.232, 0.926, 0.23600000000000002, 192.0, 0.0, 0.0, 0.0, 0.0, 0.0, 0.0, 0.0, 0.0, 0.0, 1.741476815035662E9, 0.0, 2025-03-08 17:33:35.035
9.0, 187500.0, 11395.500468671378, 34858.350140851755, -187500.02235174447, -187500.02235174447, 10142.081694851124, -16748.296230828313, 4693.419300725377, -0.232, 0.926, 0.23600000000000002, 192.0, 0.0, 0.0, 0.0, 0.0, 0.0, 0.0, 0.0, 0.0, 0.0, 1.741476815035683E9, 0.0, 2025-03-08 17:33:35.035
10.0, 187500.0, 11411.705483401476, 34863.71455952103, -187500.02235174447, -187500.02235174447, 10135.599688959086, -16751.827806452253, 4688.59132392303, -0.232, 0.926, 0.23600000000000002, 192.0, 0.0, 0.0, 0.0, 0.0, 0.0, 0.0, 0.0, 0.0, 0.0, 1.741476815035704E9, 0.0, 2025-03-08 17:33:35.035
11.0, 187500.0, 11404.508221686867, 34848.02363491341, -187500.02235174447, -187500.02235174447, 10128.156558055469, -16754.532367531345, 4680.902323830405, -0.234, 0.926, 0.24, 192.0, 248.0, 176.0, 28.0, 240.0, 7.0, 128.0, 0.0, 0.0, 0.0, 1.741476815035723E9, 0.0, 2025-03-08 17:33:35.035
12.0, 187500.0, 11383.609340621155, 34842.99449241096, -187500.02235174447, -187500.02235174447, 10131.218747045845, -16750.151425618104, 4689.194821023324, -0.234, 0.926, 0.24, 192.0, 0.0, 0.0, 0.0, 0.0, 0.0, 0.0, 0.0, 0.0, 0.0, 1.741476815035743E9, 0.0, 2025-03-08 17:33:35.035
13.0, 187500.0, 11386.671529611533, 34864.38511185469, -187500.02235174447, -187500.02235174447, 10144.138055341013, -16752.341896574726, 4696.637951926941, -0.234, 0.926, 0.24, 192.0, 0.0, 0.0, 0.0, 0.0, 0.0, 0.0, 0.0, 0.0, 0.0, 1.741476815035762E9, 0.0, 2025-03-08 17:33:35.035
14.0, 187500.0, 11402.83184085272, 34874.26458290393, -187500.02235174447, -187500.02235174447, 10140.651183205984, -16749.391466306624, 4698.3813879944555, -0.234, 0.926, 0.24, 192.0, 0.0, 0.0, 0.0, 0.0, 0.0, 0.0, 0.0, 0.0, 0.0, 1.741476815035783E9, 0.0, 2025-03-08 17:33:35.035
15.0, 187500.0, 11406.788099621308, 34868.29666713437, -187500.02235174447, -187500.02235174447, 10146.261471064267, -16745.077579626748, 4703.701103174818, -0.234, 0.926, 0.24, 192.0, 0.0, 0.0, 0.0, 0.0, 0.0, 0.0, 0.0, 0.0, 0.0, 1.741476815094807E9, 0.0, 2025-03-08 17:33:35.094
16.0, 187500.0, 11388.906704057063, 34856.29378036187, -187500.02235174447, -187500.02235174447, 10150.329488555133, -16757.68396349954, 4702.4941089742315, -0.234, 0.926, 0.24, 192.0, 0.0, 0.0, 0.0, 0.0, 0.0, 0.0, 0.0, 0.0, 0.0, 1.741476815094831E9, 0.0, 2025-03-08 17:33:35.094
17.0, 187500.0, 11387.565599389745, 34857.56782979582, -187500.02235174447, -187500.02235174447, 10143.847482663094, -16755.247623353913, 4697.867297871983, -0.234, 0.926, 0.24, 192.0, 0.0, 0.0, 0.0, 0.0, 0.0, 0.0, 0.0, 0.0, 0.0, 1.74147681509485E9, 0.0, 2025-03-08 17:33:35.094
18.0, 187500.0, 11396.819221594242, 34859.02069318541, -187500.02235174447, -187500.02235174447, 10142.998116373792, -16744.11645461517, 4700.236582784246, -0.234, 0.926, 0.24, 192.0, 0.0, 0.0, 0.0, 0.0, 0.0, 0.0, 0.0, 0.0, 0.0, 1.741476815094875E9, 0.0, 2025-03-08 17:33:35.094
19.0, 187500.0, 11405.715215887454, 34867.1790799116, -187500.02235174447, -187500.02235174447, 10149.301308310189, -16726.749149173396, 4710.965420122793, -0.234, 0.926, 0.24, 192.0, 0.0, 0.0, 0.0, 0.0, 0.0, 0.0, 0.0, 0.0, 0.0, 1.741476815094897E9, 0.0, 2025-03-08 17:33:35.094
20.0, 187500.0, 11378.021404507328, 34858.81952748531, -187500.02235174447, -187500.02235174447, 10147.356706542578, -16742.21655633647, 4707.523251476676, -0.234, 0.926, 0.24, 192.0, 0.0, 0.0, 0.0, 0.0, 0.0, 0.0, 0.0, 0.0, 0.0, 1.741476815094919E9, 0.0, 2025-03-08 17:33:35.094
21.0, 187500.0, 11370.622977092622, 34854.79621348336, -187500.02235174447, -187500.02235174447, 10139.891223894505, -16754.822940209262, 4698.0908153165365, -0.23800000000000002, 0.924, 0.24, 192.0, 248.0, 144.0, 28.0, 224.0, 7.0, 128.0, 0.0, 0.0, 0.0, 1.741476815094938E9, 0.0, 2025-03-08 17:33:35.094
22.0, 187500.0, 11375.830933550707, 34853.63392277169, -187500.02235174447, -187500.02235174447, 10135.800854659183, -16761.12613214566, 4693.240486769734, -0.23800000000000002, 0.924, 0.24, 192.0, 0.0, 0.0, 0.0, 0.0, 0.0, 0.0, 0.0, 0.0, 0.0, 1.741476815094961E9, 0.0, 2025-03-08 17:33:35.094
23.0, 187500.0, 11387.677358112021, 34861.4793850755, -187500.02235174447, -187500.02235174447, 10136.694924437395, -16758.332164088748, 4691.698216402318, -0.23800000000000002, 0.924, 0.24, 192.0, 0.0, 0.0, 0.0, 0.0, 0.0, 0.0, 0.0, 0.0, 0.0, 1.74147681509498E9, 0.0, 2025-03-08 17:33:35.094
24.0, 187500.0, 11361.838741521686, 34849.76707098092, -187500.02235174447, -187500.02235174447, 10137.05255234868, -16754.01827740887, 4689.820669868072, -0.23800000000000002, 0.924, 0.24, 192.0, 0.0, 0.0, 0.0, 0.0, 0.0, 0.0, 0.0, 0.0, 0.0, 1.741476815095002E9, 0.0, 2025-03-08 17:33:35.095
25.0, 187500.0, 11354.350907129157, 34845.98962616797, -187500.02235174447, -187500.02235174447, 10135.487930236808, -16765.618832781176, 4692.50287920271, -0.23800000000000002, 0.924, 0.24, 192.0, 0.0, 0.0, 0.0, 0.0, 0.0, 0.0, 0.0, 0.0, 0.0, 1.74147681509502E9, 0.0, 2025-03-08 17:33:35.095
26.0, 187500.0, 11363.939805500486, 34852.404576826644, -187500.02235174447, -187500.02235174447, 10135.465578492354, -16745.815187193773, 4697.017931582682, -0.23800000000000002, 0.924, 0.24, 192.0, 0.0, 0.0, 0.0, 0.0, 0.0, 0.0, 0.0, 0.0, 0.0, 1.741476815095039E9, 0.0, 2025-03-08 17:33:35.095
27.0, 187500.0, 11376.501485884368, 34863.33457986529, -187500.02235174447, -187500.02235174447, 10133.118645324546, -16723.686960183022, 4700.504803717709, -0.23800000000000002, 0.924, 0.24, 192.0, 0.0, 0.0, 0.0, 0.0, 0.0, 0.0, 0.0, 0.0, 0.0, 1.741476815095057E9, 0.0, 2025-03-08 17:33:35.095
28.0, 187500.0, 11363.939805500486, 34858.1266234072, -187500.02235174447, -187500.02235174447, 10139.332430283122, -16720.244791536905, 4709.154928821913, -0.23800000000000002, 0.924, 0.24, 192.0, 0.0, 0.0, 0.0, 0.0, 0.0, 0.0, 0.0, 0.0, 0.0, 1.741476815095076E9, 0.0, 2025-03-08 17:33:35.095
29.0, 187500.0, 11354.14974142906, 34850.1246988922, -187500.02235174447, -187500.02235174447, 10137.164311070957, -16740.607230735688, 4697.710835660796, -0.23800000000000002, 0.924, 0.24, 192.0, 0.0, 0.0, 0.0, 0.0, 0.0, 0.0, 0.0, 0.0, 0.0, 1.741476815095097E9, 0.0, 2025-03-08 17:33:35.095
30.0, 187500.0, 11357.994241475373, 34850.303512847844, -187500.02235174447, -187500.02235174447, 10130.794063901194, -16750.73257097394, 4685.126803532458, -0.23800000000000002, 0.924, 0.24, 192.0, 0.0, 0.0, 0.0, 0.0, 0.0, 0.0, 0.0, 0.0, 0.0, 1.74147681515466E9, 0.0, 2025-03-08 17:33:35.154
31.0, 187500.0, 11379.004881263361, 34860.56296355283, -187500.02235174447, -187500.02235174447, 10135.465578492354, -16748.922079673062, 4687.473736700265, -0.234, 0.92, 0.246, 192.0, 248.0, 176.0, 28.0, 192.0, 7.0, 176.0, 0.0, 0.0, 0.0, 1.741476815154684E9, 0.0, 2025-03-08 17:33:35.154
32.0, 187500.0, 11369.05835498075, 34857.81369898483, -187500.02235174447, -187500.02235174447, 10136.694924437395, -16741.970687147463, 4706.584478209553, -0.234, 0.92, 0.246, 192.0, 0.0, 0.0, 0.0, 0.0, 0.0, 0.0, 0.0, 0.0, 0.0, 1.741476815154709E9, 0.0, 2025-03-08 17:33:35.154
33.0, 187500.0, 11357.211930419438, 34848.69418724706, -187500.02235174447, -187500.02235174447, 10137.901918637983, -16749.637335495634, 4712.485338745754, -0.234, 0.92, 0.246, 192.0, 0.0, 0.0, 0.0, 0.0, 0.0, 0.0, 0.0, 0.0, 0.0, 1.741476815154736E9, 0.0, 2025-03-08 17:33:35.154
34.0, 187500.0, 11368.656023580555, 34852.35987333773, -187500.02235174447, -187500.02235174447, 10144.540386741208, -16763.160140891094, 4710.898364889427, -0.234, 0.92, 0.246, 192.0, 0.0, 0.0, 0.0, 0.0, 0.0, 0.0, 0.0, 0.0, 0.0, 1.741476815154754E9, 0.0, 2025-03-08 17:33:35.154
35.0, 187500.0, 11379.742488830387, 34852.94101869357, -187500.02235174447, -187500.02235174447, 10137.209014559867, -16776.302966630814, 4699.230754283757, -0.234, 0.92, 0.246, 192.0, 0.0, 0.0, 0.0, 0.0, 0.0, 0.0, 0.0, 0.0, 0.0, 1.741476815154779E9, 0.0, 2025-03-08 17:33:35.154
36.0, 187500.0, 11368.566616602733, 34847.77776572439, -187500.02235174447, -187500.02235174447, 10139.064209349657, -16756.812245465786, 4696.772062393673, -0.234, 0.92, 0.246, 192.0, 0.0, 0.0, 0.0, 0.0, 0.0, 0.0, 0.0, 0.0, 0.0, 1.741476815154797E9, 0.0, 2025-03-08 17:33:35.154
37.0, 187500.0, 11350.238186149381, 34839.66408248712, -187500.02235174447, -187500.02235174447, 10141.43349426192, -16743.155329603593, 4696.6826554158515, -0.234, 0.92, 0.246, 192.0, 0.0, 0.0, 0.0, 0.0, 0.0, 0.0, 0.0, 0.0, 0.0, 1.741476815154816E9, 0.0, 2025-03-08 17:33:35.154
38.0, 187500.0, 11355.513197840834, 34842.212181355026, -187500.02235174447, -187500.02235174447, 10142.48402625132, -16756.722838487964, 4695.162736792891, -0.234, 0.92, 0.246, 192.0, 0.0, 0.0, 0.0, 0.0, 0.0, 0.0, 0.0, 0.0, 0.0, 1.741476815154837E9, 0.0, 2025-03-08 17:33:35.154
39.0, 187500.0, 11375.29449168378, 34846.66017850163, -187500.02235174447, -187500.02235174447, 10138.460712249365, -16773.710164273998, 4688.770137878673, -0.234, 0.92, 0.246, 192.0, 0.0, 0.0, 0.0, 0.0, 0.0, 0.0, 0.0, 0.0, 0.0, 1.741476815154858E9, 0.0, 2025-03-08 17:33:35.154
40.0, 187500.0, 11377.306148684758, 34847.10721339074, -187500.02235174447, -187500.02235174447, 10134.347991269588, -16768.099876415716, 4688.971303578771, -0.234, 0.92, 0.246, 192.0, 0.0, 0.0, 0.0, 0.0, 0.0, 0.0, 0.0, 0.0, 0.0, 1.741476815154877E9, 0.0, 2025-03-08 17:33:35.154
41.0, 187500.0, 11362.822218277719, 34844.76028022293, -187500.02235174447, -187500.02235174447, 10139.734761683318, -16755.4040855651, 4697.867297871983, -0.234, 0.922, 0.23800000000000002, 192.0, 248.0, 176.0, 28.0, 208.0, 7.0, 112.0, 0.0, 0.0, 0.0, 1.741476815154895E9, 0.0, 2025-03-08 17:33:35.154
42.0, 187500.0, 11369.706555569954, 34851.018768670416, -187500.02235174447, -187500.02235174447, 10137.834863404616, -16759.11447514468, 4694.268667014679, -0.234, 0.922, 0.23800000000000002, 192.0, 0.0, 0.0, 0.0, 0.0, 0.0, 0.0, 0.0, 0.0, 0.0, 1.741476815154916E9, 0.0, 2025-03-08 17:33:35.154
43.0, 187500.0, 11380.994186519883, 34846.883695946184, -187500.02235174447, -187500.02235174447, 10131.57637495713, -16769.485684571944, 4683.4727744427655, -0.234, 0.922, 0.23800000000000002, 192.0, 0.0, 0.0, 0.0, 0.0, 0.0, 0.0, 0.0, 0.0, 0.0, 1.741476815154935E9, 0.0, 2025-03-08 17:33:35.154
44.0, 187500.0, 11385.263369710849, 34845.497887789956, -187500.02235174447, -187500.02235174447, 10133.789197658205, -16753.683001242043, 4685.707948888296, -0.234, 0.922, 0.23800000000000002, 192.0, 0.0, 0.0, 0.0, 0.0, 0.0, 0.0, 0.0, 0.0, 0.0, 1.741476815154956E9, 0.0, 2025-03-08 17:33:35.154
45.0, 187500.0, 11363.15749444455, 34832.10919286122, -187500.02235174447, -187500.02235174447, 10131.2410987903, -16751.6042890077, 4694.603943181508, -0.234, 0.922, 0.23800000000000002, 192.0, 0.0, 0.0, 0.0, 0.0, 0.0, 0.0, 0.0, 0.0, 0.0, 1.741476815214914E9, 0.0, 2025-03-08 17:33:35.214
46.0, 187500.0, 11364.364488645137, 34835.618416740705, -187500.02235174447, -187500.02235174447, 10141.254680306278, -16750.151425618104, 4702.203536296312, -0.234, 0.922, 0.23800000000000002, 192.0, 0.0, 0.0, 0.0, 0.0, 0.0, 0.0, 0.0, 0.0, 0.0, 1.741476815214942E9, 0.0, 2025-03-08 17:33:35.214
47.0, 187500.0, 11375.830933550707, 34841.80984995483, -187500.02235174447, -187500.02235174447, 10144.361572785565, -16748.87737618415, 4701.197707795824, -0.234, 0.922, 0.23800000000000002, 192.0, 0.0, 0.0, 0.0, 0.0, 0.0, 0.0, 0.0, 0.0, 0.0, 1.74147681521496E9, 0.0, 2025-03-08 17:33:35.214
48.0, 187500.0, 11383.162305732048, 34843.82150695581, -187500.02235174447, -187500.02235174447, 10132.626906946529, -16753.83946345323, 4691.050015813114, -0.234, 0.922, 0.23800000000000002, 192.0, 0.0, 0.0, 0.0, 0.0, 0.0, 0.0, 0.0, 0.0, 0.0, 1.741476815214979E9, 0.0, 2025-03-08 17:33:35.214
49.0, 187500.0, 11359.894139754075, 34833.65146322864, -187500.02235174447, -187500.02235174447, 10138.058380849168, -16747.580975005745, 4695.877992615461, -0.234, 0.922, 0.23800000000000002, 192.0, 0.0, 0.0, 0.0, 0.0, 0.0, 0.0, 0.0, 0.0, 0.0, 1.741476815215006E9, 0.0, 2025-03-08 17:33:35.215
50.0, 187500.0, 11352.205139661448, 34835.99839639645, -187500.02235174447, -187500.02235174447, 10144.540386741208, -16741.590707491723, 4698.426091483366, -0.234, 0.922, 0.23800000000000002, 192.0, 0.0, 0.0, 0.0, 0.0, 0.0, 0.0, 0.0, 0.0, 0.0, 1.741476815215028E9, 0.0, 2025-03-08 17:33:35.215
51.0, 187500.0, 11357.34604088617, 34838.94882666455, -187500.02235174447, -187500.02235174447, 10142.975764629336, -16749.972611662462, 4700.035417084148, -0.23800000000000002, 0.926, 0.242, 192.0, 248.0, 144.0, 28.0, 240.0, 7.0, 144.0, 0.0, 0.0, 0.0, 1.74147681521505E9, 0.0, 2025-03-08 17:33:35.215
52.0, 187500.0, 11367.717250313432, 34838.211219097524, -187500.02235174447, -187500.02235174447, 10135.689095936907, -16758.198053622014, 4697.129690304958, -0.23800000000000002, 0.926, 0.242, 192.0, 0.0, 0.0, 0.0, 0.0, 0.0, 0.0, 0.0, 0.0, 0.0, 1.741476815215071E9, 0.0, 2025-03-08 17:33:35.215
53.0, 187500.0, 11350.215834404926, 34826.87888465868, -187500.02235174447, -187500.02235174447, 10133.677438935929, -16759.31564084478, 4704.6622281863965, -0.23800000000000002, 0.926, 0.242, 192.0, 0.0, 0.0, 0.0, 0.0, 0.0, 0.0, 0.0, 0.0, 0.0, 1.741476815215091E9, 0.0, 2025-03-08 17:33:35.215
54.0, 187500.0, 11344.270270379815, 34825.6718904581, -187500.02235174447, -187500.02235174447, 10132.448092990888, -16767.094047915227, 4702.114129318492, -0.23800000000000002, 0.926, 0.242, 192.0, 0.0, 0.0, 0.0, 0.0, 0.0, 0.0, 0.0, 0.0, 0.0, 1.74147681521511E9, 0.0, 2025-03-08 17:33:35.215
55.0, 187500.0, 11358.307165897748, 34840.20052435405, -187500.02235174447, -187500.02235174447, 10131.710485423862, -16753.03480065284, 4702.114129318492, -0.23800000000000002, 0.926, 0.242, 192.0, 0.0, 0.0, 0.0, 0.0, 0.0, 0.0, 0.0, 0.0, 0.0, 1.741476815215131E9, 0.0, 2025-03-08 17:33:35.215
56.0, 187500.0, 11382.357642931658, 34854.66210301663, -187500.02235174447, -187500.02235174447, 10140.539424483708, -16743.959992403983, 4704.3716555084775, -0.23800000000000002, 0.926, 0.242, 192.0, 0.0, 0.0, 0.0, 0.0, 0.0, 0.0, 0.0, 0.0, 0.0, 1.741476815215149E9, 0.0, 2025-03-08 17:33:35.215
57.0, 187500.0, 11372.455820137957, 34846.950751179545, -187500.02235174447, -187500.02235174447, 10140.338258783611, -16746.955126160996, 4704.796338653128, -0.23800000000000002, 0.926, 0.242, 192.0, 0.0, 0.0, 0.0, 0.0, 0.0, 0.0, 0.0, 0.0, 0.0, 1.741476815215168E9, 0.0, 2025-03-08 17:33:35.215
58.0, 187500.0, 11353.121561184116, 34835.88663767417, -187500.02235174447, -187500.02235174447, 10133.789197658205, -16757.08046639925, 4709.870184644483, -0.23800000000000002, 0.926, 0.242, 192.0, 0.0, 0.0, 0.0, 0.0, 0.0, 0.0, 0.0, 0.0, 0.0, 1.741476815215186E9, 0.0, 2025-03-08 17:33:35.215
59.0, 187500.0, 11359.223587420414, 34840.64755924315, -187500.02235174447, -187500.02235174447, 10134.14682556949, -16747.82684419475, 4717.894460903938, -0.23800000000000002, 0.926, 0.242, 192.0, 0.0, 0.0, 0.0, 0.0, 0.0, 0.0, 0.0, 0.0, 0.0, 1.741476815215205E9, 0.0, 2025-03-08 17:33:35.215
60.0, 187500.0, 11376.836762051196, 34852.91866694912, -187500.02235174447, -187500.02235174447, 10133.677438935929, -16733.387617276625, 4717.737998692751, -0.23800000000000002, 0.926, 0.242, 192.0, 0.0, 0.0, 0.0, 0.0, 0.0, 0.0, 0.0, 0.0, 0.0, 1.741476815275239E9, 0.0, 2025-03-08 17:33:35.275
61.0, 187500.0, 11371.91937827103, 34849.00711166944, -187500.02235174447, -187500.02235174447, 10132.112816824058, -16739.869623168663, 4708.842004399539, -0.23600000000000002, 0.928, 0.242, 192.0, 248.0, 160.0, 29.0, 0.0, 7.0, 144.0, 0.0, 0.0, 0.0, 1.741476815275262E9, 0.0, 2025-03-08 17:33:35.275
62.0, 187500.0, 11352.763933272832, 34837.56301850832, -187500.02235174447, -187500.02235174447, 10128.469482477842, -16757.192225121526, 4704.908097375404, -0.23600000000000002, 0.928, 0.242, 192.0, 0.0, 0.0, 0.0, 0.0, 0.0, 0.0, 0.0, 0.0, 0.0, 1.741476815275281E9, 0.0, 2025-03-08 17:33:35.275
63.0, 187500.0, 11362.710459555443, 34839.70878597603, -187500.02235174447, -187500.02235174447, 10132.850424391083, -16761.707277501497, 4707.210327054301, -0.23600000000000002, 0.928, 0.242, 192.0, 0.0, 0.0, 0.0, 0.0, 0.0, 0.0, 0.0, 0.0, 0.0, 1.7414768152753E9, 0.0, 2025-03-08 17:33:35.275
64.0, 187500.0, 11373.372241660625, 34840.89342843216, -187500.02235174447, -187500.02235174447, 10129.341200511599, -16760.053248411805, 4705.802167153617, -0.23600000000000002, 0.928, 0.242, 192.0, 0.0, 0.0, 0.0, 0.0, 0.0, 0.0, 0.0, 0.0, 0.0, 1.741476815275327E9, 0.0, 2025-03-08 17:33:35.275
65.0, 187500.0, 11374.400421905568, 34839.41821329811, -187500.02235174447, -187500.02235174447, 10131.799892401683, -16756.812245465786, 4703.231716541257, -0.23600000000000002, 0.928, 0.242, 192.0, 0.0, 0.0, 0.0, 0.0, 0.0, 0.0, 0.0, 0.0, 0.0, 1.741476815275348E9, 0.0, 2025-03-08 17:33:35.275
66.0, 187500.0, 11359.514160098333, 34831.41628878311, -187500.02235174447, -187500.02235174447, 10138.080732593624, -16754.17473962006, 4707.255030543212, -0.23600000000000002, 0.928, 0.242, 192.0, 0.0, 0.0, 0.0, 0.0, 0.0, 0.0, 0.0, 0.0, 0.0, 1.74147681527537E9, 0.0, 2025-03-08 17:33:35.275
67.0, 187500.0, 11362.95632874445, 34828.219989326004, -187500.02235174447, -187500.02235174447, 10135.86790989255, -16755.806416965297, 4707.746768921229, -0.23600000000000002, 0.928, 0.242, 192.0, 0.0, 0.0, 0.0, 0.0, 0.0, 0.0, 0.0, 0.0, 0.0, 1.741476815275389E9, 0.0, 2025-03-08 17:33:35.275
68.0, 187500.0, 11377.194389962482, 34833.807925439825, -187500.02235174447, -187500.02235174447, 10134.593860458597, -16751.224309351957, 4712.708856190307, -0.23600000000000002, 0.928, 0.242, 192.0, 0.0, 0.0, 0.0, 0.0, 0.0, 0.0, 0.0, 0.0, 0.0, 1.741476815275408E9, 0.0, 2025-03-08 17:33:35.275
69.0, 187500.0, 11383.899913299074, 34839.46291678702, -187500.02235174447, -187500.02235174447, 10135.689095936907, -16747.4021610501, 4718.5203097486865, -0.23600000000000002, 0.928, 0.242, 192.0, 0.0, 0.0, 0.0, 0.0, 0.0, 0.0, 0.0, 0.0, 0.0, 1.741476815275429E9, 0.0, 2025-03-08 17:33:35.275
70.0, 187500.0, 11359.894139754075, 34828.13058234818, -187500.02235174447, -187500.02235174447, 10130.078808078624, -16747.491568027923, 4711.1218823339805, -0.23600000000000002, 0.928, 0.242, 192.0, 0.0, 0.0, 0.0, 0.0, 0.0, 0.0, 0.0, 0.0, 0.0, 1.741476815275451E9, 0.0, 2025-03-08 17:33:35.275
71.0, 187500.0, 11362.643404322078, 34829.404631782134, -187500.02235174447, -187500.02235174447, 10135.510281981264, -16749.480873284447, 4710.250164300223, -0.24, 0.928, 0.234, 192.0, 248.0, 128.0, 29.0, 0.0, 7.0, 80.0, 0.0, 0.0, 0.0, 1.741476815275469E9, 0.0, 2025-03-08 17:33:35.275
72.0, 187500.0, 11375.562712617244, 34833.58440799527, -187500.02235174447, -187500.02235174447, 10135.063247092157, -16749.480873284447, 4709.221984055279, -0.24, 0.928, 0.234, 192.0, 0.0, 0.0, 0.0, 0.0, 0.0, 0.0, 0.0, 0.0, 0.0, 1.741476815275489E9, 0.0, 2025-03-08 17:33:35.275
73.0, 187500.0, 11391.521858158334, 34839.66408248712, -187500.02235174447, -187500.02235174447, 10132.269279035245, -16748.363286061678, 4708.21615555479, -0.24, 0.928, 0.234, 192.0, 0.0, 0.0, 0.0, 0.0, 0.0, 0.0, 0.0, 0.0, 0.0, 1.741476815275508E9, 0.0, 2025-03-08 17:33:35.275
74.0, 187500.0, 11373.528703871812, 34831.3715852942, -187500.02235174447, -187500.02235174447, 10130.995229601293, -16751.78310296334, 4713.759388179707, -0.24, 0.928, 0.234, 192.0, 0.0, 0.0, 0.0, 0.0, 0.0, 0.0, 0.0, 0.0, 0.0, 1.741476815275527E9, 0.0, 2025-03-08 17:33:35.275
75.0, 187500.0, 11368.521913113824, 34833.31618706181, -187500.02235174447, -187500.02235174447, 10137.968973871348, -16747.737437216932, 4719.772007438184, -0.24, 0.928, 0.234, 192.0, 0.0, 0.0, 0.0, 0.0, 0.0, 0.0, 0.0, 0.0, 0.0, 1.741476815335487E9, 0.0, 2025-03-08 17:33:35.335
76.0, 187500.0, 11378.267273696336, 34836.825410941296, -187500.02235174447, -187500.02235174447, 10137.09725583759, -16756.856948954697, 4712.731207934762, -0.24, 0.928, 0.234, 192.0, 0.0, 0.0, 0.0, 0.0, 0.0, 0.0, 0.0, 0.0, 0.0, 1.741476815335535E9, 0.0, 2025-03-08 17:33:35.335
77.0, 187500.0, 11387.498544156379, 34838.345329564254, -187500.02235174447, -187500.02235174447, 10130.43643598991, -16768.703373516008, 4708.059693343603, -0.24, 0.928, 0.234, 192.0, 0.0, 0.0, 0.0, 0.0, 0.0, 0.0, 0.0, 0.0, 0.0, 1.741476815335553E9, 0.0, 2025-03-08 17:33:35.335
78.0, 187500.0, 11367.896064269074, 34834.925512662594, -187500.02235174447, -187500.02235174447, 10132.023409846237, -16768.301042115814, 4713.424112012877, -0.24, 0.928, 0.234, 192.0, 0.0, 0.0, 0.0, 0.0, 0.0, 0.0, 0.0, 0.0, 0.0, 1.741476815335572E9, 0.0, 2025-03-08 17:33:35.335
79.0, 187500.0, 11358.843607764675, 34833.09266961726, -187500.02235174447, -187500.02235174447, 10131.017581345748, -16762.243719368427, 4715.569879480587, -0.24, 0.928, 0.234, 192.0, 0.0, 0.0, 0.0, 0.0, 0.0, 0.0, 0.0, 0.0, 0.0, 1.7414768153356E9, 0.0, 2025-03-08 17:33:35.335
80.0, 187500.0, 11365.884407268097, 34840.178172609594, -187500.02235174447, -187500.02235174447, 10130.548194712186, -16755.560547776287, 4718.3638475375, -0.24, 0.928, 0.234, 192.0, 0.0, 0.0, 0.0, 0.0, 0.0, 0.0, 0.0, 0.0, 0.0, 1.741476815335619E9, 0.0, 2025-03-08 17:33:35.335
81.0, 187500.0, 11382.223532464926, 34853.253943115946, -187500.02235174447, -187500.02235174447, 10135.979668614826, -16743.378847048145, 4726.119902863491, -0.23600000000000002, 0.93, 0.23600000000000002, 192.0, 248.0, 160.0, 29.0, 16.0, 7.0, 96.0, 0.0, 0.0, 0.0, 1.741476815335643E9, 0.0, 2025-03-08 17:33:35.335
82.0, 187500.0, 11368.991299747384, 34846.14608837916, -187500.02235174447, -187500.02235174447, 10132.693962179896, -16743.401198792602, 4725.784626696662, -0.23600000000000002, 0.93, 0.23600000000000002, 192.0, 0.0, 0.0, 0.0, 0.0, 0.0, 0.0, 0.0, 0.0, 0.0, 1.741476815335663E9, 0.0, 2025-03-08 17:33:35.335
83.0, 187500.0, 11355.312032140737, 34837.518315019406, -187500.02235174447, -187500.02235174447, 10131.375209257032, -16746.79866394981, 4721.046056872136, -0.23600000000000002, 0.93, 0.23600000000000002, 192.0, 0.0, 0.0, 0.0, 0.0, 0.0, 0.0, 0.0, 0.0, 0.0, 1.741476815335682E9, 0.0, 2025-03-08 17:33:35.335
84.0, 187500.0, 11364.72211655642, 34843.55328602234, -187500.02235174447, -187500.02235174447, 10132.24692729079, -16743.289440070326, 4723.5047487622205, -0.23600000000000002, 0.93, 0.23600000000000002, 192.0, 0.0, 0.0, 0.0, 0.0, 0.0, 0.0, 0.0, 0.0, 0.0, 1.741476815335706E9, 0.0, 2025-03-08 17:33:35.335
85.0, 187500.0, 11376.993224262384, 34850.34821633676, -187500.02235174447, -187500.02235174447, 10129.408255744966, -16750.710219229488, 4719.704952204818, -0.23600000000000002, 0.93, 0.23600000000000002, 192.0, 0.0, 0.0, 0.0, 0.0, 0.0, 0.0, 0.0, 0.0, 0.0, 1.741476815335728E9, 0.0, 2025-03-08 17:33:35.335
86.0, 187500.0, 11365.146799701071, 34842.65921624413, -187500.02235174447, -187500.02235174447, 10130.279973778723, -16757.639260010634, 4715.83810041405, -0.23600000000000002, 0.93, 0.23600000000000002, 192.0, 0.0, 0.0, 0.0, 0.0, 0.0, 0.0, 0.0, 0.0, 0.0, 1.741476815335746E9, 0.0, 2025-03-08 17:33:35.335
87.0, 187500.0, 11352.205139661448, 34841.18400111008, -187500.02235174447, -187500.02235174447, 10138.214843060356, -16746.910422672085, 4723.437693528855, -0.23600000000000002, 0.93, 0.23600000000000002, 192.0, 0.0, 0.0, 0.0, 0.0, 0.0, 0.0, 0.0, 0.0, 0.0, 1.741476815335765E9, 0.0, 2025-03-08 17:33:35.335
88.0, 187500.0, 11366.44320087948, 34850.57173378131, -187500.02235174447, -187500.02235174447, 10142.52872974023, -16740.540175502323, 4727.393952297443, -0.23600000000000002, 0.93, 0.23600000000000002, 192.0, 0.0, 0.0, 0.0, 0.0, 0.0, 0.0, 0.0, 0.0, 0.0, 1.741476815335784E9, 0.0, 2025-03-08 17:33:35.335
89.0, 187500.0, 11378.893122541085, 34847.19662036856, -187500.02235174447, -187500.02235174447, 10136.717276181851, -16757.37103907717, 4730.120865120991, -0.23600000000000002, 0.93, 0.23600000000000002, 192.0, 0.0, 0.0, 0.0, 0.0, 0.0, 0.0, 0.0, 0.0, 0.0, 1.741476815335803E9, 0.0, 2025-03-08 17:33:35.335
90.0, 187500.0, 11378.848419052174, 34842.56980926631, -187500.02235174447, -187500.02235174447, 10142.238157062311, -16762.5566437908, 4727.46100753081, -0.23600000000000002, 0.93, 0.23600000000000002, 192.0, 0.0, 0.0, 0.0, 0.0, 0.0, 0.0, 0.0, 0.0, 0.0, 1.741476815395837E9, 0.0, 2025-03-08 17:33:35.395
91.0, 187500.0, 11359.558863587245, 34837.56301850832, -187500.02235174447, -187500.02235174447, 10143.087523351613, -16744.74230345992, 4740.872054203994, -0.234, 0.93, 0.234, 192.0, 248.0, 176.0, 29.0, 16.0, 7.0, 80.0, 0.0, 0.0, 0.0, 1.741476815395862E9, 0.0, 2025-03-08 17:33:35.395
92.0, 187500.0, 11362.86692176663, 34839.50762027593, -187500.02235174447, -187500.02235174447, 10137.05255234868, -16739.579050490745, 4737.072257646591, -0.234, 0.93, 0.234, 192.0, 0.0, 0.0, 0.0, 0.0, 0.0, 0.0, 0.0, 0.0, 0.0, 1.741476815395882E9, 0.0, 2025-03-08 17:33:35.395
93.0, 187500.0, 11374.713346327942, 34840.69226273206, -187500.02235174447, -187500.02235174447, 10130.235270289812, -16745.077579626748, 4728.802112198128, -0.234, 0.93, 0.234, 192.0, 0.0, 0.0, 0.0, 0.0, 0.0, 0.0, 0.0, 0.0, 0.0, 1.741476815395901E9, 0.0, 2025-03-08 17:33:35.395
94.0, 187500.0, 11379.228398707915, 34846.21314361252, -187500.02235174447, -187500.02235174447, 10135.420875003443, -16734.996942877406, 4742.615490271508, -0.234, 0.93, 0.234, 192.0, 0.0, 0.0, 0.0, 0.0, 0.0, 0.0, 0.0, 0.0, 0.0, 1.741476815395919E9, 0.0, 2025-03-08 17:33:35.395
95.0, 187500.0, 11357.457799608446, 34841.69809123255, -187500.02235174447, -187500.02235174447, 10142.14875008449, -16731.331256786736, 4748.046964174147, -0.234, 0.93, 0.234, 192.0, 0.0, 0.0, 0.0, 0.0, 0.0, 0.0, 0.0, 0.0, 0.0, 1.741476815395948E9, 0.0, 2025-03-08 17:33:35.395
96.0, 187500.0, 11357.234282163892, 34839.529972020384, -187500.02235174447, -187500.02235174447, 10143.266337307256, -16731.97945737594, 4746.817618229105, -0.234, 0.93, 0.234, 192.0, 0.0, 0.0, 0.0, 0.0, 0.0, 0.0, 0.0, 0.0, 0.0, 1.741476815395971E9, 0.0, 2025-03-08 17:33:35.395
97.0, 187500.0, 11370.57827360371, 34846.883695946184, -187500.02235174447, -187500.02235174447, 10143.221633818344, -16735.55573648879, 4747.465818818309, -0.234, 0.93, 0.234, 192.0, 0.0, 0.0, 0.0, 0.0, 0.0, 0.0, 0.0, 0.0, 0.0, 1.741476815395992E9, 0.0, 2025-03-08 17:33:35.395
98.0, 187500.0, 11381.15064873107, 34852.15870763764, -187500.02235174447, -187500.02235174447, 10140.606479717075, -16751.6042890077, 4741.36379258201, -0.234, 0.93, 0.234, 192.0, 0.0, 0.0, 0.0, 0.0, 0.0, 0.0, 0.0, 0.0, 0.0, 1.74147681539601E9, 0.0, 2025-03-08 17:33:35.396
99.0, 187500.0, 11358.06129670874, 34837.384204552676, -187500.02235174447, -187500.02235174447, 10139.511244238764, -16752.274841341357, 4739.396839069944, -0.234, 0.93, 0.234, 192.0, 0.0, 0.0, 0.0, 0.0, 0.0, 0.0, 0.0, 0.0, 0.0, 1.741476815396031E9, 0.0, 2025-03-08 17:33:35.396
100.0, 187500.0, 11356.228453663403, 34833.69616671755, -187500.02235174447, -187500.02235174447, 10136.873738393038, -16753.683001242043, 4732.713667477807, -0.234, 0.93, 0.234, 192.0, 0.0, 0.0, 0.0, 0.0, 0.0, 0.0, 0.0, 0.0, 0.0, 1.74147681539605E9, 0.0, 2025-03-08 17:33:35.396
101.0, 187500.0, 11364.00686073385, 34842.413347055124, -187500.02235174447, -187500.02235174447, 10140.248851805789, -16747.782140705844, 4739.88857744796, -0.234, 0.928, 0.23600000000000002, 192.0, 248.0, 176.0, 29.0, 0.0, 7.0, 96.0, 0.0, 0.0, 0.0, 1.741476815396072E9, 0.0, 2025-03-08 17:33:35.396
102.0, 187500.0, 11376.613244606644, 34850.594085525765, -187500.02235174447, -187500.02235174447, 10138.460712249365, -16741.300134813802, 4741.609661771019, -0.234, 0.928, 0.23600000000000002, 192.0, 0.0, 0.0, 0.0, 0.0, 0.0, 0.0, 0.0, 0.0, 0.0, 1.741476815396096E9, 0.0, 2025-03-08 17:33:35.396
103.0, 187500.0, 11352.361601872635, 34833.36089055072, -187500.02235174447, -187500.02235174447, 10131.844595890594, -16751.425475052056, 4737.563996024608, -0.234, 0.928, 0.23600000000000002, 192.0, 0.0, 0.0, 0.0, 0.0, 0.0, 0.0, 0.0, 0.0, 0.0, 1.741476815396114E9, 0.0, 2025-03-08 17:33:35.396
104.0, 187500.0, 11345.589023302678, 34830.99160563846, -187500.02235174447, -187500.02235174447, 10138.572470971641, -16736.762730689374, 4745.901196706438, -0.234, 0.928, 0.23600000000000002, 192.0, 0.0, 0.0, 0.0, 0.0, 0.0, 0.0, 0.0, 0.0, 0.0, 1.741476815396133E9, 0.0, 2025-03-08 17:33:35.396
105.0, 187500.0, 11352.652174550554, 34833.405594039636, -187500.02235174447, -187500.02235174447, 10138.81834016065, -16728.53728872982, 4744.4036298279325, -0.234, 0.928, 0.23600000000000002, 192.0, 0.0, 0.0, 0.0, 0.0, 0.0, 0.0, 0.0, 0.0, 0.0, 1.741476815456241E9, 0.0, 2025-03-08 17:33:35.456
106.0, 187500.0, 11370.891198026085, 34839.75348946494, -187500.02235174447, -187500.02235174447, 10138.617174460553, -16733.678189954542, 4746.728211251284, -0.234, 0.928, 0.23600000000000002, 192.0, 0.0, 0.0, 0.0, 0.0, 0.0, 0.0, 0.0, 0.0, 0.0, 1.741476815456274E9, 0.0, 2025-03-08 17:33:35.456
107.0, 187500.0, 11362.084610710694, 34838.54649526435, -187500.02235174447, -187500.02235174447, 10142.81930241815, -16738.237945823425, 4752.114981665013, -0.234, 0.928, 0.23600000000000002, 192.0, 0.0, 0.0, 0.0, 0.0, 0.0, 0.0, 0.0, 0.0, 0.0, 1.741476815456293E9, 0.0, 2025-03-08 17:33:35.456
108.0, 187500.0, 11345.521968069312, 34834.098498117746, -187500.02235174447, -187500.02235174447, 10147.133189098024, -16748.631506995145, 4751.533836309175, -0.234, 0.928, 0.23600000000000002, 192.0, 0.0, 0.0, 0.0, 0.0, 0.0, 0.0, 0.0, 0.0, 0.0, 1.741476815456312E9, 0.0, 2025-03-08 17:33:35.456
109.0, 187500.0, 11352.227491405903, 34832.958559150524, -187500.02235174447, -187500.02235174447, 10149.43541877692, -16747.871547683662, 4752.338499109566, -0.234, 0.928, 0.23600000000000002, 192.0, 0.0, 0.0, 0.0, 0.0, 0.0, 0.0, 0.0, 0.0, 0.0, 1.74147681545633E9, 0.0, 2025-03-08 17:33:35.456
110.0, 187500.0, 11372.768744560331, 34836.400727796645, -187500.02235174447, -187500.02235174447, 10150.575357744141, -16755.672306498564, 4754.953653210838, -0.234, 0.928, 0.23600000000000002, 192.0, 0.0, 0.0, 0.0, 0.0, 0.0, 0.0, 0.0, 0.0, 0.0, 1.741476815456353E9, 0.0, 2025-03-08 17:33:35.456
111.0, 187500.0, 11362.598700833167, 34825.60483522473, -187500.02235174447, -187500.02235174447, 10142.394619273498, -16774.715992774487, 4746.370583339999, -0.228, 0.926, 0.24, 192.0, 248.0, 224.0, 28.0, 240.0, 7.0, 128.0, 0.0, 0.0, 0.0, 1.741476815456372E9, 0.0, 2025-03-08 17:33:35.456
112.0, 187500.0, 11342.616241290121, 34818.40757351012, -187500.02235174447, -187500.02235174447, 10140.986459372814, -16763.6071757802, 4746.795266484651, -0.228, 0.926, 0.24, 192.0, 0.0, 0.0, 0.0, 0.0, 0.0, 0.0, 0.0, 0.0, 0.0, 1.741476815456398E9, 0.0, 2025-03-08 17:33:35.456
113.0, 187500.0, 11353.635651306588, 34830.455163771534, -187500.02235174447, -187500.02235174447, 10146.730857697828, -16740.83074818024, 4749.991565941759, -0.228, 0.926, 0.24, 192.0, 0.0, 0.0, 0.0, 0.0, 0.0, 0.0, 0.0, 0.0, 0.0, 1.741476815456417E9, 0.0, 2025-03-08 17:33:35.456
114.0, 187500.0, 11367.314918913236, 34840.580504009784, -187500.02235174447, -187500.02235174447, 10143.758075685273, -16726.07859683974, 4742.906062949427, -0.228, 0.926, 0.24, 192.0, 0.0, 0.0, 0.0, 0.0, 0.0, 0.0, 0.0, 0.0, 0.0, 1.741476815456436E9, 0.0, 2025-03-08 17:33:35.456
115.0, 187500.0, 11361.503465354857, 34837.294797574854, -187500.02235174447, -187500.02235174447, 10137.901918637983, -16732.06886435376, 4736.22289135729, -0.228, 0.926, 0.24, 192.0, 0.0, 0.0, 0.0, 0.0, 0.0, 0.0, 0.0, 0.0, 0.0, 1.741476815456458E9, 0.0, 2025-03-08 17:33:35.456
116.0, 187500.0, 11344.136159913083, 34829.069355615306, -187500.02235174447, -187500.02235174447, 10143.19928207389, -16733.164099832073, 4754.528970066187, -0.228, 0.926, 0.24, 192.0, 0.0, 0.0, 0.0, 0.0, 0.0, 0.0, 0.0, 0.0, 0.0, 1.741476815456479E9, 0.0, 2025-03-08 17:33:35.456
117.0, 187500.0, 11351.176959416505, 34831.12571610519, -187500.02235174447, -187500.02235174447, 10143.623965218541, -16738.081483612237, 4760.496885835753, -0.228, 0.926, 0.24, 192.0, 0.0, 0.0, 0.0, 0.0, 0.0, 0.0, 0.0, 0.0, 0.0, 1.741476815456498E9, 0.0, 2025-03-08 17:33:35.456
118.0, 187500.0, 11367.225511935416, 34840.6252074987, -187500.02235174447, -187500.02235174447, 10141.835825662116, -16747.02218139436, 4749.879807219482, -0.228, 0.926, 0.24, 192.0, 0.0, 0.0, 0.0, 0.0, 0.0, 0.0, 0.0, 0.0, 0.0, 1.741476815456517E9, 0.0, 2025-03-08 17:33:35.456
119.0, 187500.0, 11375.428602150512, 34839.90995167613, -187500.02235174447, -187500.02235174447, 10134.48210173632, -16753.772408219866, 4741.207330370824, -0.228, 0.926, 0.24, 192.0, 0.0, 0.0, 0.0, 0.0, 0.0, 0.0, 0.0, 0.0, 0.0, 1.741476815456535E9, 0.0, 2025-03-08 17:33:35.456
120.0, 187500.0, 11357.34604088617, 34830.63397772717, -187500.02235174447, -187500.02235174447, 10140.002982616781, -16755.292326842824, 4743.867187961005, -0.228, 0.926, 0.24, 192.0, 0.0, 0.0, 0.0, 0.0, 0.0, 0.0, 0.0, 0.0, 0.0, 1.741476815514951E9, 0.0, 2025-03-08 17:33:35.514
121.0, 187500.0, 11366.197331690471, 34840.49109703196, -187500.02235174447, -187500.02235174447, 10151.357668800078, -16744.228213337447, 4758.015842201215, -0.228, 0.928, 0.244, 192.0, 248.0, 224.0, 29.0, 0.0, 7.0, 160.0, 0.0, 0.0, 0.0, 1.741476815514985E9, 0.0, 2025-03-08 17:33:35.514
122.0, 187500.0, 11382.87173305413, 34849.968236681016, -187500.02235174447, -187500.02235174447, 10156.766790958261, -16730.034855608326, 4772.5221243527085, -0.228, 0.928, 0.244, 192.0, 0.0, 0.0, 0.0, 0.0, 0.0, 0.0, 0.0, 0.0, 0.0, 1.741476815515006E9, 0.0, 2025-03-08 17:33:35.515
123.0, 187500.0, 11392.147707003083, 34846.3249023348, -187500.02235174447, -187500.02235174447, 10148.764866443262, -16735.823957422253, 4760.385127113477, -0.228, 0.928, 0.244, 192.0, 0.0, 0.0, 0.0, 0.0, 0.0, 0.0, 0.0, 0.0, 0.0, 1.741476815515024E9, 0.0, 2025-03-08 17:33:35.515
124.0, 187500.0, 11369.170113703027, 34831.3715852942, -187500.02235174447, -187500.02235174447, 10138.348953527087, -16750.352591318202, 4745.476513561787, -0.228, 0.928, 0.244, 192.0, 0.0, 0.0, 0.0, 0.0, 0.0, 0.0, 0.0, 0.0, 0.0, 1.741476815515043E9, 0.0, 2025-03-08 17:33:35.515
125.0, 187500.0, 11357.457799608446, 34828.39880328164, -187500.02235174447, -187500.02235174447, 10131.95635461287, -16753.995925664418, 4742.436676315865, -0.228, 0.928, 0.244, 192.0, 0.0, 0.0, 0.0, 0.0, 0.0, 0.0, 0.0, 0.0, 0.0, 1.741476815515068E9, 0.0, 2025-03-08 17:33:35.515
126.0, 187500.0, 11359.782381031799, 34828.018823625905, -187500.02235174447, -187500.02235174447, 10128.804758644672, -16771.497341572922, 4732.736019222262, -0.228, 0.928, 0.244, 192.0, 0.0, 0.0, 0.0, 0.0, 0.0, 0.0, 0.0, 0.0, 0.0, 1.741476815515086E9, 0.0, 2025-03-08 17:33:35.515
127.0, 187500.0, 11371.829971293208, 34833.02561438389, -187500.02235174447, -187500.02235174447, 10125.541403954197, -16779.87924574366, 4730.567900010097, -0.228, 0.928, 0.244, 192.0, 0.0, 0.0, 0.0, 0.0, 0.0, 0.0, 0.0, 0.0, 0.0, 1.741476815515111E9, 0.0, 2025-03-08 17:33:35.515
128.0, 187500.0, 11353.769761773321, 34832.64563472815, -187500.02235174447, -187500.02235174447, 10128.938869111404, -16764.613004280687, 4737.921623935893, -0.228, 0.928, 0.244, 192.0, 0.0, 0.0, 0.0, 0.0, 0.0, 0.0, 0.0, 0.0, 0.0, 1.74147681551513E9, 0.0, 2025-03-08 17:33:35.515
129.0, 187500.0, 11346.751314014355, 34835.79723069635, -187500.02235174447, -187500.02235174447, 10136.829034904127, -16732.6500097096, 4749.477475819287, -0.228, 0.928, 0.244, 192.0, 0.0, 0.0, 0.0, 0.0, 0.0, 0.0, 0.0, 0.0, 0.0, 1.741476815515148E9, 0.0, 2025-03-08 17:33:35.515
130.0, 187500.0, 11359.022421720318, 34842.480402288485, -187500.02235174447, -187500.02235174447, 10139.108912838568, -16733.678189954542, 4760.161609668924, -0.228, 0.928, 0.244, 192.0, 0.0, 0.0, 0.0, 0.0, 0.0, 0.0, 0.0, 0.0, 0.0, 1.741476815515169E9, 0.0, 2025-03-08 17:33:35.515
131.0, 187500.0, 11374.422773650023, 34852.4269285711, -187500.02235174447, -187500.02235174447, 10141.411142517465, -16733.27585855435, 4758.105249179036, -0.23, 0.926, 0.242, 192.0, 248.0, 208.0, 28.0, 240.0, 7.0, 144.0, 0.0, 0.0, 0.0, 1.74147681551519E9, 0.0, 2025-03-08 17:33:35.515
132.0, 187500.0, 11363.269253166825, 34844.33559707828, -187500.02235174447, -187500.02235174447, 10151.15650309998, -16739.6014022352, 4755.266577633211, -0.23, 0.926, 0.242, 192.0, 0.0, 0.0, 0.0, 0.0, 0.0, 0.0, 0.0, 0.0, 0.0, 1.74147681551521E9, 0.0, 2025-03-08 17:33:35.515
133.0, 187500.0, 11350.260537893837, 34836.44543128555, -187500.02235174447, -187500.02235174447, 10150.754171699784, -16757.25928035489, 4760.385127113477, -0.23, 0.926, 0.242, 192.0, 0.0, 0.0, 0.0, 0.0, 0.0, 0.0, 0.0, 0.0, 0.0, 1.741476815515228E9, 0.0, 2025-03-08 17:33:35.515
134.0, 187500.0, 11350.841683249675, 34833.964387651016, -187500.02235174447, -187500.02235174447, 10140.360610528065, -16762.713106001986, 4757.389993356466, -0.23, 0.926, 0.242, 192.0, 0.0, 0.0, 0.0, 0.0, 0.0, 0.0, 0.0, 0.0, 0.0, 1.741476815515247E9, 0.0, 2025-03-08 17:33:35.515
135.0, 187500.0, 11366.264386923836, 34840.06641388731, -187500.02235174447, -187500.02235174447, 10141.679363450929, -16740.674285969053, 4757.837028245572, -0.23, 0.926, 0.242, 192.0, 0.0, 0.0, 0.0, 0.0, 0.0, 0.0, 0.0, 0.0, 0.0, 1.741476815575223E9, 0.0, 2025-03-08 17:33:35.575
136.0, 187500.0, 11365.10209621216, 34839.64173074266, -187500.02235174447, -187500.02235174447, 10146.976726886836, -16741.389541791625, 4764.006109715237, -0.23, 0.926, 0.242, 192.0, 0.0, 0.0, 0.0, 0.0, 0.0, 0.0, 0.0, 0.0, 0.0, 1.741476815575254E9, 0.0, 2025-03-08 17:33:35.575
137.0, 187500.0, 11344.985526202385, 34831.3715852942, -187500.02235174447, -187500.02235174447, 10145.970898386347, -16736.874489411653, 4760.586292813575, -0.23, 0.926, 0.242, 192.0, 0.0, 0.0, 0.0, 0.0, 0.0, 0.0, 0.0, 0.0, 0.0, 1.741476815575272E9, 0.0, 2025-03-08 17:33:35.575
138.0, 187500.0, 11343.689125023977, 34827.99647188145, -187500.02235174447, -187500.02235174447, 10137.946622126892, -16742.864756925675, 4750.729173508785, -0.23, 0.926, 0.242, 192.0, 0.0, 0.0, 0.0, 0.0, 0.0, 0.0, 0.0, 0.0, 0.0, 1.741476815575291E9, 0.0, 2025-03-08 17:33:35.575
139.0, 187500.0, 11356.004936218851, 34836.0207481409, -187500.02235174447, -187500.02235174447, 10135.264412792256, -16741.07661736925, 4751.4444293313545, -0.23, 0.926, 0.242, 192.0, 0.0, 0.0, 0.0, 0.0, 0.0, 0.0, 0.0, 0.0, 0.0, 1.741476815575309E9, 0.0, 2025-03-08 17:33:35.575
140.0, 187500.0, 11359.849436265164, 34841.80984995483, -187500.02235174447, -187500.02235174447, 10139.488892494308, -16726.190355562016, 4760.22866490229, -0.23, 0.926, 0.242, 192.0, 0.0, 0.0, 0.0, 0.0, 0.0, 0.0, 0.0, 0.0, 0.0, 1.741476815575328E9, 0.0, 2025-03-08 17:33:35.575
141.0, 187500.0, 11342.571537801212, 34834.1208498622, -187500.02235174447, -187500.02235174447, 10143.2439855628, -16727.30794278478, 4764.073164948602, -0.234, 0.924, 0.24, 192.0, 248.0, 176.0, 28.0, 224.0, 7.0, 128.0, 0.0, 0.0, 0.0, 1.74147681557535E9, 0.0, 2025-03-08 17:33:35.575
