%OpenBCI Raw EXG Data
%Number of channels = 8
%Sample Rate = 250 Hz
%Board = OpenBCI_GUI$BoardCytonSerial
Sample Index, EXG Channel 0, EXG Channel 1, EXG Channel 2, EXG Channel 3, EXG Channel 4, EXG Channel 5, EXG Channel 6, EXG Channel 7, Accel Channel 0, Accel Channel 1, Accel Channel 2, Not Used, Digital Channel 0 (D11), Digital Channel 1 (D12), Digital Channel 2 (D13), Digital Channel 3 (D17), Not Used, Digital Channel 4 (D18), Analog Channel 0, Analog Channel 1, Analog Channel 2, Timestamp, Marker Channel, Timestamp (Formatted)
0.0, 0.0, 0.0, 0.0, 0.0, 0.0, 0.0, 0.0, 0.0, -0.16, 0.968, 0.11800000000000001, 192.0, 251.0, 0.0, 30.0, 64.0, 3.0, 176.0, 0.0, 0.0, 0.0, 1.74147672645599E9, 0.0, 2025-03-08 17:32:06.455
1.0, 187500.0, 19123.10202397132, 38317.01437437706, -187500.02235174447, -187500.02235174447, 9581.902275312219, -17394.283997331142, 5892.590390752601, -0.16, 0.968, 0.11800000000000001, 192.0, 0.0, 0.0, 0.0, 0.0, 0.0, 0.0, 0.0, 0.0, 0.0, 1.741476726515807E9, 0.0, 2025-03-08 17:32:06.515
2.0, 187500.0, 19126.298323428433, 38315.717973198654, -187500.02235174447, -187500.02235174447, 9600.744795888042, -17393.47933453075, 5897.641884999501, -0.16, 0.968, 0.11800000000000001, 192.0, 0.0, 0.0, 0.0, 0.0, 0.0, 0.0, 0.0, 0.0, 0.0, 1.74147672651582E9, 0.0, 2025-03-08 17:32:06.515
3.0, 187500.0, 19134.389654921255, 38334.56049377447, -187500.02235174447, -187500.02235174447, 9612.770034404997, -17376.849636656003, 5911.365856095059, -0.16, 0.968, 0.11800000000000001, 192.0, 0.0, 0.0, 0.0, 0.0, 0.0, 0.0, 0.0, 0.0, 0.0, 1.741476726515828E9, 0.0, 2025-03-08 17:32:06.515
4.0, 187500.0, 19139.35174219033, 38343.121211900856, -187500.02235174447, -187500.02235174447, 9604.455185467623, -17373.496874987708, 5909.5106613052685, -0.16, 0.968, 0.11800000000000001, 192.0, 0.0, 0.0, 0.0, 0.0, 0.0, 0.0, 0.0, 0.0, 0.0, 1.741476726515836E9, 0.0, 2025-03-08 17:32:06.515
5.0, 187500.0, 19117.02234947948, 38324.9939471476, -187500.02235174447, -187500.02235174447, 9589.971255060585, -17398.15084912191, 5891.3163413186485, -0.16, 0.968, 0.11800000000000001, 192.0, 0.0, 0.0, 0.0, 0.0, 0.0, 0.0, 0.0, 0.0, 0.0, 1.741476726515844E9, 0.0, 2025-03-08 17:32:06.515
6.0, 187500.0, 19104.326558628865, 38314.041592364505, -187500.02235174447, -187500.02235174447, 9600.834202865864, -17418.803860998614, 5880.609855724556, -0.16, 0.968, 0.11800000000000001, 192.0, 0.0, 0.0, 0.0, 0.0, 0.0, 0.0, 0.0, 0.0, 0.0, 1.741476726515851E9, 0.0, 2025-03-08 17:32:06.515
7.0, 187500.0, 19108.34987263082, 38322.088220368416, -187500.02235174447, -187500.02235174447, 9615.228726295081, -17415.92048596388, 5902.201640868383, -0.16, 0.968, 0.11800000000000001, 192.0, 0.0, 0.0, 0.0, 0.0, 0.0, 0.0, 0.0, 0.0, 0.0, 1.741476726515859E9, 0.0, 2025-03-08 17:32:06.515
8.0, 187500.0, 19123.25848618251, 38329.21842684966, -187500.02235174447, -187500.02235174447, 9598.822545864887, -17397.39088981043, 5909.644771772, -0.15, 0.974, 0.088, 192.0, 251.0, 80.0, 30.0, 112.0, 2.0, 192.0, 0.0, 0.0, 0.0, 1.741476726515866E9, 0.0, 2025-03-08 17:32:06.515
9.0, 187500.0, 19135.797814821937, 38341.82481072245, -187500.02235174447, -187500.02235174447, 9610.199583792637, -17350.787502621115, 5911.164690394961, -0.15, 0.974, 0.088, 192.0, 0.0, 0.0, 0.0, 0.0, 0.0, 0.0, 0.0, 0.0, 0.0, 1.741476726515874E9, 0.0, 2025-03-08 17:32:06.515
10.0, 187500.0, 19120.844497781338, 38328.90550242728, -187500.02235174447, -187500.02235174447, 9616.212203051115, -17363.550348705096, 5905.599106025589, -0.15, 0.974, 0.088, 192.0, 0.0, 0.0, 0.0, 0.0, 0.0, 0.0, 0.0, 0.0, 0.0, 1.741476726515882E9, 0.0, 2025-03-08 17:32:06.515
11.0, 187500.0, 19128.68996008515, 38339.92491244375, -187500.02235174447, -187500.02235174447, 9623.521223488, -17355.68253465683, 5932.197681927405, -0.15, 0.974, 0.088, 192.0, 0.0, 0.0, 0.0, 0.0, 0.0, 0.0, 0.0, 0.0, 0.0, 1.741476726515889E9, 0.0, 2025-03-08 17:32:06.515
12.0, 187500.0, 19145.900803315737, 38357.046348696516, -187500.02235174447, -187500.02235174447, 9627.924517145697, -17342.562060661563, 5947.687440834933, -0.15, 0.974, 0.088, 192.0, 0.0, 0.0, 0.0, 0.0, 0.0, 0.0, 0.0, 0.0, 0.0, 1.741476726515896E9, 0.0, 2025-03-08 17:32:06.515
13.0, 187500.0, 19148.761826606016, 38352.82186899446, -187500.02235174447, -187500.02235174447, 9630.00322938004, -17352.53093868863, 5934.946946495408, -0.15, 0.974, 0.088, 192.0, 0.0, 0.0, 0.0, 0.0, 0.0, 0.0, 0.0, 0.0, 0.0, 1.741476726515904E9, 0.0, 2025-03-08 17:32:06.515
14.0, 187500.0, 19126.052454239423, 38334.515790285564, -187500.02235174447, -187500.02235174447, 9620.034351352973, -17370.68055518634, 5926.02860045774, -0.15, 0.974, 0.088, 192.0, 0.0, 0.0, 0.0, 0.0, 0.0, 0.0, 0.0, 0.0, 0.0, 1.741476726515911E9, 0.0, 2025-03-08 17:32:06.515
15.0, 187500.0, 19124.130204216268, 38330.760697217076, -187500.02235174447, -187500.02235174447, 9605.57277269039, -17389.500724017707, 5914.629210785533, -0.15, 0.974, 0.088, 192.0, 0.0, 0.0, 0.0, 0.0, 0.0, 0.0, 0.0, 0.0, 0.0, 1.741476726515918E9, 0.0, 2025-03-08 17:32:06.515
16.0, 187500.0, 19132.78032932047, 38324.83748493642, -187500.02235174447, -187500.02235174447, 9597.302627241925, -17407.1586021374, 5903.45333855788, -0.15, 0.974, 0.088, 192.0, 0.0, 0.0, 0.0, 0.0, 0.0, 0.0, 0.0, 0.0, 0.0, 1.741476726576076E9, 0.0, 2025-03-08 17:32:06.576
17.0, 187500.0, 19142.726855603083, 38328.9502059162, -187500.02235174447, -187500.02235174447, 9607.919705858196, -17390.864180429482, 5921.491196333313, -0.15, 0.974, 0.088, 192.0, 0.0, 0.0, 0.0, 0.0, 0.0, 0.0, 0.0, 0.0, 0.0, 1.74147672657609E9, 0.0, 2025-03-08 17:32:06.576
18.0, 187500.0, 19138.681189856674, 38328.81609544946, -187500.02235174447, -187500.02235174447, 9621.263697298014, -17379.554197735095, 5923.122873678551, -0.148, 0.97, 0.07, 192.0, 251.0, 96.0, 30.0, 80.0, 2.0, 48.0, 0.0, 0.0, 0.0, 1.741476726576098E9, 0.0, 2025-03-08 17:32:06.576
19.0, 187500.0, 19146.258431227023, 38341.46718281117, -187500.02235174447, -187500.02235174447, 9631.679610214187, -17377.833113412038, 5926.207414413383, -0.148, 0.97, 0.07, 192.0, 0.0, 0.0, 0.0, 0.0, 0.0, 0.0, 0.0, 0.0, 0.0, 1.741476726576107E9, 0.0, 2025-03-08 17:32:06.576
20.0, 187500.0, 19154.97561156459, 38350.43023233774, -187500.02235174447, -187500.02235174447, 9620.928421131184, -17365.830226639537, 5939.439647130925, -0.148, 0.97, 0.07, 192.0, 0.0, 0.0, 0.0, 0.0, 0.0, 0.0, 0.0, 0.0, 0.0, 1.741476726576115E9, 0.0, 2025-03-08 17:32:06.576
21.0, 187500.0, 19158.596594166353, 38343.07650841195, -187500.02235174447, -187500.02235174447, 9610.981894848574, -17373.29570928761, 5926.430931857936, -0.148, 0.97, 0.07, 192.0, 0.0, 0.0, 0.0, 0.0, 0.0, 0.0, 0.0, 0.0, 0.0, 1.741476726576122E9, 0.0, 2025-03-08 17:32:06.576
22.0, 187500.0, 19154.21565225311, 38343.054156667495, -187500.02235174447, -187500.02235174447, 9622.448339754146, -17369.67472668585, 5944.6699553334665, -0.148, 0.97, 0.07, 192.0, 0.0, 0.0, 0.0, 0.0, 0.0, 0.0, 0.0, 0.0, 0.0, 1.74147672657613E9, 0.0, 2025-03-08 17:32:06.576
23.0, 187500.0, 19145.40906493772, 38341.69070025572, -187500.02235174447, -187500.02235174447, 9631.187871836171, -17366.38902025092, 5953.342432182126, -0.148, 0.97, 0.07, 192.0, 0.0, 0.0, 0.0, 0.0, 0.0, 0.0, 0.0, 0.0, 0.0, 1.741476726576137E9, 0.0, 2025-03-08 17:32:06.576
24.0, 187500.0, 19140.424625924188, 38335.991005419615, -187500.02235174447, -187500.02235174447, 9630.00322938004, -17366.456075484286, 5951.286071692237, -0.148, 0.97, 0.07, 192.0, 0.0, 0.0, 0.0, 0.0, 0.0, 0.0, 0.0, 0.0, 0.0, 1.741476726576144E9, 0.0, 2025-03-08 17:32:06.576
25.0, 187500.0, 19142.682152114172, 38330.35836581688, -187500.02235174447, -187500.02235174447, 9611.18306054867, -17381.76702043617, 5935.930423251441, -0.148, 0.97, 0.07, 192.0, 0.0, 0.0, 0.0, 0.0, 0.0, 0.0, 0.0, 0.0, 0.0, 1.741476726576152E9, 0.0, 2025-03-08 17:32:06.576
26.0, 187500.0, 19131.77450081998, 38327.609101248876, -187500.02235174447, -187500.02235174447, 9608.813775636409, -17382.14700009191, 5929.247251659304, -0.148, 0.97, 0.07, 192.0, 0.0, 0.0, 0.0, 0.0, 0.0, 0.0, 0.0, 0.0, 0.0, 1.741476726576159E9, 0.0, 2025-03-08 17:32:06.576
27.0, 187500.0, 19111.38970987674, 38318.33312729992, -187500.02235174447, -187500.02235174447, 9601.214182521604, -17387.44436352782, 5926.922670235953, -0.148, 0.97, 0.07, 192.0, 0.0, 0.0, 0.0, 0.0, 0.0, 0.0, 0.0, 0.0, 0.0, 1.741476726576166E9, 0.0, 2025-03-08 17:32:06.576
28.0, 187500.0, 19122.3644164043, 38324.21163609167, -187500.02235174447, -187500.02235174447, 9602.532935444468, -17382.236407069733, 5935.617498829067, -0.146, 0.968, 0.062, 192.0, 251.0, 112.0, 30.0, 64.0, 1.0, 240.0, 0.0, 0.0, 0.0, 1.741476726576174E9, 0.0, 2025-03-08 17:32:06.576
29.0, 187500.0, 19142.659800369718, 38330.22425535015, -187500.02235174447, -187500.02235174447, 9604.991627334552, -17390.797125196117, 5937.383286641037, -0.146, 0.968, 0.062, 192.0, 0.0, 0.0, 0.0, 0.0, 0.0, 0.0, 0.0, 0.0, 0.0, 1.741476726576182E9, 0.0, 2025-03-08 17:32:06.576
30.0, 187500.0, 19137.518899144998, 38328.16789486026, -187500.02235174447, -187500.02235174447, 9615.340485017357, -17396.675633987863, 5937.897376763508, -0.146, 0.968, 0.062, 192.0, 0.0, 0.0, 0.0, 0.0, 0.0, 0.0, 0.0, 0.0, 0.0, 1.741476726576189E9, 0.0, 2025-03-08 17:32:06.576
31.0, 187500.0, 19115.703596556617, 38316.85791216587, -187500.02235174447, -187500.02235174447, 9614.513470472511, -17389.14309610642, 5929.336658637126, -0.146, 0.968, 0.062, 192.0, 0.0, 0.0, 0.0, 0.0, 0.0, 0.0, 0.0, 0.0, 0.0, 1.741476726636283E9, 0.0, 2025-03-08 17:32:06.636
32.0, 187500.0, 19108.618093564284, 38308.00662136157, -187500.02235174447, -187500.02235174447, 9603.89639185624, -17396.094488632025, 5914.249231129794, -0.146, 0.968, 0.062, 192.0, 0.0, 0.0, 0.0, 0.0, 0.0, 0.0, 0.0, 0.0, 0.0, 1.741476726636297E9, 0.0, 2025-03-08 17:32:06.636
33.0, 187500.0, 19101.130259171758, 38294.05913282146, -187500.02235174447, -187500.02235174447, 9598.911952842707, -17401.43655555684, 5918.920745720952, -0.146, 0.968, 0.062, 192.0, 0.0, 0.0, 0.0, 0.0, 0.0, 0.0, 0.0, 0.0, 0.0, 1.741476726636306E9, 0.0, 2025-03-08 17:32:06.636
34.0, 187500.0, 19092.54718930092, 38293.63444967681, -187500.02235174447, -187500.02235174447, 9588.071356781884, -17411.248971372723, 5915.45622533038, -0.146, 0.968, 0.062, 192.0, 0.0, 0.0, 0.0, 0.0, 0.0, 0.0, 0.0, 0.0, 0.0, 1.741476726636314E9, 0.0, 2025-03-08 17:32:06.636
35.0, 187500.0, 19079.985508917038, 38295.2884787665, -187500.02235174447, -187500.02235174447, 9587.46785968159, -17406.800974226117, 5924.151053923494, -0.146, 0.968, 0.062, 192.0, 0.0, 0.0, 0.0, 0.0, 0.0, 0.0, 0.0, 0.0, 0.0, 1.741476726636321E9, 0.0, 2025-03-08 17:32:06.636
36.0, 187500.0, 19088.926206699158, 38306.8890341388, -187500.02235174447, -187500.02235174447, 9592.049967294928, -17392.764078708184, 5936.265699418271, -0.146, 0.968, 0.062, 192.0, 0.0, 0.0, 0.0, 0.0, 0.0, 0.0, 0.0, 0.0, 0.0, 1.741476726636329E9, 0.0, 2025-03-08 17:32:06.636
37.0, 187500.0, 19093.955349201602, 38302.93277537022, -187500.02235174447, -187500.02235174447, 9590.574752160877, -17393.92636941986, 5933.605841828089, -0.146, 0.968, 0.062, 192.0, 0.0, 0.0, 0.0, 0.0, 0.0, 0.0, 0.0, 0.0, 0.0, 1.741476726636336E9, 0.0, 2025-03-08 17:32:06.636
38.0, 187500.0, 19101.934921972148, 38306.62081320534, -187500.02235174447, -187500.02235174447, 9590.284179482958, -17399.603712511507, 5928.889623748019, -0.148, 0.974, 0.056, 192.0, 251.0, 96.0, 30.0, 112.0, 1.0, 192.0, 0.0, 0.0, 0.0, 1.741476726636343E9, 0.0, 2025-03-08 17:32:06.636
39.0, 187500.0, 19085.193465375123, 38299.088275323906, -187500.02235174447, -187500.02235174447, 9579.242417722036, -17400.54248577863, 5934.186987183927, -0.148, 0.974, 0.056, 192.0, 0.0, 0.0, 0.0, 0.0, 0.0, 0.0, 0.0, 0.0, 0.0, 1.741476726636351E9, 0.0, 2025-03-08 17:32:06.636
40.0, 187500.0, 19083.338270585333, 38301.926946869724, -187500.02235174447, -187500.02235174447, 9591.535877172457, -17389.76894495117, 5931.102446449095, -0.148, 0.974, 0.056, 192.0, 0.0, 0.0, 0.0, 0.0, 0.0, 0.0, 0.0, 0.0, 0.0, 1.741476726636358E9, 0.0, 2025-03-08 17:32:06.636
41.0, 187500.0, 19090.49082881103, 38309.75005742908, -187500.02235174447, -187500.02235174447, 9607.47267096909, -17380.515322746673, 5943.306498921693, -0.148, 0.974, 0.056, 192.0, 0.0, 0.0, 0.0, 0.0, 0.0, 0.0, 0.0, 0.0, 0.0, 1.741476726636366E9, 0.0, 2025-03-08 17:32:06.636
42.0, 187500.0, 19092.837761978837, 38307.82780740593, -187500.02235174447, -187500.02235174447, 9602.264714511004, -17386.460886771787, 5946.346336167614, -0.148, 0.974, 0.056, 192.0, 0.0, 0.0, 0.0, 0.0, 0.0, 0.0, 0.0, 0.0, 0.0, 1.741476726636373E9, 0.0, 2025-03-08 17:32:06.636
43.0, 187500.0, 19068.563767500375, 38296.853100878376, -187500.02235174447, -187500.02235174447, 9582.550475901422, -17386.282072816142, 5943.038277988229, -0.148, 0.974, 0.056, 192.0, 0.0, 0.0, 0.0, 0.0, 0.0, 0.0, 0.0, 0.0, 0.0, 1.74147672663638E9, 0.0, 2025-03-08 17:32:06.636
44.0, 187500.0, 19052.20229055909, 38285.96780132864, -187500.02235174447, -187500.02235174447, 9574.682661853154, -17397.97203516627, 5933.292917405715, -0.148, 0.974, 0.056, 192.0, 0.0, 0.0, 0.0, 0.0, 0.0, 0.0, 0.0, 0.0, 0.0, 1.741476726636388E9, 0.0, 2025-03-08 17:32:06.636
45.0, 187500.0, 19069.34607855631, 38299.26708927954, -187500.02235174447, -187500.02235174447, 9587.981949804062, -17393.38992755293, 5942.390077399025, -0.148, 0.974, 0.056, 192.0, 0.0, 0.0, 0.0, 0.0, 0.0, 0.0, 0.0, 0.0, 0.0, 1.741476726636395E9, 0.0, 2025-03-08 17:32:06.636
46.0, 187500.0, 19090.088497410834, 38316.16500808776, -187500.02235174447, -187500.02235174447, 9605.349255245836, -17396.385061309942, 5936.578623840645, -0.148, 0.974, 0.056, 192.0, 0.0, 0.0, 0.0, 0.0, 0.0, 0.0, 0.0, 0.0, 0.0, 1.741476726695633E9, 0.0, 2025-03-08 17:32:06.695
47.0, 187500.0, 19079.53847402793, 38311.13586558531, -187500.02235174447, -187500.02235174447, 9594.709824885109, -17388.852523428504, 5938.478522119346, -0.148, 0.974, 0.056, 192.0, 0.0, 0.0, 0.0, 0.0, 0.0, 0.0, 0.0, 0.0, 0.0, 1.741476726695666E9, 0.0, 2025-03-08 17:32:06.695
48.0, 187500.0, 19066.10507561029, 38298.171853801236, -187500.02235174447, -187500.02235174447, 9584.048042779928, -17390.797125196117, 5933.6952488059105, -0.14200000000000002, 0.982, 0.054, 192.0, 251.0, 144.0, 30.0, 176.0, 1.0, 176.0, 0.0, 0.0, 0.0, 1.741476726695675E9, 0.0, 2025-03-08 17:32:06.695
49.0, 187500.0, 19062.28292730843, 38291.0863508089, -187500.02235174447, -187500.02235174447, 9576.001414776018, -17399.469602044774, 5936.377458140548, -0.14200000000000002, 0.982, 0.054, 192.0, 0.0, 0.0, 0.0, 0.0, 0.0, 0.0, 0.0, 0.0, 0.0, 1.741476726695683E9, 0.0, 2025-03-08 17:32:06.695
50.0, 187500.0, 19070.038982634425, 38289.67819090822, -187500.02235174447, -187500.02235174447, 9571.486362396046, -17412.500669062218, 5935.908071506986, -0.14200000000000002, 0.982, 0.054, 192.0, 0.0, 0.0, 0.0, 0.0, 0.0, 0.0, 0.0, 0.0, 0.0, 1.741476726695691E9, 0.0, 2025-03-08 17:32:06.695
51.0, 187500.0, 19072.14004661322, 38295.802568888976, -187500.02235174447, -187500.02235174447, 9583.511600913002, -17413.81942198508, 5931.772998782754, -0.14200000000000002, 0.982, 0.054, 192.0, 0.0, 0.0, 0.0, 0.0, 0.0, 0.0, 0.0, 0.0, 0.0, 1.741476726695698E9, 0.0, 2025-03-08 17:32:06.695
52.0, 187500.0, 19060.49478775201, 38292.29334500949, -187500.02235174447, -187500.02235174447, 9585.769127102987, -17417.283942375656, 5923.435798100924, -0.14200000000000002, 0.982, 0.054, 192.0, 0.0, 0.0, 0.0, 0.0, 0.0, 0.0, 0.0, 0.0, 0.0, 1.741476726695706E9, 0.0, 2025-03-08 17:32:06.695
53.0, 187500.0, 19057.901985395194, 38289.700542652674, -187500.02235174447, -187500.02235174447, 9577.320167698881, -17414.467622574284, 5924.754551023788, -0.14200000000000002, 0.982, 0.054, 192.0, 0.0, 0.0, 0.0, 0.0, 0.0, 0.0, 0.0, 0.0, 0.0, 1.741476726695713E9, 0.0, 2025-03-08 17:32:06.695
54.0, 187500.0, 19076.0516018929, 38299.80353114647, -187500.02235174447, -187500.02235174447, 9578.393051432735, -17412.098337662024, 5933.2258621723495, -0.14200000000000002, 0.982, 0.054, 192.0, 0.0, 0.0, 0.0, 0.0, 0.0, 0.0, 0.0, 0.0, 0.0, 1.74147672669572E9, 0.0, 2025-03-08 17:32:06.695
55.0, 187500.0, 19072.318860568867, 38292.44980722068, -187500.02235174447, -187500.02235174447, 9575.800249075919, -17411.651302772916, 5922.988763211819, -0.14200000000000002, 0.982, 0.054, 192.0, 0.0, 0.0, 0.0, 0.0, 0.0, 0.0, 0.0, 0.0, 0.0, 1.741476726695728E9, 0.0, 2025-03-08 17:32:06.695
56.0, 187500.0, 19063.042886619914, 38289.499376952575, -187500.02235174447, -187500.02235174447, 9587.780784103965, -17404.811668969593, 5923.771074267755, -0.14200000000000002, 0.982, 0.054, 192.0, 0.0, 0.0, 0.0, 0.0, 0.0, 0.0, 0.0, 0.0, 0.0, 1.741476726695735E9, 0.0, 2025-03-08 17:32:06.695
57.0, 187500.0, 19081.371317073266, 38297.65776367876, -187500.02235174447, -187500.02235174447, 9596.207391763615, -17390.864180429482, 5944.021754744263, -0.14200000000000002, 0.982, 0.054, 192.0, 0.0, 0.0, 0.0, 0.0, 0.0, 0.0, 0.0, 0.0, 0.0, 1.741476726695743E9, 0.0, 2025-03-08 17:32:06.695
58.0, 187500.0, 19086.623977020263, 38298.10479856787, -187500.02235174447, -187500.02235174447, 9585.500906169524, -17394.395756053418, 5948.93913852443, -0.14200000000000002, 0.978, 0.058, 192.0, 251.0, 144.0, 30.0, 144.0, 1.0, 208.0, 0.0, 0.0, 0.0, 1.74147672669575E9, 0.0, 2025-03-08 17:32:06.695
59.0, 187500.0, 19088.903854954704, 38298.97651660163, -187500.02235174447, -187500.02235174447, 9583.064566023895, -17394.86514268698, 5954.258853704793, -0.14200000000000002, 0.978, 0.058, 192.0, 0.0, 0.0, 0.0, 0.0, 0.0, 0.0, 0.0, 0.0, 0.0, 1.741476726695758E9, 0.0, 2025-03-08 17:32:06.695
60.0, 187500.0, 19078.890273438727, 38289.00763857456, -187500.02235174447, -187500.02235174447, 9587.914894570697, -17397.055613643603, 5947.709792579388, -0.14200000000000002, 0.978, 0.058, 192.0, 0.0, 0.0, 0.0, 0.0, 0.0, 0.0, 0.0, 0.0, 0.0, 1.741476726695765E9, 0.0, 2025-03-08 17:32:06.695
61.0, 187500.0, 19087.696860754117, 38284.69375189469, -187500.02235174447, -187500.02235174447, 9597.414385964203, -17405.63868351444, 5944.021754744263, -0.14200000000000002, 0.978, 0.058, 192.0, 0.0, 0.0, 0.0, 0.0, 0.0, 0.0, 0.0, 0.0, 0.0, 1.741476726755609E9, 0.0, 2025-03-08 17:32:06.755
62.0, 187500.0, 19090.379070088755, 38294.10383631037, -187500.02235174447, -187500.02235174447, 9591.312359727903, -17403.939950935837, 5945.6087286005895, -0.14200000000000002, 0.978, 0.058, 192.0, 0.0, 0.0, 0.0, 0.0, 0.0, 0.0, 0.0, 0.0, 0.0, 1.741476726755634E9, 0.0, 2025-03-08 17:32:06.755
63.0, 187500.0, 19099.275064381967, 38317.34965054389, -187500.02235174447, -187500.02235174447, 9598.308455742414, -17386.215017582777, 5956.002289772307, -0.14200000000000002, 0.978, 0.058, 192.0, 0.0, 0.0, 0.0, 0.0, 0.0, 0.0, 0.0, 0.0, 0.0, 1.741476726755643E9, 0.0, 2025-03-08 17:32:06.755
64.0, 187500.0, 19077.3032995824, 38306.59846146089, -187500.02235174447, -187500.02235174447, 9592.675816139677, -17395.669805487374, 5941.3842488985365, -0.14200000000000002, 0.978, 0.058, 192.0, 0.0, 0.0, 0.0, 0.0, 0.0, 0.0, 0.0, 0.0, 0.0, 1.741476726755651E9, 0.0, 2025-03-08 17:32:06.755
65.0, 187500.0, 19077.392706560222, 38303.759789915064, -187500.02235174447, -187500.02235174447, 9591.155897516715, -17401.145982878923, 5935.706905806888, -0.14200000000000002, 0.978, 0.058, 192.0, 0.0, 0.0, 0.0, 0.0, 0.0, 0.0, 0.0, 0.0, 0.0, 1.741476726755659E9, 0.0, 2025-03-08 17:32:06.755
66.0, 187500.0, 19081.416020562177, 38306.77727541653, -187500.02235174447, -187500.02235174447, 9592.005263806017, -17399.64841600042, 5938.523225608257, -0.14200000000000002, 0.978, 0.058, 192.0, 0.0, 0.0, 0.0, 0.0, 0.0, 0.0, 0.0, 0.0, 0.0, 1.741476726755667E9, 0.0, 2025-03-08 17:32:06.755
67.0, 187500.0, 19080.41019206169, 38300.58584220241, -187500.02235174447, -187500.02235174447, 9581.477592167568, -17405.996311425723, 5938.322059908159, -0.14200000000000002, 0.974, 0.062, 192.0, 251.0, 144.0, 30.0, 112.0, 1.0, 240.0, 0.0, 0.0, 0.0, 1.741476726755674E9, 0.0, 2025-03-08 17:32:06.755
68.0, 187500.0, 19061.142988341213, 38291.041647319995, -187500.02235174447, -187500.02235174447, 9580.583522389355, -17408.45500331581, 5942.814760543676, -0.14200000000000002, 0.974, 0.062, 192.0, 0.0, 0.0, 0.0, 0.0, 0.0, 0.0, 0.0, 0.0, 0.0, 1.741476726755682E9, 0.0, 2025-03-08 17:32:06.755
69.0, 187500.0, 19050.01181960247, 38286.05720830646, -187500.02235174447, -187500.02235174447, 9576.202580476116, -17413.551201051618, 5935.706905806888, -0.14200000000000002, 0.974, 0.062, 192.0, 0.0, 0.0, 0.0, 0.0, 0.0, 0.0, 0.0, 0.0, 0.0, 1.74147672675569E9, 0.0, 2025-03-08 17:32:06.755
70.0, 187500.0, 19055.48799699402, 38285.83369086191, -187500.02235174447, -187500.02235174447, 9575.733193842554, -17412.83594522905, 5934.6340220730335, -0.14200000000000002, 0.974, 0.062, 192.0, 0.0, 0.0, 0.0, 0.0, 0.0, 0.0, 0.0, 0.0, 0.0, 1.741476726755697E9, 0.0, 2025-03-08 17:32:06.755
71.0, 187500.0, 19066.418000032663, 38286.52659494002, -187500.02235174447, -187500.02235174447, 9577.163705487694, -17409.63964577194, 5934.522263350757, -0.14200000000000002, 0.974, 0.062, 192.0, 0.0, 0.0, 0.0, 0.0, 0.0, 0.0, 0.0, 0.0, 0.0, 1.741476726755705E9, 0.0, 2025-03-08 17:32:06.755
72.0, 187500.0, 19060.07010460736, 38281.028065804014, -187500.02235174447, -187500.02235174447, 9584.003339291017, -17409.572590538573, 5929.671934803955, -0.14200000000000002, 0.974, 0.062, 192.0, 0.0, 0.0, 0.0, 0.0, 0.0, 0.0, 0.0, 0.0, 0.0, 1.741476726755712E9, 0.0, 2025-03-08 17:32:06.755
73.0, 187500.0, 19055.331534782832, 38275.797757601475, -187500.02235174447, -187500.02235174447, 9588.09370852634, -17410.645474272427, 5922.385266111525, -0.14200000000000002, 0.974, 0.062, 192.0, 0.0, 0.0, 0.0, 0.0, 0.0, 0.0, 0.0, 0.0, 0.0, 1.741476726755719E9, 0.0, 2025-03-08 17:32:06.755
74.0, 187500.0, 19063.892252909216, 38284.67140015023, -187500.02235174447, -187500.02235174447, 9584.606836391311, -17406.175125381367, 5932.220033671861, -0.14200000000000002, 0.974, 0.062, 192.0, 0.0, 0.0, 0.0, 0.0, 0.0, 0.0, 0.0, 0.0, 0.0, 1.741476726755727E9, 0.0, 2025-03-08 17:32:06.755
75.0, 187500.0, 19072.318860568867, 38293.63444967681, -187500.02235174447, -187500.02235174447, 9575.375565931268, -17401.548314279116, 5933.31526915017, -0.14200000000000002, 0.974, 0.062, 192.0, 0.0, 0.0, 0.0, 0.0, 0.0, 0.0, 0.0, 0.0, 0.0, 1.741476726755734E9, 0.0, 2025-03-08 17:32:06.755
76.0, 187500.0, 19058.416075517664, 38283.486757694096, -187500.02235174447, -187500.02235174447, 9572.156914729705, -17410.176087638865, 5923.592260312112, -0.14200000000000002, 0.974, 0.062, 192.0, 0.0, 0.0, 0.0, 0.0, 0.0, 0.0, 0.0, 0.0, 0.0, 1.741476726815819E9, 0.0, 2025-03-08 17:32:06.815
77.0, 187500.0, 19053.521043481953, 38286.548946684474, -187500.02235174447, -187500.02235174447, 9577.90131305472, -17401.324796834564, 5936.869196518564, -0.14200000000000002, 0.974, 0.054, 192.0, 251.0, 144.0, 30.0, 112.0, 1.0, 176.0, 0.0, 0.0, 0.0, 1.741476726815832E9, 0.0, 2025-03-08 17:32:06.815
78.0, 187500.0, 19069.234319834035, 38299.60236544638, -187500.02235174447, -187500.02235174447, 9575.442621164635, -17399.62606425596, 5937.27152791876, -0.14200000000000002, 0.974, 0.054, 192.0, 0.0, 0.0, 0.0, 0.0, 0.0, 0.0, 0.0, 0.0, 0.0, 1.741476726815858E9, 0.0, 2025-03-08 17:32:06.815
79.0, 187500.0, 19070.91070066818, 38296.92015611174, -187500.02235174447, -187500.02235174447, 9576.291987453937, -17408.745575993726, 5931.214205171372, -0.14200000000000002, 0.974, 0.054, 192.0, 0.0, 0.0, 0.0, 0.0, 0.0, 0.0, 0.0, 0.0, 0.0, 1.741476726815866E9, 0.0, 2025-03-08 17:32:06.815
80.0, 187500.0, 19069.569596000863, 38297.3895427453, -187500.02235174447, -187500.02235174447, 9583.13162125726, -17406.35393933701, 5933.136455194528, -0.14200000000000002, 0.974, 0.054, 192.0, 0.0, 0.0, 0.0, 0.0, 0.0, 0.0, 0.0, 0.0, 0.0, 1.741476726815874E9, 0.0, 2025-03-08 17:32:06.815
81.0, 187500.0, 19054.213947560067, 38290.39344673079, -187500.02235174447, -187500.02235174447, 9573.028632763462, -17406.666863759383, 5930.543652837712, -0.14200000000000002, 0.974, 0.054, 192.0, 0.0, 0.0, 0.0, 0.0, 0.0, 0.0, 0.0, 0.0, 0.0, 1.741476726815881E9, 0.0, 2025-03-08 17:32:06.815
82.0, 187500.0, 19057.432598761632, 38286.10191179537, -187500.02235174447, -187500.02235174447, 9567.552455371911, -17409.885514960948, 5931.907109249486, -0.14200000000000002, 0.974, 0.054, 192.0, 0.0, 0.0, 0.0, 0.0, 0.0, 0.0, 0.0, 0.0, 0.0, 1.741476726815889E9, 0.0, 2025-03-08 17:32:06.815
83.0, 187500.0, 19072.050639635403, 38288.04651356298, -187500.02235174447, -187500.02235174447, 9567.530103627456, -17416.188706897345, 5927.995553969808, -0.14200000000000002, 0.974, 0.054, 192.0, 0.0, 0.0, 0.0, 0.0, 0.0, 0.0, 0.0, 0.0, 0.0, 1.741476726815896E9, 0.0, 2025-03-08 17:32:06.815
84.0, 187500.0, 19072.20710184659, 38293.1874147877, -187500.02235174447, -187500.02235174447, 9567.597158860823, -17421.419015099887, 5914.40569334098, -0.14200000000000002, 0.974, 0.054, 192.0, 0.0, 0.0, 0.0, 0.0, 0.0, 0.0, 0.0, 0.0, 0.0, 1.741476726815903E9, 0.0, 2025-03-08 17:32:06.815
85.0, 187500.0, 19048.313087023867, 38284.02319956102, -187500.02235174447, -187500.02235174447, 9581.388185189746, -17413.551201051618, 5933.181158683438, -0.14200000000000002, 0.974, 0.054, 192.0, 0.0, 0.0, 0.0, 0.0, 0.0, 0.0, 0.0, 0.0, 0.0, 1.741476726815911E9, 0.0, 2025-03-08 17:32:06.815
86.0, 187500.0, 19052.783435914927, 38282.97266757163, -187500.02235174447, -187500.02235174447, 9588.138412015249, -17407.69504400433, 5935.349277895603, -0.14200000000000002, 0.974, 0.054, 192.0, 0.0, 0.0, 0.0, 0.0, 0.0, 0.0, 0.0, 0.0, 0.0, 1.741476726815918E9, 0.0, 2025-03-08 17:32:06.815
87.0, 187500.0, 19068.07202912236, 38288.29238275199, -187500.02235174447, -187500.02235174447, 9570.346423428826, -17407.58328528205, 5932.845882516609, -0.14400000000000002, 0.97, 0.048, 192.0, 251.0, 128.0, 30.0, 80.0, 1.0, 128.0, 0.0, 0.0, 0.0, 1.741476726815925E9, 0.0, 2025-03-08 17:32:06.815
88.0, 187500.0, 19081.885407195736, 38297.52365321203, -187500.02235174447, -187500.02235174447, 9565.6078536043, -17403.604674769005, 5938.344411652614, -0.14400000000000002, 0.97, 0.048, 192.0, 0.0, 0.0, 0.0, 0.0, 0.0, 0.0, 0.0, 0.0, 0.0, 1.741476726815933E9, 0.0, 2025-03-08 17:32:06.815
89.0, 187500.0, 19061.522967996953, 38293.32152525443, -187500.02235174447, -187500.02235174447, 9567.775972816466, -17405.437517814342, 5937.025658729752, -0.14400000000000002, 0.97, 0.048, 192.0, 0.0, 0.0, 0.0, 0.0, 0.0, 0.0, 0.0, 0.0, 0.0, 1.741476726815941E9, 0.0, 2025-03-08 17:32:06.815
90.0, 187500.0, 19057.9466888841, 38292.58391768741, -187500.02235174447, -187500.02235174447, 9577.878961310264, -17408.45500331581, 5938.053838974695, -0.14400000000000002, 0.97, 0.048, 192.0, 0.0, 0.0, 0.0, 0.0, 0.0, 0.0, 0.0, 0.0, 0.0, 1.741476726815948E9, 0.0, 2025-03-08 17:32:06.815
91.0, 187500.0, 19064.853377920794, 38287.21949901814, -187500.02235174447, -187500.02235174447, 9583.08691776835, -17419.11678542099, 5927.146187680506, -0.14400000000000002, 0.97, 0.048, 192.0, 0.0, 0.0, 0.0, 0.0, 0.0, 0.0, 0.0, 0.0, 0.0, 1.741476726876141E9, 0.0, 2025-03-08 17:32:06.876
92.0, 187500.0, 19071.223625090555, 38287.554775184966, -187500.02235174447, -187500.02235174447, 9573.229798463559, -17415.62991328596, 5915.120949163551, -0.14400000000000002, 0.97, 0.048, 192.0, 0.0, 0.0, 0.0, 0.0, 0.0, 0.0, 0.0, 0.0, 0.0, 1.741476726876155E9, 0.0, 2025-03-08 17:32:06.876
93.0, 187500.0, 19055.130369082734, 38286.81716761794, -187500.02235174447, -187500.02235174447, 9573.833295563853, -17404.521096291675, 5926.810911513676, -0.14400000000000002, 0.97, 0.048, 192.0, 0.0, 0.0, 0.0, 0.0, 0.0, 0.0, 0.0, 0.0, 0.0, 1.741476726876177E9, 0.0, 2025-03-08 17:32:06.876
94.0, 187500.0, 19047.798996901394, 38289.00763857456, -187500.02235174447, -187500.02235174447, 9574.570903130878, -17398.530828777653, 5948.3132896796815, -0.14400000000000002, 0.97, 0.048, 192.0, 0.0, 0.0, 0.0, 0.0, 0.0, 0.0, 0.0, 0.0, 0.0, 1.741476726876186E9, 0.0, 2025-03-08 17:32:06.876
95.0, 187500.0, 19053.63280220423, 38291.84631012038, -187500.02235174447, -187500.02235174447, 9571.911045540697, -17404.252875358212, 5947.933310023941, -0.14400000000000002, 0.97, 0.048, 192.0, 0.0, 0.0, 0.0, 0.0, 0.0, 0.0, 0.0, 0.0, 0.0, 1.741476726876193E9, 0.0, 2025-03-08 17:32:06.876
96.0, 187500.0, 19059.801883673892, 38285.11843503934, -187500.02235174447, -187500.02235174447, 9565.339632670837, -17414.735843507748, 5936.265699418271, -0.14400000000000002, 0.97, 0.048, 192.0, 0.0, 0.0, 0.0, 0.0, 0.0, 0.0, 0.0, 0.0, 0.0, 1.741476726876201E9, 0.0, 2025-03-08 17:32:06.876
97.0, 187500.0, 19043.932145110626, 38276.75888261305, -187500.02235174447, -187500.02235174447, 9569.631167606256, -17419.630875543462, 5929.113141192573, -0.154, 0.976, 0.048, 192.0, 251.0, 48.0, 30.0, 128.0, 1.0, 128.0, 0.0, 0.0, 0.0, 1.741476726876209E9, 0.0, 2025-03-08 17:32:06.876
98.0, 187500.0, 19038.835947374817, 38281.944487326684, -187500.02235174447, -187500.02235174447, 9567.105420482805, -17408.164430637888, 5934.857539517587, -0.154, 0.976, 0.048, 192.0, 0.0, 0.0, 0.0, 0.0, 0.0, 0.0, 0.0, 0.0, 0.0, 1.741476726876217E9, 0.0, 2025-03-08 17:32:06.876
99.0, 187500.0, 19046.502595722985, 38283.062074549445, -187500.02235174447, -187500.02235174447, 9561.204559946604, -17398.419070055374, 5938.523225608257, -0.154, 0.976, 0.048, 192.0, 0.0, 0.0, 0.0, 0.0, 0.0, 0.0, 0.0, 0.0, 0.0, 1.741476726876224E9, 0.0, 2025-03-08 17:32:06.876
100.0, 187500.0, 19059.846587162803, 38289.34291474139, -187500.02235174447, -187500.02235174447, 9578.907141555208, -17395.49099153173, 5950.1908362139275, -0.154, 0.976, 0.048, 192.0, 0.0, 0.0, 0.0, 0.0, 0.0, 0.0, 0.0, 0.0, 0.0, 1.741476726876231E9, 0.0, 2025-03-08 17:32:06.876
101.0, 187500.0, 19046.368485256255, 38281.07276929293, -187500.02235174447, -187500.02235174447, 9564.378507659258, -17403.73878523574, 5949.4308769024465, -0.154, 0.976, 0.048, 192.0, 0.0, 0.0, 0.0, 0.0, 0.0, 0.0, 0.0, 0.0, 0.0, 1.741476726876239E9, 0.0, 2025-03-08 17:32:06.876
102.0, 187500.0, 19044.82621488884, 38283.62086816083, -187500.02235174447, -187500.02235174447, 9570.36877517328, -17399.424898555862, 5955.108219994095, -0.154, 0.976, 0.048, 192.0, 0.0, 0.0, 0.0, 0.0, 0.0, 0.0, 0.0, 0.0, 0.0, 1.741476726876246E9, 0.0, 2025-03-08 17:32:06.876
103.0, 187500.0, 19060.91947089666, 38297.188377045204, -187500.02235174447, -187500.02235174447, 9578.683624110654, -17396.54152352113, 5962.350185197614, -0.154, 0.976, 0.048, 192.0, 0.0, 0.0, 0.0, 0.0, 0.0, 0.0, 0.0, 0.0, 0.0, 1.741476726876253E9, 0.0, 2025-03-08 17:32:06.876
104.0, 187500.0, 19068.116732611266, 38299.58001370192, -187500.02235174447, -187500.02235174447, 9577.789554332443, -17399.179029366856, 5955.577606627657, -0.154, 0.976, 0.048, 192.0, 0.0, 0.0, 0.0, 0.0, 0.0, 0.0, 0.0, 0.0, 0.0, 1.741476726876261E9, 0.0, 2025-03-08 17:32:06.876
105.0, 187500.0, 19056.67263945015, 38286.68305715121, -187500.02235174447, -187500.02235174447, 9559.952862257107, -17399.424898555862, 5953.007156015296, -0.154, 0.976, 0.048, 192.0, 0.0, 0.0, 0.0, 0.0, 0.0, 0.0, 0.0, 0.0, 0.0, 1.741476726876268E9, 0.0, 2025-03-08 17:32:06.876
106.0, 187500.0, 19035.550240939887, 38273.562583155945, -187500.02235174447, -187500.02235174447, 9562.188036702639, -17406.62216027047, 5949.877911791553, -0.154, 0.976, 0.048, 192.0, 0.0, 0.0, 0.0, 0.0, 0.0, 0.0, 0.0, 0.0, 0.0, 1.741476726936428E9, 0.0, 2025-03-08 17:32:06.936
107.0, 187500.0, 19031.48222344902, 38270.05335927646, -187500.02235174447, -187500.02235174447, 9569.56411237289, -17407.180953881856, 5957.231635717349, -0.154, 0.978, 0.044, 192.0, 251.0, 48.0, 30.0, 144.0, 1.0, 96.0, 0.0, 0.0, 0.0, 1.741476726936442E9, 0.0, 2025-03-08 17:32:06.936
108.0, 187500.0, 19039.68531366412, 38277.697655880176, -187500.02235174447, -187500.02235174447, 9571.486362396046, -17421.083738933055, 5956.7622490837875, -0.154, 0.978, 0.044, 192.0, 0.0, 0.0, 0.0, 0.0, 0.0, 0.0, 0.0, 0.0, 0.0, 1.741476726936471E9, 0.0, 2025-03-08 17:32:06.936
109.0, 187500.0, 19042.300467765388, 38278.61407740284, -187500.02235174447, -187500.02235174447, 9573.386260674746, -17435.567669340096, 5960.56204564119, -0.154, 0.978, 0.044, 192.0, 0.0, 0.0, 0.0, 0.0, 0.0, 0.0, 0.0, 0.0, 0.0, 1.741476726936479E9, 0.0, 2025-03-08 17:32:06.936
110.0, 187500.0, 19033.180956027623, 38272.75792035555, -187500.02235174447, -187500.02235174447, 9577.722499099076, -17417.10512842001, 5967.111106766594, -0.154, 0.978, 0.044, 192.0, 0.0, 0.0, 0.0, 0.0, 0.0, 0.0, 0.0, 0.0, 0.0, 1.741476726936487E9, 0.0, 2025-03-08 17:32:06.936
111.0, 187500.0, 19040.199403786588, 38281.028065804014, -187500.02235174447, -187500.02235174447, 9575.688490353643, -17394.619273497974, 5970.977958557362, -0.154, 0.978, 0.044, 192.0, 0.0, 0.0, 0.0, 0.0, 0.0, 0.0, 0.0, 0.0, 0.0, 1.741476726936494E9, 0.0, 2025-03-08 17:32:06.936
112.0, 187500.0, 19057.745523184007, 38296.38371424481, -187500.02235174447, -187500.02235174447, 9587.534914914957, -17385.87974141595, 5978.443441205435, -0.154, 0.978, 0.044, 192.0, 0.0, 0.0, 0.0, 0.0, 0.0, 0.0, 0.0, 0.0, 0.0, 1.741476726936502E9, 0.0, 2025-03-08 17:32:06.936
113.0, 187500.0, 19069.077857622848, 38309.52653998453, -187500.02235174447, -187500.02235174447, 9600.498926699034, -17384.113953603977, 5982.198534273927, -0.154, 0.978, 0.044, 192.0, 0.0, 0.0, 0.0, 0.0, 0.0, 0.0, 0.0, 0.0, 0.0, 1.741476726936509E9, 0.0, 2025-03-08 17:32:06.936
114.0, 187500.0, 19043.708627666074, 38295.13201655531, -187500.02235174447, -187500.02235174447, 9586.774955603476, -17391.311215318587, 5981.058595306707, -0.154, 0.978, 0.044, 192.0, 0.0, 0.0, 0.0, 0.0, 0.0, 0.0, 0.0, 0.0, 0.0, 1.741476726936517E9, 0.0, 2025-03-08 17:32:06.936
115.0, 187500.0, 19039.953534597582, 38288.381789729814, -187500.02235174447, -187500.02235174447, 9576.18022873166, -17386.90792166089, 5981.751499384821, -0.154, 0.978, 0.044, 192.0, 0.0, 0.0, 0.0, 0.0, 0.0, 0.0, 0.0, 0.0, 0.0, 1.741476726936524E9, 0.0, 2025-03-08 17:32:06.936
116.0, 187500.0, 19038.411264230166, 38279.6869611367, -187500.02235174447, -187500.02235174447, 9565.674908837665, -17408.07502366007, 5954.75059208281, -0.154, 0.978, 0.044, 192.0, 0.0, 0.0, 0.0, 0.0, 0.0, 0.0, 0.0, 0.0, 0.0, 1.741476726936531E9, 0.0, 2025-03-08 17:32:06.936
117.0, 187500.0, 19052.20229055909, 38291.62279267583, -187500.02235174447, -187500.02235174447, 9578.370699688281, -17389.76894495117, 5963.17719974246, -0.15, 0.974, 0.04, 192.0, 251.0, 80.0, 30.0, 112.0, 1.0, 64.0, 0.0, 0.0, 0.0, 1.741476726936539E9, 0.0, 2025-03-08 17:32:06.936
118.0, 187500.0, 19058.95251738459, 38304.78797016, -187500.02235174447, -187500.02235174447, 9587.75843235951, -17366.791351651114, 6000.571668216189, -0.15, 0.974, 0.04, 192.0, 0.0, 0.0, 0.0, 0.0, 0.0, 0.0, 0.0, 0.0, 0.0, 1.741476726936547E9, 0.0, 2025-03-08 17:32:06.936
119.0, 187500.0, 19047.888403879217, 38298.12715031233, -187500.02235174447, -187500.02235174447, 9584.048042779928, -17388.29372981712, 5997.062444336706, -0.15, 0.974, 0.04, 192.0, 0.0, 0.0, 0.0, 0.0, 0.0, 0.0, 0.0, 0.0, 0.0, 1.741476726936554E9, 0.0, 2025-03-08 17:32:06.936
120.0, 187500.0, 19043.462758477064, 38288.180624029716, -187500.02235174447, -187500.02235174447, 9579.018900277484, -17398.307311333097, 5998.045921092739, -0.15, 0.974, 0.04, 192.0, 0.0, 0.0, 0.0, 0.0, 0.0, 0.0, 0.0, 0.0, 0.0, 1.741476726936562E9, 0.0, 2025-03-08 17:32:06.936
121.0, 187500.0, 19055.71151443857, 38295.10966481086, -187500.02235174447, -187500.02235174447, 9586.506734670013, -17393.948721164314, 5980.4774499508685, -0.15, 0.974, 0.04, 192.0, 0.0, 0.0, 0.0, 0.0, 0.0, 0.0, 0.0, 0.0, 0.0, 1.741476726996622E9, 0.0, 2025-03-08 17:32:06.996
122.0, 187500.0, 19044.66975267765, 38296.562528200455, -187500.02235174447, -187500.02235174447, 9587.646673637233, -17395.692157231828, 5976.096508037628, -0.15, 0.974, 0.04, 192.0, 0.0, 0.0, 0.0, 0.0, 0.0, 0.0, 0.0, 0.0, 0.0, 1.741476726996636E9, 0.0, 2025-03-08 17:32:06.996
123.0, 187500.0, 19034.05267406138, 38286.638353662296, -187500.02235174447, -187500.02235174447, 9581.410536934201, -17402.889418946437, 5973.369595214081, -0.15, 0.974, 0.04, 192.0, 0.0, 0.0, 0.0, 0.0, 0.0, 0.0, 0.0, 0.0, 0.0, 1.741476726996645E9, 0.0, 2025-03-08 17:32:06.996
124.0, 187500.0, 19036.95840084057, 38277.9882285581, -187500.02235174447, -187500.02235174447, 9567.820676305375, -17409.594942283027, 5964.272435220771, -0.15, 0.974, 0.04, 192.0, 0.0, 0.0, 0.0, 0.0, 0.0, 0.0, 0.0, 0.0, 0.0, 1.74147672699667E9, 0.0, 2025-03-08 17:32:06.996
125.0, 187500.0, 19047.91075562367, 38277.56354541344, -187500.02235174447, -187500.02235174447, 9563.08210648085, -17407.1586021374, 5975.3141969816925, -0.15, 0.974, 0.04, 192.0, 0.0, 0.0, 0.0, 0.0, 0.0, 0.0, 0.0, 0.0, 0.0, 1.741476726996678E9, 0.0, 2025-03-08 17:32:06.996
126.0, 187500.0, 19043.14983405469, 38278.50231868056, -187500.02235174447, -187500.02235174447, 9570.882865295753, -17397.994386910723, 5993.150889057028, -0.15, 0.974, 0.04, 192.0, 0.0, 0.0, 0.0, 0.0, 0.0, 0.0, 0.0, 0.0, 0.0, 1.741476726996685E9, 0.0, 2025-03-08 17:32:06.996
127.0, 187500.0, 19023.413243700656, 38262.6325801173, -187500.02235174447, -187500.02235174447, 9588.18311550416, -17408.857334716, 5973.481353936357, -0.152, 0.974, 0.05, 192.0, 251.0, 64.0, 30.0, 112.0, 1.0, 144.0, 0.0, 0.0, 0.0, 1.741476726996692E9, 0.0, 2025-03-08 17:32:06.996
128.0, 187500.0, 19040.422921231144, 38275.21661224563, -187500.02235174447, -187500.02235174447, 9593.6145894068, -17388.96428215078, 5990.021644833284, -0.152, 0.974, 0.05, 192.0, 0.0, 0.0, 0.0, 0.0, 0.0, 0.0, 0.0, 0.0, 0.0, 1.7414767269967E9, 0.0, 2025-03-08 17:32:06.996
129.0, 187500.0, 19056.873805150248, 38284.42553096122, -187500.02235174447, -187500.02235174447, 9586.730252114565, -17381.409392524885, 6002.85154615063, -0.152, 0.974, 0.05, 192.0, 0.0, 0.0, 0.0, 0.0, 0.0, 0.0, 0.0, 0.0, 0.0, 1.741476726996708E9, 0.0, 2025-03-08 17:32:06.996
130.0, 187500.0, 19051.352924269788, 38280.692789637185, -187500.02235174447, -187500.02235174447, 9590.910028327708, -17384.940968148825, 5996.5036507253235, -0.152, 0.974, 0.05, 192.0, 0.0, 0.0, 0.0, 0.0, 0.0, 0.0, 0.0, 0.0, 0.0, 1.741476726996715E9, 0.0, 2025-03-08 17:32:06.996
131.0, 187500.0, 19029.716435637052, 38271.30505696595, -187500.02235174447, -187500.02235174447, 9588.741909115543, -17385.0527268711, 5999.901115882531, -0.152, 0.974, 0.05, 192.0, 0.0, 0.0, 0.0, 0.0, 0.0, 0.0, 0.0, 0.0, 0.0, 1.741476726996723E9, 0.0, 2025-03-08 17:32:06.996
132.0, 187500.0, 19037.941877596604, 38272.534402911, -187500.02235174447, -187500.02235174447, 9595.782708618965, -17380.649433213406, 6007.344246786148, -0.152, 0.974, 0.05, 192.0, 0.0, 0.0, 0.0, 0.0, 0.0, 0.0, 0.0, 0.0, 0.0, 1.74147672699673E9, 0.0, 2025-03-08 17:32:06.996
133.0, 187500.0, 19045.832043389328, 38274.27783897851, -187500.02235174447, -187500.02235174447, 9592.251132995027, -17380.649433213406, 6007.1877845749605, -0.152, 0.974, 0.05, 192.0, 0.0, 0.0, 0.0, 0.0, 0.0, 0.0, 0.0, 0.0, 0.0, 1.741476726996737E9, 0.0, 2025-03-08 17:32:06.996
134.0, 187500.0, 19035.706703151074, 38260.3303504384, -187500.02235174447, -187500.02235174447, 9582.014034034495, -17397.234427599244, 5993.910848368508, -0.152, 0.974, 0.05, 192.0, 0.0, 0.0, 0.0, 0.0, 0.0, 0.0, 0.0, 0.0, 0.0, 1.741476726996745E9, 0.0, 2025-03-08 17:32:06.996
135.0, 187500.0, 19010.04690051638, 38243.633597330285, -187500.02235174447, -187500.02235174447, 9584.629188135767, -17405.81749747008, 5984.56781918619, -0.152, 0.974, 0.05, 192.0, 0.0, 0.0, 0.0, 0.0, 0.0, 0.0, 0.0, 0.0, 0.0, 1.741476726996752E9, 0.0, 2025-03-08 17:32:06.996
136.0, 187500.0, 19009.935141794103, 38248.64038808827, -187500.02235174447, -187500.02235174447, 9583.936284057652, -17403.73878523574, 5988.233505276859, -0.152, 0.974, 0.05, 192.0, 0.0, 0.0, 0.0, 0.0, 0.0, 0.0, 0.0, 0.0, 0.0, 1.741476727056106E9, 0.0, 2025-03-08 17:32:07.056
137.0, 187500.0, 19021.066310532846, 38264.62188537382, -187500.02235174447, -187500.02235174447, 9593.480478940068, -17399.514305533685, 5995.877801880575, -0.156, 0.972, 0.05, 192.0, 251.0, 32.0, 30.0, 96.0, 1.0, 144.0, 0.0, 0.0, 0.0, 1.741476727056128E9, 0.0, 2025-03-08 17:32:07.056
138.0, 187500.0, 19033.829156616826, 38272.42264418872, -187500.02235174447, -187500.02235174447, 9581.32112995638, -17399.469602044774, 5996.168374558494, -0.156, 0.972, 0.05, 192.0, 0.0, 0.0, 0.0, 0.0, 0.0, 0.0, 0.0, 0.0, 0.0, 1.741476727056138E9, 0.0, 2025-03-08 17:32:07.056
139.0, 187500.0, 19009.823383071827, 38253.20014395716, -187500.02235174447, -187500.02235174447, 9566.79249606043, -17407.560933537596, 5989.954589599918, -0.156, 0.972, 0.05, 192.0, 0.0, 0.0, 0.0, 0.0, 0.0, 0.0, 0.0, 0.0, 0.0, 1.741476727056163E9, 0.0, 2025-03-08 17:32:07.056
140.0, 187500.0, 19016.730072108516, 38260.24094346058, -187500.02235174447, -187500.02235174447, 9582.796345090432, -17392.987596152736, 6005.131424085072, -0.156, 0.972, 0.05, 192.0, 0.0, 0.0, 0.0, 0.0, 0.0, 0.0, 0.0, 0.0, 0.0, 1.741476727056171E9, 0.0, 2025-03-08 17:32:07.056
141.0, 187500.0, 19025.11197627926, 38263.19137372868, -187500.02235174447, -187500.02235174447, 9592.698167884131, -17401.97299742377, 6006.673694452488, -0.156, 0.972, 0.05, 192.0, 0.0, 0.0, 0.0, 0.0, 0.0, 0.0, 0.0, 0.0, 0.0, 1.741476727056178E9, 0.0, 2025-03-08 17:32:07.056
142.0, 187500.0, 19035.840813617804, 38266.76765284153, -187500.02235174447, -187500.02235174447, 9592.876981839774, -17393.166410108377, 6016.039075379262, -0.156, 0.972, 0.05, 192.0, 0.0, 0.0, 0.0, 0.0, 0.0, 0.0, 0.0, 0.0, 0.0, 1.741476727056186E9, 0.0, 2025-03-08 17:32:07.056
143.0, 187500.0, 19021.267476232944, 38263.68311210669, -187500.02235174447, -187500.02235174447, 9607.517374458, -17386.550293749606, 6011.926354399486, -0.156, 0.972, 0.05, 192.0, 0.0, 0.0, 0.0, 0.0, 0.0, 0.0, 0.0, 0.0, 0.0, 1.741476727056193E9, 0.0, 2025-03-08 17:32:07.056
144.0, 187500.0, 19015.031339529913, 38263.14667023977, -187500.02235174447, -187500.02235174447, 9601.258886010515, -17383.19753208131, 6005.958438629918, -0.156, 0.972, 0.05, 192.0, 0.0, 0.0, 0.0, 0.0, 0.0, 0.0, 0.0, 0.0, 0.0, 1.741476727056201E9, 0.0, 2025-03-08 17:32:07.056
145.0, 187500.0, 19023.212078000557, 38265.583010385395, -187500.02235174447, -187500.02235174447, 9590.37358646078, -17376.96139537828, 6006.494880496845, -0.156, 0.972, 0.05, 192.0, 0.0, 0.0, 0.0, 0.0, 0.0, 0.0, 0.0, 0.0, 0.0, 1.741476727056208E9, 0.0, 2025-03-08 17:32:07.056
146.0, 187500.0, 19040.28881076441, 38270.50039416557, -187500.02235174447, -187500.02235174447, 9597.66025515321, -17387.980805394745, 6000.415206005002, -0.156, 0.972, 0.05, 192.0, 0.0, 0.0, 0.0, 0.0, 0.0, 0.0, 0.0, 0.0, 0.0, 1.741476727056216E9, 0.0, 2025-03-08 17:32:07.056
147.0, 187500.0, 19028.39768271419, 38262.789042328484, -187500.02235174447, -187500.02235174447, 9591.111194027806, -17404.610503269494, 5994.760214657809, -0.154, 0.972, 0.05, 192.0, 251.0, 48.0, 30.0, 96.0, 1.0, 144.0, 0.0, 0.0, 0.0, 1.741476727056223E9, 0.0, 2025-03-08 17:32:07.056
148.0, 187500.0, 19018.026473286925, 38259.503335893554, -187500.02235174447, -187500.02235174447, 9590.284179482958, -17410.645474272427, 6009.37825553158, -0.154, 0.972, 0.05, 192.0, 0.0, 0.0, 0.0, 0.0, 0.0, 0.0, 0.0, 0.0, 0.0, 1.741476727056231E9, 0.0, 2025-03-08 17:32:07.056
149.0, 187500.0, 19019.054653531868, 38272.087368021894, -187500.02235174447, -187500.02235174447, 9591.08884228335, -17386.93027340535, 6007.835985164164, -0.154, 0.972, 0.05, 192.0, 0.0, 0.0, 0.0, 0.0, 0.0, 0.0, 0.0, 0.0, 0.0, 1.741476727056239E9, 0.0, 2025-03-08 17:32:07.056
150.0, 187500.0, 19027.615371658252, 38273.406120944754, -187500.02235174447, -187500.02235174447, 9586.864362581297, -17375.843808155514, 5993.106185568116, -0.154, 0.972, 0.05, 192.0, 0.0, 0.0, 0.0, 0.0, 0.0, 0.0, 0.0, 0.0, 0.0, 1.741476727056246E9, 0.0, 2025-03-08 17:32:07.056
151.0, 187500.0, 19028.39768271419, 38274.90368782326, -187500.02235174447, -187500.02235174447, 9594.262789996004, -17368.981822607737, 6005.399645018536, -0.154, 0.972, 0.05, 192.0, 0.0, 0.0, 0.0, 0.0, 0.0, 0.0, 0.0, 0.0, 0.0, 1.74147672711598E9, 0.0, 2025-03-08 17:32:07.115
152.0, 187500.0, 19017.2888657199, 38268.84636507587, -187500.02235174447, -187500.02235174447, 9594.03927255145, -17367.551310962597, 6019.86122368112, -0.154, 0.972, 0.05, 192.0, 0.0, 0.0, 0.0, 0.0, 0.0, 0.0, 0.0, 0.0, 0.0, 1.741476727116004E9, 0.0, 2025-03-08 17:32:07.116
153.0, 187500.0, 19022.027435544423, 38264.42071967372, -187500.02235174447, -187500.02235174447, 9590.015958549495, -17376.223787811254, 6020.5094242703235, -0.154, 0.972, 0.05, 192.0, 0.0, 0.0, 0.0, 0.0, 0.0, 0.0, 0.0, 0.0, 0.0, 1.741476727116013E9, 0.0, 2025-03-08 17:32:07.116
154.0, 187500.0, 19041.004066586982, 38269.62867613181, -187500.02235174447, -187500.02235174447, 9590.619455649789, -17388.67370947286, 6006.494880496845, -0.154, 0.972, 0.05, 192.0, 0.0, 0.0, 0.0, 0.0, 0.0, 0.0, 0.0, 0.0, 0.0, 1.741476727116021E9, 0.0, 2025-03-08 17:32:07.116
155.0, 187500.0, 19054.571575471353, 38280.3351617259, -187500.02235174447, -187500.02235174447, 9597.593199919844, -17373.653337198895, 6008.573592731189, -0.154, 0.972, 0.05, 192.0, 0.0, 0.0, 0.0, 0.0, 0.0, 0.0, 0.0, 0.0, 0.0, 1.74147672711605E9, 0.0, 2025-03-08 17:32:07.116
156.0, 187500.0, 19035.729054895528, 38271.77444359952, -187500.02235174447, -187500.02235174447, 9592.98874056205, -17376.737877933727, 6002.985656617362, -0.154, 0.972, 0.05, 192.0, 0.0, 0.0, 0.0, 0.0, 0.0, 0.0, 0.0, 0.0, 0.0, 1.741476727116058E9, 0.0, 2025-03-08 17:32:07.116
157.0, 187500.0, 19035.170261284144, 38271.0815395214, -187500.02235174447, -187500.02235174447, 9593.100499284328, -17374.122723832457, 6003.879726395575, -0.152, 0.978, 0.054, 192.0, 251.0, 64.0, 30.0, 144.0, 1.0, 176.0, 0.0, 0.0, 0.0, 1.741476727116065E9, 0.0, 2025-03-08 17:32:07.116
158.0, 187500.0, 19038.00893282997, 38274.747225612075, -187500.02235174447, -187500.02235174447, 9591.84880159483, -17383.10812510349, 5988.434670976958, -0.152, 0.978, 0.054, 192.0, 0.0, 0.0, 0.0, 0.0, 0.0, 0.0, 0.0, 0.0, 0.0, 1.741476727116073E9, 0.0, 2025-03-08 17:32:07.116
159.0, 187500.0, 19038.947706097093, 38276.691827379684, -187500.02235174447, -187500.02235174447, 9592.161726017204, -17394.038128142136, 5969.390984701036, -0.152, 0.978, 0.054, 192.0, 0.0, 0.0, 0.0, 0.0, 0.0, 0.0, 0.0, 0.0, 0.0, 1.74147672711608E9, 0.0, 2025-03-08 17:32:07.116
160.0, 187500.0, 19023.636761145208, 38273.92021106723, -187500.02235174447, -187500.02235174447, 9583.109269512805, -17394.574570009063, 5959.89149330753, -0.152, 0.978, 0.054, 192.0, 0.0, 0.0, 0.0, 0.0, 0.0, 0.0, 0.0, 0.0, 0.0, 1.741476727116088E9, 0.0, 2025-03-08 17:32:07.116
161.0, 187500.0, 19020.731034366017, 38269.60632438735, -187500.02235174447, -187500.02235174447, 9571.642824607234, -17389.14309610642, 5944.647603589011, -0.152, 0.978, 0.054, 192.0, 0.0, 0.0, 0.0, 0.0, 0.0, 0.0, 0.0, 0.0, 0.0, 1.741476727116095E9, 0.0, 2025-03-08 17:32:07.116
162.0, 187500.0, 19025.827232101827, 38273.85315583386, -187500.02235174447, -187500.02235174447, 9586.909066070208, -17392.607616496996, 5927.816740014165, -0.152, 0.978, 0.054, 192.0, 0.0, 0.0, 0.0, 0.0, 0.0, 0.0, 0.0, 0.0, 0.0, 1.741476727116103E9, 0.0, 2025-03-08 17:32:07.116
163.0, 187500.0, 19037.696008407594, 38284.82786236142, -187500.02235174447, -187500.02235174447, 9591.066490538895, -17395.49099153173, 5922.519376578257, -0.152, 0.978, 0.054, 192.0, 0.0, 0.0, 0.0, 0.0, 0.0, 0.0, 0.0, 0.0, 0.0, 1.74147672711611E9, 0.0, 2025-03-08 17:32:07.116
164.0, 187500.0, 19020.418109943643, 38273.31671396693, -187500.02235174447, -187500.02235174447, 9587.646673637233, -17407.806802726605, 5908.258963615771, -0.152, 0.978, 0.054, 192.0, 0.0, 0.0, 0.0, 0.0, 0.0, 0.0, 0.0, 0.0, 0.0, 1.741476727116117E9, 0.0, 2025-03-08 17:32:07.116
165.0, 187500.0, 19017.11005176426, 38268.35462669786, -187500.02235174447, -187500.02235174447, 9582.304606712414, -17417.082776675557, 5897.686588488411, -0.152, 0.978, 0.054, 192.0, 0.0, 0.0, 0.0, 0.0, 0.0, 0.0, 0.0, 0.0, 0.0, 1.741476727116125E9, 0.0, 2025-03-08 17:32:07.116
166.0, 187500.0, 19027.794185613893, 38270.12041450982, -187500.02235174447, -187500.02235174447, 9574.995586275529, -17406.130421892456, 5888.88000117302, -0.152, 0.978, 0.054, 192.0, 0.0, 0.0, 0.0, 0.0, 0.0, 0.0, 0.0, 0.0, 0.0, 1.74147672717624E9, 0.0, 2025-03-08 17:32:07.176
167.0, 187500.0, 19047.48607247902, 38282.168004771236, -187500.02235174447, -187500.02235174447, 9588.361929459803, -17394.149886864412, 5884.990797637796, -0.15, 0.972, 0.06, 192.0, 251.0, 80.0, 30.0, 96.0, 1.0, 224.0, 0.0, 0.0, 0.0, 1.74147672717626E9, 0.0, 2025-03-08 17:32:07.176
168.0, 187500.0, 19042.09930206529, 38288.11356879635, -187500.02235174447, -187500.02235174447, 9598.867249353796, -17379.576549479552, 5904.660332758467, -0.15, 0.972, 0.06, 192.0, 0.0, 0.0, 0.0, 0.0, 0.0, 0.0, 0.0, 0.0, 0.0, 1.741476727176269E9, 0.0, 2025-03-08 17:32:07.176
169.0, 187500.0, 19028.710607136563, 38280.42456870372, -187500.02235174447, -187500.02235174447, 9605.729234901577, -17389.903055417904, 5878.844067912587, -0.15, 0.972, 0.06, 192.0, 0.0, 0.0, 0.0, 0.0, 0.0, 0.0, 0.0, 0.0, 0.0, 1.741476727176277E9, 0.0, 2025-03-08 17:32:07.176
170.0, 187500.0, 19033.873860105738, 38281.09512103738, -187500.02235174447, -187500.02235174447, 9600.968313332596, -17391.937064163336, 5876.832410911609, -0.15, 0.972, 0.06, 192.0, 0.0, 0.0, 0.0, 0.0, 0.0, 0.0, 0.0, 0.0, 0.0, 1.741476727176307E9, 0.0, 2025-03-08 17:32:07.176
171.0, 187500.0, 19057.16437782817, 38286.72776064012, -187500.02235174447, -187500.02235174447, 9598.979008076074, -17397.63675899944, 5874.329015532615, -0.15, 0.972, 0.06, 192.0, 0.0, 0.0, 0.0, 0.0, 0.0, 0.0, 0.0, 0.0, 0.0, 1.741476727176315E9, 0.0, 2025-03-08 17:32:07.176
172.0, 187500.0, 19046.413188745166, 38276.065978534934, -187500.02235174447, -187500.02235174447, 9604.879868612274, -17404.11876489148, 5871.043309097685, -0.15, 0.972, 0.06, 192.0, 0.0, 0.0, 0.0, 0.0, 0.0, 0.0, 0.0, 0.0, 0.0, 1.741476727176322E9, 0.0, 2025-03-08 17:32:07.176
173.0, 187500.0, 19032.33158973832, 38280.268106492535, -187500.02235174447, -187500.02235174447, 9598.4649179536, -17396.2062473543, 5872.630282954012, -0.15, 0.972, 0.06, 192.0, 0.0, 0.0, 0.0, 0.0, 0.0, 0.0, 0.0, 0.0, 0.0, 1.74147672717633E9, 0.0, 2025-03-08 17:32:07.176
174.0, 187500.0, 19040.937011353613, 38287.688885651696, -187500.02235174447, -187500.02235174447, 9595.80506036342, -17395.222770598266, 5869.813963152643, -0.15, 0.972, 0.06, 192.0, 0.0, 0.0, 0.0, 0.0, 0.0, 0.0, 0.0, 0.0, 0.0, 1.741476727176337E9, 0.0, 2025-03-08 17:32:07.176
175.0, 187500.0, 19063.176997086644, 38293.43328397671, -187500.02235174447, -187500.02235174447, 9596.587371419355, -17402.420032312875, 5870.886846886498, -0.15, 0.972, 0.06, 192.0, 0.0, 0.0, 0.0, 0.0, 0.0, 0.0, 0.0, 0.0, 0.0, 1.741476727176345E9, 0.0, 2025-03-08 17:32:07.176
176.0, 187500.0, 19064.831026176336, 38291.041647319995, -187500.02235174447, -187500.02235174447, 9610.937191359662, -17413.238276629243, 5869.545742219179, -0.15, 0.972, 0.06, 192.0, 0.0, 0.0, 0.0, 0.0, 0.0, 0.0, 0.0, 0.0, 0.0, 1.741476727176352E9, 0.0, 2025-03-08 17:32:07.176
177.0, 187500.0, 19055.040962104915, 38275.64129539028, -187500.02235174447, -187500.02235174447, 9590.32888297187, -17439.032189730668, 5857.296986257671, -0.158, 0.964, 0.06, 192.0, 251.0, 16.0, 30.0, 32.0, 1.0, 224.0, 0.0, 0.0, 0.0, 1.74147672717636E9, 0.0, 2025-03-08 17:32:07.176
178.0, 187500.0, 19060.539491240917, 38285.25254550607, -187500.02235174447, -187500.02235174447, 9603.337598244858, -17425.442329101843, 5872.0044341092635, -0.158, 0.964, 0.06, 192.0, 0.0, 0.0, 0.0, 0.0, 0.0, 0.0, 0.0, 0.0, 0.0, 1.741476727176368E9, 0.0, 2025-03-08 17:32:07.176
179.0, 187500.0, 19078.890273438727, 38302.776313159025, -187500.02235174447, -187500.02235174447, 9610.37839774828, -17406.44334631483, 5865.835352639599, -0.158, 0.964, 0.06, 192.0, 0.0, 0.0, 0.0, 0.0, 0.0, 0.0, 0.0, 0.0, 0.0, 1.741476727176375E9, 0.0, 2025-03-08 17:32:07.176
180.0, 187500.0, 19083.092401396323, 38306.10672308287, -187500.02235174447, -187500.02235174447, 9601.884734855263, -17391.87000892997, 5850.770276876721, -0.158, 0.964, 0.06, 192.0, 0.0, 0.0, 0.0, 0.0, 0.0, 0.0, 0.0, 0.0, 0.0, 1.741476727176382E9, 0.0, 2025-03-08 17:32:07.176
181.0, 187500.0, 19058.259613306476, 38296.76369390055, -187500.02235174447, -187500.02235174447, 9608.053816324928, -17382.370517536463, 5861.946149104375, -0.158, 0.964, 0.06, 192.0, 0.0, 0.0, 0.0, 0.0, 0.0, 0.0, 0.0, 0.0, 0.0, 1.741476727236547E9, 0.0, 2025-03-08 17:32:07.236
182.0, 187500.0, 19054.996258616004, 38294.036781077004, -187500.02235174447, -187500.02235174447, 9603.42700522268, -17390.461849029285, 5860.023899081219, -0.158, 0.964, 0.06, 192.0, 0.0, 0.0, 0.0, 0.0, 0.0, 0.0, 0.0, 0.0, 0.0, 1.74147672723657E9, 0.0, 2025-03-08 17:32:07.236
183.0, 187500.0, 19061.47826450804, 38296.271955522534, -187500.02235174447, -187500.02235174447, 9603.292894755949, -17396.25095084321, 5859.040422325185, -0.158, 0.964, 0.06, 192.0, 0.0, 0.0, 0.0, 0.0, 0.0, 0.0, 0.0, 0.0, 0.0, 1.741476727236583E9, 0.0, 2025-03-08 17:32:07.236
184.0, 187500.0, 19065.56863374336, 38301.61402244736, -187500.02235174447, -187500.02235174447, 9607.293857013448, -17405.370462580977, 5858.012242080241, -0.158, 0.964, 0.06, 192.0, 0.0, 0.0, 0.0, 0.0, 0.0, 0.0, 0.0, 0.0, 0.0, 1.741476727236591E9, 0.0, 2025-03-08 17:32:07.236
185.0, 187500.0, 19046.167319556156, 38297.881281123315, -187500.02235174447, -187500.02235174447, 9601.840031366353, -17397.748517721717, 5860.649747925967, -0.158, 0.964, 0.06, 192.0, 0.0, 0.0, 0.0, 0.0, 0.0, 0.0, 0.0, 0.0, 0.0, 1.741476727236617E9, 0.0, 2025-03-08 17:32:07.236
186.0, 187500.0, 19044.468586977553, 38295.6908101667, -187500.02235174447, -187500.02235174447, 9602.734101144564, -17401.48125904575, 5853.497189700269, -0.158, 0.964, 0.06, 192.0, 0.0, 0.0, 0.0, 0.0, 0.0, 0.0, 0.0, 0.0, 0.0, 1.741476727236625E9, 0.0, 2025-03-08 17:32:07.236
187.0, 187500.0, 19053.833967904327, 38299.58001370192, -187500.02235174447, -187500.02235174447, 9600.118947043295, -17407.337416093043, 5847.551625675157, -0.152, 0.962, 0.06, 192.0, 251.0, 64.0, 30.0, 16.0, 1.0, 224.0, 0.0, 0.0, 0.0, 1.741476727236633E9, 0.0, 2025-03-08 17:32:07.236
188.0, 187500.0, 19060.025401118448, 38303.98330735962, -187500.02235174447, -187500.02235174447, 9604.119909300794, -17395.043956642625, 5851.7537536327545, -0.152, 0.962, 0.06, 192.0, 0.0, 0.0, 0.0, 0.0, 0.0, 0.0, 0.0, 0.0, 0.0, 1.741476727236641E9, 0.0, 2025-03-08 17:32:07.236
189.0, 187500.0, 19035.10320605078, 38293.276821765525, -187500.02235174447, -187500.02235174447, 9598.420214464692, -17397.703814232806, 5860.49328571478, -0.152, 0.962, 0.06, 192.0, 0.0, 0.0, 0.0, 0.0, 0.0, 0.0, 0.0, 0.0, 0.0, 1.741476727236648E9, 0.0, 2025-03-08 17:32:07.236
190.0, 187500.0, 19026.609543157763, 38283.419702460735, -187500.02235174447, -187500.02235174447, 9594.463955696101, -17400.54248577863, 5851.7537536327545, -0.152, 0.962, 0.06, 192.0, 0.0, 0.0, 0.0, 0.0, 0.0, 0.0, 0.0, 0.0, 0.0, 1.741476727236655E9, 0.0, 2025-03-08 17:32:07.236
191.0, 187500.0, 19034.611467672763, 38282.14565302678, -187500.02235174447, -187500.02235174447, 9601.884734855263, -17404.96813118078, 5850.546759432168, -0.152, 0.962, 0.06, 192.0, 0.0, 0.0, 0.0, 0.0, 0.0, 0.0, 0.0, 0.0, 0.0, 1.741476727236663E9, 0.0, 2025-03-08 17:32:07.236
192.0, 187500.0, 19040.646438675696, 38279.709312881154, -187500.02235174447, -187500.02235174447, 9604.321075000891, -17420.323779621576, 5841.2484337387605, -0.152, 0.962, 0.06, 192.0, 0.0, 0.0, 0.0, 0.0, 0.0, 0.0, 0.0, 0.0, 0.0, 1.74147672723667E9, 0.0, 2025-03-08 17:32:07.236
193.0, 187500.0, 19034.186784528112, 38277.92117332473, -187500.02235174447, -187500.02235174447, 9595.983874319063, -17417.865087731494, 5844.712954129333, -0.152, 0.962, 0.06, 192.0, 0.0, 0.0, 0.0, 0.0, 0.0, 0.0, 0.0, 0.0, 0.0, 1.741476727236678E9, 0.0, 2025-03-08 17:32:07.236
194.0, 187500.0, 19031.415168215655, 38272.020312788525, -187500.02235174447, -187500.02235174447, 9593.033444050961, -17420.703759277316, 5846.4116867079365, -0.152, 0.962, 0.06, 192.0, 0.0, 0.0, 0.0, 0.0, 0.0, 0.0, 0.0, 0.0, 0.0, 1.741476727236685E9, 0.0, 2025-03-08 17:32:07.236
195.0, 187500.0, 19041.607563687274, 38271.05918777695, -187500.02235174447, -187500.02235174447, 9594.6651213962, -17417.641570286938, 5845.2940994851715, -0.152, 0.962, 0.06, 192.0, 0.0, 0.0, 0.0, 0.0, 0.0, 0.0, 0.0, 0.0, 0.0, 1.741476727236693E9, 0.0, 2025-03-08 17:32:07.236
196.0, 187500.0, 19058.796055173403, 38284.604344916865, -187500.02235174447, -187500.02235174447, 9592.27348473948, -17411.1595643949, 5851.217311765828, -0.152, 0.962, 0.06, 192.0, 0.0, 0.0, 0.0, 0.0, 0.0, 0.0, 0.0, 0.0, 0.0, 1.741476727296701E9, 0.0, 2025-03-08 17:32:07.296
197.0, 187500.0, 19047.06138933437, 38280.64808614828, -187500.02235174447, -187500.02235174447, 9598.75549063152, -17407.806802726605, 5858.369869991526, -0.156, 0.97, 0.058, 192.0, 251.0, 32.0, 30.0, 80.0, 1.0, 208.0, 0.0, 0.0, 0.0, 1.741476727296722E9, 0.0, 2025-03-08 17:32:07.296
198.0, 187500.0, 19028.39768271419, 38268.37697844231, -187500.02235174447, -187500.02235174447, 9598.487269698056, -17427.92337273638, 5839.147369759961, -0.156, 0.97, 0.058, 192.0, 0.0, 0.0, 0.0, 0.0, 0.0, 0.0, 0.0, 0.0, 0.0, 1.741476727296731E9, 0.0, 2025-03-08 17:32:07.296
199.0, 187500.0, 19036.220793273544, 38266.83470807489, -187500.02235174447, -187500.02235174447, 9589.27835098247, -17442.07202697659, 5832.5536051456465, -0.156, 0.97, 0.058, 192.0, 0.0, 0.0, 0.0, 0.0, 0.0, 0.0, 0.0, 0.0, 0.0, 1.741476727296739E9, 0.0, 2025-03-08 17:32:07.296
200.0, 187500.0, 19050.3470957693, 38276.62477214632, -187500.02235174447, -187500.02235174447, 9593.480478940068, -17420.39083485494, 5846.009355307741, -0.156, 0.97, 0.058, 192.0, 0.0, 0.0, 0.0, 0.0, 0.0, 0.0, 0.0, 0.0, 0.0, 1.741476727296747E9, 0.0, 2025-03-08 17:32:07.296
201.0, 187500.0, 19046.189671300614, 38278.81524310294, -187500.02235174447, -187500.02235174447, 9595.358025474314, -17393.92636941986, 5853.228968766805, -0.156, 0.97, 0.058, 192.0, 0.0, 0.0, 0.0, 0.0, 0.0, 0.0, 0.0, 0.0, 0.0, 1.741476727296777E9, 0.0, 2025-03-08 17:32:07.296
202.0, 187500.0, 19033.91856359465, 38283.285591994005, -187500.02235174447, -187500.02235174447, 9596.274446996982, -17403.671730002374, 5844.645898895968, -0.156, 0.97, 0.058, 192.0, 0.0, 0.0, 0.0, 0.0, 0.0, 0.0, 0.0, 0.0, 0.0, 1.741476727296785E9, 0.0, 2025-03-08 17:32:07.296
203.0, 187500.0, 19039.417092730655, 38284.872565850324, -187500.02235174447, -187500.02235174447, 9601.728272644075, -17412.120689406478, 5848.5798059201015, -0.156, 0.97, 0.058, 192.0, 0.0, 0.0, 0.0, 0.0, 0.0, 0.0, 0.0, 0.0, 0.0, 1.741476727296792E9, 0.0, 2025-03-08 17:32:07.296
204.0, 187500.0, 19050.078874835835, 38297.09897006738, -187500.02235174447, -187500.02235174447, 9602.152955788726, -17415.1605266524, 5862.326128760115, -0.156, 0.97, 0.058, 192.0, 0.0, 0.0, 0.0, 0.0, 0.0, 0.0, 0.0, 0.0, 0.0, 1.7414767272968E9, 0.0, 2025-03-08 17:32:07.296
205.0, 187500.0, 19048.178976557134, 38296.495472967086, -187500.02235174447, -187500.02235174447, 9609.99841809254, -17413.372387095977, 5862.482590971303, -0.156, 0.97, 0.058, 192.0, 0.0, 0.0, 0.0, 0.0, 0.0, 0.0, 0.0, 0.0, 0.0, 1.741476727296807E9, 0.0, 2025-03-08 17:32:07.296
206.0, 187500.0, 19038.992409586004, 38293.075656065426, -187500.02235174447, -187500.02235174447, 9609.640790181254, -17396.072136887567, 5870.797439908676, -0.156, 0.97, 0.058, 192.0, 0.0, 0.0, 0.0, 0.0, 0.0, 0.0, 0.0, 0.0, 0.0, 1.741476727296815E9, 0.0, 2025-03-08 17:32:07.296
207.0, 187500.0, 19036.95840084057, 38292.87449036533, -187500.02235174447, -187500.02235174447, 9618.223860052092, -17400.810706712095, 5868.674024185422, -0.15, 0.976, 0.054, 192.0, 251.0, 80.0, 30.0, 128.0, 1.0, 176.0, 0.0, 0.0, 0.0, 1.741476727296822E9, 0.0, 2025-03-08 17:32:07.296
208.0, 187500.0, 19045.921450367146, 38293.5897461879, -187500.02235174447, -187500.02235174447, 9607.360912246813, -17404.54344803613, 5867.645843940479, -0.15, 0.976, 0.054, 192.0, 0.0, 0.0, 0.0, 0.0, 0.0, 0.0, 0.0, 0.0, 0.0, 1.74147672729683E9, 0.0, 2025-03-08 17:32:07.296
209.0, 187500.0, 19048.73777016852, 38289.566432185944, -187500.02235174447, -187500.02235174447, 9596.386205719258, -17412.053634173113, 5862.5496462046685, -0.15, 0.976, 0.054, 192.0, 0.0, 0.0, 0.0, 0.0, 0.0, 0.0, 0.0, 0.0, 0.0, 1.741476727296838E9, 0.0, 2025-03-08 17:32:07.296
210.0, 187500.0, 19029.358807725766, 38281.318638481935, -187500.02235174447, -187500.02235174447, 9599.38133947627, -17402.218866612777, 5864.427192738914, -0.15, 0.976, 0.054, 192.0, 0.0, 0.0, 0.0, 0.0, 0.0, 0.0, 0.0, 0.0, 0.0, 1.741476727296845E9, 0.0, 2025-03-08 17:32:07.296
211.0, 187500.0, 19025.89428733519, 38285.54311818399, -187500.02235174447, -187500.02235174447, 9599.537801687457, -17398.910808433393, 5874.5301812327125, -0.15, 0.976, 0.054, 192.0, 0.0, 0.0, 0.0, 0.0, 0.0, 0.0, 0.0, 0.0, 0.0, 1.741476727357031E9, 0.0, 2025-03-08 17:32:07.357
212.0, 187500.0, 19036.75723514047, 38291.01929557554, -187500.02235174447, -187500.02235174447, 9606.332732001869, -17401.593017768027, 5881.526277247224, -0.15, 0.976, 0.054, 192.0, 0.0, 0.0, 0.0, 0.0, 0.0, 0.0, 0.0, 0.0, 0.0, 1.741476727357051E9, 0.0, 2025-03-08 17:32:07.357
213.0, 187500.0, 19039.52885145293, 38292.9415455987, -187500.02235174447, -187500.02235174447, 9606.131566301772, -17400.989520667736, 5882.554457492168, -0.15, 0.976, 0.054, 192.0, 0.0, 0.0, 0.0, 0.0, 0.0, 0.0, 0.0, 0.0, 0.0, 1.74147672735706E9, 0.0, 2025-03-08 17:32:07.357
214.0, 187500.0, 19017.735900609005, 38281.78802511549, -187500.02235174447, -187500.02235174447, 9599.336635987358, -17402.263570101688, 5875.513657988747, -0.15, 0.976, 0.054, 192.0, 0.0, 0.0, 0.0, 0.0, 0.0, 0.0, 0.0, 0.0, 0.0, 1.741476727357068E9, 0.0, 2025-03-08 17:32:07.357
215.0, 187500.0, 19009.979845283015, 38275.57424015692, -187500.02235174447, -187500.02235174447, 9602.220011022093, -17404.454041058307, 5879.849896413076, -0.15, 0.976, 0.054, 192.0, 0.0, 0.0, 0.0, 0.0, 0.0, 0.0, 0.0, 0.0, 0.0, 1.741476727357076E9, 0.0, 2025-03-08 17:32:07.357
216.0, 187500.0, 19021.982732055516, 38280.58103091491, -187500.02235174447, -187500.02235174447, 9602.510583700012, -17400.54248577863, 5884.722576704333, -0.15, 0.976, 0.054, 192.0, 0.0, 0.0, 0.0, 0.0, 0.0, 0.0, 0.0, 0.0, 0.0, 1.741476727357107E9, 0.0, 2025-03-08 17:32:07.357
217.0, 187500.0, 19030.118767037246, 38284.78315887251, -187500.02235174447, -187500.02235174447, 9599.09076679835, -17400.67659624536, 5881.012187124752, -0.15, 0.978, 0.056, 192.0, 251.0, 80.0, 30.0, 144.0, 1.0, 192.0, 0.0, 0.0, 0.0, 1.741476727357115E9, 0.0, 2025-03-08 17:32:07.357
218.0, 187500.0, 19009.62221737173, 38273.361417455846, -187500.02235174447, -187500.02235174447, 9605.595124434843, -17401.190686367834, 5884.946094148886, -0.15, 0.978, 0.056, 192.0, 0.0, 0.0, 0.0, 0.0, 0.0, 0.0, 0.0, 0.0, 0.0, 1.741476727357123E9, 0.0, 2025-03-08 17:32:07.357
219.0, 187500.0, 19011.544467394884, 38274.81428084544, -187500.02235174447, -187500.02235174447, 9607.09269131335, -17402.53179103515, 5894.959675664863, -0.15, 0.978, 0.056, 192.0, 0.0, 0.0, 0.0, 0.0, 0.0, 0.0, 0.0, 0.0, 0.0, 1.741476727357131E9, 0.0, 2025-03-08 17:32:07.357
220.0, 187500.0, 19022.899153578182, 38281.34099022639, -187500.02235174447, -187500.02235174447, 9604.164612789704, -17391.57943625205, 5899.161803622461, -0.15, 0.978, 0.056, 192.0, 0.0, 0.0, 0.0, 0.0, 0.0, 0.0, 0.0, 0.0, 0.0, 1.741476727357138E9, 0.0, 2025-03-08 17:32:07.357
221.0, 187500.0, 19025.581362912817, 38281.65391464876, -187500.02235174447, -187500.02235174447, 9602.04119706645, -17391.24416008522, 5893.685626230911, -0.15, 0.978, 0.056, 192.0, 0.0, 0.0, 0.0, 0.0, 0.0, 0.0, 0.0, 0.0, 0.0, 1.741476727357146E9, 0.0, 2025-03-08 17:32:07.357
222.0, 187500.0, 19014.897229063183, 38275.99892330157, -187500.02235174447, -187500.02235174447, 9604.343426745347, -17395.178067109355, 5894.445585542391, -0.15, 0.978, 0.056, 192.0, 0.0, 0.0, 0.0, 0.0, 0.0, 0.0, 0.0, 0.0, 0.0, 1.741476727357153E9, 0.0, 2025-03-08 17:32:07.357
223.0, 187500.0, 19004.369557424732, 38266.924115052716, -187500.02235174447, -187500.02235174447, 9603.449356967134, -17397.837924699536, 5895.7196349763435, -0.15, 0.978, 0.056, 192.0, 0.0, 0.0, 0.0, 0.0, 0.0, 0.0, 0.0, 0.0, 0.0, 1.741476727357161E9, 0.0, 2025-03-08 17:32:07.357
224.0, 187500.0, 19012.81851682884, 38271.886202321795, -187500.02235174447, -187500.02235174447, 9600.275409254482, -17401.324796834564, 5899.340617578104, -0.15, 0.978, 0.056, 192.0, 0.0, 0.0, 0.0, 0.0, 0.0, 0.0, 0.0, 0.0, 0.0, 1.741476727357168E9, 0.0, 2025-03-08 17:32:07.357
225.0, 187500.0, 19021.490993677497, 38277.87646983581, -187500.02235174447, -187500.02235174447, 9599.358987731814, -17398.083793888545, 5906.448472314892, -0.15, 0.978, 0.056, 192.0, 0.0, 0.0, 0.0, 0.0, 0.0, 0.0, 0.0, 0.0, 0.0, 1.741476727357175E9, 0.0, 2025-03-08 17:32:07.357
226.0, 187500.0, 19012.52794415092, 38274.8366325899, -187500.02235174447, -187500.02235174447, 9592.18407776166, -17391.64649148542, 5904.973257180841, -0.15, 0.978, 0.056, 192.0, 0.0, 0.0, 0.0, 0.0, 0.0, 0.0, 0.0, 0.0, 0.0, 1.741476727416487E9, 0.0, 2025-03-08 17:32:07.416
227.0, 187500.0, 18991.293786918377, 38265.13597549629, -187500.02235174447, -187500.02235174447, 9590.41828994969, -17397.435593299342, 5892.769204708244, -0.146, 0.976, 0.062, 192.0, 251.0, 112.0, 30.0, 128.0, 1.0, 240.0, 0.0, 0.0, 0.0, 1.741476727416507E9, 0.0, 2025-03-08 17:32:07.416
228.0, 187500.0, 18991.293786918377, 38266.991170286085, -187500.02235174447, -187500.02235174447, 9606.243325024048, -17398.486125288742, 5889.7293674623215, -0.146, 0.976, 0.062, 192.0, 0.0, 0.0, 0.0, 0.0, 0.0, 0.0, 0.0, 0.0, 0.0, 1.741476727416517E9, 0.0, 2025-03-08 17:32:07.416
229.0, 187500.0, 18997.70873757705, 38264.80069932946, -187500.02235174447, -187500.02235174447, 9600.90125809923, -17405.63868351444, 5899.810004211665, -0.146, 0.976, 0.062, 192.0, 0.0, 0.0, 0.0, 0.0, 0.0, 0.0, 0.0, 0.0, 0.0, 1.741476727416525E9, 0.0, 2025-03-08 17:32:07.416
230.0, 187500.0, 18995.94294976508, 38264.107795251344, -187500.02235174447, -187500.02235174447, 9600.722444143586, -17413.59590454053, 5897.172498365939, -0.146, 0.976, 0.062, 192.0, 0.0, 0.0, 0.0, 0.0, 0.0, 0.0, 0.0, 0.0, 0.0, 1.741476727416532E9, 0.0, 2025-03-08 17:32:07.416
231.0, 187500.0, 18990.019737484425, 38263.370187684326, -187500.02235174447, -187500.02235174447, 9597.459089453112, -17414.847602230027, 5899.541783278201, -0.146, 0.976, 0.062, 192.0, 0.0, 0.0, 0.0, 0.0, 0.0, 0.0, 0.0, 0.0, 0.0, 1.741476727416562E9, 0.0, 2025-03-08 17:32:07.416
232.0, 187500.0, 19000.078022489313, 38270.00865578755, -187500.02235174447, -187500.02235174447, 9596.252095252526, -17418.73680576525, 5901.799309468188, -0.146, 0.976, 0.062, 192.0, 0.0, 0.0, 0.0, 0.0, 0.0, 0.0, 0.0, 0.0, 0.0, 1.74147672741657E9, 0.0, 2025-03-08 17:32:07.416
233.0, 187500.0, 19002.42495565712, 38269.40515868725, -187500.02235174447, -187500.02235174447, 9582.684586368154, -17406.845677715024, 5895.026730898229, -0.146, 0.976, 0.062, 192.0, 0.0, 0.0, 0.0, 0.0, 0.0, 0.0, 0.0, 0.0, 0.0, 1.741476727416582E9, 0.0, 2025-03-08 17:32:07.416
234.0, 187500.0, 19000.346243422777, 38266.566487141434, -187500.02235174447, -187500.02235174447, 9588.51839167099, -17399.134325877945, 5892.12100411904, -0.146, 0.976, 0.062, 192.0, 0.0, 0.0, 0.0, 0.0, 0.0, 0.0, 0.0, 0.0, 0.0, 1.741476727416589E9, 0.0, 2025-03-08 17:32:07.416
235.0, 187500.0, 18985.348222893266, 38256.44114690318, -187500.02235174447, -187500.02235174447, 9588.250170737527, -17411.1595643949, 5889.2599808287605, -0.146, 0.976, 0.062, 192.0, 0.0, 0.0, 0.0, 0.0, 0.0, 0.0, 0.0, 0.0, 0.0, 1.741476727416597E9, 0.0, 2025-03-08 17:32:07.416
236.0, 187500.0, 18985.66114731564, 38263.45959466214, -187500.02235174447, -187500.02235174447, 9589.412461449201, -17393.278168830653, 5891.226934340827, -0.146, 0.976, 0.062, 192.0, 0.0, 0.0, 0.0, 0.0, 0.0, 0.0, 0.0, 0.0, 0.0, 1.741476727416604E9, 0.0, 2025-03-08 17:32:07.416
237.0, 187500.0, 18990.913807262637, 38268.51108890904, -187500.02235174447, -187500.02235174447, 9587.46785968159, -17390.81947694057, 5893.327998319626, -0.14, 0.972, 0.06, 192.0, 251.0, 160.0, 30.0, 96.0, 1.0, 224.0, 0.0, 0.0, 0.0, 1.741476727416612E9, 0.0, 2025-03-08 17:32:07.416
238.0, 187500.0, 19008.795202826885, 38279.977533814614, -187500.02235174447, -187500.02235174447, 9601.594162177344, -17382.370517536463, 5913.779844496232, -0.14, 0.972, 0.06, 192.0, 0.0, 0.0, 0.0, 0.0, 0.0, 0.0, 0.0, 0.0, 0.0, 1.74147672741662E9, 0.0, 2025-03-08 17:32:07.416
239.0, 187500.0, 18995.42885964261, 38274.90368782326, -187500.02235174447, -187500.02235174447, 9604.119909300794, -17379.755363435193, 5910.1588618944725, -0.14, 0.972, 0.06, 192.0, 0.0, 0.0, 0.0, 0.0, 0.0, 0.0, 0.0, 0.0, 0.0, 1.741476727416627E9, 0.0, 2025-03-08 17:32:07.416
240.0, 187500.0, 18986.734031049495, 38270.343931954376, -187500.02235174447, -187500.02235174447, 9605.99745583504, -17381.96818613627, 5901.8216612126425, -0.14, 0.972, 0.06, 192.0, 0.0, 0.0, 0.0, 0.0, 0.0, 0.0, 0.0, 0.0, 0.0, 1.741476727416634E9, 0.0, 2025-03-08 17:32:07.416
241.0, 187500.0, 18997.395813154675, 38271.170946499224, -187500.02235174447, -187500.02235174447, 9617.530955973978, -17388.36078505049, 5898.603010011078, -0.14, 0.972, 0.06, 192.0, 0.0, 0.0, 0.0, 0.0, 0.0, 0.0, 0.0, 0.0, 0.0, 1.741476727476247E9, 0.0, 2025-03-08 17:32:07.476
242.0, 187500.0, 19006.80589757036, 38272.35558895535, -187500.02235174447, -187500.02235174447, 9591.647635894733, -17393.702851975304, 5890.824602940632, -0.14, 0.972, 0.06, 192.0, 0.0, 0.0, 0.0, 0.0, 0.0, 0.0, 0.0, 0.0, 0.0, 1.741476727476268E9, 0.0, 2025-03-08 17:32:07.476
243.0, 187500.0, 18990.846752029272, 38265.04656851847, -187500.02235174447, -187500.02235174447, 9592.876981839774, -17394.127535119955, 5894.758509964766, -0.14, 0.972, 0.06, 192.0, 0.0, 0.0, 0.0, 0.0, 0.0, 0.0, 0.0, 0.0, 0.0, 1.741476727476277E9, 0.0, 2025-03-08 17:32:07.476
244.0, 187500.0, 18986.599920582765, 38263.86192606234, -187500.02235174447, -187500.02235174447, 9599.984836576563, -17393.47933453075, 5903.565097280157, -0.14, 0.972, 0.06, 192.0, 0.0, 0.0, 0.0, 0.0, 0.0, 0.0, 0.0, 0.0, 0.0, 1.741476727476285E9, 0.0, 2025-03-08 17:32:07.476
245.0, 187500.0, 18994.132458464203, 38269.11458600934, -187500.02235174447, -187500.02235174447, 9599.604856920821, -17392.45115428581, 5906.537879292712, -0.14, 0.972, 0.06, 192.0, 0.0, 0.0, 0.0, 0.0, 0.0, 0.0, 0.0, 0.0, 0.0, 1.741476727476292E9, 0.0, 2025-03-08 17:32:07.476
246.0, 187500.0, 19008.012891770948, 38271.953257555164, -187500.02235174447, -187500.02235174447, 9605.729234901577, -17392.786430452637, 5903.587449024612, -0.14, 0.972, 0.06, 192.0, 0.0, 0.0, 0.0, 0.0, 0.0, 0.0, 0.0, 0.0, 0.0, 1.7414767274763E9, 0.0, 2025-03-08 17:32:07.476
247.0, 187500.0, 18995.160638709145, 38258.6316178598, -187500.02235174447, -187500.02235174447, 9599.515449943001, -17397.904979932904, 5901.888716446008, -0.14200000000000002, 0.976, 0.066, 192.0, 251.0, 144.0, 30.0, 128.0, 2.0, 16.0, 0.0, 0.0, 0.0, 1.741476727476328E9, 0.0, 2025-03-08 17:32:07.476
248.0, 187500.0, 18978.441533856578, 38248.99801599956, -187500.02235174447, -187500.02235174447, 9599.38133947627, -17399.737822978237, 5899.385321067014, -0.14200000000000002, 0.976, 0.066, 192.0, 0.0, 0.0, 0.0, 0.0, 0.0, 0.0, 0.0, 0.0, 0.0, 1.741476727476336E9, 0.0, 2025-03-08 17:32:07.476
249.0, 187500.0, 18985.102353704257, 38253.982455013094, -187500.02235174447, -187500.02235174447, 9609.774900647986, -17392.339395563533, 5899.251210600282, -0.14200000000000002, 0.976, 0.066, 192.0, 0.0, 0.0, 0.0, 0.0, 0.0, 0.0, 0.0, 0.0, 0.0, 1.741476727476344E9, 0.0, 2025-03-08 17:32:07.476
250.0, 187500.0, 18999.1839527111, 38266.14180399678, -187500.02235174447, -187500.02235174447, 9600.633037165766, -17394.127535119955, 5893.1938878528945, -0.14200000000000002, 0.976, 0.066, 192.0, 0.0, 0.0, 0.0, 0.0, 0.0, 0.0, 0.0, 0.0, 0.0, 1.741476727476352E9, 0.0, 2025-03-08 17:32:07.476
251.0, 187500.0, 18994.691252075583, 38264.28660920699, -187500.02235174447, -187500.02235174447, 9593.681644640166, -17394.798087453615, 5887.02480638323, -0.14200000000000002, 0.976, 0.066, 192.0, 0.0, 0.0, 0.0, 0.0, 0.0, 0.0, 0.0, 0.0, 0.0, 1.741476727476359E9, 0.0, 2025-03-08 17:32:07.476
252.0, 187500.0, 18980.117914690723, 38253.31190267944, -187500.02235174447, -187500.02235174447, 9593.480478940068, -17392.42880254135, 5901.374626323536, -0.14200000000000002, 0.976, 0.066, 192.0, 0.0, 0.0, 0.0, 0.0, 0.0, 0.0, 0.0, 0.0, 0.0, 1.741476727476366E9, 0.0, 2025-03-08 17:32:07.476
253.0, 187500.0, 18985.303519404355, 38254.13891722428, -187500.02235174447, -187500.02235174447, 9599.694263898644, -17391.266511829675, 5906.269658359249, -0.14200000000000002, 0.976, 0.066, 192.0, 0.0, 0.0, 0.0, 0.0, 0.0, 0.0, 0.0, 0.0, 0.0, 1.741476727476374E9, 0.0, 2025-03-08 17:32:07.476
254.0, 187500.0, 19001.329720178812, 38271.10389126586, -187500.02235174447, -187500.02235174447, 9609.640790181254, -17383.44340127032, 5909.130681649528, -0.14200000000000002, 0.976, 0.066, 192.0, 0.0, 0.0, 0.0, 0.0, 0.0, 0.0, 0.0, 0.0, 0.0, 1.741476727476381E9, 0.0, 2025-03-08 17:32:07.476
255.0, 187500.0, 19009.510458649453, 38279.91047858125, -187500.02235174447, -187500.02235174447, 9619.229688552581, -17379.621252968464, 5915.970315452852, -0.14200000000000002, 0.976, 0.066, 192.0, 0.0, 0.0, 0.0, 0.0, 0.0, 0.0, 0.0, 0.0, 0.0, 1.741476727476389E9, 0.0, 2025-03-08 17:32:07.476
0.0, 187500.0, 18994.020699741926, 38272.04266453298, -187500.02235174447, -187500.02235174447, 9620.391979264257, -17391.266511829675, 5906.180251381427, -0.14200000000000002, 0.976, 0.066, 192.0, 0.0, 0.0, 0.0, 0.0, 0.0, 0.0, 0.0, 0.0, 0.0, 1.741476727536537E9, 0.0, 2025-03-08 17:32:07.536
1.0, 187500.0, 18992.120801463225, 38267.08057726391, -187500.02235174447, -187500.02235174447, 9621.755435676032, -17405.459869558796, 5892.16570760795, -0.14, 0.974, 0.066, 192.0, 251.0, 160.0, 30.0, 112.0, 2.0, 16.0, 0.0, 0.0, 0.0, 1.741476727536559E9, 0.0, 2025-03-08 17:32:07.536
2.0, 187500.0, 19003.810763813348, 38275.238963990094, -187500.02235174447, -187500.02235174447, 9621.844842653853, -17387.466715272276, 5895.78669020971, -0.14, 0.974, 0.066, 192.0, 0.0, 0.0, 0.0, 0.0, 0.0, 0.0, 0.0, 0.0, 0.0, 1.741476727536568E9, 0.0, 2025-03-08 17:32:07.536
3.0, 187500.0, 19002.51436263494, 38270.05335927646, -187500.02235174447, -187500.02235174447, 9623.387113021268, -17381.275282058155, 5916.372646853048, -0.14, 0.974, 0.066, 192.0, 0.0, 0.0, 0.0, 0.0, 0.0, 0.0, 0.0, 0.0, 0.0, 1.741476727536581E9, 0.0, 2025-03-08 17:32:07.536
4.0, 187500.0, 18980.363783879733, 38258.49750739307, -187500.02235174447, -187500.02235174447, 9618.156804818727, -17388.181971094844, 5920.88769923302, -0.14, 0.974, 0.066, 192.0, 0.0, 0.0, 0.0, 0.0, 0.0, 0.0, 0.0, 0.0, 0.0, 1.741476727536589E9, 0.0, 2025-03-08 17:32:07.536
5.0, 187500.0, 18981.637833313685, 38258.67632134871, -187500.02235174447, -187500.02235174447, 9600.655388910222, -17392.92054091937, 5909.957696194375, -0.14, 0.974, 0.066, 192.0, 0.0, 0.0, 0.0, 0.0, 0.0, 0.0, 0.0, 0.0, 0.0, 1.741476727536596E9, 0.0, 2025-03-08 17:32:07.536
6.0, 187500.0, 18990.846752029272, 38264.01838827353, -187500.02235174447, -187500.02235174447, 9595.559191174412, -17393.948721164314, 5906.202603125883, -0.14, 0.974, 0.066, 192.0, 0.0, 0.0, 0.0, 0.0, 0.0, 0.0, 0.0, 0.0, 0.0, 1.741476727536626E9, 0.0, 2025-03-08 17:32:07.536
7.0, 187500.0, 19000.525057378418, 38270.16511799874, -187500.02235174447, -187500.02235174447, 9597.816717364398, -17390.886532173936, 5909.823585727642, -0.14, 0.974, 0.066, 192.0, 0.0, 0.0, 0.0, 0.0, 0.0, 0.0, 0.0, 0.0, 0.0, 1.741476727536634E9, 0.0, 2025-03-08 17:32:07.536
8.0, 187500.0, 18989.70681306205, 38271.23800173259, -187500.02235174447, -187500.02235174447, 9606.153918046228, -17378.526017490152, 5914.6739142744445, -0.14, 0.974, 0.066, 192.0, 0.0, 0.0, 0.0, 0.0, 0.0, 0.0, 0.0, 0.0, 0.0, 1.741476727536641E9, 0.0, 2025-03-08 17:32:07.536
9.0, 187500.0, 18981.52607459141, 38267.63937087529, -187500.02235174447, -187500.02235174447, 9617.642714696254, -17381.185875080333, 5913.243402629305, -0.14, 0.974, 0.066, 192.0, 0.0, 0.0, 0.0, 0.0, 0.0, 0.0, 0.0, 0.0, 0.0, 1.741476727536649E9, 0.0, 2025-03-08 17:32:07.536
10.0, 187500.0, 18988.209246183545, 38271.260353477046, -187500.02235174447, -187500.02235174447, 9628.103331101338, -17383.666918714873, 5910.829414228131, -0.14, 0.974, 0.066, 192.0, 0.0, 0.0, 0.0, 0.0, 0.0, 0.0, 0.0, 0.0, 0.0, 1.741476727536656E9, 0.0, 2025-03-08 17:32:07.536
11.0, 187500.0, 19001.352071923266, 38282.74915012707, -187500.02235174447, -187500.02235174447, 9632.685438714676, -17364.600880694496, 5928.397885370003, -0.14400000000000002, 0.972, 0.066, 192.0, 251.0, 128.0, 30.0, 96.0, 2.0, 16.0, 0.0, 0.0, 0.0, 1.741476727536664E9, 0.0, 2025-03-08 17:32:07.536
12.0, 187500.0, 18992.724298563517, 38276.490661679585, -187500.02235174447, -187500.02235174447, 9628.885642157275, -17360.845787626004, 5934.41050462848, -0.14400000000000002, 0.972, 0.066, 192.0, 0.0, 0.0, 0.0, 0.0, 0.0, 0.0, 0.0, 0.0, 0.0, 1.741476727536672E9, 0.0, 2025-03-08 17:32:07.536
13.0, 187500.0, 18980.14026643518, 38270.2321732321, -187500.02235174447, -187500.02235174447, 9626.941040389662, -17373.76509592117, 5925.738027779821, -0.14400000000000002, 0.972, 0.066, 192.0, 0.0, 0.0, 0.0, 0.0, 0.0, 0.0, 0.0, 0.0, 0.0, 1.741476727536679E9, 0.0, 2025-03-08 17:32:07.536
14.0, 187500.0, 18981.347260635765, 38265.42654817421, -187500.02235174447, -187500.02235174447, 9623.543575232456, -17379.509494246184, 5917.490234075813, -0.14400000000000002, 0.972, 0.066, 192.0, 0.0, 0.0, 0.0, 0.0, 0.0, 0.0, 0.0, 0.0, 0.0, 1.741476727536686E9, 0.0, 2025-03-08 17:32:07.536
15.0, 187500.0, 18992.031394485402, 38271.4838709216, -187500.02235174447, -187500.02235174447, 9611.875964626786, -17380.470619257765, 5918.250193387294, -0.14400000000000002, 0.972, 0.066, 192.0, 0.0, 0.0, 0.0, 0.0, 0.0, 0.0, 0.0, 0.0, 0.0, 1.741476727596556E9, 0.0, 2025-03-08 17:32:07.596
16.0, 187500.0, 18977.525112333908, 38260.79973707196, -187500.02235174447, -187500.02235174447, 9613.485290227567, -17391.132401362946, 5921.513548077768, -0.14400000000000002, 0.972, 0.066, 192.0, 0.0, 0.0, 0.0, 0.0, 0.0, 0.0, 0.0, 0.0, 0.0, 1.741476727596581E9, 0.0, 2025-03-08 17:32:07.596
17.0, 187500.0, 18966.997440695457, 38258.34104518188, -187500.02235174447, -187500.02235174447, 9604.321075000891, -17389.52307576216, 5919.636001543522, -0.14400000000000002, 0.972, 0.066, 192.0, 0.0, 0.0, 0.0, 0.0, 0.0, 0.0, 0.0, 0.0, 0.0, 1.74147672759659E9, 0.0, 2025-03-08 17:32:07.596
18.0, 187500.0, 18983.023641469914, 38269.76278659854, -187500.02235174447, -187500.02235174447, 9613.977028605585, -17376.4026017669, 5924.17340566795, -0.14400000000000002, 0.972, 0.066, 192.0, 0.0, 0.0, 0.0, 0.0, 0.0, 0.0, 0.0, 0.0, 0.0, 1.741476727596598E9, 0.0, 2025-03-08 17:32:07.596
19.0, 187500.0, 18989.99738573997, 38272.84732733337, -187500.02235174447, -187500.02235174447, 9615.116967572805, -17364.556177205584, 5923.525205078746, -0.14400000000000002, 0.972, 0.066, 192.0, 0.0, 0.0, 0.0, 0.0, 0.0, 0.0, 0.0, 0.0, 0.0, 1.741476727596606E9, 0.0, 2025-03-08 17:32:07.596
20.0, 187500.0, 18970.953699464048, 38260.352702182856, -187500.02235174447, -187500.02235174447, 9611.250115782037, -17376.939043633825, 5914.5621555521675, -0.14400000000000002, 0.972, 0.066, 192.0, 0.0, 0.0, 0.0, 0.0, 0.0, 0.0, 0.0, 0.0, 0.0, 1.741476727596613E9, 0.0, 2025-03-08 17:32:07.596
21.0, 187500.0, 18958.213205124524, 38254.541248624475, -187500.02235174447, -187500.02235174447, 9609.931362859174, -17380.448267513308, 5920.060684688174, -0.14200000000000002, 0.968, 0.064, 192.0, 251.0, 144.0, 30.0, 64.0, 2.0, 0.0, 0.0, 0.0, 0.0, 1.741476727596621E9, 0.0, 2025-03-08 17:32:07.596
22.0, 187500.0, 18968.785580251882, 38265.53830689649, -187500.02235174447, -187500.02235174447, 9620.056703097427, -17370.278223786143, 5925.603917313089, -0.14200000000000002, 0.968, 0.064, 192.0, 0.0, 0.0, 0.0, 0.0, 0.0, 0.0, 0.0, 0.0, 0.0, 1.741476727596647E9, 0.0, 2025-03-08 17:32:07.596
23.0, 187500.0, 18978.66505130113, 38273.31671396693, -187500.02235174447, -187500.02235174447, 9609.529031458978, -17375.709697688784, 5921.737065522321, -0.14200000000000002, 0.968, 0.064, 192.0, 0.0, 0.0, 0.0, 0.0, 0.0, 0.0, 0.0, 0.0, 0.0, 1.741476727596655E9, 0.0, 2025-03-08 17:32:07.596
24.0, 187500.0, 18990.734993306996, 38282.793853615985, -187500.02235174447, -187500.02235174447, 9618.08974958536, -17370.121761574956, 5930.476597604346, -0.14200000000000002, 0.968, 0.064, 192.0, 0.0, 0.0, 0.0, 0.0, 0.0, 0.0, 0.0, 0.0, 0.0, 1.741476727596662E9, 0.0, 2025-03-08 17:32:07.596
25.0, 187500.0, 18975.71462103303, 38276.44595819068, -187500.02235174447, -187500.02235174447, 9620.66020019772, -17370.23352029723, 5936.042181973718, -0.14200000000000002, 0.968, 0.064, 192.0, 0.0, 0.0, 0.0, 0.0, 0.0, 0.0, 0.0, 0.0, 0.0, 1.74147672759667E9, 0.0, 2025-03-08 17:32:07.596
26.0, 187500.0, 18972.27245238691, 38278.21174600265, -187500.02235174447, -187500.02235174447, 9618.201508307637, -17369.4512092413, 5937.070362218662, -0.14200000000000002, 0.968, 0.064, 192.0, 0.0, 0.0, 0.0, 0.0, 0.0, 0.0, 0.0, 0.0, 0.0, 1.741476727596677E9, 0.0, 2025-03-08 17:32:07.596
27.0, 187500.0, 18977.592167567276, 38279.374036714325, -187500.02235174447, -187500.02235174447, 9613.99938035004, -17376.916691889368, 5933.851711017098, -0.14200000000000002, 0.968, 0.064, 192.0, 0.0, 0.0, 0.0, 0.0, 0.0, 0.0, 0.0, 0.0, 0.0, 1.741476727596685E9, 0.0, 2025-03-08 17:32:07.596
28.0, 187500.0, 18979.380307123698, 38276.915344824236, -187500.02235174447, -187500.02235174447, 9613.775862905486, -17386.81851468307, 5926.6544493024885, -0.14200000000000002, 0.968, 0.064, 192.0, 0.0, 0.0, 0.0, 0.0, 0.0, 0.0, 0.0, 0.0, 0.0, 1.741476727596692E9, 0.0, 2025-03-08 17:32:07.596
29.0, 187500.0, 18961.498911559454, 38269.919248809725, -187500.02235174447, -187500.02235174447, 9619.81083390842, -17380.73884019123, 5929.537824337223, -0.14200000000000002, 0.968, 0.064, 192.0, 0.0, 0.0, 0.0, 0.0, 0.0, 0.0, 0.0, 0.0, 0.0, 1.741476727596699E9, 0.0, 2025-03-08 17:32:07.596
30.0, 187500.0, 18964.829321483296, 38273.5849349004, -187500.02235174447, -187500.02235174447, 9617.933287374173, -17368.601842951997, 5941.764228554276, -0.14200000000000002, 0.968, 0.064, 192.0, 0.0, 0.0, 0.0, 0.0, 0.0, 0.0, 0.0, 0.0, 0.0, 1.741476727656381E9, 0.0, 2025-03-08 17:32:07.656
31.0, 187500.0, 18972.674783787108, 38274.09902502287, -187500.02235174447, -187500.02235174447, 9611.205412293126, -17371.798142409105, 5935.528091851246, -0.14400000000000002, 0.97, 0.062, 192.0, 251.0, 128.0, 30.0, 80.0, 1.0, 240.0, 0.0, 0.0, 0.0, 1.741476727656403E9, 0.0, 2025-03-08 17:32:07.656
32.0, 187500.0, 18983.113048447736, 38280.849251848376, -187500.02235174447, -187500.02235174447, 9619.252040297037, -17374.14507557691, 5935.259870917782, -0.14400000000000002, 0.97, 0.062, 192.0, 0.0, 0.0, 0.0, 0.0, 0.0, 0.0, 0.0, 0.0, 0.0, 1.741476727656412E9, 0.0, 2025-03-08 17:32:07.656
33.0, 187500.0, 18967.824455240305, 38273.16025175575, -187500.02235174447, -187500.02235174447, 9624.527051988489, -17384.136305348435, 5934.231690672838, -0.14400000000000002, 0.97, 0.062, 192.0, 0.0, 0.0, 0.0, 0.0, 0.0, 0.0, 0.0, 0.0, 0.0, 1.74147672765642E9, 0.0, 2025-03-08 17:32:07.656
34.0, 187500.0, 18953.787559722372, 38266.74530109707, -187500.02235174447, -187500.02235174447, 9619.408502508224, -17384.695098959815, 5932.063571460673, -0.14400000000000002, 0.97, 0.062, 192.0, 0.0, 0.0, 0.0, 0.0, 0.0, 0.0, 0.0, 0.0, 0.0, 1.741476727656428E9, 0.0, 2025-03-08 17:32:07.656
35.0, 187500.0, 18955.46394055652, 38265.873583063316, -187500.02235174447, -187500.02235174447, 9615.787519906464, -17378.995404123714, 5928.934327236931, -0.14400000000000002, 0.97, 0.062, 192.0, 0.0, 0.0, 0.0, 0.0, 0.0, 0.0, 0.0, 0.0, 0.0, 1.741476727656435E9, 0.0, 2025-03-08 17:32:07.656
36.0, 187500.0, 18964.315231360823, 38272.310885466446, -187500.02235174447, -187500.02235174447, 9610.110176814816, -17376.492008744717, 5926.587394069123, -0.14400000000000002, 0.97, 0.062, 192.0, 0.0, 0.0, 0.0, 0.0, 0.0, 0.0, 0.0, 0.0, 0.0, 1.741476727656442E9, 0.0, 2025-03-08 17:32:07.656
37.0, 187500.0, 18956.156844634635, 38269.516917409535, -187500.02235174447, -187500.02235174447, 9615.049912339438, -17378.838941912527, 5928.5319958367345, -0.14400000000000002, 0.97, 0.062, 192.0, 0.0, 0.0, 0.0, 0.0, 0.0, 0.0, 0.0, 0.0, 0.0, 1.741476727656471E9, 0.0, 2025-03-08 17:32:07.656
38.0, 187500.0, 18949.65248699814, 38271.05918777695, -187500.02235174447, -187500.02235174447, 9616.703941429132, -17365.271433028156, 5942.770057054765, -0.14400000000000002, 0.97, 0.062, 192.0, 0.0, 0.0, 0.0, 0.0, 0.0, 0.0, 0.0, 0.0, 0.0, 1.741476727656478E9, 0.0, 2025-03-08 17:32:07.656
39.0, 187500.0, 18950.41244630962, 38270.2321732321, -187500.02235174447, -187500.02235174447, 9616.61453445131, -17368.44538074081, 5956.516379894779, -0.14400000000000002, 0.97, 0.062, 192.0, 0.0, 0.0, 0.0, 0.0, 0.0, 0.0, 0.0, 0.0, 0.0, 1.741476727656486E9, 0.0, 2025-03-08 17:32:07.656
40.0, 187500.0, 18975.356993121743, 38289.27585950802, -187500.02235174447, -187500.02235174447, 9630.874947413797, -17358.945889347302, 5960.293824707726, -0.14400000000000002, 0.97, 0.062, 192.0, 0.0, 0.0, 0.0, 0.0, 0.0, 0.0, 0.0, 0.0, 0.0, 1.741476727656493E9, 0.0, 2025-03-08 17:32:07.656
41.0, 187500.0, 18970.46196108603, 38287.4877199516, -187500.02235174447, -187500.02235174447, 9623.09654034335, -17365.49495047271, 5954.147094982516, -0.136, 0.972, 0.062, 192.0, 251.0, 192.0, 30.0, 96.0, 1.0, 240.0, 0.0, 0.0, 0.0, 1.741476727656501E9, 0.0, 2025-03-08 17:32:07.656
42.0, 187500.0, 18956.447417312553, 38277.76471111354, -187500.02235174447, -187500.02235174447, 9626.80692992293, -17374.905034888394, 5957.052821761707, -0.136, 0.972, 0.062, 192.0, 0.0, 0.0, 0.0, 0.0, 0.0, 0.0, 0.0, 0.0, 0.0, 1.741476727656508E9, 0.0, 2025-03-08 17:32:07.656
43.0, 187500.0, 18956.380362079188, 38278.457615191655, -187500.02235174447, -187500.02235174447, 9626.158729333727, -17369.920595874857, 5963.579531142656, -0.136, 0.972, 0.062, 192.0, 0.0, 0.0, 0.0, 0.0, 0.0, 0.0, 0.0, 0.0, 0.0, 1.741476727656516E9, 0.0, 2025-03-08 17:32:07.656
44.0, 187500.0, 18959.822530725305, 38280.58103091491, -187500.02235174447, -187500.02235174447, 9621.263697298014, -17362.63392718243, 5955.599958372111, -0.136, 0.972, 0.062, 192.0, 0.0, 0.0, 0.0, 0.0, 0.0, 0.0, 0.0, 0.0, 0.0, 1.741476727656523E9, 0.0, 2025-03-08 17:32:07.656
45.0, 187500.0, 18963.108237160235, 38284.20201351667, -187500.02235174447, -187500.02235174447, 9624.169424077205, -17348.61938340895, 5955.734068838843, -0.136, 0.972, 0.062, 192.0, 0.0, 0.0, 0.0, 0.0, 0.0, 0.0, 0.0, 0.0, 0.0, 1.741476727716689E9, 0.0, 2025-03-08 17:32:07.716
46.0, 187500.0, 18950.88183294318, 38279.44109194769, -187500.02235174447, -187500.02235174447, 9634.473578271101, -17350.586336921016, 5970.173295756972, -0.136, 0.972, 0.062, 192.0, 0.0, 0.0, 0.0, 0.0, 0.0, 0.0, 0.0, 0.0, 0.0, 1.74147672771671E9, 0.0, 2025-03-08 17:32:07.716
47.0, 187500.0, 18948.490196286464, 38271.55092615497, -187500.02235174447, -187500.02235174447, 9636.373476549803, -17370.121761574956, 5962.41724043098, -0.136, 0.972, 0.062, 192.0, 0.0, 0.0, 0.0, 0.0, 0.0, 0.0, 0.0, 0.0, 0.0, 1.741476727716719E9, 0.0, 2025-03-08 17:32:07.716
48.0, 187500.0, 18959.062571413826, 38269.494565665074, -187500.02235174447, -187500.02235174447, 9629.265621813014, -17378.570720979063, 5951.1296094810505, -0.136, 0.972, 0.062, 192.0, 0.0, 0.0, 0.0, 0.0, 0.0, 0.0, 0.0, 0.0, 0.0, 1.741476727716727E9, 0.0, 2025-03-08 17:32:07.716
49.0, 187500.0, 18969.053801185346, 38280.692789637185, -187500.02235174447, -187500.02235174447, 9637.602822494844, -17359.32586900304, 5963.579531142656, -0.136, 0.972, 0.062, 192.0, 0.0, 0.0, 0.0, 0.0, 0.0, 0.0, 0.0, 0.0, 0.0, 1.741476727716734E9, 0.0, 2025-03-08 17:32:07.716
50.0, 187500.0, 18950.5242050319, 38273.137900011294, -187500.02235174447, -187500.02235174447, 9628.796235179452, -17368.557139463086, 5957.008118272796, -0.136, 0.972, 0.062, 192.0, 0.0, 0.0, 0.0, 0.0, 0.0, 0.0, 0.0, 0.0, 0.0, 1.741476727716742E9, 0.0, 2025-03-08 17:32:07.716
51.0, 187500.0, 18952.51351028842, 38273.31671396693, -187500.02235174447, -187500.02235174447, 9618.872060641297, -17369.67472668585, 5953.297728693215, -0.134, 0.972, 0.064, 192.0, 251.0, 208.0, 30.0, 96.0, 2.0, 0.0, 0.0, 0.0, 0.0, 1.741476727716749E9, 0.0, 2025-03-08 17:32:07.716
52.0, 187500.0, 18959.88958595867, 38272.06501627744, -187500.02235174447, -187500.02235174447, 9629.042104368462, -17363.68445917183, 5966.999348044318, -0.134, 0.972, 0.064, 192.0, 0.0, 0.0, 0.0, 0.0, 0.0, 0.0, 0.0, 0.0, 0.0, 1.741476727716777E9, 0.0, 2025-03-08 17:32:07.716
53.0, 187500.0, 18966.88568197318, 38279.59755415888, -187500.02235174447, -187500.02235174447, 9631.545499747455, -17361.069305070556, 5982.578513929667, -0.134, 0.972, 0.064, 192.0, 0.0, 0.0, 0.0, 0.0, 0.0, 0.0, 0.0, 0.0, 0.0, 1.741476727716785E9, 0.0, 2025-03-08 17:32:07.716
54.0, 187500.0, 18948.221975353, 38273.987266300595, -187500.02235174447, -187500.02235174447, 9633.177177092693, -17346.98770606371, 5983.450231963424, -0.134, 0.972, 0.064, 192.0, 0.0, 0.0, 0.0, 0.0, 0.0, 0.0, 0.0, 0.0, 0.0, 1.741476727716792E9, 0.0, 2025-03-08 17:32:07.716
55.0, 187500.0, 18953.340524833267, 38279.61990590333, -187500.02235174447, -187500.02235174447, 9635.814682938419, -17339.47751992673, 5983.249066263326, -0.134, 0.972, 0.064, 192.0, 0.0, 0.0, 0.0, 0.0, 0.0, 0.0, 0.0, 0.0, 0.0, 1.741476727716799E9, 0.0, 2025-03-08 17:32:07.716
56.0, 187500.0, 18961.38715283718, 38272.802623844465, -187500.02235174447, -187500.02235174447, 9638.720409717609, -17349.736970631715, 5980.388042973047, -0.134, 0.972, 0.064, 192.0, 0.0, 0.0, 0.0, 0.0, 0.0, 0.0, 0.0, 0.0, 0.0, 1.741476727716807E9, 0.0, 2025-03-08 17:32:07.716
57.0, 187500.0, 18972.160693664635, 38276.222440746125, -187500.02235174447, -187500.02235174447, 9632.707790459132, -17353.648525911394, 5979.002234816818, -0.134, 0.972, 0.064, 192.0, 0.0, 0.0, 0.0, 0.0, 0.0, 0.0, 0.0, 0.0, 0.0, 1.741476727716814E9, 0.0, 2025-03-08 17:32:07.716
58.0, 187500.0, 18952.602917266242, 38264.532478395995, -187500.02235174447, -187500.02235174447, 9628.349200290348, -17359.616441680962, 5974.643644648033, -0.134, 0.972, 0.064, 192.0, 0.0, 0.0, 0.0, 0.0, 0.0, 0.0, 0.0, 0.0, 0.0, 1.741476727716821E9, 0.0, 2025-03-08 17:32:07.716
59.0, 187500.0, 18953.586394022273, 38268.444033675674, -187500.02235174447, -187500.02235174447, 9635.255889327036, -17355.61547942346, 5980.008063317307, -0.134, 0.972, 0.064, 192.0, 0.0, 0.0, 0.0, 0.0, 0.0, 0.0, 0.0, 0.0, 0.0, 1.741476727716829E9, 0.0, 2025-03-08 17:32:07.716
60.0, 187500.0, 18959.621365025207, 38271.99796104407, -187500.02235174447, -187500.02235174447, 9636.038200382973, -17357.224805024245, 5979.806897617209, -0.134, 0.972, 0.064, 192.0, 0.0, 0.0, 0.0, 0.0, 0.0, 0.0, 0.0, 0.0, 0.0, 1.741476727776965E9, 0.0, 2025-03-08 17:32:07.776
61.0, 187500.0, 18966.595109295264, 38271.126243010316, -187500.02235174447, -187500.02235174447, 9631.880775914286, -17359.079999814036, 5979.449269705924, -0.134, 0.974, 0.064, 192.0, 251.0, 208.0, 30.0, 112.0, 2.0, 0.0, 0.0, 0.0, 0.0, 1.741476727776986E9, 0.0, 2025-03-08 17:32:07.776
62.0, 187500.0, 18944.019847395404, 38255.54707712497, -187500.02235174447, -187500.02235174447, 9621.442511253657, -17372.513398231673, 5969.122763767572, -0.134, 0.974, 0.064, 192.0, 0.0, 0.0, 0.0, 0.0, 0.0, 0.0, 0.0, 0.0, 0.0, 1.741476727776995E9, 0.0, 2025-03-08 17:32:07.776
63.0, 187500.0, 18938.94600140405, 38257.558734125945, -187500.02235174447, -187500.02235174447, 9627.499834001044, -17368.24421504071, 5979.963359828396, -0.134, 0.974, 0.064, 192.0, 0.0, 0.0, 0.0, 0.0, 0.0, 0.0, 0.0, 0.0, 0.0, 1.741476727777003E9, 0.0, 2025-03-08 17:32:07.777
64.0, 187500.0, 18946.65735324113, 38264.86775456283, -187500.02235174447, -187500.02235174447, 9617.061569340416, -17366.366668506464, 5982.399699974025, -0.134, 0.974, 0.064, 192.0, 0.0, 0.0, 0.0, 0.0, 0.0, 0.0, 0.0, 0.0, 0.0, 1.741476727777011E9, 0.0, 2025-03-08 17:32:07.777
65.0, 187500.0, 18961.38715283718, 38274.09902502287, -187500.02235174447, -187500.02235174447, 9632.506624759035, -17356.822473624048, 5982.75732788531, -0.134, 0.974, 0.064, 192.0, 0.0, 0.0, 0.0, 0.0, 0.0, 0.0, 0.0, 0.0, 0.0, 1.741476727777018E9, 0.0, 2025-03-08 17:32:07.777
66.0, 187500.0, 18961.18598713708, 38280.3351617259, -187500.02235174447, -187500.02235174447, 9645.33652607638, -17346.71948513025, 6000.348150771636, -0.134, 0.974, 0.064, 192.0, 0.0, 0.0, 0.0, 0.0, 0.0, 0.0, 0.0, 0.0, 0.0, 1.741476727777026E9, 0.0, 2025-03-08 17:32:07.777
67.0, 187500.0, 18945.204489851534, 38273.361417455846, -187500.02235174447, -187500.02235174447, 9637.6251742393, -17347.322982230544, 6001.622200205588, -0.134, 0.974, 0.064, 192.0, 0.0, 0.0, 0.0, 0.0, 0.0, 0.0, 0.0, 0.0, 0.0, 1.741476727777033E9, 0.0, 2025-03-08 17:32:07.777
68.0, 187500.0, 18942.298763072344, 38264.465423162634, -187500.02235174447, -187500.02235174447, 9626.158729333727, -17359.39292423641, 5988.680540165966, -0.134, 0.974, 0.064, 192.0, 0.0, 0.0, 0.0, 0.0, 0.0, 0.0, 0.0, 0.0, 0.0, 1.741476727777062E9, 0.0, 2025-03-08 17:32:07.777
69.0, 187500.0, 18955.75451323444, 38270.25452497656, -187500.02235174447, -187500.02235174447, 9621.330752531381, -17372.15577032039, 5983.249066263326, -0.134, 0.974, 0.064, 192.0, 0.0, 0.0, 0.0, 0.0, 0.0, 0.0, 0.0, 0.0, 0.0, 1.74147672777707E9, 0.0, 2025-03-08 17:32:07.777
70.0, 187500.0, 18959.196681880556, 38273.696693622675, -187500.02235174447, -187500.02235174447, 9635.099427115849, -17373.16159882088, 5979.628083661567, -0.134, 0.974, 0.064, 192.0, 0.0, 0.0, 0.0, 0.0, 0.0, 0.0, 0.0, 0.0, 0.0, 1.741476727777077E9, 0.0, 2025-03-08 17:32:07.777
71.0, 187500.0, 18942.27641132789, 38262.74433883958, -187500.02235174447, -187500.02235174447, 9638.295726572958, -17361.493988215207, 5991.005121589318, -0.13, 0.972, 0.06, 192.0, 251.0, 240.0, 30.0, 96.0, 1.0, 224.0, 0.0, 0.0, 0.0, 1.741476727777085E9, 0.0, 2025-03-08 17:32:07.777
72.0, 187500.0, 18941.337638060766, 38260.7326818386, -187500.02235174447, -187500.02235174447, 9636.708752716631, -17358.834130625026, 5988.658188421511, -0.13, 0.972, 0.06, 192.0, 0.0, 0.0, 0.0, 0.0, 0.0, 0.0, 0.0, 0.0, 0.0, 1.741476727777093E9, 0.0, 2025-03-08 17:32:07.777
73.0, 187500.0, 18947.97610616399, 38265.35949294084, -187500.02235174447, -187500.02235174447, 9637.535767261477, -17360.82343588155, 5990.178107044471, -0.13, 0.972, 0.06, 192.0, 0.0, 0.0, 0.0, 0.0, 0.0, 0.0, 0.0, 0.0, 0.0, 1.7414767277771E9, 0.0, 2025-03-08 17:32:07.777
74.0, 187500.0, 18955.687458001074, 38273.96491455614, -187500.02235174447, -187500.02235174447, 9637.155787605738, -17353.29089800011, 5992.078005323173, -0.13, 0.972, 0.06, 192.0, 0.0, 0.0, 0.0, 0.0, 0.0, 0.0, 0.0, 0.0, 0.0, 1.741476727777107E9, 0.0, 2025-03-08 17:32:07.777
75.0, 187500.0, 18938.767187448408, 38267.21468773064, -187500.02235174447, -187500.02235174447, 9631.880775914286, -17357.180101535334, 5994.80491814672, -0.13, 0.972, 0.06, 192.0, 0.0, 0.0, 0.0, 0.0, 0.0, 0.0, 0.0, 0.0, 0.0, 1.74147672783717E9, 0.0, 2025-03-08 17:32:07.837
76.0, 187500.0, 18935.74970194694, 38270.36628369884, -187500.02235174447, -187500.02235174447, 9632.126645103293, -17360.286994014623, 5998.537659470757, -0.13, 0.972, 0.06, 192.0, 0.0, 0.0, 0.0, 0.0, 0.0, 0.0, 0.0, 0.0, 0.0, 1.741476727837192E9, 0.0, 2025-03-08 17:32:07.837
77.0, 187500.0, 18942.164652605614, 38274.546059911976, -187500.02235174447, -187500.02235174447, 9624.080017099383, -17349.893432842902, 5995.14019431355, -0.13, 0.972, 0.06, 192.0, 0.0, 0.0, 0.0, 0.0, 0.0, 0.0, 0.0, 0.0, 0.0, 1.741476727837201E9, 0.0, 2025-03-08 17:32:07.837
78.0, 187500.0, 18951.79825446585, 38275.0825017789, -187500.02235174447, -187500.02235174447, 9619.944944375151, -17354.274374756144, 5987.272380265282, -0.13, 0.972, 0.06, 192.0, 0.0, 0.0, 0.0, 0.0, 0.0, 0.0, 0.0, 0.0, 0.0, 1.741476727837209E9, 0.0, 2025-03-08 17:32:07.837
79.0, 187500.0, 18936.822585680795, 38266.16415574124, -187500.02235174447, -187500.02235174447, 9626.114025844816, -17364.1985492943, 5980.723319139876, -0.13, 0.972, 0.06, 192.0, 0.0, 0.0, 0.0, 0.0, 0.0, 0.0, 0.0, 0.0, 0.0, 1.741476727837217E9, 0.0, 2025-03-08 17:32:07.837
80.0, 187500.0, 18935.70499845803, 38262.4314144172, -187500.02235174447, -187500.02235174447, 9628.66212471272, -17372.021659853657, 5988.434670976958, -0.13, 0.972, 0.06, 192.0, 0.0, 0.0, 0.0, 0.0, 0.0, 0.0, 0.0, 0.0, 0.0, 1.741476727837224E9, 0.0, 2025-03-08 17:32:07.837
81.0, 187500.0, 18945.964449163013, 38268.71225460914, -187500.02235174447, -187500.02235174447, 9624.974086877595, -17353.82733986704, 5996.391892003047, -0.134, 0.962, 0.062, 192.0, 251.0, 208.0, 30.0, 16.0, 1.0, 240.0, 0.0, 0.0, 0.0, 1.741476727837232E9, 0.0, 2025-03-08 17:32:07.837
82.0, 187500.0, 18954.949850434048, 38275.99892330157, -187500.02235174447, -187500.02235174447, 9616.301610028937, -17352.061552055067, 5992.100357067628, -0.134, 0.962, 0.062, 192.0, 0.0, 0.0, 0.0, 0.0, 0.0, 0.0, 0.0, 0.0, 0.0, 1.74147672783724E9, 0.0, 2025-03-08 17:32:07.837
83.0, 187500.0, 18942.522280516896, 38271.37211219932, -187500.02235174447, -187500.02235174447, 9628.528014245989, -17350.876909598937, 5990.178107044471, -0.134, 0.962, 0.062, 192.0, 0.0, 0.0, 0.0, 0.0, 0.0, 0.0, 0.0, 0.0, 0.0, 1.741476727837267E9, 0.0, 2025-03-08 17:32:07.837
84.0, 187500.0, 18939.728312459985, 38269.785138342995, -187500.02235174447, -187500.02235174447, 9625.354066533335, -17348.86525259796, 5984.768984886287, -0.134, 0.962, 0.062, 192.0, 0.0, 0.0, 0.0, 0.0, 0.0, 0.0, 0.0, 0.0, 0.0, 1.741476727837275E9, 0.0, 2025-03-08 17:32:07.837
85.0, 187500.0, 18945.18213810708, 38268.37697844231, -187500.02235174447, -187500.02235174447, 9615.921630373196, -17356.24132826821, 5974.241313247838, -0.134, 0.962, 0.062, 192.0, 0.0, 0.0, 0.0, 0.0, 0.0, 0.0, 0.0, 0.0, 0.0, 1.741476727837283E9, 0.0, 2025-03-08 17:32:07.837
86.0, 187500.0, 18950.613612009718, 38265.49360340758, -187500.02235174447, -187500.02235174447, 9612.702979171632, -17363.975031849746, 5960.383231685547, -0.134, 0.962, 0.062, 192.0, 0.0, 0.0, 0.0, 0.0, 0.0, 0.0, 0.0, 0.0, 0.0, 1.74147672783729E9, 0.0, 2025-03-08 17:32:07.837
87.0, 187500.0, 18937.94017290356, 38260.37505392731, -187500.02235174447, -187500.02235174447, 9624.772921177499, -17362.38805799342, 5953.253025204304, -0.134, 0.962, 0.062, 192.0, 0.0, 0.0, 0.0, 0.0, 0.0, 0.0, 0.0, 0.0, 0.0, 1.741476727837298E9, 0.0, 2025-03-08 17:32:07.837
88.0, 187500.0, 18928.194812321046, 38264.06309176244, -187500.02235174447, -187500.02235174447, 9621.487214742567, -17362.544520204607, 5943.351202410603, -0.134, 0.962, 0.062, 192.0, 0.0, 0.0, 0.0, 0.0, 0.0, 0.0, 0.0, 0.0, 0.0, 1.741476727837305E9, 0.0, 2025-03-08 17:32:07.837
89.0, 187500.0, 18933.246306567944, 38269.60632438735, -187500.02235174447, -187500.02235174447, 9620.995476364551, -17368.467732485264, 5925.179234168439, -0.134, 0.962, 0.062, 192.0, 0.0, 0.0, 0.0, 0.0, 0.0, 0.0, 0.0, 0.0, 0.0, 1.741476727837312E9, 0.0, 2025-03-08 17:32:07.837
90.0, 187500.0, 18946.880870685683, 38277.94352506918, -187500.02235174447, -187500.02235174447, 9621.66602869821, -17375.10620058849, 5911.812890984165, -0.134, 0.962, 0.062, 192.0, 0.0, 0.0, 0.0, 0.0, 0.0, 0.0, 0.0, 0.0, 0.0, 1.741476727897479E9, 0.0, 2025-03-08 17:32:07.897
91.0, 187500.0, 18938.163690348112, 38269.71808310963, -187500.02235174447, -187500.02235174447, 9616.659237940221, -17378.973052379257, 5901.061701901162, -0.132, 0.966, 0.068, 192.0, 251.0, 224.0, 30.0, 48.0, 2.0, 32.0, 0.0, 0.0, 0.0, 1.741476727897501E9, 0.0, 2025-03-08 17:32:07.897
92.0, 187500.0, 18922.629227951675, 38261.82791731691, -187500.02235174447, -187500.02235174447, 9626.516357245011, -17369.652374941394, 5893.015073897252, -0.132, 0.966, 0.068, 192.0, 0.0, 0.0, 0.0, 0.0, 0.0, 0.0, 0.0, 0.0, 0.0, 1.74147672789751E9, 0.0, 2025-03-08 17:32:07.897
93.0, 187500.0, 18928.46303325451, 38265.515955152034, -187500.02235174447, -187500.02235174447, 9625.979915378084, -17377.229616311743, 5885.102556360073, -0.132, 0.966, 0.068, 192.0, 0.0, 0.0, 0.0, 0.0, 0.0, 0.0, 0.0, 0.0, 0.0, 1.741476727897518E9, 0.0, 2025-03-08 17:32:07.897
94.0, 187500.0, 18934.65446646863, 38266.700597608164, -187500.02235174447, -187500.02235174447, 9613.57469720539, -17381.275282058155, 5874.977216121819, -0.132, 0.966, 0.068, 192.0, 0.0, 0.0, 0.0, 0.0, 0.0, 0.0, 0.0, 0.0, 0.0, 1.741476727897526E9, 0.0, 2025-03-08 17:32:07.897
95.0, 187500.0, 18938.029579881382, 38269.919248809725, -187500.02235174447, -187500.02235174447, 9620.056703097427, -17375.262662799676, 5868.3610997630485, -0.132, 0.966, 0.068, 192.0, 0.0, 0.0, 0.0, 0.0, 0.0, 0.0, 0.0, 0.0, 0.0, 1.741476727897533E9, 0.0, 2025-03-08 17:32:07.897
96.0, 187500.0, 18919.745852916938, 38259.8833155493, -187500.02235174447, -187500.02235174447, 9619.654371697232, -17382.9516628923, 5851.865512355032, -0.132, 0.966, 0.068, 192.0, 0.0, 0.0, 0.0, 0.0, 0.0, 0.0, 0.0, 0.0, 0.0, 1.741476727897541E9, 0.0, 2025-03-08 17:32:07.897
97.0, 187500.0, 18918.874134883183, 38265.65006561876, -187500.02235174447, -187500.02235174447, 9616.458072240124, -17381.945834391812, 5851.083201299096, -0.132, 0.966, 0.068, 192.0, 0.0, 0.0, 0.0, 0.0, 0.0, 0.0, 0.0, 0.0, 0.0, 1.741476727897548E9, 0.0, 2025-03-08 17:32:07.897
98.0, 187500.0, 18936.196736836046, 38273.361417455846, -187500.02235174447, -187500.02235174447, 9620.928421131184, -17384.49393325972, 5850.613814665534, -0.132, 0.966, 0.068, 192.0, 0.0, 0.0, 0.0, 0.0, 0.0, 0.0, 0.0, 0.0, 0.0, 1.741476727897555E9, 0.0, 2025-03-08 17:32:07.897
99.0, 187500.0, 18938.61072523722, 38271.64033313279, -187500.02235174447, -187500.02235174447, 9615.072264083894, -17397.01091015469, 5839.929680815898, -0.132, 0.966, 0.068, 192.0, 0.0, 0.0, 0.0, 0.0, 0.0, 0.0, 0.0, 0.0, 0.0, 1.74147672789759E9, 0.0, 2025-03-08 17:32:07.897
100.0, 187500.0, 18926.36196927571, 38267.684074364195, -187500.02235174447, -187500.02235174447, 9625.108197344327, -17394.842790942526, 5837.247471481261, -0.132, 0.966, 0.068, 192.0, 0.0, 0.0, 0.0, 0.0, 0.0, 0.0, 0.0, 0.0, 0.0, 1.741476727897598E9, 0.0, 2025-03-08 17:32:07.897
101.0, 187500.0, 18926.36196927571, 38262.11848999483, -187500.02235174447, -187500.02235174447, 9620.749607175543, -17383.64456697042, 5834.341744702071, -0.14, 0.972, 0.07, 192.0, 251.0, 160.0, 30.0, 96.0, 2.0, 48.0, 0.0, 0.0, 0.0, 1.741476727897605E9, 0.0, 2025-03-08 17:32:07.897
102.0, 187500.0, 18944.17630960659, 38267.617019130834, -187500.02235174447, -187500.02235174447, 9630.494967758057, -17381.811723925082, 5834.654669124445, -0.14, 0.972, 0.07, 192.0, 0.0, 0.0, 0.0, 0.0, 0.0, 0.0, 0.0, 0.0, 0.0, 1.741476727897613E9, 0.0, 2025-03-08 17:32:07.897
103.0, 187500.0, 18943.550460761842, 38269.69573136517, -187500.02235174447, -187500.02235174447, 9621.464862998113, -17396.563875265583, 5821.780064318188, -0.14, 0.972, 0.07, 192.0, 0.0, 0.0, 0.0, 0.0, 0.0, 0.0, 0.0, 0.0, 0.0, 1.741476727897621E9, 0.0, 2025-03-08 17:32:07.897
104.0, 187500.0, 18923.92562913008, 38259.4809841491, -187500.02235174447, -187500.02235174447, 9616.14514781775, -17384.605691981997, 5822.942355029864, -0.14, 0.972, 0.07, 192.0, 0.0, 0.0, 0.0, 0.0, 0.0, 0.0, 0.0, 0.0, 0.0, 1.741476727897628E9, 0.0, 2025-03-08 17:32:07.897
105.0, 187500.0, 18924.283257041367, 38255.323559680415, -187500.02235174447, -187500.02235174447, 9626.359895033824, -17380.470619257765, 5822.271802696205, -0.14, 0.972, 0.07, 192.0, 0.0, 0.0, 0.0, 0.0, 0.0, 0.0, 0.0, 0.0, 0.0, 1.741476727957443E9, 0.0, 2025-03-08 17:32:07.957
106.0, 187500.0, 18932.665161212106, 38265.158327240744, -187500.02235174447, -187500.02235174447, 9627.09750260085, -17389.992462395723, 5812.571145602602, -0.14, 0.972, 0.07, 192.0, 0.0, 0.0, 0.0, 0.0, 0.0, 0.0, 0.0, 0.0, 0.0, 1.741476727957464E9, 0.0, 2025-03-08 17:32:07.957
107.0, 187500.0, 18946.41148405212, 38275.283667479, -187500.02235174447, -187500.02235174447, 9624.527051988489, -17378.146037834413, 5819.813110806122, -0.14, 0.972, 0.07, 192.0, 0.0, 0.0, 0.0, 0.0, 0.0, 0.0, 0.0, 0.0, 0.0, 1.741476727957473E9, 0.0, 2025-03-08 17:32:07.957
108.0, 187500.0, 18938.811890937315, 38272.7355686111, -187500.02235174447, -187500.02235174447, 9619.788482163964, -17369.697078430305, 5829.759637088733, -0.14, 0.972, 0.07, 192.0, 0.0, 0.0, 0.0, 0.0, 0.0, 0.0, 0.0, 0.0, 0.0, 1.741476727957481E9, 0.0, 2025-03-08 17:32:07.957
109.0, 187500.0, 18944.243364839956, 38277.72000762463, -187500.02235174447, -187500.02235174447, 9629.310325301925, -17370.345279019508, 5838.230948237294, -0.14, 0.972, 0.07, 192.0, 0.0, 0.0, 0.0, 0.0, 0.0, 0.0, 0.0, 0.0, 0.0, 1.741476727957488E9, 0.0, 2025-03-08 17:32:07.957
110.0, 187500.0, 18944.913917173617, 38274.97074305663, -187500.02235174447, -187500.02235174447, 9633.177177092693, -17381.990537880723, 5833.335916201582, -0.14, 0.972, 0.07, 192.0, 0.0, 0.0, 0.0, 0.0, 0.0, 0.0, 0.0, 0.0, 0.0, 1.741476727957496E9, 0.0, 2025-03-08 17:32:07.957
111.0, 187500.0, 18951.552385276842, 38276.31184772395, -187500.02235174447, -187500.02235174447, 9632.99836313705, -17374.703869188295, 5828.3291254435935, -0.146, 0.972, 0.07, 192.0, 251.0, 112.0, 30.0, 96.0, 2.0, 48.0, 0.0, 0.0, 0.0, 1.741476727957503E9, 0.0, 2025-03-08 17:32:07.957
112.0, 187500.0, 18938.767187448408, 38272.55675465545, -187500.02235174447, -187500.02235174447, 9628.505662501533, -17367.73012491824, 5827.904442298943, -0.146, 0.972, 0.07, 192.0, 0.0, 0.0, 0.0, 0.0, 0.0, 0.0, 0.0, 0.0, 0.0, 1.741476727957511E9, 0.0, 2025-03-08 17:32:07.957
113.0, 187500.0, 18921.355178517722, 38266.90176330826, -187500.02235174447, -187500.02235174447, 9622.738912432065, -17379.084811101533, 5825.244584708761, -0.146, 0.972, 0.07, 192.0, 0.0, 0.0, 0.0, 0.0, 0.0, 0.0, 0.0, 0.0, 0.0, 1.741476727957519E9, 0.0, 2025-03-08 17:32:07.957
114.0, 187500.0, 18925.64671345314, 38270.12041450982, -187500.02235174447, -187500.02235174447, 9619.252040297037, -17384.44922977081, 5813.755788058733, -0.146, 0.972, 0.07, 192.0, 0.0, 0.0, 0.0, 0.0, 0.0, 0.0, 0.0, 0.0, 0.0, 1.741476727957547E9, 0.0, 2025-03-08 17:32:07.957
115.0, 187500.0, 18935.66029496912, 38273.74139711158, -187500.02235174447, -187500.02235174447, 9626.09167410036, -17380.15769483539, 5816.236831693272, -0.146, 0.972, 0.07, 192.0, 0.0, 0.0, 0.0, 0.0, 0.0, 0.0, 0.0, 0.0, 0.0, 1.741476727957555E9, 0.0, 2025-03-08 17:32:07.957
116.0, 187500.0, 18934.565059490807, 38273.629638389306, -187500.02235174447, -187500.02235174447, 9630.271450313503, -17380.045936113114, 5822.271802696205, -0.146, 0.972, 0.07, 192.0, 0.0, 0.0, 0.0, 0.0, 0.0, 0.0, 0.0, 0.0, 0.0, 1.741476727957563E9, 0.0, 2025-03-08 17:32:07.957
117.0, 187500.0, 18925.087919841757, 38272.534402911, -187500.02235174447, -187500.02235174447, 9627.365723534313, -17376.492008744717, 5827.882090554487, -0.146, 0.972, 0.07, 192.0, 0.0, 0.0, 0.0, 0.0, 0.0, 0.0, 0.0, 0.0, 0.0, 1.74147672795757E9, 0.0, 2025-03-08 17:32:07.957
118.0, 187500.0, 18935.74970194694, 38274.613115145345, -187500.02235174447, -187500.02235174447, 9640.843825440863, -17365.96433710627, 5830.96663128932, -0.146, 0.972, 0.07, 192.0, 0.0, 0.0, 0.0, 0.0, 0.0, 0.0, 0.0, 0.0, 0.0, 1.741476727957584E9, 0.0, 2025-03-08 17:32:07.957
119.0, 187500.0, 18938.70013221504, 38275.06015003445, -187500.02235174447, -187500.02235174447, 9641.782598707987, -17373.2510057987, 5823.992887019263, -0.146, 0.972, 0.07, 192.0, 0.0, 0.0, 0.0, 0.0, 0.0, 0.0, 0.0, 0.0, 0.0, 1.741476727957592E9, 0.0, 2025-03-08 17:32:07.957
120.0, 187500.0, 18921.109309328713, 38263.41489117323, -187500.02235174447, -187500.02235174447, 9618.00034260754, -17382.325814047555, 5816.996791004753, -0.146, 0.972, 0.07, 192.0, 0.0, 0.0, 0.0, 0.0, 0.0, 0.0, 0.0, 0.0, 0.0, 1.741476728016687E9, 0.0, 2025-03-08 17:32:08.016
121.0, 187500.0, 18912.325073757776, 38257.3799201703, -187500.02235174447, -187500.02235174447, 9621.531918231478, -17380.11299134648, 5826.540985887169, -0.148, 0.97, 0.074, 192.0, 251.0, 96.0, 30.0, 80.0, 2.0, 80.0, 0.0, 0.0, 0.0, 1.741476728016726E9, 0.0, 2025-03-08 17:32:08.016
122.0, 187500.0, 18918.60591394972, 38263.14667023977, -187500.02235174447, -187500.02235174447, 9628.371552034801, -17380.068287857568, 5823.702314341344, -0.148, 0.97, 0.074, 192.0, 0.0, 0.0, 0.0, 0.0, 0.0, 0.0, 0.0, 0.0, 0.0, 1.741476728016732E9, 0.0, 2025-03-08 17:32:08.016
123.0, 187500.0, 18925.40084426413, 38265.29243770748, -187500.02235174447, -187500.02235174447, 9629.086807857371, -17383.130476847946, 5816.683866582378, -0.148, 0.97, 0.074, 192.0, 0.0, 0.0, 0.0, 0.0, 0.0, 0.0, 0.0, 0.0, 0.0, 1.741476728016738E9, 0.0, 2025-03-08 17:32:08.016
124.0, 187500.0, 18933.02278912339, 38269.20399298716, -187500.02235174447, -187500.02235174447, 9629.310325301925, -17384.560988493085, 5820.193090461861, -0.148, 0.97, 0.074, 192.0, 0.0, 0.0, 0.0, 0.0, 0.0, 0.0, 0.0, 0.0, 0.0, 1.741476728016743E9, 0.0, 2025-03-08 17:32:08.016
125.0, 187500.0, 18917.264809282402, 38256.95523702565, -187500.02235174447, -187500.02235174447, 9631.098464858349, -17380.895302402416, 5828.82086382161, -0.148, 0.97, 0.074, 192.0, 0.0, 0.0, 0.0, 0.0, 0.0, 0.0, 0.0, 0.0, 0.0, 1.741476728016748E9, 0.0, 2025-03-08 17:32:08.016
126.0, 187500.0, 18919.544687216843, 38253.89304803527, -187500.02235174447, -187500.02235174447, 9639.837996940374, -17374.9497383773, 5840.6002331495565, -0.148, 0.97, 0.074, 192.0, 0.0, 0.0, 0.0, 0.0, 0.0, 0.0, 0.0, 0.0, 0.0, 1.741476728016754E9, 0.0, 2025-03-08 17:32:08.016
127.0, 187500.0, 18932.35223678973, 38262.00673127255, -187500.02235174447, -187500.02235174447, 9636.28406957198, -17370.144113319413, 5839.639108137979, -0.148, 0.97, 0.074, 192.0, 0.0, 0.0, 0.0, 0.0, 0.0, 0.0, 0.0, 0.0, 0.0, 1.741476728016759E9, 0.0, 2025-03-08 17:32:08.016
128.0, 187500.0, 18934.185079835068, 38269.74043485409, -187500.02235174447, -187500.02235174447, 9635.926441660697, -17374.01096511018, 5836.219291236316, -0.148, 0.97, 0.074, 192.0, 0.0, 0.0, 0.0, 0.0, 0.0, 0.0, 0.0, 0.0, 0.0, 1.741476728016764E9, 0.0, 2025-03-08 17:32:08.016
129.0, 187500.0, 18908.4135184781, 38256.28468469199, -187500.02235174447, -187500.02235174447, 9635.300592815947, -17375.95556687779, 5838.856797082043, -0.148, 0.97, 0.074, 192.0, 0.0, 0.0, 0.0, 0.0, 0.0, 0.0, 0.0, 0.0, 0.0, 1.741476728016788E9, 0.0, 2025-03-08 17:32:08.016
130.0, 187500.0, 18910.536934201355, 38255.9270567807, -187500.02235174447, -187500.02235174447, 9643.57073826441, -17375.642642455416, 5840.1308465159955, -0.148, 0.97, 0.074, 192.0, 0.0, 0.0, 0.0, 0.0, 0.0, 0.0, 0.0, 0.0, 0.0, 1.741476728016793E9, 0.0, 2025-03-08 17:32:08.016
131.0, 187500.0, 18911.900390613126, 38257.134050981294, -187500.02235174447, -187500.02235174447, 9630.897299158252, -17378.704831445793, 5842.991869806275, -0.15, 0.968, 0.07200000000000001, 192.0, 251.0, 80.0, 30.0, 64.0, 2.0, 64.0, 0.0, 0.0, 0.0, 1.741476728016799E9, 0.0, 2025-03-08 17:32:08.016
132.0, 187500.0, 18930.228821066477, 38270.99213254358, -187500.02235174447, -187500.02235174447, 9642.475502786101, -17368.288918529623, 5838.029782537196, -0.15, 0.968, 0.07200000000000001, 192.0, 0.0, 0.0, 0.0, 0.0, 0.0, 0.0, 0.0, 0.0, 0.0, 1.741476728016804E9, 0.0, 2025-03-08 17:32:08.016
133.0, 187500.0, 18920.12583257268, 38263.01255977304, -187500.02235174447, -187500.02235174447, 9634.942964904663, -17360.510511459175, 5834.7887795911765, -0.15, 0.968, 0.07200000000000001, 192.0, 0.0, 0.0, 0.0, 0.0, 0.0, 0.0, 0.0, 0.0, 0.0, 1.74147672801681E9, 0.0, 2025-03-08 17:32:08.016
134.0, 187500.0, 18917.17540230458, 38258.944542282174, -187500.02235174447, -187500.02235174447, 9635.702924216142, -17356.554252690585, 5855.262977512238, -0.15, 0.968, 0.07200000000000001, 192.0, 0.0, 0.0, 0.0, 0.0, 0.0, 0.0, 0.0, 0.0, 0.0, 1.741476728016815E9, 0.0, 2025-03-08 17:32:08.016
135.0, 187500.0, 18921.958675618014, 38258.944542282174, -187500.02235174447, -187500.02235174447, 9636.060552127428, -17365.226729539245, 5848.311584986638, -0.15, 0.968, 0.07200000000000001, 192.0, 0.0, 0.0, 0.0, 0.0, 0.0, 0.0, 0.0, 0.0, 0.0, 1.74147672807692E9, 0.0, 2025-03-08 17:32:08.076
136.0, 187500.0, 18927.546611731843, 38259.57039112692, -187500.02235174447, -187500.02235174447, 9635.14413060476, -17366.076095828546, 5846.903425085953, -0.15, 0.968, 0.07200000000000001, 192.0, 0.0, 0.0, 0.0, 0.0, 0.0, 0.0, 0.0, 0.0, 0.0, 1.741476728076927E9, 0.0, 2025-03-08 17:32:08.076
137.0, 187500.0, 18916.482498226465, 38261.783213828, -187500.02235174447, -187500.02235174447, 9638.42983703969, -17357.0459910686, 5853.720707144822, -0.15, 0.968, 0.07200000000000001, 192.0, 0.0, 0.0, 0.0, 0.0, 0.0, 0.0, 0.0, 0.0, 0.0, 1.741476728076933E9, 0.0, 2025-03-08 17:32:08.076
138.0, 187500.0, 18898.93637882905, 38252.440184645675, -187500.02235174447, -187500.02235174447, 9632.48427301458, -17363.19272079381, 5846.746962874766, -0.15, 0.968, 0.07200000000000001, 192.0, 0.0, 0.0, 0.0, 0.0, 0.0, 0.0, 0.0, 0.0, 0.0, 1.741476728076938E9, 0.0, 2025-03-08 17:32:08.076
139.0, 187500.0, 18911.40865223511, 38260.486812649586, -187500.02235174447, -187500.02235174447, 9644.62127025381, -17364.086790572022, 5853.430134466903, -0.15, 0.968, 0.07200000000000001, 192.0, 0.0, 0.0, 0.0, 0.0, 0.0, 0.0, 0.0, 0.0, 0.0, 1.741476728076943E9, 0.0, 2025-03-08 17:32:08.076
140.0, 187500.0, 18931.279353055877, 38271.886202321795, -187500.02235174447, -187500.02235174447, 9643.503683031046, -17362.43276148233, 5850.256186754249, -0.15, 0.968, 0.07200000000000001, 192.0, 0.0, 0.0, 0.0, 0.0, 0.0, 0.0, 0.0, 0.0, 0.0, 1.741476728076948E9, 0.0, 2025-03-08 17:32:08.076
141.0, 187500.0, 18921.422233751087, 38263.973684784614, -187500.02235174447, -187500.02235174447, 9639.815645195918, -17363.43858998282, 5851.686698399389, -0.14400000000000002, 0.972, 0.074, 192.0, 251.0, 128.0, 30.0, 96.0, 2.0, 80.0, 0.0, 0.0, 0.0, 1.741476728076953E9, 0.0, 2025-03-08 17:32:08.076
142.0, 187500.0, 18911.989797590948, 38254.898876535764, -187500.02235174447, -187500.02235174447, 9644.710677231631, -17356.91188060187, 5866.461201484347, -0.14400000000000002, 0.972, 0.074, 192.0, 0.0, 0.0, 0.0, 0.0, 0.0, 0.0, 0.0, 0.0, 0.0, 1.741476728076959E9, 0.0, 2025-03-08 17:32:08.076
143.0, 187500.0, 18911.565114446297, 38257.692844592675, -187500.02235174447, -187500.02235174447, 9642.319040574914, -17359.057648069578, 5870.708032930856, -0.14400000000000002, 0.972, 0.074, 192.0, 0.0, 0.0, 0.0, 0.0, 0.0, 0.0, 0.0, 0.0, 0.0, 1.741476728076964E9, 0.0, 2025-03-08 17:32:08.076
144.0, 187500.0, 18913.44266098054, 38262.85609756185, -187500.02235174447, -187500.02235174447, 9635.278241071492, -17369.518264474664, 5860.359175248048, -0.14400000000000002, 0.972, 0.074, 192.0, 0.0, 0.0, 0.0, 0.0, 0.0, 0.0, 0.0, 0.0, 0.0, 1.741476728076969E9, 0.0, 2025-03-08 17:32:08.076
145.0, 187500.0, 18914.716710414497, 38261.44793766116, -187500.02235174447, -187500.02235174447, 9630.897299158252, -17369.071229585556, 5863.331957260604, -0.14400000000000002, 0.972, 0.074, 192.0, 0.0, 0.0, 0.0, 0.0, 0.0, 0.0, 0.0, 0.0, 0.0, 1.741476728076983E9, 0.0, 2025-03-08 17:32:08.076
146.0, 187500.0, 18907.3629864887, 38260.57621962741, -187500.02235174447, -187500.02235174447, 9635.077075371395, -17361.069305070556, 5875.513657988747, -0.14400000000000002, 0.972, 0.074, 192.0, 0.0, 0.0, 0.0, 0.0, 0.0, 0.0, 0.0, 0.0, 0.0, 1.741476728076988E9, 0.0, 2025-03-08 17:32:08.076
147.0, 187500.0, 18910.64869292363, 38264.71129235164, -187500.02235174447, -187500.02235174447, 9641.939060919174, -17362.924499860346, 5869.143410818984, -0.14400000000000002, 0.972, 0.074, 192.0, 0.0, 0.0, 0.0, 0.0, 0.0, 0.0, 0.0, 0.0, 0.0, 1.741476728076993E9, 0.0, 2025-03-08 17:32:08.076
148.0, 187500.0, 18914.001454591926, 38260.553867882954, -187500.02235174447, -187500.02235174447, 9627.5221857455, -17374.39094476592, 5863.4884194717915, -0.14400000000000002, 0.972, 0.074, 192.0, 0.0, 0.0, 0.0, 0.0, 0.0, 0.0, 0.0, 0.0, 0.0, 1.741476728076999E9, 0.0, 2025-03-08 17:32:08.076
149.0, 187500.0, 18926.160803575614, 38270.835670332395, -187500.02235174447, -187500.02235174447, 9635.814682938419, -17366.76899990666, 5874.708995188355, -0.14400000000000002, 0.972, 0.074, 192.0, 0.0, 0.0, 0.0, 0.0, 0.0, 0.0, 0.0, 0.0, 0.0, 1.741476728077004E9, 0.0, 2025-03-08 17:32:08.077
150.0, 187500.0, 18915.834297637262, 38265.27008596302, -187500.02235174447, -187500.02235174447, 9641.737895219076, -17359.459979469775, 5886.6224749830335, -0.14400000000000002, 0.972, 0.074, 192.0, 0.0, 0.0, 0.0, 0.0, 0.0, 0.0, 0.0, 0.0, 0.0, 1.741476728137121E9, 0.0, 2025-03-08 17:32:08.137
151.0, 187500.0, 18911.095727812735, 38257.42462365921, -187500.02235174447, -187500.02235174447, 9636.261717827525, -17369.026526096648, 5885.571942993634, -0.15, 0.974, 0.07200000000000001, 192.0, 251.0, 80.0, 30.0, 112.0, 2.0, 64.0, 0.0, 0.0, 0.0, 1.741476728137128E9, 0.0, 2025-03-08 17:32:08.137
152.0, 187500.0, 18917.287161026856, 38258.452803904154, -187500.02235174447, -187500.02235174447, 9633.847729426352, -17367.551310962597, 5884.856687171065, -0.15, 0.974, 0.07200000000000001, 192.0, 0.0, 0.0, 0.0, 0.0, 0.0, 0.0, 0.0, 0.0, 0.0, 1.741476728137134E9, 0.0, 2025-03-08 17:32:08.137
153.0, 187500.0, 18915.3649110037, 38252.864867790326, -187500.02235174447, -187500.02235174447, 9632.931307903686, -17362.47746497124, 5871.5350474757015, -0.15, 0.974, 0.07200000000000001, 192.0, 0.0, 0.0, 0.0, 0.0, 0.0, 0.0, 0.0, 0.0, 0.0, 1.741476728137139E9, 0.0, 2025-03-08 17:32:08.137
154.0, 187500.0, 18903.272617253377, 38248.17100145471, -187500.02235174447, -187500.02235174447, 9639.256851584536, -17355.593127679007, 5875.7595271777545, -0.15, 0.974, 0.07200000000000001, 192.0, 0.0, 0.0, 0.0, 0.0, 0.0, 0.0, 0.0, 0.0, 0.0, 1.741476728137144E9, 0.0, 2025-03-08 17:32:08.137
155.0, 187500.0, 18901.35036723022, 38250.29441717797, -187500.02235174447, -187500.02235174447, 9646.76703772152, -17354.095560800502, 5877.6370737120005, -0.15, 0.974, 0.07200000000000001, 192.0, 0.0, 0.0, 0.0, 0.0, 0.0, 0.0, 0.0, 0.0, 0.0, 1.741476728137149E9, 0.0, 2025-03-08 17:32:08.137
156.0, 187500.0, 18909.039367322846, 38254.34008292438, -187500.02235174447, -187500.02235174447, 9637.088732372373, -17359.90701435888, 5867.4223264959255, -0.15, 0.974, 0.07200000000000001, 192.0, 0.0, 0.0, 0.0, 0.0, 0.0, 0.0, 0.0, 0.0, 0.0, 1.741476728137155E9, 0.0, 2025-03-08 17:32:08.137
157.0, 187500.0, 18922.226896551478, 38262.25260046156, -187500.02235174447, -187500.02235174447, 9633.6242119818, -17365.15967430588, 5870.059832341652, -0.15, 0.974, 0.07200000000000001, 192.0, 0.0, 0.0, 0.0, 0.0, 0.0, 0.0, 0.0, 0.0, 0.0, 1.74147672813716E9, 0.0, 2025-03-08 17:32:08.137
158.0, 187500.0, 18915.476669725977, 38260.978551027605, -187500.02235174447, -187500.02235174447, 9637.513415517024, -17354.363781733966, 5883.828506926121, -0.15, 0.974, 0.07200000000000001, 192.0, 0.0, 0.0, 0.0, 0.0, 0.0, 0.0, 0.0, 0.0, 0.0, 1.741476728137165E9, 0.0, 2025-03-08 17:32:08.137
159.0, 187500.0, 18906.580675432764, 38248.99801599956, -187500.02235174447, -187500.02235174447, 9634.115950359816, -17355.950755590293, 5877.145335333984, -0.15, 0.974, 0.07200000000000001, 192.0, 0.0, 0.0, 0.0, 0.0, 0.0, 0.0, 0.0, 0.0, 0.0, 1.74147672813717E9, 0.0, 2025-03-08 17:32:08.137
160.0, 187500.0, 18910.872210368183, 38242.78423104098, -187500.02235174447, -187500.02235174447, 9630.51731950251, -17371.708735431283, 5869.523390474724, -0.15, 0.974, 0.07200000000000001, 192.0, 0.0, 0.0, 0.0, 0.0, 0.0, 0.0, 0.0, 0.0, 0.0, 1.741476728137186E9, 0.0, 2025-03-08 17:32:08.137
161.0, 187500.0, 18927.65837045412, 38256.84347830337, -187500.02235174447, -187500.02235174447, 9623.85649965483, -17372.53574997613, 5870.082184086106, -0.14400000000000002, 0.974, 0.07, 192.0, 251.0, 128.0, 30.0, 112.0, 2.0, 48.0, 0.0, 0.0, 0.0, 1.741476728137191E9, 0.0, 2025-03-08 17:32:08.137
162.0, 187500.0, 18916.013111592903, 38253.31190267944, -187500.02235174447, -187500.02235174447, 9641.827302196896, -17364.1985492943, 5873.099669587573, -0.14400000000000002, 0.974, 0.07, 192.0, 0.0, 0.0, 0.0, 0.0, 0.0, 0.0, 0.0, 0.0, 0.0, 1.741476728137197E9, 0.0, 2025-03-08 17:32:08.137
163.0, 187500.0, 18897.997605561926, 38246.00288224255, -187500.02235174447, -187500.02235174447, 9635.94879340515, -17356.62130792395, 5871.937378875898, -0.14400000000000002, 0.974, 0.07, 192.0, 0.0, 0.0, 0.0, 0.0, 0.0, 0.0, 0.0, 0.0, 0.0, 1.741476728137202E9, 0.0, 2025-03-08 17:32:08.137
