%OpenBCI Raw EXG Data
%Number of channels = 16
%Sample Rate = 125 Hz
%Board = OpenBCI_GUI$BoardCytonSerialDaisy
Sample Index, EXG Channel 0, EXG Channel 1, EXG Channel 2, EXG Channel 3, EXG Channel 4, EXG Channel 5, EXG Channel 6, EXG Channel 7, EXG Channel 8, EXG Channel 9, EXG Channel 10, EXG Channel 11, EXG Channel 12, EXG Channel 13, EXG Channel 14, EXG Channel 15, Accel Channel 0, Accel Channel 1, Accel Channel 2, Not Used, Digital Channel 0 (D11), Digital Channel 1 (D12), Digital Channel 2 (D13), Digital Channel 3 (D17), Not Used, Digital Channel 4 (D18), Analog Channel 0, Analog Channel 1, Analog Channel 2, Timestamp, Marker Channel, Timestamp (Formatted)
222.0, -47245.642214494015, -44217.874910578124, -2642.6914504398646, -50035.07286728297, 10239.870576843094, 4866.086526642624, -18345.641296582377, -26322.867133959193, -7756.435305647291, -31608.40649705011, -30981.596527289934, -19765.9158427615, -22354.314905919422, -21140.548126762882, -24120.616808011153, -39763.41810982444, 0.0, 0.0, 0.0, 192.0, 0.0, 0.0, 0.0, 0.0, 0.0, 0.0, 0.0, 0.0, 0.0, 1.743528298405148E9, 0.0, 2025-04-01 12:24:58.405
224.0, -47234.667507966464, -44213.069285520236, -2632.163778801415, -50021.57241363197, 10238.417713453498, 4885.241971640822, -18332.6772847983, -26297.699069702518, -7758.625776603911, -31609.63584299515, -30984.859881980406, -19770.5650056082, -22353.554946607943, -21140.861051185257, -24125.377729580134, -39761.92054294593, 0.0, 0.0, 0.0, 192.0, 0.0, 0.0, 0.0, 0.0, 0.0, 0.0, 0.0, 0.0, 0.0, 1.743528298405394E9, 0.0, 2025-04-01 12:24:58.405
226.0, -47237.86380742357, -44213.11398900914, -2644.4348865073785, -50033.68705912674, 10251.538187448763, 4880.34693960511, -18344.791930293075, -26314.68639548855, -7754.557759113045, -31592.894386398126, -30982.5129488126, -19757.221014168386, -22349.084597716883, -21128.27701905692, -24116.124107375636, -39757.40549056596, 0.0, 0.0, 0.0, 192.0, 0.0, 0.0, 0.0, 0.0, 0.0, 0.0, 0.0, 0.0, 0.0, 1.74352829840562E9, 0.0, 2025-04-01 12:24:58.405
228.0, -47232.76760968776, -44206.65433486156, -2636.097685825549, -50026.37803868986, 10242.373972222087, 4887.5665530641745, -18329.928020230298, -26302.549398249317, -7756.547064369567, -31609.568787761786, -30985.441027336245, -19765.44645612794, -22350.693923317664, -21133.820251681835, -24123.611941768166, -39762.92637144642, 0.0, 0.0, 0.0, 192.0, 0.0, 0.0, 0.0, 0.0, 0.0, 0.0, 0.0, 0.0, 0.0, 1.743528298405767E9, 0.0, 2025-04-01 12:24:58.405
230.0, -47235.852150422594, -44216.37734369962, -2637.639956192965, -50031.92127131478, 10268.659623701527, 4883.878515229048, -18343.450825625758, -26311.132468120155, -7752.836674789986, -31606.439543538043, -30982.021210434585, -19764.61944158309, -22348.503452361045, -21132.501498758975, -24111.49729627339, -39754.90209518696, -0.014, 0.98, 0.02, 192.0, 127.5, 72.0, 15.0, 80.0, 0.0, 80.0, 0.0, 0.0, 0.0, 1.74352829840591E9, 0.0, 2025-04-01 12:24:58.405
232.0, -47234.68985971092, -44213.11398900914, -2634.8906916249625, -50024.74636134462, 10245.994954823847, 4881.665692527973, -18323.088386426974, -26304.82927618376, -7750.422686388813, -31613.212122107998, -30980.99303018964, -19767.636927084557, -22351.945621007162, -21131.65213246967, -24114.76065096386, -39750.476449784815, -0.014, 0.98, 0.02, 192.0, 0.0, 0.0, 0.0, 0.0, 0.0, 0.0, 0.0, 0.0, 0.0, 1.743528298406053E9, 0.0, 2025-04-01 12:24:58.406
234.0, -47243.22822609285, -44207.05666626176, -2645.552473730144, -50036.61513765039, 10268.816085912715, 4880.548105305208, -18339.58397383499, -26295.44154351253, -7757.999927759162, -31614.463819797496, -30989.79961750503, -19777.62815685608, -22363.836749057384, -21137.08360637231, -24116.749956220385, -39755.6844062429, -0.014, 0.98, 0.02, 192.0, 0.0, 0.0, 0.0, 0.0, 0.0, 0.0, 0.0, 0.0, 0.0, 1.743528298406193E9, 0.0, 2025-04-01 12:24:58.406
236.0, -47231.20298757589, -44201.9828202704, -2636.9023486259402, -50023.96405028868, 10234.886137829559, 4884.794936751716, -18334.040741210072, -26297.363793535686, -7755.675346335811, -31603.26559582539, -30987.497387826133, -19768.15101720703, -22356.37126640931, -21139.296429073387, -24126.025930169337, -39751.370519563025, -0.014, 0.98, 0.02, 192.0, 0.0, 0.0, 0.0, 0.0, 0.0, 0.0, 0.0, 0.0, 0.0, 1.743528298406328E9, 0.0, 2025-04-01 12:24:58.406
238.0, -47250.71606048537, -44222.72523912493, -2654.269654067714, -50044.70646914321, 10256.455571228931, 4862.756116718783, -18357.845349054976, -26332.50073581943, -7751.160293955839, -31600.024592879367, -30986.536262814556, -19760.305554903218, -22366.38484792529, -21136.100129616276, -24127.434090070023, -39759.08187140011, -0.014, 0.98, 0.02, 192.0, 0.0, 0.0, 0.0, 0.0, 0.0, 0.0, 0.0, 0.0, 0.0, 1.743528298406474E9, 0.0, 2025-04-01 12:24:58.406
0.0, -23754.13760592194, -21979.3867444261, -1146.7115457906182, -24905.475962814806, 5532.794360255523, 2493.806480623064, -9067.342766206595, -12971.074935325973, -3884.0849857431635, -15812.249876528966, -15501.20300068891, -9890.95984589575, -11192.032538894719, -10577.918359985157, -12074.702927434795, -19889.65510006608, -0.016, 0.984, 0.032, 192.0, 127.5, 64.0, 15.0, 96.0, 0.5, 0.0, 0.0, 0.0, 0.0, 1.743528298564684E9, 0.0, 2025-04-01 12:24:58.564
2.0, -47517.99822068193, -43951.03978527067, -2298.318123616949, -49811.041332607434, 11104.413700629915, 4986.338911812176, -18127.711788143133, -25940.406434584434, -8270.413669397078, -31275.544318621676, -30719.432916573634, -19965.136941091652, -22200.221979644535, -20795.951282495414, -24158.950049752006, -39675.57575411508, -0.016, 0.984, 0.032, 192.0, 0.0, 0.0, 0.0, 0.0, 0.0, 0.0, 0.0, 0.0, 0.0, 1.743528298564899E9, 0.0, 2025-04-01 12:24:58.564
4.0, -47514.533700291366, -43962.08154703159, -2293.7807194925213, -49810.95192562961, 11070.617863013491, 4975.4983157513525, -18134.86434636883, -25949.190670155367, -8284.629378870652, -31282.473359402822, -30731.614617301777, -19973.04945862883, -22206.033433202916, -20805.651939589017, -24164.694448077018, -39677.31919018259, -0.016, 0.984, 0.032, 192.0, 0.0, 0.0, 0.0, 0.0, 0.0, 0.0, 0.0, 0.0, 0.0, 1.743528298565054E9, 0.0, 2025-04-01 12:24:58.565
6.0, -47521.35098235023, -43959.913427819425, -2299.8827457288203, -49818.48446351105, 11096.881162748476, 4986.629484490095, -18137.703017914657, -25939.199440383847, -8276.381585166644, -31274.672600587917, -30721.690442763622, -19962.99117362394, -22195.461058075554, -20795.750116795316, -24157.34072415122, -39669.3619691565, -0.016, 0.984, 0.032, 192.0, 0.0, 0.0, 0.0, 0.0, 0.0, 0.0, 0.0, 0.0, 0.0, 1.743528298565194E9, 0.0, 2025-04-01 12:24:58.565
8.0, -47520.90394746113, -43969.502326190755, -2305.6718475427447, -49824.1618066027, 11054.122275605474, 4973.84428666166, -18143.760340662044, -25963.09345520657, -8284.316454448277, -31298.276042732723, -30735.83909700383, -19987.555740780324, -22211.39785187219, -20811.105765236112, -24166.59434635572, -39686.03637052016, -0.014, 0.988, 0.036000000000000004, 192.0, 127.5, 72.0, 15.0, 112.0, 0.5, 16.0, 0.0, 0.0, 0.0, 1.743528298565328E9, 0.0, 2025-04-01 12:24:58.565
10.0, -47526.69304927505, -43978.62183792852, -2310.432769111725, -49823.08892286884, 11082.665453274902, 4975.453612262441, -18147.336619774895, -25958.734865037786, -8281.298968946812, -31290.05060077317, -30725.713756765577, -19974.94935690753, -22208.089793692805, -20801.315701164687, -24167.64487834512, -39682.97418152978, -0.014, 0.988, 0.036000000000000004, 192.0, 0.0, 0.0, 0.0, 0.0, 0.0, 0.0, 0.0, 0.0, 0.0, 1.743528298565479E9, 0.0, 2025-04-01 12:24:58.565
12.0, -47526.961270208514, -43983.09218681958, -2314.41137962477, -49815.9587163876, 11049.540167992136, 4973.397251772553, -18146.755474419057, -25952.36461786802, -8295.917009820581, -31294.409190941955, -30737.627236560256, -19977.497455775436, -22223.53484911142, -20809.429384401963, -24181.59236688523, -39688.33860019906, -0.014, 0.988, 0.036000000000000004, 192.0, 0.0, 0.0, 0.0, 0.0, 0.0, 0.0, 0.0, 0.0, 0.0, 1.743528298565625E9, 0.0, 2025-04-01 12:24:58.565
14.0, -47528.280023131374, -43975.13496579349, -2317.250051170594, -49822.12779785726, 11077.122220649984, 4971.542056982763, -18151.091712843387, -25965.686257563386, -8288.675044617063, -31283.14391173648, -30732.30752137989, -19971.082505116763, -22212.090755950303, -20798.857009274605, -24171.712895835986, -39676.58158261557, -0.014, 0.988, 0.036000000000000004, 192.0, 0.0, 0.0, 0.0, 0.0, 0.0, 0.0, 0.0, 0.0, 0.0, 1.743528298565755E9, 0.0, 2025-04-01 12:24:58.565
16.0, -47527.58711905326, -43972.65392215895, -2317.5182721040574, -49819.222071078075, 11062.437124542848, 4959.717984165905, -18157.64077396879, -25977.443275146878, -8299.895620333627, -31301.5393974232, -30748.154908198707, -19988.29334834735, -22228.67575033614, -20820.53820139625, -24181.92764305206, -39699.872100338, -0.014, 0.988, 0.036000000000000004, 192.0, 0.0, 0.0, 0.0, 0.0, 0.0, 0.0, 0.0, 0.0, 0.0, 1.743528298624936E9, 0.0, 2025-04-01 12:24:58.624
18.0, -47520.59102303875, -43962.014491798225, -2299.0333794395187, -49809.34260002883, 11076.406964827414, 4980.348644298154, -18153.326887288917, -25942.574553796596, -8288.965617294982, -31298.276042732723, -30732.061652190885, -19983.62183375619, -22209.45325010458, -20809.339977424144, -24174.283346448345, -39678.615591361, -0.008, 0.984, 0.04, 192.0, 127.5, 96.0, 15.0, 96.0, 0.5, 32.0, 0.0, 0.0, 0.0, 1.743528298625116E9, 0.0, 2025-04-01 12:24:58.625
20.0, -47523.09441841774, -43985.32736126511, -2298.9663242061524, -49815.46697800958, 11082.307825363616, 4969.262179048322, -18142.776863906012, -25957.70668479284, -8289.92674230656, -31292.889272318993, -30729.625312045257, -19985.231159356972, -22205.318177380344, -20804.199076199424, -24162.191052698025, -39680.44843440634, -0.008, 0.984, 0.04, 192.0, 0.0, 0.0, 0.0, 0.0, 0.0, 0.0, 0.0, 0.0, 0.0, 1.743528298625273E9, 0.0, 2025-04-01 12:24:58.625
22.0, -47537.533645335876, -43995.340942781084, -2315.4619116141694, -49830.509702028, 11068.136819378951, 4962.847228389648, -18158.44543676918, -25972.369429155522, -8302.220201756978, -31302.14289452349, -30741.516440095478, -19999.469220575003, -22216.270532163446, -20818.995931028836, -24170.908233035592, -39696.47463518079, -0.008, 0.984, 0.04, 192.0, 0.0, 0.0, 0.0, 0.0, 0.0, 0.0, 0.0, 0.0, 0.0, 1.743528298625404E9, 0.0, 2025-04-01 12:24:58.625
24.0, -47530.98458421047, -43981.34875075206, -2307.7729115215434, -49822.55248100191, 11080.7655549962, 4972.2126093164225, -18149.482387242602, -25950.531774822688, -8306.534088436852, -31302.791095112694, -30748.3560738988, -20001.48087757598, -22221.880820021728, -20819.420614173487, -24173.702201092507, -39697.48046368128, -0.008, 0.984, 0.04, 192.0, 0.0, 0.0, 0.0, 0.0, 0.0, 0.0, 0.0, 0.0, 0.0, 1.743528298625537E9, 0.0, 2025-04-01 12:24:58.625
26.0, -47519.09345616025, -43976.0290355717, -2304.1966324086943, -49816.226937321066, 11083.648930030935, 4975.006577373335, -18152.321058788428, -25963.2275656733, -8287.959788794493, -31295.750295609272, -30732.84396324682, -19990.684985004067, -22206.10048843628, -20809.40703265751, -24168.360134167688, -39684.29293445265, -0.008, 0.984, 0.04, 192.0, 0.0, 0.0, 0.0, 0.0, 0.0, 0.0, 0.0, 0.0, 0.0, 1.743528298625681E9, 0.0, 2025-04-01 12:24:58.625
28.0, -47514.13136889117, -43969.72584363531, -2300.5756498069345, -49810.057855851395, 11088.253389388728, 4982.047376876757, -18141.97220110562, -25941.07698691809, -8287.468050416475, -31300.757086367263, -30736.330835381847, -19995.803534484334, -22208.87210474874, -20814.257361204312, -24173.366924925678, -39689.791463588655, -0.01, 0.978, 0.042, 192.0, 127.5, 88.0, 15.0, 72.0, 0.5, 40.0, 0.0, 0.0, 0.0, 1.743528298625815E9, 0.0, 2025-04-01 12:24:58.625
30.0, -47504.453063542016, -43945.63066311248, -2290.919696202242, -49798.881983623745, 11075.021156671186, 4992.150365370556, -18132.852689367854, -25933.142117636457, -8269.698413574508, -31285.021458270727, -30716.236617116527, -19974.47997027397, -22194.745802252986, -20799.2593406748, -24158.704180562996, -39664.84691677653, -0.01, 0.978, 0.042, 192.0, 0.0, 0.0, 0.0, 0.0, 0.0, 0.0, 0.0, 0.0, 0.0, 1.743528298685139E9, 0.0, 2025-04-01 12:24:58.685
32.0, -47526.894214975146, -43992.636381701996, -2312.734998790622, -49822.48542576855, 11089.885066733965, 4964.657719690528, -18151.561099476945, -25960.23243191629, -8281.231913713445, -31285.42378967092, -30729.17827715615, -19980.202016854528, -22203.999424457485, -20806.188381455944, -24164.560337610288, -39678.86146055001, -0.01, 0.978, 0.042, 192.0, 0.0, 0.0, 0.0, 0.0, 0.0, 0.0, 0.0, 0.0, 0.0, 1.743528298685334E9, 0.0, 2025-04-01 12:24:58.685
34.0, -47524.88255797417, -43983.49451821978, -2312.176205179239, -49820.116140856284, 11060.134894863952, 4970.60328371564, -18149.951773876164, -25961.28296390569, -8295.089995275735, -31300.24299624479, -30739.437727861135, -19989.47799080348, -22215.220000174046, -20822.818079330693, -24181.570015140776, -39695.446454935845, -0.01, 0.978, 0.042, 192.0, 0.0, 0.0, 0.0, 0.0, 0.0, 0.0, 0.0, 0.0, 0.0, 1.74352829868549E9, 0.0, 2025-04-01 12:24:58.685
36.0, -47528.54824406484, -43982.24282053028, -2318.3229349044486, -49826.12876011476, 11079.044470673141, 4967.608149958629, -18158.9371751472, -25954.28686789118, -8296.855783087705, -31297.58313865461, -30743.46104186309, -19988.449810558537, -22223.065462477858, -20820.381739185064, -24184.386334942144, -39695.91584156941, -0.01, 0.978, 0.042, 192.0, 0.0, 0.0, 0.0, 0.0, 0.0, 0.0, 0.0, 0.0, 0.0, 1.743528298685614E9, 0.0, 2025-04-01 12:24:58.685
38.0, -47508.856357199715, -43958.39350919647, -2293.6466090257895, -49808.29206803943, 11059.620804741478, 4978.091118108167, -18144.58735520689, -25951.09056843407, -8284.11528874818, -31293.49276941929, -30727.27837887745, -19978.257415086915, -22210.324968138335, -20810.68108209146, -24174.59627087072, -39686.505757153725, -0.008, 0.978, 0.048, 192.0, 127.5, 96.0, 15.0, 72.0, 0.5, 64.0, 0.0, 0.0, 0.0, 1.743528298685754E9, 0.0, 2025-04-01 12:24:58.685
40.0, -47511.35975257871, -43963.15443076545, -2293.5795537924237, -49814.77407393147, 11093.8189737581, 4972.011443616324, -18153.326887288917, -25962.691123806373, -8275.331053177244, -31288.53068215021, -30721.712794508076, -19975.262281329906, -22203.127706423726, -20808.244741945833, -24165.40970389959, -39683.71178909681, -0.008, 0.978, 0.048, 192.0, 0.0, 0.0, 0.0, 0.0, 0.0, 0.0, 0.0, 0.0, 0.0, 1.743528298685899E9, 0.0, 2025-04-01 12:24:58.685
42.0, -47505.83887169825, -43949.36340443652, -2281.9342949312086, -49802.368855758774, 11069.612034513002, 4986.048339134257, -18124.180212519197, -25936.114899649016, -8272.626492098152, -31282.741580336286, -30715.856637460787, -19968.176778337573, -22189.180217883615, -20804.1096692216, -24157.385427640133, -39674.748739570234, -0.008, 0.978, 0.048, 192.0, 0.0, 0.0, 0.0, 0.0, 0.0, 0.0, 0.0, 0.0, 0.0, 1.743528298686041E9, 0.0, 2025-04-01 12:24:58.686
44.0, -47514.77956948037, -43958.728785363295, -2298.988675950608, -49818.35035304432, 11100.47979360578, 4977.062937863224, -18139.468805726625, -25940.629952028987, -8277.499172389409, -31284.932051292904, -30721.288111363425, -19970.277842316373, -22192.130648151717, -20805.383718655554, -24156.200785184003, -39675.53105062617, -0.008, 0.978, 0.048, 192.0, 0.0, 0.0, 0.0, 0.0, 0.0, 0.0, 0.0, 0.0, 0.0, 1.743528298686167E9, 0.0, 2025-04-01 12:24:58.686
46.0, -47512.11971189019, -43978.48772746178, -2300.5756498069345, -49815.936364643145, 11064.962871666297, 4968.569274970207, -18147.314268030437, -25964.345152896065, -8279.77905032385, -31289.827083328615, -30720.952835196596, -19970.85898767221, -22190.141342895193, -20810.83754430265, -24161.02876198635, -39679.12968148347, -0.008, 0.978, 0.048, 192.0, 0.0, 0.0, 0.0, 0.0, 0.0, 0.0, 0.0, 0.0, 0.0, 1.743528298744477E9, 0.0, 2025-04-01 12:24:58.744
48.0, -47516.612412525705, -43966.3283784781, -2308.2870016440156, -49822.32896355736, 11093.707215035822, 4966.334100524677, -18154.82445416742, -25968.2790599202, -8290.843163829228, -31294.27508047522, -30729.17827715615, -19979.106781376217, -22202.97124421254, -20817.58777112815, -24175.73620983794, -39694.820606091096, -0.012, 0.98, 0.05, 192.0, 127.5, 80.0, 15.0, 80.0, 0.5, 72.0, 0.0, 0.0, 0.0, 1.743528298744684E9, 0.0, 2025-04-01 12:24:58.744
50.0, -47517.77470323738, -43978.1300995505, -2308.1975946661946, -49824.47473102507, 11057.89972041842, 4963.182504556478, -18153.30453554446, -25944.295638119656, -8282.818887569772, -31288.843606572584, -30721.064593918873, -19973.47414177348, -22199.752593010973, -20813.87738154857, -24168.985983012437, -39685.63403911996, -0.012, 0.98, 0.05, 192.0, 0.0, 0.0, 0.0, 0.0, 0.0, 0.0, 0.0, 0.0, 0.0, 1.743528298744825E9, 0.0, 2025-04-01 12:24:58.744
52.0, -47520.14398814965, -43965.94839882236, -2311.058617956474, -49827.93925141564, 11087.67224403289, 4962.713117922916, -18148.677724442212, -25956.432635358888, -8288.987969039437, -31301.47234218983, -30725.780811998942, -19979.754981965423, -22207.441593103602, -20822.12517525258, -24174.01512551488, -39691.57960314508, -0.012, 0.98, 0.05, 192.0, 0.0, 0.0, 0.0, 0.0, 0.0, 0.0, 0.0, 0.0, 0.0, 1.743528298744957E9, 0.0, 2025-04-01 12:24:58.744
54.0, -47515.427770069575, -43971.60339016955, -2303.9731149641416, -49820.339658300836, 11055.597490739525, 4954.420620729998, -18143.11214007284, -25954.46568184682, -8291.826640585261, -31298.1866357549, -30727.636006788733, -19977.922138920087, -22207.173372170135, -20821.298160707734, -24171.06469524678, -39690.59612638904, -0.012, 0.98, 0.05, 192.0, 0.0, 0.0, 0.0, 0.0, 0.0, 0.0, 0.0, 0.0, 0.0, 1.743528298745094E9, 0.0, 2025-04-01 12:24:58.745
56.0, -47514.98073518047, -43969.36821572402, -2304.3754463643368, -49821.50194901251, 11087.739299266255, 4958.958024854425, -18152.030486110507, -25962.333495895087, -8286.819849827272, -31296.085571776104, -30720.997538685508, -19974.211749340506, -22201.451325589576, -20819.55472464022, -24165.253241688402, -39684.44939666383, -0.011, 0.98, 0.054000000000000006, 192.0, 127.5, 88.0, 15.0, 80.0, 0.5, 104.0, 0.0, 0.0, 0.0, 1.743528298745231E9, 0.0, 2025-04-01 12:24:58.745
58.0, -47510.398627567134, -43960.874552831, -2298.116957916851, -49810.974277374065, 11065.05227864412, 4965.998824357846, -18152.455169255158, -25960.031266216192, -8287.155125994102, -31291.503464162764, -30720.21522762957, -19968.489702759947, -22201.63013954522, -20816.917218794493, -24163.77802655435, -39684.13647224146, -0.011, 0.98, 0.054000000000000006, 192.0, 0.0, 0.0, 0.0, 0.0, 0.0, 0.0, 0.0, 0.0, 0.0, 1.743528298745367E9, 0.0, 2025-04-01 12:24:58.745
60.0, -47514.511348546905, -43983.114538564034, -2303.0566934414737, -49821.77016994598, 11095.182430169873, 4967.474039491897, -18159.69713445868, -25971.2294901883, -8285.344634693221, -31292.553996152164, -30715.923692694152, -19968.13207484866, -22202.3900988567, -20811.150468725024, -24163.398046898612, -39678.95086752783, -0.011, 0.98, 0.054000000000000006, 192.0, 0.0, 0.0, 0.0, 0.0, 0.0, 0.0, 0.0, 0.0, 0.0, 1.7435282988044E9, 0.0, 2025-04-01 12:24:58.804
62.0, -47517.797054981835, -43978.75594839525, -2301.7826440075214, -49819.9596786451, 11074.6635287599, 4962.042565589258, -18160.948832148177, -25977.42092340242, -8292.564248152286, -31303.707516635364, -30723.679748020146, -19980.358479065715, -22205.899322736183, -20820.02411127378, -24170.103570235202, -39690.59612638904, -0.011, 0.98, 0.054000000000000006, 192.0, 0.0, 0.0, 0.0, 0.0, 0.0, 0.0, 0.0, 0.0, 0.0, 1.743528298804563E9, 0.0, 2025-04-01 12:24:58.804
64.0, -47511.806787467816, -43976.11844254952, -2293.177222392228, -49807.397998261215, 11096.881162748476, 4981.600341987651, -18146.129625574307, -25955.65032430295, -8290.574942895764, -31301.00295555627, -30722.02571893045, -19978.704449976023, -22200.53490406691, -20816.872515305582, -24165.58851785523, -39682.70596059632, -0.011, 0.98, 0.054000000000000006, 192.0, 0.0, 0.0, 0.0, 0.0, 0.0, 0.0, 0.0, 0.0, 0.0, 1.743528298804717E9, 0.0, 2025-04-01 12:24:58.804
66.0, -47507.02351415438, -43966.37308196701, -2287.5222310450354, -49800.73717841353, 11087.024043443686, 4981.868562921115, -18145.012038351542, -25942.03811192967, -8282.796535825317, -31289.983545539802, -30715.811933971876, -19970.255490571915, -22194.5893400418, -20800.73455580885, -24153.295058404812, -39671.28421917966, -0.0095, 0.982, 0.053000000000000005, 192.0, 127.5, 96.0, 15.0, 96.0, 0.5, 80.0, 0.0, 0.0, 0.0, 1.743528298804848E9, 0.0, 2025-04-01 12:24:58.804
68.0, -47516.94768869253, -43977.61600942803, -2301.022684696041, -49818.5068152555, 11098.065805204607, 4958.443934731953, -18149.25886979805, -25979.678449592408, -8279.600236368207, -31282.696876847374, -30709.776962968943, -19964.37698178017, -22195.304595864367, -20801.315701164687, -24157.251317173403, -39683.0188850187, -0.0095, 0.982, 0.053000000000000005, 192.0, 0.0, 0.0, 0.0, 0.0, 0.0, 0.0, 0.0, 0.0, 0.0, 1.743528298804991E9, 0.0, 2025-04-01 12:24:58.804
70.0, -47527.63182254217, -43978.443023972875, -2310.477472600636, -49829.32505957187, 11079.804429984622, 4956.78990564226, -18162.915785660243, -25955.80678651414, -8299.426233700065, -31302.165246267945, -30733.31334988038, -19988.963900681007, -22221.813764788363, -20826.908448566013, -24172.808131314294, -39700.833225349576, -0.0095, 0.982, 0.053000000000000005, 192.0, 0.0, 0.0, 0.0, 0.0, 0.0, 0.0, 0.0, 0.0, 0.0, 1.743528298805139E9, 0.0, 2025-04-01 12:24:58.805
72.0, -47535.18671216807, -44002.560556240154, -2315.8418912699094, -49830.28618458345, 11072.137781636451, 4970.55858022673, -18171.722372975633, -25948.4754143328, -8302.063739545792, -31316.71623190835, -30735.28030339245, -19997.30110136284, -22218.05867171987, -20826.84139333265, -24177.993736027925, -39689.009152532715, -0.0095, 0.982, 0.053000000000000005, 192.0, 0.0, 0.0, 0.0, 0.0, 0.0, 0.0, 0.0, 0.0, 0.0, 1.743528298805274E9, 0.0, 2025-04-01 12:24:58.805
74.0, -47525.39664809664, -43984.00860834224, -2306.476510343136, -49818.797387933424, 11081.346700352038, 4970.64798720455, -18168.056686884964, -25974.962231512338, -8304.745948880429, -31307.999051570783, -30739.862411005786, -19996.876418218188, -22220.852639776786, -20819.107689751112, -24178.64193661713, -39691.75841710072, -0.0095, 0.982, 0.053000000000000005, 192.0, 0.0, 0.0, 0.0, 0.0, 0.0, 0.0, 0.0, 0.0, 0.0, 1.743528298805423E9, 0.0, 2025-04-01 12:24:58.805
76.0, -47532.45979934452, -43982.064006574634, -2315.5289668475352, -49825.27939382546, 11074.082383404064, 4971.810277916226, -18173.823436954433, -25963.562841840132, -8297.302817976812, -31298.588967155098, -30732.732204524542, -19984.7170692345, -22214.147116440192, -20816.313721694198, -24175.19976797101, -39688.22684147678, -0.00875, 0.981, 0.052500000000000005, 192.0, 127.5, 96.0, 15.0, 80.0, 0.5, 80.0, 0.0, 0.0, 0.0, 1.743528298864579E9, 0.0, 2025-04-01 12:24:58.864
78.0, -47540.1711511816, -44001.68883820639, -2322.5474146065017, -49833.706001485116, 11089.86271498951, 4962.087269078168, -18170.917710175243, -25968.56963259812, -8309.417463471587, -31307.574368426132, -30747.7078733096, -19995.334147850772, -22231.492070137512, -20825.321474709686, -24185.68273612055, -39703.60484166203, -0.00875, 0.981, 0.052500000000000005, 192.0, 0.0, 0.0, 0.0, 0.0, 0.0, 0.0, 0.0, 0.0, 0.0, 1.743528298864733E9, 0.0, 2025-04-01 12:24:58.864
80.0, -47533.17505516709, -43988.568364211125, -2317.942955248708, -49829.079190382865, 11069.835551957554, 4964.948292368447, -18171.163579364253, -25980.66192634844, -8304.477727946965, -31307.395554470488, -30743.483393607545, -19990.595578026245, -22230.262724192467, -20820.3146839517, -24181.860587818694, -39701.34731547205, -0.00875, 0.981, 0.052500000000000005, 192.0, 0.0, 0.0, 0.0, 0.0, 0.0, 0.0, 0.0, 0.0, 0.0, 1.743528298864866E9, 0.0, 2025-04-01 12:24:58.864
82.0, -47536.72898253548, -43983.695683919876, -2312.690295301711, -49826.64285023724, 11097.059976704119, 4969.061013348224, -18161.060590870453, -25964.121635451513, -8305.21533551399, -31307.06027830366, -30745.584457586345, -19994.06009841682, -22224.78654680092, -20819.93470429596, -24178.12784649466, -39699.60387940453, -0.00875, 0.981, 0.052500000000000005, 192.0, 0.0, 0.0, 0.0, 0.0, 0.0, 0.0, 0.0, 0.0, 0.0, 1.74352829886501E9, 0.0, 2025-04-01 12:24:58.865
84.0, -47542.205159927034, -43973.99502682627, -2321.765103550566, -49833.16955961819, 11066.214569355794, 4960.366184755109, -18174.024602654532, -25960.835929016583, -8308.478690204465, -31305.20508351387, -30749.071329721373, -19992.20490362703, -22229.055729991884, -20820.53820139625, -24178.530177894852, -39695.06647528011, -0.00875, 0.981, 0.052500000000000005, 192.0, 0.0, 0.0, 0.0, 0.0, 0.0, 0.0, 0.0, 0.0, 0.0, 1.743528298865143E9, 0.0, 2025-04-01 12:24:58.865
86.0, -47522.82619748428, -43964.47318368831, -2318.501748860091, -49830.17442586117, 11105.86656401951, 4962.064917333712, -18167.92257641823, -25962.735827295284, -8303.606009913208, -31308.423734715434, -30750.8594692778, -19998.95513045253, -22225.613561345766, -20823.108652008614, -24178.016087772383, -39696.58639390307, -0.011375, 0.9835, 0.04925, 192.0, 127.5, 72.0, 15.0, 104.0, 0.5, 56.0, 0.0, 0.0, 0.0, 1.743528298865288E9, 0.0, 2025-04-01 12:24:58.865
88.0, -47530.470494088, -43972.363349481035, -2306.78943476551, -49810.214318062586, 11073.188313625851, 4979.678091964494, -18162.245233326583, -25959.472472604808, -8295.291160975834, -31300.10888577806, -30744.42216687467, -19989.05330765883, -22214.638854818208, -20815.531410638265, -24172.6069656142, -39682.728312340776, -0.011375, 0.9835, 0.04925, 192.0, 0.0, 0.0, 0.0, 0.0, 0.0, 0.0, 0.0, 0.0, 0.0, 1.743528298865428E9, 0.0, 2025-04-01 12:24:58.865
90.0, -47534.42675285658, -43966.775413367206, -2313.606716824379, -49813.36591403079, 11102.133822695474, 4980.147478598056, -18171.945890420186, -25963.540490095675, -8295.805251098305, -31285.580251882107, -30741.494088351024, -19975.53050226337, -22220.629122332233, -20800.73455580885, -24172.137578980637, -39679.59906811704, -0.011375, 0.9835, 0.04925, 192.0, 0.0, 0.0, 0.0, 0.0, 0.0, 0.0, 0.0, 0.0, 0.0, 1.743528298924881E9, 0.0, 2025-04-01 12:24:58.924
92.0, -47547.90485476314, -43976.2302012718, -2323.083856473429, -49820.58552748985, 11054.14462734993, 4967.876370892092, -18179.50078004608, -25970.402475643456, -8302.242553501434, -31293.693935119383, -30748.668998321176, -19982.034859899864, -22235.761253328474, -20809.474087890874, -24185.50392216491, -39693.30068746814, -0.011375, 0.9835, 0.04925, 192.0, 0.0, 0.0, 0.0, 0.0, 0.0, 0.0, 0.0, 0.0, 0.0, 1.743528298925039E9, 0.0, 2025-04-01 12:24:58.925
94.0, -47552.46461063202, -43973.10095704805, -2321.921565761753, -49823.08892286884, 11097.28349414867, 4968.546923225752, -18173.912843932252, -25977.890310035982, -8303.784823868851, -31289.782379839708, -30750.121861710773, -19984.784124467868, -22240.45511966409, -20813.005663514814, -24185.74979135392, -39697.27929798118, -0.011375, 0.9835, 0.04925, 192.0, 0.0, 0.0, 0.0, 0.0, 0.0, 0.0, 0.0, 0.0, 0.0, 1.743528298925178E9, 0.0, 2025-04-01 12:24:58.925
96.0, -47543.34509889426, -43963.44500344336, -2314.299620902493, -49811.398960518716, 11059.017307641187, 4963.808353401227, -18172.907015431763, -25969.307240165144, -8306.109405292202, -31297.493731676786, -30753.876954779265, -19986.169932624096, -22246.4006836892, -20822.482803163864, -24190.175436756068, -39703.58248991758, -0.010687499999999999, 0.98475, 0.050625, 192.0, 127.5, 88.0, 15.0, 104.0, 0.5, 80.0, 0.0, 0.0, 0.0, 1.74352829892531E9, 0.0, 2025-04-01 12:24:58.925
98.0, -47550.18473269758, -43954.63841612797, -2313.986696480119, -49805.4086930047, 11099.630427316479, 4983.142612355067, -18159.898300158777, -25959.338362138078, -8280.091974746225, -31270.738693563784, -30734.60975105879, -19962.968821879487, -22231.425014904144, -20797.53825635174, -24168.762465567885, -39678.593239616544, -0.010687499999999999, 0.98475, 0.050625, 192.0, 0.0, 0.0, 0.0, 0.0, 0.0, 0.0, 0.0, 0.0, 0.0, 1.743528298925462E9, 0.0, 2025-04-01 12:24:58.925
100.0, -47545.89319776216, -43948.64814861395, -2307.2588213990716, -49796.46799522257, 11056.648022728923, 4985.981283900891, -18164.726276961122, -25945.65909453143, -8297.503983676908, -31281.71340009134, -30746.836155275843, -19973.29532781784, -22248.367637201267, -20801.87449477607, -24179.446599417523, -39681.92364954038, -0.010687499999999999, 0.98475, 0.050625, 192.0, 0.0, 0.0, 0.0, 0.0, 0.0, 0.0, 0.0, 0.0, 0.0, 1.743528298925596E9, 0.0, 2025-04-01 12:24:58.925
102.0, -47531.94570922205, -43969.010587812736, -2299.7709870065437, -49792.42232947616, 11107.542944853658, 4995.4584235499415, -18154.757398934056, -25938.41712932791, -8280.986044524438, -31271.744522064273, -30726.049032932406, -19960.04074335584, -22232.520250382455, -20794.409012128, -24164.78385505484, -39667.57382960008, -0.010687499999999999, 0.98475, 0.050625, 192.0, 0.0, 0.0, 0.0, 0.0, 0.0, 0.0, 0.0, 0.0, 0.0, 1.743528298925718E9, 0.0, 2025-04-01 12:24:58.925
104.0, -47532.97388946699, -43966.686006389384, -2308.510519088569, -49802.34650401432, 11064.918168177386, 4984.930751911492, -18170.22480609713, -25953.19163241287, -8279.332015434744, -31274.13615872099, -30728.306559122393, -19965.22634806947, -22238.21994521856, -20797.806477285205, -24176.429113916056, -39676.42512040438, -0.010687499999999999, 0.98475, 0.050625, 192.0, 0.0, 0.0, 0.0, 0.0, 0.0, 0.0, 0.0, 0.0, 0.0, 1.743528298925858E9, 0.0, 2025-04-01 12:24:58.925
106.0, -47540.21585467051, -43964.6296458995, -2316.534795348024, -49819.42323677817, 11087.381671354971, 4973.419603517009, -18183.16646613675, -25967.027362230703, -8276.538047377831, -31271.09632147507, -30728.395966100215, -19958.364362521694, -22236.655323106686, -20799.706375563906, -24183.246395974922, -39689.635001377465, -0.00834375, 0.984375, 0.0483125, 192.0, 127.5, 104.0, 15.0, 96.0, 0.5, 56.0, 0.0, 0.0, 0.0, 1.743528298985249E9, 0.0, 2025-04-01 12:24:58.985
108.0, -47545.89319776216, -43969.16705002392, -2318.3676383933594, -49817.16571058818, 11048.064952858085, 4964.277740034788, -18173.622271254335, -25966.289754663678, -8293.63713188614, -31281.489882646787, -30744.355111641304, -19972.691830717544, -22250.51340466898, -20816.805460072217, -24192.25414899041, -39706.689382396864, -0.00834375, 0.984375, 0.0483125, 192.0, 0.0, 0.0, 0.0, 0.0, 0.0, 0.0, 0.0, 0.0, 0.0, 1.743528298985437E9, 0.0, 2025-04-01 12:24:58.985
110.0, -47545.17794193959, -43962.23800924278, -2318.0547139709847, -49812.76241693049, 11078.463325317303, 4972.547885483252, -18184.306405103973, -25965.418036629922, -8283.511791647887, -31273.018571498225, -30734.341530125326, -19960.9124613896, -22245.97600054455, -20804.757869810805, -24183.179340741557, -39689.94792579984, -0.00834375, 0.984375, 0.0483125, 192.0, 0.0, 0.0, 0.0, 0.0, 0.0, 0.0, 0.0, 0.0, 0.0, 1.743528298985572E9, 0.0, 2025-04-01 12:24:58.985
112.0, -47538.49477034745, -43954.43725042787, -2315.5289668475352, -49805.05106509341, 11052.46824651578, 4968.41281275902, -18186.139248149306, -25968.726094809306, -8289.16678299508, -31277.757141322752, -30737.44842260461, -19964.824016669278, -22250.289887224422, -20804.668462832986, -24193.75171586892, -39697.5698706591, -0.00834375, 0.984375, 0.0483125, 192.0, 0.0, 0.0, 0.0, 0.0, 0.0, 0.0, 0.0, 0.0, 0.0, 1.743528298985712E9, 0.0, 2025-04-01 12:24:58.985
114.0, -47536.43840985756, -43954.70547136134, -2308.890498744309, -49795.462166722085, 11078.642139272946, 4981.421528032009, -18185.64750977129, -25960.634763316484, -8268.245550184913, -31265.15075744996, -30716.057803160886, -19946.13795830464, -22235.202459717093, -20792.68792780494, -24181.83823607424, -39680.9178210399, -0.00834375, 0.984375, 0.0483125, 192.0, 0.0, 0.0, 0.0, 0.0, 0.0, 0.0, 0.0, 0.0, 0.0, 1.743528298985857E9, 0.0, 2025-04-01 12:24:58.985
116.0, -47534.449104601044, -43952.582055638086, -2307.4152836102585, -49792.601143431806, 11069.030889157164, 4974.157211084033, -18192.755364508077, -25965.57449884111, -8271.419497897567, -31257.417053868423, -30717.89064620622, -19943.343990247726, -22245.77483484445, -20793.693756305427, -24187.1579512546, -39684.78467283066, -0.007171875, 0.9821875, 0.05015625, 192.0, 127.5, 104.0, 15.0, 80.0, 0.5, 80.0, 0.0, 0.0, 0.0, 1.743528298985995E9, 0.0, 2025-04-01 12:24:58.985
118.0, -47522.915604462105, -43932.64429958395, -2298.340475361404, -49792.28821900943, 11075.177618882373, 4967.228170302888, -18179.947814935185, -25970.938917510382, -8268.357308907189, -31261.149795192458, -30713.196779870606, -19944.28276351485, -22238.197593474102, -20795.101916206113, -24188.02966928836, -39689.14326299945, -0.007171875, 0.9821875, 0.05015625, 192.0, 0.0, 0.0, 0.0, 0.0, 0.0, 0.0, 0.0, 0.0, 0.0, 1.743528298986143E9, 0.0, 2025-04-01 12:24:58.986
120.0, -47512.58909852375, -43935.12534321849, -2293.020760181041, -49784.28629449443, 11080.34087185155, 4980.706272209439, -18185.84867547139, -25948.02837944369, -8251.437038354521, -31251.38208286549, -30697.617613985258, -19930.871716841666, -22230.709759081576, -20786.25062540181, -24175.177416226557, -39679.152033227925, -0.007171875, 0.9821875, 0.05015625, 192.0, 0.0, 0.0, 0.0, 0.0, 0.0, 0.0, 0.0, 0.0, 0.0, 1.743528299045477E9, 0.0, 2025-04-01 12:24:59.045
122.0, -47513.52787179087, -43924.754133791226, -2292.171393891739, -49780.17357351465, 11078.61978752849, 4984.059033877735, -18179.03139341252, -25940.04880667315, -8244.642108040109, -31248.09637643056, -30689.705096448077, -19924.546173160812, -22229.055729991884, -20781.221482899367, -24173.724552836964, -39668.28908542265, -0.007171875, 0.9821875, 0.05015625, 192.0, 0.0, 0.0, 0.0, 0.0, 0.0, 0.0, 0.0, 0.0, 0.0, 1.743528299045654E9, 0.0, 2025-04-01 12:24:59.045
124.0, -47534.583215067774, -43959.89107607497, -2313.383199379826, -49798.390245245726, 11078.373918339483, 4966.177638313489, -18193.40356509728, -25970.938917510382, -8263.462276871476, -31259.205193424845, -30706.82653270084, -19941.511147202393, -22235.87301205075, -20793.470238860875, -24178.68664010604, -39679.0626262501, -0.007171875, 0.9821875, 0.05015625, 192.0, 0.0, 0.0, 0.0, 0.0, 0.0, 0.0, 0.0, 0.0, 0.0, 1.743528299045789E9, 0.0, 2025-04-01 12:24:59.045
126.0, -47521.77566549488, -43946.65884335743, -2292.864297969854, -49783.61574216077, 11076.719889249789, 4977.152344841045, -18165.776808950523, -25944.697969519853, -8267.3514804067, -31264.90488826095, -30708.391154812714, -19943.835728625745, -22242.35501794279, -20792.35265163811, -24178.3066604503, -39675.441643648344, -0.0065859375, 0.97909375, 0.049078125, 192.0, 127.5, 104.0, 15.0, 64.0, 0.5, 64.0, 0.0, 0.0, 0.0, 1.743528299045928E9, 0.0, 2025-04-01 12:24:59.045
128.0, -47525.843682985746, -43946.636491612975, -2298.2957718724933, -49793.51756495447, 11103.76550004071, 4973.151382583545, -18171.320041575436, -25941.65813227393, -8258.142561691113, -31255.830080012096, -30698.69049771911, -19936.95139133351, -22227.334645668823, -20791.190360926434, -24159.21827068547, -39668.69141682285, -0.0065859375, 0.97909375, 0.049078125, 192.0, 0.0, 0.0, 0.0, 0.0, 0.0, 0.0, 0.0, 0.0, 0.0, 1.743528299046078E9, 0.0, 2025-04-01 12:24:59.046
130.0, -47514.42194156909, -43940.91444503242, -2286.8516787113763, -49790.0530445639, 11080.989072440752, 4978.180525085989, -18157.417256524237, -25946.642571287462, -8259.707183802984, -31266.71537956183, -30699.45045703059, -19942.829900125256, -22229.16748871416, -20796.64418657353, -24158.79358754082, -39668.5126028672, -0.0065859375, 0.97909375, 0.049078125, 192.0, 0.0, 0.0, 0.0, 0.0, 0.0, 0.0, 0.0, 0.0, 0.0, 1.74352829904621E9, 0.0, 2025-04-01 12:24:59.046
132.0, -47532.23628189997, -43952.64911087145, -2307.571745821446, -49806.41452150518, 11094.355415625027, 4970.022138359802, -18176.304480588973, -25965.127463952, -8262.590558837719, -31262.84852777106, -30701.596224498302, -19944.95331584851, -22226.664093335163, -20797.091221462637, -24158.659477074085, -39678.68264659437, -0.0065859375, 0.97909375, 0.049078125, 192.0, 0.0, 0.0, 0.0, 0.0, 0.0, 0.0, 0.0, 0.0, 0.0, 1.743528299046338E9, 0.0, 2025-04-01 12:24:59.046
134.0, -47543.34509889426, -43974.531468693196, -2317.7864930375213, -49804.98400986004, 11058.704383218812, 4977.599379730151, -18172.147056120284, -25938.506536305733, -8281.768355580372, -31291.749333351774, -30722.159829397184, -19967.372115537182, -22252.21213724758, -20806.322491922678, -24180.877111062662, -39682.169518729395, -0.0065859375, 0.97909375, 0.049078125, 192.0, 0.0, 0.0, 0.0, 0.0, 0.0, 0.0, 0.0, 0.0, 0.0, 1.74352829904648E9, 0.0, 2025-04-01 12:24:59.046
136.0, -47540.70759304853, -43967.960055823336, -2307.1023591878843, -49794.47868996605, 11097.954046482331, 4987.255333334843, -18159.29480305848, -25938.1712601389, -8285.054062015302, -31276.259574444244, -30723.188009642126, -19957.60440321021, -22245.327799955347, -20801.606273842608, -24168.27072718987, -39666.56800109959, -0.00529296875, 0.981546875, 0.0505390625, 192.0, 127.5, 112.0, 15.0, 96.0, 0.5, 80.0, 0.0, 0.0, 0.0, 1.743528299104807E9, 0.0, 2025-04-01 12:24:59.104
138.0, -47534.42675285658, -43966.618951156015, -2297.1334811608176, -49780.844125848314, 11067.19804611183, 4997.447728806464, -18151.225823310117, -25930.728129235285, -8283.891771303626, -31267.18476619539, -30718.382384584238, -19942.22640302496, -22233.548430627397, -20790.78802952624, -24157.050151473304, -39655.43683236084, -0.00529296875, 0.981546875, 0.0505390625, 192.0, 0.0, 0.0, 0.0, 0.0, 0.0, 0.0, 0.0, 0.0, 0.0, 1.743528299104995E9, 0.0, 2025-04-01 12:24:59.104
140.0, -47535.03024995688, -43964.450831943854, -2299.1004346728846, -49785.35917822828, 11100.613904072512, 4999.481737551897, -18156.6349454683, -25930.817536213108, -8282.528314891853, -31263.09439696007, -30718.538846795425, -19940.974705335466, -22236.700026595598, -20784.574244567662, -24157.58659334023, -39652.77697477066, -0.00529296875, 0.981546875, 0.0505390625, 192.0, 0.0, 0.0, 0.0, 0.0, 0.0, 0.0, 0.0, 0.0, 0.0, 1.743528299105136E9, 0.0, 2025-04-01 12:24:59.105
142.0, -47536.97485172449, -43962.439174942876, -2302.4755480856356, -49787.683759651634, 11061.163075108896, 4991.859792692637, -18159.56302399195, -25944.80972824213, -8276.672157844563, -31268.458815629343, -30713.532056037435, -19945.489757715437, -22230.68740733712, -20785.96005272389, -24158.614773585174, -39652.9110852374, -0.00529296875, 0.981546875, 0.0505390625, 192.0, 0.0, 0.0, 0.0, 0.0, 0.0, 0.0, 0.0, 0.0, 0.0, 1.743528299105275E9, 0.0, 2025-04-01 12:24:59.105
144.0, -47527.60947079772, -43943.64135785596, -2294.138347403806, -49776.75375661299, 11111.610962344523, 5000.576973030206, -18147.44837849717, -25941.47931831829, -8273.811134554284, -31263.27321091571, -30711.78861996992, -19946.003847837907, -22229.5474683699, -20786.675308546462, -24153.40681712709, -39647.43490784585, -0.00529296875, 0.981546875, 0.0505390625, 192.0, 0.0, 0.0, 0.0, 0.0, 0.0, 0.0, 0.0, 0.0, 0.0, 1.743528299105404E9, 0.0, 2025-04-01 12:24:59.105
146.0, -47536.617223813206, -43969.502326190755, -2298.698103272689, -49778.92187582515, 11077.613959028002, 4993.312656082232, -18157.97605013562, -25941.27815261819, -8276.180419466546, -31264.211984182835, -30711.475695547546, -19937.309019244793, -22227.401700902188, -20780.72974452135, -24147.3494943797, -39643.12102116597, -0.006646484375, 0.9817734375, 0.05226953125, 192.0, 127.5, 96.0, 15.0, 88.0, 0.5, 88.0, 0.0, 0.0, 0.0, 1.743528299105542E9, 0.0, 2025-04-01 12:24:59.105
148.0, -47555.5267996224, -43965.94839882236, -2314.8137110249654, -49794.836317877336, 11109.487546621269, 4984.550772255751, -18174.650451499278, -25944.787376497672, -8295.581733653753, -31274.33732442109, -30728.395966100215, -19950.13892056214, -22249.68639012413, -20796.241855173335, -24165.54381436632, -39657.18026842836, -0.006646484375, 0.9817734375, 0.05226953125, 192.0, 0.0, 0.0, 0.0, 0.0, 0.0, 0.0, 0.0, 0.0, 0.0, 1.743528299105686E9, 0.0, 2025-04-01 12:24:59.105
150.0, -47548.73186930798, -43983.963904853335, -2310.8798040008314, -49783.25811424948, 11081.793735241145, 4982.494411765863, -18170.157750863764, -25955.449158602856, -8295.648788887118, -31273.75617906525, -30728.395966100215, -19949.289554272837, -22251.675695380654, -20794.766640039285, -24168.471892889964, -39656.19679167233, -0.006646484375, 0.9817734375, 0.05226953125, 192.0, 0.0, 0.0, 0.0, 0.0, 0.0, 0.0, 0.0, 0.0, 0.0, 1.743528299164457E9, 0.0, 2025-04-01 12:24:59.164
152.0, -47546.049659973345, -43965.90369533345, -2306.0965306873954, -49782.20758226009, 11117.44476764736, 4994.452595049453, -18169.464846785646, -25935.913733948917, -8289.613817884185, -31271.029266241705, -30723.255064875495, -19946.652048427113, -22256.3025064829, -20789.156352181002, -24164.001543998904, -39658.94605624033, -0.006646484375, 0.9817734375, 0.05226953125, 192.0, 0.0, 0.0, 0.0, 0.0, 0.0, 0.0, 0.0, 0.0, 0.0, 1.74352829916465E9, 0.0, 2025-04-01 12:24:59.164
154.0, -47556.51027637843, -43971.80455586965, -2314.41137962477, -49792.19881203161, 11066.14751412243, 4983.097908866156, -18183.61350102586, -25944.407396841932, -8296.609913898697, -31278.181824467403, -30728.105393422295, -19954.56456596429, -22256.07898903835, -20800.533390108754, -24170.3047359353, -39663.95284699832, -0.006646484375, 0.9817734375, 0.05226953125, 192.0, 0.0, 0.0, 0.0, 0.0, 0.0, 0.0, 0.0, 0.0, 0.0, 1.743528299164779E9, 0.0, 2025-04-01 12:24:59.164
156.0, -47550.251787930945, -43968.854125601545, -2308.7116847886664, -49785.113309039276, 11093.595456313546, 4990.8763159366035, -18179.74664923509, -25952.029341701193, -8291.938399307537, -31276.080760488603, -30720.014061929473, -19945.33329550425, -22251.943916314118, -20789.804552770205, -24168.918927779072, -39658.34255914004, -0.0083232421875, 0.98288671875, 0.054134765625, 192.0, 127.5, 88.0, 15.0, 96.0, 0.5, 96.0, 0.0, 0.0, 0.0, 1.743528299164924E9, 0.0, 2025-04-01 12:24:59.164
158.0, -47548.66481407462, -43960.24870398625, -2315.730132547633, -49792.46703296507, 11051.32830754856, 4978.381690786086, -18183.36763183685, -25952.498728334755, -8291.536067907342, -31269.442292385378, -30727.345434110815, -19949.446016484024, -22262.113960041283, -20802.2097709429, -24181.145331996126, -39669.40667264541, -0.0083232421875, 0.98288671875, 0.054134765625, 192.0, 0.0, 0.0, 0.0, 0.0, 0.0, 0.0, 0.0, 0.0, 0.0, 1.743528299165066E9, 0.0, 2025-04-01 12:24:59.165
160.0, -47554.722136822005, -43987.20490779936, -2308.9575539776747, -49788.041387562924, 11087.404023099425, 4984.126089111101, -18174.672803243735, -25947.871917232504, -8289.949094051015, -31275.343152921578, -30723.255064875495, -19949.110740317195, -22264.326782742355, -20798.186456940944, -24176.384410427145, -39659.19192542934, -0.0083232421875, 0.98288671875, 0.054134765625, 192.0, 0.0, 0.0, 0.0, 0.0, 0.0, 0.0, 0.0, 0.0, 0.0, 1.743528299165228E9, 0.0, 2025-04-01 12:24:59.165
162.0, -47544.64150007266, -43995.72092243683, -2305.3365713759154, -49792.46703296507, 11072.070726403086, 4977.934655896981, -18172.70584973167, -25967.787321542182, -8302.39901571262, -31295.19150199789, -30726.294902121415, -19965.181644580563, -22260.77285537396, -20807.127154723068, -24173.299869692313, -39660.354216141015, -0.0083232421875, 0.98288671875, 0.054134765625, 192.0, 0.0, 0.0, 0.0, 0.0, 0.0, 0.0, 0.0, 0.0, 0.0, 1.743528299165369E9, 0.0, 2025-04-01 12:24:59.165
164.0, -47537.44423835805, -43991.027056101215, -2297.960495705664, -49791.79648063141, 11088.47690683328, 4989.043472891268, -18165.4862362726, -25945.94966720935, -8297.839259843739, -31300.19829275588, -30715.07432640485, -19962.745304434935, -22250.06636977987, -20805.3613669111, -24168.02485800086, -39656.017977716685, -0.0083232421875, 0.98288671875, 0.054134765625, 192.0, 0.0, 0.0, 0.0, 0.0, 0.0, 0.0, 0.0, 0.0, 0.0, 1.743528299165513E9, 0.0, 2025-04-01 12:24:59.165
166.0, -47533.957366223025, -44011.52360576673, -2297.2005363941835, -49788.041387562924, 11080.631444529468, 4992.507993281841, -18165.329774061414, -25932.65037925844, -8307.204640770513, -31304.24395850229, -30720.863428218774, -19967.752095192922, -22248.92643081265, -20809.094108235135, -24163.867433532174, -39652.32993988156, -0.01016162109375, 0.985443359375, 0.054067382812499995, 192.0, 127.5, 80.0, 15.0, 112.0, 0.5, 88.0, 0.0, 0.0, 0.0, 1.743528299224701E9, 0.0, 2025-04-01 12:24:59.224
168.0, -47525.75427600793, -43998.44783526038, -2287.566934533946, -49781.0005880595, 11092.81314525761, 5000.576973030206, -18161.105294359364, -25940.741710751263, -8296.11817552068, -31296.2867374762, -30709.486390291026, -19957.514996232392, -22242.377369687245, -20798.454677874408, -24156.245488672914, -39638.62832053046, -0.01016162109375, 0.985443359375, 0.054067382812499995, 192.0, 0.0, 0.0, 0.0, 0.0, 0.0, 0.0, 0.0, 0.0, 0.0, 1.74352829922487E9, 0.0, 2025-04-01 12:24:59.224
170.0, -47549.8718082752, -44016.84332094709, -2314.9031180027864, -49803.777015659456, 11077.636310772457, 4978.448746019452, -18192.55419880798, -25971.073027977112, -8303.002512812915, -31294.319783964133, -30719.142343895717, -19966.790970181344, -22251.005143046994, -20805.853105289116, -24164.180357954545, -39657.80611727311, -0.01016162109375, 0.985443359375, 0.054067382812499995, 192.0, 0.0, 0.0, 0.0, 0.0, 0.0, 0.0, 0.0, 0.0, 0.0, 1.743528299225006E9, 0.0, 2025-04-01 12:24:59.225
172.0, -47532.21393015551, -43993.70926543585, -2298.1616614057616, -49790.343617241815, 11070.707269991311, 4978.448746019452, -18183.61350102586, -25949.347132366554, -8311.563230939297, -31305.897987591983, -30725.333777109838, -19970.18843533855, -22259.945840829118, -20814.011492015303, -24176.965555782983, -39664.75750979871, -0.01016162109375, 0.985443359375, 0.054067382812499995, 192.0, 0.0, 0.0, 0.0, 0.0, 0.0, 0.0, 0.0, 0.0, 0.0, 1.743528299225153E9, 0.0, 2025-04-01 12:24:59.225
174.0, -47527.967098709, -43999.677181205414, -2300.329780617926, -49795.84214637782, 11095.987092970265, 4967.965777869914, -18190.31902436245, -25980.259594948246, -8292.899524319117, -31288.15070249447, -30708.36880306826, -19955.99507760943, -22242.891459809718, -20799.21463718589, -24165.052075988304, -39664.35517839852, -0.01016162109375, 0.985443359375, 0.054067382812499995, 192.0, 0.0, 0.0, 0.0, 0.0, 0.0, 0.0, 0.0, 0.0, 0.0, 1.743528299225282E9, 0.0, 2025-04-01 12:24:59.225
176.0, -47529.26349988741, -43992.54697472417, -2300.665056784756, -49794.52339345496, 11068.248578101227, 4976.6159029741175, -18180.104277146373, -25967.027362230703, -8298.912143577594, -31308.401382970977, -30714.51553279347, -19969.987269638452, -22252.41330294768, -20815.956093782916, -24171.757599324894, -39673.765262814195, -0.010080810546875, 0.9847216796875, 0.05203369140625, 192.0, 127.5, 88.0, 15.0, 96.0, 0.5, 72.0, 0.0, 0.0, 0.0, 1.743528299225417E9, 0.0, 2025-04-01 12:24:59.225
178.0, -47543.16628493861, -44002.87348066253, -2315.3948563808035, -49801.16186155818, 11088.14163066645, 4979.767498942316, -18183.61350102586, -25959.874804005005, -8299.001550555415, -31300.734734622805, -30717.912997950676, -19971.641298728144, -22256.235451249537, -20812.55862862571, -24165.901442277605, -39663.12583245347, -0.010080810546875, 0.9847216796875, 0.05203369140625, 192.0, 0.0, 0.0, 0.0, 0.0, 0.0, 0.0, 0.0, 0.0, 0.0, 1.743528299225577E9, 0.0, 2025-04-01 12:24:59.225
180.0, -47560.578293869294, -44034.90353046698, -2329.923490276753, -49819.713809456094, 11043.125217333463, 4960.187370799466, -18212.044919973006, -25982.673583349417, -8323.342600267244, -31318.01263308676, -30740.60001857281, -19986.840484957753, -22280.93412887265, -20833.479861435873, -24193.997585057925, -39685.790501331154, -0.010080810546875, 0.9847216796875, 0.05203369140625, 192.0, 0.0, 0.0, 0.0, 0.0, 0.0, 0.0, 0.0, 0.0, 0.0, 1.743528299286514E9, 0.0, 2025-04-01 12:24:59.286
182.0, -47555.16917171111, -44018.83262620361, -2323.88851927382, -49814.43879776464, 11086.71111902131, 4970.64798720455, -18195.348166864893, -25974.783417556697, -8316.927649608571, -31311.77649638373, -30734.475640592056, -19978.36917380919, -22274.452122980612, -20826.439061932455, -24186.062715776294, -39685.38816993096, -0.010080810546875, 0.9847216796875, 0.05203369140625, 192.0, 0.0, 0.0, 0.0, 0.0, 0.0, 0.0, 0.0, 0.0, 0.0, 1.743528299286737E9, 0.0, 2025-04-01 12:24:59.286
184.0, -47549.80475304184, -44016.08336163561, -2320.2228331831498, -49809.45435875111, 11059.978432652764, 4970.111545337623, -18187.07802141643, -25968.122597709014, -8324.661353190108, -31322.281816277722, -30742.388158129237, -19985.52173203489, -22288.73488768755, -20830.864707334604, -24193.483494935455, -39690.59612638904, -0.010080810546875, 0.9847216796875, 0.05203369140625, 192.0, 0.0, 0.0, 0.0, 0.0, 0.0, 0.0, 0.0, 0.0, 0.0, 1.743528299286888E9, 0.0, 2025-04-01 12:24:59.286
186.0, -47544.932072750584, -44006.047428375176, -2319.17230119375, -49807.91208838369, 11101.86560176201, 4972.704347694439, -18192.42008834125, -25958.153719681948, -8311.138547794646, -31309.138990538002, -30731.256989390495, -19978.413877298102, -22268.148931044216, -20821.07464326318, -24182.39702968562, -39684.78467283066, -0.012040405273437499, 0.98636083984375, 0.051016845703125, 192.0, 127.5, 72.0, 15.0, 112.0, 0.5, 72.0, 0.0, 0.0, 0.0, 1.743528299287027E9, 0.0, 2025-04-01 12:24:59.287
188.0, -47547.591930340765, -44014.60814650156, -2317.182995937228, -49802.860594136786, 11067.935653678853, 4963.473077234397, -18190.02845168453, -25974.13521696749, -8311.83145187276, -31313.3411184956, -30730.51938182347, -19976.603385997223, -22269.937070600638, -20817.69952985043, -24188.387297199642, -39687.73510309876, -0.012040405273437499, 0.98636083984375, 0.051016845703125, 192.0, 0.0, 0.0, 0.0, 0.0, 0.0, 0.0, 0.0, 0.0, 0.0, 1.743528299287166E9, 0.0, 2025-04-01 12:24:59.287
190.0, -47552.911645521126, -44009.46724527684, -2327.7106675756777, -49809.32024828437, 11099.67513080539, 4969.999786615346, -18204.870010002855, -25971.430655888398, -8318.02288508688, -31305.406249213967, -30738.610713316288, -19978.413877298102, -22279.950652116615, -20825.612047387607, -24193.058811790805, -39690.86434732251, -0.012040405273437499, 0.98636083984375, 0.051016845703125, 192.0, 0.0, 0.0, 0.0, 0.0, 0.0, 0.0, 0.0, 0.0, 0.0, 1.743528299287298E9, 0.0, 2025-04-01 12:24:59.287
192.0, -47532.68331678907, -43995.67621894792, -2312.533833090524, -49794.881021366244, 11069.164999623896, 4975.855943662637, -18190.207265640172, -25970.134254709992, -8304.433024458054, -31305.495656191786, -30728.351262611304, -19975.597557496734, -22270.473512467564, -20818.906524051014, -24186.822675087773, -39674.03348374766, -0.012040405273437499, 0.98636083984375, 0.051016845703125, 192.0, 0.0, 0.0, 0.0, 0.0, 0.0, 0.0, 0.0, 0.0, 0.0, 1.743528299287435E9, 0.0, 2025-04-01 12:24:59.287
194.0, -47527.05067718634, -43999.051332360665, -2310.5445278340017, -49790.14245154172, 11112.72854956729, 4977.308807052232, -18189.760230751068, -25973.017629744725, -8292.83246908575, -31295.593833398085, -30714.98491942703, -19961.404199767614, -22261.510462940987, -20806.680119833964, -24172.674020847564, -39665.53982085465, -0.012040405273437499, 0.98636083984375, 0.051016845703125, 192.0, 0.0, 0.0, 0.0, 0.0, 0.0, 0.0, 0.0, 0.0, 0.0, 1.743528299287588E9, 0.0, 2025-04-01 12:24:59.287
196.0, -47543.188636683066, -44016.46334129135, -2325.5649001079682, -49803.508794725996, 11057.251519829217, 4957.639271931562, -18207.932198993232, -25972.168263455424, -8299.962675566992, -31301.405286956466, -30723.7020997646, -19964.578147480268, -22279.414210249688, -20815.687872849452, -24179.670116862075, -39675.28518143716, -0.01102020263671875, 0.985180419921875, 0.0515084228515625, 192.0, 127.5, 88.0, 15.0, 96.0, 0.5, 80.0, 0.0, 0.0, 0.0, 1.743528299345391E9, 0.0, 2025-04-01 12:24:59.345
198.0, -47536.25959590192, -44004.77337894122, -2319.909908760775, -49797.63028593425, 11096.009444714718, 4959.427411487986, -18205.60761756988, -25985.91458629544, -8298.375701710665, -31306.09915329208, -30722.182181141638, -19964.62285096918, -22279.07893408286, -20824.27094272029, -24180.810055829294, -39683.33180944107, -0.01102020263671875, 0.985180419921875, 0.0515084228515625, 192.0, 0.0, 0.0, 0.0, 0.0, 0.0, 0.0, 0.0, 0.0, 0.0, 1.74352829934555E9, 0.0, 2025-04-01 12:24:59.345
200.0, -47538.80769476983, -44003.47697776282, -2316.557147092479, -49793.070530065364, 11067.823894956577, 4959.8297428881815, -18187.25683537207, -25982.85239730506, -8304.857707602705, -31308.133162037513, -30728.775945755955, -19972.33420280626, -22285.60564346381, -20819.778242084773, -24177.21142497199, -39682.728312340776, -0.01102020263671875, 0.985180419921875, 0.0515084228515625, 192.0, 0.0, 0.0, 0.0, 0.0, 0.0, 0.0, 0.0, 0.0, 0.0, 1.743528299345696E9, 0.0, 2025-04-01 12:24:59.345
202.0, -47525.910738219114, -43993.99983811377, -2298.0946061723957, -49777.826640346844, 11119.322314181605, 4988.328217068698, -18168.816646196443, -25949.45889108883, -8289.390300439632, -31297.1361037655, -30714.381422326736, -19961.270089300884, -22269.512387455987, -20804.132020966055, -24153.898555505104, -39664.3104749096, -0.01102020263671875, 0.985180419921875, 0.0515084228515625, 192.0, 0.0, 0.0, 0.0, 0.0, 0.0, 0.0, 0.0, 0.0, 0.0, 1.743528299345833E9, 0.0, 2025-04-01 12:24:59.345
204.0, -47544.574444839294, -44006.85209117557, -2309.449292355692, -49791.818832375866, 11081.927845707876, 4981.175658843, -18187.346242349893, -25968.726094809306, -8295.917009820581, -31302.232301501313, -30718.292977606416, -19969.696696960535, -22277.156684059704, -20808.624721601573, -24155.06084621678, -39665.00337898772, -0.01102020263671875, 0.985180419921875, 0.0515084228515625, 192.0, 0.0, 0.0, 0.0, 0.0, 0.0, 0.0, 0.0, 0.0, 0.0, 1.743528299345962E9, 0.0, 2025-04-01 12:24:59.345
206.0, -47550.74352630896, -43989.01539910024, -2310.5892313229124, -49795.886849866736, 11102.469098862302, 4976.392385529564, -18189.13438190632, -25969.03901923168, -8307.897544848627, -31307.082630048113, -30728.03833818893, -19975.57520575228, -22285.918567886183, -20820.98523628536, -24169.611831857186, -39675.06166399261, -0.010510101318359374, 0.9875902099609375, 0.05175421142578125, 192.0, 127.5, 88.0, 15.0, 120.0, 0.5, 80.0, 0.0, 0.0, 0.0, 1.743528299346099E9, 0.0, 2025-04-01 12:24:59.346
208.0, -47548.10602046323, -44017.871501192036, -2307.6388010548117, -49793.003474831996, 11078.150400894929, 4974.000748872847, -18183.97112893714, -25980.99720251527, -8307.629323915164, -31309.04958356018, -30723.769154997965, -19970.657821972112, -22285.627995208266, -20821.275808963277, -24165.946145766517, -39675.97808551527, -0.010510101318359374, 0.9875902099609375, 0.05175421142578125, 192.0, 0.0, 0.0, 0.0, 0.0, 0.0, 0.0, 0.0, 0.0, 0.0, 1.74352829934624E9, 0.0, 2025-04-01 12:24:59.346
210.0, -47542.24986341594, -43996.90556489296, -2303.1237486748396, -49789.13662304123, 11106.313598908615, 4987.255333334843, -18168.50372177407, -25961.774702283707, -8303.02486455737, -31305.80858061416, -30716.03545141643, -19965.874548658678, -22282.141123073237, -20815.55376238272, -24167.175491711558, -39669.42902438987, -0.010510101318359374, 0.9875902099609375, 0.05175421142578125, 192.0, 0.0, 0.0, 0.0, 0.0, 0.0, 0.0, 0.0, 0.0, 0.0, 1.743528299405705E9, 0.0, 2025-04-01 12:24:59.405
212.0, -47546.541398351364, -44006.49446326429, -2308.6669812997557, -49791.260038764485, 11089.348624867038, 4985.4224902895085, -18167.87787292932, -25950.621181800507, -8304.857707602705, -31300.354754967066, -30718.6506055177, -19966.790970181344, -22279.101285827313, -20814.682044348963, -24158.704180562996, -39666.52329761068, -0.010510101318359374, 0.9875902099609375, 0.05175421142578125, 192.0, 0.0, 0.0, 0.0, 0.0, 0.0, 0.0, 0.0, 0.0, 0.0, 1.743528299405939E9, 0.0, 2025-04-01 12:24:59.405
214.0, -47544.66385181712, -44001.442969017386, -2311.751522034588, -49792.869364365266, 11102.357340140026, 4984.729586211394, -18163.295765315983, -25955.47151034731, -8303.874230846672, -31308.088458548602, -30719.455268318092, -19966.23217656996, -22269.624146178263, -20811.68691059195, -24160.917003264072, -39666.90327726642, -0.010510101318359374, 0.9875902099609375, 0.05175421142578125, 192.0, 0.0, 0.0, 0.0, 0.0, 0.0, 0.0, 0.0, 0.0, 0.0, 1.743528299406068E9, 0.0, 2025-04-01 12:24:59.406
216.0, -47553.47043913251, -44002.38174228451, -2317.0712372149515, -49792.735253898536, 11095.67416854789, 4979.856905920137, -18163.921614160732, -25953.906888235437, -8311.473823961476, -31309.3401562381, -30731.256989390495, -19972.66947897309, -22270.62997467875, -20819.822945573684, -24167.913099278583, -39675.19577445934, -0.010255050659179688, 0.9887951049804687, 0.05087710571289063, 192.0, 127.5, 88.0, 15.0, 120.0, 0.5, 72.0, 0.0, 0.0, 0.0, 1.743528299406215E9, 0.0, 2025-04-01 12:24:59.406
218.0, -47544.64150007266, -43977.861878617034, -2307.795263265999, -49780.68766363712, 11096.344720881549, 4992.306827581743, -18145.324962773917, -25954.75625452474, -8301.236725000945, -31293.448065930377, -30718.717660751066, -19951.301211273814, -22253.083855281337, -20798.16410519649, -24158.54771835181, -39660.82360277457, -0.010255050659179688, 0.9887951049804687, 0.05087710571289063, 192.0, 0.0, 0.0, 0.0, 0.0, 0.0, 0.0, 0.0, 0.0, 0.0, 1.743528299406353E9, 0.0, 2025-04-01 12:24:59.406
220.0, -47542.831008771784, -43987.65194268846, -2314.858414513876, -49788.84605036331, 11106.023026230696, 4991.882144437092, -18144.900279629266, -25944.005065441735, -8302.68958839054, -31287.211929227346, -30718.851771217796, -19950.65301068461, -22235.135404483724, -20794.476067361364, -24155.48552936143, -39656.37560562797, -0.010255050659179688, 0.9887951049804687, 0.05087710571289063, 192.0, 0.0, 0.0, 0.0, 0.0, 0.0, 0.0, 0.0, 0.0, 0.0, 1.743528299406489E9, 0.0, 2025-04-01 12:24:59.406
222.0, -47527.877691731184, -43972.11748029202, -2305.157757420273, -49782.162878771174, 11100.591552328056, 4998.475909051408, -18126.191869520175, -25929.051748401136, -8304.07539654677, -31296.77847585422, -30718.427088073146, -19956.397409009627, -22221.813764788363, -20798.834657530148, -24160.738189308428, -39655.77210852768, -0.010255050659179688, 0.9887951049804687, 0.05087710571289063, 192.0, 0.0, 0.0, 0.0, 0.0, 0.0, 0.0, 0.0, 0.0, 0.0, 1.743528299406633E9, 0.0, 2025-04-01 12:24:59.406
224.0, -47548.1730756966, -43978.21950652832, -2324.693182074211, -49802.41355924768, 11110.180450699383, 4981.801507687749, -18146.509605230047, -25937.65717001643, -8298.710977877496, -31281.75810358025, -30713.64381475971, -19950.161272306595, -22204.4911628355, -20790.832733015148, -24148.221212413457, -39649.737137524746, -0.010255050659179688, 0.9887951049804687, 0.05087710571289063, 192.0, 0.0, 0.0, 0.0, 0.0, 0.0, 0.0, 0.0, 0.0, 0.0, 1.743528299406768E9, 0.0, 2025-04-01 12:24:59.406
226.0, -47530.44814234354, -43958.90759931894, -2306.051827198485, -49783.19105901612, 11085.347662609538, 4995.994865416868, -18128.181174776695, -25930.12463213499, -8305.349445980723, -31291.05642927366, -30719.18704738463, -19953.312868274792, -22204.781735513418, -20795.750116795316, -24163.800378298805, -39650.25122764721, -0.009127525329589844, 0.9863975524902344, 0.051438552856445316, 192.0, 127.5, 96.0, 15.0, 96.0, 0.5, 80.0, 0.0, 0.0, 0.0, 1.74352829946512E9, 0.0, 2025-04-01 12:24:59.465
228.0, -47530.33638362127, -43980.052349573656, -2306.632972554323, -49792.444681220615, 11112.661494333923, 4987.210629845933, -18121.810927606934, -25958.399588870954, -8304.567134924786, -31282.20513846936, -30719.008233428984, -19952.28468802985, -22197.24919763198, -20785.043631201224, -24156.245488672914, -39653.626341059964, -0.009127525329589844, 0.9863975524902344, 0.051438552856445316, 192.0, 0.0, 0.0, 0.0, 0.0, 0.0, 0.0, 0.0, 0.0, 0.0, 1.74352829946528E9, 0.0, 2025-04-01 12:24:59.465
230.0, -47530.246976643444, -43976.11844254952, -2310.8798040008314, -49797.92085861217, 11093.19312491335, 4980.952141398447, -18127.91295384323, -25935.153774637434, -8299.292123233334, -31286.004935026758, -30715.208436871584, -19952.061170585297, -22183.793447469885, -20784.39543061202, -24150.679904303543, -39651.88290499245, -0.009127525329589844, 0.9863975524902344, 0.051438552856445316, 192.0, 0.0, 0.0, 0.0, 0.0, 0.0, 0.0, 0.0, 0.0, 0.0, 1.743528299465415E9, 0.0, 2025-04-01 12:24:59.465
232.0, -47531.364563866206, -43973.63739891499, -2314.3890278803146, -49805.788672660434, 11113.734378067778, 4977.442917518963, -18144.78852090699, -25942.775719496694, -8302.443719201532, -31287.368391438533, -30722.785678241933, -19957.939679377043, -22191.169523140135, -20791.883265004548, -24158.480663118444, -39660.5106783522, -0.009127525329589844, 0.9863975524902344, 0.051438552856445316, 192.0, 0.0, 0.0, 0.0, 0.0, 0.0, 0.0, 0.0, 0.0, 0.0, 1.743528299465548E9, 0.0, 2025-04-01 12:24:59.465
234.0, -47522.60268003973, -43957.946474307355, -2304.241335897605, -49794.79161438842, 11077.56925553909, 4976.235923318377, -18135.199622535663, -25944.295638119656, -8300.007379055904, -31290.98937404029, -30719.634082273733, -19961.650068956624, -22182.85467420276, -20795.191323183935, -24164.716799821475, -39662.47763186427, -0.009127525329589844, 0.9863975524902344, 0.051438552856445316, 192.0, 0.0, 0.0, 0.0, 0.0, 0.0, 0.0, 0.0, 0.0, 0.0, 1.743528299465695E9, 0.0, 2025-04-01 12:24:59.465
236.0, -47528.10120917574, -43954.79487833916, -2306.9011934877867, -49801.83241389185, 11119.948163026353, 4981.220362331911, -18142.48629122809, -25949.99533295576, -8293.63713188614, -31276.57249886662, -30709.017003657464, -19952.57526070777, -22171.321174063825, -20784.52954107875, -24154.45734911649, -39655.54859108312, -0.007563762664794922, 0.9811987762451172, 0.04971927642822266, 192.0, 127.5, 104.0, 15.0, 64.0, 0.5, 64.0, 0.0, 0.0, 0.0, 1.743528299465826E9, 0.0, 2025-04-01 12:24:59.465
238.0, -47525.441351585556, -43958.5276196632, -2306.3423998764038, -49805.63221044925, 11074.976453182275, 4963.406022001031, -18147.493081986082, -25945.27911487569, -8308.389283226643, -31290.721153106828, -30723.36682359777, -19969.853159171722, -22186.833284715805, -20798.74525055233, -24168.382485912145, -39670.79248080164, -0.007563762664794922, 0.9811987762451172, 0.04971927642822266, 192.0, 0.0, 0.0, 0.0, 0.0, 0.0, 0.0, 0.0, 0.0, 0.0, 1.743528299465977E9, 0.0, 2025-04-01 12:24:59.465
240.0, -47521.507444561415, -43960.65103538645, -2304.1966324086943, -49813.544727986424, 11122.898593294454, 4964.389498757065, -18136.384264991793, -25949.347132366554, -8301.88492559015, -31288.463626916844, -30716.84011421682, -19962.968821879487, -22178.026697400415, -20802.701509320916, -24162.347514909212, -39681.78953907365, -0.007563762664794922, 0.9811987762451172, 0.04971927642822266, 192.0, 0.0, 0.0, 0.0, 0.0, 0.0, 0.0, 0.0, 0.0, 0.0, 1.743528299524803E9, 0.0, 2025-04-01 12:24:59.524
242.0, -47515.02543866938, -43946.79295382416, -2295.814728237954, -49800.87128888027, 11087.24756088824, 4970.357414526631, -18135.26667776903, -25935.444347315355, -8291.31255046279, -31280.640516357485, -30705.708945478076, -19953.42462699707, -22167.90135716216, -20793.626701072062, -24153.58563108273, -39674.34640817004, -0.007563762664794922, 0.9811987762451172, 0.04971927642822266, 192.0, 0.0, 0.0, 0.0, 0.0, 0.0, 0.0, 0.0, 0.0, 0.0, 1.743528299524973E9, 0.0, 2025-04-01 12:24:59.524
244.0, -47531.364563866206, -43965.2778464887, -2308.5775743219347, -49813.92470764217, 11120.126976981996, 4965.88706563557, -18145.570831962923, -25950.017684700215, -8296.855783087705, -31284.730885592806, -30710.26870134696, -19960.9124613896, -22175.702115977063, -20795.571302839675, -24156.4019508841, -39674.86049829251, -0.007563762664794922, 0.9811987762451172, 0.04971927642822266, 192.0, 0.0, 0.0, 0.0, 0.0, 0.0, 0.0, 0.0, 0.0, 0.0, 1.743528299525132E9, 0.0, 2025-04-01 12:24:59.525
246.0, -47521.48509281696, -43949.85514281454, -2299.5921730509012, -49799.68664642413, 11081.704328263322, 4974.917170395514, -18141.81573889443, -25940.60760028453, -8307.942248337538, -31300.600624156075, -30724.238541631526, -19975.75401970792, -22187.14620913818, -20805.562532611195, -24170.237680701935, -39682.75066408523, -0.005781881332397461, 0.9825993881225585, 0.05085963821411133, 192.0, 127.5, 112.0, 15.0, 96.0, 0.5, 80.0, 0.0, 0.0, 0.0, 1.743528299525263E9, 0.0, 2025-04-01 12:24:59.525
248.0, -47524.56963355179, -43953.74434634976, -2302.9672864636527, -49804.78284415995, 11119.456424648337, 4978.694615208461, -18146.084922085396, -25945.301466620145, -8293.21244874149, -31284.216795470336, -30709.93342518013, -19958.699638688522, -22171.410581041644, -20790.005718470304, -24155.530232850342, -39658.6107800735, -0.005781881332397461, 0.9825993881225585, 0.05085963821411133, 192.0, 0.0, 0.0, 0.0, 0.0, 0.0, 0.0, 0.0, 0.0, 0.0, 1.743528299525404E9, 0.0, 2025-04-01 12:24:59.525
250.0, -47519.607546282714, -43954.16902949441, -2300.642705040301, -49800.67012318017, 11080.519685807192, 4982.31559781022, -18137.948887103663, -25950.911754478428, -8300.54382092283, -31286.742542593784, -30717.197742128104, -19961.605365467713, -22176.05974388835, -20795.325433650665, -24161.274631175358, -39667.32796041107, -0.005781881332397461, 0.9825993881225585, 0.05085963821411133, 192.0, 0.0, 0.0, 0.0, 0.0, 0.0, 0.0, 0.0, 0.0, 0.0, 1.743528299525546E9, 0.0, 2025-04-01 12:24:59.525
252.0, -47519.98752593846, -43953.051442271644, -2300.307428873471, -49804.98400986004, 11125.603154373546, 4979.253408819844, -18127.622381165314, -25945.524984064697, -8289.524410906364, -31276.41603665543, -30709.12876237974, -19954.56456596429, -22169.15305485166, -20783.657823044996, -24151.81984327076, -39661.94118999734, -0.005781881332397461, 0.9825993881225585, 0.05085963821411133, 192.0, 0.0, 0.0, 0.0, 0.0, 0.0, 0.0, 0.0, 0.0, 0.0, 1.743528299525672E9, 0.0, 2025-04-01 12:24:59.525
254.0, -47544.59679658375, -43978.3312652506, -2318.635859326823, -49823.558309502405, 11080.698499762833, 4969.195123814956, -18150.68938144319, -25945.457928831333, -8310.669161161084, -31294.789170597694, -30731.592265557323, -19978.90561567612, -22184.82162771483, -20799.54991335272, -24160.089988719224, -39675.28518143716, -0.005781881332397461, 0.9825993881225585, 0.05085963821411133, 192.0, 0.0, 0.0, 0.0, 0.0, 0.0, 0.0, 0.0, 0.0, 0.0, 1.743528299525803E9, 0.0, 2025-04-01 12:24:59.525
0.0, -47535.65609880163, -43960.60633189754, -2308.488167344113, -49817.121007099275, 11107.520593109202, 4970.3350627821765, -18145.906108129755, -25952.766949268218, -8319.811024643306, -31306.412077714456, -30737.113146437783, -19987.48868554696, -22193.561159796856, -20806.702471578417, -24166.437884144532, -39678.459129149815, -0.005890940666198731, 0.9842996940612793, 0.05142981910705567, 192.0, 127.5, 104.0, 15.0, 104.0, 0.5, 80.0, 0.0, 0.0, 0.0, 1.743528299585043E9, 0.0, 2025-04-01 12:24:59.585
2.0, -47537.0195552134, -43976.72193964982, -2310.432769111725, -49820.8090449344, 11084.185371897862, 4956.119353308601, -18155.49500650108, -25963.160510439935, -8308.79161462684, -31300.62297590053, -30727.144268410717, -19980.403182554626, -22181.44651430208, -20800.98042499786, -24159.128863707647, -39675.77691981517, -0.005890940666198731, 0.9842996940612793, 0.05142981910705567, 192.0, 0.0, 0.0, 0.0, 0.0, 0.0, 0.0, 0.0, 0.0, 0.0, 1.743528299585206E9, 0.0, 2025-04-01 12:24:59.585
4.0, -47527.877691731184, -43955.93481730638, -2302.855527741376, -49809.18613781764, 11104.01136922972, 4968.837495903671, -18134.86434636883, -25944.027417186193, -8306.914068092594, -31299.19246425539, -30724.909093965187, -19976.066944130296, -22180.23952010149, -20806.72482332287, -24164.940317266028, -39678.70499833882, -0.005890940666198731, 0.9842996940612793, 0.05142981910705567, 192.0, 0.0, 0.0, 0.0, 0.0, 0.0, 0.0, 0.0, 0.0, 0.0, 1.743528299585343E9, 0.0, 2025-04-01 12:24:59.585
6.0, -47533.13035167818, -43967.06598604513, -2316.959478492675, -49816.87513791027, 11084.85592423152, 4959.226245787889, -18141.368704005326, -25944.89913521995, -8305.371797725176, -31295.34796420908, -30723.74680325351, -19973.787066195855, -22179.747781723476, -20800.511038364297, -24159.173567196558, -39669.13845171195, -0.005890940666198731, 0.9842996940612793, 0.05142981910705567, 192.0, 0.0, 0.0, 0.0, 0.0, 0.0, 0.0, 0.0, 0.0, 0.0, 1.743528299585472E9, 0.0, 2025-04-01 12:24:59.585
8.0, -47528.10120917574, -43960.60633189754, -2312.377370879337, -49811.37660877426, 11094.064842947108, 4958.041603331757, -18138.999419093063, -25952.252859145745, -8305.97529482547, -31298.790132855196, -30726.56312305488, -19977.229234841972, -22180.06070614585, -20803.573227354675, -24161.341686408723, -39671.820661046586, -0.005890940666198731, 0.9842996940612793, 0.05142981910705567, 192.0, 0.0, 0.0, 0.0, 0.0, 0.0, 0.0, 0.0, 0.0, 0.0, 1.743528299585615E9, 0.0, 2025-04-01 12:24:59.585
10.0, -47527.520063819895, -43963.824983099104, -2310.700990045189, -49803.88877438173, 11100.43509011687, 4968.256350547833, -18145.906108129755, -25942.32868460759, -8303.851879102216, -31295.303260720168, -30723.07625091985, -19972.42360978408, -22180.306575334856, -20796.979462740357, -24157.16191019558, -39672.46886163579, -0.005945470333099365, 0.9841498470306396, 0.05071490955352784, 192.0, 127.5, 104.0, 15.0, 96.0, 0.5, 72.0, 0.0, 0.0, 0.0, 1.743528299585749E9, 0.0, 2025-04-01 12:24:59.585
12.0, -47533.219758656, -43972.18453552539, -2318.1217692043506, -49812.941230886136, 11096.031796459174, 4965.88706563557, -18154.310364044948, -25960.81357727213, -8305.2600390029, -31297.20315899887, -30724.238541631526, -19969.964917893998, -22178.361973567247, -20796.26420691779, -24163.06277073178, -39672.24534419124, -0.005945470333099365, 0.9841498470306396, 0.05071490955352784, 192.0, 0.0, 0.0, 0.0, 0.0, 0.0, 0.0, 0.0, 0.0, 0.0, 1.74352829958589E9, 0.0, 2025-04-01 12:24:59.585
14.0, -47538.04773545835, -43962.1262505205, -2325.2966791745043, -49819.42323677817, 11095.629465058979, 4956.476981219886, -18169.35308806337, -25972.99527800027, -8313.552536195819, -31302.52287417923, -30736.42024235967, -19981.163141866105, -22193.739973752497, -20804.86962853308, -24174.149235981615, -39688.942097299354, -0.005945470333099365, 0.9841498470306396, 0.05071490955352784, 192.0, 0.0, 0.0, 0.0, 0.0, 0.0, 0.0, 0.0, 0.0, 0.0, 1.743528299645219E9, 0.0, 2025-04-01 12:24:59.645
16.0, -47531.1186946772, -43965.54606742216, -2314.992524980608, -49813.32121054187, 11091.159116167917, 4952.967757340402, -18157.573718735424, -25974.649307089963, -8305.662370403095, -31305.450952702875, -30727.256027132993, -19978.95031916503, -22186.095677148784, -20798.72289880787, -24173.568090625777, -39688.53976589916, -0.005945470333099365, 0.9841498470306396, 0.05071490955352784, 192.0, 0.0, 0.0, 0.0, 0.0, 0.0, 0.0, 0.0, 0.0, 0.0, 1.743528299645366E9, 0.0, 2025-04-01 12:24:59.645
18.0, -47541.46755236001, -43970.30698899114, -2318.0323622265296, -49814.3046872979, 11105.15130819694, 4953.414792229509, -18161.127646103818, -25958.444292359865, -8315.899469363627, -31301.517045678742, -30733.469812091567, -19979.956147665518, -22192.443572574088, -20811.105765236112, -24171.3552679247, -39685.07524550858, -0.005945470333099365, 0.9841498470306396, 0.05071490955352784, 192.0, 0.0, 0.0, 0.0, 0.0, 0.0, 0.0, 0.0, 0.0, 0.0, 1.743528299645501E9, 0.0, 2025-04-01 12:24:59.645
20.0, -47533.71149703402, -43964.76375636623, -2306.3200481319486, -49802.48061448105, 11083.24659863074, 4969.016309859313, -18157.774884435523, -25940.361731095523, -8306.511736692397, -31296.666717131942, -30721.377518341247, -19970.8142841833, -22190.34250859529, -20799.281692419256, -24168.158968467593, -39670.92659126838, -0.005972735166549683, 0.9860749235153198, 0.04935745477676392, 192.0, 127.5, 104.0, 15.0, 112.0, 0.5, 64.0, 0.0, 0.0, 0.0, 1.743528299645639E9, 0.0, 2025-04-01 12:24:59.645
22.0, -47533.197406911546, -43967.244800000764, -2309.739865033611, -49806.43687324964, 11114.717854823812, 4963.294263278754, -18157.707829202154, -25954.46568184682, -8306.042350058837, -31294.453894430866, -30723.389175342225, -19973.943528407042, -22192.667090018644, -20794.45371561691, -24169.231852201447, -39676.33571342656, -0.005972735166549683, 0.9860749235153198, 0.04935745477676392, 192.0, 0.0, 0.0, 0.0, 0.0, 0.0, 0.0, 0.0, 0.0, 0.0, 1.743528299645784E9, 0.0, 2025-04-01 12:24:59.645
24.0, -47535.23141565698, -43969.59173316857, -2312.667943557256, -49804.91695462668, 11085.928807965376, 4960.723812666394, -18155.785579179, -25953.459853346332, -8305.818832614283, -31296.2867374762, -30724.618521287266, -19976.13399936366, -22194.3881743417, -20790.028070214757, -24171.824654558262, -39678.92851578337, -0.005972735166549683, 0.9860749235153198, 0.04935745477676392, 192.0, 0.0, 0.0, 0.0, 0.0, 0.0, 0.0, 0.0, 0.0, 0.0, 1.743528299645929E9, 0.0, 2025-04-01 12:24:59.645
26.0, -47533.48797958947, -43965.90369533345, -2310.8798040008314, -49803.218222048075, 11121.848061305054, 4969.977434870892, -18147.806006408457, -25947.71545502132, -8304.16480352459, -31290.14000775099, -30727.054861432895, -19973.541197006845, -22184.642813759187, -20783.836637000637, -24164.06859923227, -39672.75943431371, -0.005972735166549683, 0.9860749235153198, 0.04935745477676392, 192.0, 0.0, 0.0, 0.0, 0.0, 0.0, 0.0, 0.0, 0.0, 0.0, 1.743528299646058E9, 0.0, 2025-04-01 12:24:59.646
28.0, -47518.422903826584, -43950.90567480394, -2296.1276526603287, -49791.93059109814, 11090.801488256633, 4971.854981405138, -18139.781730149, -25948.408359099434, -8303.181326768557, -31296.37614445402, -30720.84107647432, -19972.42360978408, -22181.312403835345, -20785.334203879145, -24163.10747422069, -39669.87605927898, -0.005972735166549683, 0.9860749235153198, 0.04935745477676392, 192.0, 0.0, 0.0, 0.0, 0.0, 0.0, 0.0, 0.0, 0.0, 0.0, 1.743528299646185E9, 0.0, 2025-04-01 12:24:59.646
30.0, -47527.58711905326, -43947.88818930247, -2306.431806854225, -49801.51948946947, 11125.625506118002, 4976.571199485207, -18150.577622720913, -25943.75919625273, -8296.989893554437, -31286.563728638142, -30713.97909092654, -19963.79583642433, -22177.087924133295, -20772.549006050707, -24157.74305555142, -39667.32796041107, -0.006986367583274842, 0.9860374617576599, 0.05167872738838196, 192.0, 127.5, 96.0, 15.0, 104.0, 0.5, 88.0, 0.0, 0.0, 0.0, 1.743528299705702E9, 0.0, 2025-04-01 12:24:59.705
32.0, -47524.033191684866, -43968.56355292363, -2301.4250160962365, -49797.02678883395, 11089.57214231159, 4977.0852896076785, -18145.97316336312, -25944.921486964406, -8300.253248244911, -31290.318821706634, -30715.610768271777, -19968.5120545044, -22176.05974388835, -20777.421686341964, -24161.87812827565, -39664.399881887424, -0.006986367583274842, 0.9860374617576599, 0.05167872738838196, 192.0, 0.0, 0.0, 0.0, 0.0, 0.0, 0.0, 0.0, 0.0, 0.0, 1.743528299705858E9, 0.0, 2025-04-01 12:24:59.705
34.0, -47543.56861633881, -43983.13689030849, -2320.4239988832474, -49817.6574489662, 11112.929715267386, 4963.048394089746, -18159.49596875858, -25961.23826041678, -8308.277524504367, -31293.24690023028, -30727.144268410717, -19972.736534206455, -22184.218130614536, -20782.29436663322, -24166.77316031136, -39673.362931414005, -0.006986367583274842, 0.9860374617576599, 0.05167872738838196, 192.0, 0.0, 0.0, 0.0, 0.0, 0.0, 0.0, 0.0, 0.0, 0.0, 1.743528299705989E9, 0.0, 2025-04-01 12:24:59.705
36.0, -47544.730907050485, -43981.46050947434, -2320.7145715611664, -49817.99272513303, 11063.241787343239, 4970.446821504453, -18151.963430877142, -25947.402530598945, -8324.415484001098, -31308.736659137805, -30746.813803531386, -19991.33318559327, -22199.417316844145, -20800.041651730735, -24179.826579073262, -39687.17630948738, -0.006986367583274842, 0.9860374617576599, 0.05167872738838196, 192.0, 0.0, 0.0, 0.0, 0.0, 0.0, 0.0, 0.0, 0.0, 0.0, 1.743528299706137E9, 0.0, 2025-04-01 12:24:59.706
38.0, -47545.0214797284, -43977.01251232773, -2323.50853961808, -49822.41837053518, 11105.754805297232, 4969.820972659704, -18157.149035590774, -25952.923411479405, -8321.018018843892, -31306.00974631426, -30743.639855818732, -19988.9191971921, -22199.73024126652, -20793.06790746068, -24176.02678251586, -39678.74970182773, -0.006986367583274842, 0.9860374617576599, 0.05167872738838196, 192.0, 0.0, 0.0, 0.0, 0.0, 0.0, 0.0, 0.0, 0.0, 0.0, 1.743528299706277E9, 0.0, 2025-04-01 12:24:59.706
40.0, -47540.662889559615, -43976.52077394972, -2320.3792953943366, -49820.71963795658, 11069.343813579539, 4963.026042345291, -18157.43960826869, -25965.842719774573, -8321.353295010722, -31307.68612714841, -30742.723434296066, -19988.226293113985, -22193.695270263586, -20798.834657530148, -24181.4582564185, -39684.65056236393, -0.009493183791637421, 0.98901873087883, 0.05583936369419098, 192.0, 127.5, 80.0, 15.5, 0.0, 0.5, 112.0, 0.0, 0.0, 0.0, 1.743528299706402E9, 0.0, 2025-04-01 12:24:59.706
42.0, -47532.70566853353, -43954.50430566124, -2312.1538534347837, -49810.37078027377, 11118.003561258742, 4981.935618154481, -18145.97316336312, -25934.03618741467, -8311.272658261378, -31297.00199329877, -30732.285169635437, -19979.79968545433, -22184.128723636713, -20788.418744613977, -24168.717762078973, -39678.32501868308, -0.009493183791637421, 0.98901873087883, 0.05583936369419098, 192.0, 0.0, 0.0, 0.0, 0.0, 0.0, 0.0, 0.0, 0.0, 0.0, 1.743528299706553E9, 0.0, 2025-04-01 12:24:59.706
44.0, -47540.46172385952, -43986.064968832135, -2319.082894215929, -49818.75268444451, 11069.455572301815, 4961.88610337807, -18158.758361191554, -25964.121635451513, -8320.749797910428, -31301.71821137884, -30740.912942995186, -19986.371098324194, -22199.640834288697, -20795.727765050862, -24173.612794114684, -39686.59516413155, -0.009493183791637421, 0.98901873087883, 0.05583936369419098, 192.0, 0.0, 0.0, 0.0, 0.0, 0.0, 0.0, 0.0, 0.0, 0.0, 1.743528299767388E9, 0.0, 2025-04-01 12:24:59.767
46.0, -47525.97779345248, -43969.36821572402, -2303.593135308401, -49809.32024828437, 11111.34274141106, 4975.408908773531, -18148.07422734192, -25967.00501048625, -8306.243515758933, -31295.884406076006, -30721.08694566333, -19971.90951966161, -22173.981031654006, -20784.060154445193, -24158.748884051907, -39676.60393436002, -0.009493183791637421, 0.98901873087883, 0.05583936369419098, 192.0, 0.0, 0.0, 0.0, 0.0, 0.0, 0.0, 0.0, 0.0, 0.0, 1.743528299767553E9, 0.0, 2025-04-01 12:24:59.767
48.0, -47514.77956948037, -43956.44890742885, -2295.568859048946, -49794.21046903259, 11088.409851599914, 4986.2271530899, -18142.553346461456, -25951.582306812088, -8309.037483815848, -31295.48207467581, -30724.730280009542, -19972.177740595074, -22178.697249734076, -20786.049459701713, -24164.44857888801, -39678.4144256609, -0.009493183791637421, 0.98901873087883, 0.05583936369419098, 192.0, 0.0, 0.0, 0.0, 0.0, 0.0, 0.0, 0.0, 0.0, 0.0, 1.743528299767685E9, 0.0, 2025-04-01 12:24:59.767
50.0, -47520.523967805384, -43954.07962251659, -2300.59800155139, -49794.85866962179, 11120.216383959816, 4999.235868362888, -18128.67291315471, -25926.66011174442, -8289.837335328739, -31280.0817227461, -30707.117105378762, -19956.710333432, -22162.134607092692, -20762.82599721265, -24145.114319934168, -39647.68077703485, -0.007746591895818711, 0.986509365439415, 0.05591968184709549, 192.0, 127.5, 104.0, 15.0, 96.0, 0.5, 96.0, 0.0, 0.0, 0.0, 1.743528299767824E9, 0.0, 2025-04-01 12:24:59.767
52.0, -47527.251842886435, -43963.333244721085, -2304.822481253443, -49793.53991669892, 11098.110508693519, 4984.506068766841, -18141.771035405523, -25947.84956548805, -8310.088015805248, -31296.82317934313, -30724.08207942034, -19971.350726050227, -22186.989746926993, -20779.433343342942, -24159.911174763583, -39657.71671029529, -0.007746591895818711, 0.986509365439415, 0.05591968184709549, 192.0, 0.0, 0.0, 0.0, 0.0, 0.0, 0.0, 0.0, 0.0, 0.0, 1.743528299767974E9, 0.0, 2025-04-01 12:24:59.767
54.0, -47519.3169736048, -43960.78514585318, -2297.468757327647, -49791.28239050894, 11121.557488627135, 4988.1270513686, -18137.054817325454, -25957.03613245918, -8297.682797632551, -31284.529719892707, -30706.804180956387, -19955.257470042405, -22176.037392143895, -20767.229290870346, -24149.182337425034, -39650.09476543603, -0.007746591895818711, 0.986509365439415, 0.05591968184709549, 192.0, 0.0, 0.0, 0.0, 0.0, 0.0, 0.0, 0.0, 0.0, 0.0, 1.743528299768101E9, 0.0, 2025-04-01 12:24:59.768
56.0, -47522.73679050646, -43961.96978830931, -2302.542603319002, -49795.864498122275, 11098.266970904706, 4981.980321643391, -18145.59318370738, -25938.528888050187, -8303.069568046281, -31293.04573453018, -30714.98491942703, -19966.634507970157, -22178.876063689717, -20775.320622363168, -24153.049189215802, -39666.05391097712, -0.007746591895818711, 0.986509365439415, 0.05591968184709549, 192.0, 0.0, 0.0, 0.0, 0.0, 0.0, 0.0, 0.0, 0.0, 0.0, 1.743528299768233E9, 0.0, 2025-04-01 12:24:59.768
58.0, -47520.1663398941, -43960.58398015308, -2299.346303861893, -49794.56809694387, 11106.403005886437, 4984.327254811198, -18137.881831870298, -25936.673693260396, -8295.939361565037, -31290.452932173364, -30709.240521102016, -19961.694772445535, -22175.81387469934, -20772.34784035061, -24154.345590394212, -39665.00337898772, -0.007746591895818711, 0.986509365439415, 0.05591968184709549, 192.0, 0.0, 0.0, 0.0, 0.0, 0.0, 0.0, 0.0, 0.0, 0.0, 1.743528299768369E9, 0.0, 2025-04-01 12:24:59.768
60.0, -47533.68914528956, -43957.678253373895, -2306.9011934877867, -49805.90043138271, 11108.548773354147, 4970.133897082079, -18154.01979136703, -25959.4277691159, -8305.327094236267, -31292.330478707612, -30716.08015490534, -19970.076676616274, -22185.648642259675, -20779.858026487593, -24157.16191019558, -39675.01696050369, -0.007746591895818711, 0.986509365439415, 0.05591968184709549, 192.0, 0.0, 0.0, 15.0, 72.0, 0.5, 104.0, 0.0, 0.0, 0.0, 1.743528299825438E9, 0.0, 2025-04-01 12:24:59.825
62.0, -47525.48605507446, -43963.266189487724, -2296.2617631270605, -49789.96363758608, 11107.76646229821, 4993.1785456155, -18138.97706734861, -25950.88940273397, -8300.566172667286, -31294.811522342152, -30710.38046006924, -19969.495531260436, -22181.044182901882, -20778.516921820275, -24154.85968051668, -39667.216201688796, -0.007746591895818711, 0.986509365439415, 0.05591968184709549, 192.0, 0.0, 0.0, 0.0, 0.0, 0.0, 0.0, 0.0, 0.0, 0.0, 1.743528299825585E9, 0.0, 2025-04-01 12:24:59.825
64.0, -47529.57642430979, -43966.23897150028, -2299.726283517633, -49787.415538718175, 11118.405892658937, 5005.404949832553, -18142.843919139377, -25918.121745362492, -8303.449547702021, -31287.14487399398, -30711.98978567002, -19965.65103121412, -22181.804142213365, -20768.950375193403, -24145.181375167536, -39648.261922390695, -0.007746591895818711, 0.986509365439415, 0.05591968184709549, 192.0, 0.0, 0.0, 0.0, 0.0, 0.0, 0.0, 0.0, 0.0, 0.0, 1.743528299825717E9, 0.0, 2025-04-01 12:24:59.825
66.0, -47537.91362499161, -43981.70637866335, -2306.834138254421, -49795.439814977624, 11091.695558034846, 4992.79856595976, -18144.229727295606, -25944.74267300876, -8309.68568440505, -31299.86301658905, -30720.751669496498, -19972.356554550715, -22190.00723242846, -20776.080581674647, -24152.892727004615, -39652.441698603834, -0.007746591895818711, 0.986509365439415, 0.05591968184709549, 192.0, 0.0, 0.0, 0.0, 0.0, 0.0, 0.0, 0.0, 0.0, 0.0, 1.743528299825855E9, 0.0, 2025-04-01 12:24:59.825
68.0, -47538.94180523656, -43985.215602542834, -2309.762216778066, -49798.63611443474, 11113.86848853451, 4988.931714168992, -18151.471692499126, -25947.00019919875, -8315.854765874716, -31301.561749167653, -30728.50772482249, -19977.51980751989, -22198.791467999396, -20783.322546878167, -24150.83636651473, -39658.45431786231, -0.007746591895818711, 0.986509365439415, 0.05591968184709549, 192.0, 0.0, 0.0, 0.0, 0.0, 0.0, 0.0, 0.0, 0.0, 0.0, 1.743528299826E9, 0.0, 2025-04-01 12:24:59.826
70.0, -47539.03121221438, -43990.267096789736, -2312.958516235175, -49805.878079638256, 11086.040566687652, 4979.007539630836, -18155.964393134644, -25952.923411479405, -8312.747873395429, -31305.540359680697, -30724.037375931428, -19974.792894696344, -22195.77398249793, -20779.098067176114, -24157.139558451127, -39667.73029181126, -0.010873295947909355, 0.9852546827197075, 0.05495984092354775, 192.0, 127.5, 72.0, 15.0, 96.0, 0.5, 88.0, 0.0, 0.0, 0.0, 1.743528299826128E9, 0.0, 2025-04-01 12:24:59.826
72.0, -47538.360659880724, -43988.65777118895, -2311.729170290133, -49803.59820170381, 11107.475889620291, 4979.812202431226, -18151.270526799028, -25941.769890996206, -8327.70119043603, -31317.744412153294, -30737.202553415606, -19987.91336869161, -22204.401755857678, -20794.16314293899, -24166.482587633443, -39682.48244315177, -0.010873295947909355, 0.9852546827197075, 0.05495984092354775, 192.0, 0.0, 0.0, 0.0, 0.0, 0.0, 0.0, 0.0, 0.0, 0.0, 1.74352829982627E9, 0.0, 2025-04-01 12:24:59.826
74.0, -47532.79507551135, -43978.48772746178, -2302.542603319002, -49793.33875099883, 11090.265046389706, 4992.329179326199, -18149.25886979805, -25933.65620775893, -8311.809100128306, -31309.04958356018, -30720.505800307492, -19975.306984818817, -22189.739011494996, -20778.405163098, -24149.83053801424, -39660.644788818936, -0.010873295947909355, 0.9852546827197075, 0.05495984092354775, 192.0, 0.0, 0.0, 0.0, 0.0, 0.0, 0.0, 0.0, 0.0, 0.0, 1.743528299885915E9, 0.0, 2025-04-01 12:24:59.885
76.0, -47538.89710174765, -43964.89786683296, -2310.0080859670743, -49799.73134991305, 11121.065750249118, 4991.211592103433, -18159.69713445868, -25950.688237033875, -8312.636114673152, -31304.24395850229, -30723.612692786777, -19977.162179608607, -22197.159790654157, -20779.723916020863, -24153.40681712709, -39665.383358643456, -0.010873295947909355, 0.9852546827197075, 0.05495984092354775, 192.0, 0.0, 0.0, 0.0, 0.0, 0.0, 0.0, 0.0, 0.0, 0.0, 1.743528299886061E9, 0.0, 2025-04-01 12:24:59.886
78.0, -47533.89031098966, -43984.14271880898, -2308.242298155105, -49797.18325104514, 11081.257293374216, 4986.696539723461, -18162.20052983767, -25954.309219635634, -8313.999571084925, -31303.215778257345, -30723.03154743094, -19976.446923786036, -22201.496029078487, -20780.68504103244, -24159.754712552396, -39664.15401269842, -0.010873295947909355, 0.9852546827197075, 0.05495984092354775, 192.0, 0.0, 0.0, 0.0, 0.0, 0.0, 0.0, 0.0, 0.0, 0.0, 1.743528299886186E9, 0.0, 2025-04-01 12:24:59.886
80.0, -47542.09340120476, -43983.85214613106, -2314.858414513876, -49803.32998077035, 11110.068691977107, 4983.500240266352, -18162.02171588203, -25954.08570219108, -8319.162824054101, -31306.456781203364, -30726.40666084369, -19976.37986855267, -22208.268607648446, -20786.943529479926, -24162.593384098218, -39674.882850036964, -0.011436647973954678, 0.9846273413598537, 0.05447992046177387, 192.0, 127.5, 80.0, 15.0, 96.0, 0.5, 88.0, 0.0, 0.0, 0.0, 1.743528299886331E9, 0.0, 2025-04-01 12:24:59.886
82.0, -47533.800904011834, -43971.29046574717, -2303.4590248416694, -49787.415538718175, 11080.407927084914, 4991.300999081254, -18149.862366898342, -25944.787376497672, -8310.870326861183, -31302.05348754567, -30717.6000735283, -19965.04753411383, -22204.558218068865, -20777.10876191959, -24156.98309623994, -39665.875097021475, -0.011436647973954678, 0.9846273413598537, 0.05447992046177387, 192.0, 0.0, 0.0, 0.0, 0.0, 0.0, 0.0, 0.0, 0.0, 0.0, 1.743528299886477E9, 0.0, 2025-04-01 12:24:59.886
84.0, -47543.59096808326, -43980.45468097385, -2311.8856325013203, -49795.41746323317, 11121.423378160403, 4984.506068766841, -18159.40656178076, -25959.293658649167, -8314.69247516304, -31306.76970562574, -30723.925617209152, -19971.99892663943, -22215.82349727434, -20778.338107864634, -24156.513709606377, -39670.01016974571, -0.011436647973954678, 0.9846273413598537, 0.05447992046177387, 192.0, 0.0, 0.0, 0.0, 0.0, 0.0, 0.0, 0.0, 0.0, 0.0, 1.743528299886606E9, 0.0, 2025-04-01 12:24:59.886
86.0, -47540.037040714866, -43982.46633797483, -2308.108187688373, -49792.13175679824, 11089.370976611493, 4986.897705423558, -18160.92648040372, -25954.80095801365, -8312.97139083998, -31302.925205579428, -30725.400832343203, -19971.328374305773, -22212.82836351733, -20777.309927619688, -24157.944221251517, -39670.36779765699, -0.011436647973954678, 0.9846273413598537, 0.05447992046177387, 192.0, 0.0, 0.0, 0.0, 0.0, 0.0, 0.0, 0.0, 0.0, 0.0, 1.743528299886742E9, 0.0, 2025-04-01 12:24:59.886
88.0, -47541.82518027129, -43969.39056746847, -2307.214117910161, -49794.36693124377, 11120.462253148826, 4993.1785456155, -18156.25496581256, -25952.99046671277, -8315.184213541057, -31300.4888654338, -30723.36682359777, -19969.651993471623, -22207.30748263687, -20778.494570075818, -24153.652686316098, -39668.13262321146, -0.011436647973954678, 0.9846273413598537, 0.05447992046177387, 192.0, 0.0, 0.0, 0.0, 0.0, 0.0, 0.0, 0.0, 0.0, 0.0, 1.743528299886876E9, 0.0, 2025-04-01 12:24:59.886
90.0, -47540.12644769269, -43981.013474585234, -2304.6883707867114, -49788.533125940936, 11081.614921285502, 4997.045397406268, -18160.077114114418, -25934.66203625942, -8322.068550833292, -31308.4907899488, -30727.814820744377, -19975.798723196833, -22213.16363968416, -20785.378907368053, -24162.012238742383, -39667.93145751136, -0.010718323986977338, 0.9823136706799269, 0.05523996023088694, 192.0, 127.5, 88.0, 15.0, 80.0, 0.5, 96.0, 0.0, 0.0, 0.0, 1.743528299946146E9, 0.0, 2025-04-01 12:24:59.946
92.0, -47546.85432277374, -43991.13881482349, -2313.5843650799234, -49795.70803591109, 11117.109491480529, 4994.363188071631, -18166.581471750913, -25954.063350446624, -8312.993742584436, -31299.773609611228, -30717.041279916917, -19963.169987579586, -22206.994558214494, -20773.01839268427, -24154.63616307213, -39657.71671029529, -0.010718323986977338, 0.9823136706799269, 0.05523996023088694, 192.0, 0.0, 0.0, 0.0, 0.0, 0.0, 0.0, 0.0, 0.0, 0.0, 1.743528299946299E9, 0.0, 2025-04-01 12:24:59.946
94.0, -47540.75229653744, -43986.84727988807, -2308.398760366292, -49790.52243119746, 11079.513857306703, 5001.292228852776, -18166.425009539726, -25953.37044636851, -8326.3153822798, -31316.783287141716, -30732.955721969098, -19980.38083081017, -22224.898305523195, -20789.3575178811, -24166.080256233246, -39674.65933259241, -0.010718323986977338, 0.9823136706799269, 0.05523996023088694, 192.0, 0.0, 0.0, 0.0, 0.0, 0.0, 0.0, 0.0, 0.0, 0.0, 1.743528299946433E9, 0.0, 2025-04-01 12:24:59.946
96.0, -47525.50840681892, -43968.04946280116, -2295.0100654375633, -49781.51467818197, 11124.217346217316, 5008.824766734215, -18155.517358245535, -25944.407396841932, -8309.238649515944, -31307.48496144831, -30716.571893283355, -19968.914385904598, -22204.4911628355, -20774.11362816258, -24148.467081602466, -39658.32020739558, -0.010718323986977338, 0.9823136706799269, 0.05523996023088694, 192.0, 0.0, 0.0, 0.0, 0.0, 0.0, 0.0, 0.0, 0.0, 0.0, 1.743528299946588E9, 0.0, 2025-04-01 12:24:59.946
98.0, -47536.1701889241, -43979.337093751084, -2301.0003329515857, -49784.3533497278, 11097.663473804412, 4989.334045569187, -18164.68157347221, -25951.80582425664, -8311.40676872811, -31300.600624156075, -30716.482486305536, -19965.583975980757, -22208.96151172656, -20770.33618334963, -24148.86941300266, -39664.75750979871, -0.010718323986977338, 0.9823136706799269, 0.05523996023088694, 192.0, 0.0, 0.0, 0.0, 0.0, 0.0, 0.0, 0.0, 0.0, 0.0, 1.743528299946723E9, 0.0, 2025-04-01 12:24:59.946
100.0, -47535.298470890346, -43971.111651791536, -2300.888574229309, -49780.419442703664, 11119.478776392792, 4999.414682318531, -18161.082942614907, -25951.33643762308, -8309.484518704954, -31298.521911921733, -30712.570931025857, -19961.024220111874, -22209.00621521547, -20772.034915928238, -24152.177471182047, -39660.75654754121, -0.010359161993488668, 0.9851568353399635, 0.05261998011544347, 192.0, 127.5, 88.0, 15.0, 112.0, 0.5, 72.0, 0.0, 0.0, 0.0, 1.743528299946855E9, 0.0, 2025-04-01 12:24:59.946
102.0, -47538.20419766953, -43974.41970997092, -2308.734036533122, -49788.06373930738, 11093.10371793553, 4991.904496181548, -18165.821512439434, -25944.720321264307, -8316.838242630749, -31304.087496291104, -30722.048070674908, -19971.104856861217, -22222.216096188557, -20776.818189241672, -24164.15800621009, -39667.90910576691, -0.010359161993488668, 0.9851568353399635, 0.05261998011544347, 192.0, 0.0, 0.0, 0.0, 0.0, 0.0, 0.0, 0.0, 0.0, 0.0, 1.743528299947006E9, 0.0, 2025-04-01 12:24:59.947
104.0, -47534.13618017867, -43965.724881377806, -2305.828309753932, -49783.59339041632, 11120.52930838219, 4989.199935102455, -18161.507625759557, -25960.36654238302, -8307.74108263744, -31305.80858061416, -30714.113201393273, -19962.790007923842, -22218.371596142246, -20773.957165951393, -24159.26297417438, -39663.61757083149, -0.010359161993488668, 0.9851568353399635, 0.05261998011544347, 192.0, 0.0, 0.0, 0.0, 0.0, 0.0, 0.0, 0.0, 0.0, 0.0, 1.74352830000603E9, 0.0, 2025-04-01 12:25:00.006
106.0, -47540.77464828189, -43984.83562288709, -2307.9070219882756, -49785.69445439511, 11108.682883820878, 4988.439975790975, -18171.789428209, -25962.80288252865, -8310.579754183264, -31297.3372694656, -30717.711832250578, -19961.828882912265, -22219.288017664912, -20772.727820006352, -24159.955878252495, -39670.12192846798, -0.010359161993488668, 0.9851568353399635, 0.05261998011544347, 192.0, 0.0, 0.0, 0.0, 0.0, 0.0, 0.0, 0.0, 0.0, 0.0, 1.743528300006181E9, 0.0, 2025-04-01 12:25:00.006
108.0, -47547.70368906304, -43991.85407064606, -2313.7408272911107, -49791.61766667577, 11102.469098862302, 4991.122185125611, -18172.370573564836, -25942.395739840955, -8312.278486761867, -31304.82510385813, -30716.92952119464, -19964.80166492482, -22219.712700809563, -20773.912462462482, -24162.816901542774, -39661.33769289705, -0.010359161993488668, 0.9851568353399635, 0.05261998011544347, 192.0, 0.0, 0.0, 0.0, 0.0, 0.0, 0.0, 0.0, 0.0, 0.0, 1.74352830000633E9, 0.0, 2025-04-01 12:25:00.006
110.0, -47551.74935480945, -43992.837547402094, -2320.111074460873, -49797.78674814544, 11096.344720881549, 4977.018234374313, -18179.992518424096, -25957.192594670367, -8331.88096664917, -31323.66762443395, -30737.291960393428, -19986.952243680033, -22241.818576075864, -20792.196189426923, -24173.992773770427, -39680.02375126169, -0.011179580996744334, 0.9865784176699817, 0.05130999005772174, 192.0, 127.5, 80.0, 15.0, 112.0, 0.5, 72.0, 0.0, 0.0, 0.0, 1.743528300006461E9, 0.0, 2025-04-01 12:25:00.006
112.0, -47534.091476689755, -43975.33613149359, -2300.1956701511945, -49782.20758226009, 11107.453537875836, 4993.737339226883, -18163.295765315983, -25946.351998609545, -8308.590448926741, -31305.026269558224, -30711.02866065844, -19963.885243402154, -22221.277322921436, -20769.643279271517, -24155.083197961238, -39657.47084110628, -0.011179580996744334, 0.9865784176699817, 0.05130999005772174, 192.0, 0.0, 0.0, 0.0, 0.0, 0.0, 0.0, 0.0, 0.0, 0.0, 1.743528300006625E9, 0.0, 2025-04-01 12:25:00.006
114.0, -47543.054526216336, -43986.91433512144, -2314.2325656691273, -49791.59531493131, 11108.705235565334, 4991.099833381157, -18175.49981778858, -25959.248955160256, -8315.988876341447, -31310.48009520532, -30718.27062586196, -19975.418743541093, -22230.3968346592, -20783.233139900345, -24158.368904396168, -39669.9654662568, -0.011179580996744334, 0.9865784176699817, 0.05130999005772174, 192.0, 0.0, 0.0, 0.0, 0.0, 0.0, 0.0, 0.0, 0.0, 0.0, 1.743528300006757E9, 0.0, 2025-04-01 12:25:00.006
116.0, -47528.570595809295, -43965.88134358899, -2297.2675916275493, -49768.84123907581, 11099.451613360836, 5013.496281325374, -18151.963430877142, -25929.69994899034, -8303.158975024102, -31304.95921432486, -30709.419335057657, -19967.640336470646, -22220.24914267649, -20768.72685774885, -24152.1998229265, -39653.06754744858, -0.011179580996744334, 0.9865784176699817, 0.05130999005772174, 192.0, 0.0, 0.0, 0.0, 0.0, 0.0, 0.0, 0.0, 0.0, 0.0, 1.743528300006887E9, 0.0, 2025-04-01 12:25:00.006
118.0, -47546.22847392899, -43976.65488441645, -2317.339458148415, -49783.86161134978, 11111.521555366702, 5000.576973030206, -18164.346297305383, -25940.808765984628, -8304.83535585825, -31294.3868391975, -30714.47082930456, -19959.61606021119, -22226.105299723782, -20762.714238490375, -24150.83636651473, -39649.60302705801, -0.011179580996744334, 0.9865784176699817, 0.05130999005772174, 192.0, 0.0, 0.0, 0.0, 0.0, 0.0, 0.0, 0.0, 0.0, 0.0, 1.743528300007038E9, 0.0, 2025-04-01 12:25:00.007
120.0, -47529.59877605424, -43969.52467793521, -2301.1344434183175, -49769.310625709375, 11086.822877743589, 5003.929734698503, -18166.31325081745, -25942.66396077442, -8309.059835560303, -31302.366411968043, -30715.45430606059, -19958.67728694407, -22231.22384920405, -20768.68215425994, -24162.12399746466, -39659.10251845152, -0.011589790498372167, 0.9842892088349908, 0.05265499502886087, 192.0, 127.5, 80.0, 15.0, 88.0, 0.5, 88.0, 0.0, 0.0, 0.0, 1.743528300066657E9, 0.0, 2025-04-01 12:25:00.066
122.0, -47534.091476689755, -43958.21469524082, -2303.7719492640435, -49780.1512217702, 11107.654703575934, 5000.08523465219, -18162.915785660243, -25946.128481164993, -8300.409710456099, -31294.163321752945, -30699.87514017524, -19951.122397318173, -22218.796279286897, -20764.502378046796, -24153.02683747135, -39656.21914341678, -0.011589790498372167, 0.9842892088349908, 0.05265499502886087, 192.0, 0.0, 0.0, 0.0, 0.0, 0.0, 0.0, 0.0, 0.0, 0.0, 1.743528300066816E9, 0.0, 2025-04-01 12:25:00.066
124.0, -47533.398572611644, -43990.49061423429, -2301.0673881849516, -49779.68183513664, 11072.182485125362, 4992.552696770751, -18168.950756663176, -25960.053617960646, -8304.276562246867, -31307.216740514847, -30697.662317474165, -19958.207900310506, -22221.97022699955, -20771.051439172203, -24157.430131129044, -39655.16861142738, -0.011589790498372167, 0.9842892088349908, 0.05265499502886087, 192.0, 0.0, 0.0, 0.0, 0.0, 0.0, 0.0, 0.0, 0.0, 0.0, 1.743528300066963E9, 0.0, 2025-04-01 12:25:00.066
126.0, -47536.192540668555, -43989.216564800336, -2299.9050974732754, -49777.17843975764, 11106.6712268199, 5001.001656174857, -18171.521207275535, -25940.294675862155, -8310.982085583459, -31306.590891670097, -30704.16667511066, -19961.918289890087, -22232.497898638, -20777.622852042063, -24162.235756186936, -39660.13069869646, -0.011589790498372167, 0.9842892088349908, 0.05265499502886087, 192.0, 0.0, 0.0, 0.0, 0.0, 0.0, 0.0, 0.0, 0.0, 0.0, 1.743528300067097E9, 0.0, 2025-04-01 12:25:00.067
128.0, -47521.440389328054, -43958.728785363295, -2284.728262988122, -49759.095878493295, 11089.236866144762, 5007.975400444913, -18156.12085534583, -25945.36852185351, -8298.465108688488, -31298.521911921733, -30692.25319531598, -19942.42756872506, -22227.088776479814, -20764.614136769073, -24145.360189123177, -39640.79643974262, -0.011589790498372167, 0.9842892088349908, 0.05265499502886087, 192.0, 0.0, 0.0, 0.0, 0.0, 0.0, 0.0, 0.0, 0.0, 0.0, 1.743528300067223E9, 0.0, 2025-04-01 12:25:00.067
130.0, -47540.037040714866, -43973.57034368162, -2305.7389027761105, -49782.67696889365, 11126.92190729641, 4990.071653136212, -18172.8399601984, -25959.4277691159, -8299.850916844716, -31295.34796420908, -30695.98593664002, -19946.652048427113, -22227.222886946547, -20768.97272693786, -24145.82957575674, -39656.66617830589, -0.011794895249186085, 0.9841446044174954, 0.05332749751443043, 192.0, 127.5, 80.0, 15.0, 96.0, 0.5, 88.0, 0.0, 0.0, 0.0, 1.743528300067365E9, 0.0, 2025-04-01 12:25:00.067
132.0, -47545.11088670622, -43981.75108215226, -2313.8302342689317, -49784.08512879433, 11078.843304973043, 4988.79760370226, -18180.774829480033, -25965.887423263484, -8311.049140816825, -31308.66960390444, -30708.88289319073, -19960.57718522277, -22234.129575983236, -20775.49943631881, -24157.318372406768, -39664.064605720596, -0.011794895249186085, 0.9841446044174954, 0.05332749751443043, 192.0, 0.0, 0.0, 0.0, 0.0, 0.0, 0.0, 0.0, 0.0, 0.0, 1.743528300067507E9, 0.0, 2025-04-01 12:25:00.067
134.0, -47550.40825014213, -43980.6334949295, -2318.591155837912, -49785.739157884025, 11121.043398504664, 5005.851984721659, -18168.079038629417, -25934.95260893734, -8314.357198996211, -31304.042792802193, -30714.157904882184, -19962.678249201566, -22240.477471408543, -20768.860968215584, -24158.659477074085, -39661.74002429724, -0.011794895249186085, 0.9841446044174954, 0.05332749751443043, 192.0, 0.0, 0.0, 0.0, 0.0, 0.0, 0.0, 0.0, 0.0, 0.0, 1.743528300125625E9, 0.0, 2025-04-01 12:25:00.125
136.0, -47552.21874144301, -43991.76466366824, -2323.6202983403564, -49785.78386137293, 11075.110563649007, 4994.676112494006, -18180.908939946763, -25948.363655610523, -8325.287202034855, -31312.312938250656, -30723.65739627569, -19967.14859809263, -22249.529927912943, -20778.002831697802, -24165.633221344142, -39662.164707441894, -0.011794895249186085, 0.9841446044174954, 0.05332749751443043, 192.0, 0.0, 0.0, 0.0, 0.0, 0.0, 0.0, 0.0, 0.0, 0.0, 1.74352830012577E9, 0.0, 2025-04-01 12:25:00.125
138.0, -47543.90389250564, -43979.761776895735, -2321.854510528387, -49788.108442796285, 11113.95789551233, 4995.905458439048, -18170.582434008415, -25953.146928923958, -8316.570021697285, -31302.321708479132, -30716.84011421682, -19960.13015033366, -22245.73013135554, -20771.02908742775, -24166.281421933345, -39656.75558528371, -0.011794895249186085, 0.9841446044174954, 0.05332749751443043, 192.0, 0.0, 0.0, 0.0, 0.0, 0.0, 0.0, 0.0, 0.0, 0.0, 1.743528300125911E9, 0.0, 2025-04-01 12:25:00.125
140.0, -47543.27804366089, -43986.89198337698, -2318.1217692043506, -49790.52243119746, 11075.311729349105, 4987.545906012762, -18180.55131203548, -25961.528833094697, -8318.939306609549, -31298.05252528817, -30717.398907828203, -19963.840539913243, -22242.086797009328, -20771.96786069487, -24168.561299867786, -39662.90231500892, -0.008897447624593043, 0.9850723022087478, 0.058663748757215216, 192.0, 127.5, 104.0, 15.0, 104.0, 1.0, 0.0, 0.0, 0.0, 0.0, 1.743528300126051E9, 0.0, 2025-04-01 12:25:00.126
142.0, -47543.70272680554, -43983.405111241955, -2320.7816267945323, -49799.73134991305, 11103.027892473685, 4978.98518788638, -18192.26362613006, -25961.551184839154, -8317.866422875693, -31307.66377540395, -30716.773058983454, -19968.847330671233, -22241.21507897557, -20777.82401774216, -24176.45146566051, -39675.62045760399, -0.008897447624593043, 0.9850723022087478, 0.058663748757215216, 192.0, 0.0, 0.0, 0.0, 0.0, 0.0, 0.0, 0.0, 0.0, 0.0, 1.743528300126193E9, 0.0, 2025-04-01 12:25:00.126
144.0, -47533.063296444816, -43973.346826237066, -2313.4502546131916, -49793.80813763239, 11074.507066548715, 4976.079461107191, -18172.236463098106, -25952.23050740129, -8314.424254229576, -31314.078726062624, -30714.962567682574, -19971.95422315052, -22242.176203987146, -20786.720012035374, -24174.03747725934, -39682.39303617395, -0.008897447624593043, 0.9850723022087478, 0.058663748757215216, 192.0, 0.0, 0.0, 0.0, 0.0, 0.0, 0.0, 0.0, 0.0, 0.0, 1.743528300126332E9, 0.0, 2025-04-01 12:25:00.126
146.0, -47533.398572611644, -43984.41093974244, -2315.6183738253562, -49795.596277188815, 11113.91319202342, 4979.789850686771, -18172.571739264935, -25967.653211075452, -8305.103576791713, -31307.753182381774, -30705.7983524559, -19963.99700212443, -22234.151927727693, -20779.858026487593, -24164.82855854375, -39675.799271559634, -0.008897447624593043, 0.9850723022087478, 0.058663748757215216, 192.0, 0.0, 0.0, 0.0, 0.0, 0.0, 0.0, 0.0, 0.0, 0.0, 1.743528300126469E9, 0.0, 2025-04-01 12:25:00.126
148.0, -47536.23724415746, -43984.81327114264, -2314.7466557915996, -49793.361102743285, 11098.177563926884, 4978.292283808266, -18173.912843932252, -25974.00110650076, -8312.479652461965, -31310.72596439433, -30714.135553137727, -19973.00475513992, -22241.59505863131, -20787.03293645775, -24167.980154511948, -39680.58254487307, -0.008897447624593043, 0.9850723022087478, 0.058663748757215216, 192.0, 0.0, 0.0, 0.0, 0.0, 0.0, 0.0, 0.0, 0.0, 0.0, 1.743528300126604E9, 0.0, 2025-04-01 12:25:00.126
150.0, -47530.15756966562, -43974.106785548545, -2306.521213832046, -49779.793593858914, 11120.10462523754, 5001.627505019606, -18164.614518238846, -25929.767004223708, -8306.243515758933, -31311.57533068363, -30705.999518155997, -19969.026144626874, -22237.907020796185, -20776.706430519396, -24162.25810793139, -39659.169573684885, -0.007448723812296522, 0.9865361511043739, 0.05933187437860761, 192.0, 127.5, 104.0, 15.0, 112.0, 0.5, 112.0, 0.0, 0.0, 0.0, 1.743528300185889E9, 0.0, 2025-04-01 12:25:00.185
152.0, -47530.40343885463, -43971.33516923609, -2304.1072254308733, -49772.171648999654, 11101.217401172806, 5005.89668821057, -18167.050858384475, -25936.047844415647, -8305.908239592105, -31307.373202726034, -30706.04422164491, -19965.829845169766, -22242.287962709423, -20771.185549638933, -24160.4029131416, -39651.614684058986, -0.007448723812296522, 0.9865361511043739, 0.05933187437860761, 192.0, 0.0, 0.0, 0.0, 0.0, 0.0, 0.0, 0.0, 0.0, 0.0, 1.743528300186058E9, 0.0, 2025-04-01 12:25:00.186
154.0, -47526.961270208514, -43971.06694830262, -2304.9789434646304, -49775.591465901314, 11110.001636743742, 4998.632371262595, -18166.223843839627, -25947.80486199914, -8292.363082452188, -31295.39266769799, -30691.247366815493, -19947.859042627697, -22234.86718355026, -20759.2497180998, -24156.021971228358, -39643.791573499635, -0.007448723812296522, 0.9865361511043739, 0.05933187437860761, 192.0, 0.0, 0.0, 0.0, 0.0, 0.0, 0.0, 0.0, 0.0, 0.0, 1.743528300186204E9, 0.0, 2025-04-01 12:25:00.186
156.0, -47528.68235453157, -43976.52077394972, -2309.762216778066, -49781.31351248187, 11101.284456406172, 4997.067749150723, -18169.084867129906, -25938.864164217015, -8303.583658168753, -31297.158455509958, -30700.41158204217, -19952.061170585297, -22250.334590713333, -20770.403238583, -24163.219232942967, -39662.8129080311, -0.007448723812296522, 0.9865361511043739, 0.05933187437860761, 192.0, 0.0, 0.0, 0.0, 0.0, 0.0, 0.0, 0.0, 0.0, 0.0, 1.743528300186336E9, 0.0, 2025-04-01 12:25:00.186
158.0, -47516.344191592245, -43947.93289279138, -2298.8322137394207, -49772.32811121084, 11105.8218605306, 5002.432167819997, -18159.96535539214, -25930.1693356239, -8295.40291969811, -31297.58313865461, -30693.70605870558, -19954.13988281964, -22240.83509931983, -20761.440189056422, -24165.432055644043, -39659.10251845152, -0.007448723812296522, 0.9865361511043739, 0.05933187437860761, 192.0, 0.0, 0.0, 0.0, 0.0, 0.0, 0.0, 0.0, 0.0, 0.0, 1.743528300186463E9, 0.0, 2025-04-01 12:25:00.186
160.0, -47537.310127891324, -43977.63836117248, -2313.8525860133873, -49788.01903581846, 11110.471023377302, 4990.8763159366035, -18174.091657887897, -25955.247992902758, -8296.520506920875, -31293.3363072081, -30696.880006418232, -19952.485853729948, -22243.78552958793, -20769.82209322716, -24157.988924740428, -39665.9645039993, -0.00472436190614826, 0.987268075552187, 0.053665937189303806, 192.0, 127.5, 120.0, 15.0, 112.0, 0.5, 64.0, 0.0, 0.0, 0.0, 1.743528300186745E9, 0.0, 2025-04-01 12:25:00.186
162.0, -47535.45493310153, -43976.78899488318, -2311.438597612214, -49783.347521227304, 11097.730529037777, 4987.836478690681, -18173.778733465522, -25946.553164309644, -8306.39997797012, -31304.489827691297, -30706.714773978565, -19962.410028268103, -22250.51340466898, -20771.02908742775, -24166.527291122355, -39664.93632375435, -0.00472436190614826, 0.987268075552187, 0.053665937189303806, 192.0, 0.0, 0.0, 0.0, 0.0, 0.0, 0.0, 0.0, 0.0, 0.0, 1.743528300186899E9, 0.0, 2025-04-01 12:25:00.186
164.0, -47538.51712209191, -43980.119404807025, -2317.2947546595046, -49785.15801252818, 11113.466157134313, 4993.983208415891, -18189.894341217798, -25950.598830056053, -8308.411634971098, -31301.360583467555, -30710.849846702797, -19967.32741204827, -22251.094550024816, -20771.051439172203, -24168.44954114551, -39670.68072207936, -0.00472436190614826, 0.987268075552187, 0.053665937189303806, 192.0, 0.0, 0.0, 0.0, 0.0, 0.0, 0.0, 0.0, 0.0, 0.0, 1.743528300247661E9, 0.0, 2025-04-01 12:25:00.247
166.0, -47542.42867737159, -43990.31180027864, -2322.7485803065993, -49796.04331207792, 11093.14842142444, 4985.55660075624, -18176.058611399963, -25963.629897073497, -8312.479652461965, -31306.345022481088, -30711.78861996992, -19968.065019615296, -22254.22379424856, -20772.705468261895, -24171.087046991237, -39661.31534115259, -0.00472436190614826, 0.987268075552187, 0.053665937189303806, 192.0, 0.0, 0.0, 0.0, 0.0, 0.0, 0.0, 0.0, 0.0, 0.0, 1.743528300247843E9, 0.0, 2025-04-01 12:25:00.247
168.0, -47547.9719099965, -43985.573230454116, -2330.281118188038, -49804.91695462668, 11115.164889712918, 4980.326292553698, -18177.734992234113, -25955.47151034731, -8317.59820194223, -31314.324595251634, -30720.21522762957, -19982.079563388776, -22260.817558862873, -20780.88620673254, -24181.480608162954, -39680.984876273265, -0.00472436190614826, 0.987268075552187, 0.053665937189303806, 192.0, 0.0, 0.0, 0.0, 0.0, 0.0, 0.0, 0.0, 0.0, 0.0, 1.743528300247985E9, 0.0, 2025-04-01 12:25:00.247
170.0, -47546.809619284824, -43989.66359968944, -2328.2024059536943, -49798.43494873464, 11087.00169169923, 4990.831612447692, -18175.92450093323, -25942.46279507432, -8318.112292064701, -31317.431487730923, -30720.03641367393, -19983.95710992302, -22267.657192666196, -20780.796799754717, -24183.604023886208, -39672.06653023559, -0.0033621809530741302, 0.9876340377760935, 0.0508329685946519, 192.0, 127.5, 120.0, 15.0, 112.0, 0.5, 64.0, 0.0, 0.0, 0.0, 1.743528300248111E9, 0.0, 2025-04-01 12:25:00.248
172.0, -47550.05062223085, -43992.18934681289, -2338.9759467811523, -49810.124911084764, 11114.404930401437, 4978.716966952917, -18194.007062197576, -25960.65711506094, -8320.146300810135, -31312.558807439666, -30724.976149198552, -19983.53242677837, -22275.077971825358, -20780.036840443237, -24186.152122754112, -39684.56115538611, -0.0033621809530741302, 0.9876340377760935, 0.0508329685946519, 192.0, 0.0, 0.0, 0.0, 0.0, 0.0, 0.0, 0.0, 0.0, 0.0, 1.743528300248255E9, 0.0, 2025-04-01 12:25:00.248
174.0, -47546.25082567344, -43981.929896107904, -2323.9108710182754, -49788.01903581846, 11087.00169169923, 4990.2281153474, -18179.053745156973, -25945.79320499816, -8314.983047840959, -31306.47913294782, -30719.432916573634, -19972.66947897309, -22267.321916499368, -20778.941604964926, -24179.647765117617, -39674.122890725484, -0.0033621809530741302, 0.9876340377760935, 0.0508329685946519, 192.0, 0.0, 0.0, 0.0, 0.0, 0.0, 0.0, 0.0, 0.0, 0.0, 1.74352830024839E9, 0.0, 2025-04-01 12:25:00.248
176.0, -47561.159439225135, -43986.266134532234, -2340.8311415709427, -49803.57584995936, 11111.834479789077, 4980.907437909536, -18196.26458838756, -25968.390818642478, -8317.844071131238, -31304.512179435755, -30723.925617209152, -19970.38960103865, -22277.89429162673, -20774.29244211822, -24176.339706938234, -39675.26282969271, -0.0033621809530741302, 0.9876340377760935, 0.0508329685946519, 192.0, 0.0, 0.0, 0.0, 0.0, 0.0, 0.0, 0.0, 0.0, 0.0, 1.743528300248538E9, 0.0, 2025-04-01 12:25:00.248
178.0, -47546.69786056255, -43980.32057050712, -2326.07899023044, -49792.176460287155, 11075.132915393462, 4983.924923411003, -18179.83605621291, -25962.177033683904, -8320.950963610527, -31316.649176674986, -30725.691405021124, -19978.033897642363, -22283.437524251643, -20787.703488791405, -24184.788666342338, -39681.92364954038, -0.0033621809530741302, 0.9876340377760935, 0.0508329685946519, 192.0, 0.0, 0.0, 0.0, 0.0, 0.0, 0.0, 0.0, 0.0, 0.0, 1.743528300248666E9, 0.0, 2025-04-01 12:25:00.248
180.0, -47554.230398443986, -43994.62568695852, -2329.7893798100213, -49803.19587030362, 11129.514709653224, 4989.043472891268, -18185.960434193665, -25962.914641250925, -8311.473823961476, -31302.05348754567, -30714.22496011555, -19965.874548658678, -22267.12075079927, -20774.515959562774, -24169.477721390453, -39668.9149342674, -0.005681090476537065, 0.9828170188880467, 0.053416484297325956, 192.0, 127.5, 96.0, 15.0, 72.0, 0.5, 96.0, 0.0, 0.0, 0.0, 1.74352830030656E9, 0.0, 2025-04-01 12:25:00.306
182.0, -47543.59096808326, -43981.63932342998, -2322.5474146065017, -49794.121062054764, 11086.219380643295, 4991.278647336799, -18176.79621896699, -25941.568725296107, -8322.895565378138, -31319.174923798437, -30726.98780619953, -19984.80647621232, -22280.442390494634, -20789.379869625554, -24181.54766339632, -39684.874079808484, -0.005681090476537065, 0.9828170188880467, 0.053416484297325956, 192.0, 0.0, 0.0, 0.0, 0.0, 0.0, 0.0, 0.0, 0.0, 0.0, 1.743528300306762E9, 0.0, 2025-04-01 12:25:00.306
184.0, -47552.64342458766, -43984.99208509828, -2333.924452534253, -49801.005399347, 11122.406854916437, 4995.547830527763, -18188.97791969513, -25955.4268068584, -8313.284315262355, -31309.228397515824, -30713.330890337336, -19974.90465341862, -22270.674678167663, -20770.58205253864, -24170.707067335497, -39667.08209122206, -0.005681090476537065, 0.9828170188880467, 0.053416484297325956, 192.0, 0.0, 0.0, 0.0, 0.0, 0.0, 0.0, 0.0, 0.0, 0.0, 1.743528300306897E9, 0.0, 2025-04-01 12:25:00.306
186.0, -47542.09340120476, -43984.56740195363, -2324.2237954406496, -49784.8003846169, 11080.542037551646, 4994.65376074955, -18180.596015524392, -25947.29077187667, -8320.235707787957, -31303.662813146453, -30718.851771217796, -19969.5625864938, -22285.158608574704, -20780.372116610066, -24177.613756372186, -39672.13358546896, -0.005681090476537065, 0.9828170188880467, 0.053416484297325956, 192.0, 0.0, 0.0, 0.0, 0.0, 0.0, 0.0, 0.0, 0.0, 0.0, 1.743528300307027E9, 0.0, 2025-04-01 12:25:00.307
188.0, -47549.80475304184, -43989.03775084469, -2329.7670280655657, -49795.61862893327, 11112.236811189272, 4987.076519379201, -18192.688309274712, -25972.52589136671, -8315.675951919075, -31304.847455602583, -30714.560236282377, -19965.606327725214, -22284.935091130148, -20780.975613710358, -24177.74786683892, -39673.31822792509, -0.005681090476537065, 0.9828170188880467, 0.053416484297325956, 192.0, 0.0, 0.0, 0.0, 0.0, 0.0, 0.0, 0.0, 0.0, 0.0, 1.743528300307172E9, 0.0, 2025-04-01 12:25:00.307
190.0, -47539.56765408131, -43974.866744860024, -2320.5804610944347, -49785.247419506006, 11081.011424185208, 4989.825783947204, -18195.45992558717, -25959.51717609372, -8313.351370495722, -31307.172037025935, -30712.503875792492, -19969.897862660633, -22283.37046901828, -20781.02031719927, -24178.5078261504, -39672.37945465797, -0.007840545238268532, 0.9834085094440234, 0.05270824214866298, 192.0, 127.5, 88.0, 15.0, 96.0, 0.5, 80.0, 0.0, 0.0, 0.0, 1.74352830030731E9, 0.0, 2025-04-01 12:25:00.307
192.0, -47550.65411933114, -43998.93957363839, -2328.247109442605, -49796.6021056893, 11115.544869368658, 4986.428318789997, -18198.544466322, -25954.868013247018, -8314.290143762844, -31303.931034079917, -30708.637024001724, -19967.506226003912, -22278.609547449298, -20776.460561330387, -24175.06565750428, -39660.913009752396, -0.007840545238268532, 0.9834085094440234, 0.05270824214866298, 192.0, 0.0, 0.0, 0.0, 0.0, 0.0, 0.0, 0.0, 0.0, 0.0, 1.743528300307446E9, 0.0, 2025-04-01 12:25:00.307
194.0, -47551.59289259826, -43992.12229157952, -2328.962365265175, -49795.97625684455, 11079.245636373238, 4974.98422562888, -18193.671786030744, -25958.153719681948, -8332.395056771644, -31322.460630233367, -30726.16079165468, -19984.851179701232, -22295.395707535234, -20797.49355286283, -24188.253186732913, -39682.12481524048, -0.007840545238268532, 0.9834085094440234, 0.05270824214866298, 192.0, 0.0, 0.0, 0.0, 0.0, 0.0, 0.0, 0.0, 0.0, 0.0, 1.743528300366774E9, 0.0, 2025-04-01 12:25:00.366
196.0, -47543.54626459435, -43982.84631763057, -2325.36373440787, -49793.47286146556, 11111.923886766897, 4975.453612262441, -18186.988614438607, -25956.544394081164, -8318.067588575792, -31312.983490584316, -30711.922730436654, -19970.970746394487, -22283.906910885205, -20785.892997490526, -24178.619584872675, -39673.47469013628, -0.007840545238268532, 0.9834085094440234, 0.05270824214866298, 192.0, 0.0, 0.0, 0.0, 0.0, 0.0, 0.0, 0.0, 0.0, 0.0, 1.743528300366948E9, 0.0, 2025-04-01 12:25:00.366
198.0, -47533.532683078374, -43982.82396588611, -2322.145083206306, -49786.23089626204, 11096.031796459174, 4974.805411673237, -18200.82434425644, -25963.29462090667, -8312.613762928697, -31309.09428704909, -30707.765305967965, -19967.170949837084, -22284.55511147441, -20786.563549824186, -24178.68664010604, -39679.95669602832, -0.007840545238268532, 0.9834085094440234, 0.05270824214866298, 192.0, 0.0, 0.0, 0.0, 0.0, 0.0, 0.0, 0.0, 0.0, 0.0, 1.743528300367097E9, 0.0, 2025-04-01 12:25:00.367
200.0, -47522.982659695466, -43960.58398015308, -2311.349190634393, -49770.8975995657, 11125.044360762164, 4993.536173526785, -18180.50660854657, -25948.251896888247, -8298.934495322048, -31302.85815034606, -30693.393134283204, -19959.459598, -22274.966213103082, -20774.180683395945, -24170.12592197966, -39668.736120311754, -0.01, 0.982, 0.05, 192.0, 127.5, 88.0, 15.0, 88.0, 0.5, 72.0, 0.0, 0.0, 0.0, 1.743528300367228E9, 0.0, 2025-04-01 12:25:00.367
202.0, -47532.63861330016, -43982.60044844156, -2320.7145715611664, -49781.29116073742, 11106.201840186339, 4980.393347787064, -18196.08577443192, -25970.04484773217, -8300.700283134018, -31296.085571776104, -30695.628308728734, -19951.010638595897, -22286.03032660846, -20772.19137813942, -24167.957802767494, -39669.83135579006, -0.01, 0.982, 0.05, 192.0, 0.0, 0.0, 0.0, 0.0, 0.0, 0.0, 0.0, 0.0, 0.0, 1.743528300367375E9, 0.0, 2025-04-01 12:25:00.367
204.0, -47547.50252336294, -43973.90561984845, -2333.7009350896997, -49794.14341379922, 11102.53615409567, 4977.286455307777, -18196.823381998944, -25954.1751091689, -8304.701245391518, -31307.552016681675, -30701.149189609194, -19958.47612124397, -22289.830123165862, -20778.740439264828, -24177.032611016348, -39671.23951569075, -0.01, 0.982, 0.05, 192.0, 0.0, 0.0, 0.0, 0.0, 0.0, 0.0, 0.0, 0.0, 0.0, 1.743528300367529E9, 0.0, 2025-04-01 12:25:00.367
206.0, -47550.18473269758, -43988.34484676657, -2332.7174583336664, -49792.936419598635, 11095.785927270166, 4980.147478598056, -18196.912788976766, -25962.24408891727, -8320.79450139934, -31320.2925110212, -30719.544675295914, -19975.642260985645, -22310.75135597603, -20795.526599350764, -24187.761448354897, -39684.18117573037, -0.01, 0.982, 0.05, 192.0, 0.0, 0.0, 0.0, 0.0, 0.0, 0.0, 0.0, 0.0, 0.0, 1.743528300367665E9, 0.0, 2025-04-01 12:25:00.367
208.0, -47550.11767746421, -43994.26805904723, -2334.7067635901885, -49792.04234982042, 11095.920037736898, 4986.674187979006, -18190.475486573636, -25970.827158788106, -8310.870326861183, -31313.832856873618, -30707.117105378762, -19967.640336470646, -22297.921454658685, -20780.126247421056, -24180.519483151376, -39667.90910576691, -0.01, 0.982, 0.05, 192.0, 0.0, 0.0, 0.0, 0.0, 0.0, 0.0, 0.0, 0.0, 0.0, 1.743528300367793E9, 0.0, 2025-04-01 12:25:00.367
210.0, -47542.18280818258, -43983.56157345314, -2323.4191326402583, -49784.44275670562, 11109.018159987709, 4997.023045661813, -18180.596015524392, -25956.119710936513, -8312.814928628793, -31311.62003417254, -30707.787657712423, -19969.80845568281, -22299.709594215106, -20778.762791009285, -24178.59723312822, -39667.52912611117, -0.01, 0.986, 0.05, 192.0, 127.5, 88.0, 15.0, 104.0, 0.5, 72.0, 0.0, 0.0, 0.0, 1.743528300426778E9, 0.0, 2025-04-01 12:25:00.426
212.0, -47548.46364837452, -43982.39928274146, -2326.8389495419206, -49789.51660269697, 11095.987092970265, 4993.849097949159, -18178.40554456777, -25955.203289413847, -8303.74012037994, -31303.662813146453, -30698.064648874362, -19962.8123596683, -22282.78932366244, -20774.560663051685, -24172.249337702913, -39661.89648650843, -0.01, 0.986, 0.05, 192.0, 0.0, 0.0, 0.0, 0.0, 0.0, 0.0, 0.0, 0.0, 0.0, 1.743528300426975E9, 0.0, 2025-04-01 12:25:00.426
214.0, -47553.44808738805, -43992.99400961328, -2332.8739205448533, -49795.797442888914, 11108.414662887415, 4987.300036823754, -18189.536713306512, -25958.42194061541, -8317.709960664506, -31311.95531033937, -30711.922730436654, -19974.368211551693, -22293.69697495663, -20786.25062540181, -24183.87224481967, -39674.34640817004, -0.01, 0.986, 0.05, 192.0, 0.0, 0.0, 0.0, 0.0, 0.0, 0.0, 0.0, 0.0, 0.0, 1.743528300427106E9, 0.0, 2025-04-01 12:25:00.427
216.0, -47545.423811128596, -43975.000855326754, -2326.056638485985, -49790.99181783102, 11089.14745916694, 4988.574086257707, -18174.851617199376, -25948.765987010716, -8313.306667006811, -31320.068993576646, -30707.36297456777, -19972.557720250814, -22276.709649170596, -20783.188436411434, -24181.83823607424, -39669.160803456405, -0.01, 0.986, 0.05, 192.0, 0.0, 0.0, 0.0, 0.0, 0.0, 0.0, 0.0, 0.0, 0.0, 1.743528300427249E9, 0.0, 2025-04-01 12:25:00.427
