%OpenBCI Raw EXG Data
%Number of channels = 16
%Sample Rate = 125 Hz
%Board = OpenBCI_GUI$BoardCytonSerialDaisy
Sample Index, EXG Channel 0, EXG Channel 1, EXG Channel 2, EXG Channel 3, EXG Channel 4, EXG Channel 5, EXG Channel 6, EXG Channel 7, EXG Channel 8, EXG Channel 9, EXG Channel 10, EXG Channel 11, EXG Channel 12, EXG Channel 13, EXG Channel 14, EXG Channel 15, Accel Channel 0, Accel Channel 1, Accel Channel 2, Not Used, Digital Channel 0 (D11), Digital Channel 1 (D12), Digital Channel 2 (D13), Digital Channel 3 (D17), Not Used, Digital Channel 4 (D18), Analog Channel 0, Analog Channel 1, Analog Channel 2, Timestamp, Marker Channel, Timestamp (Formatted)
100.0, 12576.29842475634, -29102.083039532074, -42349.067908414356, -28023.477259096773, -22341.283838901978, 3296.6140862243283, -35220.24723532763, 14710.018302204408, 5949.475580391358, -15198.068642386037, -34239.69855781776, -3373.392328428308, -34613.50913208832, -13233.797339653653, -17573.96967100736, 5173.266550691909, 0.0, 0.0, 0.0, 192.0, 0.0, 0.0, 0.0, 0.0, 0.0, 0.0, 0.0, 0.0, 0.0, 1.741809003090929E9, 0.0, 2025-03-12 14:50:03.090
102.0, 12621.44894855606, -29111.291958247657, -42354.588789294816, -27985.00990688919, -22339.160423178724, 3330.4769790741184, -35222.2141888397, 14712.700511539044, 5940.9148622649745, -15201.287293587602, -34236.81518278303, -3374.5993226288942, -34606.84831224064, -13233.506766975734, -17570.303984916685, 5170.40552740163, -0.116, 0.966, -0.14200000000000002, 192.0, 126.0, 48.0, 15.0, 24.0, 125.5, 72.0, 0.0, 0.0, 0.0, 1.741809003091032E9, 0.0, 2025-03-12 14:50:03.091
104.0, 12577.684232912568, -29111.157847780927, -42353.65001602769, -28025.69008179785, -22345.105987203835, 3292.255496055543, -35224.06938362949, 14703.20102014554, 5940.020792486763, -15205.087090145003, -34244.97356950922, -3379.6508168757937, -34617.510094345824, -13241.5757467241, -17577.00950825328, 5171.590169857761, -0.116, 0.966, -0.14200000000000002, 192.0, 0.0, 0.0, 0.0, 0.0, 0.0, 0.0, 0.0, 0.0, 0.0, 1.7418090030911E9, 0.0, 2025-03-12 14:50:03.091
106.0, 12639.486806331493, -29102.39596395445, -42343.21175136707, -27982.417104532375, -22333.55013532044, 3311.746217220571, -35221.63304348386, 14709.280694637382, 5950.548464125212, -15193.53123826161, -34231.137839691386, -3374.644026117805, -34600.455713326424, -13229.975191351796, -17571.689793072914, 5177.111050738222, -0.116, 0.966, -0.14200000000000002, 192.0, 0.0, 0.0, 0.0, 0.0, 0.0, 0.0, 0.0, 0.0, 0.0, 1.741809003091162E9, 0.0, 2025-03-12 14:50:03.091
108.0, 12589.307140029328, -29111.76134488122, -42359.975559708546, -28009.239197878745, -22347.94465874966, 3301.3750077933087, -35229.32204357649, 14700.116479410706, 5946.569853612167, -15192.905389416861, -34235.742299049176, -3366.552694624984, -34606.58009130718, -13232.970325108807, -17572.405048895485, 5173.557123369828, -0.116, 0.966, -0.14200000000000002, 192.0, 0.0, 0.0, 0.0, 0.0, 0.0, 0.0, 0.0, 0.0, 0.0, 1.741809003091223E9, 0.0, 2025-03-12 14:50:03.091
110.0, 12636.424617341116, -29122.04314733066, -42360.42259459765, -27983.02060163267, -22342.08850170237, 3326.9901069390903, -35229.34439532094, 14702.798688745343, 5938.590280841623, -15203.187191866302, -34243.81127879754, -3375.649854618294, -34611.430419853976, -13232.836214642075, -17579.267034443266, 5166.248102932943, -0.116, 0.966, -0.14200000000000002, 192.0, 0.0, 0.0, 0.0, 0.0, 0.0, 0.0, 0.0, 0.0, 0.0, 1.741809003091307E9, 0.0, 2025-03-12 14:50:03.091
112.0, 12586.647282439148, -29121.976092097295, -42366.14464117821, -28023.07492769658, -22348.056417471937, 3297.262286813532, -35233.904151189825, 14688.828848460776, 5931.437722615925, -15215.123023405436, -34249.35451142246, -3380.5672383984615, -34614.20203616643, -13244.727342692298, -17581.39045016652, 5152.658242304116, -0.116, 0.968, -0.146, 192.0, 126.0, 48.0, 15.0, 32.0, 125.5, 56.0, 0.0, 0.0, 0.0, 1.741809003091368E9, 0.0, 2025-03-12 14:50:03.091
114.0, 12625.718131747024, -29127.541676466666, -42353.94058870561, -28001.371383830476, -22333.5724870649, 3307.3429235628755, -35225.67870923027, 14696.763717742411, 5931.88475750503, -15216.777052495128, -34249.42156665582, -3393.777119371548, -34611.028088453786, -13244.928508392395, -17582.932720533936, 5153.820533015792, -0.116, 0.968, -0.146, 192.0, 0.0, 0.0, 0.0, 0.0, 0.0, 0.0, 0.0, 0.0, 0.0, 1.741809003091433E9, 0.0, 2025-03-12 14:50:03.091
116.0, 12586.133192316674, -29126.37938575499, -42357.78508875192, -28018.29165438314, -22341.216783668613, 3294.1777460787, -35225.94693016374, 14699.758851499422, 5925.514510335268, -15216.285314117113, -34249.15334572236, -3378.7120436086707, -34604.724896517386, -13238.558261222634, -17575.936624519425, 5156.301576650331, -0.116, 0.968, -0.146, 192.0, 0.0, 0.0, 0.0, 0.0, 0.0, 0.0, 0.0, 0.0, 0.0, 1.741809003091502E9, 0.0, 2025-03-12 14:50:03.091
118.0, 12615.682198486591, -29135.700063192853, -42359.72969051954, -28001.01375591919, -22339.540402834464, 3303.878403172303, -35225.522247019086, 14704.028034690386, 5922.5417283227125, -15219.146337407392, -34259.18927898279, -3394.380616471841, -34613.240911154855, -13237.105397833038, -17583.446810656405, 5160.146076696644, -0.116, 0.968, -0.146, 192.0, 0.0, 0.0, 0.0, 0.0, 0.0, 0.0, 0.0, 0.0, 0.0, 1.741809003091577E9, 0.0, 2025-03-12 14:50:03.091
120.0, 12584.657977182625, -29128.413394500425, -42356.71220501807, -28010.87087522398, -22343.161385436226, 3310.203946853155, -35221.99067139514, 14710.19711616005, 5915.053893930184, -15221.985008953216, -34255.30007544757, -3378.4661744196624, -34613.4197251105, -13233.171490808903, -17581.703374588895, 5164.258797676421, -0.116, 0.968, -0.146, 192.0, 0.0, 0.0, 0.0, 0.0, 0.0, 0.0, 0.0, 0.0, 0.0, 1.741809003091646E9, 0.0, 2025-03-12 14:50:03.091
122.0, 12612.910582174132, -29134.4260137589, -42349.984329937026, -27996.96809017278, -22332.3207893754, 3305.4430252841744, -35212.669993957286, 14721.5741540878, 5928.330830136637, -15208.998645424683, -34257.49054640419, -3392.0336833040337, -34608.97172796389, -13230.533984963178, -17578.9988135098, 5183.727167096993, -0.114, 0.962, -0.148, 192.0, 126.0, 56.0, 15.0, 8.0, 125.5, 48.0, 0.0, 0.0, 0.0, 1.741809003091725E9, 0.0, 2025-03-12 14:50:03.091
124.0, 12578.48889571296, -29161.315162338637, -42378.415748884174, -28007.920444955882, -22359.09817923286, 3326.386609838797, -35234.30648259002, 14701.703453267033, 5901.620495512545, -15229.986933468215, -34262.27381971763, -3383.8305930889364, -34614.40320186653, -13239.42997925639, -17584.273825201253, 5171.478411135485, -0.114, 0.962, -0.148, 192.0, 0.0, 0.0, 0.0, 0.0, 0.0, 0.0, 0.0, 0.0, 0.0, 1.741809003091798E9, 0.0, 2025-03-12 14:50:03.091
0.0, 5566.031404260565, -14152.56579548905, -21192.538284365928, -14011.705101931704, -11216.530050817735, 1511.827291468059, -17589.43707817043, 7299.6103524697255, 2948.2621488883674, -7616.98277199063, -17137.462453539665, -1706.6674478849707, -17311.64959807987, -6624.364152474899, -8797.221934464209, 2582.095871221527, -0.106, 0.966, -0.154, 192.0, 126.0, 88.0, 15.0, 24.0, 125.5, 24.0, 0.0, 0.0, 0.0, 1.741809003178795E9, 0.0, 2025-03-12 14:50:03.178
2.0, 11173.793515419187, -28309.534884635796, -42378.9521907511, -27990.9554709143, -22429.506174267077, 3048.085039625769, -35179.47765344115, 14605.076861986741, 6340.094666492304, -15335.263649852712, -34253.3331219355, -3386.5575059124835, -34492.92147075194, -13159.790713762131, -17683.761439771824, 4807.56965965863, -0.106, 0.966, -0.154, 192.0, 0.0, 0.0, 0.0, 0.0, 0.0, 0.0, 0.0, 0.0, 0.0, 1.741809003239165E9, 0.0, 2025-03-12 14:50:03.239
4.0, 11155.35332624356, -28305.22099795592, -42381.27677217445, -28007.272244366675, -22433.037749891013, 3042.430048278576, -35180.215261008176, 14602.059376485275, 6338.01595425796, -15337.007085920226, -34242.06784273003, -3367.8267440589366, -34487.11001719356, -13152.906376469897, -17679.805181003238, 4810.050703293169, -0.106, 0.966, -0.154, 192.0, 0.0, 0.0, 0.0, 0.0, 0.0, 0.0, 0.0, 0.0, 0.0, 1.741809003239249E9, 0.0, 2025-03-12 14:50:03.239
6.0, 11179.850838166576, -28309.914864291535, -42379.466280873574, -27991.313098825587, -22429.550877755988, 3046.5874727472633, -35182.36102847588, 14599.08659447272, 6337.323050179845, -15334.70485624133, -34249.019235255626, -3380.0978517649, -34493.569671341145, -13154.091018926028, -17688.63412006308, 4808.1508050144685, -0.106, 0.966, -0.154, 192.0, 0.0, 0.0, 0.0, 0.0, 0.0, 0.0, 0.0, 0.0, 0.0, 1.741809003239358E9, 0.0, 2025-03-12 14:50:03.239
8.0, 11160.136599556996, -28311.45713465895, -42381.4555861301, -27999.695002996326, -22432.836584190918, 3043.100600612235, -35184.1044645434, 14596.27027467135, 6336.987774013016, -15333.69902774084, -34239.92207526232, -3362.4399736452074, -34487.132368938015, -13156.03562069364, -17682.107410682132, 4808.821357348127, -0.10200000000000001, 0.962, -0.154, 192.0, 126.0, 104.0, 15.0, 8.0, 125.5, 24.0, 0.0, 0.0, 0.0, 1.74180900323942E9, 0.0, 2025-03-12 14:50:03.239
10.0, 11187.383376048014, -28306.74091657888, -42371.33024589184, -27996.699869239317, -22417.01154911656, 3022.559347457808, -35172.86153708238, 14603.109908474675, 6339.155893225181, -15333.855489952028, -34253.02019751313, -3381.9083430657797, -34492.519139351745, -13158.471960839268, -17690.466963108418, 4806.47442418032, -0.10200000000000001, 0.962, -0.154, 192.0, 0.0, 0.0, 0.0, 0.0, 0.0, 0.0, 0.0, 0.0, 0.0, 1.741809003239487E9, 0.0, 2025-03-12 14:50:03.239
12.0, 11165.992756604286, -28325.42697494352, -42392.36323742429, -27990.82136044757, -22431.00374114558, 3045.3581268022212, -35183.52331918756, 14597.790193294311, 6330.572823354343, -15340.091626655058, -34243.25248518616, -3361.4341451447185, -34489.25578466127, -13154.091018926028, -17673.792561744758, 4801.422929933421, -0.10200000000000001, 0.962, -0.154, 192.0, 0.0, 0.0, 0.0, 0.0, 0.0, 0.0, 0.0, 0.0, 0.0, 1.74180900323956E9, 0.0, 2025-03-12 14:50:03.239
14.0, 11181.057832367163, -28318.564989395738, -42393.39141766923, -28002.69013675334, -22442.67135175125, 3021.2182427904895, -35195.9061856158, 14594.07980371473, 6327.756503552974, -15343.712609256818, -34265.179546496816, -3389.060901291478, -34512.97098552835, -13165.445705109323, -17705.59909410466, 4791.878735051005, -0.10200000000000001, 0.962, -0.154, 192.0, 0.0, 0.0, 0.0, 0.0, 0.0, 0.0, 0.0, 0.0, 0.0, 1.741809003239634E9, 0.0, 2025-03-12 14:50:03.239
16.0, 11181.281349811716, -28318.564989395738, -42389.77043506747, -27990.217863347276, -22430.064967878458, 3036.5068359979196, -35183.992705821125, 14601.388824151616, 6329.835215787318, -15342.572670289597, -34246.426432898814, -3364.541037624006, -34496.05071497568, -13158.51666432818, -17695.429050377494, 4795.052682763659, -0.10200000000000001, 0.962, -0.154, 192.0, 0.0, 0.0, 0.0, 0.0, 0.0, 0.0, 0.0, 0.0, 0.0, 1.741809003300676E9, 0.0, 2025-03-12 14:50:03.300
18.0, 11192.680739483922, -28315.32398644972, -42386.261211187986, -28008.143962400434, -22428.12036611085, 3002.3086669813, -35188.44070296773, 14597.432565383026, 6342.262785704468, -15339.018742921204, -34259.47985166071, -3383.38355819983, -34497.30241266518, -13163.277585897158, -17700.79346904677, 4795.4103106749435, -0.1, 0.9460000000000001, -0.162, 192.0, 126.0, 112.0, 14.5, 72.0, 125.0, 120.0, 0.0, 0.0, 0.0, 1.741809003300801E9, 0.0, 2025-03-12 14:50:03.300
20.0, 11187.495134770292, -28331.50664943536, -42402.265060217986, -27985.546348756117, -22445.44296806371, 3029.533091727864, -35203.12579907486, 14595.018576981853, 6342.933338038128, -15341.544490044653, -34247.476964888214, -3362.551732367484, -34489.03226721672, -13159.164864917382, -17704.01212024833, 4787.56484837113, -0.1, 0.9460000000000001, -0.162, 192.0, 0.0, 0.0, 0.0, 0.0, 0.0, 0.0, 0.0, 0.0, 0.0, 1.741809003300877E9, 0.0, 2025-03-12 14:50:03.300
22.0, 11185.103498113573, -28328.287998233798, -42394.33019093635, -28008.63570077845, -22438.938610427216, 2992.3844924431437, -35191.07820881346, 14595.107983959673, 6346.286099706424, -15347.244184880756, -34270.25339248817, -3396.5040321950955, -34511.36165992757, -13173.246463924226, -17723.54754490227, 4783.943865769371, -0.1, 0.9460000000000001, -0.162, 192.0, 0.0, 0.0, 0.0, 0.0, 0.0, 0.0, 0.0, 0.0, 0.0, 1.741809003300938E9, 0.0, 2025-03-12 14:50:03.300
24.0, 11199.5427250317, -28343.442480974496, -42393.30201069141, -27976.002153873702, -22434.982351658626, 3031.5894522177523, -35187.546633189515, 14606.999112009897, 6354.869169577261, -15331.285039339667, -34244.906514275855, -3369.547828381995, -34487.82527301613, -13152.03465843614, -17701.575780102707, 4803.702807867862, -0.1, 0.9460000000000001, -0.162, 192.0, 0.0, 0.0, 0.0, 0.0, 0.0, 0.0, 0.0, 0.0, 0.0, 1.741809003300999E9, 0.0, 2025-03-12 14:50:03.300
26.0, 11191.384338305514, -28340.42499547303, -42392.139719979736, -28012.480200824764, -22440.838508705918, 3018.5807369447634, -35197.31434551649, 14602.46170788547, 6345.794361328407, -15341.678600511385, -34271.37097971093, -3394.738244383126, -34511.808694816675, -13165.17748417586, -17719.479527411404, 4794.337426941089, -0.1, 0.9460000000000001, -0.162, 192.0, 0.0, 0.0, 0.0, 0.0, 0.0, 0.0, 0.0, 0.0, 0.0, 1.741809003301065E9, 0.0, 2025-03-12 14:50:03.301
28.0, 11213.579620549634, -28339.12859429462, -42380.315647162875, -27984.898148166914, -22429.684988222718, 3049.962586160015, -35187.30076400051, 14611.692978345513, 6346.375506684245, -15330.994466661748, -34252.170831223826, -3369.994863271101, -34497.68239232092, -13150.715905513276, -17713.578666875204, 4799.031293276703, -0.094, 0.96, -0.17, 192.0, 126.5, 8.0, 15.0, 0.0, 125.0, 88.0, 0.0, 0.0, 0.0, 1.741809003301148E9, 0.0, 2025-03-12 14:50:03.301
30.0, 11187.651596981477, -28347.063463576254, -42386.55178386591, -28021.890285240446, -22451.232069877635, 3023.3640102581994, -35206.29974678752, 14601.500582873892, 6337.121884479748, -15336.716513242307, -34271.68390413331, -3389.060901291478, -34512.38984017251, -13163.702269041809, -17725.380387947607, 4793.577467629608, -0.094, 0.96, -0.17, 192.0, 0.0, 0.0, 0.0, 0.0, 0.0, 0.0, 0.0, 0.0, 0.0, 1.741809003301213E9, 0.0, 2025-03-12 14:50:03.301
32.0, 11213.93724846092, -28353.94780086849, -42386.86470828828, -27983.378229543952, -22446.2476308641, 3059.1268013866907, -35204.01986885308, 14597.521972360848, 6328.024724486438, -15332.313219584612, -34260.59743888348, -3375.158116240277, -34500.31989816665, -13157.153207916404, -17721.89351581258, 4795.4103106749435, -0.094, 0.96, -0.17, 192.0, 0.0, 0.0, 0.0, 0.0, 0.0, 0.0, 0.0, 0.0, 0.0, 1.741809003359606E9, 0.0, 2025-03-12 14:50:03.359
34.0, 11194.044195895696, -28344.358902497162, -42387.937592022136, -28024.572494575084, -22450.606221032886, 3036.4844842534644, -35200.66710718478, 14588.737736789912, 6312.400855112178, -15344.204347634835, -34281.69748564929, -3399.76738688557, -34511.40636341648, -13172.5088563572, -17733.9858095629, 4783.273313435711, -0.094, 0.96, -0.17, 192.0, 0.0, 0.0, 0.0, 0.0, 0.0, 0.0, 0.0, 0.0, 0.0, 1.741809003359717E9, 0.0, 2025-03-12 14:50:03.359
36.0, 11237.428931883447, -28335.552315181772, -42377.38756863923, -27979.82430217556, -22442.559593028975, 3085.6806737995953, -35190.564118690985, 14600.785327051322, 6321.3415528943015, -15329.027513149682, -34262.69850286228, -3381.2377907321206, -34498.464703376856, -13156.817931749574, -17721.35707394565, 4793.398653673966, -0.094, 0.96, -0.17, 192.0, 0.0, 0.0, 0.0, 0.0, 0.0, 0.0, 0.0, 0.0, 0.0, 1.741809003359794E9, 0.0, 2025-03-12 14:50:03.359
38.0, 11217.6476380405, -28320.308425463252, -42371.218487169564, -28005.439401321342, -22444.079511651937, 3068.849810224749, -35187.94896458971, 14606.328559676238, 6330.773989054441, -15320.757367701217, -34259.926886549816, -3377.616808130361, -34501.10220922258, -13153.46517008128, -17711.321140685217, 4806.966162558337, -0.1, 0.988, -0.17, 192.0, 126.0, 112.0, 15.0, 112.0, 125.0, 88.0, 0.0, 0.0, 0.0, 1.741809003359863E9, 0.0, 2025-03-12 14:50:03.359
40.0, 11245.855539543098, -28327.21511449994, -42365.47408884455, -27963.507528723185, -22436.010531903572, 3098.532926861397, -35189.1559587903, 14614.933981291531, 6332.606832099776, -15312.576629230576, -34247.16404046584, -3371.5371336385174, -34488.71934279434, -13147.720771756265, -17697.910094012033, 4810.7883108601945, -0.1, 0.988, -0.17, 192.0, 0.0, 0.0, 0.0, 0.0, 0.0, 0.0, 0.0, 0.0, 0.0, 1.741809003359954E9, 0.0, 2025-03-12 14:50:03.359
42.0, 11219.592239808111, -28336.535791937804, -42377.43227212814, -28003.852427465015, -22446.82877621994, 3064.602978778241, -35188.48540645664, 14602.148783463095, 6318.324067392835, -15325.518289270198, -34253.06490100204, -3378.4438226752072, -34499.381124899526, -13164.46222835329, -17701.396966147062, 4799.545383399175, -0.1, 0.988, -0.17, 192.0, 0.0, 0.0, 0.0, 0.0, 0.0, 0.0, 0.0, 0.0, 0.0, 1.741809003360016E9, 0.0, 2025-03-12 14:50:03.360
44.0, 11251.711696590388, -28344.76123389736, -42380.382702396244, -27975.555118984597, -22438.40216856029, 3080.495069085964, -35183.38920872083, 14606.753242820889, 6309.58453531081, -15332.089702140058, -34256.082386503505, -3393.2630292490758, -34502.644479589995, -13172.911187757396, -17701.262855680332, 4797.176098486912, -0.1, 0.988, -0.17, 192.0, 0.0, 0.0, 0.0, 0.0, 0.0, 0.0, 0.0, 0.0, 0.0, 1.741809003360082E9, 0.0, 2025-03-12 14:50:03.360
46.0, 11230.164614935473, -28329.785565112303, -42373.40895812619, -28001.30432859711, -22434.512965025064, 3049.3814408041767, -35171.967467304166, 14609.793080066811, 6311.238564400503, -15325.473585781288, -34257.9375812933, -3387.362168712875, -34493.860244019066, -13168.150266188415, -17692.053936964745, 4800.059473521647, -0.1, 0.988, -0.17, 192.0, 0.0, 0.0, 0.0, 0.0, 0.0, 0.0, 0.0, 0.0, 0.0, 1.741809003391105E9, 0.0, 2025-03-12 14:50:03.391
48.0, 11255.869121059075, -28349.432748488518, -42381.924972763656, -27981.54538649862, -22437.373988315343, 3074.683615527584, -35186.54080468903, 14601.210010195973, 6301.157927651158, -15332.17910911788, -34260.17275573883, -3396.124052539355, -34495.55897659767, -13172.777077290664, -17692.232750920386, 4793.398653673966, -0.122, 0.984, -0.162, 192.0, 126.0, 24.0, 15.0, 96.0, 125.0, 120.0, 0.0, 0.0, 0.0, 1.741809003391223E9, 0.0, 2025-03-12 14:50:03.391
50.0, 11237.116007461073, -28336.804012871267, -42380.2038884406, -28016.749384015726, -22440.30206683899, 3041.7371442004614, -35192.08403731394, 14591.151725191085, 6292.440747313589, -15338.527004543186, -34261.82678482852, -3392.257200748587, -34495.871901020044, -13181.695423328332, -17692.679785809494, 4773.818525531116, -0.122, 0.984, -0.162, 192.0, 0.0, 0.0, 0.0, 0.0, 0.0, 0.0, 0.0, 0.0, 0.0, 1.741809003391307E9, 0.0, 2025-03-12 14:50:03.391
52.0, 11268.676670631967, -28340.760271639858, -42380.941496007625, -27992.475389537263, -22427.852145177385, 3052.9577199170258, -35186.652563411306, 14596.359681649172, 6295.949971193072, -15331.888536439961, -34261.044473772585, -3399.6332764188382, -34493.25674691877, -13176.733336059253, -17689.617596819116, 4772.723290052806, -0.122, 0.984, -0.162, 192.0, 0.0, 0.0, 0.0, 0.0, 0.0, 0.0, 0.0, 0.0, 0.0, 1.741809003445903E9, 0.0, 2025-03-12 14:50:03.445
54.0, 11251.711696590388, -28338.1898210275, -42385.03186524294, -28012.323738613577, -22441.665523250762, 3048.688536726062, -35198.320174016975, 14584.334443132217, 6289.199744367569, -15339.979867932781, -34256.95410453726, -3380.187258742721, -34497.70474406538, -13179.415545393891, -17689.88581775258, 4755.400688099943, -0.122, 0.984, -0.162, 192.0, 0.0, 0.0, 0.0, 0.0, 0.0, 0.0, 0.0, 0.0, 0.0, 1.741809003445978E9, 0.0, 2025-03-12 14:50:03.445
56.0, 11280.031356815261, -28331.149021524077, -42370.68204530264, -27996.632814005952, -22426.756909699074, 3040.440743022054, -35188.93244134574, 14591.777574035834, 6294.742976992486, -15335.777739975185, -34254.94244753628, -3390.871392592358, -34496.25188067578, -13179.639062838443, -17692.12099219811, 4761.212141658323, -0.122, 0.984, -0.162, 192.0, 0.0, 0.0, 0.0, 0.0, 0.0, 0.0, 0.0, 0.0, 0.0, 1.741809003446078E9, 0.0, 2025-03-12 14:50:03.446
58.0, 11273.32583347867, -28317.17918123951, -42372.02314996996, -27995.626985505463, -22427.53922075501, 3035.4563040085204, -35183.9032988433, 14593.118678703151, 6306.634105042709, -15320.667960723396, -34232.83657226999, -3356.293243919998, -34480.002162456774, -13153.219300892271, -17677.391192602063, 4768.744679539762, -0.132, 0.966, -0.164, 192.0, 125.5, 112.0, 15.0, 24.0, 125.0, 112.0, 0.0, 0.0, 0.0, 1.741809003446141E9, 0.0, 2025-03-12 14:50:03.446
60.0, 11293.397699999536, -28334.390024470096, -42379.53333610694, -27988.183854601844, -22436.47991853713, 3039.278452310378, -35192.84399662542, 14593.968044992453, 6302.9684189520385, -15322.299638068635, -34247.65577884386, -3374.1075842508776, -34495.98365974232, -13166.093905698528, -17686.93538748448, 4767.6494440614515, -0.132, 0.966, -0.164, 192.0, 0.0, 0.0, 0.0, 0.0, 0.0, 0.0, 0.0, 0.0, 0.0, 1.741809003446193E9, 0.0, 2025-03-12 14:50:03.446
62.0, 11286.200438284926, -28330.634931401604, -42377.27580991695, -27995.73874422774, -22431.495479523597, 3037.2891470538557, -35182.24926975361, 14594.951521748486, 6298.766290994441, -15326.591173004053, -34239.96677875123, -3362.9764155121347, -34495.11194170856, -13166.071553954072, -17685.88485549508, 4766.353042883044, -0.132, 0.966, -0.164, 192.0, 0.0, 0.0, 0.0, 0.0, 0.0, 0.0, 0.0, 0.0, 0.0, 1.74180900344625E9, 0.0, 2025-03-12 14:50:03.446
64.0, 11286.446307473936, -28334.23356225891, -42372.067853458866, -28000.656128007908, -22429.282656822525, 3022.849920135727, -35184.3056302435, 14590.615283324158, 6300.085043917304, -15324.445405536344, -34264.44193892979, -3387.988017557623, -34498.330592910126, -13169.960757489296, -17690.06463170822, 4773.70676680884, -0.132, 0.966, -0.164, 192.0, 0.0, 0.0, 0.0, 0.0, 0.0, 0.0, 0.0, 0.0, 0.0, 1.741809003446292E9, 0.0, 2025-03-12 14:50:03.446
66.0, 11293.80003139973, -28329.159716267553, -42364.98235046653, -27984.115837110978, -22423.180630586223, 3024.6157079476966, -35177.93538307374, 14593.40925138107, 6307.684637032108, -15314.387120531455, -34234.758822293144, -3358.4390113877075, -34486.17124392644, -13157.242614894227, -17681.235692648377, 4781.082842479092, -0.132, 0.966, -0.164, 192.0, 0.0, 0.0, 0.0, 0.0, 0.0, 0.0, 0.0, 0.0, 0.0, 1.741809003496532E9, 0.0, 2025-03-12 14:50:03.496
68.0, 11294.917618622496, -28339.84385011719, -42370.39147262472, -28000.0079274187, -22428.29918006649, 3000.408768702599, -35182.651601153804, 14588.715385045456, 6305.24829688648, -15326.904097426428, -34247.87929628841, -3384.6352558893273, -34495.26840391975, -13166.183312676349, -17688.902340996545, 4779.697034322862, -0.124, 0.968, -0.162, 192.0, 126.0, 16.0, 15.0, 32.0, 125.0, 120.0, 0.0, 0.0, 0.0, 1.741809003496582E9, 0.0, 2025-03-12 14:50:03.496
70.0, 11311.14498509705, -28361.525042238838, -42388.67519958916, -27989.279090080156, -22442.0455029065, 3028.0578765938135, -35196.91201411629, 14578.277120384828, 6296.017026426438, -15330.525080028186, -34249.06393874454, -3372.5206103945507, -34495.8942527645, -13167.010327221195, -17697.328948656195, 4765.973063227304, -0.124, 0.968, -0.162, 192.0, 0.0, 0.0, 0.0, 0.0, 0.0, 0.0, 0.0, 0.0, 0.0, 1.741809003496656E9, 0.0, 2025-03-12 14:50:03.496
72.0, 11305.579400727678, -28360.51921373835, -42386.48472863254, -28023.097279441034, -22444.10186339639, 2989.9034488086045, -35197.04612458302, 14574.32086161624, 6296.754633993463, -15340.739827244262, -34277.629468158426, -3402.4719479646624, -34508.232415703824, -13178.588530849043, -17718.183126232998, 4761.525066080698, -0.124, 0.968, -0.162, 192.0, 0.0, 0.0, 0.0, 0.0, 0.0, 0.0, 0.0, 0.0, 0.0, 1.741809003496704E9, 0.0, 2025-03-12 14:50:03.496
74.0, 11318.163432856016, -28375.47253077895, -42393.23495545804, -27995.559930272095, -22439.273886594045, 3019.0948270672357, -35193.358086747896, 14577.36069886216, 6299.839174728296, -15334.146062629947, -34245.42060439833, -3379.226133731143, -34503.31503192366, -13167.882045254952, -17709.667111595525, 4773.036214475181, -0.124, 0.968, -0.162, 192.0, 0.0, 0.0, 0.0, 0.0, 0.0, 0.0, 0.0, 0.0, 0.0, 1.741809003496745E9, 0.0, 2025-03-12 14:50:03.496
76.0, 11303.545391982245, -28379.384086058628, -42394.53135663645, -28023.812535263605, -22439.296238338502, 2984.0696435057694, -35191.41348498029, 14580.60170180818, 6299.548602050377, -15337.409417320421, -34269.5381366656, -3402.986038087134, -34514.91558729596, -13174.900493013918, -17712.796355819268, 4787.207220459845, -0.124, 0.968, -0.162, 192.0, 0.0, 0.0, 0.0, 0.0, 0.0, 0.0, 0.0, 0.0, 0.0, 1.741809003496792E9, 0.0, 2025-03-12 14:50:03.496
78.0, 11303.500688493335, -28386.357830328685, -42401.03571427295, -27989.92729066936, -22439.050369149492, 3019.8771381231713, -35196.44262748273, 14582.92628323153, 6276.012215138939, -15341.745655744751, -34284.91613685085, -3391.7207588816595, -34509.282947693224, -13168.731411544253, -17713.578666875204, 4783.809755302639, -0.106, 0.97, -0.15, 192.0, 126.0, 88.0, 15.0, 40.0, 125.5, 40.0, 0.0, 0.0, 0.0, 1.741809003496836E9, 0.0, 2025-03-12 14:50:03.496
80.0, 11240.535824362734, -28375.80780694578, -42394.19608046962, -28012.703718269317, -22430.10967136737, 2992.719768609973, -35175.67785688375, 14589.095364701196, 6297.872221216228, -15332.581440518075, -34277.405950713866, -3401.220250275165, -34516.39080243001, -13165.669222553877, -17708.862448795135, 4798.606610132052, -0.106, 0.97, -0.15, 192.0, 0.0, 0.0, 0.0, 0.0, 0.0, 0.0, 0.0, 0.0, 0.0, 1.741809003496889E9, 0.0, 2025-03-12 14:50:03.496
82.0, 11072.383650825459, -28387.47541755145, -42399.404036927706, -27979.265508564178, -22431.070796378946, 3029.376629516677, -35177.711865629186, 14592.135201947118, 6291.300808346368, -15326.255896837223, -34262.31852320654, -3387.675093135249, -34502.46566563436, -13160.505969584701, -17699.094736468167, 4807.726121869818, -0.106, 0.97, -0.15, 192.0, 0.0, 0.0, 0.0, 0.0, 0.0, 0.0, 0.0, 0.0, 0.0, 1.741809003556432E9, 0.0, 2025-03-12 14:50:03.556
84.0, 10781.006310106077, -28383.720324482958, -42405.751932353014, -28020.34801487303, -22438.692741238207, 3005.1026350382135, -35177.130720273344, 14587.821315267243, 6278.917941918128, -15341.253917366734, -34286.25724151817, -3413.2007853032096, -34510.2440727048, -13174.811086036098, -17711.83523080769, 4807.413197447443, -0.106, 0.97, -0.15, 192.0, 0.0, 0.0, 0.0, 0.0, 0.0, 0.0, 0.0, 0.0, 0.0, 1.741809003556504E9, 0.0, 2025-03-12 14:50:03.556
86.0, 10425.568869777784, -28380.65813549258, -42397.235917715545, -27980.830130676048, -22433.61889524685, 3039.2561005659227, -35179.56706041897, 14594.213914181462, 6279.81201169634, -15327.485242782264, -34289.341782253, -3404.7965293880143, -34495.58132834212, -13167.569120832577, -17702.469849880916, 4812.442339949887, -0.101, 0.967, -0.14700000000000002, 192.0, 126.5, 0.0, 15.0, 16.0, 125.5, 64.0, 0.0, 0.0, 0.0, 1.741809003556547E9, 0.0, 2025-03-12 14:50:03.556
88.0, 10027.149024861936, -28356.51825148085, -42392.832624057846, -28002.44426756433, -22437.753967971083, 3016.345562499233, -35177.980086562646, 14590.369414135148, 6295.592343281787, -15324.780681703172, -34275.12607277943, -3403.8577561208913, -34513.52977913973, -13164.931614986852, -17704.70502432645, 4815.258659751255, -0.101, 0.967, -0.14700000000000002, 192.0, 0.0, 0.0, 0.0, 0.0, 0.0, 0.0, 0.0, 0.0, 0.0, 1.741809003556599E9, 0.0, 2025-03-12 14:50:03.556
90.0, 9874.799534654563, -28345.56589669775, -42379.600391340304, -27956.57848794204, -22417.14565958329, 3034.271661552389, -35168.86057482488, 14599.198353194995, 6321.8109395278625, -15291.677748164862, -34237.35162464996, -3376.7450900966037, -34486.148892181984, -13142.535167042633, -17684.141419427564, 4835.129360572024, -0.101, 0.967, -0.14700000000000002, 192.0, 0.0, 0.0, 0.0, 0.0, 0.0, 0.0, 0.0, 0.0, 0.0, 1.74180900355664E9, 0.0, 2025-03-12 14:50:03.556
92.0, 9694.398605155779, -28339.97796058392, -42396.76653108198, -27997.191607617333, -22434.06593013596, 3005.8625943496936, -35180.59524066392, 14585.384975121615, 6311.842061500795, -15303.70298668182, -34258.652837115864, -3379.3155407089644, -34495.53662485321, -13151.073533424562, -17687.494181095863, 4820.019581320236, -0.101, 0.967, -0.14700000000000002, 192.0, 0.0, 0.0, 0.0, 0.0, 0.0, 0.0, 0.0, 0.0, 0.0, 1.741809003556691E9, 0.0, 2025-03-12 14:50:03.556
94.0, 9488.717852678044, -28341.319065251242, -42385.61301059878, -27969.564851470575, -22426.86866842135, 3028.3931527606433, -35178.2036040072, 14587.575446078235, 6314.144291179692, -15296.662187178397, -34252.304941690556, -3385.730491367637, -34497.280060920726, -13149.620670034967, -17685.191951416964, 4824.042895322192, -0.101, 0.967, -0.14700000000000002, 192.0, 0.0, 0.0, 0.0, 0.0, 0.0, 0.0, 0.0, 0.0, 0.0, 1.741809003556738E9, 0.0, 2025-03-12 14:50:03.556
96.0, 9244.837968926187, -28329.494992434382, -42390.642153101224, -27996.833979706047, -22433.730653969127, 3021.821739890783, -35180.081150541446, 14582.993338464898, 6317.362942381256, -15296.125745311469, -34249.13099397791, -3373.5934941284054, -34498.91173826596, -13148.927765956852, -17673.859616978123, 4828.982630846815, -0.0955, 0.9655, -0.14350000000000002, 192.0, 126.5, 24.0, 15.0, 16.0, 125.5, 80.0, 0.0, 0.0, 0.0, 1.741809003617896E9, 0.0, 2025-03-12 14:50:03.617
98.0, 9077.155182022474, -28345.029454830823, -42394.48665314754, -27977.499720752206, -22430.288485323013, 3043.3241180567884, -35180.03644705253, 14583.93211173202, 6306.29882887588, -15302.920675625883, -34251.813203312544, -3388.5021076800954, -34505.75137206929, -13158.404905605901, -17676.139494912564, 4822.724142399328, -0.0955, 0.9655, -0.14350000000000002, 192.0, 0.0, 0.0, 0.0, 0.0, 0.0, 0.0, 0.0, 0.0, 0.0, 1.741809003617981E9, 0.0, 2025-03-12 14:50:03.617
100.0, 8970.246788292741, -28340.335588495207, -42395.78305432595, -28006.73580249975, -22432.076624879435, 3022.984030602459, -35171.542784159516, 14585.720251288445, 6297.29107586039, -15311.704911196819, -34253.62369461342, -3386.1328227678327, -34510.22172096035, -13160.595376562522, -17671.333869854676, 4823.864081366549, -0.0955, 0.9655, -0.14350000000000002, 192.0, 0.0, 0.0, 0.0, 0.0, 0.0, 0.0, 0.0, 0.0, 0.0, 1.741809003618025E9, 0.0, 2025-03-12 14:50:03.618
102.0, 8933.701686108314, -28352.226716545432, -42397.81706307138, -27988.183854601844, -22431.920162668248, 3034.048144107836, -35172.21333649318, 14596.896123516099, 6290.33968333479, -15311.771966430184, -34262.56439239554, -3405.6905991662265, -34518.40245943099, -13163.545806830622, -17672.764381499815, 4830.390790747499, -0.0955, 0.9655, -0.14350000000000002, 192.0, 0.0, 0.0, 0.0, 0.0, 0.0, 0.0, 0.0, 0.0, 0.0, 1.741809003618077E9, 0.0, 2025-03-12 14:50:03.618
104.0, 8916.848470789013, -28358.149928826086, -42401.48274916205, -28005.439401321342, -22431.987217901617, 3026.0685713372914, -35166.513641657075, 14599.310111917272, 6281.935427419595, -15309.26857105119, -34258.92105804933, -3392.81599435997, -34512.7474680838, -13159.298975384114, -17664.136608140067, 4831.709543670362, -0.0955, 0.9655, -0.14350000000000002, 192.0, 0.0, 0.0, 0.0, 0.0, 0.0, 0.0, 0.0, 0.0, 0.0, 1.741809003618124E9, 0.0, 2025-03-12 14:50:03.618
106.0, 8948.833817104556, -28381.485150037428, -42401.2592317175, -27996.632814005952, -22428.880325422328, 3027.432027749065, -35165.463109667675, 14602.327597418738, 6266.311558045335, -15317.896344410938, -34274.96961056824, -3416.7994161605143, -34519.564750142665, -13165.780981276153, -17666.729410496882, 4835.129360572024, -0.09575, 0.96475, -0.14375000000000002, 192.0, 126.5, 0.0, 15.0, 16.0, 125.5, 64.0, 0.0, 0.0, 0.0, 1.741809003618177E9, 0.0, 2025-03-12 14:50:03.618
108.0, 8984.261332066219, -28407.882560239144, -42413.97737431257, -28007.58516878905, -22432.858935935372, 3033.757571429917, -35168.92763005825, 14595.867943271154, 6235.957889075028, -15333.766082974207, -34281.63043041592, -3408.193994545221, -34517.84366581961, -13169.17844643336, -17668.808122731225, 4828.267375024245, -0.09575, 0.96475, -0.14375000000000002, 192.0, 0.0, 0.0, 0.0, 0.0, 0.0, 0.0, 0.0, 0.0, 0.0, 1.741809003618223E9, 0.0, 2025-03-12 14:50:03.618
110.0, 9043.046419983677, -28428.490868626937, -42418.24655750353, -28011.094392668536, -22437.97748541564, 3026.9402893710485, -35175.20847025019, 14596.471440371448, 6221.295144712347, -15340.963344688815, -34303.065753348565, -3437.519483270584, -34530.181828758934, -13178.588530849043, -17682.777963015793, 4825.741627900795, -0.09575, 0.96475, -0.14375000000000002, 192.0, 0.0, 0.0, 0.0, 0.0, 0.0, 0.0, 0.0, 0.0, 0.0, 1.741809003618263E9, 0.0, 2025-03-12 14:50:03.618
112.0, 9109.296990549206, -28439.219705965486, -42425.84615061834, -28012.144924657932, -22452.237898378124, 3034.69634469704, -35191.01115358009, 14590.011786223864, 6204.03959799285, -15349.725228515295, -34298.57305271304, -3426.768294187581, -34525.82323859015, -13176.040431981139, -17684.141419427564, 4815.012790562248, -0.09575, 0.96475, -0.14375000000000002, 192.0, 0.0, 0.0, 0.0, 0.0, 0.0, 0.0, 0.0, 0.0, 0.0, 1.741809003678209E9, 0.0, 2025-03-12 14:50:03.678
114.0, 9206.504727185336, -28441.76780483339, -42418.827702859366, -28020.2139044063, -22447.81225297597, 3016.345562499233, -35183.16569127628, 14587.687204800512, 6196.976446744972, -15353.547376817152, -34316.16387559937, -3451.086992154955, -34537.535552684734, -13182.433030895358, -17698.49123936787, 4807.457900936353, -0.09575, 0.96475, -0.14375000000000002, 192.0, 0.0, 0.0, 0.0, 0.0, 0.0, 0.0, 0.0, 0.0, 0.0, 1.741809003678272E9, 0.0, 2025-03-12 14:50:03.678
116.0, 9305.902934778087, -28444.58412463476, -42420.83935986034, -28002.980709431256, -22458.16111065878, 3038.585548232263, -35197.09082807193, 14582.434544853515, 6196.529411855867, -15352.563900061119, -34295.242642789206, -3417.157044071799, -34522.93986355542, -13175.6604523254, -17685.236654905875, 4803.94867705687, -0.098875, 0.967375, -0.14387500000000003, 192.0, 126.0, 104.0, 15.0, 40.0, 125.5, 64.0, 0.0, 0.0, 0.0, 1.741809003678318E9, 0.0, 2025-03-12 14:50:03.678
118.0, 9443.008535266941, -28423.081746468753, -42404.27671721896, -28022.136154429456, -22442.269020351057, 2999.2241262464677, -35184.86442385488, 14579.975852963431, 6208.286429439358, -15343.623202278997, -34303.73630568222, -3435.865454180891, -34534.540418927725, -13182.32127217308, -17698.98297774589, 4797.176098486912, -0.098875, 0.967375, -0.14387500000000003, 192.0, 0.0, 0.0, 0.0, 0.0, 0.0, 0.0, 0.0, 0.0, 0.0, 1.741809003678366E9, 0.0, 2025-03-12 14:50:03.678
120.0, 9555.124885454761, -28441.499583899928, -42406.82481608687, -27994.82232270507, -22441.86668895086, 3031.365934773199, -35184.46209245468, 14583.239207653905, 6218.165900488603, -15332.693199240352, -34275.729569879724, -3401.95785784219, -34509.52881688223, -13167.010327221195, -17677.1229716686, 4802.965200300837, -0.098875, 0.967375, -0.14387500000000003, 192.0, 0.0, 0.0, 0.0, 0.0, 0.0, 0.0, 0.0, 0.0, 0.0, 1.741809003678412E9, 0.0, 2025-03-12 14:50:03.678
122.0, 9669.901093232762, -28434.995226263432, -42409.10469402131, -28028.506401599217, -22447.45462506469, 3006.9354780835483, -35191.86051986939, 14574.522027316336, 6203.7713770593855, -15354.79907450665, -34304.965651627266, -3435.217253591687, -34533.69105263842, -13191.776060077675, -17694.64673932156, 4786.067281492625, -0.098875, 0.967375, -0.14387500000000003, 192.0, 0.0, 0.0, 0.0, 0.0, 0.0, 0.0, 0.0, 0.0, 0.0, 1.741809003678455E9, 0.0, 2025-03-12 14:50:03.678
124.0, 9790.444051080234, -28427.976778504468, -42401.549804395414, -27991.268395336676, -22443.230145362635, 3034.115199341202, -35191.36878149137, 14582.07691694223, 6219.663467367109, -15338.79522547665, -34279.26114550366, -3401.2426020196203, -34510.065258749164, -13169.424315622367, -17678.21820714691, 4803.792214845684, -0.098875, 0.967375, -0.14387500000000003, 192.0, 0.0, 0.0, 0.0, 0.0, 0.0, 0.0, 0.0, 0.0, 0.0, 1.741809003678506E9, 0.0, 2025-03-12 14:50:03.678
126.0, 9899.922895422327, -28428.110888971198, -42409.30585972141, -28022.247913151732, -22446.515851797565, 3013.9986293314255, -35191.189967535734, 14576.846608739688, 6219.015266777906, -15349.009972692726, -34293.901538121885, -3424.510767997595, -34527.14199151302, -13185.271702441181, -17692.590378831672, 4801.110005511046, -0.1034375, 0.9686874999999999, -0.1459375, 192.0, 126.0, 80.0, 15.0, 40.0, 125.5, 48.0, 0.0, 0.0, 0.0, 1.741809003737258E9, 0.0, 2025-03-12 14:50:03.737
128.0, 10025.092664372047, -28414.34221438673, -42401.48274916205, -27991.78248545915, -22435.54114527001, 3040.463094766509, -35187.904261100804, 14580.825219252732, 6228.5371099158665, -15345.254879624234, -34280.22227051524, -3407.1434625558213, -34515.094401251605, -13180.041394238639, -17684.36493687212, 4798.137223498491, -0.1034375, 0.9686874999999999, -0.1459375, 192.0, 0.0, 0.0, 0.0, 0.0, 0.0, 0.0, 0.0, 0.0, 0.0, 1.741809003737355E9, 0.0, 2025-03-12 14:50:03.737
130.0, 10130.034104589713, -28419.259598166896, -42409.887005077246, -28028.0146632212, -22447.45462506469, 3011.0705508077804, -35189.75945589059, 14577.383050606615, 6243.579833934287, -15342.527966800686, -34284.62556417294, -3419.0569423505003, -34524.683299622935, -13185.94225477484, -17688.924692741002, 4801.266467722234, -0.1034375, 0.9686874999999999, -0.1459375, 192.0, 0.0, 0.0, 0.0, 0.0, 0.0, 0.0, 0.0, 0.0, 0.0, 1.741809003737398E9, 0.0, 2025-03-12 14:50:03.737
132.0, 10254.063934572212, -28418.007900477398, -42405.14843525272, -27989.323793569067, -22431.83075569043, 3045.9392721580593, -35184.14916803231, 14576.623091295134, 6245.613842679721, -15348.048847681148, -34278.88116584792, -3417.224099305165, -34510.71345933837, -13178.32030991558, -17683.426163604996, 4800.886488066493, -0.1034375, 0.9686874999999999, -0.1459375, 192.0, 0.0, 0.0, 0.0, 0.0, 0.0, 0.0, 0.0, 0.0, 0.0, 1.74180900373744E9, 0.0, 2025-03-12 14:50:03.737
134.0, 10350.087028752212, -28420.37718538966, -42414.13383652375, -28024.661901552907, -22443.0960348959, 3016.7702456438838, -35189.31242100149, 14568.084724913208, 6247.960775847528, -15357.995373963759, -34286.68192466282, -3434.859625680402, -34522.73869785532, -13189.518533887689, -17690.712832297424, 4791.051720506158, -0.1034375, 0.9686874999999999, -0.1459375, 192.0, 0.0, 0.0, 0.0, 0.0, 0.0, 0.0, 0.0, 0.0, 0.0, 1.741809003737482E9, 0.0, 2025-03-12 14:50:03.737
136.0, 10465.0196987414, -28412.39761261912, -42400.05223751691, -27980.71837195377, -22430.75787195657, 3040.3289842997774, -35181.891641842325, 14581.898102986588, 6259.024889352905, -15347.266536625211, -34277.22713675823, -3428.087047110444, -34509.841741304605, -13181.51660937269, -17686.68951829547, 4790.403519916955, -0.10471875, 0.96734375, -0.14796874999999998, 192.0, 126.0, 88.0, 15.0, 24.0, 125.5, 40.0, 0.0, 0.0, 0.0, 1.741809003737533E9, 0.0, 2025-03-12 14:50:03.737
138.0, 10528.923336139123, -28401.780534002846, -42400.946307295126, -28016.861142738002, -22440.86086045037, 3011.763454885895, -35185.043237810525, 14576.690146528501, 6264.165790577626, -15345.433693579876, -34278.07650304753, -3425.717762198182, -34512.41219191697, -13186.724565830777, -17684.029660705288, 4791.834031562094, -0.10471875, 0.96734375, -0.14796874999999998, 192.0, 0.0, 0.0, 0.0, 0.0, 0.0, 0.0, 0.0, 0.0, 0.0, 1.741809003737586E9, 0.0, 2025-03-12 14:50:03.737
140.0, 10615.491642414529, -28401.66877528057, -42392.92203103567, -27981.210110331787, -22431.00374114558, 3035.724524941984, -35178.06949354047, 14585.899065244088, 6267.4291452681, -15342.215042378313, -34269.49343317669, -3423.0132011190894, -34500.36460165556, -13180.153152960916, -17676.11714316811, 4798.248982220767, -0.10471875, 0.96734375, -0.14796874999999998, 192.0, 0.0, 0.0, 0.0, 0.0, 0.0, 0.0, 0.0, 0.0, 0.0, 1.74180900373763E9, 0.0, 2025-03-12 14:50:03.737
142.0, 10650.941509120645, -28404.641557293126, -42408.92588006567, -28014.469506081285, -22450.896793710806, 3022.559347457808, -35186.294935500024, 14580.333480874717, 6258.510799230433, -15354.776722762195, -34280.17756702633, -3422.9237941412684, -34514.13327624003, -13186.724565830777, -17677.480599579885, 4794.270371707723, -0.10471875, 0.96734375, -0.14796874999999998, 192.0, 0.0, 0.0, 0.0, 0.0, 0.0, 0.0, 0.0, 0.0, 0.0, 1.741809003798752E9, 0.0, 2025-03-12 14:50:03.798
144.0, 10729.664353092236, -28393.37627808765, -42397.19121422663, -27988.385020301943, -22435.16116561427, 3039.233748821467, -35184.35033373241, 14585.630844310625, 6263.808162666341, -15351.535719816176, -34281.317505993546, -3425.158968586799, -34521.464648421366, -13194.90530430142, -17686.577759573192, 4794.516240896731, -0.10471875, 0.96734375, -0.14796874999999998, 192.0, 0.0, 0.0, 0.0, 0.0, 0.0, 0.0, 0.0, 0.0, 0.0, 1.741809003798802E9, 0.0, 2025-03-12 14:50:03.798
146.0, 10759.816856362446, -28376.634821490625, -42391.37976066825, -28013.709546769805, -22430.981389401128, 3013.8645188646938, -35177.57775516245, 14586.323748388739, 6277.062747128338, -15339.935164443872, -34266.34183720849, -3406.316448010975, -34505.796075558195, -13184.60115010752, -17673.122009411098, 4806.630886391507, -0.107359375, 0.964671875, -0.147984375, 192.0, 126.0, 72.0, 15.0, 8.0, 125.5, 48.0, 0.0, 0.0, 0.0, 1.741809003798866E9, 0.0, 2025-03-12 14:50:03.798
148.0, 10813.684560499736, -28392.05752516479, -42391.17859496816, -27981.992421387724, -22423.00181663058, 3030.427161506076, -35179.14237727432, 14596.98553049392, 6283.120069875726, -15339.197556876847, -34263.30199996257, -3413.58076495895, -34501.884520278516, -13179.974339005274, -17670.59626228765, 4817.2479650077785, -0.107359375, 0.964671875, -0.147984375, 192.0, 0.0, 0.0, 0.0, 0.0, 0.0, 0.0, 0.0, 0.0, 0.0, 1.741809003798913E9, 0.0, 2025-03-12 14:50:03.798
150.0, 10820.077159413953, -28388.682411752037, -42408.702362621116, -28005.886436210447, -22444.280677352035, 3028.370801016188, -35188.70892390119, 14586.010823966364, 6273.419412782123, -15353.055638439137, -34266.006561041664, -3413.804282403503, -34511.13814248302, -13187.4621733978, -17681.41450660402, 4809.246040492778, -0.107359375, 0.964671875, -0.147984375, 192.0, 0.0, 0.0, 0.0, 0.0, 0.0, 0.0, 0.0, 0.0, 0.0, 1.741809003798969E9, 0.0, 2025-03-12 14:50:03.798
152.0, 10872.871979817388, -28386.80486521779, -42404.18731024114, -27989.368497057974, -22436.368159814854, 3037.0656296093025, -35180.215261008176, 14593.141030447607, 6280.437860541089, -15348.339420359067, -34276.02014255764, -3425.717762198182, -34513.283909950726, -13185.584626863556, -17689.058803207732, 4807.815528847638, -0.107359375, 0.964671875, -0.147984375, 192.0, 0.0, 0.0, 0.0, 0.0, 0.0, 0.0, 0.0, 0.0, 0.0, 1.741809003799012E9, 0.0, 2025-03-12 14:50:03.799
154.0, 10872.58140713947, -28377.886519180123, -42406.98127829806, -28000.03027916316, -22439.318590082956, 3030.337754528255, -35180.72935113065, 14591.710518802467, 6279.275569829413, -15349.054676181637, -34271.50509017767, -3410.518575968573, -34506.66779359195, -13179.348490160524, -17682.845018249158, 4812.531746927709, -0.107359375, 0.964671875, -0.147984375, 192.0, 0.0, 0.0, 0.0, 0.0, 0.0, 0.0, 0.0, 0.0, 0.0, 1.741809003799056E9, 0.0, 2025-03-12 14:50:03.799
156.0, 10903.06918657651, -28376.165434857066, -42396.319496192875, -27983.512340010686, -22425.326398053934, 3027.6555451936183, -35171.43102543724, 14595.242094426405, 6291.591381024287, -15339.689295254862, -34268.800529098575, -3422.029724363056, -34504.27615693524, -13176.46511512579, -17679.715774025415, 4814.923383584426, -0.10467968750000001, 0.9653359374999999, -0.1449921875, 192.0, 126.0, 104.0, 15.0, 24.0, 125.5, 72.0, 0.0, 0.0, 0.0, 1.741809003857651E9, 0.0, 2025-03-12 14:50:03.857
158.0, 10903.180945298785, -28376.500711023895, -42400.76749333948, -27988.988517402235, -22437.888078437816, 3034.6739929525847, -35189.17831053476, 14582.948634975986, 6288.0598054003485, -15345.076065668592, -34259.90453480536, -3395.475851950151, -34503.40443890148, -13180.823705294575, -17675.223073389898, 4804.485118923798, -0.10467968750000001, 0.9653359374999999, -0.1449921875, 192.0, 0.0, 0.0, 0.0, 0.0, 0.0, 0.0, 0.0, 0.0, 0.0, 1.741809003857719E9, 0.0, 2025-03-12 14:50:03.857
160.0, 10933.802835202556, -28371.449216776993, -42388.78695831144, -27988.228558090756, -22425.99695038759, 3023.341658513744, -35182.0034005646, 14583.820353009743, 6299.280381116913, -15338.83992896556, -34261.960895295255, -3414.1395585703326, -34508.098305237094, -13183.75178381822, -17679.2240356474, 4812.084712038602, -0.10467968750000001, 0.9653359374999999, -0.1449921875, 192.0, 0.0, 0.0, 0.0, 0.0, 0.0, 0.0, 0.0, 0.0, 0.0, 1.741809003857766E9, 0.0, 2025-03-12 14:50:03.857
162.0, 10937.423817804316, -28366.95651614148, -42384.003684998, -27981.657145220895, -22430.444947534197, 3032.1258940846797, -35182.27162149807, 14580.936977975009, 6298.967456694539, -15337.856452209528, -34246.87346778792, -3386.333988467931, -34495.13429345302, -13176.778039548164, -17668.472846564397, 4805.937982313393, -0.10467968750000001, 0.9653359374999999, -0.1449921875, 192.0, 0.0, 0.0, 0.0, 0.0, 0.0, 0.0, 0.0, 0.0, 0.0, 1.741809003857807E9, 0.0, 2025-03-12 14:50:03.857
164.0, 10958.54621631458, -28366.196556829997, -42384.83069954285, -27989.949642413812, -22433.3953778023, 3013.4845392089537, -35186.27258375556, 14585.474382099437, 6309.830404499818, -15330.815652706106, -34256.372959181426, -3401.7790438865477, -34499.76110455526, -13174.967548247285, -17680.02869844779, 4810.318924226633, -0.10467968750000001, 0.9653359374999999, -0.1449921875, 192.0, 0.0, 0.0, 0.0, 0.0, 0.0, 0.0, 0.0, 0.0, 0.0, 1.741809003857857E9, 0.0, 2025-03-12 14:50:03.857
166.0, 10960.736687271201, -28366.777702185835, -42386.73059782155, -27976.91857539637, -22427.405110288277, 3036.8644639092045, -35177.86832784037, 14589.341233890205, 6302.364921851746, -15334.213117863312, -34248.25927594415, -3384.5011454225955, -34491.98269748482, -13172.08417321255, -17672.11618091061, 4810.43068294891, -0.10433984375000001, 0.9666679687499999, -0.14549609375, 192.0, 126.0, 96.0, 15.0, 32.0, 125.5, 56.0, 0.0, 0.0, 0.0, 1.741809003857903E9, 0.0, 2025-03-12 14:50:03.857
168.0, 10976.159390945362, -28358.865184648657, -42384.227202442555, -27994.084715138044, -22427.025130632537, 3005.952001327515, -35180.37172321937, 14590.816449024254, 6309.0704451883375, -15327.351132315533, -34263.74903485168, -3402.67311366476, -34498.241185932304, -13177.314481415091, -17678.79935250275, 4809.737778870795, -0.10433984375000001, 0.9666679687499999, -0.14549609375, 192.0, 0.0, 0.0, 0.0, 0.0, 0.0, 0.0, 0.0, 0.0, 0.0, 1.741809003857955E9, 0.0, 2025-03-12 14:50:03.857
170.0, 10986.351786416983, -28368.81171093127, -42388.563440866885, -27969.83307240404, -22434.557668513975, 3032.1258940846797, -35187.03254306705, 14590.861152513166, 6305.896497475684, -15324.4677572808, -34249.77919456711, -3376.901552307791, -34486.73003753782, -13164.283414397647, -17674.30665186723, 4808.307267225655, -0.10433984375000001, 0.9666679687499999, -0.14549609375, 192.0, 0.0, 0.0, 0.0, 0.0, 0.0, 0.0, 0.0, 0.0, 0.0, 1.741809003857997E9, 0.0, 2025-03-12 14:50:03.857
172.0, 10996.186553977317, -28361.100359094187, -42387.512908877485, -28000.477314052263, -22431.674293479242, 3000.2523064914117, -35179.56706041897, 14584.110925687663, 6302.856660229762, -15334.660152752418, -34269.24756398768, -3403.8130526319806, -34505.46079939137, -13179.639062838443, -17689.50583809684, 4801.534688655697, -0.10433984375000001, 0.9666679687499999, -0.14549609375, 192.0, 0.0, 0.0, 0.0, 0.0, 0.0, 0.0, 0.0, 0.0, 0.0, 1.741809003916618E9, 0.0, 2025-03-12 14:50:03.916
174.0, 11010.826946595544, -28367.18003358603, -42397.235917715545, -27970.123645081956, -22434.781185958527, 3035.8139319198053, -35184.66325815478, 14587.083707700218, 6303.303695118868, -15326.881745681972, -34254.69657834728, -3380.455479676185, -34492.92147075194, -13166.473885354268, -17681.772134515304, 4803.345179956577, -0.10433984375000001, 0.9666679687499999, -0.14549609375, 192.0, 0.0, 0.0, 0.0, 0.0, 0.0, 0.0, 0.0, 0.0, 0.0, 1.741809003916675E9, 0.0, 2025-03-12 14:50:03.916
176.0, 11018.56065017708, -28357.300562536784, -42386.28356293244, -28002.3101570976, -22430.936685912216, 2996.564268656286, -35180.975220319655, 14587.106059444674, 6302.409625340656, -15329.36278931651, -34272.577973911524, -3401.1308432973437, -34507.2936424367, -13176.040431981139, -17691.74101254237, 4799.008941532247, -0.10316992187500001, 0.963333984375, -0.14674804687499998, 192.0, 126.0, 104.0, 15.0, 0.0, 125.5, 48.0, 0.0, 0.0, 0.0, 1.741809003916717E9, 0.0, 2025-03-12 14:50:03.916
178.0, 11044.891005145431, -28368.409379531073, -42383.08726347533, -27967.888470636426, -22429.372063800343, 3031.1647690731015, -35183.92565058776, 14593.431603125526, 6300.755596250963, -15327.865222438006, -34253.847212057975, -3382.0201017880563, -34492.18386318492, -13164.03754520864, -17680.185160658977, 4806.496775924776, -0.10316992187500001, 0.963333984375, -0.14674804687499998, 192.0, 0.0, 0.0, 0.0, 0.0, 0.0, 0.0, 0.0, 0.0, 0.0, 1.741809003916762E9, 0.0, 2025-03-12 14:50:03.916
180.0, 11049.786037181144, -28358.999295115387, -42373.0513302149, -28001.43843906384, -22431.920162668248, 2995.6478471336186, -35182.98687732063, 14586.03317571082, 6306.187070153603, -15327.08291138207, -34263.79373834059, -3399.4991659521065, -34498.82233128814, -13173.447629624323, -17684.052012449745, 4805.178023001912, -0.10316992187500001, 0.963333984375, -0.14674804687499998, 192.0, 0.0, 0.0, 0.0, 0.0, 0.0, 0.0, 0.0, 0.0, 0.0, 1.741809003916832E9, 0.0, 2025-03-12 14:50:03.916
182.0, 11076.183447382862, -28358.46285324846, -42371.218487169564, -27957.53961295362, -22426.53339225452, 3033.2658330519002, -35182.13751103133, 14589.587103079213, 6308.623410299231, -15321.405568290422, -34241.91138051884, -3380.678997120738, -34485.27717414823, -13162.718792285776, -17673.189064644466, 4807.323790469622, -0.10316992187500001, 0.963333984375, -0.14674804687499998, 192.0, 0.0, 0.0, 0.0, 0.0, 0.0, 0.0, 0.0, 0.0, 0.0, 1.74180900391688E9, 0.0, 2025-03-12 14:50:03.916
184.0, 11066.259272844705, -28358.820481159746, -42381.88026927475, -27993.771790715673, -22440.838508705918, 3009.7294461404617, -35191.905223358306, 14583.328614631728, 6308.668113788141, -15321.942010157349, -34253.69074984679, -3382.9588750551793, -34498.21883418785, -13171.123048200972, -17678.508779824828, 4805.558002657653, -0.10316992187500001, 0.963333984375, -0.14674804687499998, 192.0, 0.0, 0.0, 0.0, 0.0, 0.0, 0.0, 0.0, 0.0, 0.0, 1.741809003916921E9, 0.0, 2025-03-12 14:50:03.916
186.0, 11094.735395280766, -28361.167414327552, -42380.159184951684, -27956.153804797388, -22427.740386455105, 3037.98205113197, -35183.009229065094, 14592.492829858404, 6307.036436442904, -15320.779719445673, -34245.06297648704, -3378.063843019467, -34489.41224687246, -13164.708097542298, -17678.486428080374, 4806.921459069426, -0.10158496093750001, 0.9626669921875, -0.1463740234375, 192.0, 126.0, 112.0, 15.0, 8.0, 125.5, 56.0, 0.0, 0.0, 0.0, 1.741809003977594E9, 0.0, 2025-03-12 14:50:03.977
188.0, 11075.199970626829, -28357.568783470248, -42380.91914426317, -27993.905901182403, -22442.403130817787, 3010.1317775406574, -35195.77207514907, 14584.133277432118, 6305.225945142025, -15326.501766026231, -34251.34381667898, -3385.1493460117995, -34498.8446830326, -13172.397097634925, -17684.588454316672, 4802.987552045292, -0.10158496093750001, 0.9626669921875, -0.1463740234375, 192.0, 0.0, 0.0, 0.0, 0.0, 0.0, 0.0, 0.0, 0.0, 0.0, 1.741809003977673E9, 0.0, 2025-03-12 14:50:03.977
190.0, 11117.176546713896, -28363.84962366219, -42368.82685051285, -27960.847671133004, -22419.604351473376, 3038.339679043255, -35174.71673187217, 14594.884466515121, 6305.7847387534075, -15329.943934672348, -34245.55471486506, -3385.775194856548, -34489.16637768345, -13166.69740279882, -17675.24542513435, 4806.09444452458, -0.10158496093750001, 0.9626669921875, -0.1463740234375, 192.0, 0.0, 0.0, 0.0, 0.0, 0.0, 0.0, 0.0, 0.0, 0.0, 1.741809003977774E9, 0.0, 2025-03-12 14:50:03.977
192.0, 11107.274723920194, -28355.46771949145, -42373.744234293015, -27992.67655523736, -22430.735520212118, 3015.116216554191, -35182.33867673143, 14589.430640868026, 6314.1219394352365, -15319.572725245087, -34244.10185147546, -3381.841287832414, -34487.4899968493, -13165.535112087146, -17675.35718385663, 4811.749435871772, -0.10158496093750001, 0.9626669921875, -0.1463740234375, 192.0, 0.0, 0.0, 0.0, 0.0, 0.0, 0.0, 0.0, 0.0, 0.0, 1.74180900397782E9, 0.0, 2025-03-12 14:50:03.977
194.0, 11144.15510227145, -28358.216984059454, -42370.77145228046, -27962.568755456065, -22418.62087471734, 3042.139475600657, -35176.01313305058, 14601.075899729241, 6319.307544148868, -15318.186917088857, -34242.313711919036, -3392.190145515221, -34483.10905493606, -13165.289242898136, -17674.530169311784, 4816.175081273924, -0.10158496093750001, 0.9626669921875, -0.1463740234375, 192.0, 0.0, 0.0, 0.0, 0.0, 0.0, 0.0, 0.0, 0.0, 0.0, 1.741809003977874E9, 0.0, 2025-03-12 14:50:03.977
196.0, 11118.741168825767, -28360.474510249438, -42383.26607743098, -27993.905901182403, -22430.847278934394, 3026.135626570657, -35180.25996449709, 14595.957350248975, 6309.472776588533, -15326.345303815044, -34256.0376830146, -3392.0783867929445, -34490.4404271174, -13174.31934765808, -17682.040355448768, 4806.228554991312, -0.10479248046875, 0.96133349609375, -0.14418701171875, 192.0, 126.0, 80.0, 15.0, 0.0, 125.5, 72.0, 0.0, 0.0, 0.0, 1.741809003977915E9, 0.0, 2025-03-12 14:50:03.977
198.0, 11140.645878391968, -28368.56584174226, -42389.99395251202, -27972.984668372235, -22435.652903992286, 3037.177388331579, -35188.08307505644, 14594.772707792845, 6303.236639885502, -15326.32295207059, -34269.06875003204, -3407.2328695336428, -34497.324764409634, -13174.431106380356, -17688.142381685066, 4804.909802068449, -0.10479248046875, 0.96133349609375, -0.14418701171875, 192.0, 0.0, 0.0, 0.0, 0.0, 0.0, 0.0, 0.0, 0.0, 0.0, 1.741809003977961E9, 0.0, 2025-03-12 14:50:03.977
200.0, 11131.369904443014, -28355.80299565828, -42389.09988273381, -27999.62794776296, -22437.73161622663, 3018.5360334558527, -35187.59133667843, 14589.7435652904, 6298.8556979722625, -15328.401664304933, -34266.23007848622, -3397.867488606869, -34500.49871212229, -13173.42527787987, -17691.562198586726, 4794.225668218812, -0.10479248046875, 0.96133349609375, -0.14418701171875, 192.0, 0.0, 0.0, 0.0, 0.0, 0.0, 0.0, 0.0, 0.0, 0.0, 1.741809003978003E9, 0.0, 2025-03-12 14:50:03.978
202.0, 11154.906291354453, -28360.206289315975, -42382.684932075135, -27975.77863642915, -22434.356502813876, 3029.443684750043, -35186.04906631101, 14598.192524694507, 6306.254125386969, -15319.4162630339, -34261.87148831743, -3407.545793956017, -34499.55993885516, -13172.307690657102, -17689.572893330205, 4801.557040400153, -0.10479248046875, 0.96133349609375, -0.14418701171875, 192.0, 0.0, 0.0, 0.0, 0.0, 0.0, 0.0, 0.0, 0.0, 0.0, 1.741809004038347E9, 0.0, 2025-03-12 14:50:04.038
204.0, 11147.083180795096, -28358.574611970736, -42386.68589433264, -27980.427799275854, -22452.260250122577, 3036.4397807645537, -35195.72737166016, 14598.147821205595, 6301.24733462898, -15312.666036208397, -34254.741281836184, -3384.1435175113106, -34490.17220618394, -13156.281489882647, -17681.615672304117, 4807.614363147541, -0.10479248046875, 0.96133349609375, -0.14418701171875, 192.0, 0.0, 0.0, 0.0, 0.0, 0.0, 0.0, 0.0, 0.0, 0.0, 1.741809004038421E9, 0.0, 2025-03-12 14:50:04.038
206.0, 11180.007300377763, -28356.205327058477, -42367.597504567806, -27975.82333991806, -22434.557668513975, 3031.41063826211, -35183.6574296543, 14607.021463754352, 6303.326046863323, -15314.096547853536, -34265.224249985724, -3405.7353026551373, -34496.67656382043, -13161.958832974296, -17697.46305912293, 4806.005037546759, -0.107396240234375, 0.959666748046875, -0.146093505859375, 192.0, 126.0, 72.0, 14.5, 120.0, 125.5, 48.0, 0.0, 0.0, 0.0, 1.741809004038463E9, 0.0, 2025-03-12 14:50:04.038
208.0, 11173.055907852162, -28361.882670150124, -42373.945399993114, -27981.321869054067, -22434.758834214073, 3035.858635408716, -35185.26675525508, 14601.098251473697, 6306.745863764985, -15307.525134983676, -34245.39825265387, -3376.4768691631402, -34478.05756068916, -13154.560405559589, -17674.776038500793, 4811.302400982667, -0.107396240234375, 0.959666748046875, -0.146093505859375, 192.0, 0.0, 0.0, 0.0, 0.0, 0.0, 0.0, 0.0, 0.0, 0.0, 1.74180900403852E9, 0.0, 2025-03-12 14:50:04.038
210.0, 11182.018957378741, -28365.436597518517, -42375.353559893796, -27987.334488312543, -22434.602372002886, 3022.335830013255, -35188.37364773436, 14597.65608282758, 6300.822651484329, -15318.455138022322, -34266.61005814196, -3403.343665998419, -34494.55314809718, -13177.269777926182, -17691.718660797913, 4793.599819374063, -0.107396240234375, 0.959666748046875, -0.146093505859375, 192.0, 0.0, 0.0, 0.0, 0.0, 0.0, 0.0, 0.0, 0.0, 0.0, 1.741809004038568E9, 0.0, 2025-03-12 14:50:04.038
212.0, 11185.461126024858, -28362.66498120606, -42378.147527950714, -27980.15957834239, -22435.854069692385, 3033.690516196551, -35183.09863604291, 14603.89221953061, 6300.688541017597, -15310.69908269633, -34256.30590394806, -3377.9744360416457, -34480.560956068155, -13165.5574638316, -17679.201683902942, 4804.373360201521, -0.107396240234375, 0.959666748046875, -0.146093505859375, 192.0, 0.0, 0.0, 0.0, 0.0, 0.0, 0.0, 0.0, 0.0, 0.0, 1.741809004038616E9, 0.0, 2025-03-12 14:50:04.038
214.0, 11189.327977815627, -28370.264574320863, -42384.2048506981, -27995.582282016552, -22444.705360496686, 3021.911146868604, -35191.65935416929, 14597.499620616392, 6292.060767657848, -15328.044036393649, -34276.86950884694, -3413.4913579811287, -34508.76885757075, -13187.059841997605, -17696.993672489367, 4790.515278639231, -0.107396240234375, 0.959666748046875, -0.146093505859375, 192.0, 0.0, 0.0, 0.0, 0.0, 0.0, 0.0, 0.0, 0.0, 0.0, 1.741809004038664E9, 0.0, 2025-03-12 14:50:04.038
216.0, 11191.429041794425, -28372.410341788574, -42386.55178386591, -27987.893281923927, -22443.073683151448, 3033.4222952630876, -35194.118046059375, 14598.818373539254, 6301.023817184427, -15322.210231090812, -34255.30007544757, -3394.2018025161988, -34494.79901728618, -13179.37084190498, -17684.49904733885, 4791.208182717345, -0.10769812011718749, 0.9628333740234375, -0.1490467529296875, 192.0, 126.0, 80.0, 15.0, 24.0, 125.5, 32.0, 0.0, 0.0, 0.0, 1.741809004098061E9, 0.0, 2025-03-12 14:50:04.098
218.0, 11193.954788917874, -28373.773798200345, -42385.076568731856, -28012.256683380212, -22444.1465668853, 3005.92964958306, -35191.614650680385, 14593.453954869981, 6297.715759005041, -15332.98377191827, -34272.01918030014, -3420.219233062176, -34514.535607640224, -13195.08411825706, -17701.911056269535, 4785.419080903421, -0.10769812011718749, 0.9628333740234375, -0.1490467529296875, 192.0, 0.0, 0.0, 0.0, 0.0, 0.0, 0.0, 0.0, 0.0, 0.0, 1.741809004098122E9, 0.0, 2025-03-12 14:50:04.098
220.0, 11209.712768758865, -28368.14115859761, -42380.56151635188, -27980.74072369823, -22435.831717947927, 3032.6399842071514, -35180.282316241544, 14595.443260126503, 6297.022854926927, -15329.072216638591, -34255.41183416985, -3393.4641949491734, -34498.08472372111, -13185.003481507718, -17686.421297362005, 4793.286894951689, -0.10769812011718749, 0.9628333740234375, -0.1490467529296875, 192.0, 0.0, 0.0, 0.0, 0.0, 0.0, 0.0, 0.0, 0.0, 0.0, 1.74180900409817E9, 0.0, 2025-03-12 14:50:04.098
222.0, 11207.343483846604, -28367.269440563854, -42386.35061816581, -28006.266415866186, -22447.946363442705, 3006.5107949388976, -35190.58647043544, 14585.116754188151, 6303.191936396592, -15327.015856148704, -34268.71112212075, -3410.1385963128328, -34507.78538081472, -13193.47479265628, -17698.804163790246, 4789.442394905376, -0.10769812011718749, 0.9628333740234375, -0.1490467529296875, 192.0, 0.0, 0.0, 0.0, 0.0, 0.0, 0.0, 0.0, 0.0, 0.0, 1.741809004098214E9, 0.0, 2025-03-12 14:50:04.098
224.0, 11233.115045203573, -28365.66011496307, -42384.56247860938, -27981.321869054067, -22442.000799417594, 3029.376629516677, -35187.18900527823, 14589.967082734953, 6303.214288141047, -15331.285039339667, -34255.098909747474, -3394.6041339163944, -34492.63089807402, -13187.4621733978, -17694.534980599285, 4791.4764036508095, -0.10769812011718749, 0.9628333740234375, -0.1490467529296875, 192.0, 0.0, 0.0, 0.0, 0.0, 0.0, 0.0, 0.0, 0.0, 0.0, 1.741809004098286E9, 0.0, 2025-03-12 14:50:04.098
226.0, 11221.98387646483, -28374.176129600542, -42394.26313570299, -28013.106049669514, -22453.891927467816, 3008.589507173241, -35193.89452861482, 14583.97681522093, 6312.0655789453485, -15328.334609071568, -34265.29130521909, -3407.411683489285, -34500.92339526694, -13192.915999044895, -17697.485410867383, 4791.811679817639, -0.10484906005859375, 0.9674166870117187, -0.14852337646484376, 192.0, 126.0, 104.0, 15.0, 48.0, 125.5, 48.0, 0.0, 0.0, 0.0, 1.741809004098331E9, 0.0, 2025-03-12 14:50:04.098
228.0, 11243.575661608656, -28373.259708077876, -42398.554670638405, -27975.286898051134, -22450.427407077244, 3044.687574468562, -35195.86148212689, 14588.871847256643, 6297.24637237148, -15340.583365033075, -34264.66545637434, -3395.431148461241, -34502.42096214544, -13193.698310100832, -17703.855658037148, 4774.936112753882, -0.10484906005859375, 0.9674166870117187, -0.14852337646484376, 192.0, 0.0, 0.0, 0.0, 0.0, 0.0, 0.0, 0.0, 0.0, 0.0, 1.741809004098375E9, 0.0, 2025-03-12 14:50:04.098
230.0, 11234.165577192973, -28373.46087377797, -42392.743217080024, -28009.842694979037, -22452.036732678025, 3008.4553967065094, -35190.72058090217, 14587.709556544967, 6309.361017866257, -15336.4706440533, -34266.52065116414, -3402.5613549424834, -34508.27711919274, -13187.506876886711, -17705.621445849116, 4783.206258202345, -0.10484906005859375, 0.9674166870117187, -0.14852337646484376, 192.0, 0.0, 0.0, 0.0, 0.0, 0.0, 0.0, 0.0, 0.0, 0.0, 1.741809004098421E9, 0.0, 2025-03-12 14:50:04.098
232.0, 11264.496894418824, -28378.914699425066, -42382.3049524194, -27969.989534615226, -22438.893906938305, 3040.0160598774028, -35187.50192970061, 14596.337329904716, 6307.170546909636, -15329.496899783242, -34252.64021785739, -3390.960799570179, -34493.94965099688, -13177.716812815288, -17693.707966054437, 4789.732967583295, -0.10484906005859375, 0.9674166870117187, -0.14852337646484376, 192.0, 0.0, 0.0, 0.0, 0.0, 0.0, 0.0, 0.0, 0.0, 0.0, 1.741809004157008E9, 0.0, 2025-03-12 14:50:04.157
234.0, 11241.876929030053, -28376.456007534984, -42386.99881875501, -28011.452020579818, -22451.72380825565, 3010.1317775406574, -35192.46401696969, 14586.904893744577, 6295.4358810706, -15334.682504496874, -34265.5371744081, -3406.0035235886007, -34506.86895929205, -13184.310577429604, -17700.0782132242, 4781.75339481275, -0.10484906005859375, 0.9674166870117187, -0.14852337646484376, 192.0, 0.0, 0.0, 0.0, 0.0, 0.0, 0.0, 0.0, 0.0, 0.0, 1.741809004157113E9, 0.0, 2025-03-12 14:50:04.157
236.0, 11277.349147480625, -28371.203347587987, -42374.41478662667, -27972.001191616204, -22421.593656729896, 3037.1326848426684, -35170.38049344784, 14602.484059629925, 6299.8615264727505, -15324.93714391436, -34255.12126149193, -3397.3310467399415, -34495.2907556642, -13179.504952371712, -17688.45530610744, 4786.290798937178, -0.10442453002929689, 0.9727083435058593, -0.1462616882324219, 192.0, 126.0, 96.0, 15.0, 72.0, 125.5, 64.0, 0.0, 0.0, 0.0, 1.741809004157161E9, 0.0, 2025-03-12 14:50:04.157
238.0, 11261.658222873, -28366.196556829997, -42377.454623872596, -28005.037069921145, -22435.317627825454, 3012.6575246641073, -35180.5058336861, 14595.443260126503, 6307.595230054287, -15321.494975268242, -34251.92496203482, -3391.0055030590897, -34496.430694631425, -13181.203684950315, -17682.375631615596, 4791.498755395264, -0.10442453002929689, 0.9727083435058593, -0.1462616882324219, 192.0, 0.0, 0.0, 0.0, 0.0, 0.0, 0.0, 0.0, 0.0, 0.0, 1.741809004157224E9, 0.0, 2025-03-12 14:50:04.157
240.0, 11287.474487718879, -28374.399647045095, -42376.56055409439, -27969.073113092556, -22438.62568600484, 3042.340641300755, -35188.23953726763, 14597.700786316489, 6300.599134039776, -15329.832175950072, -34255.031854514105, -3401.421415975263, -34502.62212784554, -13186.478696641767, -17687.672995051504, 4785.620246603518, -0.10442453002929689, 0.9727083435058593, -0.1462616882324219, 192.0, 0.0, 0.0, 0.0, 0.0, 0.0, 0.0, 0.0, 0.0, 0.0, 1.741809004157266E9, 0.0, 2025-03-12 14:50:04.157
242.0, 11276.768002124787, -28364.9448591405, -42369.36329237978, -27993.905901182403, -22436.457566792677, 3020.7935596458387, -35174.80613884999, 14600.673568329046, 6307.237602143002, -15322.523155513187, -34251.99201726819, -3394.492375194118, -34493.7931887857, -13175.146362202926, -17678.262910635818, 4796.460842664343, -0.10442453002929689, 0.9727083435058593, -0.1462616882324219, 192.0, 0.0, 0.0, 0.0, 0.0, 0.0, 0.0, 0.0, 0.0, 0.0, 1.741809004157308E9, 0.0, 2025-03-12 14:50:04.157
244.0, 11308.70864495142, -28363.156719584076, -42363.887114988225, -27963.462825234274, -22433.462433035664, 3038.3173272987997, -35179.164729018776, 14603.646350341602, 6306.455291087066, -15320.399739789933, -34248.885124788896, -3398.739206640626, -34490.79805502869, -13178.901455271418, -17680.22986414789, 4794.6503513634625, -0.10442453002929689, 0.9727083435058593, -0.1462616882324219, 192.0, 0.0, 0.0, 0.0, 0.0, 0.0, 0.0, 0.0, 0.0, 0.0, 1.74180900415735E9, 0.0, 2025-03-12 14:50:04.157
246.0, 11292.503630221323, -28351.980847356423, -42366.97165572306, -27988.67559297986, -22445.420616319254, 3022.1123125687022, -35183.858595354395, 14596.538495604813, 6312.333799878812, -15317.337550799555, -34236.502258360655, -3382.444784932707, -34488.96521198335, -13179.348490160524, -17679.2240356474, 4789.352987927555, -0.10521226501464845, 0.9733541717529297, -0.14313084411621096, 192.0, 126.0, 88.0, 15.0, 56.0, 125.5, 80.0, 0.0, 0.0, 0.0, 1.74180900421727E9, 0.0, 2025-03-12 14:50:04.217
248.0, 11326.746502726854, -28346.012931586854, -42362.0989754318, -27960.82531938855, -22433.909467924772, 3036.082152853269, -35181.601069164404, 14603.60164685269, 6320.6933523050975, -15308.061576850603, -34235.049394971065, -3388.591514657917, -34485.791264270694, -13175.951025003318, -17681.123933926097, 4801.937020055892, -0.10521226501464845, 0.9733541717529297, -0.14313084411621096, 192.0, 0.0, 0.0, 0.0, 0.0, 0.0, 0.0, 0.0, 0.0, 0.0, 1.741809004217327E9, 0.0, 2025-03-12 14:50:04.217
250.0, 11304.819441416197, -28341.564934440248, -42371.68787380313, -27984.741685955727, -22445.33120934143, 3027.5884899602524, -35186.093769799925, 14595.912646760065, 6317.273535403435, -15311.50374549672, -34234.44589787077, -3372.7664795835594, -34481.9914677133, -13180.84605703903, -17674.39605884505, 4794.829165319105, -0.10521226501464845, 0.9733541717529297, -0.14313084411621096, 192.0, 0.0, 0.0, 0.0, 0.0, 0.0, 0.0, 0.0, 0.0, 0.0, 1.741809004217369E9, 0.0, 2025-03-12 14:50:04.217
252.0, 11327.841738205165, -28339.955608839467, -42366.72578653405, -27966.368552013464, -22435.317627825454, 3021.4417602350427, -35182.98687732063, 14605.590952109213, 6327.9129657641615, -15303.680634937364, -34235.831706027, -3385.283456478531, -34479.018685700736, -13172.441801123834, -17673.21141638892, 4806.5638311581415, -0.10521226501464845, 0.9733541717529297, -0.14313084411621096, 192.0, 0.0, 0.0, 0.0, 0.0, 0.0, 0.0, 0.0, 0.0, 0.0, 1.741809004217431E9, 0.0, 2025-03-12 14:50:04.217
254.0, 11306.026435616785, -28345.36473099765, -42378.751025051, -27975.95745038479, -22447.745197742606, 3025.308612025811, -35190.65352566881, 14598.326635161238, 6324.001410484482, -15306.69812043883, -34226.91335998933, -3369.0113865150674, -34474.99537169878, -13170.251330167215, -17667.198797130444, 4811.280049238211, -0.10521226501464845, 0.9733541717529297, -0.14313084411621096, 192.0, 0.0, 0.0, 0.0, 0.0, 0.0, 0.0, 0.0, 0.0, 0.0, 1.741809004217482E9, 0.0, 2025-03-12 14:50:04.217
0.0, 11328.646401005555, -28336.289922748798, -42365.31762663336, -27971.084770093534, -22428.030959133026, 3010.623515918674, -35175.14141501682, 14605.725062575944, 6329.723457065041, -15303.79239365964, -34236.59166533848, -3396.0122938170784, -34481.745598524285, -13174.431106380356, -17666.26002386332, 4810.09540678208, -0.10760613250732423, 0.9706770858764648, -0.1435654220581055, 192.0, 126.0, 72.0, 15.0, 32.0, 125.5, 64.0, 0.0, 0.0, 0.0, 1.741809004217528E9, 0.0, 2025-03-12 14:50:04.217
2.0, 11308.66394146251, -28341.9896175849, -42377.320513405866, -27975.622174217962, -22442.380779073334, 3025.3309637702664, -35188.530109945554, 14599.019539239353, 6329.477587876033, -15302.98773085925, -34223.02415645411, -3373.615845872861, -34471.53085130821, -13168.79846677762, -17650.524395766784, 4813.850499850571, -0.10760613250732423, 0.9706770858764648, -0.1435654220581055, 192.0, 0.0, 0.0, 0.0, 0.0, 0.0, 0.0, 0.0, 0.0, 0.0, 1.741809004217582E9, 0.0, 2025-03-12 14:50:04.217
4.0, 11311.48026126388, -28345.454137975474, -42376.69466456112, -27982.05947662109, -22438.670389493753, 3015.473844465476, -35188.530109945554, 14597.03023398283, 6330.103436720781, -15309.179164073368, -34239.27387467311, -3400.8849741083354, -34485.321877637136, -13177.113315714994, -17665.20949187392, 4809.111930026046, -0.10760613250732423, 0.9706770858764648, -0.1435654220581055, 192.0, 0.0, 0.0, 0.0, 0.0, 0.0, 0.0, 0.0, 0.0, 0.0, 1.741809004217627E9, 0.0, 2025-03-12 14:50:04.217
6.0, 11300.058519847218, -28344.47066121944, -42377.0522924724, -27975.57747072905, -22441.01732266156, 3029.309574283311, -35186.0043628221, 14599.310111917272, 6330.572823354343, -15303.926504126372, -34226.13104893339, -3372.7664795835594, -34472.11199666405, -13165.579815576055, -17650.77026495579, 4814.185776017401, -0.10760613250732423, 0.9706770858764648, -0.1435654220581055, 192.0, 0.0, 0.0, 0.0, 0.0, 0.0, 0.0, 0.0, 0.0, 0.0, 1.74180900427897E9, 0.0, 2025-03-12 14:50:04.278
8.0, 11302.897191393042, -28347.286981020807, -42376.314684905374, -27996.36459307249, -22438.893906938305, 3016.211452032501, -35186.02671456656, 14598.572504350246, 6322.168567439147, -15315.12472809848, -34244.30301717556, -3399.2756485075533, -34488.69699104989, -13179.572007605078, -17658.101637137133, 4810.0283515487135, -0.10760613250732423, 0.9706770858764648, -0.1435654220581055, 192.0, 0.0, 0.0, 0.0, 0.0, 0.0, 0.0, 0.0, 0.0, 0.0, 1.741809004279021E9, 0.0, 2025-03-12 14:50:04.279
10.0, 11304.305351293726, -28345.1412135531, -42370.50323134699, -27979.220805075267, -22432.367197557356, 3031.5223969843864, -35182.0034005646, 14601.947617762999, 6322.705009306074, -15306.429899505365, -34229.05912745704, -3376.923904052246, -34471.95553445286, -13167.74793478822, -17641.740160195848, 4813.3140579836445, -0.11180306625366213, 0.9693385429382324, -0.14278271102905277, 192.0, 126.0, 48.0, 15.0, 32.0, 125.5, 72.0, 0.0, 0.0, 0.0, 1.741809004279062E9, 0.0, 2025-03-12 14:50:04.279
12.0, 11298.739766924355, -28349.633914188616, -42372.44783311461, -27991.603671503508, -22430.132023111826, 3007.695437395029, -35174.11323477188, 14602.12643171864, 6325.364866896256, -15307.189858816846, -34245.532363120605, -3401.8908026088243, -34481.119749679536, -13175.571045347579, -17647.55161375423, 4817.896165596982, -0.11180306625366213, 0.9693385429382324, -0.14278271102905277, 192.0, 0.0, 0.0, 0.0, 0.0, 0.0, 0.0, 0.0, 0.0, 0.0, 1.741809004279132E9, 0.0, 2025-03-12 14:50:04.279
14.0, 11308.686293206965, -28355.735940424915, -42375.04063547142, -27968.179043314343, -22431.00374114558, 3034.8751586526823, -35176.61663015087, 14601.947617762999, 6321.654477316675, -15311.257876307713, -34232.948330992265, -3387.652741390794, -34470.10033966307, -13168.440838866334, -17638.387398527553, 4818.566717930641, -0.11180306625366213, 0.9693385429382324, -0.14278271102905277, 192.0, 0.0, 0.0, 0.0, 0.0, 0.0, 0.0, 0.0, 0.0, 0.0, 1.741809004279176E9, 0.0, 2025-03-12 14:50:04.279
16.0, 11297.152793068028, -28351.734978167413, -42377.00758898349, -28001.103162897012, -22430.668464978753, 3007.1366437836464, -35172.74977836011, 14602.238190440918, 6321.29684940539, -15314.74474844274, -34251.58968586799, -3409.512747468084, -34493.16733994095, -13177.158019203904, -17650.97143065589, 4816.532709185209, -0.11180306625366213, 0.9693385429382324, -0.14278271102905277, 192.0, 0.0, 0.0, 0.0, 0.0, 0.0, 0.0, 0.0, 0.0, 0.0, 1.741809004279217E9, 0.0, 2025-03-12 14:50:04.279
18.0, 11310.273267063292, -28362.128539339134, -42384.13779546473, -27970.77184567116, -22431.070796378946, 3043.525283756886, -35179.34354297442, 14606.55207712079, 6321.676829061131, -15300.618445946986, -34232.90362750335, -3384.769366356059, -34479.510424078755, -13167.502065599212, -17639.884965406058, 4823.9981918332805, -0.11180306625366213, 0.9693385429382324, -0.14278271102905277, 192.0, 0.0, 0.0, 0.0, 0.0, 0.0, 0.0, 0.0, 0.0, 0.0, 1.741809004279263E9, 0.0, 2025-03-12 14:50:04.279
20.0, 11294.04590058874, -28362.352056783686, -42389.79278681192, -28007.562817044596, -22445.73354074163, 3005.996704816426, -35189.24536576812, 14591.732870546923, 6317.854680759273, -15315.035321120658, -34253.131956235404, -3409.825671890458, -34495.53662485321, -13178.923807015874, -17658.63807900406, 4815.817453362639, -0.10990153312683107, 0.9696692714691162, -0.1433913555145264, 192.0, 126.0, 80.0, 15.0, 40.0, 125.5, 64.0, 0.0, 0.0, 0.0, 1.741809004337842E9, 0.0, 2025-03-12 14:50:04.337
22.0, 11320.309200323725, -28365.190728329508, -42381.16501345218, -27970.034238104134, -22429.930857411728, 3028.0578765938135, -35175.879022583846, 14599.131297961629, 6312.020875456438, -15315.616466476496, -34242.805450297055, -3397.3310467399415, -34484.137235181006, -13174.140533702439, -17653.340715568153, 4811.9058980829595, -0.10990153312683107, 0.9696692714691162, -0.1433913555145264, 192.0, 0.0, 0.0, 0.0, 0.0, 0.0, 0.0, 0.0, 0.0, 0.0, 1.741809004337915E9, 0.0, 2025-03-12 14:50:04.337
24.0, 11303.366578026602, -28361.726207938937, -42383.42253964216, -28006.244064121733, -22433.48478478012, 2997.234820989945, -35178.27065924057, 14595.353853148683, 6321.900346505684, -15313.157774586412, -34246.18056370981, -3406.1152823108773, -34482.12557818003, -13173.693498813333, -17656.693477236448, 4817.694999896884, -0.10990153312683107, 0.9696692714691162, -0.1433913555145264, 192.0, 0.0, 0.0, 0.0, 0.0, 0.0, 0.0, 0.0, 0.0, 0.0, 1.74180900433797E9, 0.0, 2025-03-12 14:50:04.337
26.0, 11314.676560720989, -28376.478359279437, -42389.16693796718, -27970.838900904528, -22434.468261536153, 3039.434914521565, -35187.79250237853, 14595.711481059967, 6309.696294033086, -15318.253972322223, -34244.21361019774, -3401.0414363195227, -34479.376313612025, -13171.055992967606, -17657.58754701466, 4808.776653859217, -0.10990153312683107, 0.9696692714691162, -0.1433913555145264, 192.0, 0.0, 0.0, 0.0, 0.0, 0.0, 0.0, 0.0, 0.0, 0.0, 1.741809004338024E9, 0.0, 2025-03-12 14:50:04.338
28.0, 11293.665920933, -28366.28596380782, -42388.563440866885, -28003.11481989799, -22436.636380748318, 3013.9092223536045, -35184.73031338815, 14592.515181602857, 6308.645762043687, -15315.392949031944, -34256.97645628172, -3405.511785210584, -34490.283964906215, -13174.028774980161, -17662.326116839187, 4810.6765521379175, -0.10990153312683107, 0.9696692714691162, -0.1433913555145264, 192.0, 0.0, 0.0, 0.0, 0.0, 0.0, 0.0, 0.0, 0.0, 0.0, 1.741809004338067E9, 0.0, 2025-03-12 14:50:04.338
30.0, 11333.34026734117, -28355.0430363468, -42368.33511213483, -27963.887508378924, -22417.01154911656, 3040.597205233241, -35170.26873472556, 14602.394652652105, 6318.77110228194, -15303.255951792713, -34239.787964795585, -3395.520555439062, -34479.06338918965, -13164.730449286753, -17657.1181603811, 4820.5336714427085, -0.10895076656341554, 0.9718346357345581, -0.14169567775726322, 192.0, 126.0, 80.0, 15.0, 56.0, 125.5, 80.0, 0.0, 0.0, 0.0, 1.741809004338111E9, 0.0, 2025-03-12 14:50:04.338
32.0, 11311.592019986156, -28350.572687455737, -42370.92791449164, -27996.319889583578, -22430.53435451202, 3012.9257455975708, -35177.24247899562, 14597.65608282758, 6319.911041249161, -15308.732129184262, -34242.60428459696, -3390.558468169984, -34477.09643567758, -13167.32325164357, -17651.507872522816, 4820.734837142806, -0.10895076656341554, 0.9718346357345581, -0.14169567775726322, 192.0, 0.0, 0.0, 0.0, 0.0, 0.0, 0.0, 0.0, 0.0, 0.0, 1.741809004338156E9, 0.0, 2025-03-12 14:50:04.338
34.0, 11340.716343011421, -28357.345266025695, -42374.638304071224, -27959.215993787766, -22429.707339967175, 3043.882911668171, -35179.500005185604, 14607.401443410094, 6321.676829061131, -15302.473640736776, -34240.16794445133, -3385.8422500899137, -34471.21792688584, -13165.579815576055, -17645.763474197804, 4820.980706331815, -0.10895076656341554, 0.9718346357345581, -0.14169567775726322, 192.0, 0.0, 0.0, 0.0, 0.0, 0.0, 0.0, 0.0, 0.0, 0.0, 1.74180900433821E9, 0.0, 2025-03-12 14:50:04.338
36.0, 11316.822328188699, -28344.0906815637, -42379.734501807034, -27993.481218037752, -22432.993046402105, 3014.6021264317187, -35175.23082199464, 14602.484059629925, 6316.848852258784, -15305.26760879369, -34246.91817127683, -3383.5623721554725, -34481.52208107973, -13172.017117979183, -17650.367933555597, 4814.074017295125, -0.10895076656341554, 0.9718346357345581, -0.14169567775726322, 192.0, 0.0, 0.0, 0.0, 0.0, 0.0, 0.0, 0.0, 0.0, 0.0, 1.741809004397243E9, 0.0, 2025-03-12 14:50:04.397
38.0, 11348.427694848502, -28345.431786231016, -42374.14656569321, -27961.697037422306, -22427.06983412145, 3030.181292317068, -35175.96842956167, 14606.88735328762, 6324.359038395767, -15299.45615523531, -34236.61401708293, -3386.4010437012967, -34478.07991243362, -13166.764458032187, -17644.735293952857, 4822.522976699231, -0.10895076656341554, 0.9718346357345581, -0.14169567775726322, 192.0, 0.0, 0.0, 0.0, 0.0, 0.0, 0.0, 0.0, 0.0, 0.0, 1.741809004397291E9, 0.0, 2025-03-12 14:50:04.397
40.0, 11323.416092803012, -28351.578515956226, -42383.98133325355, -27991.000174403212, -22435.4964417811, 3019.4971584674313, -35179.61176390788, 14595.733832804422, 6316.312410391857, -15309.357978029011, -34239.96677875123, -3377.482697663629, -34485.54539508169, -13176.196894192326, -17647.52926200977, 4814.699866139873, -0.10947538328170778, 0.970917317867279, -0.13984783887863161, 192.0, 126.0, 72.0, 15.0, 40.0, 125.5, 88.0, 0.0, 0.0, 0.0, 1.741809004397346E9, 0.0, 2025-03-12 14:50:04.397
42.0, 11347.53362507029, -28357.926411381533, -42377.7004930616, -27970.548328226607, -22430.512002767566, 3028.9519463720258, -35174.09088302742, 14604.920399775554, 6323.375561639734, -15305.133498326959, -34245.26414218714, -3389.351473969397, -34480.3374386236, -13175.101658714017, -17649.697381221937, 4818.969049330837, -0.10947538328170778, 0.970917317867279, -0.13984783887863161, 192.0, 0.0, 0.0, 0.0, 0.0, 0.0, 0.0, 0.0, 0.0, 0.0, 1.741809004397405E9, 0.0, 2025-03-12 14:50:04.397
44.0, 11326.344171326658, -28352.56199271226, -42381.00855124099, -27987.088619123533, -22437.57515401544, 3019.050123578325, -35178.06949354047, 14603.691053830511, 6315.887727247206, -15304.239428548746, -34239.095060717475, -3371.067747004956, -34477.54347056669, -13168.753763288709, -17642.075436362677, 4817.136206285501, -0.10947538328170778, 0.970917317867279, -0.13984783887863161, 192.0, 0.0, 0.0, 0.0, 0.0, 0.0, 0.0, 0.0, 0.0, 0.0, 1.74180900439745E9, 0.0, 2025-03-12 14:50:04.397
46.0, 11347.354811114647, -28363.22377481744, -42380.583868096335, -27972.29176429412, -22429.327360311432, 3024.012210847403, -35173.55444116049, 14606.708539331978, 6316.960610981061, -15301.288998280645, -34248.169868966324, -3391.0725582924556, -34479.800996756676, -13170.899530756418, -17651.463169033905, 4815.079845795613, -0.10947538328170778, 0.970917317867279, -0.13984783887863161, 192.0, 0.0, 0.0, 0.0, 0.0, 0.0, 0.0, 0.0, 0.0, 0.0, 1.741809004397498E9, 0.0, 2025-03-12 14:50:04.397
48.0, 11334.211985374926, -28368.007048130876, -42381.075606474355, -27979.82430217556, -22439.653866249784, 3029.153112072124, -35176.90720282879, 14598.974835750441, 6306.544698064888, -15305.111146582503, -34242.26900843013, -3382.221267488154, -34474.32481936512, -13171.525379601168, -17643.0142096298, 4807.480252680809, -0.10947538328170778, 0.970917317867279, -0.13984783887863161, 192.0, 0.0, 0.0, 0.0, 0.0, 0.0, 0.0, 0.0, 0.0, 0.0, 1.741809004397544E9, 0.0, 2025-03-12 14:50:04.397
50.0, 11358.06129670874, -28360.072178849245, -42370.99496972501, -27976.940927140826, -22429.215601589156, 3014.5797746872636, -35170.4028451923, 14606.283856187327, 6302.163756151647, -15311.481393752265, -34257.468194659734, -3404.4165497322742, -34487.24412766029, -13179.929635516362, -17654.68182023547, 4803.523993912219, -0.1117376916408539, 0.9674586589336395, -0.14192391943931582, 192.0, 126.0, 56.0, 15.0, 16.0, 125.5, 64.0, 0.0, 0.0, 0.0, 1.741809004458928E9, 0.0, 2025-03-12 14:50:04.458
52.0, 11343.040924434772, -28367.850585919692, -42381.634400085735, -27977.00798237419, -22440.19030811671, 3032.88585339616, -35187.09959830041, 14599.93596076202, 6299.235677628002, -15308.665073950897, -34239.69855781776, -3374.0405290175117, -34476.44823508838, -13173.000594735217, -17641.15901484001, 4802.451110178365, -0.1117376916408539, 0.9674586589336395, -0.14192391943931582, 192.0, 0.0, 0.0, 0.0, 0.0, 0.0, 0.0, 0.0, 0.0, 0.0, 1.741809004458981E9, 0.0, 2025-03-12 14:50:04.458
54.0, 11362.553997344256, -28364.05078936229, -42369.36329237978, -27988.519130768673, -22426.48868876561, 3002.8898123371378, -35174.96260106118, 14601.254713684883, 6309.562183566354, -15307.815707661595, -34250.96383702324, -3399.4321107187407, -34482.19263341339, -13181.360147161502, -17656.559366769718, 4797.4666711648315, -0.1117376916408539, 0.9674586589336395, -0.14192391943931582, 192.0, 0.0, 0.0, 0.0, 0.0, 0.0, 0.0, 0.0, 0.0, 0.0, 1.741809004459024E9, 0.0, 2025-03-12 14:50:04.459
56.0, 11354.954404229451, -28371.42686503254, -42382.5061181195, -27981.433627776343, -22434.311799324965, 3020.212414290001, -35182.450435453706, 14595.912646760065, 6301.269686373435, -15315.325893798577, -34240.10088921796, -3380.746052354104, -34470.52502280772, -13182.500086128723, -17650.01030564431, 4794.6503513634625, -0.1117376916408539, 0.9674586589336395, -0.14192391943931582, 192.0, 0.0, 0.0, 0.0, 0.0, 0.0, 0.0, 0.0, 0.0, 0.0, 1.741809004459092E9, 0.0, 2025-03-12 14:50:04.459
58.0, 11356.094343196672, -28366.37537078564, -42380.516812862974, -27993.68238373785, -22432.121328368346, 2995.759605855895, -35179.790577863525, 14595.97970199343, 6308.511651576955, -15313.515402497698, -34258.45167141577, -3410.8762038798577, -34476.31412462165, -13191.329025188568, -17657.095808636645, 4795.52206939722, -0.1117376916408539, 0.9674586589336395, -0.14192391943931582, 192.0, 0.0, 0.0, 0.0, 0.0, 0.0, 0.0, 0.0, 0.0, 0.0, 1.741809004459133E9, 0.0, 2025-03-12 14:50:04.459
60.0, 11352.093380939172, -28368.722303953447, -42380.2038884406, -27973.16348232788, -22432.18838360171, 3017.5302049553643, -35180.59524066392, 14598.326635161238, 6303.527212563421, -15307.391024516945, -34242.023139241115, -3385.775194856548, -34467.79810998418, -13183.215341951292, -17646.210509086908, 4791.878735051005, -0.10786884582042695, 0.9657293294668197, -0.1399619597196579, 192.0, 126.0, 96.0, 15.0, 16.0, 125.5, 88.0, 0.0, 0.0, 0.0, 1.741809004459175E9, 0.0, 2025-03-12 14:50:04.459
62.0, 11350.327593127204, -28374.556109256282, -42381.4555861301, -27994.93408142735, -22436.90460168178, 2990.5740011422636, -35185.69143839973, 14591.151725191085, 6310.165680666648, -15311.861373408006, -34258.5857818825, -3412.7537504141037, -34475.55416531017, -13185.830496052564, -17655.821759202692, 4797.556078142653, -0.10786884582042695, 0.9657293294668197, -0.1399619597196579, 192.0, 0.0, 0.0, 0.0, 0.0, 0.0, 0.0, 0.0, 0.0, 0.0, 1.741809004459232E9, 0.0, 2025-03-12 14:50:04.459
64.0, 11361.324651399214, -28376.56776625726, -42378.214583184075, -27965.988572357724, -22433.082453379924, 3019.050123578325, -35180.148205774814, 14594.415079881559, 6303.974247452527, -15316.666998465897, -34242.20195319676, -3397.3310467399415, -34466.524060550226, -13182.075402984072, -17653.385419057064, 4794.4715374078205, -0.10786884582042695, 0.9657293294668197, -0.1399619597196579, 192.0, 0.0, 0.0, 0.0, 0.0, 0.0, 0.0, 0.0, 0.0, 0.0, 1.74180900445928E9, 0.0, 2025-03-12 14:50:04.459
66.0, 11351.758104772343, -28371.873899921644, -42376.71701630557, -27995.895206438927, -22438.089244137915, 2989.21054473049, -35181.66812439777, 14590.011786223864, 6310.210384155558, -15315.12472809848, -34251.187354467795, -3412.2173085471763, -34479.0410374452, -13186.99278676424, -17657.475788292384, 4793.622171118519, -0.10786884582042695, 0.9657293294668197, -0.1399619597196579, 192.0, 0.0, 0.0, 0.0, 0.0, 0.0, 0.0, 0.0, 0.0, 0.0, 1.741809004518689E9, 0.0, 2025-03-12 14:50:04.518
68.0, 11372.768744560331, -28375.18195810103, -42374.995931982514, -27961.987610100226, -22432.613066746362, 3022.3134782688, -35177.6001069069, 14597.387861894114, 6310.165680666648, -15311.213172818801, -34240.19029619578, -3391.0725582924556, -34470.145043151984, -13174.699327313821, -17644.310610808207, 4800.059473521647, -0.10786884582042695, 0.9657293294668197, -0.1399619597196579, 192.0, 0.0, 0.0, 0.0, 0.0, 0.0, 0.0, 0.0, 0.0, 0.0, 1.741809004518755E9, 0.0, 2025-03-12 14:50:04.518
70.0, 11349.29941288226, -28368.498786508895, -42378.19223143962, -27995.82815120556, -22435.87642143684, 2991.892754065127, -35176.97425806216, 14592.068146713753, 6306.120014920237, -15312.867201908495, -34263.23494472921, -3406.2717445220646, -34485.47833984832, -13182.924769273373, -17652.960735912413, 4799.411272932443, -0.10893442291021348, 0.9638646647334098, -0.13998097985982896, 192.0, 126.0, 72.0, 15.0, 8.0, 125.5, 80.0, 0.0, 0.0, 0.0, 1.741809004518797E9, 0.0, 2025-03-12 14:50:04.518
72.0, 11370.131238714604, -28379.22762384744, -42382.684932075135, -27962.18877580032, -22433.23891559111, 3024.6157079476966, -35178.24830749611, 14594.862114770665, 6301.761424751452, -15311.034358863159, -34251.053244001065, -3395.185279272232, -34479.4880723343, -13179.169676204881, -17650.54674751124, 4793.756281585251, -0.10893442291021348, 0.9638646647334098, -0.13998097985982896, 192.0, 0.0, 0.0, 0.0, 0.0, 0.0, 0.0, 0.0, 0.0, 0.0, 1.741809004518843E9, 0.0, 2025-03-12 14:50:04.518
74.0, 11358.083648453194, -28370.62220223215, -42382.3049524194, -27999.940872185336, -22436.412863303765, 2989.1658412415795, -35175.92372607276, 14590.503524601882, 6304.018950941438, -15313.403643775422, -34261.02212202813, -3407.7246079116594, -34490.2392614173, -13189.496182143233, -17659.174520870987, 4790.649389105963, -0.10893442291021348, 0.9638646647334098, -0.13998097985982896, 192.0, 0.0, 0.0, 0.0, 0.0, 0.0, 0.0, 0.0, 0.0, 0.0, 1.741809004518886E9, 0.0, 2025-03-12 14:50:04.518
76.0, 11384.503410399368, -28372.499748766393, -42382.841394286326, -27960.4006362439, -22434.4459097917, 3021.3970567461324, -35177.19777550671, 14597.36551014966, 6307.952857965572, -15305.491126238243, -34245.308845676045, -3391.318427481464, -34476.44823508838, -13172.151228445915, -17653.854805690626, 4793.733929840795, -0.10893442291021348, 0.9638646647334098, -0.13998097985982896, 192.0, 0.0, 0.0, 0.0, 0.0, 0.0, 0.0, 0.0, 0.0, 0.0, 1.741809004518937E9, 0.0, 2025-03-12 14:50:04.518
78.0, 11355.15556992955, -28367.045923119298, -42395.268964203475, -28006.82520947757, -22451.299125111, 2995.312570966789, -35189.89356635733, 14582.389841364604, 6295.9276194486165, -15319.259800822712, -34261.78208133961, -3403.298962509509, -34497.03419173172, -13183.75178381822, -17665.365954085108, 4780.188772700879, -0.10893442291021348, 0.9638646647334098, -0.13998097985982896, 192.0, 0.0, 0.0, 0.0, 0.0, 0.0, 0.0, 0.0, 0.0, 0.0, 1.741809004518983E9, 0.0, 2025-03-12 14:50:04.518
80.0, 11392.125355258628, -28369.705780709482, -42378.61691458427, -27967.73200842524, -22428.880325422328, 3020.1006555677245, -35175.879022583846, 14598.348986905694, 6307.6622852876535, -15303.837097148551, -34246.69465383228, -3394.3135612384754, -34483.556089825164, -13175.99572849223, -17656.693477236448, 4793.800985074161, -0.10846721145510674, 0.9639323323667048, -0.14099048992991448, 192.0, 126.0, 80.0, 15.0, 16.0, 125.5, 72.0, 0.0, 0.0, 0.0, 1.741809004577594E9, 0.0, 2025-03-12 14:50:04.577
82.0, 11375.361546917147, -28356.339437525206, -42376.69466456112, -27995.87285469447, -22435.54114527001, 2988.6741028635624, -35180.19290926372, 14591.487001357915, 6310.702122533575, -15303.88180063746, -34245.42060439833, -3388.323293724453, -34482.01381945775, -13175.012251736194, -17656.045276647244, 4799.254810721256, -0.10846721145510674, 0.9639323323667048, -0.14099048992991448, 192.0, 0.0, 0.0, 0.0, 0.0, 0.0, 0.0, 0.0, 0.0, 0.0, 1.7418090045777E9, 0.0, 2025-03-12 14:50:04.577
84.0, 11399.322616973235, -28362.776739928337, -42379.64509482922, -27958.97012459876, -22438.75979647157, 3018.2007572890234, -35186.071418055464, 14597.231399682929, 6320.626297071731, -15291.78950688714, -34237.9327700058, -3386.088119278922, -34475.956496710365, -13166.339774887536, -17653.430122545975, 4801.959371800348, -0.10846721145510674, 0.9639323323667048, -0.14099048992991448, 192.0, 0.0, 0.0, 0.0, 0.0, 0.0, 0.0, 0.0, 0.0, 0.0, 1.741809004577752E9, 0.0, 2025-03-12 14:50:04.577
86.0, 11368.991299747384, -28356.51825148085, -42378.48280411754, -27996.09637213902, -22438.469223793654, 2995.5137366668864, -35176.28135398404, 14591.911684502566, 6305.449462586577, -15301.579570958564, -34250.91913353433, -3388.7256251246486, -34492.653249818475, -13177.94033025984, -17665.477712807384, 4794.113909496536, -0.10846721145510674, 0.9639323323667048, -0.14099048992991448, 192.0, 0.0, 0.0, 0.0, 0.0, 0.0, 0.0, 0.0, 0.0, 0.0, 1.741809004577803E9, 0.0, 2025-03-12 14:50:04.577
88.0, 11401.06605304075, -28362.642629461603, -42372.403129625694, -27969.028409603645, -22423.33709279741, 3013.171614786579, -35171.16280450378, 14601.880562529632, 6317.429997614622, -15294.516419710688, -34238.893895017376, -3391.1396135258215, -34477.92345022243, -13171.4583243678, -17659.8674249491, 4810.833014349105, -0.10846721145510674, 0.9639323323667048, -0.14099048992991448, 192.0, 0.0, 0.0, 0.0, 0.0, 0.0, 0.0, 0.0, 0.0, 0.0, 1.741809004577856E9, 0.0, 2025-03-12 14:50:04.577
90.0, 11380.547151630779, -28360.7427311829, -42378.81808028437, -27990.866063936483, -22432.121328368346, 3004.074454793269, -35176.54957491751, 14596.382033393626, 6314.211346413058, -15301.26664653619, -34235.33996764898, -3377.840325574914, -34480.40449385697, -13175.816914536586, -17657.34167782565, 4797.4666711648315, -0.10823360572755336, 0.9639661661833524, -0.13849524496495724, 192.0, 126.0, 80.0, 15.0, 16.0, 125.5, 96.0, 0.0, 0.0, 0.0, 1.74180900457791E9, 0.0, 2025-03-12 14:50:04.577
92.0, 11402.250695496881, -28365.347190540695, -42378.72867330655, -27971.91178463838, -22429.997912645093, 3015.138568298646, -35181.01992380857, 14596.471440371448, 6307.01408469845, -15309.760309429206, -34253.131956235404, -3398.4709857071625, -34488.07114220514, -13187.640987353443, -17664.181311628978, 4787.654255348952, -0.10823360572755336, 0.9639661661833524, -0.13849524496495724, 192.0, 0.0, 0.0, 0.0, 0.0, 0.0, 0.0, 0.0, 0.0, 0.0, 1.741809004577955E9, 0.0, 2025-03-12 14:50:04.577
94.0, 11394.137012259605, -28357.61348695916, -42374.928876749145, -27992.520093026174, -22427.315703310454, 2998.888850079638, -35180.304667986, 14593.252789169883, 6316.960610981061, -15303.390062259445, -34239.29622641757, -3378.9579127976795, -34473.54250830919, -13179.661414582899, -17655.06179989121, 4789.621208861018, -0.10823360572755336, 0.9639661661833524, -0.13849524496495724, 192.0, 0.0, 0.0, 0.0, 0.0, 0.0, 0.0, 0.0, 0.0, 0.0, 1.741809004577997E9, 0.0, 2025-03-12 14:50:04.577
96.0, 11413.11364330216, -28366.107149852178, -42375.01828372697, -27977.075037607556, -22426.309874809966, 3000.3864169581434, -35177.689513884725, 14598.08076597223, 6324.135520951214, -15302.674806436875, -34243.67716833081, -3394.7605961275813, -34474.97301995433, -13184.712908829799, -17658.056933648222, 4789.621208861018, -0.10823360572755336, 0.9639661661833524, -0.13849524496495724, 192.0, 0.0, 0.0, 0.0, 0.0, 0.0, 0.0, 0.0, 0.0, 0.0, 1.741809004637995E9, 0.0, 2025-03-12 14:50:04.637
98.0, 11393.39940469258, -28356.697065436492, -42376.80642328339, -27985.658107478394, -22430.377892300832, 3000.3193617247775, -35177.287182484535, 14595.957350248975, 6312.959648723561, -15309.670902451386, -34243.45365088626, -3380.321369209453, -34478.638706045, -13188.289187942648, -17657.45343654793, 4782.870982035516, -0.10823360572755336, 0.9639661661833524, -0.13849524496495724, 192.0, 0.0, 0.0, 0.0, 0.0, 0.0, 0.0, 0.0, 0.0, 0.0, 1.741809004638061E9, 0.0, 2025-03-12 14:50:04.638
100.0, 11407.391596721602, -28361.1450625831, -42374.079510459844, -27974.05755210609, -22428.321531810943, 3001.727521625462, -35177.37658946235, 14600.114774717662, 6327.06359947486, -15297.891533123438, -34246.649950343366, -3396.5710874284614, -34474.123653665025, -13181.51660937269, -17650.323230066686, 4797.354912442554, -0.10911680286377667, 0.9639830830916762, -0.13924762248247863, 192.0, 126.0, 72.0, 15.0, 16.0, 125.5, 80.0, 0.0, 0.0, 0.0, 1.741809004638109E9, 0.0, 2025-03-12 14:50:04.638
102.0, 11393.309997714758, -28357.85935614817, -42376.78407153894, -27982.17123534337, -22437.083415637426, 3012.6128211751966, -35185.64673491081, 14596.918475260554, 6306.656456787165, -15312.330760041566, -34245.174735209315, -3386.4904506791177, -34480.49390083479, -13188.266836198192, -17658.951003426435, 4780.769918056717, -0.10911680286377667, 0.9639830830916762, -0.13924762248247863, 192.0, 0.0, 0.0, 0.0, 0.0, 0.0, 0.0, 0.0, 0.0, 0.0, 1.741809004638154E9, 0.0, 2025-03-12 14:50:04.638
104.0, 11394.315826215246, -28370.28692606532, -42382.32730416385, -27991.268395336676, -22439.095072638404, 3000.2299547469565, -35184.97618257716, 14596.896123516099, 6307.4387678431, -15313.828326920073, -34257.31173244855, -3413.513709725584, -34490.21690967285, -13194.435917667857, -17665.812988974212, 4783.921514024915, -0.10911680286377667, 0.9639830830916762, -0.13924762248247863, 192.0, 0.0, 0.0, 0.0, 0.0, 0.0, 0.0, 0.0, 0.0, 0.0, 1.741809004638201E9, 0.0, 2025-03-12 14:50:04.638
106.0, 11399.747300117886, -28366.822405674746, -42369.698568546606, -27976.739761440727, -22427.360406799366, 3006.019056560881, -35169.46407192518, 14604.294550930805, 6309.092796932793, -15307.145155327935, -34238.804488039554, -3389.619694902861, -34475.732979265806, -13185.048184996627, -17650.8149684447, 4788.034235004692, -0.10911680286377667, 0.9639830830916762, -0.13924762248247863, 192.0, 0.0, 0.0, 0.0, 0.0, 0.0, 0.0, 0.0, 0.0, 0.0, 1.741809004638244E9, 0.0, 2025-03-12 14:50:04.638
108.0, 11408.576239177733, -28358.08287359272, -42361.71899577606, -27989.882587180447, -22420.00668287357, 2982.572076627264, -35165.21724047867, 14605.881524787132, 6316.737093536508, -15302.45128899232, -34247.38755791039, -3406.182337544243, -34480.91858397944, -13188.244484453737, -17653.899509179533, 4795.544421141675, -0.10911680286377667, 0.9639830830916762, -0.13924762248247863, 192.0, 0.0, 0.0, 0.0, 0.0, 0.0, 0.0, 0.0, 0.0, 0.0, 1.741809004638299E9, 0.0, 2025-03-12 14:50:04.638
110.0, 11406.765747876852, -28373.438522033517, -42372.403129625694, -27966.39090375792, -22429.707339967175, 3019.5418619563416, -35178.471824940665, 14608.586085866224, 6318.882861004217, -15300.841963391538, -34228.72385129021, -3381.707177365682, -34465.49588030528, -13176.398059892424, -17637.739197938346, 4802.741682856284, -0.10955840143188833, 0.9649915415458381, -0.13962381124123932, 192.0, 126.0, 72.0, 15.0, 24.0, 125.5, 80.0, 0.0, 0.0, 0.0, 1.741809004699715E9, 0.0, 2025-03-12 14:50:04.699
112.0, 11398.585009406212, -28367.828234175235, -42370.14560343571, -28000.991404174736, -22435.943476670203, 2989.791690086328, -35180.88581334184, 14597.7454898054, 6302.700198018575, -15319.058635122614, -34261.40210168387, -3413.804282403503, -34496.363639398056, -13201.342606704548, -17664.181311628978, 4788.034235004692, -0.10955840143188833, 0.9649915415458381, -0.13962381124123932, 192.0, 0.0, 0.0, 0.0, 0.0, 0.0, 0.0, 0.0, 0.0, 0.0, 1.741809004699798E9, 0.0, 2025-03-12 14:50:04.699
114.0, 11417.986323593417, -28364.52017599585, -42365.071757444355, -27969.654258448394, -22426.01930213205, 3011.1599577856014, -35171.83335683744, 14603.244018941406, 6313.920773735139, -15303.770041915184, -34233.149496692364, -3387.8092036019807, -34472.89430771999, -13179.102620971516, -17649.026828888276, 4800.528860155208, -0.10955840143188833, 0.9649915415458381, -0.13962381124123932, 192.0, 0.0, 0.0, 0.0, 0.0, 0.0, 0.0, 0.0, 0.0, 0.0, 1.741809004699841E9, 0.0, 2025-03-12 14:50:04.699
116.0, 11398.853230339675, -28374.95844065648, -42379.131004706745, -27998.73387798475, -22439.296238338502, 2990.998684286915, -35178.896508085316, 14595.80088803779, 6302.9684189520385, -15318.097510111036, -34264.15136625187, -3415.6594771932937, -34496.92243300944, -13194.458269412313, -17667.243500619352, 4789.5988571165635, -0.10955840143188833, 0.9649915415458381, -0.13962381124123932, 192.0, 0.0, 0.0, 0.0, 0.0, 0.0, 0.0, 0.0, 0.0, 0.0, 1.741809004699884E9, 0.0, 2025-03-12 14:50:04.699
118.0, 11428.268126042858, -28372.43269353303, -42369.38564412423, -27962.72521766725, -22426.354578298877, 3021.307649768311, -35174.694380127716, 14609.055472499786, 6305.449462586577, -15309.000350117727, -34246.15821196535, -3400.125014796855, -34486.640630559996, -13182.36597566199, -17656.58171851417, 4798.204278731857, -0.10955840143188833, 0.9649915415458381, -0.13962381124123932, 192.0, 0.0, 0.0, 0.0, 0.0, 0.0, 0.0, 0.0, 0.0, 0.0, 1.741809004699933E9, 0.0, 2025-03-12 14:50:04.699
120.0, 11420.69088467251, -28360.56391722726, -42366.63637955623, -27993.88354943795, -22430.467299278655, 2988.6517511191073, -35174.33675221643, 14605.434489898025, 6308.757520765963, -15306.832230905562, -34253.02019751313, -3413.670171936771, -34490.52983409522, -13183.684728584854, -17665.16478838501, 4801.780557844706, -0.10877920071594416, 0.969495770772919, -0.14181190562061968, 192.0, 126.0, 80.0, 15.0, 56.0, 125.5, 64.0, 0.0, 0.0, 0.0, 1.741809004699983E9, 0.0, 2025-03-12 14:50:04.699
122.0, 11445.344858806713, -28367.604716730682, -42362.65776904318, -27946.095519792503, -22423.493555008597, 3027.6108417047076, -35173.28622022703, 14609.524859133347, 6320.179262182625, -15299.411451746399, -34227.53920883408, -3382.28832272152, -34469.519194307235, -13166.339774887536, -17649.183291099464, 4816.890337096494, -0.10877920071594416, 0.969495770772919, -0.14181190562061968, 192.0, 0.0, 0.0, 0.0, 0.0, 0.0, 0.0, 0.0, 0.0, 0.0, 1.741809004700036E9, 0.0, 2025-03-12 14:50:04.700
124.0, 11409.894992100597, -28381.641612248615, -42375.554725593895, -27986.462770278788, -22435.205869103178, 2991.915105809582, -35179.67881914125, 14595.51031535987, 6306.6117532982535, -15314.677693209374, -34249.44391840028, -3399.029779318545, -34490.88746200651, -13186.054013497116, -17662.080247650178, 4805.468595679831, -0.10877920071594416, 0.969495770772919, -0.14181190562061968, 192.0, 0.0, 0.0, 0.0, 0.0, 0.0, 0.0, 0.0, 0.0, 0.0, 1.741809004700081E9, 0.0, 2025-03-12 14:50:04.700
126.0, 11441.142730849115, -28377.37242905765, -42364.69177778861, -27950.074130305547, -22426.10870910987, 3017.9101846111043, -35173.509737671586, 14604.048681741797, 6304.53304106391, -15314.588286231554, -34240.771441551624, -3396.48168045064, -34481.611488057555, -13182.701251828821, -17657.63225050357, 4802.42875843391, -0.10877920071594416, 0.969495770772919, -0.14181190562061968, 192.0, 0.0, 0.0, 0.0, 0.0, 0.0, 0.0, 0.0, 0.0, 0.0, 1.741809004758505E9, 0.0, 2025-03-12 14:50:04.758
128.0, 11422.188451551016, -28370.935126654524, -42359.37206260825, -27980.517206253673, -22427.53922075501, 2988.9646755414815, -35160.59042937642, 14601.41117589607, 6310.143328922192, -15310.632027462963, -34240.4808688737, -3394.6488374053047, -34483.980772969815, -13184.17646696287, -17653.340715568153, 4806.697941624873, -0.10877920071594416, 0.969495770772919, -0.14181190562061968, 192.0, 0.0, 0.0, 0.0, 0.0, 0.0, 0.0, 0.0, 0.0, 0.0, 1.741809004758555E9, 0.0, 2025-03-12 14:50:04.758
130.0, 11450.709277475988, -28368.61054523117, -42361.4507748426, -27942.42983370183, -22422.95711314167, 3013.1269112976684, -35169.732292858636, 14602.215838696462, 6311.238564400503, -15302.98773085925, -34234.51295310414, -3385.4622704341737, -34474.19070889839, -13177.783868048653, -17650.41263704451, 4807.524956169719, -0.10838960035797207, 0.9717478853864595, -0.14290595281030985, 192.0, 126.0, 80.0, 15.0, 56.0, 125.5, 64.0, 0.0, 0.0, 0.0, 1.741809004758615E9, 0.0, 2025-03-12 14:50:04.758
132.0, 11423.417797496057, -28363.536699239816, -42364.580019066336, -27978.86317716398, -22432.300142323988, 2986.4836319069427, -35176.16959526177, 14592.515181602857, 6310.8362330003065, -15303.971207615283, -34237.82101128352, -3381.9306948102353, -34484.56191832566, -13182.455382639811, -17659.420390059997, 4799.657142121451, -0.10838960035797207, 0.9717478853864595, -0.14290595281030985, 192.0, 0.0, 0.0, 0.0, 0.0, 0.0, 0.0, 0.0, 0.0, 0.0, 1.741809004758669E9, 0.0, 2025-03-12 14:50:04.758
134.0, 11447.334164063235, -28377.43948429102, -42367.373987123254, -27954.276258263144, -22431.227258590134, 3010.623515918674, -35177.845976095916, 14593.565713592257, 6309.428073099622, -15309.000350117727, -34234.15532519285, -3386.579857656939, -34488.69699104989, -13184.735260574254, -17662.907262195025, 4793.398653673966, -0.10838960035797207, 0.9717478853864595, -0.14290595281030985, 192.0, 0.0, 0.0, 0.0, 0.0, 0.0, 0.0, 0.0, 0.0, 0.0, 1.741809004758722E9, 0.0, 2025-03-12 14:50:04.758
136.0, 11424.378922507636, -28371.29275456581, -42364.62472255525, -27984.696982466816, -22429.77439520054, 2988.048254018814, -35167.49711841311, 14591.330539146727, 6307.304657376369, -15314.968265887293, -34238.603322339455, -3387.317465223964, -34486.77474102673, -13188.199780964826, -17668.182273886476, 4782.960389013337, -0.10838960035797207, 0.9717478853864595, -0.14290595281030985, 192.0, 0.0, 0.0, 0.0, 0.0, 0.0, 0.0, 0.0, 0.0, 0.0, 1.741809004758764E9, 0.0, 2025-03-12 14:50:04.758
138.0, 11463.382716582146, -28363.290830050806, -42353.895885216705, -27956.556136197585, -22419.984331129115, 2994.530259910853, -35161.976237532646, 14600.181829951029, 6313.473738846033, -15313.425995519878, -34237.57514209451, -3392.6595321487825, -34481.186804912904, -13193.318330445092, -17658.951003426435, 4789.531801883198, -0.10838960035797207, 0.9717478853864595, -0.14290595281030985, 192.0, 0.0, 0.0, 0.0, 0.0, 0.0, 0.0, 0.0, 0.0, 0.0, 1.741809004758806E9, 0.0, 2025-03-12 14:50:04.758
140.0, 11440.069847115261, -28368.722303953447, -42366.79284176741, -27978.86317716398, -22428.5450492555, 2988.383530185644, -35164.412577678275, 14596.538495604813, 6323.0402854729045, -15304.664111693397, -34226.53338033359, -3374.5099156510732, -34471.41909258594, -13180.711946572299, -17651.0161341448, 4792.571639129119, -0.10519480017898604, 0.9708739426932298, -0.14145297640515492, 192.0, 126.0, 104.0, 15.0, 40.0, 125.5, 80.0, 0.0, 0.0, 0.0, 1.741809004817371E9, 0.0, 2025-03-12 14:50:04.817
142.0, 11461.058135158793, -28380.434618048028, -42367.597504567806, -27968.894299136915, -22433.507136524575, 3000.140547769135, -35175.029656294544, 14592.626940325135, 6311.48443358951, -15316.644646721441, -34246.091156731985, -3403.4554247206956, -34485.321877637136, -13196.738147346754, -17668.897529709047, 4784.2791419362, -0.10519480017898604, 0.9708739426932298, -0.14145297640515492, 192.0, 0.0, 0.0, 0.0, 0.0, 0.0, 0.0, 0.0, 0.0, 0.0, 1.741809004817441E9, 0.0, 2025-03-12 14:50:04.817
144.0, 11441.813283182775, -28377.461836035473, -42369.45269935759, -27987.759171457194, -22427.47216552164, 2991.2669052203782, -35160.81394682097, 14593.208085680973, 6308.086968432304, -15322.500803768731, -34239.00565373965, -3397.3310467399415, -34479.644534545485, -13192.08898450005, -17663.130779639578, 4783.697996580362, -0.10519480017898604, 0.9708739426932298, -0.14145297640515492, 192.0, 0.0, 0.0, 0.0, 0.0, 0.0, 0.0, 0.0, 0.0, 0.0, 1.741809004817486E9, 0.0, 2025-03-12 14:50:04.817
146.0, 11462.600405526211, -28376.545414512806, -42361.98721670952, -27971.91178463838, -22417.078604349925, 2991.2222017314675, -35157.61764736386, 14601.500582873892, 6311.171509167137, -15313.64951296443, -34247.32050267702, -3408.439863734229, -34477.54347056669, -13189.85381005452, -17659.39803831554, 4790.4258716614095, -0.10519480017898604, 0.9708739426932298, -0.14145297640515492, 192.0, 0.0, 0.0, 0.0, 0.0, 0.0, 0.0, 0.0, 0.0, 0.0, 1.741809004817528E9, 0.0, 2025-03-12 14:50:04.817
148.0, 11435.130111590637, -28384.837911705723, -42376.80642328339, -27969.2519270482, -22437.038712148515, 3008.991838573437, -35178.605935407395, 14591.17407693554, 6305.225945142025, -15309.827364662573, -34237.0834037165, -3379.7625755980703, -34472.179051897416, -13183.572969862578, -17653.407770801517, 4785.5531913701525, -0.10519480017898604, 0.9708739426932298, -0.14145297640515492, 192.0, 0.0, 0.0, 0.0, 0.0, 0.0, 0.0, 0.0, 0.0, 0.0, 1.741809004817575E9, 0.0, 2025-03-12 14:50:04.817
150.0, 11461.527521792355, -28371.784492943825, -42356.30987361787, -27966.72617992475, -22425.371101542845, 2997.2571727344007, -35166.67010386826, 14597.454917127481, 6301.984942196005, -15317.136385099458, -34254.65187485837, -3405.489433466129, -34486.97590672683, -13190.390251921446, -17668.718715753403, 4780.367586656522, -0.10559740008949302, 0.9694369713466149, -0.13872648820257746, 192.0, 126.0, 88.0, 15.0, 32.0, 125.5, 96.0, 0.0, 0.0, 0.0, 1.741809004817616E9, 0.0, 2025-03-12 14:50:04.817
152.0, 11462.712164248487, -28371.136292354622, -42355.05817592838, -27955.43854897482, -22428.43329053322, 3013.5739461867747, -35168.54765040251, 14601.858210785176, 6312.020875456438, -15302.808916903607, -34226.06399370003, -3368.005558014579, -34468.58042104011, -13168.217321421782, -17648.199814343432, 4791.275237950711, -0.10559740008949302, 0.9694369713466149, -0.13872648820257746, 192.0, 0.0, 0.0, 0.0, 0.0, 0.0, 0.0, 0.0, 0.0, 0.0, 1.741809004817672E9, 0.0, 2025-03-12 14:50:04.817
154.0, 11471.094068419226, -28381.351039570694, -42352.62183578275, -27969.363685770477, -22431.227258590134, 2997.1007105232134, -35176.638981895325, 14595.018576981853, 6313.227869657025, -15311.771966430184, -34241.48669737419, -3391.9442763262127, -34479.35396186757, -13178.856751782509, -17657.744009225848, 4783.295665180167, -0.10559740008949302, 0.9694369713466149, -0.13872648820257746, 192.0, 0.0, 0.0, 0.0, 0.0, 0.0, 0.0, 0.0, 0.0, 0.0, 1.741809004817716E9, 0.0, 2025-03-12 14:50:04.817
156.0, 11468.903597462608, -28379.71936222546, -42358.9473794636, -27952.73398789573, -22434.736482469616, 3013.752760142417, -35179.924688330255, 14588.044832711797, 6308.7798725104185, -15312.800146675128, -34228.76855477912, -3369.8160493154587, -34469.362732096044, -13172.933539501852, -17653.139549868054, 4775.986644743281, -0.10559740008949302, 0.9694369713466149, -0.13872648820257746, 192.0, 0.0, 0.0, 0.0, 0.0, 0.0, 0.0, 0.0, 0.0, 0.0, 1.741809004866441E9, 0.0, 2025-03-12 14:50:04.866
158.0, 11463.248606115414, -28384.301469838796, -42363.328321376845, -27968.96135437028, -22432.76952895755, 2996.2289924894562, -35176.41546445077, 14578.232416895917, 6300.710892762053, -15317.002274632727, -34255.523592892125, -3398.649799662805, -34487.22177591584, -13185.696385585832, -17669.366916342606, 4769.214066173323, -0.10559740008949302, 0.9694369713466149, -0.13872648820257746, 192.0, 0.0, 0.0, 0.0, 0.0, 0.0, 0.0, 0.0, 0.0, 0.0, 1.741809004866489E9, 0.0, 2025-03-12 14:50:04.866
160.0, 11468.814190484785, -28381.08281863723, -42361.942513220616, -27952.644580917906, -22429.550877755988, 3015.8761758656715, -35178.27065924057, 14583.015690209353, 6296.57582003782, -15316.711701954808, -34240.0338339846, -3377.3038837079866, -34472.55903155316, -13180.019042494183, -17656.268794091797, 4771.315130152122, -0.10679870004474651, 0.9707184856733074, -0.13736324410128875, 192.0, 126.0, 80.0, 15.0, 48.0, 125.5, 96.0, 0.0, 0.0, 0.0, 1.741809004866534E9, 0.0, 2025-03-12 14:50:04.866
162.0, 11460.432286314046, -28374.75727495638, -42363.66359754367, -27984.227595833254, -22430.57905800093, 2981.9685795269706, -35175.72256037266, 14583.775649520834, 6295.301770603868, -15321.226754334779, -34256.0376830146, -3408.797491645514, -34486.17124392644, -13196.492278157744, -17666.729410496882, 4770.398708629455, -0.10679870004474651, 0.9707184856733074, -0.13736324410128875, 192.0, 0.0, 0.0, 0.0, 0.0, 0.0, 0.0, 0.0, 0.0, 0.0, 1.741809004866579E9, 0.0, 2025-03-12 14:50:04.866
164.0, 11474.402126598612, -28377.61829824666, -42366.3011033894, -27953.315133251566, -22430.19907834519, 3013.752760142417, -35175.38728420583, 14590.369414135148, 6298.296904360879, -15317.158736843914, -34241.956084007754, -3389.060901291478, -34472.58138329761, -13185.450516396824, -17646.657543976016, 4779.585275600586, -0.10679870004474651, 0.9707184856733074, -0.13736324410128875, 192.0, 0.0, 0.0, 0.0, 0.0, 0.0, 0.0, 0.0, 0.0, 0.0, 1.741809004917421E9, 0.0, 2025-03-12 14:50:04.917
166.0, 11460.834617714241, -28380.501673281393, -42371.017321469466, -27987.91563366838, -22427.561572499464, 2974.3913381566213, -35167.206545735186, 14592.22460892494, 6308.712817277053, -15315.147079842936, -34251.679092845814, -3405.24356427712, -34476.40353159947, -13189.630292609965, -17648.289221321254, 4786.827240804105, -0.10679870004474651, 0.9707184856733074, -0.13736324410128875, 192.0, 0.0, 0.0, 0.0, 0.0, 0.0, 0.0, 0.0, 0.0, 0.0, 1.741809004917482E9, 0.0, 2025-03-12 14:50:04.917
168.0, 11472.189303897538, -28391.47637980895, -42376.56055409439, -27956.399673986398, -22424.56643874245, 3008.567155428786, -35169.32996145844, 14596.672606071545, 6300.53207880641, -15326.144138114947, -34246.560543365544, -3399.968552585668, -34467.44048207289, -13189.518533887689, -17641.091959606645, 4793.443357162876, -0.10679870004474651, 0.9707184856733074, -0.13736324410128875, 192.0, 0.0, 0.0, 0.0, 0.0, 0.0, 0.0, 0.0, 0.0, 0.0, 1.741809004917529E9, 0.0, 2025-03-12 14:50:04.917
170.0, 11438.259355814382, -28391.163455386577, -42388.92106877817, -27998.10802914, -22438.268058093556, 2977.2523614469005, -35178.13654877384, 14582.613358809158, 6295.4358810706, -15336.247126608745, -34267.88410757591, -3423.415532519285, -34484.405456114466, -13203.242504983247, -17653.005439401324, 4791.409348417443, -0.10939935002237325, 0.9693592428366538, -0.13468162205064438, 192.0, 126.0, 64.0, 15.0, 32.0, 125.5, 112.0, 0.0, 0.0, 0.0, 1.741809004917576E9, 0.0, 2025-03-12 14:50:04.917
172.0, 11463.740344493432, -28379.29467908081, -42378.43810062863, -27957.941944353814, -22426.175764343236, 3005.013228060392, -35169.240554480624, 14593.096326958695, 6296.844040971285, -15325.719454970296, -34258.42931967131, -3401.2426020196203, -34478.57165081163, -13188.80327806512, -17638.49915724983, 4802.898145067471, -0.10939935002237325, 0.9693592428366538, -0.13468162205064438, 192.0, 0.0, 0.0, 0.0, 0.0, 0.0, 0.0, 0.0, 0.0, 0.0, 1.741809004917624E9, 0.0, 2025-03-12 14:50:04.917
174.0, 11433.386675523125, -28376.7465802129, -42383.64605708671, -27990.419029047374, -22429.86380217836, 2981.3874341711326, -35167.8994498133, 14590.659986813067, 6303.840136985796, -15317.337550799555, -34264.66545637434, -3398.158061284788, -34484.65132530348, -13186.769269319686, -17637.15805258251, 4812.576450416619, -0.10939935002237325, 0.9693592428366538, -0.13468162205064438, 192.0, 0.0, 0.0, 0.0, 0.0, 0.0, 0.0, 0.0, 0.0, 0.0, 1.741809004917675E9, 0.0, 2025-03-12 14:50:04.917
176.0, 11461.706335747998, -28375.785455201323, -42381.27677217445, -27955.907935608382, -22426.376930043334, 3010.601164174219, -35170.089920769926, 14598.88542877262, 6304.644799786187, -15316.354074043522, -34254.36130218045, -3394.492375194118, -34474.92831646542, -13181.5613128616, -17635.57107872618, 4812.911726583448, -0.10939935002237325, 0.9693592428366538, -0.13468162205064438, 192.0, 0.0, 0.0, 0.0, 0.0, 0.0, 0.0, 0.0, 0.0, 0.0, 1.741809004917716E9, 0.0, 2025-03-12 14:50:04.917
178.0, 11435.912422646574, -28371.29275456581, -42379.10865296229, -27989.659069735895, -22429.34971205589, 2982.5497248828087, -35162.82560382195, 14595.823239782243, 6308.422244599134, -15316.398777532433, -34254.09308124698, -3395.028817061045, -34479.8904037345, -13183.662376840399, -17637.180404326966, 4809.00017130377, -0.10939935002237325, 0.9693592428366538, -0.13468162205064438, 192.0, 0.0, 0.0, 0.0, 0.0, 0.0, 0.0, 0.0, 0.0, 0.0, 1.741809004917768E9, 0.0, 2025-03-12 14:50:04.917
180.0, 11455.64901300061, -28374.913737167568, -42384.718940820574, -27956.06439781957, -22429.14854635579, 3013.1939665310347, -35169.173499247256, 14598.773670050345, 6313.8313667573175, -15311.816669919095, -34247.23109569921, -3387.1386512683216, -34474.14600540948, -13177.627405837466, -17628.77614841177, 4812.643505649985, -0.10769967501118663, 0.9706796214183269, -0.1323408110253222, 192.0, 126.0, 88.0, 15.0, 48.0, 125.5, 120.0, 0.0, 0.0, 0.0, 1.741809004972035E9, 0.0, 2025-03-12 14:50:04.972
182.0, 11430.905631888585, -28363.290830050806, -42387.84818504431, -27999.672651251873, -22437.217526104156, 2982.0803382492472, -35174.04617953851, 14586.45785885547, 6308.042264943393, -15319.595076989543, -34258.809299327055, -3389.485584436129, -34487.199424171384, -13187.283359442159, -17640.600221228626, 4801.937020055892, -0.10769967501118663, 0.9706796214183269, -0.1323408110253222, 192.0, 0.0, 0.0, 0.0, 0.0, 0.0, 0.0, 0.0, 0.0, 0.0, 1.741809004972094E9, 0.0, 2025-03-12 14:50:04.972
184.0, 11461.661632259087, -28366.50948125237, -42382.17084195266, -27966.033275846636, -22425.68402596522, 3002.4874809369426, -35166.379531190345, 14598.594856094702, 6319.016971470949, -15310.117937340492, -34249.48862188919, -3392.6595321487825, -34468.69217976239, -13178.94615876033, -17633.470014747385, 4813.917555083937, -0.10769967501118663, 0.9706796214183269, -0.1323408110253222, 192.0, 0.0, 0.0, 0.0, 0.0, 0.0, 0.0, 0.0, 0.0, 0.0, 1.741809004972136E9, 0.0, 2025-03-12 14:50:04.972
186.0, 11437.477044758445, -28358.70872243747, -42383.28842917543, -27993.63768024894, -22432.881287679826, 2984.8072510727943, -35165.463109667675, 14598.505449116881, 6319.061674959859, -15313.761271686706, -34246.06880498753, -3382.780061099537, -34470.569726296635, -13178.119144215483, -17627.14447106653, 4812.062360294147, -0.10769967501118663, 0.9706796214183269, -0.1323408110253222, 192.0, 0.0, 0.0, 0.0, 0.0, 0.0, 0.0, 0.0, 0.0, 0.0, 1.7418090049722E9, 0.0, 2025-03-12 14:50:04.972
188.0, 11471.809324241796, -28362.396760272597, -42382.617876841774, -27966.592069458016, -22426.846316676896, 2997.7712628568725, -35163.87613581135, 14598.952484005988, 6322.034456972416, -15304.351187271022, -34244.66064508684, -3388.9491425692017, -34474.36952285404, -13175.638100580944, -17631.97244786888, 4813.738741128295, -0.10769967501118663, 0.9706796214183269, -0.1323408110253222, 192.0, 0.0, 0.0, 0.0, 0.0, 0.0, 0.0, 0.0, 0.0, 0.0, 1.741809004972249E9, 0.0, 2025-03-12 14:50:04.972
190.0, 11446.685963474032, -28357.837004403715, -42388.138757722234, -27992.38598255944, -22436.59167725941, 2985.120175495169, -35169.26290622508, 14594.07980371473, 6321.229794172024, -15305.491126238243, -34239.6315025844, -3377.52740115254, -34472.179051897416, -13174.073478469072, -17633.648828703026, 4809.178985259412, -0.10084983750559331, 0.9693398107091634, -0.1301704055126611, 192.0, 126.5, 8.0, 15.0, 32.0, 126.0, 0.0, 0.0, 0.0, 0.0, 1.74180900497229E9, 0.0, 2025-03-12 14:50:04.972
192.0, 11471.36228935269, -28356.540603225305, -42376.82877502785, -27974.236366061734, -22419.760813684563, 2989.724634852962, -35159.383435175834, 14605.546248620303, 6322.9285267506275, -15302.02660584767, -34247.87929628841, -3392.0113315595786, -34473.363694353546, -13176.062783725594, -17634.878174648067, 4813.224651005823, -0.10084983750559331, 0.9693398107091634, -0.1301704055126611, 192.0, 0.0, 0.0, 0.0, 0.0, 0.0, 0.0, 0.0, 0.0, 0.0, 1.74180900497234E9, 0.0, 2025-03-12 14:50:04.972
194.0, 11451.402181554102, -28355.780643913826, -42382.19319369712, -27977.522072496664, -22421.459546263166, 2988.987027285937, -35153.929609528735, 14599.310111917272, 6323.420265128644, -15298.718547668284, -34234.91528450433, -3364.295168434998, -34459.371502324524, -13166.339774887536, -17623.81406114269, 4822.902956354971, -0.10084983750559331, 0.9693398107091634, -0.1301704055126611, 192.0, 0.0, 0.0, 0.0, 0.0, 0.0, 0.0, 0.0, 0.0, 0.0, 1.741809005033618E9, 0.0, 2025-03-12 14:50:05.033
196.0, 11462.17572238156, -28369.41520803156, -42390.61980135677, -27966.167386313366, -22425.348749798388, 2996.9666000564816, -35164.63609512283, 14592.872809514143, 6313.1831661681135, -15306.631065205464, -34255.27772370312, -3389.6867501362267, -34473.25193563127, -13173.84996102452, -17638.901488650023, 4808.754302114761, -0.10084983750559331, 0.9693398107091634, -0.1301704055126611, 192.0, 0.0, 0.0, 0.0, 0.0, 0.0, 0.0, 0.0, 0.0, 0.0, 1.741809005033683E9, 0.0, 2025-03-12 14:50:05.033
198.0, 11448.608213497188, -28360.027475360333, -42383.98133325355, -27970.369514270966, -22426.28752306551, 2990.68575986454, -35161.3503886879, 14594.929170004032, 6309.115148677248, -15309.290922795646, -34248.952180022265, -3376.7674418410593, -34468.11103440655, -13175.4592866253, -17640.55551773972, 4804.753339857261, -0.10084983750559331, 0.9693398107091634, -0.1301704055126611, 192.0, 0.0, 0.0, 0.0, 0.0, 0.0, 0.0, 0.0, 0.0, 0.0, 1.741809005033726E9, 0.0, 2025-03-12 14:50:05.033
200.0, 11457.526559534856, -28368.543489997806, -42384.651885587205, -27970.280107293143, -22425.080528864924, 2983.242628960923, -35162.35621718839, 14597.298454916294, 6311.193860911591, -15307.547486728132, -34261.44680517278, -3400.48264270814, -34474.70479902087, -13177.5603506041, -17641.002552628823, 4808.307267225655, -0.10142491875279666, 0.9706699053545818, -0.13208520275633057, 192.0, 126.0, 104.0, 15.0, 48.0, 125.5, 104.0, 0.0, 0.0, 0.0, 1.741809005033784E9, 0.0, 2025-03-12 14:50:05.033
202.0, 11441.16508259357, -28371.09158886571, -42390.373932167764, -27962.546403711607, -22436.97165691515, 2999.9617338134926, -35173.777958605046, 14589.475344356937, 6302.566087551843, -15310.609675718508, -34253.087252746496, -3376.588627885417, -34463.66303725995, -13173.313519157591, -17630.407825757007, 4805.982685802303, -0.10142491875279666, 0.9706699053545818, -0.13208520275633057, 192.0, 0.0, 0.0, 0.0, 0.0, 0.0, 0.0, 0.0, 0.0, 0.0, 1.741809005033832E9, 0.0, 2025-03-12 14:50:05.033
204.0, 11450.30694607579, -28365.66011496307, -42384.96481000958, -27973.49875849471, -22430.556706256477, 2984.4272714170543, -35170.29108647002, 14587.016652466853, 6307.6622852876535, -15312.375463530478, -34268.73347386521, -3400.281477008042, -34473.40839784246, -13186.389289663946, -17639.996724128334, 4800.417101432932, -0.10142491875279666, 0.9706699053545818, -0.13208520275633057, 192.0, 0.0, 0.0, 0.0, 0.0, 0.0, 0.0, 0.0, 0.0, 0.0, 1.741809005033873E9, 0.0, 2025-03-12 14:50:05.033
206.0, 11454.285556588837, -28371.60567898818, -42388.29521993342, -27956.86906061996, -22439.318590082956, 3011.562289185797, -35178.13654877384, 14583.306262887272, 6306.254125386969, -15311.906076896916, -34246.15821196535, -3377.3485871968974, -34462.61250527055, -13179.03556573815, -17630.944267623934, 4803.076959023114, -0.10142491875279666, 0.9706699053545818, -0.13208520275633057, 192.0, 0.0, 0.0, 0.0, 0.0, 0.0, 0.0, 0.0, 0.0, 0.0, 1.741809005033916E9, 0.0, 2025-03-12 14:50:05.033
208.0, 11453.615004255176, -28365.414245774064, -42382.81904254187, -27984.272299322165, -22437.373988315343, 2981.0968614932135, -35165.68662711223, 14584.312091387761, 6303.795433496885, -15321.852603179528, -34263.39140694039, -3405.19886078821, -34478.10226417807, -13195.821725824086, -17639.996724128334, 4795.5891246305855, -0.10142491875279666, 0.9706699053545818, -0.13208520275633057, 192.0, 0.0, 0.0, 0.0, 0.0, 0.0, 0.0, 0.0, 0.0, 0.0, 1.741809005033965E9, 0.0, 2025-03-12 14:50:05.033
