%OpenBCI Raw EXG Data
%Number of channels = 16
%Sample Rate = 125 Hz
%Board = OpenBCI_GUI$BoardCytonSerialDaisy
Sample Index, EXG Channel 0, EXG Channel 1, EXG Channel 2, EXG Channel 3, EXG Channel 4, EXG Channel 5, EXG Channel 6, EXG Channel 7, EXG Channel 8, EXG Channel 9, EXG Channel 10, EXG Channel 11, EXG Channel 12, EXG Channel 13, EXG Channel 14, EXG Channel 15, Accel Channel 0, Accel Channel 1, Accel Channel 2, Not Used, Digital Channel 0 (D11), Digital Channel 1 (D12), Digital Channel 2 (D13), Digital Channel 3 (D17), Not Used, Digital Channel 4 (D18), Analog Channel 0, Analog Channel 1, Analog Channel 2, Timestamp, Marker Channel, Timestamp (Formatted)
238.0, 13748.066276081358, 22456.529433313543, -8333.13266433867, 2545.3496033370025, 11894.950198525215, 7130.8546818321565, 1760.043413644244, 17890.760945172424, 46488.56627804831, -2398.9009736658304, 21202.931845537645, 45251.084298024696, 9369.672461709079, -1119.9565076776157, 18720.770623775796, -16029.46412914564, 0.0, 0.0, 0.0, 192.0, 0.0, 0.0, 0.0, 0.0, 0.0, 0.0, 0.0, 0.0, 0.0, 1.741985668827473E9, 0.0, 2025-03-14 15:54:28.827
240.0, 13738.276212009932, 22447.499328553597, -8336.440722518055, 2538.1970451113043, 11893.363224668889, 7124.015048028833, 1753.2261315853755, 17886.692927681557, 46485.83936522477, -2409.853328448931, 21240.035741333457, 45272.65373142406, 9390.750156730433, -1122.3928478232442, 18710.4664695819, -16040.662353117748, 0.0, 0.0, 0.0, 192.0, 0.0, 0.0, 0.0, 0.0, 0.0, 0.0, 0.0, 0.0, 0.0, 1.741985668827723E9, 0.0, 2025-03-14 15:54:28.827
242.0, 13735.48224395302, 22442.269020351057, -8354.769152971407, 2527.4011525393908, 11897.028910759558, 7119.008257270844, 1757.6070734986156, 17891.20798006153, 46463.353510302724, -2426.594785045956, 21193.76763031097, 45242.680042109496, 9377.249703079427, -1129.7689234934955, 18702.911579956006, -16046.965545054145, 0.0, 0.0, 0.0, 192.0, 0.0, 0.0, 0.0, 0.0, 0.0, 0.0, 0.0, 0.0, 0.0, 1.741985668827931E9, 0.0, 2025-03-14 15:54:28.827
244.0, 13738.38797073221, 22446.091168652914, -8336.954812640526, 2536.2524433436924, 11902.460384662198, 7123.411550928539, 1758.2552740878195, 17887.497590481948, 46473.68001624108, -2416.0671134075064, 21224.18835451464, 45260.27086499582, 9382.703528726523, -1116.7155047315962, 18701.12344039958, -16040.103559506364, 0.0, 0.0, 0.0, 192.0, 0.0, 0.0, 0.0, 0.0, 0.0, 0.0, 0.0, 0.0, 0.0, 1.741985668828131E9, 0.0, 2025-03-14 15:54:28.828
246.0, 13737.180976531623, 22447.34286634241, -8347.348373812243, 2531.938556663818, 11900.471079405675, 7118.985905526389, 1757.4506112874285, 17893.15258182914, 46453.943425887046, -2421.453883821235, 21203.378880426753, 45251.01724279133, 9375.863894923199, -1120.2247286110794, 18708.432460836466, -16037.376646682818, 0.052000000000000005, 0.49, 0.037, 192.0, 1.5, 32.0, 15.0, 80.0, 1.0, 40.0, 0.0, 0.0, 0.0, 1.74198566882832E9, 0.0, 2025-03-14 15:54:28.828
248.0, 13750.212043549067, 22460.463340337676, -8312.79257688434, 2542.242710857715, 11916.40787320231, 7125.177338740509, 1763.3738235680848, 17896.88532315318, 46473.94823717454, -2415.3518575849366, 21221.57320041337, 45256.24755099387, 9385.341034572248, -1108.624173238775, 18711.964036460406, -16034.806196070456, 0.052000000000000005, 0.49, 0.037, 192.0, 0.0, 0.0, 0.0, 0.0, 0.0, 0.0, 0.0, 0.0, 0.0, 1.741985668828509E9, 0.0, 2025-03-14 15:54:28.828
250.0, 13747.887462125715, 22464.93368922874, -8343.325059810288, 2538.018231155662, 11910.507012666108, 7131.592289399182, 1779.4447278314506, 17907.12242211371, 46474.52938253038, -2410.076845893484, 21218.28749397844, 45254.39235620408, 9388.649092751633, -1112.4239697961773, 18730.203059935935, -16033.50979489205, 0.052000000000000005, 0.49, 0.037, 192.0, 0.0, 0.0, 0.0, 0.0, 0.0, 0.0, 0.0, 0.0, 0.0, 1.741985668828695E9, 0.0, 2025-03-14 15:54:28.828
252.0, 13748.736828415016, 22464.93368922874, -8327.388266013655, 2545.2825481036366, 11912.69748362273, 7131.838158588191, 1767.263027103308, 17897.533523742382, 46458.10085035573, -2412.7367034836657, 21212.29722646442, 45250.301986968756, 9393.387662576159, -1099.3481992898226, 18720.681216797973, -16037.443701916183, 0.052000000000000005, 0.49, 0.037, 192.0, 0.0, 0.0, 0.0, 0.0, 0.0, 0.0, 0.0, 0.0, 0.0, 1.741985668828877E9, 0.0, 2025-03-14 15:54:28.828
254.0, 13750.301450526887, 22463.704343283694, -8340.955774898026, 2544.7684579811644, 11921.816995360494, 7135.235623745397, 1780.8975912210456, 17909.11172737023, 46458.07849861128, -2415.173043629294, 21210.039700274432, 45259.64501615107, 9393.253552109427, -1117.9895541655487, 18717.99900746334, -16037.376646682818, 0.052000000000000005, 0.49, 0.037, 192.0, 0.0, 0.0, 0.0, 0.0, 0.0, 0.0, 0.0, 0.0, 0.0, 1.741985668829055E9, 0.0, 2025-03-14 15:54:28.829
0.0, 6866.880579814981, 11230.835167269131, -4172.735413638999, 1300.580954620952, 5977.951702827419, 3569.70769997927, 839.732687441431, 8979.411003519417, 23229.31864611133, -1204.2225842741234, 10598.839592795324, 22622.602894616473, 4696.347379249022, -551.4175357124252, 9366.09618259623, -8012.228669193825, 0.1, 0.978, 0.08600000000000001, 192.0, 1.5, 16.0, 15.0, 72.0, 1.0, 88.0, 0.0, 0.0, 0.0, 1.741985668991163E9, 0.0, 2025-03-14 15:54:28.991
2.0, 13729.737845628006, 22457.24468913611, -8324.951925868027, 2600.4690051637895, 11952.193016075256, 7127.345457952673, 1660.7346130293147, 17950.75302729047, 46625.71658202608, -2368.5696564399786, 21244.662552435704, 45564.27694133246, 9380.870685681188, -1105.4055220372109, 18694.41791706299, -16045.378571197818, 0.1, 0.978, 0.08600000000000001, 192.0, 0.0, 0.0, 0.0, 0.0, 0.0, 0.0, 0.0, 0.0, 0.0, 1.74198566899142E9, 0.0, 2025-03-14 15:54:28.991
4.0, 13719.277229222922, 22447.499328553597, -8348.667126735107, 2592.444728904334, 11946.023934605591, 7122.025742772311, 1665.182610175921, 17946.21562316604, 46614.38424758724, -2378.829107144965, 21238.515822710495, 45563.561685509885, 9375.394508289637, -1115.17323436418, 18681.85623667911, -16053.22403350163, 0.1, 0.978, 0.08600000000000001, 192.0, 0.0, 0.0, 0.0, 0.0, 0.0, 0.0, 0.0, 0.0, 0.0, 1.741985668991598E9, 0.0, 2025-03-14 15:54:28.991
6.0, 13720.439519934598, 22446.672314008752, -8333.400885272133, 2598.9267347963732, 11952.103609097436, 7126.786664341291, 1667.3283776436303, 17950.775379034923, 46617.33467785534, -2377.800926900021, 21234.693674408638, 45558.84546742982, 9391.085432897262, -1113.876833185772, 18690.729879227863, -16049.290126477496, 0.1, 0.978, 0.08600000000000001, 192.0, 0.0, 0.0, 0.0, 0.0, 0.0, 0.0, 0.0, 0.0, 0.0, 1.74198566899183E9, 0.0, 2025-03-14 15:54:28.991
8.0, 13726.42978744862, 22450.11448265487, -8340.55344349783, 2603.911173809907, 11952.662402708818, 7133.514539422338, 1672.2234096793427, 17948.83077726731, 46613.69134350912, -2378.13620306685, 21241.332142511863, 45570.02133965747, 9386.793897961843, -1112.200452351624, 18686.4606960369, -16049.22307124413, 0.092, 0.98, 0.094, 192.0, 1.0, 112.0, 15.0, 80.0, 1.0, 120.0, 0.0, 0.0, 0.0, 1.741985668992013E9, 0.0, 2025-03-14 15:54:28.992
10.0, 13721.020665290436, 22440.078549394435, -8325.913050879604, 2598.4573481628117, 11948.415571262309, 7125.5126149073385, 1674.3468254025968, 17946.662658055146, 46622.63204129125, -2376.5492292105237, 21241.28743902295, 45557.83963892933, 9373.159333844105, -1110.1664436061913, 18700.452888065924, -16037.846033316378, 0.092, 0.98, 0.094, 192.0, 0.0, 0.0, 0.0, 0.0, 0.0, 0.0, 0.0, 0.0, 0.0, 1.741985668992217E9, 0.0, 2025-03-14 15:54:28.992
12.0, 13724.28401998091, 22440.592639516908, -8347.32602206779, 2597.652685362421, 11952.908271897826, 7133.715705122436, 1675.1738399474432, 17953.725809303025, 46617.6028987888, -2378.7173484226882, 21255.190224074155, 45578.64911301722, 9373.941644900042, -1114.659144241708, 18691.489838539343, -16044.50685316406, 0.092, 0.98, 0.094, 192.0, 0.0, 0.0, 0.0, 0.0, 0.0, 0.0, 0.0, 0.0, 0.0, 1.741985668992395E9, 0.0, 2025-03-14 15:54:28.992
14.0, 13723.94874381408, 22436.859898192874, -8336.150149840136, 2602.391255186946, 11944.973402616191, 7128.127769008609, 1653.0456129366892, 17935.68795152759, 46619.72631451205, -2376.795098399532, 21223.271932991975, 45546.52965623494, 9388.894961940643, -1113.2286325965683, 18679.688117466943, -16046.116178764843, 0.092, 0.98, 0.094, 192.0, 0.0, 0.0, 0.0, 0.0, 0.0, 0.0, 0.0, 0.0, 0.0, 1.741985668992588E9, 0.0, 2025-03-14 15:54:28.992
16.0, 13718.226697233522, 22432.657770235273, -8340.464036520008, 2600.1784324858704, 11947.633260206374, 7121.7575218388465, 1670.3458631450967, 17941.722922530524, 46625.11308492578, -2373.554095453512, 21264.53325325647, 45588.34977011082, 9370.18655183155, -1107.7301034605628, 18693.50149554032, -16044.305687463962, 0.092, 0.98, 0.094, 192.0, 0.0, 0.0, 0.0, 0.0, 0.0, 0.0, 0.0, 0.0, 0.0, 1.741985669047664E9, 0.0, 2025-03-14 15:54:29.047
18.0, 13728.441444449598, 22435.563497014464, -8331.277469548879, 2600.491356908245, 11952.3718300309, 7125.154986996054, 1667.2836741547196, 17947.243803410984, 46617.737009255536, -2379.454955989713, 21220.05328179041, 45549.860066158784, 9378.926083913575, -1115.4414552976436, 18683.867893680082, -16053.291088734995, 0.088, 0.98, 0.1, 192.0, 1.0, 96.0, 15.0, 80.0, 1.5, 16.0, 0.0, 0.0, 0.0, 1.741985669047878E9, 0.0, 2025-03-14 15:54:29.047
20.0, 13722.026493790925, 22430.869630678848, -8341.22399583149, 2598.882031307463, 11956.484551010675, 7126.518443407827, 1678.2807324267308, 17944.628649309714, 46620.50862556799, -2374.4481652317245, 21263.147445100243, 45587.03101718796, 9375.975653645475, -1110.1664436061913, 18694.12734438507, -16050.385361955807, 0.088, 0.98, 0.1, 192.0, 0.0, 0.0, 0.0, 0.0, 0.0, 0.0, 0.0, 0.0, 0.0, 1.741985669048062E9, 0.0, 2025-03-14 15:54:29.048
22.0, 13716.930296055114, 22422.420671274744, -8352.623385503697, 2591.5059556372116, 11949.019068362602, 7121.198728227464, 1658.4100316059628, 17937.900774228667, 46625.24719539251, -2377.3315402664593, 21208.698595607115, 45538.952414864594, 9401.031959179874, -1114.368571563789, 18685.097239625127, -16057.426161459229, 0.088, 0.98, 0.1, 192.0, 0.0, 0.0, 0.0, 0.0, 0.0, 0.0, 0.0, 0.0, 0.0, 1.741985669048244E9, 0.0, 2025-03-14 15:54:29.048
24.0, 13722.652342635673, 22426.66750272125, -8346.454304034032, 2595.7304353392647, 11953.55647248703, 7129.4465219314725, 1672.4022236349851, 17938.772492262422, 46619.614555789776, -2377.7785751555652, 21260.532290998974, 45588.28271487745, 9366.118534340685, -1113.496853530032, 18695.580207774667, -16064.958699340666, 0.088, 0.98, 0.1, 192.0, 0.0, 0.0, 0.0, 0.0, 0.0, 0.0, 0.0, 0.0, 0.0, 1.741985669048438E9, 0.0, 2025-03-14 15:54:29.048
26.0, 13727.636781649207, 22425.57226724294, -8341.872196420694, 2594.814013816597, 11949.689620696261, 7129.491225420383, 1668.2000956773873, 17943.51106208695, 46617.871119722266, -2373.4199849867805, 21201.948368781614, 45542.528693977445, 9381.943569415042, -1112.7592459630068, 18689.500533282822, -16061.762399883557, 0.088, 0.98, 0.1, 192.0, 0.0, 0.0, 0.0, 0.0, 0.0, 0.0, 0.0, 0.0, 0.0, 1.74198566904862E9, 0.0, 2025-03-14 15:54:29.048
28.0, 13726.496842681987, 22423.113575352858, -8349.672955235596, 2593.048226004628, 11948.013239862114, 7121.444597416473, 1664.9143892424572, 17939.80067250737, 46631.52803558446, -2374.0681855759844, 21262.02985787748, 45595.47997659206, 9361.268205793882, -1108.9594494056046, 18697.65892000901, -16066.411562730262, 0.08600000000000001, 0.974, 0.1, 192.0, 1.0, 88.0, 15.0, 56.0, 1.5, 16.0, 0.0, 0.0, 0.0, 1.7419856690488E9, 0.0, 2025-03-14 15:54:29.048
30.0, 13725.178089759123, 22422.71124395266, -8353.472751792999, 2593.5399643826445, 11947.856777650926, 7125.0432282737775, 1663.1486014304878, 17945.32155338783, 46623.99549770302, -2372.7047291642107, 21190.325461664852, 45545.166199823165, 9375.99800538993, -1108.333600560856, 18689.65699549401, -16071.463056977162, 0.08600000000000001, 0.974, 0.1, 192.0, 0.0, 0.0, 0.0, 0.0, 0.0, 0.0, 0.0, 0.0, 0.0, 1.741985669107367E9, 0.0, 2025-03-14 15:54:29.107
32.0, 13720.797147845882, 22415.938665382706, -8361.36291758572, 2593.8305370605635, 11953.623527720396, 7120.952859038456, 1659.2593978952646, 17934.100977671264, 46612.752570242, -2372.3918047418365, 21239.946334355634, 45588.39447359973, 9369.04661286433, -1107.6183447382862, 18694.037937407247, -16070.636042432314, 0.08600000000000001, 0.974, 0.1, 192.0, 0.0, 0.0, 0.0, 0.0, 0.0, 0.0, 0.0, 0.0, 0.0, 1.741985669107607E9, 0.0, 2025-03-14 15:54:29.107
34.0, 13726.943877571091, 22415.648092704785, -8351.572853514297, 2597.675037106876, 11955.232853321178, 7124.5738416402155, 1663.5509328306835, 17938.571326562327, 46628.33173612735, -2372.4365082307468, 21193.0523744884, 45553.1010691048, 9375.930950156564, -1110.8593476843057, 18696.18370487496, -16069.429048231728, 0.08600000000000001, 0.974, 0.1, 192.0, 0.0, 0.0, 0.0, 0.0, 0.0, 0.0, 0.0, 0.0, 0.0, 1.741985669107798E9, 0.0, 2025-03-14 15:54:29.107
36.0, 13724.28401998091, 22409.657825190763, -8357.540769283863, 2598.613810373999, 11953.131789342378, 7128.530100408805, 1671.9998922347895, 17943.578117320314, 46622.676744780154, -2372.861191375398, 21251.34572402784, 45595.34586612533, 9391.219543363994, -1108.043027882937, 18678.145847099524, -16071.619519188347, 0.08600000000000001, 0.974, 0.1, 192.0, 0.0, 0.0, 0.0, 0.0, 0.0, 0.0, 0.0, 0.0, 0.0, 1.741985669107993E9, 0.0, 2025-03-14 15:54:29.107
38.0, 13721.62416239073, 22401.365327997843, -8339.257042319423, 2597.0491882621277, 11962.184245846778, 7130.988792298889, 1689.948343032401, 17945.12038768773, 46622.69909652461, -2368.8602291178977, 21202.99890077101, 45559.985406397034, 9360.217673804484, -1103.1703475916802, 18701.279902610768, -16060.398943471784, 0.088, 0.98, 0.1, 192.0, 1.0, 96.0, 15.0, 80.0, 1.5, 16.0, 0.0, 0.0, 0.0, 1.741985669108179E9, 0.0, 2025-03-14 15:54:29.108
40.0, 13704.770947071427, 22381.516978921532, -8355.84203670526, 2582.520554366178, 11952.237719564167, 7118.538870637282, 1663.014490963756, 17931.64228578118, 46608.66220100668, -2386.1828310707606, 21243.813186146403, 45586.561630554395, 9353.690964423533, -1116.2237663535793, 18695.93783568595, -16070.613690687858, 0.088, 0.98, 0.1, 192.0, 0.0, 0.0, 0.0, 0.0, 0.0, 0.0, 0.0, 0.0, 0.0, 1.741985669108372E9, 0.0, 2025-03-14 15:54:29.108
42.0, 13719.05371177837, 22393.832790116405, -8351.08111513628, 2587.8626212909962, 11963.882978425381, 7125.892594563079, 1679.5547818606833, 17941.298239385873, 46606.471730050056, -2386.8757351488753, 21188.514970363973, 45547.02139461296, 9368.174894830572, -1121.0517431559258, 18683.21969309088, -16077.27451053554, 0.088, 0.98, 0.1, 192.0, 0.0, 0.0, 0.0, 0.0, 0.0, 0.0, 0.0, 0.0, 0.0, 1.741985669108547E9, 0.0, 2025-03-14 15:54:29.108
44.0, 13713.443423920087, 22385.42853420121, -8351.41639130311, 2584.599266600522, 11957.51273125562, 7122.785702083791, 1664.7355752868148, 17926.903715956654, 46608.59514577331, -2387.009845615607, 21230.37978772876, 45581.64424677423, 9373.539313499847, -1118.7942169659398, 18695.826076963673, -16076.22397854614, 0.088, 0.98, 0.1, 192.0, 0.0, 0.0, 0.0, 0.0, 0.0, 0.0, 0.0, 0.0, 0.0, 1.741985669108724E9, 0.0, 2025-03-14 15:54:29.108
46.0, 13716.974999544025, 22392.871665104827, -8359.015984417914, 2589.6954643363315, 11961.424286535297, 7128.016010286333, 1671.6199125790492, 17935.88911722769, 46606.49408179451, -2384.886429892353, 21197.81329605738, 45555.69387146162, 9379.440174036048, -1118.0342576544592, 18696.630739764063, -16071.440705232706, 0.088, 0.98, 0.1, 192.0, 0.0, 0.0, 0.0, 0.0, 0.0, 0.0, 0.0, 0.0, 0.0, 1.741985669166708E9, 0.0, 2025-03-14 15:54:29.166
48.0, 13717.869069322238, 22398.52665645202, -8352.377516314687, 2590.2766096921696, 11966.587539504473, 7125.557318396249, 1659.9970054622897, 17938.884250984698, 46599.43093054664, -2382.5842002134564, 21218.24279048953, 45569.17197336817, 9394.885229454665, -1113.0945221298364, 18697.301292097723, -16076.156923312776, 0.084, 0.978, 0.10200000000000001, 192.0, 1.0, 80.0, 15.0, 72.0, 1.5, 24.0, 0.0, 0.0, 0.0, 1.741985669166941E9, 0.0, 2025-03-14 15:54:29.166
50.0, 13723.971095558536, 22412.3400345254, -8354.61269076022, 2591.841231804041, 11948.102646839936, 7131.391123699084, 1645.3566128440634, 17939.55480331836, 46597.64279099021, -2374.828144887465, 21213.794793342924, 45570.22250535757, 9366.386755274149, -1108.9594494056046, 18705.50438231282, -16080.202589059185, 0.084, 0.978, 0.10200000000000001, 192.0, 0.0, 0.0, 0.0, 0.0, 0.0, 0.0, 0.0, 0.0, 0.0, 1.741985669167126E9, 0.0, 2025-03-14 15:54:29.167
52.0, 13714.650418120673, 22401.43238323121, -8350.969356414003, 2589.136670724949, 11952.908271897826, 7116.4154549140285, 1666.1884386764098, 17932.178727648108, 46591.18313684263, -2377.912685622297, 21221.237924246543, 45573.68702574814, 9370.745345442932, -1114.4132750526994, 18685.521922769778, -16089.299749052496, 0.084, 0.978, 0.10200000000000001, 192.0, 0.0, 0.0, 0.0, 0.0, 0.0, 0.0, 0.0, 0.0, 0.0, 1.741985669167313E9, 0.0, 2025-03-14 15:54:29.167
54.0, 13716.751482099473, 22399.376022741322, -8362.055821663836, 2591.0589207481053, 11963.257129580634, 7122.31631545023, 1679.823002794147, 17933.989218948987, 46589.17147984165, -2381.310150779504, 21203.580046126848, 45572.502383292005, 9395.131098643673, -1117.788388465451, 18701.99515843334, -16081.90132163779, 0.084, 0.978, 0.10200000000000001, 192.0, 0.0, 0.0, 0.0, 0.0, 0.0, 0.0, 0.0, 0.0, 0.0, 1.74198566916751E9, 0.0, 2025-03-14 15:54:29.167
56.0, 13724.842813592293, 22400.605368686363, -8334.205548072523, 2595.261048705703, 11961.334879557477, 7127.0325335303, 1656.018394949245, 17934.8832887272, 46590.177308342136, -2375.521048965579, 21217.795755600426, 45573.5082117925, 9364.509208739903, -1105.7631499484958, 18706.912542213508, -16067.283280764019, 0.084, 0.978, 0.10200000000000001, 192.0, 0.0, 0.0, 0.0, 0.0, 0.0, 0.0, 0.0, 0.0, 0.0, 1.741985669167696E9, 0.0, 2025-03-14 15:54:29.167
58.0, 13728.19557526059, 22405.76862165554, -8357.339603583767, 2594.2328684607587, 11962.98890864717, 7132.419303944029, 1666.0990316985885, 17937.811367250844, 46574.75460466798, -2374.7610896540987, 21232.503203452015, 45588.103900921815, 9363.61513896169, -1111.4404930401438, 18687.22065534838, -16073.340603511406, 0.082, 0.98, 0.108, 192.0, 1.0, 72.0, 15.0, 80.0, 1.5, 48.0, 0.0, 0.0, 0.0, 1.741985669167882E9, 0.0, 2025-03-14 15:54:29.167
60.0, 13730.900136339682, 22404.516923966043, -8345.470827277997, 2593.5399643826445, 11967.973347660703, 7131.815806843735, 1665.8978659984907, 17937.31962887283, 46590.4455292756, -2372.3918047418365, 21212.207819486597, 45567.31677857838, 9403.37889234768, -1108.5794697498643, 18688.159428615505, -16068.244405775597, 0.082, 0.98, 0.108, 192.0, 0.0, 0.0, 0.0, 0.0, 0.0, 0.0, 0.0, 0.0, 0.0, 1.741985669227469E9, 0.0, 2025-03-14 15:54:29.227
62.0, 13722.741749613495, 22404.47222047713, -8341.31340280931, 2590.097795736527, 11966.36402205992, 7126.585498641193, 1664.7355752868148, 17940.44887309657, 46587.0480641184, -2372.1682872972833, 21243.63437219076, 45590.473185834075, 9361.290557538337, -1106.4784057710656, 18699.335300843155, -16065.673955163236, 0.082, 0.98, 0.108, 192.0, 0.0, 0.0, 0.0, 0.0, 0.0, 0.0, 0.0, 0.0, 0.0, 1.741985669227705E9, 0.0, 2025-03-14 15:54:29.227
64.0, 13719.634857134208, 22403.756964654563, -8322.470882233487, 2592.1765079708707, 11969.962652917226, 7127.367809697129, 1670.8152497786582, 17945.54507083238, 46573.189982556105, -2372.972950097674, 21208.67624386266, 45559.985406397034, 9362.8104761613, -1103.9303069031605, 18694.641434507543, -16068.669088920247, 0.082, 0.98, 0.108, 192.0, 0.0, 0.0, 0.0, 0.0, 0.0, 0.0, 0.0, 0.0, 0.0, 1.741985669227886E9, 0.0, 2025-03-14 15:54:29.227
66.0, 13716.729130355017, 22406.416822244744, -8345.537882511364, 2585.135708467449, 11961.781914446583, 7124.50678640685, 1667.149563687988, 17942.482881842003, 46568.3396540093, -2377.75622341111, 21247.25535479252, 45593.758892269005, 9366.207941318506, -1113.1839291076576, 18699.022376420784, -16077.386269257817, 0.082, 0.98, 0.108, 192.0, 0.0, 0.0, 0.0, 0.0, 0.0, 0.0, 0.0, 0.0, 0.0, 1.741985669228056E9, 0.0, 2025-03-14 15:54:29.228
68.0, 13726.3403804708, 22416.63156946082, -8326.874175891182, 2593.9869992717504, 11971.281405840089, 7132.598117899671, 1656.5995403050829, 17940.515928329936, 46571.0442150884, -2374.7834413985543, 21213.370110198273, 45561.08064187535, 9370.655938465112, -1110.9711064065823, 18697.23423686436, -16074.525245967538, 0.082, 0.978, 0.106, 192.0, 1.0, 72.0, 15.0, 72.0, 1.5, 40.0, 0.0, 0.0, 0.0, 1.741985669228243E9, 0.0, 2025-03-14 15:54:29.228
70.0, 13716.595019888286, 22410.48483973561, -8334.876100406182, 2591.5283073816668, 11970.543798273064, 7132.642821388581, 1680.0688719831553, 17954.21754768104, 46571.26773253295, -2371.1401070523393, 21260.487587510062, 45600.687933050154, 9379.417822291593, -1105.9196121596829, 18708.633626536564, -16075.285205279019, 0.082, 0.978, 0.106, 192.0, 0.0, 0.0, 0.0, 0.0, 0.0, 0.0, 0.0, 0.0, 0.0, 1.741985669228448E9, 0.0, 2025-03-14 15:54:29.228
72.0, 13717.600848388774, 22410.86481939135, -8321.085074077258, 2600.938391797351, 11972.488400040675, 7134.6097749006485, 1661.8745519965355, 17947.377913877717, 46568.5408197094, -2374.269351276082, 21213.012482286988, 45564.70162447711, 9378.568456002291, -1105.6290394817638, 18712.45577483842, -16073.474713978138, 0.082, 0.978, 0.106, 192.0, 0.0, 0.0, 0.0, 0.0, 0.0, 0.0, 0.0, 0.0, 0.0, 1.741985669228625E9, 0.0, 2025-03-14 15:54:29.228
74.0, 13708.056653506357, 22396.783220384506, -8334.74198993945, 2593.8528888050187, 11963.301833069543, 7131.122902765621, 1655.8172292491472, 17940.426521352118, 46567.534991208915, -2377.890333877842, 21264.8685294233, 45608.935726754156, 9376.869723423688, -1106.366647048789, 18697.167181630994, -16076.335737268417, 0.082, 0.978, 0.106, 192.0, 0.0, 0.0, 0.0, 0.0, 0.0, 0.0, 0.0, 0.0, 0.0, 1.741985669228813E9, 0.0, 2025-03-14 15:54:29.228
76.0, 13709.107185495757, 22392.245816260078, -8331.478635248975, 2588.5108218802, 11963.815923192016, 7120.908155549545, 1649.6481477794825, 17922.455718810048, 46568.227895287026, -2378.7173484226882, 21215.560581154896, 45569.79782221292, 9375.707432712012, -1109.5852982503532, 18695.468449052387, -16071.932443610722, 0.082, 0.978, 0.106, 192.0, 0.0, 0.0, 0.0, 0.0, 0.0, 0.0, 0.0, 0.0, 0.0, 1.741985669288185E9, 0.0, 2025-03-14 15:54:29.288
78.0, 13710.560048885352, 22387.909577835748, -8338.318269052299, 2590.5895341145438, 11969.761487217127, 7120.1705479825205, 1648.1952843898875, 17932.916335215134, 46570.57482845483, -2386.7639764265987, 21261.314602054907, 45607.92989825367, 9376.46739202349, -1114.1003506303252, 18691.109858883603, -16077.743897169103, 0.082, 0.986, 0.10200000000000001, 192.0, 1.0, 72.0, 15.0, 104.0, 1.5, 24.0, 0.0, 0.0, 0.0, 1.74198566928842E9, 0.0, 2025-03-14 15:54:29.288
80.0, 13708.57074362883, 22384.355650467354, -8331.746856182439, 2588.8013945581192, 11977.472839054208, 7123.702123606458, 1672.5810375906276, 17935.30797187185, 46569.36783425425, -2384.5511537255234, 21211.62667413076, 45563.09229887633, 9375.819191434288, -1114.3909233082443, 18697.569513031187, -16071.284243021519, 0.082, 0.986, 0.10200000000000001, 192.0, 0.0, 0.0, 0.0, 0.0, 0.0, 0.0, 0.0, 0.0, 0.0, 1.74198566928861E9, 0.0, 2025-03-14 15:54:29.288
82.0, 13706.559086627853, 22381.785199854996, -8341.335754553766, 2582.7887752996417, 11968.353327316443, 7123.4562544174505, 1656.4430780938958, 17929.809442735845, 46563.71284290706, -2387.635694460356, 21260.889918910256, 45606.05235171942, 9366.90084539662, -1117.1848913651577, 18691.668652494987, -16079.08500183642, 0.082, 0.986, 0.10200000000000001, 192.0, 0.0, 0.0, 0.0, 0.0, 0.0, 0.0, 0.0, 0.0, 0.0, 1.741985669288809E9, 0.0, 2025-03-14 15:54:29.288
84.0, 13710.671807607629, 22383.14865626677, -8358.390135573165, 2578.094908964027, 11965.045269137057, 7117.60009737016, 1653.2691303812421, 17930.479995069505, 46568.31730226485, -2382.6065519579115, 21208.72094735157, 45557.124383106755, 9374.254569322417, -1116.6484494982303, 18692.473315295378, -16074.569949456449, 0.082, 0.986, 0.10200000000000001, 192.0, 0.0, 0.0, 0.0, 0.0, 0.0, 0.0, 0.0, 0.0, 0.0, 1.741985669288996E9, 0.0, 2025-03-14 15:54:29.288
86.0, 13704.793298815883, 22373.559757895444, -8346.856635434227, 2573.289283906136, 11966.766353460116, 7108.88291703259, 1662.9921392193007, 17933.095149170775, 46564.58456094081, -2391.726063695677, 21249.44582574914, 45587.29923812142, 9377.786144946354, -1125.298574602434, 18678.235254077346, -16092.205475831686, 0.082, 0.986, 0.10200000000000001, 192.0, 0.0, 0.0, 0.0, 0.0, 0.0, 0.0, 0.0, 0.0, 0.0, 1.741985669289178E9, 0.0, 2025-03-14 15:54:29.289
88.0, 13710.023607018426, 22378.99123179808, -8348.488312779464, 2574.138650195438, 11964.620585992407, 7109.531117621794, 1647.4129733339516, 17930.54705030287, 46551.62054915674, -2397.4928137651464, 21200.13787748073, 45543.66863294466, 9354.741496412933, -1131.2441386275457, 18677.74351569933, -16097.793411945513, 0.084, 0.978, 0.1, 192.0, 1.0, 80.0, 15.0, 72.0, 1.5, 16.0, 0.0, 0.0, 0.0, 1.74198566928935E9, 0.0, 2025-03-14 15:54:29.289
90.0, 13728.508499682965, 22396.38088898431, -8331.635097460163, 2585.7392055677424, 11961.647803979851, 7116.191937469475, 1647.3459181005858, 17928.11071015724, 46575.11223257926, -2378.0914995779394, 21251.1669100722, 45594.42944460266, 9357.446057492025, -1112.26750758499, 18706.2643416243, -16087.08692635142, 0.084, 0.978, 0.1, 192.0, 0.0, 0.0, 0.0, 0.0, 0.0, 0.0, 0.0, 0.0, 0.0, 1.741985669347025E9, 0.0, 2025-03-14 15:54:29.347
92.0, 13730.3413427283, 22398.28078726301, -8347.728353467985, 2585.3815776564575, 11971.057888395535, 7122.808053828247, 1649.5810925461165, 17938.571326562327, 46572.83235464482, -2372.592970441934, 21218.980398056556, 45570.44602280212, 9364.688022695545, -1114.1450541192357, 18700.51994329929, -16088.629196718837, 0.084, 0.978, 0.1, 192.0, 0.0, 0.0, 0.0, 0.0, 0.0, 0.0, 0.0, 0.0, 0.0, 1.741985669347286E9, 0.0, 2025-03-14 15:54:29.347
94.0, 13710.492993651986, 22377.627775386307, -8333.669106205596, 2574.4068711289015, 11966.431077293288, 7110.201669955453, 1652.2185983918428, 17936.73848351699, 46573.50290697848, -2383.8135461584984, 21256.665439208205, 45594.92118298068, 9350.025278332863, -1119.4871210440542, 18699.447059565435, -16095.021795633054, 0.084, 0.978, 0.1, 192.0, 0.0, 0.0, 0.0, 0.0, 0.0, 0.0, 0.0, 0.0, 0.0, 1.741985669347478E9, 0.0, 2025-03-14 15:54:29.347
96.0, 13704.033339504402, 22377.448961430666, -8349.98587965797, 2575.882086262952, 11973.56128377453, 7119.634106115593, 1654.2302553928205, 17949.344867389784, 46565.009244085464, -2393.827127674476, 21210.82201133037, 45563.4052232987, 9359.636528448646, -1128.3160601039006, 18700.721108999387, -16097.927522412245, 0.08, 0.974, 0.099, 192.0, 1.0, 48.0, 15.0, 40.0, 1.5, 8.0, 0.0, 0.0, 0.0, 1.741985669347666E9, 0.0, 2025-03-14 15:54:29.347
98.0, 13699.831211546805, 22378.32067946442, -8334.138492839158, 2575.0550717181054, 11965.827580192994, 7108.346475165663, 1660.4216886069405, 17947.55672783336, 46557.946092837585, -2393.335389296459, 21239.767520399993, 45582.96299969709, 9355.23323479095, -1124.4492083131324, 18703.89505671204, -16103.560162014981, 0.08, 0.974, 0.099, 192.0, 0.0, 0.0, 0.0, 0.0, 0.0, 0.0, 0.0, 0.0, 0.0, 1.74198566934787E9, 0.0, 2025-03-14 15:54:29.347
100.0, 13709.218944218033, 22393.117534293837, -8340.709905709018, 2575.9714932407733, 11971.929606429292, 7114.381446168595, 1647.4576768228624, 17939.97948646301, 46567.75850865347, -2385.981665370663, 21226.9599708271, 45576.570400782875, 9359.748287170922, -1125.298574602434, 18704.90088521253, -16111.003292918598, 0.08, 0.974, 0.099, 192.0, 0.0, 0.0, 0.0, 0.0, 0.0, 0.0, 0.0, 0.0, 0.0, 1.741985669348057E9, 0.0, 2025-03-14 15:54:29.348
102.0, 13698.914790024137, 22381.919310321726, -8330.830434659772, 2573.512801350689, 11971.482571540186, 7113.822652557213, 1645.7365924998037, 17946.260326654952, 46578.710863436565, -2380.9301711237636, 21248.551755970926, 45594.02711320247, 9373.271092566383, -1117.2072431096128, 18711.98638820486, -16106.577647516448, 0.08, 0.974, 0.099, 192.0, 0.0, 0.0, 0.0, 0.0, 0.0, 0.0, 0.0, 0.0, 0.0, 1.741985669348238E9, 0.0, 2025-03-14 15:54:29.348
104.0, 13681.2792636489, 22366.362496180835, -8352.109295381224, 2563.4098128568903, 11956.238681821667, 7102.020931484811, 1643.2779006097198, 17938.83954749579, 46568.36200575376, -2395.1905840862496, 21234.134880797254, 45583.96882819758, 9361.84935114972, -1130.2830136159675, 18690.953396672416, -16120.547487801015, 0.08, 0.974, 0.099, 192.0, 0.0, 0.0, 0.0, 0.0, 0.0, 0.0, 0.0, 0.0, 0.0, 1.741985669348427E9, 0.0, 2025-03-14 15:54:29.348
106.0, 13684.855542761748, 22368.48591190409, -8358.636004762175, 2574.2504089177146, 11970.812019206527, 7102.378559396096, 1645.825999477625, 17938.236050395495, 46558.12490679323, -2402.7454737121434, 21223.093119036334, 45567.71910997857, 9378.009662390908, -1134.7757142514843, 18685.052536136216, -16123.944952958222, 0.07300000000000001, 0.98, 0.1005, 192.0, 1.0, 8.0, 15.0, 104.0, 1.5, 24.0, 0.0, 0.0, 0.0, 1.741985669407329E9, 0.0, 2025-03-14 15:54:29.407
108.0, 13699.339473168788, 22380.108819020847, -8330.830434659772, 2582.811127044097, 11975.79645822006, 7118.158890981543, 1656.3313193716192, 17952.451759869073, 46575.93924712411, -2386.495755493135, 21239.05226457742, 45589.04267418894, 9377.763793201899, -1121.3646675783, 18700.966978188393, -16107.47171729466, 0.07300000000000001, 0.98, 0.1005, 192.0, 0.0, 0.0, 0.0, 0.0, 0.0, 0.0, 0.0, 0.0, 0.0, 1.741985669407562E9, 0.0, 2025-03-14 15:54:29.407
110.0, 13706.00029301647, 22378.924176564717, -8312.904335606616, 2583.615789844488, 11971.41551630682, 7110.983981011389, 1652.1738949029323, 17945.679181299114, 46581.16955532665, -2388.0603776050066, 21245.176642558177, 45581.55483979641, 9334.51316768088, -1119.8671006997945, 18708.27599862528, -16104.700100982202, 0.07300000000000001, 0.98, 0.1005, 192.0, 0.0, 0.0, 0.0, 0.0, 0.0, 0.0, 0.0, 0.0, 0.0, 1.741985669407746E9, 0.0, 2025-03-14 15:54:29.407
112.0, 13695.360862655743, 22368.575318881907, -8358.74776348445, 2571.4117373718905, 11958.406801033832, 7107.1394809650765, 1640.0145459192452, 17943.68987604259, 46580.07431984834, -2390.47436600618, 21256.68779095266, 45596.6646190482, 9357.356650514204, -1126.393810080744, 18691.69100423944, -16112.746728986112, 0.07300000000000001, 0.98, 0.1005, 192.0, 0.0, 0.0, 0.0, 0.0, 0.0, 0.0, 0.0, 0.0, 0.0, 1.741985669407928E9, 0.0, 2025-03-14 15:54:29.407
114.0, 13714.38219718721, 22377.627775386307, -8335.032562617369, 2583.8393072890412, 11972.309586085032, 7111.274553689308, 1644.082563410111, 17943.801634764866, 46574.4416802456, -2387.56863922699, 21210.19616248562, 45562.06411863138, 9384.37990956067, -1125.3432780913447, 18690.104030383114, -16108.835173706435, 0.07300000000000001, 0.98, 0.1005, 192.0, 0.0, 0.0, 0.0, 0.0, 0.0, 0.0, 0.0, 0.0, 0.0, 1.741985669408111E9, 0.0, 2025-03-14 15:54:29.408
116.0, 13723.166432758146, 22382.165179510735, -8337.245385318445, 2585.269818934181, 11971.594330262462, 7113.397969412562, 1653.4926478257953, 17945.92505048812, 46599.43093054664, -2382.4500897467246, 21261.091084610354, 45610.50034886603, 9356.730801669455, -1120.9846879225597, 18693.836771707152, -16104.56599051547, 0.07750000000000001, 0.98, 0.10325000000000001, 192.0, 1.0, 72.0, 15.0, 80.0, 1.5, 40.0, 0.0, 0.0, 0.0, 1.741985669408303E9, 0.0, 2025-03-14 15:54:29.408
118.0, 13713.309313453356, 22367.591842125876, -8332.775036427383, 2575.6138653294884, 11954.204673076234, 7099.472832616906, 1627.27405157972, 17929.720035758022, 46589.46205251957, -2384.372339769881, 21216.968741055578, 45573.19528737012, 9361.42466800507, -1125.432685069166, 18696.250760108323, -16105.214191104675, 0.07750000000000001, 0.98, 0.10325000000000001, 192.0, 0.0, 0.0, 0.0, 0.0, 0.0, 0.0, 0.0, 0.0, 0.0, 1.741985669408494E9, 0.0, 2025-03-14 15:54:29.408
120.0, 13719.85837457876, 22369.916423549228, -8343.79444644385, 2578.0502054751164, 11964.642937736862, 7110.939277522479, 1639.8133802191473, 17939.331285873806, 46589.23853507502, -2389.982627628163, 21255.07846535188, 45601.671409806186, 9349.868816121676, -1132.2946706169453, 18690.394603061035, -16113.014949919576, 0.07750000000000001, 0.98, 0.10325000000000001, 192.0, 0.0, 0.0, 0.0, 0.0, 0.0, 0.0, 0.0, 0.0, 0.0, 1.741985669468988E9, 0.0, 2025-03-14 15:54:29.468
122.0, 13721.512403668452, 22372.218653228123, -8352.310461081323, 2577.6031705860105, 11962.65363248034, 7109.575821110705, 1637.6899644958933, 17942.326419630816, 46592.636000232225, -2382.763014169099, 21215.448822432616, 45567.272075089466, 9370.007737875907, -1124.6503740132302, 18695.624911263574, -16102.75549921459, 0.07750000000000001, 0.98, 0.10325000000000001, 192.0, 0.0, 0.0, 0.0, 0.0, 0.0, 0.0, 0.0, 0.0, 0.0, 1.741985669469228E9, 0.0, 2025-03-14 15:54:29.469
124.0, 13730.140177028201, 22381.405220199256, -8344.286184821867, 2582.297036921625, 11967.347498815954, 7118.069484003721, 1651.7045082693708, 17946.617954566234, 46584.05293036139, -2383.388863013847, 21259.124131098288, 45607.48286336457, 9370.700641954023, -1131.9370427056604, 18683.063230879692, -16110.75742372959, 0.07750000000000001, 0.98, 0.10325000000000001, 192.0, 0.0, 0.0, 0.0, 0.0, 0.0, 0.0, 0.0, 0.0, 0.0, 1.741985669469413E9, 0.0, 2025-03-14 15:54:29.469
126.0, 13714.76217684295, 22365.736647336085, -8372.851714235749, 2575.0774234625605, 11962.407763291332, 7106.983018753889, 1641.1321331420104, 17935.44208233858, 46598.20158460159, -2381.1536885683167, 21212.52074390897, 45564.321644821364, 9395.444023066048, -1125.1644641357022, 18697.524809542276, -16098.687481723724, 0.08275, 0.979, 0.106625, 192.0, 1.0, 96.0, 15.0, 72.0, 1.5, 56.0, 0.0, 0.0, 0.0, 1.741985669469599E9, 0.0, 2025-03-14 15:54:29.469
128.0, 13712.035264019403, 22363.52382463501, -8335.144321339647, 2575.6585688183986, 11958.540911500564, 7105.083120475188, 1628.346935313575, 17938.325457373317, 46582.421253016146, -2392.150746840328, 21246.853023392323, 45598.87744174927, 9369.42659252007, -1132.3840775947665, 18691.020451905784, -16110.735071985135, 0.08275, 0.979, 0.106625, 192.0, 0.0, 0.0, 0.0, 0.0, 0.0, 0.0, 0.0, 0.0, 0.0, 1.741985669469792E9, 0.0, 2025-03-14 15:54:29.469
130.0, 13712.415243675143, 22367.52478689251, -8341.089885364758, 2579.123089208971, 11966.207559848734, 7109.888745533079, 1652.2856536252086, 17944.248669653975, 46582.19773557159, -2393.536554996557, 21210.28556946344, 45556.297368561914, 9352.95335685651, -1134.3286793623781, 18688.539408271245, -16109.52807778455, 0.08275, 0.979, 0.106625, 192.0, 0.0, 0.0, 0.0, 0.0, 0.0, 0.0, 0.0, 0.0, 0.0, 1.741985669469973E9, 0.0, 2025-03-14 15:54:29.469
132.0, 13704.86035404925, 22367.301269447955, -8360.491199551965, 2577.111432207994, 11954.070562609502, 7111.3639606671295, 1635.0301069057116, 17937.721960273026, 46588.858555419276, -2383.8358979029535, 21261.761636944015, 45609.82979653237, 9373.38285128866, -1126.6396792697526, 18688.874684438073, -16102.129650369841, 0.08275, 0.979, 0.106625, 192.0, 0.0, 0.0, 0.0, 0.0, 0.0, 0.0, 0.0, 0.0, 0.0, 1.74198566947015E9, 0.0, 2025-03-14 15:54:29.470
134.0, 13715.700950110073, 22377.89599631977, -8326.114216579703, 2582.2746851771694, 11967.839237193972, 7111.296905433764, 1637.9134819404462, 17945.74623653248, 46575.46986049055, -2384.238229303149, 21208.56448514038, 45567.51794427847, 9351.880473122654, -1126.7290862475738, 18708.94655095894, -16094.373595043851, 0.08275, 0.979, 0.106625, 192.0, 0.0, 0.0, 0.0, 0.0, 0.0, 0.0, 0.0, 0.0, 0.0, 1.74198566947032E9, 0.0, 2025-03-14 15:54:29.470
136.0, 13696.389042900688, 22368.62002237082, -8347.929519168081, 2571.948179238818, 11960.306699312532, 7098.846983772157, 1633.8678161940356, 17937.945477717578, 46579.18025007013, -2392.1283950958723, 21257.693619453148, 45596.910488237205, 9356.931967369554, -1129.4336473266658, 18694.99906241883, -16103.023720148054, 0.084375, 0.9795, 0.1083125, 192.0, 1.0, 88.0, 15.0, 80.0, 1.5, 56.0, 0.0, 0.0, 0.0, 1.741985669527866E9, 0.0, 2025-03-14 15:54:29.527
138.0, 13696.321987667321, 22378.56654865343, -8369.52130431191, 2570.5400193381333, 11964.46412378122, 7101.5068413623385, 1634.3148510831418, 17943.30989638685, 46559.95774983856, -2405.0029999021294, 21186.123333707255, 45547.691946946616, 9377.204999590516, -1140.7883335099618, 18678.4587715219, -16109.371615573362, 0.084375, 0.9795, 0.1083125, 192.0, 0.0, 0.0, 0.0, 0.0, 0.0, 0.0, 0.0, 0.0, 0.0, 1.741985669528111E9, 0.0, 2025-03-14 15:54:29.528
140.0, 13705.530906382908, 22396.62675817332, -8325.577774712774, 2585.515688123189, 11966.408725548832, 7107.631219343093, 1642.696755253882, 17953.435236625104, 46557.946092837585, -2389.401482272325, 21252.999753117532, 45603.07956970687, 9348.505359709903, -1127.399638581233, 18695.244931607835, -16093.211304332175, 0.084375, 0.9795, 0.1083125, 192.0, 0.0, 0.0, 0.0, 0.0, 0.0, 0.0, 0.0, 0.0, 0.0, 1.741985669528279E9, 0.0, 2025-03-14 15:54:29.528
142.0, 13704.435670904599, 22399.376022741322, -8344.174426099591, 2579.5924758425326, 11965.760524959627, 7110.69340833347, 1649.4469820793847, 17958.106751216263, 46546.94903456557, -2387.970970627185, 21214.174772998664, 45574.26817110398, 9352.036935333841, -1124.493911802043, 18696.809553719708, -16085.835228661923, 0.084375, 0.9795, 0.1083125, 192.0, 0.0, 0.0, 0.0, 0.0, 0.0, 0.0, 0.0, 0.0, 0.0, 1.741985669528471E9, 0.0, 2025-03-14 15:54:29.528
144.0, 13694.019757988424, 22392.15640928226, -8344.2191295885, 2577.200839185815, 11973.158952374335, 7102.669132074015, 1647.8376564786026, 17945.32155338783, 46531.325165191316, -2397.9398486542523, 21238.180546543666, 45592.73071202406, 9369.136019842152, -1134.3733828512886, 18690.08167863866, -16089.27739730804, 0.084375, 0.9795, 0.1083125, 192.0, 0.0, 0.0, 0.0, 0.0, 0.0, 0.0, 0.0, 0.0, 0.0, 1.741985669528657E9, 0.0, 2025-03-14 15:54:29.528
146.0, 13691.359900398244, 22397.789048884995, -8352.869254692705, 2579.8830485204517, 11969.761487217127, 7109.307600177241, 1643.9931564322899, 17954.508120358958, 46507.16292943513, -2402.7007702232327, 21199.71319433608, 45576.704511249605, 9361.245854049428, -1134.686307273663, 18689.65699549401, -16081.923673382244, 0.0861875, 0.97775, 0.10815625000000001, 192.0, 1.0, 96.0, 15.0, 64.0, 1.5, 48.0, 0.0, 0.0, 0.0, 1.741985669528856E9, 0.0, 2025-03-14 15:54:29.528
148.0, 13708.95072328457, 22413.502325237077, -8327.634135202663, 2593.1152812379937, 11975.505885542141, 7114.560260124238, 1660.4216886069405, 17964.253480941472, 46525.33489767729, -2396.5540404980234, 21224.881258592755, 45599.36918012729, 9363.056345350307, -1124.426856568677, 18690.439306549946, -16071.574815699438, 0.0861875, 0.97775, 0.10815625000000001, 192.0, 0.0, 0.0, 0.0, 0.0, 0.0, 0.0, 0.0, 0.0, 0.0, 1.741985669529041E9, 0.0, 2025-03-14 15:54:29.529
150.0, 13694.019757988424, 22403.24287453209, -8363.799257731349, 2575.882086262952, 11964.061792381024, 7104.3231611637075, 1640.953319186368, 17946.17091967713, 46509.62162132521, -2390.273200306082, 21228.993979572533, 45592.0601596904, 9360.128266826661, -1122.7281239900738, 18691.7133559839, -16065.60689992987, 0.0861875, 0.97775, 0.10815625000000001, 192.0, 0.0, 0.0, 0.0, 0.0, 0.0, 0.0, 0.0, 0.0, 0.0, 1.741985669586719E9, 0.0, 2025-03-14 15:54:29.586
152.0, 13686.733089295994, 22390.345917981376, -8338.921766152593, 2568.8189350150747, 11966.252263337645, 7093.683730802982, 1639.8357319636027, 17944.405131865162, 46495.6741327851, -2420.112779153917, 21219.29332247893, 45580.97369444057, 9372.309967554804, -1134.4851415735652, 18677.229425576857, -16079.04029834751, 0.0861875, 0.97775, 0.10815625000000001, 192.0, 0.0, 0.0, 0.0, 0.0, 0.0, 0.0, 0.0, 0.0, 0.0, 1.741985669586968E9, 0.0, 2025-03-14 15:54:29.586
154.0, 13688.722394552517, 22395.66563316174, -8344.800274944339, 2572.84224901703, 11965.13467611488, 7109.3746554106065, 1639.7463249857815, 17952.56351859135, 46490.37676934919, -2399.8620986774085, 21223.83072660336, 45584.50527006451, 9354.272109779371, -1134.6416037847525, 18677.07296336567, -16069.451399976184, 0.0861875, 0.97775, 0.10815625000000001, 192.0, 0.0, 0.0, 0.0, 0.0, 0.0, 0.0, 0.0, 0.0, 0.0, 1.74198566958715E9, 0.0, 2025-03-14 15:54:29.587
156.0, 13701.485240636497, 22406.48387747811, -8331.858614904717, 2583.8393072890412, 11975.997623920159, 7108.033550743288, 1652.9338542144126, 17946.617954566234, 46476.988074420464, -2408.0204854035956, 21222.1096422803, 45578.98438918405, 9365.447982007025, -1132.5405398059536, 18684.158466358003, -16064.913995851755, 0.08709375, 0.9788749999999999, 0.10407812500000001, 192.0, 1.0, 96.0, 15.0, 80.0, 1.5, 16.0, 0.0, 0.0, 0.0, 1.741985669587334E9, 0.0, 2025-03-14 15:54:29.587
158.0, 13702.08873773679, 22407.065022833947, -8338.005344629926, 2579.614827586988, 11975.997623920159, 7110.112262977632, 1649.178761145921, 17954.8881000147, 46502.022028210406, -2394.14005209685, 21251.323372283387, 45610.321534910385, 9370.119496598185, -1105.5396325039426, 18701.458716566412, -16056.621498658837, 0.08709375, 0.9788749999999999, 0.10407812500000001, 192.0, 0.0, 0.0, 0.0, 0.0, 0.0, 0.0, 0.0, 0.0, 0.0, 1.741985669587539E9, 0.0, 2025-03-14 15:54:29.587
160.0, 13684.56497008383, 22386.00967955705, -8338.295917307845, 2576.2173624297816, 11974.298891341556, 7108.391178654573, 1651.8609704805579, 17952.250594168974, 46475.33404533077, -2401.985514400663, 21224.076595792365, 45577.93385719465, 9359.301252281815, -1137.9273102196826, 18686.41599254799, -16063.505835951071, 0.08709375, 0.9788749999999999, 0.10407812500000001, 192.0, 0.0, 0.0, 0.0, 0.0, 0.0, 0.0, 0.0, 0.0, 0.0, 1.741985669587735E9, 0.0, 2025-03-14 15:54:29.587
162.0, 13665.834208230282, 22366.60836536984, -8409.866203053738, 2549.7976004836087, 11958.831484178483, 7094.510745347828, 1645.5130750552507, 17942.50523358646, 46447.57317871728, -2417.9670116862076, 21217.706348622603, 45586.09224392084, 9380.401299047626, -1143.4258393556881, 18668.489893494832, -16077.967414613655, 0.08709375, 0.9788749999999999, 0.10407812500000001, 192.0, 0.0, 0.0, 0.0, 0.0, 0.0, 0.0, 0.0, 0.0, 0.0, 1.741985669587912E9, 0.0, 2025-03-14 15:54:29.587
164.0, 13703.541601126386, 22399.15250529677, -8296.185230754047, 2582.587609599544, 11992.403804350353, 7112.6603618455365, 1657.5830170611164, 17956.40801863766, 46457.40794627761, -2410.5238807825904, 21203.691804849124, 45558.532543007444, 9336.725990381956, -1131.8476357278391, 18687.77944895976, -16073.362955255861, 0.08709375, 0.9788749999999999, 0.10407812500000001, 192.0, 0.0, 0.0, 0.0, 0.0, 0.0, 0.0, 0.0, 0.0, 0.0, 1.741985669588094E9, 0.0, 2025-03-14 15:54:29.588
166.0, 13704.681540093607, 22402.594673942887, -8334.473769005986, 2574.876257762463, 11974.053022152546, 7111.743940322869, 1663.5062293417727, 17960.945422762088, 46470.03668189486, -2390.563772984001, 21265.15910210122, 45611.57323259988, 9346.538406197835, -1107.7077517161074, 18706.71137651341, -16064.712830151659, 0.086546875, 0.9784375, 0.1010390625, 192.0, 1.0, 88.0, 15.0, 72.0, 1.5, 8.0, 0.0, 0.0, 0.0, 1.741985669647207E9, 0.0, 2025-03-14 15:54:29.647
168.0, 13692.589246343285, 22386.255548746056, -8333.713809694507, 2572.9540077393067, 11971.996661662659, 7106.424225142507, 1649.46933382384, 17954.508120358958, 46461.31950155729, -2395.6152672309004, 21222.62373240277, 45570.84835420232, 9353.221577789973, -1132.786408994962, 18693.4120885625, -16072.42418198874, 0.086546875, 0.9784375, 0.1010390625, 192.0, 0.0, 0.0, 0.0, 0.0, 0.0, 0.0, 0.0, 0.0, 0.0, 1.741985669647441E9, 0.0, 2025-03-14 15:54:29.647
170.0, 13683.760307283439, 22375.03497302949, -8344.621460988696, 2569.042452459628, 11977.2269698652, 7108.4358821434835, 1657.2924443831976, 17963.784094307914, 46449.54013222935, -2410.5462325270455, 21257.31363979741, 45603.83952901835, 9358.742458670433, -1125.6114990248084, 18694.037937407247, -16072.84886513339, 0.086546875, 0.9784375, 0.1010390625, 192.0, 0.0, 0.0, 0.0, 0.0, 0.0, 0.0, 0.0, 0.0, 0.0, 1.741985669647624E9, 0.0, 2025-03-14 15:54:29.647
172.0, 13685.146115439667, 22370.51992064952, -8338.340620796755, 2569.0201007151727, 11980.199751877755, 7102.400911140551, 1668.3565578885746, 17954.64223082569, 46437.9619286015, -2414.1448633843497, 21216.18642999964, 45564.29929307691, 9356.842560391731, -1118.7718652214844, 18693.635606007054, -16078.481504736128, 0.086546875, 0.9784375, 0.1010390625, 192.0, 0.0, 0.0, 0.0, 0.0, 0.0, 0.0, 0.0, 0.0, 0.0, 1.741985669647812E9, 0.0, 2025-03-14 15:54:29.647
174.0, 13679.84875200376, 22363.456769401644, -8369.767173500917, 2561.509914578189, 11975.483533797686, 7099.0257977278, 1662.4780490968287, 17945.723884788025, 46422.02513480486, -2420.2468896206487, 21252.64212520625, 45605.1135784523, 9364.688022695545, -1137.2120543971128, 18692.5627222732, -16085.969339128655, 0.086546875, 0.9784375, 0.1010390625, 192.0, 0.0, 0.0, 0.0, 0.0, 0.0, 0.0, 0.0, 0.0, 0.0, 1.741985669648001E9, 0.0, 2025-03-14 15:54:29.648
176.0, 13692.253970176456, 22367.211862470136, -8365.721507754506, 2563.074536690061, 11979.529199544097, 7105.083120475188, 1653.2691303812421, 17952.54116684689, 46425.400248217615, -2423.8678722224086, 21180.222473171052, 45550.08358360334, 9414.28654364187, -1135.3568596073223, 18673.429629019454, -16093.345414798907, 0.08227343749999999, 0.97721875, 0.10051953125, 192.0, 1.0, 56.0, 15.0, 64.0, 1.5, 16.0, 0.0, 0.0, 0.0, 1.741985669648184E9, 0.0, 2025-03-14 15:54:29.648
178.0, 13696.61256034524, 22369.04470551547, -8314.536012951852, 2570.7858885271417, 11978.299853599055, 7109.441710643972, 1661.2263514073315, 17954.77634129242, 46446.36618451669, -2419.6657442648107, 21281.855855209335, 45617.65290709173, 9305.612362100168, -1117.1625396207023, 18718.60250456363, -16074.65935643427, 0.08227343749999999, 0.97721875, 0.10051953125, 192.0, 0.0, 0.0, 0.0, 0.0, 0.0, 0.0, 0.0, 0.0, 0.0, 1.741985669648367E9, 0.0, 2025-03-14 15:54:29.648
180.0, 13695.562028355842, 22365.781350824996, -8339.346449297243, 2567.164905925382, 11974.053022152546, 7105.641914086571, 1647.725897756326, 17942.393474864184, 46417.7559516139, -2421.520939054601, 21208.475078162563, 45566.37800531126, 9342.85036836271, -1119.7329902330625, 18703.55978054521, -16088.22686531864, 0.08227343749999999, 0.97721875, 0.10051953125, 192.0, 0.0, 0.0, 0.0, 0.0, 0.0, 0.0, 0.0, 0.0, 0.0, 1.741985669707854E9, 0.0, 2025-03-14 15:54:29.707
182.0, 13709.509516895952, 22374.140903251282, -8325.488367734953, 2578.5419438531335, 11984.983025191192, 7115.230812457898, 1653.3808891035187, 17953.36818139174, 46424.30501273931, -2410.3227150824923, 21266.522558512996, 45623.53141588347, 9357.960147614498, -1113.720370974585, 18713.014568449806, -16084.002385616588, 0.08227343749999999, 0.97721875, 0.10051953125, 192.0, 0.0, 0.0, 0.0, 0.0, 0.0, 0.0, 0.0, 0.0, 0.0, 1.741985669708175E9, 0.0, 2025-03-14 15:54:29.708
184.0, 13703.496897637475, 22359.2769931885, -8346.297841822845, 2564.5274000796558, 11987.061737425534, 7105.016065241822, 1666.635473565516, 17950.037771467898, 46422.85214934971, -2415.687133751766, 21217.0581480334, 45579.11849965078, 9356.775505158366, -1110.7699407064845, 18700.07290841018, -16093.233656076629, 0.08227343749999999, 0.97721875, 0.10051953125, 192.0, 0.0, 0.0, 0.0, 0.0, 0.0, 0.0, 0.0, 0.0, 0.0, 1.741985669708471E9, 0.0, 2025-03-14 15:54:29.708
186.0, 13688.476525363509, 22335.830013254883, -8377.120897426712, 2550.1775801393487, 11976.467010553719, 7095.091890703666, 1657.2477408942868, 17944.047503953876, 46426.65194590711, -2431.7133345262214, 21255.771369429993, 45608.39928488723, 9365.358575029204, -1134.9545282071267, 18699.603521776622, -16096.027624133543, 0.08113671875, 0.975609375, 0.098259765625, 192.0, 1.0, 64.0, 15.0, 56.0, 1.5, 0.0, 0.0, 0.0, 0.0, 1.741985669708743E9, 0.0, 2025-03-14 15:54:29.708
188.0, 13693.505667865953, 22337.104062688835, -8350.097638380246, 2546.623652770955, 11974.768277975116, 7099.115204705621, 1653.246778636787, 17947.64613481118, 46390.173898956054, -2449.795895790565, 21178.0990574478, 45545.00973761198, 9367.772563430377, -1132.585243294864, 18674.770733686775, -16116.814746476979, 0.08113671875, 0.975609375, 0.098259765625, 192.0, 0.0, 0.0, 0.0, 0.0, 0.0, 0.0, 0.0, 0.0, 0.0, 1.741985669709051E9, 0.0, 2025-03-14 15:54:29.709
190.0, 13699.071252235324, 22337.08171094438, -8358.926577440092, 2562.0910599340273, 11985.117135657923, 7100.3892541395735, 1657.6724240389376, 17941.812329508346, 46396.99118101492, -2422.9067472108304, 21255.43609326316, 45602.40901737321, 9341.062228806286, -1120.0682663998923, 18699.111783398603, -16099.894475924311, 0.08113671875, 0.975609375, 0.098259765625, 192.0, 0.0, 0.0, 0.0, 0.0, 0.0, 0.0, 0.0, 0.0, 0.0, 1.741985669709328E9, 0.0, 2025-03-14 15:54:29.709
192.0, 13723.099377524779, 22360.10400773335, -8328.215280558501, 2580.039510731639, 11999.109327686945, 7115.387274669084, 1680.76177606127, 17958.106751216263, 46406.244803219415, -2424.2255001336935, 21214.48769742104, 45575.18459262665, 9350.740534155433, -1112.558080262909, 18701.07873691067, -16101.168525358264, 0.08113671875, 0.975609375, 0.098259765625, 192.0, 0.0, 0.0, 0.0, 0.0, 0.0, 0.0, 0.0, 0.0, 0.0, 1.741985669709603E9, 0.0, 2025-03-14 15:54:29.709
194.0, 13708.928371540114, 22344.256620914533, -8330.249289303934, 2567.9248652368624, 11990.660368282839, 7105.127823964099, 1662.8133252636583, 17946.059160954854, 46397.41586415957, -2409.0039621596293, 21267.282517824475, 45615.35067741283, 9357.602519703212, -1099.9069929012053, 18714.400376606034, -16093.27835956554, 0.08113671875, 0.975609375, 0.098259765625, 192.0, 0.0, 0.0, 0.0, 0.0, 0.0, 0.0, 0.0, 0.0, 0.0, 1.741985669709884E9, 0.0, 2025-03-14 15:54:29.709
196.0, 13691.024624231413, 22331.113795174813, -8366.570874043808, 2554.3126528635803, 11985.742984502673, 7096.3435883931625, 1663.1709531749432, 17942.8852132422, 46370.21379115746, -2423.5772995444895, 21222.690787636137, 45579.364368839786, 9359.792990659833, -1114.5473855194314, 18698.08360315366, -16112.277342352552, 0.07856835937500001, 0.9788046875, 0.0981298828125, 192.0, 1.0, 48.0, 15.0, 88.0, 1.5, 8.0, 0.0, 0.0, 0.0, 1.741985669767568E9, 0.0, 2025-03-14 15:54:29.767
198.0, 13688.320063152321, 22332.007864953026, -8361.228807118989, 2563.789792512631, 11984.915969957825, 7101.171565195509, 1657.7618310167588, 17951.535338346403, 46341.40239255457, -2431.0651339370174, 21219.87446783477, 45581.89011596324, 9377.942607157542, -1119.7776937219733, 18679.643413978032, -16119.631066278347, 0.07856835937500001, 0.9788046875, 0.0981298828125, 192.0, 0.0, 0.0, 0.0, 0.0, 0.0, 0.0, 0.0, 0.0, 0.0, 1.741985669767908E9, 0.0, 2025-03-14 15:54:29.767
200.0, 13695.830249289305, 22334.108928931826, -8374.058708436336, 2560.146458166416, 11977.98692917668, 7099.249315172353, 1656.37602286053, 17943.846338253778, 46318.514206232336, -2429.276994380593, 21210.889066563734, 45585.13111890926, 9391.57717127528, -1120.0906181443474, 18677.899977910518, -16112.254990608097, 0.07856835937500001, 0.9788046875, 0.0981298828125, 192.0, 0.0, 0.0, 0.0, 0.0, 0.0, 0.0, 0.0, 0.0, 0.0, 1.741985669768173E9, 0.0, 2025-03-14 15:54:29.768
202.0, 13710.582400629808, 22340.412120868223, -8326.628306702174, 2571.903475749907, 11991.912065972338, 7103.742015807869, 1664.1544299309767, 17943.444006853584, 46315.69788643097, -2422.794988488554, 21228.16696502769, 45595.16705216969, 9390.347825330236, -1109.5629465058978, 18697.79303047574, -16105.840039949422, 0.07856835937500001, 0.9788046875, 0.0981298828125, 192.0, 0.0, 0.0, 0.0, 0.0, 0.0, 0.0, 0.0, 0.0, 0.0, 1.741985669768441E9, 0.0, 2025-03-14 15:54:29.768
204.0, 13689.124725952714, 22335.80766151043, -8365.721507754506, 2558.3806703544465, 11980.892655955871, 7101.64095182907, 1652.151543158477, 17942.751102775466, 46273.47544115489, -2436.6083665619335, 21233.330217996863, 45596.19523241463, 9352.528673711859, -1114.0779988858699, 18697.79303047574, -16102.42022304776, 0.07856835937500001, 0.9788046875, 0.0981298828125, 192.0, 0.0, 0.0, 0.0, 0.0, 0.0, 0.0, 0.0, 0.0, 0.0, 1.741985669768728E9, 0.0, 2025-03-14 15:54:29.768
206.0, 13719.031360033914, 22346.022408726505, -8330.606917215218, 2575.770327540675, 11990.32509211601, 7105.217230941919, 1663.1933049193985, 17946.528547588416, 46245.178132674475, -2415.888299451864, 21222.266104491486, 45592.149566668224, 9362.542255227836, -1113.2509843410235, 18690.551065272222, -16106.801164961002, 0.07928417968750001, 0.98140234375, 0.09806494140625, 192.0, 1.0, 64.0, 15.0, 96.0, 1.5, 8.0, 0.0, 0.0, 0.0, 1.741985669769016E9, 0.0, 2025-03-14 15:54:29.769
208.0, 13711.074139007824, 22345.3742081373, -8356.669051250106, 2573.4010426284126, 11990.906237471849, 7108.5476408657605, 1657.2030374053763, 17947.42261736663, 46216.47849279386, -2413.720180239699, 21251.92686938368, 45615.574194857385, 9382.122383370684, -1115.8884901867498, 18701.816344477695, -16095.245313077607, 0.07928417968750001, 0.98140234375, 0.09806494140625, 192.0, 0.0, 0.0, 0.0, 0.0, 0.0, 0.0, 0.0, 0.0, 0.0, 1.741985669769291E9, 0.0, 2025-03-14 15:54:29.769
210.0, 13710.694159352084, 22347.296458160457, -8323.275545033877, 2580.978283998762, 11994.013129951136, 7119.432940415495, 1665.048499709189, 17953.16701569164, 46120.16482593594, -2424.381962344881, 21217.169906755676, 45593.64713354673, 9367.191418074539, -1108.691228472141, 18696.876608953073, -16094.083022365932, 0.07928417968750001, 0.98140234375, 0.09806494140625, 192.0, 0.0, 0.0, 0.0, 0.0, 0.0, 0.0, 0.0, 0.0, 0.0, 1.741985669827715E9, 0.0, 2025-03-14 15:54:29.827
212.0, 13697.2831126789, 22338.579277822886, -8378.618464305218, 2562.783964012142, 11981.47380131171, 7102.624428585104, 1662.209828163365, 17943.466358598038, 46048.01339483421, -2416.6706105077997, 21256.039590363456, 45624.738410084065, 9376.579150745769, -1105.718446459585, 18706.666673024498, -16090.439688019716, 0.07928417968750001, 0.98140234375, 0.09806494140625, 192.0, 0.0, 0.0, 0.0, 0.0, 0.0, 0.0, 0.0, 0.0, 0.0, 1.741985669828042E9, 0.0, 2025-03-14 15:54:29.828
214.0, 13705.441499405088, 22343.966048236616, -8340.039353375358, 2575.882086262952, 11989.118097915423, 7112.54860312326, 1666.4119561209627, 17956.22920468202, 45990.79292902863, -2421.118607654406, 21207.82687757336, 45577.35271183881, 9362.676365694568, -1107.685399971652, 18698.351824087124, -16095.602940988892, 0.07928417968750001, 0.98140234375, 0.09806494140625, 192.0, 0.0, 0.0, 0.0, 0.0, 0.0, 0.0, 0.0, 0.0, 0.0, 1.741985669828333E9, 0.0, 2025-03-14 15:54:29.828
216.0, 13707.676673850618, 22344.346027892356, -8335.1666730841, 2579.74893805372, 11989.94511246027, 7114.783777568791, 1673.788031791214, 17960.632498339713, 45926.33049801952, -2422.236194877171, 21252.865642650802, 45626.52654964048, 9371.259435565406, -1108.1547866052135, 18699.000024676327, -16090.171467086253, 0.08164208984375002, 0.981701171875, 0.097032470703125, 192.0, 1.0, 80.0, 15.0, 88.0, 1.5, 0.0, 0.0, 0.0, 0.0, 1.741985669828604E9, 0.0, 2025-03-14 15:54:29.828
218.0, 13706.71554883904, 22344.927173248194, -8341.358106298221, 2578.3407781530354, 11996.382414863398, 7111.609829856137, 1670.859953267569, 17959.425504139126, 45863.678558311294, -2419.3081163535257, 21230.268029006485, 45589.556764311405, 9356.03789759134, -1100.8010626794176, 18707.22546663588, -16080.202589059185, 0.08164208984375002, 0.981701171875, 0.097032470703125, 192.0, 0.0, 0.0, 0.0, 0.0, 0.0, 0.0, 0.0, 0.0, 0.0, 1.741985669828897E9, 0.0, 2025-03-14 15:54:29.828
220.0, 13700.993502258481, 22339.987437723572, -8360.871179207705, 2568.953045481807, 11986.860571725438, 7104.904306519546, 1658.9241217284348, 17945.54507083238, 45808.26858380659, -2412.602593016934, 21260.956974143624, 45631.28747120946, 9378.590807746747, -1107.305420315912, 18696.474277552876, -16090.015004875066, 0.08164208984375002, 0.981701171875, 0.097032470703125, 192.0, 0.0, 0.0, 0.0, 0.0, 0.0, 0.0, 0.0, 0.0, 0.0, 1.741985669829171E9, 0.0, 2025-03-14 15:54:29.829
222.0, 13701.485240636497, 22336.36645512181, -8344.755571455427, 2572.3952141279237, 11988.961635704236, 7108.2570681878415, 1668.3565578885746, 17943.22048940903, 45730.70803054667, -2429.5452153140563, 21198.595607113315, 45572.100051891815, 9379.060194380307, -1121.0964466448363, 18682.325623312667, -16102.375519558851, 0.08164208984375002, 0.981701171875, 0.097032470703125, 192.0, 0.0, 0.0, 0.0, 0.0, 0.0, 0.0, 0.0, 0.0, 0.0, 1.741985669829435E9, 0.0, 2025-03-14 15:54:29.829
224.0, 13699.562990613342, 22336.85819349983, -8352.668088992606, 2573.289283906136, 11985.497115313663, 7102.35620765164, 1648.239987878798, 17940.582983563305, 45693.67118998423, -2413.3178488395038, 21277.430209807186, 45632.31565145441, 9362.430496505558, -1104.3773417922666, 18702.308082855714, -16087.109278095875, 0.08164208984375002, 0.981701171875, 0.097032470703125, 192.0, 0.0, 0.0, 0.0, 0.0, 0.0, 0.0, 0.0, 0.0, 0.0, 1.741985669829697E9, 0.0, 2025-03-14 15:54:29.829
226.0, 13702.066385992335, 22338.691036545162, -8340.307574308823, 2582.65466483291, 11995.890676485382, 7113.241507201375, 1682.3934534065072, 17953.703457558568, 45632.159189243226, -2414.323677339992, 21214.15242125421, 45587.76862475499, 9362.430496505558, -1108.624173238775, 18694.708489740908, -16086.192856573209, 0.083821044921875, 0.9838505859375, 0.0955162353515625, 192.0, 1.0, 88.0, 15.0, 104.0, 1.0, 120.0, 0.0, 0.0, 0.0, 1.741985669888595E9, 0.0, 2025-03-14 15:54:29.888
228.0, 13702.066385992335, 22334.645370798753, -8345.448475533543, 2574.295112406625, 11987.50877231464, 7102.400911140551, 1671.7540230457812, 17942.63934405319, 45590.22731664507, -2415.687133751766, 21272.31166032692, 45635.33313695588, 9365.984423873953, -1104.8243766813728, 18702.531600300266, -16086.774001929047, 0.083821044921875, 0.9838505859375, 0.0955162353515625, 192.0, 0.0, 0.0, 0.0, 0.0, 0.0, 0.0, 0.0, 0.0, 0.0, 1.741985669888956E9, 0.0, 2025-03-14 15:54:29.888
230.0, 13705.888534294194, 22338.623981311797, -8363.195760631057, 2571.590551327533, 11986.078260669501, 7109.084082732687, 1655.8619327380577, 17939.55480331836, 45557.83963892933, -2416.7823692300763, 21207.223380473064, 45585.73461600955, 9381.80945894831, -1114.1227023747806, 18690.059326894203, -16096.429955533738, 0.083821044921875, 0.9838505859375, 0.0955162353515625, 192.0, 0.0, 0.0, 0.0, 0.0, 0.0, 0.0, 0.0, 0.0, 0.0, 1.741985669889223E9, 0.0, 2025-03-14 15:54:29.889
232.0, 13706.581438372308, 22337.23817315557, -8356.020850660903, 2567.5672373255775, 11981.093821655968, 7103.78671929678, 1658.633549050516, 17944.1369109317, 45538.594786953305, -2409.495700537646, 21265.673192223694, 45634.01438403301, 9358.697755181522, -1106.009019137504, 18698.530638042765, -16093.300711309996, 0.083821044921875, 0.9838505859375, 0.0955162353515625, 192.0, 0.0, 0.0, 0.0, 0.0, 0.0, 0.0, 0.0, 0.0, 0.0, 1.741985669889502E9, 0.0, 2025-03-14 15:54:29.889
234.0, 13704.681540093607, 22337.953428978137, -8349.2706238354, 2570.070632704572, 11983.08312691249, 7106.424225142507, 1664.4002991199852, 17944.91922198763, 45497.66874285564, -2416.1565203853274, 21213.548924153918, 45587.746273010525, 9356.484932480447, -1113.0274668964705, 18687.37711755957, -16102.531981770038, 0.083821044921875, 0.9838505859375, 0.0955162353515625, 192.0, 0.0, 0.0, 0.0, 0.0, 0.0, 0.0, 0.0, 0.0, 0.0, 1.741985669889794E9, 0.0, 2025-03-14 15:54:29.889
236.0, 13699.47358363552, 22334.6230190543, -8347.549539512342, 2572.3058071501027, 11979.171571632813, 7106.401873398051, 1658.141810672499, 17939.890079485187, 45475.56286758934, -2411.8426337054534, 21258.230061320075, 45630.72867759808, 9361.357612771704, -1109.8088156949063, 18695.624911263574, -16102.688443981224, 0.0849105224609375, 0.98392529296875, 0.09475811767578125, 192.0, 1.0, 88.0, 15.0, 96.0, 1.0, 120.0, 0.0, 0.0, 0.0, 1.741985669889998E9, 0.0, 2025-03-14 15:54:29.889
238.0, 13702.334606925799, 22337.08171094438, -8354.79150471586, 2571.568199583078, 11978.679833254795, 7109.508765877339, 1646.273034366731, 17930.59175379178, 45467.44918435207, -2405.8076627025202, 21210.330272952353, 45591.8589939903, 9363.056345350307, -1105.9419639041382, 18693.456792051413, -16099.894475924311, 0.0849105224609375, 0.98392529296875, 0.09475811767578125, 192.0, 0.0, 0.0, 0.0, 0.0, 0.0, 0.0, 0.0, 0.0, 0.0, 1.741985669890195E9, 0.0, 2025-03-14 15:54:29.890
240.0, 13688.029490474402, 22318.261542113014, -8358.859522206727, 2560.7276035222535, 11971.437868051276, 7093.996655225355, 1644.5072465547619, 17923.819175221823, 45462.889428483184, -2409.9203836822967, 21254.743189185047, 45620.9162617822, 9362.51990348338, -1113.0498186409259, 18685.186646602946, -16104.543638771016, 0.0849105224609375, 0.98392529296875, 0.09475811767578125, 192.0, 0.0, 0.0, 0.0, 0.0, 0.0, 0.0, 0.0, 0.0, 0.0, 1.741985669947071E9, 0.0, 2025-03-14 15:54:29.947
242.0, 13694.645606833174, 22323.29068461546, -8359.485371051476, 2564.326234379558, 11984.379528090898, 7106.334818164685, 1668.5130200997617, 17941.857032997257, 45447.734945742486, -2424.0019826891403, 21209.01152002949, 45577.039787416434, 9347.857159120698, -1131.1547316497245, 18678.659937221997, -16112.947894686211, 0.0849105224609375, 0.98392529296875, 0.09475811767578125, 192.0, 0.0, 0.0, 0.0, 0.0, 0.0, 0.0, 0.0, 0.0, 0.0, 1.741985669947306E9, 0.0, 2025-03-14 15:54:29.947
244.0, 13679.826400259304, 22305.65515824022, -8352.64573724815, 2564.169772168371, 11976.198789620255, 7103.831422785691, 1651.2351216358093, 17940.471224841025, 45450.35009984375, -2415.3742093293918, 21249.15525307122, 45613.65194483423, 9353.735667912444, -1118.5036442880207, 18688.02531814877, -16094.775926444046, 0.0849105224609375, 0.98392529296875, 0.09475811767578125, 192.0, 0.0, 0.0, 0.0, 0.0, 0.0, 0.0, 0.0, 0.0, 0.0, 1.741985669947486E9, 0.0, 2025-03-14 15:54:29.947
246.0, 13695.89730452267, 22322.03898692596, -8353.942138426559, 2576.5302868521558, 11987.732289759195, 7114.3590944241405, 1676.6490550814933, 17945.612126065746, 45440.582387516784, -2423.3090786110256, 21211.984302042045, 45590.11555792279, 9341.218691017471, -1128.6289845262747, 18672.78142843025, -16102.531981770038, 0.08345526123046876, 0.9839626464843749, 0.09337905883789063, 192.0, 1.0, 72.0, 15.0, 96.0, 1.0, 112.0, 0.0, 0.0, 0.0, 1.741985669947664E9, 0.0, 2025-03-14 15:54:29.947
248.0, 13698.199534201567, 22319.245018869045, -8340.486388264464, 2576.9549699968065, 11981.071469911512, 7113.509728134839, 1657.1359821720102, 17934.21273639354, 45463.64938779466, -2404.7794824575763, 21250.71987518309, 45612.98139250057, 9355.166179557584, -1110.45701628411, 18697.100126397625, -16086.37167052885, 0.08345526123046876, 0.9839626464843749, 0.09337905883789063, 192.0, 0.0, 0.0, 0.0, 0.0, 0.0, 0.0, 0.0, 0.0, 0.0, 1.741985669947861E9, 0.0, 2025-03-14 15:54:29.947
250.0, 13704.480374393508, 22323.156574148725, -8351.572853514297, 2571.456440860801, 11987.41936533682, 7112.794472312269, 1658.2982728836862, 17931.888154970187, 45470.35491113125, -2411.6414680053554, 21236.34770349833, 45603.772473784986, 9341.978650328952, -1125.879719958272, 18681.096277367626, -16097.391080545316, 0.08345526123046876, 0.9839626464843749, 0.09337905883789063, 192.0, 0.0, 0.0, 0.0, 0.0, 0.0, 0.0, 0.0, 0.0, 0.0, 1.741985669948053E9, 0.0, 2025-03-14 15:54:29.948
252.0, 13706.626141861218, 22316.406347323224, -8330.182234070568, 2573.9598362397955, 11980.445621066765, 7112.54860312326, 1667.6413020660045, 17937.051407939365, 45498.38399867821, -2402.1866801007604, 21251.39042751675, 45608.28752616495, 9345.912557353087, -1118.4812925435654, 18694.75319322982, -16090.171467086253, 0.08345526123046876, 0.9839626464843749, 0.09337905883789063, 192.0, 0.0, 0.0, 0.0, 0.0, 0.0, 0.0, 0.0, 0.0, 0.0, 1.741985669948239E9, 0.0, 2025-03-14 15:54:29.948
254.0, 13701.462888892042, 22308.985568164062, -8350.209397102522, 2563.36510936798, 11972.220179107211, 7099.852812272646, 1650.4081070909629, 17925.473204311515, 45518.23234775452, -2415.016581418107, 21249.28936353795, 45604.64419181874, 9333.775560113854, -1131.7358770055625, 18680.045745378226, -16107.359958572384, 0.08345526123046876, 0.9839626464843749, 0.09337905883789063, 192.0, 0.0, 0.0, 0.0, 0.0, 0.0, 0.0, 0.0, 0.0, 0.0, 1.741985669948425E9, 0.0, 2025-03-14 15:54:29.948
0.0, 13699.42888014661, 22307.979739663573, -8328.215280558501, 2570.718833293776, 11983.463106568232, 7097.751748293847, 1658.208865905865, 17929.138890402188, 45580.63841827374, -2406.3441045694476, 21247.344761770342, 45602.364313884296, 9334.602574658702, -1128.8301502263726, 18687.533579770756, -16103.738975970624, 0.08272763061523439, 0.9819813232421875, 0.09468952941894532, 192.0, 1.0, 72.0, 15.0, 80.0, 1.5, 0.0, 0.0, 0.0, 0.0, 1.741985670007295E9, 0.0, 2025-03-14 15:54:30.007
2.0, 13701.865220292239, 22310.729004231573, -8340.307574308823, 2570.1376879379377, 11983.70897575724, 7103.004408240844, 1663.7520985307813, 17934.0339224379, 45642.016308548016, -2412.4237790612915, 21251.59159321685, 45617.00470650253, 9322.622039630656, -1135.7591910075178, 18686.55010301472, -16111.070348151965, 0.08272763061523439, 0.9819813232421875, 0.09468952941894532, 192.0, 0.0, 0.0, 0.0, 0.0, 0.0, 0.0, 0.0, 0.0, 0.0, 1.741985670007562E9, 0.0, 2025-03-14 15:54:30.007
4.0, 13702.871048792727, 22307.04096639645, -8327.902356136126, 2570.0259292156616, 11982.814905979027, 7104.21140244143, 1665.048499709189, 17936.51496607244, 45723.98015546562, -2404.846537690942, 21234.403101730717, 45595.703494036614, 9329.819301345266, -1130.104199660325, 18694.93200718546, -16100.743842213613, 0.08272763061523439, 0.9819813232421875, 0.09468952941894532, 192.0, 0.0, 0.0, 0.0, 0.0, 0.0, 0.0, 0.0, 0.0, 0.0, 1.741985670007745E9, 0.0, 2025-03-14 15:54:30.007
6.0, 13707.497859894975, 22310.70665248712, -8344.062667377313, 2570.919998993874, 11981.809077478538, 7111.319257178218, 1666.143735187499, 17940.582983563305, 45790.92363010927, -2407.819319703498, 21258.25241306453, 45622.86086354982, 9326.265373976872, -1134.0604584289144, 18681.319794812178, -16106.801164961002, 0.08272763061523439, 0.9819813232421875, 0.09468952941894532, 192.0, 0.0, 0.0, 0.0, 0.0, 0.0, 0.0, 0.0, 0.0, 0.0, 1.741985670007932E9, 0.0, 2025-03-14 15:54:30.007
8.0, 13703.049862748368, 22301.83300993836, -8337.960641141015, 2572.3728623834686, 11974.433001808287, 7105.418396642018, 1647.7482495007814, 17924.243858366473, 45867.63481707988, -2398.8562701769197, 21227.29524699393, 45593.893002735735, 9332.568565913269, -1129.0313159264704, 18687.958262915407, -16096.698176467202, 0.08272763061523439, 0.9819813232421875, 0.09468952941894532, 192.0, 0.0, 0.0, 0.0, 0.0, 0.0, 0.0, 0.0, 0.0, 0.0, 1.741985670008111E9, 0.0, 2025-03-14 15:54:30.008
10.0, 13702.312255181343, 22303.12941111677, -8347.728353467985, 2570.4059088714016, 11969.672080239307, 7107.050073987255, 1630.5597580146502, 17921.204021120553, 45914.72994264722, -2408.5792790149785, 21256.173700830186, 45626.12421824029, 9341.688077651033, -1140.9671474656043, 18664.488931237334, -16111.182106874241, 0.08436381530761719, 0.9829906616210937, 0.09734476470947266, 192.0, 1.0, 88.0, 15.0, 96.0, 1.5, 16.0, 0.0, 0.0, 0.0, 1.741985670008294E9, 0.0, 2025-03-14 15:54:30.008
12.0, 13707.14023198369, 22309.767879219995, -8331.07630384878, 2579.9054002649073, 11974.902388441848, 7113.174451968009, 1657.1359821720102, 17926.791957234378, 45970.60930378548, -2402.8348806899644, 21214.9570840546, 45592.12721492377, 9338.22355726046, -1135.6697840296965, 18667.953451627905, -16106.689406238725, 0.08436381530761719, 0.9829906616210937, 0.09734476470947266, 192.0, 0.0, 0.0, 0.0, 0.0, 0.0, 0.0, 0.0, 0.0, 0.0, 1.741985670008474E9, 0.0, 2025-03-14 15:54:30.008
14.0, 13693.907999266148, 22299.351966303824, -8353.293937837356, 2566.65081580291, 11964.687641225773, 7103.40673964104, 1649.46933382384, 17924.82500372231, 46015.42455141837, -2396.7775579425765, 21275.15033187274, 45632.69563111015, 9314.88833604912, -1127.0643624144034, 18678.54817849972, -16101.637911991826, 0.08436381530761719, 0.9829906616210937, 0.09734476470947266, 192.0, 0.0, 0.0, 0.0, 0.0, 0.0, 0.0, 0.0, 0.0, 0.0, 1.74198567006758E9, 0.0, 2025-03-14 15:54:30.067
16.0, 13692.544542854375, 22298.45789652561, -8357.406658817132, 2563.3427576235244, 11960.552568501542, 7098.556411094238, 1646.340089600097, 17920.667579253626, 46032.993022560244, -2414.211918617716, 21191.308938420887, 45565.81921169987, 9349.13120855465, -1147.0021184685372, 18644.193547271916, -16121.754482001601, 0.08436381530761719, 0.9829906616210937, 0.09734476470947266, 192.0, 0.0, 0.0, 0.0, 0.0, 0.0, 0.0, 0.0, 0.0, 0.0, 1.74198567006782E9, 0.0, 2025-03-14 15:54:30.067
18.0, 13703.00515925946, 22311.98070192107, -8322.515585722398, 2575.166830440382, 11975.192961119767, 7102.646780329559, 1651.2798251247198, 17923.64036126618, 46103.15514840545, -2398.789214943554, 21276.133808628776, 45629.476979908584, 9309.79213831331, -1132.3393741058558, 18672.267338307778, -16110.265685351575, 0.08436381530761719, 0.9829906616210937, 0.09734476470947266, 192.0, 0.0, 0.0, 0.0, 0.0, 0.0, 0.0, 0.0, 0.0, 0.0, 1.741985670068009E9, 0.0, 2025-03-14 15:54:30.068
20.0, 13692.52219110992, 22305.431640795665, -8355.260891349422, 2563.1192401789713, 11966.252263337645, 7096.857678515635, 1646.5189035557394, 17922.656884510146, 46139.87906454552, -2404.3547993129255, 21219.427432945664, 45580.63841827374, 9336.457769448492, -1138.6649177867077, 18673.720201697375, -16114.579572031447, 0.08118190765380859, 0.9834953308105469, 0.09867238235473633, 192.0, 1.0, 56.0, 15.0, 96.0, 1.5, 16.0, 0.0, 0.0, 0.0, 1.74198567006818E9, 0.0, 2025-03-14 15:54:30.068
22.0, 13674.082001934292, 22293.138181345246, -8370.460077579031, 2556.011385442184, 11962.631280735885, 7094.443690114462, 1649.759906501759, 17919.147660630664, 46125.75276204977, -2420.425703576291, 21245.62367744728, 45611.48382562206, 9333.686153136034, -1149.393755125255, 18651.39080898652, -16124.794319247523, 0.08118190765380859, 0.9834953308105469, 0.09867238235473633, 192.0, 0.0, 0.0, 0.0, 0.0, 0.0, 0.0, 0.0, 0.0, 0.0, 1.741985670068376E9, 0.0, 2025-03-14 15:54:30.068
24.0, 13694.735013810994, 22309.32084433089, -8334.809045172817, 2568.7965832706195, 11973.516580285619, 7103.0267599853, 1666.8142875211583, 17936.962000961543, 46147.52336114924, -2417.855252963931, 21190.23605468703, 45565.70745297759, 9336.234252003938, -1145.459848101121, 18667.148788827515, -16111.204458618697, 0.08118190765380859, 0.9834953308105469, 0.09867238235473633, 192.0, 0.0, 0.0, 0.0, 0.0, 0.0, 0.0, 0.0, 0.0, 0.0, 1.741985670068567E9, 0.0, 2025-03-14 15:54:30.068
26.0, 13695.606731844751, 22316.7192717456, -8346.454304034032, 2572.551676339111, 11964.486475525675, 7103.965533252423, 1645.758944244259, 17932.044617181375, 46201.74869319781, -2407.372284814392, 21267.327221313386, 45619.10577048132, 9334.200243258505, -1134.529845062476, 18673.921367397474, -16100.207400346686, 0.08118190765380859, 0.9834953308105469, 0.09867238235473633, 192.0, 0.0, 0.0, 0.0, 0.0, 0.0, 0.0, 0.0, 0.0, 0.0, 1.741985670068756E9, 0.0, 2025-03-14 15:54:30.068
28.0, 13682.642720060674, 22313.03123391047, -8371.354147357244, 2566.4720018472676, 11963.145370858356, 7095.047187214755, 1652.9338542144126, 17933.765701504435, 46198.08300710714, -2420.0233721760956, 21187.263272674474, 45565.14865936621, 9370.588883231745, -1146.7115457906182, 18662.54432946972, -16097.167563100764, 0.08118190765380859, 0.9834953308105469, 0.09867238235473633, 192.0, 0.0, 0.0, 0.0, 0.0, 0.0, 0.0, 0.0, 0.0, 0.0, 1.741985670068937E9, 0.0, 2025-03-14 15:54:30.068
30.0, 13679.04408920337, 22321.03315842547, -8351.03641164737, 2569.6012460710103, 11962.497170269153, 7094.466041858917, 1654.8337524931137, 17937.252573639464, 46196.09370185062, -2423.398485588847, 21235.09600580883, 45605.44885461913, 9342.89507185162, -1139.3578218648222, 18662.4549224919, -16094.060670621477, 0.08059095382690429, 0.9817476654052735, 0.10233619117736817, 192.0, 1.0, 64.0, 15.0, 80.0, 1.5, 40.0, 0.0, 0.0, 0.0, 1.741985670128256E9, 0.0, 2025-03-14 15:54:30.128
32.0, 13671.75742051094, 22324.07299567139, -8367.733164755484, 2563.7003855348094, 11964.531179014586, 7098.131727949587, 1649.7822582462143, 17939.77832076291, 46212.70104798091, -2421.2750698655927, 21190.683089576138, 45573.26234260349, 9349.37707774366, -1130.819455482895, 18669.160445828493, -16080.13553382582, 0.08059095382690429, 0.9817476654052735, 0.10233619117736817, 192.0, 0.0, 0.0, 0.0, 0.0, 0.0, 0.0, 0.0, 0.0, 0.0, 1.741985670128496E9, 0.0, 2025-03-14 15:54:30.128
34.0, 13671.690365277573, 22326.37522535029, -8342.02865863188, 2563.074536690061, 11968.666251738818, 7096.924733749001, 1664.2214851643428, 17946.34973363277, 46231.49886506783, -2421.0962559099503, 21226.825860360368, 45600.486767350056, 9349.332374254749, -1144.4987230895429, 18656.621117189065, -16080.828437903934, 0.08059095382690429, 0.9817476654052735, 0.10233619117736817, 192.0, 0.0, 0.0, 0.0, 0.0, 0.0, 0.0, 0.0, 0.0, 0.0, 1.741985670128675E9, 0.0, 2025-03-14 15:54:30.128
36.0, 13660.51449304992, 22324.788251493963, -8368.359013600233, 2560.258216888692, 11962.474818524697, 7092.45438485794, 1643.0096796762562, 17935.911468972143, 46230.5153883118, -2426.4159710903136, 21197.92505477966, 45567.18266811164, 9339.318792738772, -1141.9506242216378, 18671.708544696397, -16079.576740214437, 0.08059095382690429, 0.9817476654052735, 0.10233619117736817, 192.0, 0.0, 0.0, 0.0, 0.0, 0.0, 0.0, 0.0, 0.0, 0.0, 1.741985670128846E9, 0.0, 2025-03-14 15:54:30.128
38.0, 13661.855597717238, 22322.910704959715, -8347.214263345511, 2564.9520832243065, 11968.487437783175, 7094.130765692087, 1665.5625898316612, 17942.862861497746, 46219.22775736186, -2444.7444015436654, 21211.87254331977, 45593.02128470198, 9343.587975929735, -1175.5452961379644, 18662.87960563655, -16076.358089012872, 0.08059095382690429, 0.9817476654052735, 0.10233619117736817, 192.0, 0.0, 0.0, 0.0, 0.0, 0.0, 0.0, 0.0, 0.0, 0.0, 1.741985670129026E9, 0.0, 2025-03-14 15:54:30.129
40.0, 13664.18017914059, 22323.581257293376, -8364.246292620455, 2561.487562833734, 11973.985966919181, 7101.283323917785, 1670.859953267569, 17944.226317909517, 46248.26267340931, -2439.849369507953, 21201.14370598122, 45587.38864509924, 9361.938758127542, -1146.0186417125037, 18675.396582531524, -16066.9927080861, 0.08029547691345215, 0.9758738327026367, 0.10416809558868409, 192.0, 1.0, 64.0, 15.0, 40.0, 1.5, 40.0, 0.0, 0.0, 0.0, 1.741985670129214E9, 0.0, 2025-03-14 15:54:30.129
42.0, 13654.747742980451, 22317.5686380349, -8332.998553871937, 2566.293187891625, 11982.904312956849, 7101.953876251445, 1658.0971071835886, 17949.389570878695, 46244.37346987408, -2434.820227005509, 21217.23696198904, 45603.23603191806, 9344.347935241216, -1137.457923586121, 18688.897036182527, -16067.193873786196, 0.08029547691345215, 0.9758738327026367, 0.10416809558868409, 192.0, 0.0, 0.0, 0.0, 0.0, 0.0, 0.0, 0.0, 0.0, 0.0, 1.741985670129395E9, 0.0, 2025-03-14 15:54:30.129
44.0, 13629.154995579123, 22292.311166800402, -8371.890589224171, 2548.478847560745, 11973.2260076077, 7092.029701713289, 1670.2788079117308, 17940.538280074394, 46226.357963843104, -2447.9630527452296, 21201.56838912587, 45601.514947594995, 9344.683211408044, -1142.4200108551993, 18675.106009853604, -16073.22884478913, 0.08029547691345215, 0.9758738327026367, 0.10416809558868409, 192.0, 0.0, 0.0, 0.0, 0.0, 0.0, 0.0, 0.0, 0.0, 0.0, 1.741985670188094E9, 0.0, 2025-03-14 15:54:30.188
46.0, 13601.841163854739, 22257.86712859477, -8403.294790183878, 2527.5352630061225, 11964.441772036764, 7075.511762560816, 1647.569435545139, 17923.34978858826, 46215.13738812654, -2474.8969048138747, 21176.28856614692, 45573.99995017052, 9382.345900815237, -1159.8320197858834, 18664.10895158159, -16086.304615295485, 0.08029547691345215, 0.9758738327026367, 0.10416809558868409, 192.0, 0.0, 0.0, 0.0, 0.0, 0.0, 0.0, 0.0, 0.0, 0.0, 1.741985670188293E9, 0.0, 2025-03-14 15:54:30.188
48.0, 13599.538934175842, 22254.58142215984, -8362.860484464227, 2533.480827031234, 11979.08216465499, 7087.3581871221295, 1674.5032876137839, 17940.44887309657, 46194.39496927202, -2492.487727700201, 21170.00772595498, 45561.48297327554, 9348.125380054162, -1168.0351100009811, 18650.16146304148, -16093.323063054451, 0.08029547691345215, 0.9758738327026367, 0.10416809558868409, 192.0, 0.0, 0.0, 0.0, 0.0, 0.0, 0.0, 0.0, 0.0, 0.0, 1.741985670188487E9, 0.0, 2025-03-14 15:54:30.188
50.0, 13584.87618981316, 22241.326837697845, -8354.724449482495, 2532.877329930941, 11981.94318794527, 7082.038471941766, 1670.7928980342028, 17943.9357452316, 46217.0596381497, -2492.755948633665, 21192.851208788303, 45562.667615731676, 9318.621077373156, -1151.1595429372244, 18693.389736818044, -16070.36782149885, 0.07814773845672607, 0.9789369163513184, 0.10408404779434205, 192.0, 1.0, 48.0, 15.0, 88.0, 1.5, 32.0, 0.0, 0.0, 0.0, 1.741985670188663E9, 0.0, 2025-03-14 15:54:30.188
52.0, 13576.15900947559, 22233.526078882944, -8380.965397473026, 2527.579966495033, 11969.202693605745, 7081.345567863652, 1667.4848398548174, 17938.191346906584, 46170.61271317157, -2503.261268527659, 21171.482941089027, 45560.410089541685, 9341.486911950937, -1169.1303454792912, 18662.67843993645, -16093.792449688013, 0.07814773845672607, 0.9789369163513184, 0.10408404779434205, 192.0, 0.0, 0.0, 0.0, 0.0, 0.0, 0.0, 0.0, 0.0, 0.0, 1.741985670188859E9, 0.0, 2025-03-14 15:54:30.188
54.0, 13564.513750614376, 22217.566933341855, -8370.482429323487, 2529.4351612848236, 11970.454391295241, 7088.386367367073, 1666.501363098784, 17940.962963219044, 46188.31529478017, -2492.2195067667376, 21183.888159261725, 45550.39650802571, 9321.772673341355, -1143.7387637780623, 18683.063230879692, -16076.894530879801, 0.07814773845672607, 0.9789369163513184, 0.10408404779434205, 192.0, 0.0, 0.0, 0.0, 0.0, 0.0, 0.0, 0.0, 0.0, 0.0, 1.741985670189045E9, 0.0, 2025-03-14 15:54:30.189
56.0, 13534.987096188916, 22188.532017294412, -8412.883688555205, 2519.1533588353823, 11967.816885449516, 7078.238675384364, 1672.6033893350827, 17946.483844099504, 46125.12691320502, -2521.6344024699215, 21158.697743260593, 45553.570455738365, 9383.485839782457, -1170.4267466576991, 18648.17215778496, -16098.195743345708, 0.07814773845672607, 0.9789369163513184, 0.10408404779434205, 192.0, 0.0, 0.0, 0.0, 0.0, 0.0, 0.0, 0.0, 0.0, 0.0, 1.74198567018922E9, 0.0, 2025-03-14 15:54:30.189
58.0, 13542.67609628154, 22186.095677148784, -8349.069458135302, 2534.2854898316255, 11970.610853506429, 7074.908265460524, 1660.8463717515913, 17932.201079392562, 46060.28450254018, -2512.6042977099773, 21146.672504743638, 45532.13513280572, 9305.590010355712, -1171.8349065583834, 18671.619137718575, -16083.823571660945, 0.07814773845672607, 0.9789369163513184, 0.10408404779434205, 192.0, 0.0, 0.0, 0.0, 0.0, 0.0, 0.0, 0.0, 0.0, 0.0, 1.741985670189393E9, 0.0, 2025-03-14 15:54:30.189
60.0, 13527.901593196582, 22164.079208860305, -8385.972188231015, 2518.192233823804, 11967.503961027141, 7067.73335549037, 1658.208865905865, 17921.516945542928, 45963.52380079315, -2528.0493531285947, 21180.133066193233, 45559.784240696936, 9317.816414572766, -1175.3888339267771, 18664.958317870896, -16098.843943934911, 0.07907386922836304, 0.9834684581756592, 0.10404202389717103, 192.0, 1.0, 64.0, 15.0, 112.0, 1.5, 32.0, 0.0, 0.0, 0.0, 1.741985670248356E9, 0.0, 2025-03-14 15:54:30.248
62.0, 13522.648933249586, 22158.893604146673, -8356.445533805554, 2526.618841483455, 11983.887789712882, 7076.316425361208, 1688.0707964981552, 17940.113596929743, 45920.27317527213, -2527.848187428497, 21147.924202433136, 45524.557891435375, 9321.996190785909, -1164.8611622883275, 18684.22552159137, -16087.355147284885, 0.07907386922836304, 0.9834684581756592, 0.10404202389717103, 192.0, 0.0, 0.0, 0.0, 0.0, 0.0, 0.0, 0.0, 0.0, 0.0, 1.74198567024859E9, 0.0, 2025-03-14 15:54:30.248
64.0, 13513.283552322811, 22148.09771157476, -8383.960531230037, 2521.2097193252707, 11982.65844376784, 7077.9704544509, 1682.4605086398733, 17937.69960852857, 45832.922557940794, -2524.2048530822817, 21179.261348159474, 45560.94653140861, 9324.030199531342, -1162.3130634204226, 18691.84746645063, -16087.377499029339, 0.07907386922836304, 0.9834684581756592, 0.10404202389717103, 192.0, 0.0, 0.0, 0.0, 0.0, 0.0, 0.0, 0.0, 0.0, 0.0, 1.741985670248776E9, 0.0, 2025-03-14 15:54:30.248
66.0, 13508.276761564823, 22142.174499294102, -8388.654397565651, 2514.8618238999634, 11961.781914446583, 7071.577855536682, 1655.2807873822198, 17924.936762444588, 45758.96063553818, -2535.6712979878544, 21109.45685022555, 45507.54821390488, 9327.271202477361, -1167.2751506895008, 18672.468504007877, -16103.023720148054, 0.07907386922836304, 0.9834684581756592, 0.10404202389717103, 192.0, 0.0, 0.0, 0.0, 0.0, 0.0, 0.0, 0.0, 0.0, 0.0, 1.741985670248954E9, 0.0, 2025-03-14 15:54:30.248
68.0, 13508.030892375815, 22139.492289959468, -8395.270513924423, 2513.1630913213603, 11976.42230706481, 7080.764422507814, 1683.756909818281, 17941.901736486165, 45727.511731089566, -2530.105713618483, 21170.90179573319, 45559.6054267413, 9324.678400120545, -1159.7426128080622, 18680.202207589413, -16103.984845159632, 0.07907386922836304, 0.9834684581756592, 0.10404202389717103, 192.0, 0.0, 0.0, 0.0, 0.0, 0.0, 0.0, 0.0, 0.0, 0.0, 1.741985670249143E9, 0.0, 2025-03-14 15:54:30.249
70.0, 13495.62567420312, 22123.443737440557, -8410.603810620763, 2499.908506859363, 11961.468990024208, 7067.956872934923, 1652.9338542144126, 17918.521811785915, 45665.17271580371, -2537.9511759222955, 21095.062326796335, 45506.49768191548, 9321.03506577433, -1170.5608571244309, 18673.764905186286, -16105.661225993781, 0.08253693461418152, 0.9787342290878296, 0.10302101194858551, 192.0, 1.0, 88.0, 15.0, 56.0, 1.5, 24.0, 0.0, 0.0, 0.0, 1.74198567024933E9, 0.0, 2025-03-14 15:54:30.249
72.0, 13499.67133994953, 22120.672121128096, -8401.238429693989, 2504.2447452836927, 11968.241568594167, 7070.25910261382, 1663.081546197122, 17918.41005306364, 45643.066840537416, -2542.4438765578125, 21152.46160655756, 45551.29057780392, 9311.13324298063, -1173.4218804147101, 18663.97484111486, -16114.601923775903, 0.08253693461418152, 0.9787342290878296, 0.10302101194858551, 192.0, 0.0, 0.0, 0.0, 0.0, 0.0, 0.0, 0.0, 0.0, 0.0, 1.741985670249519E9, 0.0, 2025-03-14 15:54:30.249
74.0, 13500.185430072002, 22118.99574029395, -8403.719473328529, 2506.2116987957597, 11972.153123873846, 7078.931579462479, 1672.335168401619, 17929.474166569016, 45612.8696337783, -2541.7062689907875, 21096.962225075036, 45506.05064702638, 9306.46172838947, -1174.13713623728, 18680.40337328951, -16102.509630025583, 0.08253693461418152, 0.9787342290878296, 0.10302101194858551, 192.0, 0.0, 0.0, 0.0, 0.0, 0.0, 0.0, 0.0, 0.0, 0.0, 1.741985670309052E9, 0.0, 2025-03-14 15:54:30.309
76.0, 13500.230133560914, 22116.961731548516, -8402.288961683389, 2507.172823807338, 11972.734269229684, 7077.434012583973, 1669.921180000446, 17925.719073500524, 45595.63643880325, -2532.3408880640136, 21153.914469947158, 45555.91738890617, 9300.985550997919, -1165.8669907888163, 18673.45198076391, -16098.039281134521, 0.08253693461418152, 0.9787342290878296, 0.10302101194858551, 192.0, 0.0, 0.0, 0.0, 0.0, 0.0, 0.0, 0.0, 0.0, 0.0, 1.74198567030928E9, 0.0, 2025-03-14 15:54:30.309
78.0, 13504.186392329502, 22116.581751892776, -8408.94978153107, 2504.848242383986, 11974.164780874824, 7081.300864374741, 1673.3857003910186, 17928.69185551308, 45584.28175261996, -2537.4817892887345, 21098.88447509819, 45511.057437784366, 9298.37039689665, -1173.913618792727, 18665.584166715642, -16105.460060293683, 0.08253693461418152, 0.9787342290878296, 0.10302101194858551, 192.0, 0.0, 0.0, 0.0, 0.0, 0.0, 0.0, 0.0, 0.0, 0.0, 1.741985670309465E9, 0.0, 2025-03-14 15:54:30.309
80.0, 13515.42931979052, 22124.04723454085, -8395.114051713235, 2513.3419052770028, 11966.341670315465, 7081.434974841473, 1673.3857003910186, 17922.768643232423, 45588.30506662191, -2528.0493531285947, 21156.261403114964, 45561.617083742276, 9300.784385297822, -1165.263493688523, 18661.560852713686, -16099.559199757481, 0.09126846730709076, 0.9823671145439148, 0.10351050597429276, 192.0, 1.5, 16.0, 15.0, 104.0, 1.5, 32.0, 0.0, 0.0, 0.0, 1.741985670309636E9, 0.0, 2025-03-14 15:54:30.309
82.0, 13524.77234897284, 22131.356254977734, -8399.115013970735, 2513.520719232645, 11968.867417438916, 7078.529248062283, 1668.1777439329321, 17918.00772166344, 45599.48093884956, -2522.2602513146703, 21119.89511488618, 45530.548158949394, 9308.115757479163, -1165.5764181108973, 18668.109913839093, -16097.413432289772, 0.09126846730709076, 0.9823671145439148, 0.10351050597429276, 192.0, 0.0, 0.0, 0.0, 0.0, 0.0, 0.0, 0.0, 0.0, 0.0, 1.741985670309834E9, 0.0, 2025-03-14 15:54:30.309
84.0, 13534.62946827763, 22139.268772514915, -8381.993577717969, 2516.9628878787626, 11971.862551195927, 7078.238675384364, 1661.0251857072337, 17916.443099551572, 45606.45468311962, -2511.330248276025, 21174.790999268414, 45572.18945886964, 9302.594876598701, -1157.619197084808, 18669.965108628883, -16097.055804378488, 0.09126846730709076, 0.9823671145439148, 0.10351050597429276, 192.0, 0.0, 0.0, 0.0, 0.0, 0.0, 0.0, 0.0, 0.0, 0.0, 1.741985670310011E9, 0.0, 2025-03-14 15:54:30.310
86.0, 13539.233927635423, 22143.359141750236, -8393.370615645721, 2510.4138267533576, 11967.526312771597, 7082.463155086417, 1661.7851450187143, 17925.473204311515, 45616.96000301361, -2514.1242163329384, 21140.414016296152, 45539.95824336508, 9299.040949230308, -1164.8611622883275, 18656.911689866985, -16108.544601028516, 0.09126846730709076, 0.9823671145439148, 0.10351050597429276, 192.0, 0.0, 0.0, 0.0, 0.0, 0.0, 0.0, 0.0, 0.0, 0.0, 1.741985670310201E9, 0.0, 2025-03-14 15:54:30.310
88.0, 13553.181416175536, 22157.753665179454, -8368.89545546716, 2517.7451989346982, 11971.70608898474, 7085.92767547699, 1664.2885403977086, 17924.489727555483, 45654.577988931895, -2502.814233638553, 21181.362412138275, 45570.64718850222, 9306.484080133925, -1155.2946156614562, 18667.707582438896, -16104.208362604186, 0.09126846730709076, 0.9823671145439148, 0.10351050597429276, 192.0, 0.0, 0.0, 0.0, 0.0, 0.0, 0.0, 0.0, 0.0, 0.0, 1.741985670310374E9, 0.0, 2025-03-14 15:54:30.310
90.0, 13564.089067469726, 22172.595223497778, -8371.667071779619, 2523.489597259712, 11979.819772222016, 7093.326102891696, 1676.4478893813957, 17930.569402047327, 45708.24452736909, -2494.9687713347403, 21161.93874620661, 45555.44800227261, 9305.411196400071, -1156.1216302063026, 18670.680364451455, -16102.062595136476, 0.09263423365354538, 0.9841835572719574, 0.09975525298714638, 192.0, 1.0, 120.0, 15.0, 104.0, 1.5, 0.0, 0.0, 0.0, 0.0, 1.741985670368974E9, 0.0, 2025-03-14 15:54:30.368
92.0, 13567.866512282671, 22179.34545032328, -8355.283243093878, 2529.591623496011, 11986.257074625144, 7096.812975026724, 1675.6432265810045, 17928.244820623975, 45775.07624329046, -2482.0271112951173, 21191.398345398706, 45577.486822305546, 9310.194469713506, -1147.5385603354646, 18687.198303603924, -16093.658339221281, 0.09263423365354538, 0.9841835572719574, 0.09975525298714638, 192.0, 0.0, 0.0, 0.0, 0.0, 0.0, 0.0, 0.0, 0.0, 0.0, 1.741985670369207E9, 0.0, 2025-03-14 15:54:30.369
94.0, 13563.30675641379, 22176.082095632806, -8376.405641604142, 2520.9191466473517, 11976.332900086987, 7084.743033020858, 1664.3779473755299, 17918.79003271938, 45823.44541829174, -2487.547992175578, 21175.48390334653, 45565.90861867769, 9298.37039689665, -1155.6745953171965, 18680.80570468971, -16098.799240446002, 0.09263423365354538, 0.9841835572719574, 0.09975525298714638, 192.0, 0.0, 0.0, 0.0, 0.0, 0.0, 0.0, 0.0, 0.0, 0.0, 1.741985670369398E9, 0.0, 2025-03-14 15:54:30.369
96.0, 13579.3553089327, 22195.05872667536, -8350.544673269353, 2538.129989877938, 11986.011205436136, 7097.416472127017, 1676.403185892485, 17931.77639624791, 45878.94479977427, -2481.3118554725474, 21180.490694104516, 45563.65109248771, 9310.686208091523, -1151.2265981705903, 18685.633681492054, -16094.463002021672, 0.09263423365354538, 0.9841835572719574, 0.09975525298714638, 192.0, 0.0, 0.0, 0.0, 0.0, 0.0, 0.0, 0.0, 0.0, 0.0, 1.741985670369584E9, 0.0, 2025-03-14 15:54:30.369
98.0, 13569.609948350186, 22192.890607463196, -8372.069403179814, 2529.7704374516534, 11976.534065787086, 7093.862544758624, 1671.1952294343985, 17927.194288634575, 45927.76100966466, -2470.7618320896427, 21189.92313026466, 45576.0563106604, 9313.927211037542, -1146.398621368244, 18685.03018439176, -16089.65737696378, 0.09263423365354538, 0.9841835572719574, 0.09975525298714638, 192.0, 0.0, 0.0, 0.0, 0.0, 0.0, 0.0, 0.0, 0.0, 0.0, 1.741985670369768E9, 0.0, 2025-03-14 15:54:30.369
100.0, 13580.204675222001, 22203.6417965462, -8349.717658724507, 2538.3758590669468, 11985.161839146835, 7098.422300627506, 1680.471203383351, 17928.51304155744, 45963.14382113741, -2474.1592972468493, 21177.94259523661, 45566.75798496699, 9309.188641213017, -1154.1770284386907, 18682.392678546035, -16098.151039856797, 0.09031711682677268, 0.9840917786359786, 0.09787762649357319, 192.0, 1.0, 96.0, 15.0, 96.0, 1.5, 0.0, 0.0, 0.0, 0.0, 1.741985670369953E9, 0.0, 2025-03-14 15:54:30.369
102.0, 13587.580750892253, 22210.34731988279, -8370.37067060121, 2535.2466148432036, 11980.020937922114, 7090.129803434587, 1667.2166189213538, 17924.22150662202, 46007.132054225454, -2461.6646720963327, 21199.042642002423, 45589.579116055866, 9320.27510646285, -1148.1644091802132, 18686.84067569264, -16091.669033964758, 0.09031711682677268, 0.9840917786359786, 0.09787762649357319, 192.0, 0.0, 0.0, 0.0, 0.0, 0.0, 0.0, 0.0, 0.0, 0.0, 1.741985670370136E9, 0.0, 2025-03-14 15:54:30.370
104.0, 13585.390279935633, 22204.06647969085, -8372.963472958025, 2533.391420053413, 11976.578769275997, 7081.993768452856, 1665.6519968094824, 17915.414919306626, 46021.951260799324, -2477.82498333752, 21165.135045663723, 45561.751194209006, 9330.176929256551, -1169.1079937348359, 18658.632774190042, -16111.651493507803, 0.09031711682677268, 0.9840917786359786, 0.09787762649357319, 192.0, 0.0, 0.0, 0.0, 0.0, 0.0, 0.0, 0.0, 0.0, 0.0, 1.741985670427697E9, 0.0, 2025-03-14 15:54:30.427
106.0, 13599.896562087128, 22217.946912997595, -8354.344469826754, 2543.4720568027565, 11979.70801349974, 7097.774100038302, 1675.3973573919961, 17924.377968833207, 46050.65090067994, -2462.20111396326, 21201.300168192407, 45598.944496982636, 9316.36355118317, -1157.9321215071823, 18673.78725693074, -16094.373595043851, 0.09031711682677268, 0.9840917786359786, 0.09787762649357319, 192.0, 0.0, 0.0, 0.0, 0.0, 0.0, 0.0, 0.0, 0.0, 0.0, 1.741985670427917E9, 0.0, 2025-03-14 15:54:30.427
108.0, 13607.138527290646, 22223.668959578154, -8340.866367920205, 2552.368051095969, 11986.972330447714, 7101.350379151151, 1672.4245753794403, 17921.94162868758, 46089.83350871009, -2460.792954062576, 21183.48582786153, 45573.59761877032, 9303.667760332557, -1158.5356186074757, 18678.279957566258, -16085.745821684102, 0.09031711682677268, 0.9840917786359786, 0.09787762649357319, 192.0, 0.0, 0.0, 0.0, 0.0, 0.0, 0.0, 0.0, 0.0, 0.0, 1.74198567042811E9, 0.0, 2025-03-14 15:54:30.428
110.0, 13618.3143995183, 22236.096529495306, -8350.187045358069, 2554.290301119125, 11976.578769275997, 7107.340646665174, 1678.2583806822754, 17929.720035758022, 46127.83147428411, -2451.2264074357045, 21225.19418301513, 45612.35554365582, 9313.435472659525, -1151.137191192769, 18679.039916877737, -16077.788600658012, 0.08815855841338635, 0.9810458893179893, 0.0949388132467866, 192.0, 1.0, 88.0, 15.0, 72.0, 1.0, 112.0, 0.0, 0.0, 0.0, 1.741985670428285E9, 0.0, 2025-03-14 15:54:30.428
112.0, 13618.962600107503, 22238.197593474102, -8341.93925165406, 2556.748993009209, 11988.447545581765, 7102.758539051836, 1671.2846364122197, 17918.79003271938, 46151.636082129015, -2447.828942278498, 21185.13985695122, 45569.708415235094, 9319.872775062655, -1150.46663885911, 18683.666727979988, -16076.872179135346, 0.08815855841338635, 0.9810458893179893, 0.0949388132467866, 192.0, 0.0, 0.0, 0.0, 0.0, 0.0, 0.0, 0.0, 0.0, 0.0, 1.741985670428484E9, 0.0, 2025-03-14 15:54:30.428
114.0, 13613.665236671595, 22236.655323106686, -8364.55921704283, 2547.1824463823377, 11979.171571632813, 7100.813937284224, 1671.2175811788538, 17918.991198419477, 46165.56121892467, -2453.662747581333, 21231.944409840635, 45613.07079947839, 9330.601612401202, -1154.3111389054227, 18668.780466172753, -16086.684594951224, 0.08815855841338635, 0.9810458893179893, 0.0949388132467866, 192.0, 0.0, 0.0, 0.0, 0.0, 0.0, 0.0, 0.0, 0.0, 0.0, 1.741985670428661E9, 0.0, 2025-03-14 15:54:30.428
116.0, 13619.11906231869, 22242.600887131797, -8352.533978525875, 2548.747068494209, 11970.767315717616, 7095.002483725844, 1657.3147961276527, 17916.73367222949, 46175.485393462826, -2450.7346690576874, 21179.529569092938, 45565.90861867769, 9318.621077373156, -1156.7698307955063, 18661.31498352468, -16091.244350820107, 0.08815855841338635, 0.9810458893179893, 0.0949388132467866, 192.0, 0.0, 0.0, 0.0, 0.0, 0.0, 0.0, 0.0, 0.0, 0.0, 1.741985670428861E9, 0.0, 2025-03-14 15:54:30.428
118.0, 13614.69341691654, 22240.477471408543, -8388.743804543472, 2541.639213757421, 11970.499094784152, 7093.1696406805095, 1657.4936100832952, 17909.625817492702, 46205.0567513772, -2448.477142867702, 21238.739340155047, 45616.40120940223, 9320.6997896075, -1158.6697290742075, 18664.444227748423, -16094.932388655234, 0.08815855841338635, 0.9810458893179893, 0.0949388132467866, 192.0, 0.0, 0.0, 0.0, 0.0, 0.0, 0.0, 0.0, 0.0, 0.0, 1.741985670429032E9, 0.0, 2025-03-14 15:54:30.429
120.0, 13618.761434407406, 22243.003218531994, -8350.410562802621, 2551.675147017854, 11975.528237286597, 7087.425242355495, 1670.3905666340074, 17912.64330299417, 46199.62527747456, -2452.9027882698524, 21168.800731754392, 45561.751194209006, 9335.004906058897, -1163.6318163432857, 18649.69207640792, -16100.073289879954, 0.08907927920669317, 0.9795229446589946, 0.0914694066233933, 192.0, 1.0, 104.0, 15.0, 72.0, 1.0, 96.0, 0.0, 0.0, 0.0, 1.741985670487897E9, 0.0, 2025-03-14 15:54:30.487
122.0, 13642.074303874291, 22261.5551664299, -8327.522376480387, 2570.674129804865, 11994.147240417868, 7105.5525071087495, 1673.8997905134906, 17926.92606770111, 46222.178187629965, -2453.7745063036095, 21240.952162856123, 45609.3157064099, 9324.097254764707, -1157.820362784906, 18663.907785881496, -16091.289054309018, 0.08907927920669317, 0.9795229446589946, 0.0914694066233933, 192.0, 0.0, 0.0, 0.0, 0.0, 0.0, 0.0, 0.0, 0.0, 0.0, 1.741985670488108E9, 0.0, 2025-03-14 15:54:30.488
124.0, 13636.776940438383, 22260.77285537396, -8361.89935945265, 2566.7625745251867, 11975.930568686792, 7102.7361873073805, 1659.080583939622, 17911.30219832685, 46240.6630802945, -2424.8066454895315, 21210.86671481928, 45587.54510731043, 9316.587068627723, -1139.0672491869032, 18678.97286164437, -16072.737106411114, 0.08907927920669317, 0.9795229446589946, 0.0914694066233933, 192.0, 0.0, 0.0, 0.0, 0.0, 0.0, 0.0, 0.0, 0.0, 0.0, 1.741985670488289E9, 0.0, 2025-03-14 15:54:30.488
126.0, 13651.305574334334, 22269.758256644996, -8349.56119651332, 2570.8082402715972, 11977.048155909557, 7097.461175615928, 1639.2545866077646, 17903.769660445414, 46273.54249638826, -2430.8416164924643, 21250.9657443721, 45626.772418829496, 9345.018487574875, -1141.3694788658, 18655.72704741085, -16083.912978638768, 0.08907927920669317, 0.9795229446589946, 0.0914694066233933, 192.0, 0.0, 0.0, 0.0, 0.0, 0.0, 0.0, 0.0, 0.0, 0.0, 1.741985670488467E9, 0.0, 2025-03-14 15:54:30.488
128.0, 13644.980030653482, 22267.41132347719, -8338.631193474674, 2565.108545435494, 11962.184245846778, 7087.5370010777715, 1641.601519775572, 17899.947512143553, 46262.5677898607, -2431.2215961482043, 21206.977511284054, 45589.847336989325, 9327.584126899736, -1141.3024236324338, 18648.5521374407, -16089.813839174967, 0.08907927920669317, 0.9795229446589946, 0.0914694066233933, 192.0, 0.0, 0.0, 0.0, 0.0, 0.0, 0.0, 0.0, 0.0, 0.0, 1.741985670488653E9, 0.0, 2025-03-14 15:54:30.488
130.0, 13641.671972474096, 22256.615430905276, -8347.258966834423, 2553.060955174083, 11976.824638465005, 7078.7304137623805, 1652.9115024699572, 17898.11466909822, 46267.37341491859, -2450.9581865022406, 21251.122206583288, 45621.60916586032, 9329.32756296725, -1150.8242667703948, 18654.944736354915, -16096.51936251156, 0.08853963960334658, 0.9767614723294973, 0.08873470331169665, 192.0, 1.0, 96.0, 15.0, 56.0, 1.0, 88.0, 0.0, 0.0, 0.0, 1.741985670488843E9, 0.0, 2025-03-14 15:54:30.488
132.0, 13658.771056982407, 22280.397687005723, -8343.861501677216, 2575.680920562854, 11984.737156002184, 7106.044245486766, 1668.088336955111, 17928.35657934625, 46291.06626404122, -2436.7424770286652, 21202.082479248344, 45584.59467704233, 9334.803740358799, -1152.5453510934533, 18667.484064994343, -16086.751650184591, 0.08853963960334658, 0.9767614723294973, 0.08873470331169665, 192.0, 0.0, 0.0, 0.0, 0.0, 0.0, 0.0, 0.0, 0.0, 0.0, 1.741985670489033E9, 0.0, 2025-03-14 15:54:30.489
134.0, 13655.239481358467, 22276.59789044832, -8353.472751792999, 2567.8578100034965, 11980.13269664439, 7099.7410535503695, 1657.9182932279462, 17912.375082060706, 46286.9758948059, -2419.3304680979813, 21250.87633739428, 45629.25346246403, 9330.065170534273, -1124.493911802043, 18664.578338215153, -16079.643795447802, 0.08853963960334658, 0.9767614723294973, 0.08873470331169665, 192.0, 0.0, 0.0, 0.0, 0.0, 0.0, 0.0, 0.0, 0.0, 0.0, 1.74198567054976E9, 0.0, 2025-03-14 15:54:30.549
136.0, 13655.954737181037, 22272.46281772409, -8363.374574586698, 2565.0861936910387, 11980.579731533497, 7097.662341316026, 1667.8424677661023, 17912.68800648308, 46301.459825212936, -2426.1477501568497, 21207.446897917616, 45594.675313791675, 9365.04565060683, -1143.8728742447943, 18667.618175461077, -16079.487333236615, 0.08853963960334658, 0.9767614723294973, 0.08873470331169665, 192.0, 0.0, 0.0, 0.0, 0.0, 0.0, 0.0, 0.0, 0.0, 0.0, 1.741985670549998E9, 0.0, 2025-03-14 15:54:30.549
138.0, 13663.196702384557, 22278.609547449298, -8325.130739823668, 2578.296074664125, 11983.306644357044, 7101.685655317981, 1664.9367409869126, 17916.55485827385, 46301.43747346848, -2436.3848491173803, 21244.036703590955, 45614.50131112353, 9342.738609640433, -1142.0176794550036, 18670.07686735116, -16077.766248913558, 0.08853963960334658, 0.9767614723294973, 0.08873470331169665, 192.0, 0.0, 0.0, 0.0, 0.0, 0.0, 0.0, 0.0, 0.0, 0.0, 1.741985670550191E9, 0.0, 2025-03-14 15:54:30.550
140.0, 13664.984841940981, 22278.45308523811, -8360.245330362955, 2572.6634350613876, 11978.590426276975, 7102.199745440454, 1658.8794182395243, 17919.751157730956, 46310.42287473952, -2420.7162762542102, 21226.1106045378, 45609.561575598906, 9348.751228898911, -1143.7611155225177, 18662.991364358826, -16078.347394269394, 0.08926981980167328, 0.9753807361647486, 0.08736735165584833, 192.0, 1.0, 104.0, 15.0, 56.0, 1.0, 88.0, 0.0, 0.0, 0.0, 1.741985670550374E9, 0.0, 2025-03-14 15:54:30.550
142.0, 13656.55823428133, 22268.238338022034, -8349.740010468962, 2564.46034484629, 11989.721595015717, 7100.791585539769, 1673.9444940024011, 17911.413957049128, 46308.232403782895, -2432.0709624375063, 21243.232040790564, 45610.92503201068, 9354.003888845908, -1144.65518530073, 18667.685230694442, -16077.721545424647, 0.08926981980167328, 0.9753807361647486, 0.08736735165584833, 192.0, 0.0, 0.0, 0.0, 0.0, 0.0, 0.0, 0.0, 0.0, 0.0, 1.741985670550573E9, 0.0, 2025-03-14 15:54:30.550
144.0, 13665.811856485827, 22274.6085851918, -8340.50874000892, 2559.6323680439436, 11985.921798458314, 7098.444652371962, 1672.0445957237002, 17914.990236161975, 46304.29849675876, -2437.2789188955926, 21220.165040512686, 45603.28073540697, 9344.392638730125, -1131.4676560720989, 18669.94275688443, -16083.957682127677, 0.08926981980167328, 0.9753807361647486, 0.08736735165584833, 192.0, 0.0, 0.0, 0.0, 0.0, 0.0, 0.0, 0.0, 0.0, 0.0, 1.741985670550763E9, 0.0, 2025-03-14 15:54:30.550
146.0, 13662.168522139613, 22269.959422345095, -8343.973260399493, 2562.0910599340273, 11986.860571725438, 7092.54379183576, 1671.172877689943, 17911.704529727045, 46310.7805026508, -2441.078715452995, 21228.122261538778, 45593.691837035636, 9344.772618385867, -1139.782505009473, 18673.474332508365, -16091.33375779793, 0.08926981980167328, 0.9753807361647486, 0.08736735165584833, 192.0, 0.0, 0.0, 0.0, 0.0, 0.0, 0.0, 0.0, 0.0, 0.0, 1.741985670550943E9, 0.0, 2025-03-14 15:54:30.550
148.0, 13665.007193685437, 22270.473512467564, -8363.553388542341, 2553.9326732078403, 11985.027728680103, 7095.963608737423, 1657.627720550027, 17911.16808786012, 46302.1303775466, -2442.106895697939, 21220.075633534867, 45606.633497075265, 9347.857159120698, -1131.333545605367, 18672.848483663616, -16094.105374110386, 0.08926981980167328, 0.9753807361647486, 0.08736735165584833, 192.0, 0.0, 0.0, 0.0, 0.0, 0.0, 0.0, 0.0, 0.0, 0.0, 1.741985670551117E9, 0.0, 2025-03-14 15:54:30.551
150.0, 13660.983879683481, 22262.382180974746, -8354.456228549032, 2554.133838907938, 11988.425193837309, 7092.610847069126, 1664.4450026088957, 17909.8269831928, 46304.678476414505, -2435.401372361347, 21212.788964842435, 45596.39639811473, 9353.355688256705, -1138.1508276642355, 18664.77950391525, -16095.088850866421, 0.09463490990083664, 0.9746903680823743, 0.09068367582792417, 192.0, 1.5, 16.0, 15.0, 56.0, 1.0, 120.0, 0.0, 0.0, 0.0, 1.741985670608637E9, 0.0, 2025-03-14 15:54:30.608
152.0, 13631.099597346736, 22237.012951017972, -8428.418150951642, 2522.6402309704104, 11974.03067040809, 7073.343643348652, 1652.1291914140215, 17894.896017896655, 46274.39186267756, -2458.937759272785, 21207.312787450886, 45595.2117556586, 9355.099124324219, -1148.4326301136769, 18648.060399062684, -16107.203496361197, 0.09463490990083664, 0.9746903680823743, 0.09068367582792417, 192.0, 0.0, 0.0, 0.0, 0.0, 0.0, 0.0, 0.0, 0.0, 0.0, 1.741985670608861E9, 0.0, 2025-03-14 15:54:30.608
154.0, 13658.033449415381, 22255.743712871517, -8322.470882233487, 2550.736373750731, 11996.963560219236, 7099.897515761557, 1686.6402848530156, 17926.724902001013, 46294.08374954269, -2457.6413580943777, 21188.067935474868, 45567.51794427847, 9344.236176518938, -1141.4141823547104, 18650.317925252668, -16101.928484669745, 0.09463490990083664, 0.9746903680823743, 0.09068367582792417, 192.0, 0.0, 0.0, 0.0, 0.0, 0.0, 0.0, 0.0, 0.0, 0.0, 1.741985670609057E9, 0.0, 2025-03-14 15:54:30.609
156.0, 13639.660315473118, 22242.913811554172, -8406.71460708554, 2531.9609084082736, 11974.790629719571, 7085.547695821249, 1651.5703978026388, 17901.310968555328, 46270.703824842436, -2460.3906226623803, 21231.02798831797, 45597.603392315315, 9348.61711843218, -1139.044897442448, 18652.776617142754, -16100.386214302329, 0.09463490990083664, 0.9746903680823743, 0.09068367582792417, 192.0, 0.0, 0.0, 0.0, 0.0, 0.0, 0.0, 0.0, 0.0, 0.0, 1.741985670609238E9, 0.0, 2025-03-14 15:54:30.609
158.0, 13651.819664456805, 22245.059579021883, -8365.162714143124, 2536.45360904379, 11989.095746170968, 7085.994730710356, 1663.729746786326, 17907.994140147464, 46262.74660381635, -2462.2905209410815, 21173.986336468024, 45560.36538605278, 9354.361516757193, -1137.4132200972106, 18641.35487572609, -16105.057728893487, 0.09463490990083664, 0.9746903680823743, 0.09068367582792417, 192.0, 0.0, 0.0, 0.0, 0.0, 0.0, 0.0, 0.0, 0.0, 0.0, 1.741985670609432E9, 0.0, 2025-03-14 15:54:30.609
160.0, 13658.994574426959, 22257.88948033923, -8353.226882603989, 2549.1493998944047, 11995.577752063007, 7087.313483633218, 1675.3526539030856, 17907.033015135887, 46291.55800241924, -2459.5412563730783, 21241.466252978596, 45600.39736037223, 9340.302269494805, -1124.5833187798642, 18660.800893402207, -16096.653472978292, 0.09831745495041833, 0.9813451840411871, 0.08934183791396208, 192.0, 1.5, 24.0, 15.0, 112.0, 1.0, 96.0, 0.0, 0.0, 0.0, 1.741985670609618E9, 0.0, 2025-03-14 15:54:30.609
162.0, 13663.46492331802, 22250.44634943561, -8351.885777936672, 2551.1834086398376, 11994.102536928956, 7095.449518614951, 1673.5198108577504, 17914.72201522851, 46277.65521736804, -2455.786163304587, 21189.833723286836, 45569.9542844241, 9353.825074890265, -1131.8029322389284, 18660.46561723538, -16093.457173521183, 0.09831745495041833, 0.9813451840411871, 0.08934183791396208, 192.0, 0.0, 0.0, 0.0, 0.0, 0.0, 0.0, 0.0, 0.0, 0.0, 1.741985670609813E9, 0.0, 2025-03-14 15:54:30.609
164.0, 13665.834208230282, 22257.956535572594, -8364.380403087187, 2551.138705150927, 11993.633150295396, 7087.000559210845, 1666.0766799541332, 17906.16129710213, 46283.57842964869, -2449.2818056680926, 21253.335029284364, 45609.09218896535, 9364.33039478426, -1134.3286793623781, 18666.61234696059, -16082.147190826798, 0.09831745495041833, 0.9813451840411871, 0.08934183791396208, 192.0, 0.0, 0.0, 0.0, 0.0, 0.0, 0.0, 0.0, 0.0, 0.0, 1.741985670667878E9, 0.0, 2025-03-14 15:54:30.667
166.0, 13663.531978551386, 22255.944878571616, -8375.243350892468, 2545.327251592547, 11992.537914817085, 7084.653626043038, 1661.4498688518845, 17906.273055824407, 46226.71559175439, -2447.0466312225617, 21191.018365742966, 45560.275979074955, 9379.842505436243, -1133.3228508618893, 18657.202262544903, -16088.986824630121, 0.09831745495041833, 0.9813451840411871, 0.08934183791396208, 192.0, 0.0, 0.0, 0.0, 0.0, 0.0, 0.0, 0.0, 0.0, 0.0, 1.74198567066809E9, 0.0, 2025-03-14 15:54:30.668
168.0, 13670.528074565897, 22260.16935827367, -8352.288109336867, 2548.9705859387623, 12002.640903310885, 7088.11814643361, 1688.406072664985, 17921.69575949857, 46221.261766107295, -2455.9649772602293, 21241.153328556222, 45600.77734002797, 9375.126287356174, -1120.9399844336492, 18661.02441084676, -16084.717641439158, 0.09831745495041833, 0.9813451840411871, 0.08934183791396208, 192.0, 0.0, 0.0, 0.0, 0.0, 0.0, 0.0, 0.0, 0.0, 0.0, 1.741985670668284E9, 0.0, 2025-03-14 15:54:30.668
170.0, 13666.41535358612, 22266.874881610263, -8355.663222749617, 2549.328213850047, 12005.390167878888, 7082.887838231068, 1675.1291364585325, 17912.755061716445, 46157.11225952057, -2453.036898736584, 21191.53245586544, 45559.04663312991, 9344.7055631525, -1131.2217868830905, 18671.909710396496, -16078.727373925136, 0.10215872747520915, 0.9876725920205935, 0.08667091895698104, 192.0, 1.5, 40.0, 15.5, 8.0, 1.0, 80.0, 0.0, 0.0, 0.0, 1.74198567066846E9, 0.0, 2025-03-14 15:54:30.668
172.0, 13672.360917611233, 22283.236358551545, -8350.924652925092, 2555.9890336977287, 12006.105423701458, 7095.605980826138, 1696.564459391172, 17930.390588091683, 46076.84714518156, -2445.7949335330645, 21245.86954663629, 45607.460511620106, 9407.111633671717, -1131.1547316497245, 18659.236271290334, -16081.051955348488, 0.10215872747520915, 0.9876725920205935, 0.08667091895698104, 192.0, 0.0, 0.0, 0.0, 0.0, 0.0, 0.0, 0.0, 0.0, 0.0, 1.741985670668645E9, 0.0, 2025-03-14 15:54:30.668
174.0, 13682.106278193747, 22297.98850989205, -8330.36104802621, 2559.654719788399, 12009.547592347573, 7101.730358806892, 1688.9648662763675, 17935.956172461054, 45942.267291816155, -2444.654994565844, 21197.947406524112, 45571.58596176934, 9343.677382907556, -1117.9895541655487, 18680.5598355007, -16062.097676050387, 0.10215872747520915, 0.9876725920205935, 0.08667091895698104, 192.0, 0.0, 0.0, 0.0, 0.0, 0.0, 0.0, 0.0, 0.0, 0.0, 1.741985670668827E9, 0.0, 2025-03-14 15:54:30.668
176.0, 13674.305519378844, 22295.70863195761, -8356.333775083278, 2550.758725495187, 12007.625342324418, 7092.007349968833, 1689.7471773323034, 17922.254553109953, 45886.49968940016, -2441.5481020865564, 21264.577956745383, 45626.86182580732, 9368.107839597207, -1115.8437866978393, 18680.42572503397, -16061.807103372468, 0.10215872747520915, 0.9876725920205935, 0.08667091895698104, 192.0, 0.0, 0.0, 0.0, 0.0, 0.0, 0.0, 0.0, 0.0, 0.0, 1.741985670669019E9, 0.0, 2025-03-14 15:54:30.669
178.0, 13678.485295591987, 22305.543399517945, -8348.667126735107, 2552.5468650516113, 12005.881906256904, 7101.842117529169, 1688.0707964981552, 17930.97173344752, 45804.82641516047, -2451.9416632582743, 21190.258406431487, 45578.872630461774, 9376.623854234678, -1123.912766446205, 18678.92815815546, -16059.013135315554, 0.10215872747520915, 0.9876725920205935, 0.08667091895698104, 192.0, 0.0, 0.0, 0.0, 0.0, 0.0, 0.0, 0.0, 0.0, 0.0, 1.741985670669195E9, 0.0, 2025-03-14 15:54:30.669
180.0, 13682.508609593942, 22313.567675777398, -8328.4164462586, 2565.6002838135105, 12019.695284330284, 7104.010236741333, 1705.2592879842864, 17938.437216095594, 45770.851763588405, -2446.7337068001875, 21253.737360684558, 45631.35452644283, 9357.893092381131, -1117.8330919543614, 18694.820248463184, -16047.926670065723, 0.10607936373760457, 0.9848362960102968, 0.09133545947849052, 192.0, 1.5, 56.0, 15.0, 88.0, 1.5, 0.0, 0.0, 0.0, 0.0, 1.741985670728752E9, 0.0, 2025-03-14 15:54:30.728
182.0, 13684.140286939179, 22315.579332778376, -8357.920748939605, 2562.6722052898654, 12015.023769739124, 7098.623466327605, 1692.6082006225827, 17928.49068981298, 45724.829521754924, -2448.9688812457184, 21204.89879904971, 45600.57617432787, 9375.260397822905, -1114.234461097057, 18704.40914683451, -16037.309591449452, 0.10607936373760457, 0.9848362960102968, 0.09133545947849052, 192.0, 0.0, 0.0, 0.0, 0.0, 0.0, 0.0, 0.0, 0.0, 0.0, 1.74198567072898E9, 0.0, 2025-03-14 15:54:30.728
184.0, 13692.365728898732, 22323.245981126547, -8330.27164104839, 2574.3845193844463, 12014.062644727546, 7101.708007062436, 1695.983314035334, 17934.16803290463, 45707.32810584642, -2443.269186409615, 21246.853023392323, 45638.730602113086, 9396.181630633073, -1115.1508826197246, 18702.59865553363, -16032.861594302845, 0.10607936373760457, 0.9848362960102968, 0.09133545947849052, 192.0, 0.0, 0.0, 0.0, 0.0, 0.0, 0.0, 0.0, 0.0, 0.0, 1.741985670729176E9, 0.0, 2025-03-14 15:54:30.729
186.0, 13682.441554360576, 22315.802850222928, -8360.915882696616, 2563.141591923427, 12007.871211513426, 7102.713835562925, 1689.948343032401, 17929.74238750248, 45666.64793093776, -2448.477142867702, 21215.00178754351, 45615.93182276867, 9389.878438696676, -1121.9681646785932, 18696.541332786244, -16031.654600102258, 0.10607936373760457, 0.9848362960102968, 0.09133545947849052, 192.0, 0.0, 0.0, 0.0, 0.0, 0.0, 0.0, 0.0, 0.0, 0.0, 1.741985670729358E9, 0.0, 2025-03-14 15:54:30.729
188.0, 13677.166542669123, 22310.438431553655, -8319.699265921028, 2569.333025137547, 12009.368778391932, 7099.383425639085, 1686.0367877527224, 17928.423634579616, 45643.335061470876, -2448.812419034531, 21234.023122074977, 45637.255386979035, 9371.505304754413, -1121.5881850228532, 18696.384870575057, -16034.046236758977, 0.10607936373760457, 0.9848362960102968, 0.09133545947849052, 192.0, 0.0, 0.0, 0.0, 0.0, 0.0, 0.0, 0.0, 0.0, 0.0, 1.741985670729539E9, 0.0, 2025-03-14 15:54:30.729
190.0, 13673.858484489738, 22309.74552747554, -8338.519434752398, 2566.8519815030077, 12010.24049642569, 7103.585553596682, 1694.3963401790072, 17933.720998015524, 45614.63542159026, -2449.9300062572966, 21217.661645133692, 45619.619860603794, 9361.37996451616, -1121.141150133747, 18707.89601896954, -16027.474823889117, 0.11303968186880228, 0.9814181480051484, 0.09766772973924526, 192.0, 1.5, 96.0, 15.0, 72.0, 1.5, 32.0, 0.0, 0.0, 0.0, 1.741985670729815E9, 0.0, 2025-03-14 15:54:30.729
192.0, 13672.070344933314, 22309.387899564255, -8326.851824146726, 2572.104641450005, 12009.726406303216, 7101.752710551347, 1705.2816397287418, 17929.205945635553, 45592.88717423525, -2455.003852248651, 21235.58774418685, 45627.33121244088, 9364.643319206634, -1127.399638581233, 18696.474277552876, -16037.17548098272, 0.11303968186880228, 0.9814181480051484, 0.09766772973924526, 192.0, 0.0, 0.0, 0.0, 0.0, 0.0, 0.0, 0.0, 0.0, 0.0, 1.741985670730024E9, 0.0, 2025-03-14 15:54:30.730
194.0, 13668.114086164724, 22308.382071063766, -8344.88968192216, 2565.8908564914295, 12005.010188223147, 7107.720626320914, 1696.6762181134486, 17928.87066946872, 45593.3118573799, -2439.8270177634977, 21228.703406894616, 45627.71119209662, 9380.04367113634, -1116.8719669427833, 18708.343053858647, -16030.961696024144, 0.11303968186880228, 0.9814181480051484, 0.09766772973924526, 192.0, 0.0, 0.0, 0.0, 0.0, 0.0, 0.0, 0.0, 0.0, 0.0, 1.74198567078944E9, 0.0, 2025-03-14 15:54:30.789
196.0, 13669.477542576498, 22307.331539074366, -8328.438798003053, 2567.0531472031057, 12005.2337056677, 7097.036492471278, 1690.4400814104179, 17924.64618976667, 45579.721996751075, -2448.6112533344335, 21227.407005716206, 45619.64221234825, 9372.66759546609, -1127.042010669948, 18689.70169898292, -16045.736199109102, 0.11303968186880228, 0.9814181480051484, 0.09766772973924526, 192.0, 0.0, 0.0, 0.0, 0.0, 0.0, 0.0, 0.0, 0.0, 0.0, 1.741985670789687E9, 0.0, 2025-03-14 15:54:30.789
198.0, 13669.946929210058, 22313.99235892205, -8336.284260306868, 2575.770327540675, 12010.687531314796, 7102.2668006738195, 1700.5207181597614, 17928.244820623975, 45581.465432818586, -2441.279881153093, 21238.716988410593, 45627.68884035216, 9368.890150653142, -1123.4433798126436, 18700.475239810377, -16046.786731098502, 0.11303968186880228, 0.9814181480051484, 0.09766772973924526, 192.0, 0.0, 0.0, 0.0, 0.0, 0.0, 0.0, 0.0, 0.0, 0.0, 1.741985670789887E9, 0.0, 2025-03-14 15:54:30.789
200.0, 13675.80308625735, 22318.395652579744, -8315.765358896895, 2587.482641635256, 12012.833298782505, 7106.915963520523, 1697.1903082359206, 17930.859974725245, 45574.42463331517, -2432.6074043044337, 21231.67618890717, 45622.50323563853, 9368.890150653142, -1116.0449523979369, 18705.683196268463, -16042.763417096547, 0.10951984093440115, 0.9787090740025741, 0.10283386486962262, 192.0, 1.5, 40.0, 15.0, 64.0, 1.5, 48.0, 0.0, 0.0, 0.0, 1.74198567079007E9, 0.0, 2025-03-14 15:54:30.790
202.0, 13680.631063059696, 22324.341216604855, -8324.571946212285, 2587.9967317577284, 12011.894525515381, 7113.867356046124, 1703.113520516577, 17939.39834110717, 45587.343941610336, -2419.4198750758023, 21259.191186331653, 45650.822895863406, 9372.935816399553, -1107.1266063602695, 18707.806611991717, -16038.069550760933, 0.10951984093440115, 0.9787090740025741, 0.10283386486962262, 192.0, 0.0, 0.0, 0.0, 0.0, 0.0, 0.0, 0.0, 0.0, 0.0, 1.741985670790261E9, 0.0, 2025-03-14 15:54:30.790
204.0, 13671.288033877378, 22314.84172521135, -8312.099672806224, 2586.8344410460522, 11998.304664886555, 7106.2007076979535, 1678.2360289378203, 17932.84927998177, 45584.99700844252, -2420.9621454432186, 21238.15819479921, 45629.56638688641, 9362.296386038826, -1113.2956878299342, 18697.860085709108, -16050.407713700262, 0.10951984093440115, 0.9787090740025741, 0.10283386486962262, 192.0, 0.0, 0.0, 0.0, 0.0, 0.0, 0.0, 0.0, 0.0, 0.0, 1.741985670790445E9, 0.0, 2025-03-14 15:54:30.790
206.0, 13678.84292350327, 22322.441318326157, -8307.65167565962, 2592.5117841377005, 12017.013074995646, 7111.855699045146, 1705.9521920624009, 17933.385721848696, 45606.25351741952, -2411.686171494266, 21276.15616037323, 45664.74803265906, 9367.258473307906, -1105.9196121596829, 18707.024300935784, -16043.903356063767, 0.10951984093440115, 0.9787090740025741, 0.10283386486962262, 192.0, 0.0, 0.0, 0.0, 0.0, 0.0, 0.0, 0.0, 0.0, 0.0, 1.741985670790636E9, 0.0, 2025-03-14 15:54:30.790
208.0, 13674.394926356665, 22315.065242655903, -8303.02486455737, 2588.0190835021835, 12005.300760901066, 7100.9256960065, 1684.9415522744123, 17927.01547467893, 45651.649910408254, -2409.8309767044757, 21249.982267616066, 45633.053259021435, 9366.006775618407, -1110.1217401172805, 18717.864896996605, -16045.98206829811, 0.10951984093440115, 0.9787090740025741, 0.10283386486962262, 192.0, 0.0, 0.0, 0.0, 0.0, 0.0, 0.0, 0.0, 0.0, 0.0, 1.741985670790818E9, 0.0, 2025-03-14 15:54:30.790
210.0, 13681.927464238104, 22322.64248402625, -8306.332922736756, 2597.384464428957, 12013.52620286062, 7115.610792113637, 1683.3322266736302, 17929.384759591194, 45699.57205052043, -2403.460729534713, 21291.19888439165, 45671.98999786258, 9358.161313314595, -1110.1217401172805, 18710.04178643725, -16048.8877950773, 0.09975992046720057, 0.975354537001287, 0.10241693243481131, 192.0, 1.0, 104.0, 15.0, 48.0, 1.5, 24.0, 0.0, 0.0, 0.0, 1.741985670835851E9, 0.0, 2025-03-14 15:54:30.835
212.0, 13676.116010679723, 22316.7192717456, -8297.101652276713, 2597.22800221777, 12022.265734942644, 7112.615658356626, 1694.2398779678201, 17935.196213149575, 45753.66327210227, -2398.073959120984, 21251.52453798348, 45636.31661371191, 9352.640432434135, -1106.6348679822527, 18717.32845512968, -16041.60112638487, 0.09975992046720057, 0.975354537001287, 0.10241693243481131, 192.0, 0.0, 0.0, 0.0, 0.0, 0.0, 0.0, 0.0, 0.0, 0.0, 1.741985670836081E9, 0.0, 2025-03-14 15:54:30.836
214.0, 13675.333699623789, 22317.255713612525, -8303.158975024102, 2599.8208045745855, 12011.894525515381, 7118.941202037478, 1698.374950692052, 17940.560631818847, 45809.40852277381, -2395.414101530803, 21297.34561411686, 45679.20961132165, 9347.544234698324, -1106.1431296042358, 18712.47812658288, -16046.719675865135, 0.09975992046720057, 0.975354537001287, 0.10241693243481131, 192.0, 0.0, 0.0, 0.0, 0.0, 0.0, 0.0, 0.0, 0.0, 0.0, 1.741985670836266E9, 0.0, 2025-03-14 15:54:30.836
216.0, 13676.943025224571, 22314.126469388782, -8297.97337031047, 2598.2785342071693, 12009.458185369753, 7122.249260216864, 1682.95224701789, 17934.12332941572, 45866.31606415702, -2394.7435491971432, 21246.785968158958, 45635.646061378255, 9341.866891606676, -1110.747588962029, 18708.030129436273, -16050.273603233529, 0.09975992046720057, 0.975354537001287, 0.10241693243481131, 192.0, 0.0, 0.0, 0.0, 0.0, 0.0, 0.0, 0.0, 0.0, 0.0, 1.741985670836442E9, 0.0, 2025-03-14 15:54:30.836
218.0, 13673.52320832291, 22305.5657512624, -8308.411634971098, 2589.494298636234, 12008.13943244689, 7111.609829856137, 1697.0561977691887, 17928.468338068527, 45915.64636416988, -2398.1633660988055, 21303.69350954217, 45682.29415205648, 9340.61519391718, -1113.8321296968616, 18702.93393170046, -16059.08019054892, 0.09975992046720057, 0.975354537001287, 0.10241693243481131, 192.0, 0.0, 0.0, 0.0, 0.0, 0.0, 0.0, 0.0, 0.0, 0.0, 1.74198567083662E9, 0.0, 2025-03-14 15:54:30.836
220.0, 13681.70394679355, 22311.84659145434, -8301.080262789757, 2596.3115806951023, 12012.14039470439, 7116.482510147394, 1692.2505727112978, 17932.84927998177, 45956.5500565231, -2393.2906858075485, 21254.92200314069, 45637.43420093467, 9342.425685218059, -1114.9720686640821, 18700.095260154638, -16058.767266126546, 0.09187996023360029, 0.9776772685006435, 0.09620846621740566, 192.0, 1.0, 80.0, 15.0, 80.0, 1.0, 104.0, 0.0, 0.0, 0.0, 1.741985670890313E9, 0.0, 2025-03-14 15:54:30.890
222.0, 13670.572778054808, 22297.11679185829, -8311.138547794646, 2587.9967317577284, 11996.22595265221, 7104.971361752911, 1666.791935776703, 17918.991198419477, 45991.619943573474, -2390.116738094895, 21303.201771164153, 45681.46713751163, 9340.637545661635, -1116.7602082205067, 18685.87955068106, -16063.08115280642, 0.09187996023360029, 0.9776772685006435, 0.09620846621740566, 192.0, 0.0, 0.0, 0.0, 0.0, 0.0, 0.0, 0.0, 0.0, 0.0, 1.741985670890546E9, 0.0, 2025-03-14 15:54:30.890
224.0, 13674.506685078943, 22297.429716280665, -8306.064701803292, 2593.361150427002, 12001.791537021583, 7112.213326956431, 1682.0134737507672, 17922.768643232423, 46018.464388664295, -2395.9058399088194, 21244.0143518465, 45624.04550600595, 9337.463597948981, -1122.7281239900738, 18671.93206214095, -16066.545673196993, 0.09187996023360029, 0.9776772685006435, 0.09620846621740566, 192.0, 0.0, 0.0, 0.0, 0.0, 0.0, 0.0, 0.0, 0.0, 0.0, 1.741985670890727E9, 0.0, 2025-03-14 15:54:30.890
226.0, 13682.150981682656, 22298.97198664808, -8307.159937281602, 2597.5409266401443, 12006.083071957002, 7110.827518800202, 1684.6062761075827, 17917.918314685623, 46056.52940947168, -2388.8426886609423, 21303.224122908607, 45671.67707344021, 9352.863949878687, -1115.0167721529929, 18689.23231234936, -16057.157940525763, 0.09187996023360029, 0.9776772685006435, 0.09620846621740566, 192.0, 0.0, 0.0, 0.0, 0.0, 0.0, 0.0, 0.0, 0.0, 0.0, 1.741985670890918E9, 0.0, 2025-03-14 15:54:30.890
228.0, 13688.029490474402, 22301.45303028262, -8309.328056493767, 2596.557449884111, 11996.114193929934, 7111.967457767422, 1675.307950414175, 17919.371178075216, 46091.01815116622, -2387.881563649364, 21255.525500240983, 45629.67814560868, 9350.8075893888, -1118.1907198656463, 18678.682288966455, -16060.331888238417, 0.09187996023360029, 0.9776772685006435, 0.09620846621740566, 192.0, 0.0, 0.0, 0.0, 0.0, 0.0, 0.0, 0.0, 0.0, 0.0, 1.741985670891101E9, 0.0, 2025-03-14 15:54:30.891
