%OpenBCI Raw EXG Data
%Number of channels = 16
%Sample Rate = 125 Hz
%Board = OpenBCI_GUI$BoardCytonSerialDaisy
Sample Index, EXG Channel 0, EXG Channel 1, EXG Channel 2, EXG Channel 3, EXG Channel 4, EXG Channel 5, EXG Channel 6, EXG Channel 7, EXG Channel 8, EXG Channel 9, EXG Channel 10, EXG Channel 11, EXG Channel 12, EXG Channel 13, EXG Channel 14, EXG Channel 15, Accel Channel 0, Accel Channel 1, Accel Channel 2, Not Used, Digital Channel 0 (D11), Digital Channel 1 (D12), Digital Channel 2 (D13), Digital Channel 3 (D17), Not Used, Digital Channel 4 (D18), Analog Channel 0, Analog Channel 1, Analog Channel 2, Timestamp, Marker Channel, Timestamp (Formatted)
0.0, 13612.279428515367, 22138.777034136896, -8307.986951826448, 2567.5672373255775, 12143.054561979123, 7037.133817331054, 1606.7998536586588, 17972.545978134392, 0.0, 0.0, 0.0, 0.0, 0.0, 0.0, 0.0, 0.0, 0.0, 0.0, 0.0, 192.0, 0.0, 0.0, 0.0, 0.0, 0.0, 0.0, 0.0, 0.0, 0.0, 1.741985683502441E9, 0.0, 2025-03-14 15:54:43.502
6.0, 13605.573905178775, 22138.91114460363, -8322.157957811112, 2561.107583177994, 12148.150759714934, 7034.7645324187915, 1595.6910366643713, 17975.339946191307, 46386.44115763201, -2474.0251867801176, 21306.509829343537, 45270.82088837873, 9351.52284521137, -1151.5842260818752, 18617.818488814653, -16046.809082842958, 0.0, 0.0, 0.0, 192.0, 0.0, 0.0, 0.0, 0.0, 0.0, 0.0, 0.0, 0.0, 0.0, 1.741985683502719E9, 0.0, 2025-03-14 15:54:43.502
8.0, 13598.890733586639, 22132.876173600696, -8329.623440459185, 2556.7042895202985, 12128.570631572084, 7029.556575960705, 1599.2896675216757, 17976.569292136348, 46371.17491616904, -2480.8871723278967, 21237.755863399016, 45217.60138483065, 9382.480011281968, -1151.0254324704924, 18593.410383869457, -16058.499045193083, 0.0, 0.0, 0.0, 192.0, 0.0, 0.0, 0.0, 0.0, 0.0, 0.0, 0.0, 0.0, 0.0, 1.741985683503008E9, 0.0, 2025-03-14 15:54:43.503
10.0, 13603.964579577992, 22141.280429515893, -8326.874175891182, 2559.6770715328544, 12144.172149201888, 7035.68095394146, 1602.5530222121504, 17977.8433415703, 46376.76285228287, -2481.758890361654, 21309.482611356096, 45271.96082734595, 9371.14767684313, -1144.4093161117216, 18618.377282426034, -16049.17836775522, 0.0, 0.0, 0.0, 192.0, 0.0, 0.0, 0.0, 0.0, 0.0, 0.0, 0.0, 0.0, 0.0, 1.74198568350329E9, 0.0, 2025-03-14 15:54:43.503
12.0, 13606.445623212532, 22147.225993541004, -8296.431099943055, 2564.3485861240133, 12146.83200679207, 7037.491445242339, 1606.6880949363822, 17990.762649865468, 46377.947494739, -2481.9600560617514, 21254.139692084755, 45221.73645755488, 9381.541238014846, -1137.2344061415681, 18610.822392800143, -16048.17253925473, 0.108, 0.982, 0.128, 192.0, 1.5, 48.0, 15.0, 88.0, 2.0, 0.0, 0.0, 0.0, 0.0, 1.74198568350356E9, 0.0, 2025-03-14 15:54:43.503
14.0, 13595.49326842943, 22142.085092316283, -8313.93251585156, 2556.011385442184, 12141.288774167155, 7029.4224654939735, 1604.9446588688684, 17982.201931739084, 46362.41303234256, -2483.457622940257, 21318.065681226934, 45271.35733024566, 9363.883359895153, -1134.8874729737609, 18622.57941038363, -16047.703152621169, 0.108, 0.982, 0.128, 192.0, 0.0, 0.0, 0.0, 0.0, 0.0, 0.0, 0.0, 0.0, 0.0, 1.741985683503842E9, 0.0, 2025-03-14 15:54:43.503
16.0, 13596.588503907742, 22143.649714428153, -8311.518527450387, 2548.523551049656, 12136.25963166471, 7022.336962501641, 1597.7697488987149, 17977.441010170103, 46336.01562214084, -2495.5052132016676, 21254.83259616287, 45217.33316389718, 9364.33039478426, -1141.3471271213446, 18605.614436342054, -16057.739085881602, 0.108, 0.982, 0.128, 192.0, 0.0, 0.0, 0.0, 0.0, 0.0, 0.0, 0.0, 0.0, 0.0, 1.741985683504045E9, 0.0, 2025-03-14 15:54:43.504
18.0, 13596.096765529725, 22145.840185384775, -8313.150204795624, 2556.301958120103, 12146.40732364742, 7031.858805639602, 1595.7580918977371, 17981.039641027408, 46351.61713977065, -2487.30212298657, 21312.41068987974, 45265.14354528708, 9373.628720477667, -1129.657164771219, 18615.136279480015, -16058.9907835711, 0.108, 0.982, 0.128, 192.0, 0.0, 0.0, 0.0, 0.0, 0.0, 0.0, 0.0, 0.0, 0.0, 1.741985683504238E9, 0.0, 2025-03-14 15:54:43.504
20.0, 13597.795498108328, 22145.214336540026, -8309.708036149506, 2548.4117923273793, 12144.909756768913, 7027.679029426459, 1603.60355420155, 17984.37005095125, 46339.88247393161, -2478.808460093553, 21252.77623567298, 45227.927890768995, 9361.871702894176, -1148.8349615138725, 18605.949712508886, -16058.946080082189, 0.108, 0.982, 0.128, 192.0, 0.0, 0.0, 0.0, 0.0, 0.0, 0.0, 0.0, 0.0, 0.0, 1.741985683504438E9, 0.0, 2025-03-14 15:54:43.504
0.0, 6783.754442185694, 11048.690801702835, -4152.216512229027, 1295.2388876961336, 6072.141953962083, 3524.1771965238095, 838.0116031183724, 8986.518858256204, 23173.372229739696, -1248.6355005068185, 10660.999794125533, 22640.260772736165, 4686.534963433142, -571.0423673441849, 9300.069129475252, -8034.2227857378475, 0.088, 0.972, 0.132, 192.0, 1.0, 96.0, 15.0, 48.0, 2.0, 16.0, 0.0, 0.0, 0.0, 1.741985683616779E9, 0.0, 2025-03-14 15:54:43.616
2.0, 13568.425305894054, 22100.22027495149, -8315.050103074325, 2590.4107201589013, 12147.83783529256, 7048.86848317009, 1699.6042966370937, 17965.25930944196, 46335.23331108491, -2434.7084682832324, 21400.94594966721, 45351.84596202922, 9324.968972798464, -1079.8798298692502, 18571.304508603156, -16051.413542200751, 0.088, 0.972, 0.132, 192.0, 0.0, 0.0, 0.0, 0.0, 0.0, 0.0, 0.0, 0.0, 0.0, 1.741985683675323E9, 0.0, 2025-03-14 15:54:43.675
4.0, 13571.867474540171, 22099.19209470655, -8293.570076652775, 2594.8587173055075, 12143.814521290604, 7050.880140171068, 1692.7199593448593, 17970.735486833513, 46340.37421230963, -2431.7356862706765, 21389.52420825055, 45338.83724675623, 9329.953411811997, -1079.0528153244038, 18584.849665743073, -16043.590431641393, 0.088, 0.972, 0.132, 192.0, 0.0, 0.0, 0.0, 0.0, 0.0, 0.0, 0.0, 0.0, 0.0, 1.741985683675564E9, 0.0, 2025-03-14 15:54:43.675
6.0, 13573.20857920749, 22097.292196427847, -8311.719693150484, 2589.6284091029656, 12146.027343991678, 7057.652718741027, 1691.5800203776384, 17975.205835724573, 46343.92813967802, -2432.3615351154253, 21416.547467297016, 45371.78371808335, 9331.026295545853, -1080.5503822029093, 18577.942976706385, -16042.517547907539, 0.088, 0.972, 0.132, 192.0, 0.0, 0.0, 0.0, 0.0, 0.0, 0.0, 0.0, 0.0, 0.0, 1.741985683675773E9, 0.0, 2025-03-14 15:54:43.675
8.0, 13576.047250753314, 22095.12407721568, -8296.095823776224, 2596.065711506094, 12155.1692074739, 7057.3621460631075, 1697.7043983583926, 17979.922053804643, 46343.79402921129, -2435.490779339168, 21376.582548210925, 45332.91403447557, 9332.814435102277, -1082.494983970521, 18573.651441770966, -16038.628344372315, 0.09, 0.972, 0.13, 192.0, 1.0, 104.0, 15.0, 48.0, 2.0, 8.0, 0.0, 0.0, 0.0, 1.741985683675962E9, 0.0, 2025-03-14 15:54:43.675
10.0, 13571.755715817895, 22094.766449304396, -8312.569059439786, 2591.170679470382, 12149.201291704332, 7054.009384394812, 1699.33607570363, 17979.139742748706, 46347.4373635575, -2432.7638665156205, 21418.67088302027, 45374.75650009591, 9337.70946713799, -1079.1198705577697, 18579.507598818254, -16029.911164034746, 0.09, 0.972, 0.13, 192.0, 0.0, 0.0, 0.0, 0.0, 0.0, 0.0, 0.0, 0.0, 0.0, 1.741985683676163E9, 0.0, 2025-03-14 15:54:43.676
12.0, 13569.051154738803, 22095.101725471228, -8308.702207649018, 2587.8626212909962, 12138.561861343607, 7050.857788426613, 1677.1854969484207, 17971.45074265608, 46339.18956985349, -2433.9038054828416, 21374.03444934302, 45327.01317393937, 9330.355743212192, -1085.69128342763, 18560.866243942528, -16034.582678625904, 0.09, 0.972, 0.13, 192.0, 0.0, 0.0, 0.0, 0.0, 0.0, 0.0, 0.0, 0.0, 0.0, 1.741985683676355E9, 0.0, 2025-03-14 15:54:43.676
14.0, 13573.92383503006, 22106.210542465513, -8313.88781236265, 2593.092929493538, 12144.708591068817, 7067.152210134532, 1689.7024738433927, 17986.716984119055, 46338.004927397364, -2438.3518026294473, 21420.95076095471, 45366.5087063919, 9321.504452407891, -1088.1276235732585, 18545.845871668564, -16032.682780347202, 0.09, 0.972, 0.13, 192.0, 0.0, 0.0, 0.0, 0.0, 0.0, 0.0, 0.0, 0.0, 0.0, 1.741985683676534E9, 0.0, 2025-03-14 15:54:43.676
16.0, 13563.798494791807, 22103.684795342066, -8307.048178559326, 2585.5380398676443, 12144.797998046637, 7050.589567493149, 1693.8822500565352, 17976.636347369713, 46351.61713977065, -2430.2828228810818, 21382.52811223604, 45321.98403143693, 9341.442208462026, -1079.6786641691524, 18561.96147942084, -16016.656579572747, 0.09, 0.972, 0.13, 192.0, 0.0, 0.0, 0.0, 0.0, 0.0, 0.0, 0.0, 0.0, 0.0, 1.741985683735505E9, 0.0, 2025-03-14 15:54:43.735
18.0, 13562.658555824586, 22115.866496070208, -8311.540879194841, 2582.364092154991, 12140.2158904333, 7049.270814570286, 1690.8200610661581, 17967.896815287688, 46332.908729661554, -2443.0680207095174, 21418.514420809082, 45357.97034000997, 9351.142865555628, -1094.140242831736, 18541.084950099583, -16032.12398673582, 0.094, 0.978, 0.134, 192.0, 1.0, 120.0, 15.0, 72.0, 2.0, 24.0, 0.0, 0.0, 0.0, 1.741985683735767E9, 0.0, 2025-03-14 15:54:43.735
20.0, 13572.87330304066, 22133.5243741899, -8278.773221823361, 2596.1551184839154, 12147.055524236623, 7054.434067539462, 1693.658732611982, 17980.570254393846, 46345.96214842345, -2432.227424648693, 21390.46298151767, 45319.81591222476, 9312.541402881314, -1083.7690334044735, 18576.668927272432, -16018.735291807092, 0.094, 0.978, 0.134, 192.0, 0.0, 0.0, 0.0, 0.0, 0.0, 0.0, 0.0, 0.0, 0.0, 1.741985683735982E9, 0.0, 2025-03-14 15:54:43.735
22.0, 13570.772239061862, 22139.738159148474, -8293.59242839723, 2595.8198423170857, 12144.797998046637, 7051.461285526906, 1689.3671976765631, 17980.45849567157, 46346.543293779294, -2429.7016775252437, 21448.95749675721, 45375.18118324056, 9322.331466952737, -1080.0809955693478, 18566.878863201007, -16024.703207576658, 0.094, 0.978, 0.134, 192.0, 0.0, 0.0, 0.0, 0.0, 0.0, 0.0, 0.0, 0.0, 0.0, 1.741985683736167E9, 0.0, 2025-03-14 15:54:43.736
24.0, 13572.314509429278, 22141.928630105096, -8313.329018751267, 2587.907324779907, 12139.075951466079, 7044.576948234671, 1689.5236598877502, 17973.395344423694, 46347.75028797988, -2433.210901404727, 21380.695269190703, 45317.71484824597, 9354.205054546006, -1086.8312223948506, 18551.366752549024, -16034.470919903628, 0.094, 0.978, 0.134, 192.0, 0.0, 0.0, 0.0, 0.0, 0.0, 0.0, 0.0, 0.0, 0.0, 1.74198568373636E9, 0.0, 2025-03-14 15:54:43.736
26.0, 13560.44573312351, 22133.300856745347, -8334.764341683906, 2577.200839185815, 12131.342247884542, 7035.68095394146, 1680.0912237276107, 17962.621803596237, 46345.939796679, -2436.5860148174784, 21424.549391812016, 45363.80414531281, 9357.110781325197, -1090.3627980187891, 18555.948860162363, -16042.22697522962, 0.094, 0.978, 0.134, 192.0, 0.0, 0.0, 0.0, 0.0, 0.0, 0.0, 0.0, 0.0, 0.0, 1.741985683736544E9, 0.0, 2025-03-14 15:54:43.736
28.0, 13581.702242100508, 22153.417426755124, -8269.139619963124, 2595.551621383622, 12148.374277159486, 7051.662451227004, 1688.1378517315213, 17977.59747238129, 46341.69296523249, -2433.456770593735, 21373.363897009363, 45309.19883360849, 9318.330504695237, -1089.558135218398, 18557.021743896217, -16035.588507126393, 0.08600000000000001, 0.98, 0.136, 192.0, 1.0, 88.0, 15.0, 80.0, 2.0, 32.0, 0.0, 0.0, 0.0, 1.741985683736749E9, 0.0, 2025-03-14 15:54:43.736
30.0, 13576.49428564242, 22145.929592362594, -8292.385434196643, 2589.851926547519, 12143.680410823872, 7052.131837860566, 1699.403130936996, 17982.157228250173, 46368.87268649015, -2426.728895512688, 21446.85643277841, 45370.1073372492, 9328.634658889134, -1080.7962513919176, 18560.5309677757, -16028.391245411784, 0.08600000000000001, 0.98, 0.136, 192.0, 0.0, 0.0, 0.0, 0.0, 0.0, 0.0, 0.0, 0.0, 0.0, 1.741985683736935E9, 0.0, 2025-03-14 15:54:43.736
32.0, 13571.73336407344, 22140.56517369332, -8318.760492653906, 2586.454461390312, 12137.287811909655, 7054.836398939658, 1688.3166656871638, 17978.290376459405, 46362.36832885365, -2439.558796830034, 21377.36485926686, 45321.49229305891, 9345.242005019427, -1086.7641671614847, 18563.593156766077, -16021.9315912642, 0.08600000000000001, 0.98, 0.136, 192.0, 0.0, 0.0, 0.0, 0.0, 0.0, 0.0, 0.0, 0.0, 0.0, 1.74198568379478E9, 0.0, 2025-03-14 15:54:43.794
34.0, 13577.880093798649, 22146.778958651896, -8306.444681459032, 2588.0414352466387, 12138.606564832517, 7052.333003560663, 1675.6208748365493, 17972.925957790132, 46367.48687833391, -2440.6093288194334, 21413.172353884263, 45353.6564533301, 9364.41980176208, -1083.8137368933842, 18553.087836872084, -16018.9811609961, 0.08600000000000001, 0.98, 0.136, 192.0, 0.0, 0.0, 0.0, 0.0, 0.0, 0.0, 0.0, 0.0, 0.0, 1.741985683795002E9, 0.0, 2025-03-14 15:54:43.795
36.0, 13587.938378803537, 22155.54084247838, -8307.83048961526, 2597.630333617966, 12136.2149281758, 7055.39519255104, 1703.0241135387557, 17984.16888525115, 46365.564628310756, -2432.227424648693, 21381.008193613077, 45331.461171085975, 9338.536481682835, -1075.2306670225462, 18554.8312729396, -16014.68962606068, 0.08600000000000001, 0.98, 0.136, 192.0, 0.0, 0.0, 0.0, 0.0, 0.0, 0.0, 0.0, 0.0, 0.0, 1.741985683795182E9, 0.0, 2025-03-14 15:54:43.795
38.0, 13591.291140471834, 22156.054932600848, -8295.69349237603, 2596.780967328664, 12141.132311955967, 7051.5506925047275, 1695.759796590781, 17983.475981173036, 46375.421747615546, -2424.6725350227994, 21417.709758008692, 45366.03931975834, 9344.683211408044, -1084.4395857381328, 18565.895386444972, -16016.366006894828, 0.088, 0.97, 0.14, 192.0, 1.0, 96.0, 15.0, 40.0, 2.0, 48.0, 0.0, 0.0, 0.0, 1.741985683795359E9, 0.0, 2025-03-14 15:54:43.795
40.0, 13585.725556102463, 22150.42229299811, -8317.553498453319, 2591.841231804041, 12136.326686898075, 7050.455457026417, 1697.1679564914652, 17982.917187561656, 46363.664730032055, -2419.464578564713, 21383.824513414445, 45347.77794453835, 9364.553912228814, -1070.1121175422809, 18562.05088639866, -16014.533163849494, 0.088, 0.97, 0.14, 192.0, 0.0, 0.0, 0.0, 0.0, 0.0, 0.0, 0.0, 0.0, 0.0, 1.741985683795557E9, 0.0, 2025-03-14 15:54:43.795
42.0, 13588.631282881652, 22146.95777260754, -8305.93059133656, 2585.649798589921, 12143.032210234667, 7045.292204057241, 1693.0999390005993, 17972.568329878846, 46361.83188698672, -2423.130264655383, 21401.594150256416, 45359.08792723274, 9365.179761073561, -1060.9702540600604, 18564.06254339964, -16019.025864485011, 0.088, 0.97, 0.14, 192.0, 0.0, 0.0, 0.0, 0.0, 0.0, 0.0, 0.0, 0.0, 0.0, 1.741985683795755E9, 0.0, 2025-03-14 15:54:43.795
44.0, 13580.897579300115, 22139.626400426198, -8330.897489893137, 2583.973417755773, 12142.83104453457, 7048.622613981082, 1687.7131685868703, 17977.306899703373, 46353.85231421618, -2440.676384052799, 21375.062629587967, 45334.34454612071, 9367.906673897109, -1108.2218418385794, 18562.319107332125, -16023.69737907617, 0.088, 0.97, 0.14, 192.0, 0.0, 0.0, 0.0, 0.0, 0.0, 0.0, 0.0, 0.0, 0.0, 1.741985683795944E9, 0.0, 2025-03-14 15:54:43.795
46.0, 13566.056020981792, 22125.94713281955, -8330.584565470763, 2579.36895839798, 12138.986544488258, 7042.386477278052, 1688.2943139427084, 17972.94830953459, 46351.997119426385, -2439.715259041221, 21377.856597644877, 45339.06076420078, 9380.513057769902, -1089.5134317294874, 18566.208310867347, -16026.334884921896, 0.088, 0.97, 0.14, 192.0, 0.0, 0.0, 0.0, 0.0, 0.0, 0.0, 0.0, 0.0, 0.0, 1.741985683854837E9, 0.0, 2025-03-14 15:54:43.854
48.0, 13572.426268151554, 22136.60891492473, -8322.269716533388, 2586.163888712393, 12145.334439913564, 7051.707154715915, 1709.14849151951, 17983.297167217395, 46341.00006115437, -2438.374154373903, 21375.576719710436, 45337.80906651128, 9377.987310646453, -1089.111100329292, 18557.804054952154, -16029.285315189996, 0.08600000000000001, 0.974, 0.132, 192.0, 1.0, 88.0, 15.0, 56.0, 2.0, 16.0, 0.0, 0.0, 0.0, 1.741985683855074E9, 0.0, 2025-03-14 15:54:43.855
50.0, 13575.3543466752, 22137.927667847594, -8292.54189640783, 2595.328103939069, 12155.146855729445, 7054.948157661934, 1708.8579188415908, 17994.540094678414, 46329.51126450435, -2438.0612299515283, 21399.42603104425, 45340.08894444573, 9355.434400491047, -1086.6747601836635, 18585.05083144317, -16016.097785961365, 0.08600000000000001, 0.974, 0.132, 192.0, 0.0, 0.0, 0.0, 0.0, 0.0, 0.0, 0.0, 0.0, 0.0, 1.741985683855276E9, 0.0, 2025-03-14 15:54:43.855
52.0, 13567.710050071484, 22129.85868809923, -8311.11619605019, 2579.6371793314433, 12142.942803256847, 7045.515721501794, 1703.7170176168702, 17981.88900731671, 46326.51613074734, -2434.507302583135, 21411.384214327838, 45358.57383711026, 9364.129229084163, -1080.5503822029093, 18577.33947960609, -16018.042387728978, 0.08600000000000001, 0.974, 0.132, 192.0, 0.0, 0.0, 0.0, 0.0, 0.0, 0.0, 0.0, 0.0, 0.0, 1.741985683855468E9, 0.0, 2025-03-14 15:54:43.855
54.0, 13556.891805755116, 22122.393205451157, -8314.536012951852, 2575.5691618405776, 12134.627954319472, 7043.258195311809, 1682.3487499175967, 17976.18931248061, 46308.43356948299, -2451.2711109246147, 21382.10342909139, 45322.989859937414, 9354.048592334819, -1090.8992398857165, 18558.787531708185, -16038.963620539143, 0.08600000000000001, 0.974, 0.132, 192.0, 0.0, 0.0, 0.0, 0.0, 0.0, 0.0, 0.0, 0.0, 0.0, 1.741985683855661E9, 0.0, 2025-03-14 15:54:43.855
56.0, 13567.844160538216, 22131.08803404427, -8324.482539234465, 2585.8956677789292, 12143.233375934766, 7051.841265182647, 1698.9560960478898, 17984.302995717884, 46316.21197655344, -2451.0922969689723, 21403.941083424223, 45354.12583996366, 9352.796894645322, -1081.2656380254791, 18570.477494058312, -16027.810100055945, 0.08600000000000001, 0.974, 0.132, 192.0, 0.0, 0.0, 0.0, 0.0, 0.0, 0.0, 0.0, 0.0, 0.0, 1.741985683855855E9, 0.0, 2025-03-14 15:54:43.855
58.0, 13575.086125741736, 22133.3232084898, -8307.11523379269, 2590.4107201589013, 12142.696934067839, 7053.763515205803, 1698.1514332474987, 17985.755859107478, 46313.57447070772, -2440.430514863791, 21372.22395804214, 45322.11814190366, 9368.912502397598, -1074.3142454998786, 18569.24814811327, -16029.21825995663, 0.082, 0.97, 0.136, 192.0, 1.0, 72.0, 15.0, 40.0, 2.0, 32.0, 0.0, 0.0, 0.0, 1.74198568385604E9, 0.0, 2025-03-14 15:54:43.856
60.0, 13566.503055870899, 22122.884943829173, -8329.511681736909, 2581.268856676681, 12148.016649248202, 7044.934576145956, 1710.62370665356, 17985.04060328491, 46312.25571778485, -2444.7667532881205, 21413.552333540003, 45367.536886636844, 9358.965976114987, -1072.302588498901, 18578.077087173115, -16035.052065259466, 0.082, 0.97, 0.136, 192.0, 0.0, 0.0, 0.0, 0.0, 0.0, 0.0, 0.0, 0.0, 0.0, 1.741985683856226E9, 0.0, 2025-03-14 15:54:43.856
62.0, 13567.598291349208, 22117.94520830455, -8336.954812640526, 2579.03368223115, 12146.004992247224, 7046.476846513373, 1698.5537646476944, 17981.039641027408, 46295.15663327654, -2458.289558683581, 21349.22401299763, 45306.67308648504, 9398.90854345662, -1080.818603136373, 18559.927470675408, -16041.310553706951, 0.082, 0.97, 0.136, 192.0, 0.0, 0.0, 0.0, 0.0, 0.0, 0.0, 0.0, 0.0, 0.0, 1.741985683914931E9, 0.0, 2025-03-14 15:54:43.914
64.0, 13584.4068031796, 22129.389301465668, -8286.64103587163, 2589.4048916584125, 12156.845588308048, 7050.410753537507, 1711.5848316651384, 17990.22620799854, 46296.36362747713, -2446.8007620335534, 21420.414319087784, 45366.57576162527, 9324.454882675993, -1072.0343675654374, 18583.329747120115, -16034.113291992342, 0.082, 0.97, 0.136, 192.0, 0.0, 0.0, 0.0, 0.0, 0.0, 0.0, 0.0, 0.0, 0.0, 1.741985683915147E9, 0.0, 2025-03-14 15:54:43.915
66.0, 13582.01516652288, 22124.829545596785, -8300.566172667286, 2585.0463014896277, 12152.911681283913, 7046.745067446836, 1707.047427540711, 17986.784039352424, 46304.72317990341, -2443.000965476151, 21373.90033887629, 45318.22893836843, 9350.89699636662, -1060.59027440432, 18582.323918619626, -16034.403864670261, 0.082, 0.97, 0.136, 192.0, 0.0, 0.0, 0.0, 0.0, 0.0, 0.0, 0.0, 0.0, 0.0, 1.741985683915346E9, 0.0, 2025-03-14 15:54:43.915
68.0, 13577.164837976079, 22117.69933911554, -8325.086036334758, 2580.3077316651024, 12149.804788804626, 7042.230015066864, 1701.660657126982, 17989.533303920427, 46297.77178737781, -2444.632642821389, 21429.37736861436, 45368.69917734852, 9359.100086581719, -1082.115004314781, 18569.426962068912, -16040.08120776191, 0.08, 0.972, 0.136, 192.0, 1.0, 64.0, 15.0, 48.0, 2.0, 32.0, 0.0, 0.0, 0.0, 1.741985683915526E9, 0.0, 2025-03-14 15:54:43.915
70.0, 13573.186227463035, 22113.85483906923, -8304.924762836072, 2584.9568945118067, 12160.35481218753, 7046.074515113177, 1708.9249740749567, 17982.291338716906, 46287.24411573936, -2454.690927826277, 21369.89937661879, 45306.76249346286, 9359.033031348352, -1078.8069461353955, 18561.33563057609, -16041.243498473586, 0.08, 0.972, 0.136, 192.0, 0.0, 0.0, 0.0, 0.0, 0.0, 0.0, 0.0, 0.0, 0.0, 1.741985683915731E9, 0.0, 2025-03-14 15:54:43.915
72.0, 13585.233817724446, 22125.455394441535, -8304.097748291224, 2593.9199440383845, 12156.018573763202, 7051.103657615621, 1710.9366310759344, 17988.527475419938, 46293.50260418685, -2439.648203807855, 21430.38319711485, 45372.52132565038, 9364.218636061983, -1076.8399926233283, 18575.864264472042, -16034.31445769244, 0.08, 0.972, 0.136, 192.0, 0.0, 0.0, 0.0, 0.0, 0.0, 0.0, 0.0, 0.0, 0.0, 1.741985683915948E9, 0.0, 2025-03-14 15:54:43.915
74.0, 13586.820791580772, 22123.823717096297, -8321.733274666462, 2583.593438100033, 12152.330535928075, 7041.604166222116, 1706.823910096158, 17977.910396803665, 46282.930229059486, -2439.916424741319, 21381.9469668802, 45323.23572912643, 9370.208903576005, -1074.0907280553256, 18578.21119763985, -16035.119120492831, 0.08, 0.972, 0.136, 192.0, 0.0, 0.0, 0.0, 0.0, 0.0, 0.0, 0.0, 0.0, 0.0, 1.741985683916151E9, 0.0, 2025-03-14 15:54:43.916
76.0, 13595.31445447379, 22130.305722988334, -8301.572001167775, 2591.03656900365, 12159.125466242489, 7054.63523323956, 1716.3457532341188, 17992.774306866446, 46301.795101379765, -2444.520884099112, 21433.825365760968, 45368.229790714955, 9369.359537286704, -1073.9119140996831, 18567.97409867932, -16041.89169906279, 0.082, 0.972, 0.136, 192.0, 1.0, 80.0, 15.0, 48.0, 2.0, 32.0, 0.0, 0.0, 0.0, 1.74198568397514E9, 0.0, 2025-03-14 15:54:43.975
78.0, 13582.283387456346, 22120.00156879444, -8317.017056586392, 2585.4486328898233, 12143.456893379318, 7044.733410445859, 1696.3856454355296, 17982.045469527897, 46285.657141883035, -2435.2449101501597, 21386.37261228235, 45323.5486535488, 9369.739516942444, -1071.4532222095993, 18568.62229926852, -16035.387341426294, 0.082, 0.972, 0.136, 192.0, 0.0, 0.0, 0.0, 0.0, 0.0, 0.0, 0.0, 0.0, 0.0, 1.741985683975369E9, 0.0, 2025-03-14 15:54:43.975
80.0, 13591.000567793915, 22127.444699698055, -8295.715844120485, 2590.7012928368204, 12151.950556272335, 7043.995802878833, 1695.1339477460324, 17977.55276889238, 46282.72906335939, -2443.8056282765424, 21420.257856876597, 45363.58062786825, 9353.288633023338, -1070.2238762645575, 18571.90800570345, -16040.975277540121, 0.082, 0.972, 0.136, 192.0, 0.0, 0.0, 0.0, 0.0, 0.0, 0.0, 0.0, 0.0, 0.0, 1.741985683975564E9, 0.0, 2025-03-14 15:54:43.975
82.0, 13593.2580939839, 22134.977237579496, -8318.134643809157, 2589.829574803063, 12158.276099953187, 7049.047297125733, 1715.5410904337277, 17985.062955029363, 46285.74654886086, -2433.43441884928, 21381.969318624655, 45330.5000460744, 9356.507284224903, -1065.977044818049, 18576.646575527975, -16033.532146636504, 0.082, 0.972, 0.136, 192.0, 0.0, 0.0, 0.0, 0.0, 0.0, 0.0, 0.0, 0.0, 0.0, 1.741985683975745E9, 0.0, 2025-03-14 15:54:43.975
84.0, 13587.044309025325, 22123.309626973823, -8304.589486669242, 2580.754766554209, 12151.592928361051, 7045.314555801697, 1695.7821483352363, 17977.999803781488, 46282.3267319592, -2443.7385730431765, 21420.19080164323, 45357.813877798784, 9383.597598504735, -1065.5970651623088, 18571.773895236718, -16037.711922849647, 0.082, 0.972, 0.136, 192.0, 0.0, 0.0, 0.0, 0.0, 0.0, 0.0, 0.0, 0.0, 0.0, 1.741985683975923E9, 0.0, 2025-03-14 15:54:43.975
86.0, 13583.378622934655, 22122.214391495516, -8330.070475348291, 2576.9996734857173, 12151.525873127684, 7054.814047195202, 1709.081436286144, 17988.92980682013, 46274.07893825519, -2444.1856079322824, 21375.12968482133, 45319.63709826912, 9369.113668097696, -1082.0479490814148, 18564.755447477753, -16044.8868328198, 0.082, 0.97, 0.135, 192.0, 1.0, 72.0, 15.0, 32.0, 2.0, 24.0, 0.0, 0.0, 0.0, 1.741985683976111E9, 0.0, 2025-03-14 15:54:43.976
88.0, 13593.54866666182, 22129.99279856596, -8307.294047748333, 2585.6721503343765, 12164.400477933941, 7055.775172206781, 1712.858881099091, 17989.622710898246, 46279.95744704693, -2440.8104945195314, 21409.37255732686, 45346.906226504594, 9364.41980176208, -1070.4026902202, 18570.365735336036, -16035.633210615304, 0.082, 0.97, 0.135, 192.0, 0.0, 0.0, 0.0, 0.0, 0.0, 0.0, 0.0, 0.0, 0.0, 1.741985683976319E9, 0.0, 2025-03-14 15:54:43.976
90.0, 13593.056928283802, 22127.95878982053, -8328.684667192063, 2578.4748886197676, 12153.135198728467, 7052.6682797274925, 1706.2204129958645, 17979.989109038008, 46289.7251593739, -2437.949471229252, 21389.61361522837, 45328.01900243986, 9378.769621702388, -1075.141260044725, 18571.148046391972, -16037.801329827469, 0.082, 0.97, 0.135, 192.0, 0.0, 0.0, 0.0, 0.0, 0.0, 0.0, 0.0, 0.0, 0.0, 1.741985683976494E9, 0.0, 2025-03-14 15:54:43.976
92.0, 13584.742079346428, 22117.632283882176, -8306.757605881407, 2576.396176385424, 12153.939861528857, 7039.480750498861, 1703.2476309833087, 17972.300108945383, 46274.28010395529, -2446.5101893556343, 21408.970225926667, 45344.44753461451, 9366.878493652164, -1079.0751670688592, 18561.849720698563, -16051.078266033921, 0.082, 0.97, 0.135, 192.0, 0.0, 0.0, 0.0, 0.0, 0.0, 0.0, 0.0, 0.0, 0.0, 1.741985684035506E9, 0.0, 2025-03-14 15:54:44.035
94.0, 13575.846085053217, 22106.5681703768, -8332.84209166075, 2561.755783767198, 12150.296527182643, 7031.858805639602, 1704.1193490170658, 17972.098943245288, 46259.72911831488, -2453.0592504810397, 21384.226844814642, 45328.041354184315, 9351.209920788995, -1084.7078066715965, 18563.19082536588, -16054.811007357957, 0.082, 0.97, 0.135, 192.0, 0.0, 0.0, 0.0, 0.0, 0.0, 0.0, 0.0, 0.0, 0.0, 1.74198568403572E9, 0.0, 2025-03-14 15:54:44.035
96.0, 13588.228951481457, 22118.5710571493, -8297.459280187999, 2578.363129897491, 12168.468495424808, 7044.129913345566, 1712.7694741212697, 17988.169847508652, 46263.32774917218, -2458.937759272785, 21390.32887105094, 45325.225034382944, 9353.46744697898, -1087.591181706331, 18555.323011317614, -16062.500007450582, 0.08, 0.969, 0.1305, 192.0, 1.0, 56.0, 15.0, 32.0, 1.5, 120.0, 0.0, 0.0, 0.0, 1.74198568403592E9, 0.0, 2025-03-14 15:54:44.035
98.0, 13585.233817724446, 22121.275618228392, -8320.347466510233, 2576.195010685326, 12165.272195967698, 7048.019116880789, 1718.4468172129175, 17985.107658518275, 46280.80681333623, -2448.6559568233442, 21404.633987502337, 45337.09381068871, 9361.670537194079, -1065.5747134178537, 18582.256863386257, -16040.058856017455, 0.08, 0.969, 0.1305, 192.0, 0.0, 0.0, 0.0, 0.0, 0.0, 0.0, 0.0, 0.0, 0.0, 1.741985684036109E9, 0.0, 2025-03-14 15:54:44.036
100.0, 13583.289215956835, 22114.123060002694, -8322.850861889227, 2571.679958305354, 12145.602660847027, 7037.849073153624, 1703.7393693613255, 17977.306899703373, 46259.997339248344, -2449.795895790565, 21377.163693566763, 45324.465075071465, 9379.641339736145, -1081.5785624478535, 18560.35215382006, -16050.631231144815, 0.08, 0.969, 0.1305, 192.0, 0.0, 0.0, 0.0, 0.0, 0.0, 0.0, 0.0, 0.0, 0.0, 1.741985684036299E9, 0.0, 2025-03-14 15:54:44.036
102.0, 13578.170666476568, 22108.445716911046, -8333.512643994409, 2566.673167547365, 12151.83879755006, 7038.586680720649, 1706.3321717181411, 17976.7928095809, 46267.753394574334, -2447.0242794781066, 21405.125725880353, 45344.13461019214, 9352.886301623143, -1070.0897657978255, 18564.956613177852, -16054.900414335778, 0.08, 0.969, 0.1305, 192.0, 0.0, 0.0, 0.0, 0.0, 0.0, 0.0, 0.0, 0.0, 0.0, 1.741985684036487E9, 0.0, 2025-03-14 15:54:44.036
104.0, 13576.740154831428, 22104.690623842554, -8323.677876434074, 2570.7635367826865, 12150.989431260758, 7042.051201111222, 1705.7733781067584, 17984.191236995608, 46257.78451654727, -2458.9601110172407, 21370.36876325235, 45308.885909186116, 9358.965976114987, -1096.9342108886494, 18553.75838920574, -16054.095751535388, 0.08, 0.969, 0.1305, 192.0, 0.0, 0.0, 0.0, 0.0, 0.0, 0.0, 0.0, 0.0, 0.0, 1.741985684036674E9, 0.0, 2025-03-14 15:54:44.036
106.0, 13573.54385537432, 22105.13765873166, -8327.812949158306, 2571.9258274943627, 12149.69303008235, 7042.073552855677, 1700.0066280372894, 17977.575120636837, 46261.96429276041, -2456.1437912158717, 21403.158772368286, 45346.34743289321, 9347.790103887333, -1086.0489113389149, 18558.67577298591, -16049.580699155415, 0.081, 0.9744999999999999, 0.13125, 192.0, 1.0, 72.0, 15.0, 80.0, 2.0, 16.0, 0.0, 0.0, 0.0, 1.741985684095804E9, 0.0, 2025-03-14 15:54:44.095
108.0, 13575.711974586484, 22104.19888546454, -8314.40190248512, 2572.2164001722813, 12153.492826639751, 7039.883081899057, 1694.8657268125687, 17973.909434546167, 46242.42886810647, -2457.462544138735, 21368.357106251373, 45315.323211589246, 9358.161313314595, -1083.2772950264568, 18556.61941249602, -16046.74202760959, 0.081, 0.9744999999999999, 0.13125, 192.0, 0.0, 0.0, 0.0, 0.0, 0.0, 0.0, 0.0, 0.0, 0.0, 1.741985684096038E9, 0.0, 2025-03-14 15:54:44.096
110.0, 13577.254244953901, 22107.216370966, -8323.208489800512, 2572.7751937836642, 12151.101189983034, 7046.25332906882, 1703.7393693613255, 17980.391440438205, 46263.283045683274, -2457.171971460816, 21421.57660979946, 45351.13070620665, 9348.862987621187, -1085.7583386609958, 18554.18307235039, -16046.362047953851, 0.081, 0.9744999999999999, 0.13125, 192.0, 0.0, 0.0, 0.0, 0.0, 0.0, 0.0, 0.0, 0.0, 0.0, 1.741985684096243E9, 0.0, 2025-03-14 15:54:44.096
112.0, 13578.55064613231, 22108.937455289062, -8309.618629171686, 2578.6089990864994, 12158.767838331205, 7047.0132883803, 1714.848186355613, 17984.437106184614, 46262.25486543833, -2456.2555499381483, 21380.51645523506, 45310.45053129799, 9354.249758034915, -1076.4153094786775, 18565.828331211607, -16039.65652461726, 0.081, 0.9744999999999999, 0.13125, 192.0, 0.0, 0.0, 0.0, 0.0, 0.0, 0.0, 0.0, 0.0, 0.0, 1.741985684096424E9, 0.0, 2025-03-14 15:54:44.096
114.0, 13575.242587952924, 22104.93649303156, -8327.343562524744, 2570.584722827044, 12151.63763184996, 7041.023020866278, 1710.4448926979176, 17980.838475327313, 46246.161609430506, -2454.0874307259837, 21425.108185423396, 45357.56800860978, 9354.965013857487, -1083.1655363041803, 18555.6806392289, -16054.542786424494, 0.081, 0.9744999999999999, 0.13125, 192.0, 0.0, 0.0, 0.0, 0.0, 0.0, 0.0, 0.0, 0.0, 0.0, 1.741985684096615E9, 0.0, 2025-03-14 15:54:44.096
116.0, 13590.732346860452, 22120.13567926117, -8300.49911743392, 2585.6721503343765, 12172.357698960031, 7053.472942527884, 1712.881232843546, 17992.21551325506, 46267.35106317414, -2449.5723783460116, 21382.997498869598, 45310.18231036452, 9358.362479014693, -1079.4104432356887, 18561.737961976287, -16041.578774640415, 0.0805, 0.97825, 0.128625, 192.0, 1.0, 64.0, 15.0, 88.0, 1.5, 120.0, 0.0, 0.0, 0.0, 1.741985684096808E9, 0.0, 2025-03-14 15:54:44.096
118.0, 13589.614759637685, 22120.00156879444, -8309.909201849605, 2584.487507878245, 12146.027343991678, 7052.10948611611, 1697.078549513644, 17977.731582848024, 46263.68537708347, -2438.7988375185537, 21442.117862953888, 45371.71666284998, 9347.834807376243, -1075.0295013224486, 18566.588290523086, -16044.864481075345, 0.0805, 0.97825, 0.128625, 192.0, 0.0, 0.0, 0.0, 0.0, 0.0, 0.0, 0.0, 0.0, 0.0, 1.741985684097015E9, 0.0, 2025-03-14 15:54:44.097
120.0, 13583.535085145842, 22114.145411747148, -8314.983047840959, 2580.6653595763873, 12144.239204435255, 7051.215416337898, 1687.9143342869681, 17972.434219412116, 46263.95359801693, -2434.9543374722407, 21386.394964026807, 45317.91601394606, 9358.496589481425, -1068.5698471748647, 18563.414342810436, -16044.775074097524, 0.0805, 0.97825, 0.128625, 192.0, 0.0, 0.0, 0.0, 0.0, 0.0, 0.0, 0.0, 0.0, 0.0, 1.741985684097204E9, 0.0, 2025-03-14 15:54:44.097
122.0, 13580.49524789992, 22106.501115143434, -8327.902356136126, 2571.679958305354, 12152.509349883718, 7039.05606735421, 1697.2797152137418, 17966.041620497897, 46255.8175630352, -2455.3838319043916, 21434.987656472644, 45358.95381676601, 9350.584071944246, -1068.5027919414988, 18552.797264194163, -16059.169597526741, 0.0805, 0.97825, 0.128625, 192.0, 0.0, 0.0, 0.0, 0.0, 0.0, 0.0, 0.0, 0.0, 0.0, 1.741985684154986E9, 0.0, 2025-03-14 15:54:44.154
124.0, 13583.624492123663, 22110.882057056675, -8305.796480869827, 2575.7032723073094, 12157.02440226369, 7043.660526712004, 1718.8938521020236, 17982.023117783443, 46250.564903088205, -2455.584997604489, 21377.32015577795, 45302.96269690546, 9345.84550211972, -1092.039178852937, 18562.944956176874, -16057.716734137148, 0.0805, 0.97825, 0.128625, 192.0, 0.0, 0.0, 0.0, 0.0, 0.0, 0.0, 0.0, 0.0, 0.0, 1.741985684155216E9, 0.0, 2025-03-14 15:54:44.155
126.0, 13583.333919445744, 22108.75864133342, -8320.570983954785, 2568.8412867595302, 12155.191559218354, 7040.017192365789, 1709.7072851308926, 17975.69757410259, 46248.15091468703, -2450.488799868679, 21430.897287237323, 45357.12097372067, 9345.689039908533, -1077.7340624015405, 18566.52123528972, -16057.247347503586, 0.08025, 0.975125, 0.1283125, 192.0, 1.0, 64.0, 15.0, 48.0, 2.0, 0.0, 0.0, 0.0, 0.0, 1.741985684155398E9, 0.0, 2025-03-14 15:54:44.155
128.0, 13578.572997876765, 22098.61094935071, -8323.946097367538, 2566.8743332474633, 12148.35192541503, 7040.173654576976, 1703.33703796113, 17972.88125430122, 46247.23449316436, -2462.0223000076176, 21367.46303647316, 45302.13568236061, 9342.693906151522, -1086.339484016834, 18550.785607193186, -16065.472789463138, 0.08025, 0.975125, 0.1283125, 192.0, 0.0, 0.0, 0.0, 0.0, 0.0, 0.0, 0.0, 0.0, 0.0, 1.741985684155581E9, 0.0, 2025-03-14 15:54:44.155
130.0, 13587.804268336806, 22104.75767907592, -8300.387358711643, 2578.6313508309545, 12165.473361667797, 7044.353430790118, 1714.2446892553198, 17977.79863808139, 46258.20919969192, -2452.679270825299, 21425.979903457155, 45351.91301726258, 9344.504397452403, -1080.9974170920154, 18573.383220837502, -16055.28039399152, 0.08025, 0.975125, 0.1283125, 192.0, 0.0, 0.0, 0.0, 0.0, 0.0, 0.0, 0.0, 0.0, 0.0, 1.741985684155773E9, 0.0, 2025-03-14 15:54:44.155
132.0, 13572.202750707002, 22090.161989946606, -8329.355219525722, 2568.8412867595302, 12149.983602760269, 7042.609994722605, 1709.886099086535, 17977.396306681196, 46247.03332746426, -2457.753116816654, 21377.52132147805, 45311.903394687586, 9342.269223006871, -1082.2491147815126, 18569.82929346911, -16054.095751535388, 0.08025, 0.975125, 0.1283125, 192.0, 0.0, 0.0, 0.0, 0.0, 0.0, 0.0, 0.0, 0.0, 0.0, 1.741985684155959E9, 0.0, 2025-03-14 15:54:44.155
134.0, 13579.3553089327, 22092.061888225304, -8302.108443034702, 2580.911228765396, 12163.662870366916, 7044.6216517235825, 1717.4856922013394, 17981.106696260777, 46250.29668215474, -2466.425593665313, 21415.921618452267, 45336.44561009951, 9333.976725813953, -1081.1985827921133, 18574.210235382347, -16053.358143968362, 0.08025, 0.975125, 0.1283125, 192.0, 0.0, 0.0, 0.0, 0.0, 0.0, 0.0, 0.0, 0.0, 0.0, 1.741985684156156E9, 0.0, 2025-03-14 15:54:44.156
136.0, 13575.06377399728, 22088.820885279285, -8316.97235309748, 2578.9442752533287, 12151.347059172042, 7049.293166314741, 1713.2612124992863, 17981.441972427605, 46254.05177522323, -2467.7666983326317, 21378.303632533985, 45309.936441175516, 9360.530598226858, -1083.4561089820993, 18572.15387489246, -16047.501986921072, 0.081125, 0.9725625, 0.13015625, 192.0, 1.0, 72.0, 15.0, 40.0, 2.0, 16.0, 0.0, 0.0, 0.0, 1.741985684214951E9, 0.0, 2025-03-14 15:54:44.214
138.0, 13578.997681021416, 22089.37967889067, -8287.40099518311, 2582.1852781993484, 12159.371335431497, 7043.749933689825, 1706.7121513738814, 17975.429353169126, 46258.00803399182, -2456.367308660425, 21422.224810388663, 45340.96066247948, 9333.060304291284, -1080.3492165028115, 18570.522197547223, -16048.150187510275, 0.081125, 0.9725625, 0.13015625, 192.0, 0.0, 0.0, 0.0, 0.0, 0.0, 0.0, 0.0, 0.0, 0.0, 1.7419856842153E9, 0.0, 2025-03-14 15:54:44.215
140.0, 13570.034631494837, 22079.07552469677, -8327.857652647215, 2574.4068711289015, 12153.448123150842, 7042.051201111222, 1702.5547269051942, 17978.42448692614, 46250.140219943554, -2464.883323297897, 21391.55821699598, 45315.36791507815, 9342.246871262416, -1087.8370508953394, 18561.022706153715, -16050.273603233529, 0.081125, 0.9725625, 0.13015625, 192.0, 0.0, 0.0, 0.0, 0.0, 0.0, 0.0, 0.0, 0.0, 0.0, 1.741985684215592E9, 0.0, 2025-03-14 15:54:44.215
142.0, 13575.086125741736, 22081.93654798705, -8296.341692965234, 2583.235810188748, 12155.526835385184, 7036.709134186403, 1704.7451978618144, 17969.953175777577, 46254.29764441224, -2465.2633029536373, 21412.390042828327, 45327.81783673976, 9337.150673526607, -1088.5746584623646, 18567.124732390017, -16048.440760188194, 0.081125, 0.9725625, 0.13015625, 192.0, 0.0, 0.0, 0.0, 0.0, 0.0, 0.0, 0.0, 0.0, 0.0, 1.74198568421589E9, 0.0, 2025-03-14 15:54:44.215
144.0, 13567.106552971192, 22074.26989963888, -8321.845033388738, 2568.036623959139, 12151.905852783424, 7029.891852127535, 1699.0231512812557, 17969.014402510453, 46247.18978967545, -2466.403241920858, 21389.971243139655, 45319.41358082457, 9332.345048468715, -1084.7301584160518, 18579.887578473998, -16052.46407419015, 0.081125, 0.9725625, 0.13015625, 192.0, 0.0, 0.0, 0.0, 0.0, 0.0, 0.0, 0.0, 0.0, 0.0, 1.741985684216172E9, 0.0, 2025-03-14 15:54:44.216
146.0, 13571.107515228692, 22074.716934527987, -8317.240574030946, 2567.611940814488, 12150.698858582839, 7028.573099204672, 1690.305970943686, 17971.674260100634, 46241.80301926172, -2478.0932042709833, 21379.75649592358, 45304.08028412823, 9342.001002073408, -1097.0683213553812, 18557.982868907795, -16070.591338943404, 0.07956250000000001, 0.96828125, 0.131078125, 192.0, 1.0, 56.0, 15.0, 16.0, 2.0, 16.0, 0.0, 0.0, 0.0, 1.741985684216455E9, 0.0, 2025-03-14 15:54:44.216
148.0, 13575.242587952924, 22080.617795064187, -8319.699265921028, 2565.779097769153, 12156.711477841316, 7036.552671975216, 1703.046465283211, 17976.144608991697, 46246.67569955298, -2468.9066372998523, 21387.46784776066, 45315.63613601162, 9325.661876876578, -1092.3744550197669, 18573.316165604134, -16065.115161551854, 0.07956250000000001, 0.96828125, 0.131078125, 192.0, 0.0, 0.0, 0.0, 0.0, 0.0, 0.0, 0.0, 0.0, 0.0, 1.741985684216757E9, 0.0, 2025-03-14 15:54:44.216
150.0, 13569.565244861275, 22073.487588582946, -8309.193946027035, 2564.415641357379, 12154.319841184599, 7028.170767804476, 1699.827814081647, 17970.310803688863, 46246.13925768605, -2467.2079047212487, 21384.76328668157, 45305.734313217916, 9336.882452593143, -1087.792347406429, 18573.897310959972, -16066.36685924135, 0.07956250000000001, 0.96828125, 0.131078125, 192.0, 0.0, 0.0, 0.0, 0.0, 0.0, 0.0, 0.0, 0.0, 0.0, 1.741985684217026E9, 0.0, 2025-03-14 15:54:44.217
152.0, 13564.983137247937, 22074.716934527987, -8333.847920161239, 2562.9180744788737, 12154.163378973411, 7034.920994629979, 1691.6470756110043, 17964.633460597215, 46245.938091985954, -2467.1184977434277, 21398.442554288216, 45320.21824362496, 9341.062228806286, -1094.0955393428253, 18559.10045613056, -16073.698231422692, 0.07956250000000001, 0.96828125, 0.131078125, 192.0, 0.0, 0.0, 0.0, 0.0, 0.0, 0.0, 0.0, 0.0, 0.0, 1.741985684275174E9, 0.0, 2025-03-14 15:54:44.275
154.0, 13566.547759359808, 22078.293213640834, -8313.083149562259, 2570.27179840467, 12151.995259761246, 7035.211567307898, 1694.2398779678201, 17968.723829832536, 46236.19273140344, -2461.4411546517795, 21379.24240580111, 45293.41850202304, 9344.258528263394, -1087.8370508953394, 18551.254993826748, -16069.250234276085, 0.07956250000000001, 0.96828125, 0.131078125, 192.0, 0.0, 0.0, 0.0, 0.0, 0.0, 0.0, 0.0, 0.0, 0.0, 1.741985684275492E9, 0.0, 2025-03-14 15:54:44.275
156.0, 13573.342689674222, 22091.547798102834, -8314.983047840959, 2579.2124961867926, 12156.59971911904, 7041.2241865663755, 1708.3214769746635, 17981.263158471964, 46248.06150770921, -2451.6063870914445, 21414.021720173565, 45332.3999443531, 9349.533539954846, -1086.2724287834678, 18557.938165418884, -16058.879024848822, 0.07878125, 0.974140625, 0.1305390625, 192.0, 1.0, 56.0, 15.0, 80.0, 2.0, 8.0, 0.0, 0.0, 0.0, 1.741985684275793E9, 0.0, 2025-03-14 15:54:44.275
158.0, 13571.129866973146, 22092.866551025698, -8303.74012037994, 2583.03464448865, 12162.433524421875, 7044.420486023484, 1711.562479920683, 17981.777248594433, 46245.78162977477, -2450.0641167240283, 21390.91001640678, 45305.935478918014, 9360.441191249036, -1085.557172960898, 18560.866243942528, -16049.535995666505, 0.07878125, 0.974140625, 0.1305390625, 192.0, 0.0, 0.0, 0.0, 0.0, 0.0, 0.0, 0.0, 0.0, 0.0, 1.741985684276072E9, 0.0, 2025-03-14 15:54:44.276
160.0, 13572.582730362741, 22100.980234262974, -8321.93444036656, 2579.74893805372, 12162.433524421875, 7049.159055848009, 1714.334096233141, 17985.778210851935, 46246.40747861952, -2444.1185526989166, 21426.33753136844, 45337.8537700002, 9366.252644807417, -1081.5785624478535, 18553.065485127627, -16046.764379354046, 0.07878125, 0.974140625, 0.1305390625, 192.0, 0.0, 0.0, 0.0, 0.0, 0.0, 0.0, 0.0, 0.0, 0.0, 1.741985684276372E9, 0.0, 2025-03-14 15:54:44.276
162.0, 13574.862608297182, 22109.004510522427, -8303.270733746378, 2585.649798589921, 12162.165303488411, 7038.899605143024, 1707.4497589409066, 17977.061030514364, 46245.5134088413, -2441.7716195311095, 21383.42218201425, 45289.43989151, 9370.007737875907, -1084.3054752714008, 18562.073238143115, -16041.60112638487, 0.07878125, 0.974140625, 0.1305390625, 192.0, 0.0, 0.0, 0.0, 0.0, 0.0, 0.0, 0.0, 0.0, 0.0, 1.741985684276666E9, 0.0, 2025-03-14 15:54:44.276
164.0, 13571.711012328984, 22113.966597791507, -8318.626382187174, 2577.9607984972954, 12151.101189983034, 7030.227128294365, 1698.5984681366049, 17978.782114837424, 46241.84772275064, -2444.3867736323805, 21430.852583748412, 45337.16086592208, 9372.108801854707, -1086.853574139306, 18567.10238064556, -16044.730370608613, 0.07878125, 0.974140625, 0.1305390625, 192.0, 0.0, 0.0, 0.0, 0.0, 0.0, 0.0, 0.0, 0.0, 0.0, 1.741985684276979E9, 0.0, 2025-03-14 15:54:44.276
166.0, 13570.012279750381, 22119.263961227414, -8307.338751237245, 2579.1901444423374, 12156.823236563592, 7029.847148638624, 1700.2524972262977, 17978.290376459405, 46250.52019959929, -2441.883378253386, 21380.13647557932, 45291.608010722164, 9369.136019842152, -1088.3958445067221, 18561.603851509553, -16042.60695488536, 0.080390625, 0.9750703125, 0.13326953125000002, 192.0, 1.0, 72.0, 15.0, 64.0, 2.0, 32.0, 0.0, 0.0, 0.0, 1.74198568433558E9, 0.0, 2025-03-14 15:54:44.335
168.0, 13565.92191051506, 22121.81206009532, -8312.189079784046, 2579.9277520093624, 12160.846550565548, 7029.645982938527, 1700.2972007152082, 17976.144608991697, 46248.53089434277, -2446.53254110009, 21427.633932546847, 45341.85473225769, 9365.023298862374, -1091.7933096639288, 18562.922604432417, -16047.323172965429, 0.080390625, 0.9750703125, 0.13326953125000002, 192.0, 0.0, 0.0, 0.0, 0.0, 0.0, 0.0, 0.0, 0.0, 0.0, 1.741985684335919E9, 0.0, 2025-03-14 15:54:44.335
170.0, 13564.267881425367, 22123.309626973823, -8303.807175613305, 2579.5030688647116, 12164.556940145128, 7041.470055755384, 1707.5838694076383, 17986.493466674503, 46251.66013856651, -2443.269186409615, 21376.26962378855, 45289.86457465465, 9361.648185449623, -1093.201469564613, 18564.82250271112, -16045.60208864237, 0.080390625, 0.9750703125, 0.13326953125000002, 192.0, 0.0, 0.0, 0.0, 0.0, 0.0, 0.0, 0.0, 0.0, 0.0, 1.741985684336203E9, 0.0, 2025-03-14 15:54:44.336
172.0, 13562.144465702113, 22123.108461273725, -8304.924762836072, 2581.671188076876, 12163.081725011078, 7039.257233054309, 1709.5731746641607, 17982.671318372646, 46254.31999615669, -2439.402334618847, 21431.590191315438, 45340.35716537919, 9367.750211685921, -1088.753472418007, 18569.96340393584, -16037.242536216085, 0.080390625, 0.9750703125, 0.13326953125000002, 192.0, 0.0, 0.0, 0.0, 0.0, 0.0, 0.0, 0.0, 0.0, 0.0, 1.741985684336475E9, 0.0, 2025-03-14 15:54:44.336
174.0, 13552.10853244168, 22112.62549312419, -8313.17255654008, 2572.7751937836642, 12155.996222018746, 7028.975430604867, 1698.7102268588815, 17978.22332122604, 46246.63099606407, -2448.3430324009696, 21369.854673129877, 45280.09686232768, 9360.41883950458, -1098.9905713785377, 18556.99939215176, -16047.054952031966, 0.080390625, 0.9750703125, 0.13326953125000002, 192.0, 0.0, 0.0, 0.0, 0.0, 0.0, 0.0, 0.0, 0.0, 0.0, 1.741985684336747E9, 0.0, 2025-03-14 15:54:44.336
176.0, 13553.092009197713, 22113.452507669033, -8304.187155269046, 2580.061862476094, 12162.969966288802, 7041.671221455482, 1707.919145574468, 17986.404059696684, 46240.081934938666, -2450.6005585909556, 21427.09749067992, 45330.902377474595, 9355.210883046495, -1098.1188533447807, 18558.742828219274, -16040.483539162105, 0.0811953125, 0.97453515625, 0.134634765625, 192.0, 1.0, 72.0, 15.0, 56.0, 2.0, 32.0, 0.0, 0.0, 0.0, 1.741985684337029E9, 0.0, 2025-03-14 15:54:44.337
178.0, 13551.30386964129, 22108.89275180015, -8313.284315262355, 2573.132821694949, 12153.939861528857, 7031.635288195049, 1707.181538007443, 17980.682013116126, 46238.80788550471, -2450.980538246696, 21370.100542318887, 45279.314551271746, 9353.310984767793, -1104.913783659194, 18554.473645028313, -16038.404826927761, 0.0811953125, 0.97453515625, 0.134634765625, 192.0, 0.0, 0.0, 0.0, 0.0, 0.0, 0.0, 0.0, 0.0, 0.0, 1.741985684337337E9, 0.0, 2025-03-14 15:54:44.337
180.0, 13556.735343543929, 22112.55843789082, -8300.633227900653, 2584.979246256262, 12167.954405302335, 7039.301936543219, 1716.4575119563954, 17988.192199253106, 46239.07610643817, -2451.762849302632, 21422.604790044403, 45325.56031054978, 9348.281842265349, -1103.4385685251439, 18556.887633429484, -16040.103559506364, 0.0811953125, 0.97453515625, 0.134634765625, 192.0, 0.0, 0.0, 0.0, 0.0, 0.0, 0.0, 0.0, 0.0, 0.0, 1.741985684337608E9, 0.0, 2025-03-14 15:54:44.337
182.0, 13557.271785410856, 22110.7702983344, -8306.3105709923, 2584.8004323006194, 12168.803771591636, 7044.6216517235825, 1717.3962852235181, 17989.399193453693, 46247.01097571981, -2442.8221515205087, 21378.460094745173, 45293.41850202304, 9349.980574843952, -1096.2860102994455, 18564.86720620003, -16025.038483743489, 0.0811953125, 0.97453515625, 0.134634765625, 192.0, 0.0, 0.0, 0.0, 0.0, 0.0, 0.0, 0.0, 0.0, 0.0, 1.741985684395843E9, 0.0, 2025-03-14 15:54:44.395
184.0, 13554.187244676024, 22101.09199298525, -8297.839259843739, 2582.4311473883567, 12170.681318125882, 7036.709134186403, 1709.081436286144, 17979.60912938227, 46244.30641464072, -2448.7006603122545, 21416.726281252657, 45322.654583770585, 9343.520920696368, -1102.2539260690126, 18568.644651012975, -16028.860632045345, 0.0811953125, 0.97453515625, 0.134634765625, 192.0, 0.0, 0.0, 0.0, 0.0, 0.0, 0.0, 0.0, 0.0, 0.0, 1.741985684396174E9, 0.0, 2025-03-14 15:54:44.396
186.0, 13555.237776665423, 22099.728536573475, -8307.472861703976, 2582.811127044097, 12174.056431538635, 7048.533207003261, 1720.3467154916186, 17989.488600431516, 46242.47357159538, -2450.2205789352156, 21378.504798234084, 45290.57983047722, 9336.077789792751, -1105.204356337113, 18561.872072443017, -16026.960733766644, 0.08359765625000001, 0.973267578125, 0.1343173828125, 192.0, 1.0, 88.0, 15.0, 48.0, 2.0, 24.0, 0.0, 0.0, 0.0, 1.741985684396477E9, 0.0, 2025-03-14 15:54:44.396
188.0, 13553.561395831275, 22093.537103359355, -8297.124004021169, 2585.0463014896277, 12160.64538486545, 7039.547805732228, 1704.566383906172, 17980.145571249195, 46241.15481867252, -2456.2555499381483, 21412.971188184165, 45318.743028490906, 9331.093350779218, -1110.725237217574, 18560.016877653226, -16031.453434402161, 0.08359765625000001, 0.973267578125, 0.1343173828125, 192.0, 0.0, 0.0, 0.0, 0.0, 0.0, 0.0, 0.0, 0.0, 0.0, 1.741985684396777E9, 0.0, 2025-03-14 15:54:44.396
190.0, 13559.953994745494, 22101.628434852177, -8307.316399492789, 2589.9189817808847, 12164.713402356316, 7045.091038357144, 1707.986200807834, 17983.118353261754, 46244.50758034082, -2447.1583899448383, 21390.686498962226, 45309.578813264234, 9329.059342033785, -1105.1596528482023, 18561.089761387084, -16023.652675587258, 0.08359765625000001, 0.973267578125, 0.1343173828125, 192.0, 0.0, 0.0, 0.0, 0.0, 0.0, 0.0, 0.0, 0.0, 0.0, 1.741985684397066E9, 0.0, 2025-03-14 15:54:44.397
192.0, 13562.63620408013, 22100.823772051786, -8292.787765596839, 2588.8908015359407, 12165.473361667797, 7038.4078667650065, 1705.7957298512138, 17977.351603192285, 46248.53089434277, -2444.3420701434698, 21409.014929415578, 45318.98889767992, 9334.893147336621, -1103.6620859696968, 18565.157778877947, -16026.670161088725, 0.08359765625000001, 0.973267578125, 0.1343173828125, 192.0, 0.0, 0.0, 0.0, 0.0, 0.0, 0.0, 0.0, 0.0, 0.0, 1.741985684397352E9, 0.0, 2025-03-14 15:54:44.397
194.0, 13558.858759267183, 22099.549722617834, -8318.469919975987, 2577.9160950083847, 12151.101189983034, 7034.049276596222, 1697.883212314035, 17978.066859014853, 46243.077068695675, -2448.074811467506, 21394.62040598636, 45307.74597021889, 9325.147786754107, -1111.0605133844035, 18553.221947338814, -16037.063722260444, 0.08359765625000001, 0.973267578125, 0.1343173828125, 192.0, 0.0, 0.0, 0.0, 0.0, 0.0, 0.0, 0.0, 0.0, 0.0, 1.741985684397623E9, 0.0, 2025-03-14 15:54:44.397
196.0, 13557.092971455213, 22092.687737070053, -8294.441794686532, 2582.5429061106333, 12157.762009830716, 7028.617802693582, 1695.5362791462278, 17967.427428654126, 46241.84772275064, -2450.824076035509, 21399.537789766528, 45307.94713591899, 9320.856251818688, -1114.9944204085375, 18546.516424002224, -16041.779940340513, 0.085798828125, 0.9756337890625, 0.13615869140625, 192.0, 1.0, 96.0, 15.0, 72.0, 2.0, 40.0, 0.0, 0.0, 0.0, 1.741985684456088E9, 0.0, 2025-03-14 15:54:44.456
198.0, 13549.96276497397, 22086.630414322666, -8314.893640863138, 2571.679958305354, 12149.514216126707, 7024.326267758163, 1689.5013081432949, 17966.823931553834, 46246.3180716417, -2453.4168783923246, 21405.393946813816, 45314.272679599846, 9325.863042576677, -1118.525996032476, 18548.550432747656, -16043.791597341491, 0.085798828125, 0.9756337890625, 0.13615869140625, 192.0, 0.0, 0.0, 0.0, 0.0, 0.0, 0.0, 0.0, 0.0, 0.0, 1.741985684456432E9, 0.0, 2025-03-14 15:54:44.456
200.0, 13553.986078975926, 22087.837408523254, -8300.186193011546, 2580.84417353203, 12157.583195875073, 7031.411770750496, 1704.6334391395378, 17974.37882117973, 46243.25588265132, -2457.5743028610113, 21398.57666475495, 45295.69837995749, 9329.305211222794, -1121.141150133747, 18541.06259835513, -16043.970411297132, 0.085798828125, 0.9756337890625, 0.13615869140625, 192.0, 0.0, 0.0, 0.0, 0.0, 0.0, 0.0, 0.0, 0.0, 0.0, 1.74198568445674E9, 0.0, 2025-03-14 15:54:44.456
202.0, 13553.2484714089, 22088.262091667904, -8301.102614534213, 2578.4078333864013, 12154.83393130707, 7026.650849181516, 1701.0571600266887, 17975.56346363586, 46251.99541473334, -2454.4450586372686, 21422.694197022225, 45320.151188391595, 9327.695885622012, -1118.8612721993056, 18551.120883360014, -16039.790635083991, 0.085798828125, 0.9756337890625, 0.13615869140625, 192.0, 0.0, 0.0, 0.0, 0.0, 0.0, 0.0, 0.0, 0.0, 0.0, 1.741985684457026E9, 0.0, 2025-03-14 15:54:44.457
204.0, 13553.047305708804, 22086.183379433558, -8295.49232667593, 2581.8052985436084, 12151.1682452164, 7022.2028520349095, 1691.6247238665492, 17966.55571062037, 46248.35208038713, -2456.277901682604, 21402.555275267994, 45297.978257891926, 9328.746417611412, -1121.878757700772, 18546.851700169052, -16041.690533362691, 0.085798828125, 0.9756337890625, 0.13615869140625, 192.0, 0.0, 0.0, 0.0, 0.0, 0.0, 0.0, 0.0, 0.0, 0.0, 1.741985684457304E9, 0.0, 2025-03-14 15:54:44.457
206.0, 13559.886939512127, 22089.871417268685, -8305.014169813892, 2584.353397411513, 12156.331498185576, 7029.1318928160545, 1696.855032069091, 17969.8414170553, 46248.64265306505, -2457.9989860056626, 21425.108185423396, 45324.174502393544, 9319.470443662458, -1125.0080019245152, 18545.7788164352, -16045.356219453362, 0.08389941406250001, 0.97281689453125, 0.13507934570312502, 192.0, 1.0, 72.0, 15.0, 40.0, 2.0, 24.0, 0.0, 0.0, 0.0, 1.741985684457594E9, 0.0, 2025-03-14 15:54:44.457
208.0, 13554.790741776318, 22080.88601599765, -8307.048178559326, 2583.101699722016, 12150.184768460365, 7022.046389823722, 1688.9648662763675, 17963.113541974253, 46253.33651940066, -2459.6083116064447, 21386.529074493537, 45289.238725809904, 9328.232327488939, -1121.3423158338446, 18544.013028623227, -16044.819777586436, 0.08389941406250001, 0.97281689453125, 0.13507934570312502, 192.0, 0.0, 0.0, 0.0, 0.0, 0.0, 0.0, 0.0, 0.0, 0.0, 1.741985684457895E9, 0.0, 2025-03-14 15:54:44.457
210.0, 13557.763523788873, 22083.635280565653, -8324.191966556546, 2578.4748886197676, 12146.07204748059, 7032.663468439993, 1686.148546474999, 17963.717039074545, 46268.379243419084, -2454.4897621261794, 21424.9070197233, 45330.567101307766, 9332.926193824553, -1119.7329902330625, 18540.548508232656, -16046.294992720485, 0.08389941406250001, 0.97281689453125, 0.13507934570312502, 192.0, 0.0, 0.0, 0.0, 0.0, 0.0, 0.0, 0.0, 0.0, 0.0, 1.741985684458185E9, 0.0, 2025-03-14 15:54:44.458
212.0, 13552.980250475437, 22076.326260128768, -8313.910164107105, 2576.0161967296835, 12156.465608652308, 7022.716942157382, 1701.5265466602502, 17967.18155946512, 46246.00514721932, -2460.1224017289164, 21363.640888171303, 45276.87821112612, 9324.209013486983, -1127.17612113668, 18540.749673932754, -16050.586527655903, 0.08389941406250001, 0.97281689453125, 0.13507934570312502, 192.0, 0.0, 0.0, 0.0, 0.0, 0.0, 0.0, 0.0, 0.0, 0.0, 1.741985684516626E9, 0.0, 2025-03-14 15:54:44.516
214.0, 13545.313602127268, 22064.90451871211, -8314.983047840959, 2568.684824548343, 12142.316954412097, 7010.021151306767, 1690.4400814104179, 17955.916280259644, 46273.36368243262, -2469.308968700048, 21425.152888912307, 45327.191987895014, 9321.504452407891, -1132.3617258503111, 18539.76619717672, -16059.124894037832, 0.08389941406250001, 0.97281689453125, 0.13507934570312502, 192.0, 0.0, 0.0, 0.0, 0.0, 0.0, 0.0, 0.0, 0.0, 0.0, 1.741985684516958E9, 0.0, 2025-03-14 15:54:44.516
216.0, 13539.010410190871, 22058.221347119972, -8327.432969502564, 2567.231961158748, 12147.21198644781, 7013.217450763876, 1690.1271569880435, 17959.023172738933, 46279.93509530248, -2475.7686228476314, 21364.51260620506, 45266.90933309905, 9321.951487296998, -1138.7096212756182, 18528.85854588253, -16063.215263273152, 0.08194970703125001, 0.9744084472656249, 0.1335396728515625, 192.0, 1.0, 64.0, 15.0, 64.0, 2.0, 16.0, 0.0, 0.0, 0.0, 1.741985684517248E9, 0.0, 2025-03-14 15:54:44.517
218.0, 13537.445788079, 22059.517748298378, -8321.777978155373, 2567.1202024364716, 12145.848530036037, 7019.095959555621, 1685.500345885795, 17963.672335585634, 46263.03717649427, -2478.160259504349, 21421.53190631055, 45310.94226967601, 9307.422853401047, -1132.5181880614982, 18537.5757262201, -16058.856673104368, 0.08194970703125001, 0.9744084472656249, 0.1335396728515625, 192.0, 0.0, 0.0, 0.0, 0.0, 0.0, 0.0, 0.0, 0.0, 0.0, 1.741985684517532E9, 0.0, 2025-03-14 15:54:44.517
220.0, 13548.82282600675, 22069.151350158616, -8322.381475255666, 2574.228057173259, 12147.033172492167, 7026.203814292409, 1681.3876249060186, 17960.856015784266, 46278.81750807971, -2479.076681027017, 21355.41544621175, 45254.57117015972, 9324.030199531342, -1138.6649177867077, 18526.37750224799, -16058.342582981895, 0.08194970703125001, 0.9744084472656249, 0.1335396728515625, 192.0, 0.0, 0.0, 0.0, 0.0, 0.0, 0.0, 0.0, 0.0, 0.0, 1.741985684517815E9, 0.0, 2025-03-14 15:54:44.517
222.0, 13543.436055593022, 22065.418608834578, -8335.904280651126, 2572.1493449389154, 12147.077875981078, 7027.857843382102, 1688.8531075540911, 17961.638326840202, 46290.10513902964, -2468.034919266095, 21417.128612652854, 45313.088037143716, 9342.358629984694, -1127.1314176477692, 18526.556316203634, -16049.848920088878, 0.08194970703125001, 0.9744084472656249, 0.1335396728515625, 192.0, 0.0, 0.0, 0.0, 0.0, 0.0, 0.0, 0.0, 0.0, 0.0, 1.741985684518092E9, 0.0, 2025-03-14 15:54:44.518
224.0, 13536.73053225643, 22058.33310584225, -8325.264850290401, 2561.9345977228404, 12138.003067732225, 7024.0803985691555, 1690.1048052435883, 17959.11257971675, 46269.04979575274, -2488.330303231514, 21346.51945191854, 45250.637263135584, 9326.801815843799, -1138.6649177867077, 18522.689464412866, -16060.711867894159, 0.08194970703125001, 0.9744084472656249, 0.1335396728515625, 192.0, 0.0, 0.0, 0.0, 0.0, 0.0, 0.0, 0.0, 0.0, 0.0, 1.741985684518387E9, 0.0, 2025-03-14 15:54:44.518
226.0, 13551.594442319209, 22071.677097282067, -8340.709905709018, 2568.751879781709, 12144.239204435255, 7020.347657245119, 1684.2486481962978, 17955.82687328182, 46282.14791800355, -2473.891076313386, 21411.160696883286, 45306.42721729603, 9347.56658644278, -1132.4064293392216, 18532.635990695475, -16059.393114971295, 0.083974853515625, 0.9732042236328124, 0.13476983642578128, 192.0, 1.0, 88.0, 15.0, 48.0, 2.0, 32.0, 0.0, 0.0, 0.0, 1.741985684575356E9, 0.0, 2025-03-14 15:54:44.575
228.0, 13561.988003490926, 22091.547798102834, -8317.732312408962, 2573.870429261974, 12144.418018390897, 7029.176596304965, 1687.9143342869681, 17962.80061755188, 46296.25186875485, -2457.976634261207, 21365.630193427827, 45268.04927206627, 9355.814380146789, -1119.9565076776157, 18536.167566319415, -16051.480597434116, 0.083974853515625, 0.9732042236328124, 0.13476983642578128, 192.0, 0.0, 0.0, 0.0, 0.0, 0.0, 0.0, 0.0, 0.0, 0.0, 1.741985684575716E9, 0.0, 2025-03-14 15:54:44.575
230.0, 13553.78491327583, 22084.641109066142, -8329.623440459185, 2578.072557219572, 12150.117713227, 7029.578927705161, 1691.7364825888258, 17958.039695982898, 46279.8233365802, -2463.855143052953, 21419.90022896531, 45321.335830847725, 9348.70652541, -1137.8379032418613, 18535.876993641497, -16051.614707900848, 0.083974853515625, 0.9732042236328124, 0.13476983642578128, 192.0, 0.0, 0.0, 0.0, 0.0, 0.0, 0.0, 0.0, 0.0, 0.0, 1.741985684576011E9, 0.0, 2025-03-14 15:54:44.576
232.0, 13551.102703941191, 22079.366097374692, -8340.285222564367, 2574.071594962072, 12142.853396279026, 7025.555613703205, 1691.043578510711, 17963.247652440983, 46270.25678995333, -2471.0524047675617, 21355.661315400757, 45269.39037673359, 9358.206016803506, -1136.943833463649, 18537.7768919202, -16048.194890999186, 0.083974853515625, 0.9732042236328124, 0.13476983642578128, 192.0, 0.0, 0.0, 0.0, 0.0, 0.0, 0.0, 0.0, 0.0, 0.0, 1.741985684576303E9, 0.0, 2025-03-14 15:54:44.576
234.0, 13545.984154460926, 22070.961841459495, -8327.231803802468, 2574.540981595633, 12138.137178198956, 7021.398189234518, 1687.3778924200408, 17964.07466698583, 46277.00701677883, -2471.1865152342934, 21398.33079556594, 45307.32128707424, 9350.002926588408, -1130.4171240826993, 18535.42995875239, -16051.257079989564, 0.083974853515625, 0.9732042236328124, 0.13476983642578128, 192.0, 0.0, 0.0, 0.0, 0.0, 0.0, 0.0, 0.0, 0.0, 0.0, 1.741985684576588E9, 0.0, 2025-03-14 15:54:44.576
236.0, 13543.324296870745, 22075.16396941709, -8354.098600637746, 2570.3388536380357, 12140.104131711023, 7024.0580468247, 1691.9600000333787, 17964.007611752466, 46272.715481843414, -2471.6335501234, 21360.958678836665, 45273.61485643564, 9360.932929627053, -1121.2305571115683, 18529.95378136084, -16049.17836775522, 0.08398742675781251, 0.9766021118164062, 0.13338491821289064, 192.0, 1.0, 80.0, 15.0, 80.0, 2.0, 16.0, 0.0, 0.0, 0.0, 1.741985684576876E9, 0.0, 2025-03-14 15:54:44.576
238.0, 13549.113398684669, 22085.557530588812, -8313.396073984632, 2577.357301397002, 12143.479245123774, 7026.3155730146855, 1694.8433750681133, 17965.393419908694, 46261.56196136022, -2470.426555922813, 21404.678690991248, 45298.02296138084, 9354.205054546006, -1118.7718652214844, 18536.748711675253, -16048.776036355024, 0.08398742675781251, 0.9766021118164062, 0.13338491821289064, 192.0, 0.0, 0.0, 0.0, 0.0, 0.0, 0.0, 0.0, 0.0, 0.0, 1.741985684577085E9, 0.0, 2025-03-14 15:54:44.577
240.0, 13549.985116718426, 22091.03370798036, -8325.443664246042, 2577.3349496525466, 12137.310163654109, 7020.995857834323, 1696.787976835725, 17963.091190229796, 46267.08284224068, -2472.8628960684414, 21383.869216903357, 45286.71297868645, 9351.99223184493, -1132.3617258503111, 18536.5251942307, -16049.983030555612, 0.08398742675781251, 0.9766021118164062, 0.13338491821289064, 192.0, 0.0, 0.0, 0.0, 0.0, 0.0, 0.0, 0.0, 0.0, 0.0, 1.741985684577265E9, 0.0, 2025-03-14 15:54:44.577
242.0, 13544.374828860144, 22079.924890986073, -8335.1666730841, 2572.1493449389154, 12142.16049220091, 7011.853994352102, 1697.2573634692865, 17967.27096644294, 46253.15770544502, -2473.466393168735, 21402.935254923734, 45300.95103990448, 9360.597653460223, -1123.689249001652, 18535.742883174764, -16051.413542200751, 0.08398742675781251, 0.9766021118164062, 0.13338491821289064, 192.0, 0.0, 0.0, 0.0, 0.0, 0.0, 0.0, 0.0, 0.0, 0.0, 1.741985684636545E9, 0.0, 2025-03-14 15:54:44.636
244.0, 13545.693581783007, 22077.823827007276, -8319.878079876671, 2570.227094915759, 12146.675544580883, 7017.441930465929, 1700.3642559485743, 17961.906547773666, 46257.404536891525, -2475.3886431918913, 21389.635966972826, 45292.70324620047, 9348.170083543073, -1117.3190018318894, 18540.23558381028, -16053.671068390737, 0.08398742675781251, 0.9766021118164062, 0.13338491821289064, 192.0, 0.0, 0.0, 0.0, 0.0, 0.0, 0.0, 0.0, 0.0, 0.0, 1.741985684636776E9, 0.0, 2025-03-14 15:54:44.636
246.0, 13542.810206748272, 22065.95505070151, -8332.618574216196, 2565.3097111355914, 12140.417056133398, 7004.992008804323, 1687.8025755646916, 17955.02221048143, 46232.97408020188, -2485.5363351746005, 21380.918786635255, 45285.99772286388, 9354.272109779371, -1126.2149961251016, 18542.80603442264, -16059.013135315554, 0.08299371337890626, 0.9753010559082032, 0.13369245910644534, 192.0, 1.0, 72.0, 15.0, 56.0, 2.0, 24.0, 0.0, 0.0, 0.0, 1.741985684636979E9, 0.0, 2025-03-14 15:54:44.636
248.0, 13547.034686450326, 22069.5089780699, -8356.691402994562, 2564.974434968762, 12140.662925322405, 7008.009494305789, 1688.6966453429038, 17950.574213334825, 46243.702917540424, -2490.230201510215, 21374.056801087478, 45284.34369377419, 9357.110781325197, -1128.5842810373642, 18532.546583717656, -16061.583585927916, 0.08299371337890626, 0.9753010559082032, 0.13369245910644534, 192.0, 0.0, 0.0, 0.0, 0.0, 0.0, 0.0, 0.0, 0.0, 0.0, 1.741985684637172E9, 0.0, 2025-03-14 15:54:44.637
250.0, 13553.337878386723, 22071.498283326422, -8322.3144200223, 2575.0774234625605, 12144.686239324361, 7012.3457327301185, 1695.8492035686022, 17949.88130925671, 46244.887559996554, -2487.0339020531064, 21365.496082961094, 45274.978312847416, 9365.7609064294, -1121.2529088560234, 18533.015970351218, -16057.046181803487, 0.08299371337890626, 0.9753010559082032, 0.13369245910644534, 192.0, 0.0, 0.0, 0.0, 0.0, 0.0, 0.0, 0.0, 0.0, 0.0, 1.741985684637367E9, 0.0, 2025-03-14 15:54:44.637
252.0, 13558.747000544907, 22077.957937474006, -8329.332867781266, 2575.166830440382, 12158.92430054239, 7025.555613703205, 1705.236936239831, 17970.80254206688, 46239.12080992709, -2480.2613234831483, 21395.536827509026, 45304.057932383774, 9337.061266548786, -1110.45701628411, 18548.66219146993, -16044.238632230597, 0.08299371337890626, 0.9753010559082032, 0.13369245910644534, 192.0, 0.0, 0.0, 0.0, 0.0, 0.0, 0.0, 0.0, 0.0, 0.0, 1.741985684637554E9, 0.0, 2025-03-14 15:54:44.637
254.0, 13557.785875533329, 22073.197015905025, -8313.105501306713, 2577.714929308287, 12147.256689936721, 7020.10178805611, 1706.9133170739792, 17967.718001332047, 46237.60089130412, -2473.0864135129946, 21366.61367018386, 45282.332036773216, 9363.168104072583, -1112.0886936293475, 18546.00233387975, -16038.874213561323, 0.08299371337890626, 0.9753010559082032, 0.13369245910644534, 192.0, 0.0, 0.0, 0.0, 0.0, 0.0, 0.0, 0.0, 0.0, 0.0, 1.741985684637759E9, 0.0, 2025-03-14 15:54:44.637
0.0, 13551.795608019305, 22065.664478023587, -8343.637984232662, 2571.4117373718905, 12147.793131803648, 7019.632401422549, 1704.43227343944, 17961.817140795843, 46232.8623214796, -2484.7763758631204, 21405.885685191835, 45308.26006034137, 9349.444132977025, -1109.8311674393615, 18548.43867402538, -16043.165748496742, 0.08249685668945314, 0.9736505279541016, 0.13584622955322267, 192.0, 1.0, 72.0, 15.0, 48.0, 2.0, 40.0, 0.0, 0.0, 0.0, 1.741985684637942E9, 0.0, 2025-03-14 15:54:44.637
2.0, 13556.221253421458, 22070.93948971504, -8311.674989661573, 2578.139612452938, 12147.279041681177, 7017.57604093266, 1702.8676513275686, 17966.645117598193, 46223.027553919266, -2477.8026315930642, 21360.22107126964, 45267.89280985508, 9358.429534248058, -1108.1547866052135, 18549.131578103494, -16038.896565305778, 0.08249685668945314, 0.9736505279541016, 0.13584622955322267, 192.0, 0.0, 0.0, 0.0, 0.0, 0.0, 0.0, 0.0, 0.0, 0.0, 1.741985684696824E9, 0.0, 2025-03-14 15:54:44.696
4.0, 13560.289270912323, 22076.572129317778, -8326.628306702174, 2578.4078333864013, 12149.871844037993, 7020.951154345412, 1713.171805521465, 17968.813236810354, 46231.409458090006, -2472.7511373461653, 21409.685481749235, 45321.40288608109, 9357.446057492025, -1105.4725772705767, 18546.15879609094, -16045.646792131281, 0.08249685668945314, 0.9736505279541016, 0.13584622955322267, 192.0, 0.0, 0.0, 0.0, 0.0, 0.0, 0.0, 0.0, 0.0, 0.0, 1.74198568469704E9, 0.0, 2025-03-14 15:54:44.697
6.0, 13558.881111011638, 22076.706239784507, -8309.551573938319, 2583.235810188748, 12151.257652194221, 7017.374875232563, 1702.599430394105, 17961.437161140104, 46229.017821433285, -2482.8317740955085, 21364.870234116344, 45280.700359427974, 9360.865874393687, -1126.8408449698502, 18550.271517070712, -16040.975277540121, 0.08249685668945314, 0.9736505279541016, 0.13584622955322267, 192.0, 0.0, 0.0, 0.0, 0.0, 0.0, 0.0, 0.0, 0.0, 0.0, 1.741985684697226E9, 0.0, 2025-03-14 15:54:44.697
8.0, 13552.890843497617, 22073.688754283045, -8331.925670138082, 2575.9714932407733, 12140.26059392221, 7018.827738622158, 1691.8482413111021, 17960.431332639615, 46218.51250153929, -2484.955189818763, 21418.134441153343, 45324.3980198381, 9370.678290209567, -1121.9681646785932, 18551.322049060112, -16043.076341518921, 0.08249685668945314, 0.9736505279541016, 0.13584622955322267, 192.0, 0.0, 0.0, 0.0, 0.0, 0.0, 0.0, 0.0, 0.0, 0.0, 1.741985684697407E9, 0.0, 2025-03-14 15:54:44.697
10.0, 13549.202805662491, 22067.56437630229, -8316.346504252733, 2580.2406764317366, 12154.275137695688, 7020.191195033932, 1711.0930932871215, 17966.17573096463, 46216.09851313812, -2480.037806038595, 21361.60687942587, 45274.263057024844, 9353.869778379176, -1114.882661686261, 18552.059656627138, -16043.36691419684, 0.07924842834472656, 0.9748252639770507, 0.13492311477661134, 192.0, 1.0, 48.0, 15.0, 64.0, 2.0, 24.0, 0.0, 0.0, 0.0, 1.741985684697591E9, 0.0, 2025-03-14 15:54:44.697
12.0, 13543.748980015396, 22055.494434296423, -8324.259021789912, 2573.5575048396, 12157.963175530813, 7020.638229923038, 1718.7373898908365, 17970.623728111237, 46208.744789212324, -2479.30019847157, 21414.20053412921, 45323.414543082064, 9365.179761073561, -1110.4123127951996, 18560.262746842236, -16041.9364025517, 0.07924842834472656, 0.9748252639770507, 0.13492311477661134, 192.0, 0.0, 0.0, 0.0, 0.0, 0.0, 0.0, 0.0, 0.0, 0.0, 1.741985684697793E9, 0.0, 2025-03-14 15:54:44.697
14.0, 13542.564337559264, 22051.001733660905, -8320.191004299046, 2569.1542111819044, 12153.850454551037, 7012.211622263387, 1705.7957298512138, 17962.97943150752, 46213.86333869259, -2498.9920853366957, 21340.46212917115, 45256.42636494951, 9365.7609064294, -1118.749513477029, 18551.612621738033, -16055.727428880624, 0.07924842834472656, 0.9748252639770507, 0.13492311477661134, 192.0, 0.0, 0.0, 0.0, 0.0, 0.0, 0.0, 0.0, 0.0, 0.0, 1.741985684697987E9, 0.0, 2025-03-14 15:54:44.697
16.0, 13546.788817261317, 22053.683942995543, -8341.201644087034, 2566.4720018472676, 12152.956384772824, 7011.921049585468, 1700.274848970753, 17957.659716327158, 46202.15102459801, -2493.8288323675197, 21415.76515624108, 45316.01611566736, 9346.448999220014, -1118.3695338212888, 18550.115054859525, -16055.548614924983, 0.07924842834472656, 0.9748252639770507, 0.13492311477661134, 192.0, 0.0, 0.0, 0.0, 0.0, 0.0, 0.0, 0.0, 0.0, 0.0, 1.741985684756412E9, 0.0, 2025-03-14 15:54:44.756
18.0, 13559.171683689558, 22069.956012959006, -8327.052989846825, 2578.0278537306613, 12146.004992247224, 7018.090131055133, 1694.3516366900965, 17955.35748664826, 46214.265670092784, -2488.598524164978, 21354.007286311065, 45265.322359242724, 9373.338147799748, -1122.6834205011633, 18550.316220559624, -16050.094789277888, 0.07924842834472656, 0.9748252639770507, 0.13492311477661134, 192.0, 0.0, 0.0, 0.0, 0.0, 0.0, 0.0, 0.0, 0.0, 0.0, 1.741985684756634E9, 0.0, 2025-03-14 15:54:44.756
20.0, 13561.138637201624, 22067.631431535654, -8320.749797910428, 2571.255275160703, 12140.752332300226, 7009.14943327301, 1681.946418517401, 17943.89104174269, 46217.23845210534, -2480.976579305718, 21424.86231623439, 45326.297918116805, 9358.56364471479, -1108.98180115006, 18551.29969731566, -16050.608879400359, 0.08062421417236329, 0.9754126319885253, 0.13346155738830567, 192.0, 1.0, 72.0, 15.0, 64.0, 2.0, 16.0, 0.0, 0.0, 0.0, 1.741985684756833E9, 0.0, 2025-03-14 15:54:44.756
22.0, 13550.633317307631, 22060.74709424342, -8328.863481147704, 2567.321368136569, 12145.177977702377, 7005.394340204518, 1689.2330872098312, 17946.237974910495, 46206.68842872244, -2498.3438847474918, 21367.28422251752, 45272.00553083486, 9359.167141815084, -1122.1469786342357, 18544.5271187457, -16063.684649906714, 0.08062421417236329, 0.9754126319885253, 0.13346155738830567, 192.0, 0.0, 0.0, 0.0, 0.0, 0.0, 0.0, 0.0, 0.0, 0.0, 1.741985684757036E9, 0.0, 2025-03-14 15:54:44.757
24.0, 13547.191148661514, 22055.382675574147, -8325.980106112971, 2567.969568725773, 12147.323745170086, 7010.490537940328, 1697.1679564914652, 17955.759818048457, 46195.1549285835, -2492.0630445555503, 21411.89830445031, 45314.473845299945, 9353.80272314581, -1116.9613739206045, 18551.970249649316, -16062.544710939494, 0.08062421417236329, 0.9754126319885253, 0.13346155738830567, 192.0, 0.0, 0.0, 0.0, 0.0, 0.0, 0.0, 0.0, 0.0, 0.0, 1.741985684757228E9, 0.0, 2025-03-14 15:54:44.757
26.0, 13553.181416175536, 22055.65089650761, -8332.50681549392, 2569.713004793287, 12154.476303395784, 7016.5702124321715, 1707.047427540711, 17961.61597509575, 46202.35219029811, -2493.9182393453407, 21365.585489938916, 45270.843240123184, 9353.84742663472, -1119.5765280218754, 18545.465892012824, -16063.438780717706, 0.08062421417236329, 0.9754126319885253, 0.13346155738830567, 192.0, 0.0, 0.0, 0.0, 0.0, 0.0, 0.0, 0.0, 0.0, 0.0, 1.741985684757418E9, 0.0, 2025-03-14 15:54:44.757
28.0, 13553.427285364543, 22054.376847073658, -8320.146300810135, 2574.0939467065273, 12157.180864474878, 7011.317552485175, 1705.080474028644, 17962.063009984853, 46204.76617869928, -2490.431367210313, 21407.830286959444, 45313.15509237708, 9354.786199901844, -1109.3841325502553, 18554.38423805049, -16057.51556843705, 0.08062421417236329, 0.9754126319885253, 0.13346155738830567, 192.0, 0.0, 0.0, 0.0, 0.0, 0.0, 0.0, 0.0, 0.0, 0.0, 1.741985684757599E9, 0.0, 2025-03-14 15:54:44.757
30.0, 13554.92485224305, 22059.56245178729, -8330.517510237398, 2572.0152344721837, 12159.684259853871, 7010.62464840706, 1706.2651164847753, 17955.02221048143, 46200.89932690851, -2495.326399246025, 21374.593242954405, 45283.67314144053, 9357.580167958757, -1111.88752792925, 18559.234566597293, -16051.234728245108, 0.08031210708618164, 0.9727063159942626, 0.13273077869415284, 192.0, 1.0, 64.0, 15.0, 40.0, 2.0, 16.0, 0.0, 0.0, 0.0, 1.741985684757779E9, 0.0, 2025-03-14 15:54:44.757
32.0, 13553.404933620088, 22060.74709424342, -8317.441739731043, 2573.8257257730634, 12155.660945851916, 7006.6460378940155, 1704.1864042504317, 17960.140759961698, 46178.25700977528, -2489.537297432101, 21407.76323172608, 45311.38930456511, 9351.679307422555, -1113.8097779524062, 18546.784644935688, -16066.389210985806, 0.08031210708618164, 0.9727063159942626, 0.13273077869415284, 192.0, 0.0, 0.0, 0.0, 0.0, 0.0, 0.0, 0.0, 0.0, 0.0, 1.741985684816721E9, 0.0, 2025-03-14 15:54:44.816
34.0, 13555.036610965326, 22061.909384955095, -8334.071437605791, 2571.7917170276305, 12150.251823693732, 7014.670314153471, 1694.7763198347475, 17957.145626204685, 46201.25695481979, -2482.652960139866, 21390.50768500658, 45294.64784796809, 9348.304194009805, -1096.241306810535, 18547.00816238024, -16064.332850495917, 0.08031210708618164, 0.9727063159942626, 0.13273077869415284, 192.0, 0.0, 0.0, 0.0, 0.0, 0.0, 0.0, 0.0, 0.0, 0.0, 1.741985684816941E9, 0.0, 2025-03-14 15:54:44.816
36.0, 13540.977363702938, 22043.55860275729, -8322.962620611504, 2565.756746024698, 12152.822274306092, 7007.182479760943, 1689.7471773323034, 17949.88130925671, 46195.3560942836, -2490.364311976947, 21399.291920577518, 45305.26492658436, 9354.696792924022, -1117.9001471877275, 18536.882822141986, -16064.735181896112, 0.08031210708618164, 0.9727063159942626, 0.13273077869415284, 192.0, 0.0, 0.0, 0.0, 0.0, 0.0, 0.0, 0.0, 0.0, 0.0, 1.74198568481714E9, 0.0, 2025-03-14 15:54:44.817
38.0, 13534.54006129981, 22038.060073621284, -8345.180254600078, 2558.0230424431616, 12149.804788804626, 7007.830680350146, 1709.4837676863394, 17952.74233254699, 46181.72153016586, -2506.1893470513046, 21385.81381867097, 45288.41171126506, 9349.332374254749, -1115.754379720018, 18538.067464598116, -16068.736144153614, 0.08031210708618164, 0.9727063159942626, 0.13273077869415284, 192.0, 0.0, 0.0, 0.0, 0.0, 0.0, 0.0, 0.0, 0.0, 0.0, 1.741985684817317E9, 0.0, 2025-03-14 15:54:44.817
40.0, 13528.236869363413, 22027.621808960655, -8319.140472309646, 2559.6770715328544, 12147.234338192266, 7007.048369294211, 1693.9716570343564, 17945.99210572149, 46181.02862608774, -2495.751082390676, 21386.17144658225, 45279.11338557165, 9337.307135737794, -1115.6426209977415, 18548.14810134746, -16069.60786218737, 0.08215605354309083, 0.9723531579971313, 0.13436538934707642, 192.0, 1.0, 80.0, 15.0, 48.0, 2.0, 32.0, 0.0, 0.0, 0.0, 1.741985684817513E9, 0.0, 2025-03-14 15:54:44.817
42.0, 13528.952125185982, 22026.526573482344, -8348.55536801283, 2550.5352080506336, 12142.987506745758, 7010.468186195873, 1692.0270552667446, 17944.06985569833, 46173.33962599512, -2510.5255854756338, 21380.98584186862, 45280.230972794416, 9336.636583404133, -1117.4084088097106, 18539.699141943354, -16073.22884478913, 0.08215605354309083, 0.9723531579971313, 0.13436538934707642, 192.0, 0.0, 0.0, 0.0, 0.0, 0.0, 0.0, 0.0, 0.0, 0.0, 1.741985684817712E9, 0.0, 2025-03-14 15:54:44.817
44.0, 13513.90940116756, 22010.41096573007, -8362.301690852844, 2532.7655712086644, 12131.185785673355, 6989.47989815234, 1672.4916306128064, 17928.73655900199, 46161.493201433805, -2519.8909664024077, 21358.187062524208, 45256.13579227159, 9342.448036962514, -1127.399638581233, 18523.114147557517, -16087.221036818151, 0.08215605354309083, 0.9723531579971313, 0.13436538934707642, 192.0, 0.0, 0.0, 0.0, 0.0, 0.0, 0.0, 0.0, 0.0, 0.0, 1.741985684817902E9, 0.0, 2025-03-14 15:54:44.817
46.0, 13525.509956539865, 22025.63250370413, -8353.428048304087, 2539.001707911695, 12135.522024097685, 7005.461395437885, 1684.986255763323, 17941.231184152508, 46154.76532635276, -2518.7286756907315, 21367.016001584056, 45278.57694370472, 9315.044798260307, -1132.1158566613028, 18523.985865591272, -16091.892551409312, 0.08215605354309083, 0.9723531579971313, 0.13436538934707642, 192.0, 0.0, 0.0, 0.0, 0.0, 0.0, 0.0, 0.0, 0.0, 0.0, 1.741985684877022E9, 0.0, 2025-03-14 15:54:44.877
48.0, 13529.354456586178, 22025.386634515125, -8340.441684775555, 2553.1503621519046, 12148.374277159486, 7014.357389731096, 1694.5751541346497, 17953.74816104748, 46161.895532834, -2506.0328848401173, 21356.287164245507, 45264.02595806432, 9318.5987256287, -1116.2237663535793, 18540.324990788104, -16073.98880410061, 0.08215605354309083, 0.9723531579971313, 0.13436538934707642, 192.0, 0.0, 0.0, 0.0, 0.0, 0.0, 0.0, 0.0, 0.0, 0.0, 1.741985684877222E9, 0.0, 2025-03-14 15:54:44.877
50.0, 13523.744168727895, 22018.681111178532, -8352.712792481518, 2552.9938999407173, 12145.647364335939, 7008.903564084001, 1693.9046018009903, 17951.60239357977, 46162.18610551192, -2514.750065177687, 21385.702059948693, 45291.22803106642, 9333.887318836132, -1121.6328885117637, 18539.833252410084, -16076.581606457426, 0.08307802677154541, 0.9741765789985657, 0.13318269467353822, 192.0, 1.0, 80.0, 15.0, 64.0, 2.0, 16.0, 0.0, 0.0, 0.0, 1.741985684877418E9, 0.0, 2025-03-14 15:54:44.877
52.0, 13529.15329088608, 22022.145631569103, -8325.756588668417, 2559.788830255131, 12157.873768552992, 7013.820947864169, 1712.076570043155, 17962.733562318514, 46160.6438351445, -2513.1854430658154, 21352.21914675464, 45251.77720210281, 9332.210938001983, -1119.55417627742, 18550.271517070712, -16070.568987198949, 0.08307802677154541, 0.9741765789985657, 0.13318269467353822, 192.0, 0.0, 0.0, 0.0, 0.0, 0.0, 0.0, 0.0, 0.0, 0.0, 1.741985684877607E9, 0.0, 2025-03-14 15:54:44.877
54.0, 13512.255372077869, 22011.863829119662, -8357.116086139213, 2546.0872109040274, 12142.004029989725, 7003.092110525622, 1689.8589360545798, 17945.32155338783, 46158.67688163243, -2506.368161006947, 21398.800182199502, 45290.53512698831, 9336.837749104232, -1116.2908215869454, 18554.294831072668, -16069.116123809354, 0.08307802677154541, 0.9741765789985657, 0.13318269467353822, 192.0, 0.0, 0.0, 0.0, 0.0, 0.0, 0.0, 0.0, 0.0, 0.0, 1.741985684877791E9, 0.0, 2025-03-14 15:54:44.877
56.0, 13511.383654044112, 22012.802602386786, -8342.632155732173, 2548.7023650052984, 12140.97584974478, 7009.685875139938, 1691.0882819996218, 17951.289469157397, 46139.208512211866, -2521.433236769824, 21342.250268727574, 45239.93077754149, 9330.311039723283, -1131.6911735166518, 18528.165641804415, -16080.604920459382, 0.08307802677154541, 0.9741765789985657, 0.13318269467353822, 192.0, 0.0, 0.0, 0.0, 0.0, 0.0, 0.0, 0.0, 0.0, 0.0, 1.741985684877977E9, 0.0, 2025-03-14 15:54:44.877
58.0, 13502.711177195451, 22009.338081996215, -8351.461094792021, 2545.9531004372957, 12147.100227725534, 7012.524546685761, 1703.7393693613255, 17954.530472103415, 46150.56319839516, -2512.984277365718, 21387.736068694125, 45282.62260945113, 9350.114685310684, -1122.0799234008698, 18537.933354131386, -16068.646737175792, 0.08307802677154541, 0.9741765789985657, 0.13318269467353822, 192.0, 0.0, 0.0, 0.0, 0.0, 0.0, 0.0, 0.0, 0.0, 0.0, 1.741985684878172E9, 0.0, 2025-03-14 15:54:44.878
60.0, 13487.601397943665, 22001.917302837053, -8345.98491740047, 2544.3437748365136, 12145.513253869207, 7012.502194941306, 1696.0950727576105, 17961.325402417828, 46137.35331742207, -2522.707286203776, 21335.70120760217, 45227.1232279686, 9343.878548607654, -1128.1819496371686, 18532.032493595183, -16067.70796390867, 0.0855390133857727, 0.9780882894992828, 0.1315913473367691, 192.0, 1.0, 96.0, 15.0, 88.0, 2.0, 8.0, 0.0, 0.0, 0.0, 1.741985684878353E9, 0.0, 2025-03-14 15:54:44.878
62.0, 13480.04650831777, 22000.39738421409, -8357.741934983962, 2539.1581701228824, 12147.077875981078, 7011.943401329923, 1700.3866076930294, 17960.900719273177, 46129.64196558499, -2521.4779402587346, 21381.99167036911, 45270.73148140091, 9339.095275294218, -1124.8291879688727, 18534.446481996358, -16062.9917458286, 0.0855390133857727, 0.9780882894992828, 0.1315913473367691, 192.0, 0.0, 0.0, 0.0, 0.0, 0.0, 0.0, 0.0, 0.0, 0.0, 1.741985684937314E9, 0.0, 2025-03-14 15:54:44.937
64.0, 13469.272967490313, 21997.469305690447, -8349.784713957872, 2541.4156963128685, 12148.910719026413, 7017.106654299099, 1708.5449944192167, 17967.293318187396, 46127.876177773025, -2527.334097306025, 21320.747890561568, 45210.448826604945, 9338.93881308303, -1127.5784525368754, 18534.222964551802, -16053.60401315737, 0.0855390133857727, 0.9780882894992828, 0.1315913473367691, 192.0, 0.0, 0.0, 0.0, 0.0, 0.0, 0.0, 0.0, 0.0, 0.0, 1.741985684937558E9, 0.0, 2025-03-14 15:54:44.937
66.0, 13457.828874329196, 21994.228302744425, -8349.114161624213, 2537.5264927776448, 12144.97681200228, 7009.417654206473, 1701.370084449063, 17959.60431809477, 46121.81885502564, -2531.9832601527287, 21374.257966787573, 45256.13579227159, 9331.316868223772, -1128.6289845262747, 18532.47952848429, -16053.9392893242, 0.0855390133857727, 0.9780882894992828, 0.1315913473367691, 192.0, 0.0, 0.0, 0.0, 0.0, 0.0, 0.0, 0.0, 0.0, 0.0, 1.741985684937765E9, 0.0, 2025-03-14 15:54:44.937
68.0, 13457.247728973358, 22002.38668947061, -8337.826530674283, 2545.6401760149215, 12150.050657993634, 7013.172747274965, 1712.6800671434485, 17968.16503622115, 46118.06376195714, -2531.4691700302565, 21324.614742352336, 45212.50518709483, 9328.165272255574, -1129.3889438377553, 18536.927525630897, -16050.74298986709, 0.0855390133857727, 0.9780882894992828, 0.1315913473367691, 192.0, 0.0, 0.0, 0.0, 0.0, 0.0, 0.0, 0.0, 0.0, 0.0, 1.741985684937946E9, 0.0, 2025-03-14 15:54:44.937
70.0, 13444.551938122742, 21997.223436501437, -8337.915937652104, 2544.299071347603, 12140.327649155575, 7009.998799562311, 1686.6402848530156, 17960.297222172885, 46115.69447704488, -2528.2505188286923, 21383.489237247617, 45264.87532435362, 9328.500548422402, -1126.8408449698502, 18531.58545870608, -16054.22986200212, 0.08476950669288635, 0.9790441447496414, 0.13379567366838457, 192.0, 1.0, 80.0, 15.0, 80.0, 2.0, 32.0, 0.0, 0.0, 0.0, 1.741985684938142E9, 0.0, 2025-03-14 15:54:44.938
72.0, 13437.399379897044, 21994.362413211158, -8328.058818347314, 2549.6634900168765, 12151.369410916497, 7011.921049585468, 1712.2330322543423, 17965.773399564434, 46108.8324914971, -2531.0444868856057, 21328.123966231822, 45218.8754342646, 9327.718237366467, -1131.6464700277413, 18535.206441307837, -16049.245422988586, 0.08476950669288635, 0.9790441447496414, 0.13379567366838457, 192.0, 0.0, 0.0, 0.0, 0.0, 0.0, 0.0, 0.0, 0.0, 0.0, 1.741985684938343E9, 0.0, 2025-03-14 15:54:44.938
74.0, 13426.402321625033, 21982.49363690539, -8323.007324100414, 2550.5352080506336, 12145.759123058215, 7005.081415782144, 1700.4760146708506, 17958.374972149726, 46106.66437228494, -2533.480827031234, 21375.42025749925, 45263.71303364194, 9327.6511821331, -1132.6970020171407, 18540.324990788104, -16052.642888145792, 0.08476950669288635, 0.9790441447496414, 0.13379567366838457, 192.0, 0.0, 0.0, 0.0, 0.0, 0.0, 0.0, 0.0, 0.0, 0.0, 1.741985684938529E9, 0.0, 2025-03-14 15:54:44.938
76.0, 13412.164260407002, 21965.685125075, -8333.93732713906, 2547.2495016157036, 12145.714419569305, 7007.651866394504, 1698.4643576698732, 17957.88323377171, 46099.24359312577, -2539.292280589614, 21322.22310569562, 45220.12713195409, 9322.554984397291, -1136.5191503189983, 18539.363865776526, -16045.870309575834, 0.08476950669288635, 0.9790441447496414, 0.13379567366838457, 192.0, 0.0, 0.0, 0.0, 0.0, 0.0, 0.0, 0.0, 0.0, 0.0, 1.741985684997562E9, 0.0, 2025-03-14 15:54:44.997
78.0, 13400.74251899034, 21954.084569702696, -8326.583603213263, 2551.652795273399, 12145.602660847027, 7012.725712385859, 1694.4410436679177, 17966.868635042745, 46087.64303775347, -2547.6071295269885, 21352.353257221373, 45250.61491139113, 9311.446167403003, -1140.9671474656043, 18527.562144704123, -16046.786731098502, 0.08476950669288635, 0.9790441447496414, 0.13379567366838457, 192.0, 0.0, 0.0, 0.0, 0.0, 0.0, 0.0, 0.0, 0.0, 0.0, 1.741985684997839E9, 0.0, 2025-03-14 15:54:44.997
80.0, 13391.958283419406, 21942.43931084148, -8340.50874000892, 2541.2145306127704, 12142.674582323383, 7005.260229737786, 1693.4799186563396, 17954.150492447676, 46082.703302228845, -2545.4390103148235, 21318.333902160397, 45221.73645755488, 9306.685245834024, -1140.363650365311, 18534.71470292982, -16042.986934541099, 0.08238475334644318, 0.9745220723748207, 0.1368978368341923, 192.0, 1.0, 64.0, 15.0, 40.0, 2.0, 48.0, 0.0, 0.0, 0.0, 1.741985684998042E9, 0.0, 2025-03-14 15:54:44.998
82.0, 13384.582207749154, 21928.894153701563, -8333.624402716685, 2540.2534056011923, 12140.774684044682, 6997.951209300901, 1689.568363376661, 17952.719980802536, 46073.24851432425, -2562.783964012142, 21338.808100081456, 45237.06975425121, 9292.536591593813, -1155.2722639170008, 18519.448461466847, -16062.164731283752, 0.08238475334644318, 0.9745220723748207, 0.1368978368341923, 192.0, 0.0, 0.0, 0.0, 0.0, 0.0, 0.0, 0.0, 0.0, 0.0, 1.741985684998236E9, 0.0, 2025-03-14 15:54:44.998
84.0, 13383.777544948764, 21925.317874588716, -8345.202606344534, 2538.107638133483, 12151.12354172749, 7006.24370649382, 1699.3807791925406, 17955.625707581727, 46082.45743303984, -2552.971548196262, 21312.276579413006, 45218.003716230836, 9298.102175963186, -1148.0302987134814, 18523.896458613453, -16054.118103279843, 0.08238475334644318, 0.9745220723748207, 0.1368978368341923, 192.0, 0.0, 0.0, 0.0, 0.0, 0.0, 0.0, 0.0, 0.0, 0.0, 1.741985684998421E9, 0.0, 2025-03-14 15:54:44.998
86.0, 13371.193512820426, 21906.788278435266, -8338.877062663681, 2530.3068793185807, 12140.327649155575, 6988.0493865072, 1684.6733313409486, 17941.365294619238, 46073.24851432425, -2565.712042535787, 21327.386358664797, 45221.66940232151, 9287.038062457808, -1160.4355168861769, 18516.453327709834, -16065.9421760967, 0.08238475334644318, 0.9745220723748207, 0.1368978368341923, 192.0, 0.0, 0.0, 0.0, 0.0, 0.0, 0.0, 0.0, 0.0, 0.0, 1.741985684998614E9, 0.0, 2025-03-14 15:54:44.998
88.0, 13366.74551567382, 21901.96030163292, -8356.780809972382, 2526.4623792722678, 12130.828157762071, 6990.463374908373, 1681.119403972555, 17939.97948646301, 46067.39235727696, -2568.4166036148795, 21311.98600673509, 45216.08146620768, 9283.573542067235, -1164.816458799417, 18508.5184584282, -16067.931481353222, 0.08238475334644318, 0.9745220723748207, 0.1368978368341923, 192.0, 0.0, 0.0, 0.0, 0.0, 0.0, 0.0, 0.0, 0.0, 0.0, 1.741985684998809E9, 0.0, 2025-03-14 15:54:44.998
90.0, 13363.906844127994, 21897.154676575028, -8346.521359267397, 2528.004649639684, 12134.091512452545, 6992.922066798457, 1686.8638022975688, 17950.55186159037, 46062.47497349679, -2572.976359483762, 21314.154125947254, 45209.71121903792, 9283.350024622683, -1166.8057640559393, 18499.242484479248, -16069.250234276085, 0.0831923766732216, 0.9752610361874103, 0.13844891841709617, 192.0, 1.0, 80.0, 15.0, 64.0, 2.0, 48.0, 0.0, 0.0, 0.0, 1.741985684999E9, 0.0, 2025-03-14 15:54:44.999
92.0, 13360.59878594861, 21892.259644539314, -8360.759420485429, 2519.175710579838, 12130.15760542841, 6987.5129446402725, 1683.1534127179877, 17941.678219041612, 46061.69266244086, -2570.0259292156616, 21315.137602703286, 45213.533367339776, 9280.086669932207, -1170.337339679878, 18496.515571655702, -16069.406696487273, 0.0831923766732216, 0.9752610361874103, 0.13844891841709617, 192.0, 0.0, 0.0, 0.0, 0.0, 0.0, 0.0, 0.0, 0.0, 0.0, 1.741985685056936E9, 0.0, 2025-03-14 15:54:45.056
94.0, 13359.190626047925, 21888.303385770727, -8355.909091938627, 2518.0581233570724, 12124.92729722587, 6975.443002634407, 1661.8298485076248, 17929.07183516882, 46067.481764254786, -2583.2805136776583, 21307.605064821848, 45194.55673629722, 9284.959350223464, -1185.0894910203804, 18486.18906571735, -16082.571873971448, 0.0831923766732216, 0.9752610361874103, 0.13844891841709617, 192.0, 0.0, 0.0, 0.0, 0.0, 0.0, 0.0, 0.0, 0.0, 0.0, 1.741985685057147E9, 0.0, 2025-03-14 15:54:45.057
96.0, 13366.946681373916, 21899.702775442933, -8350.499969780441, 2528.965774651262, 12136.103169453523, 6989.211677218876, 1683.891020285013, 17949.054294711863, 46072.06387186812, -2573.4457461173233, 21327.095785986876, 45214.53919584027, 9276.17511465253, -1177.9145810502268, 18501.544714158146, -16072.714754666658, 0.0831923766732216, 0.9752610361874103, 0.13844891841709617, 192.0, 0.0, 0.0, 0.0, 0.0, 0.0, 0.0, 0.0, 0.0, 0.0, 1.741985685057338E9, 0.0, 2025-03-14 15:54:45.057
98.0, 13362.4539807384, 21892.930196872974, -8347.057801134324, 2526.8870624169185, 12129.151776927922, 6976.985273001823, 1669.2282759223315, 17929.429463080105, 46069.6722352114, -2578.0502054751164, 21305.772221776515, 45189.57229728369, 9272.062393672752, -1182.8319648303946, 18491.933464042362, -16077.766248913558, 0.0831923766732216, 0.9752610361874103, 0.13844891841709617, 192.0, 0.0, 0.0, 0.0, 0.0, 0.0, 0.0, 0.0, 0.0, 0.0, 1.741985685057517E9, 0.0, 2025-03-14 15:54:45.057
100.0, 13360.330565015145, 21890.493856727346, -8375.600978803752, 2517.8346059125192, 12122.44625359133, 6977.924046268946, 1664.0873746976108, 17930.032960180397, 46084.938476674375, -2580.106565965005, 21325.665274341736, 45216.461445863424, 9292.98362648292, -1184.4859939200871, 18488.670109351886, -16081.007251859577, 0.08459618833661081, 0.9776305180937052, 0.1412244592085481, 192.0, 1.0, 88.0, 15.0, 80.0, 2.0, 64.0, 0.0, 0.0, 0.0, 1.741985685057708E9, 0.0, 2025-03-14 15:54:45.057
102.0, 13367.304309285202, 21891.209112549917, -8366.794391488362, 2517.1864053233153, 12128.2130036608, 6982.059118993177, 1662.1204211855438, 17933.765701504435, 46075.371930047506, -2583.03464448865, 21287.175570389696, 45171.154459852514, 9268.575521537725, -1186.3858921987883, 18489.47477215228, -16084.874103650345, 0.08459618833661081, 0.9776305180937052, 0.1412244592085481, 192.0, 0.0, 0.0, 0.0, 0.0, 0.0, 0.0, 0.0, 0.0, 0.0, 1.741985685057901E9, 0.0, 2025-03-14 15:54:45.057
104.0, 13388.516114773289, 21908.889342414062, -8342.051010376335, 2528.272870573148, 12131.699875795828, 6996.4312906779405, 1674.6373980805158, 17944.829815009813, 46096.270811113216, -2581.067690976583, 21330.403844166263, 45217.13199819708, 9274.49873381838, -1182.362578196833, 18492.84988556503, -16075.396964001295, 0.08459618833661081, 0.9776305180937052, 0.1412244592085481, 192.0, 0.0, 0.0, 0.0, 0.0, 0.0, 0.0, 0.0, 0.0, 0.0, 1.7419856850581E9, 0.0, 2025-03-14 15:54:45.058
106.0, 13388.069079884182, 21907.972920891396, -8355.327946582789, 2530.2174723407593, 12129.64351530594, 6995.648979622005, 1683.6451510960044, 17945.634477810203, 46117.34850613457, -2571.814068772086, 21306.532181087994, 45187.42652981598, 9276.935073964009, -1172.818383314417, 18511.915923585406, -16062.544710939494, 0.08459618833661081, 0.9776305180937052, 0.1412244592085481, 192.0, 0.0, 0.0, 0.0, 0.0, 0.0, 0.0, 0.0, 0.0, 0.0, 1.741985685117188E9, 0.0, 2025-03-14 15:54:45.117
108.0, 13394.12640263157, 21913.091470371663, -8372.404679346642, 2523.69076295981, 12127.87772749397, 6983.467278893862, 1670.368214889552, 17933.519832315425, 46100.338828604086, -2581.0900427210386, 21333.13075698981, 45226.40797214604, 9293.587123583213, -1189.5151364225312, 18494.883894310464, -16080.671975692747, 0.08459618833661081, 0.9776305180937052, 0.1412244592085481, 192.0, 0.0, 0.0, 0.0, 0.0, 0.0, 0.0, 0.0, 0.0, 0.0, 1.741985685117417E9, 0.0, 2025-03-14 15:54:45.117
110.0, 13422.110786689615, 21939.175956151004, -8320.816853143795, 2552.07747841805, 12139.388875888453, 7003.71795937037, 1680.3147411721638, 17954.0387337254, 46138.56031162266, -2555.4302400863457, 21308.476782855607, 45189.66170426151, 9279.527876320824, -1164.1235547213025, 18509.94897007334, -16070.904263365777, 0.08329809416830541, 0.9748152590468526, 0.14361222960427406, 192.0, 1.0, 72.0, 15.0, 48.0, 2.0, 72.0, 0.0, 0.0, 0.0, 1.741985685117609E9, 0.0, 2025-03-14 15:54:45.117
112.0, 13407.023359182282, 21921.361615820126, -8352.019888403403, 2535.8277601990417, 12128.347114127531, 6989.256380707787, 1682.0134737507672, 17948.294335400384, 46129.887834774, -2563.8568477459967, 21371.262833030563, 45250.70431836895, 9287.015710713353, -1168.5939036123639, 18515.626313164987, -16064.712830151659, 0.08329809416830541, 0.9748152590468526, 0.14361222960427406, 192.0, 0.0, 0.0, 0.0, 0.0, 0.0, 0.0, 0.0, 0.0, 0.0, 1.741985685117821E9, 0.0, 2025-03-14 15:54:45.117
114.0, 13422.021379711794, 21935.24204912687, -8345.627289489184, 2541.16982712386, 12141.892271267447, 6988.38466267403, 1692.0494070112, 17949.478977856514, 46140.90724479047, -2565.8908564914295, 21303.78291651999, 45192.45567231842, 9319.93983029602, -1182.0496537744586, 18510.28424624017, -16074.458190734173, 0.08329809416830541, 0.9748152590468526, 0.14361222960427406, 192.0, 0.0, 0.0, 0.0, 0.0, 0.0, 0.0, 0.0, 0.0, 0.0, 1.741985685118009E9, 0.0, 2025-03-14 15:54:45.118
116.0, 13422.647228556541, 21937.946610205963, -8345.627289489184, 2549.7976004836087, 12134.091512452545, 6992.0503487647, 1684.0251307517447, 17941.298239385873, 46148.30567220518, -2548.3223853495583, 21382.058725602477, 45256.56047541624, 9298.683321319024, -1170.069118746414, 18515.447499209346, -16067.484446464116, 0.08329809416830541, 0.9748152590468526, 0.14361222960427406, 192.0, 0.0, 0.0, 0.0, 0.0, 0.0, 0.0, 0.0, 0.0, 0.0, 1.741985685118196E9, 0.0, 2025-03-14 15:54:45.118
118.0, 13423.362484379111, 21936.985485194386, -8349.672955235596, 2546.780114982142, 12139.143006699445, 6992.989122031823, 1679.2865609272196, 17941.566460319336, 46139.119105234044, -2555.966681953273, 21305.79457352097, 45206.42551260299, 9317.905821550587, -1179.23333397309, 18511.75946137422, -16066.32215575244, 0.08329809416830541, 0.9748152590468526, 0.14361222960427406, 192.0, 0.0, 0.0, 0.0, 0.0, 0.0, 0.0, 0.0, 0.0, 0.0, 1.74198568511839E9, 0.0, 2025-03-14 15:54:45.118
120.0, 13433.309010661724, 21946.976714965906, -8333.669106205596, 2555.36318485298, 12136.572556087083, 6995.850145322102, 1681.3652731615632, 17945.343905132282, 46136.34748892159, -2556.681937775843, 21368.960603351665, 45247.843295078674, 9319.716312851468, -1179.009816528537, 18518.554391688634, -16059.996612071589, 0.08464904708415272, 0.9714076295234263, 0.144806114802137, 192.0, 1.0, 88.0, 15.0, 32.0, 2.0, 72.0, 0.0, 0.0, 0.0, 1.741985685118573E9, 0.0, 2025-03-14 15:54:45.118
122.0, 13436.259440929824, 21950.262421400836, -8360.13357164068, 2541.750972479698, 12130.49288159524, 6988.027034762745, 1677.8336975376246, 17942.415826608638, 46152.485448418316, -2557.844228487519, 21324.100652229867, 45207.85602424813, 9315.894164549609, -1167.6327786007857, 18519.873144611498, -16059.437818460205, 0.08464904708415272, 0.9714076295234263, 0.144806114802137, 192.0, 0.0, 0.0, 0.0, 0.0, 0.0, 0.0, 0.0, 0.0, 0.0, 1.741985685177028E9, 0.0, 2025-03-14 15:54:45.177
124.0, 13441.668563088007, 21957.414979626534, -8341.55927199832, 2551.2057603842927, 12131.856338007014, 6995.134889499533, 1684.0698342406554, 17953.45758836956, 46142.80714306917, -2544.947271936807, 21371.03931558601, 45255.04055679328, 9328.321734466761, -1174.1818397261907, 18510.99950206274, -16061.583585927916, 0.08464904708415272, 0.9714076295234263, 0.144806114802137, 192.0, 0.0, 0.0, 0.0, 0.0, 0.0, 0.0, 0.0, 0.0, 0.0, 1.741985685177242E9, 0.0, 2025-03-14 15:54:45.177
126.0, 13450.139874236569, 21965.34984890817, -8358.166618128613, 2543.494408547212, 12135.522024097685, 6992.966770287368, 1693.2340494673313, 17954.061085469853, 46139.23086395632, -2551.8986644624074, 21322.759547562546, 45209.48770159337, 9337.396542715614, -1171.94666528066, 18516.632141665476, -16058.32023123744, 0.08464904708415272, 0.9714076295234263, 0.144806114802137, 192.0, 0.0, 0.0, 0.0, 0.0, 0.0, 0.0, 0.0, 0.0, 0.0, 1.741985685177444E9, 0.0, 2025-03-14 15:54:45.177
128.0, 13462.343926709167, 21980.39257292659, -8326.98593461346, 2555.02790868615, 12140.595870089039, 6999.091148268122, 1689.0542732541887, 17962.130065218218, 46155.25706473077, -2542.8238562135525, 21382.550463980493, 45255.97933006041, 9337.03891480433, -1158.0885837183696, 18528.970304604805, -16056.710905636659, 0.08464904708415272, 0.9714076295234263, 0.144806114802137, 192.0, 0.0, 0.0, 0.0, 0.0, 0.0, 0.0, 0.0, 0.0, 0.0, 1.741985685177618E9, 0.0, 2025-03-14 15:54:45.177
130.0, 13464.512045921332, 21981.599567127178, -8345.381420300177, 2540.678088745843, 12137.0642944651, 6985.836563806125, 1680.5606103611722, 17945.433312110104, 46151.97135829584, -2545.6625277593766, 21350.90039383178, 45235.50513213935, 9338.961164827486, -1167.6998338341516, 18527.830365637587, -16062.410600472762, 0.08332452354207637, 0.9717038147617132, 0.1444030574010685, 192.0, 1.0, 72.0, 15.0, 48.0, 2.0, 64.0, 0.0, 0.0, 0.0, 1.741985685177813E9, 0.0, 2025-03-14 15:54:45.177
132.0, 13476.492580949376, 21987.54513115229, -8331.478635248975, 2549.3058621055916, 12142.138140456456, 6980.449793392396, 1687.1990784643983, 17953.815216280844, 46143.00830876927, -2550.5128563061785, 21370.525225463538, 45251.061946280235, 9346.426647475559, -1166.0234530000034, 18515.916885842908, -16080.023775103544, 0.08332452354207637, 0.9717038147617132, 0.1444030574010685, 192.0, 0.0, 0.0, 0.0, 0.0, 0.0, 0.0, 0.0, 0.0, 0.0, 1.741985685178013E9, 0.0, 2025-03-14 15:54:45.178
134.0, 13479.219493772924, 21992.842494588196, -8334.004382372426, 2546.3777835819465, 12154.096323740045, 6979.086336980622, 1693.9046018009903, 17952.652925569168, 46163.77307936825, -2546.7577632376865, 21372.335716764417, 45248.44679217897, 9344.258528263394, -1153.908807505227, 18536.592249464065, -16072.759458155568, 0.08332452354207637, 0.9717038147617132, 0.1444030574010685, 192.0, 0.0, 0.0, 0.0, 0.0, 0.0, 0.0, 0.0, 0.0, 0.0, 1.741985685178214E9, 0.0, 2025-03-14 15:54:45.178
136.0, 13485.589740942687, 21993.200122499482, -8323.096731078236, 2551.2728156176586, 12138.427750876876, 6985.769508572759, 1684.4945173853062, 17956.475073871028, 46139.29791918969, -2537.9064724333853, 21373.05097258699, 45253.20771374795, 9347.030144575852, -1156.1216302063026, 18521.884801612476, -16072.915920366755, 0.08332452354207637, 0.9717038147617132, 0.1444030574010685, 192.0, 0.0, 0.0, 0.0, 0.0, 0.0, 0.0, 0.0, 0.0, 0.0, 1.741985685237322E9, 0.0, 2025-03-14 15:54:45.237
138.0, 13483.332214752701, 21990.24969223138, -8359.775943729395, 2540.968661423762, 12141.311125911609, 6986.95415102889, 1681.2088109503761, 17944.092207442787, 46148.81976232764, -2549.417620827868, 21365.04904807199, 45248.80442009025, 9357.46840923648, -1166.7387088225735, 18511.401833462936, -16068.93730985371, 0.08332452354207637, 0.9717038147617132, 0.1444030574010685, 192.0, 0.0, 0.0, 0.0, 0.0, 0.0, 0.0, 0.0, 0.0, 0.0, 1.741985685237532E9, 0.0, 2025-03-14 15:54:45.237
140.0, 13484.069822319725, 21988.796828841787, -8333.490292249953, 2547.9871091827285, 12147.815483548104, 6991.312741197675, 1680.9629417613676, 17950.21658542354, 46140.05787850117, -2545.595472526011, 21359.46111195816, 45245.8763415666, 9356.66374643609, -1155.0487464724479, 18522.08596731257, -16072.178312799731, 0.0846622617710382, 0.9748519073808566, 0.14220152870053426, 192.0, 1.0, 88.0, 15.0, 72.0, 2.0, 48.0, 0.0, 0.0, 0.0, 1.741985685237726E9, 0.0, 2025-03-14 15:54:45.237
142.0, 13483.086345563692, 21989.914416064552, -8355.774981471895, 2542.6673940023657, 12139.478282866274, 6991.67036910896, 1669.5859038336164, 17947.377913877717, 46132.905320275466, -2542.8909114469184, 21362.903280604278, 45257.990987061385, 9322.42087393056, -1140.7436300210513, 18527.405682492936, -16062.388248728306, 0.0846622617710382, 0.9748519073808566, 0.14220152870053426, 192.0, 0.0, 0.0, 0.0, 0.0, 0.0, 0.0, 0.0, 0.0, 0.0, 1.741985685237916E9, 0.0, 2025-03-14 15:54:45.237
144.0, 13491.267084034334, 21994.943558566996, -8328.036466602858, 2544.7237544922536, 12151.280003938677, 6990.441023163918, 1685.5674011191609, 17952.250594168974, 46128.25615742876, -2539.627556756444, 21355.70601888967, 45238.61202461863, 9345.063191063786, -1140.8106852544172, 18509.703100884333, -16071.552463954982, 0.0846622617710382, 0.9748519073808566, 0.14220152870053426, 192.0, 0.0, 0.0, 0.0, 0.0, 0.0, 0.0, 0.0, 0.0, 0.0, 1.741985685238098E9, 0.0, 2025-03-14 15:54:45.238
146.0, 13486.550865954265, 21990.49556142039, -8350.410562802621, 2532.810274697575, 12146.988469003258, 6985.1660114724655, 1693.4128634229737, 17951.244765668485, 46135.56517786565, -2549.8870074614297, 21379.734144179125, 45259.08622253969, 9337.888281093632, -1143.3811358667774, 18530.75844416123, -16070.189007543207, 0.0846622617710382, 0.9748519073808566, 0.14220152870053426, 192.0, 0.0, 0.0, 0.0, 0.0, 0.0, 0.0, 0.0, 0.0, 0.0, 1.741985685238288E9, 0.0, 2025-03-14 15:54:45.238
148.0, 13492.00469160136, 21992.462514932457, -8329.98106837047, 2541.4603998017787, 12145.803826547126, 6986.976502773346, 1683.4439853959068, 17948.540204589393, 46130.51368361875, -2543.941443436318, 21346.720617618637, 45227.793780302265, 9346.001964330908, -1145.5045515900317, 18522.309484757126, -16075.441667490206, 0.0846622617710382, 0.9748519073808566, 0.14220152870053426, 192.0, 0.0, 0.0, 0.0, 0.0, 0.0, 0.0, 0.0, 0.0, 0.0, 1.741985685238487E9, 0.0, 2025-03-14 15:54:45.238
150.0, 13486.23794153189, 21982.5383403943, -8360.759420485429, 2530.2174723407593, 12143.345134657042, 6989.815174319169, 1677.8784010265354, 17949.724847045523, 46130.42427664093, -2544.254367858692, 21380.00236511259, 45265.56822843173, 9345.733743397444, -1142.688231788663, 18522.242429523758, -16072.021850588544, 0.0893311308855191, 0.9754259536904283, 0.14110076435026714, 192.0, 1.0, 120.0, 15.0, 64.0, 2.0, 48.0, 0.0, 0.0, 0.0, 1.741985685238683E9, 0.0, 2025-03-14 15:54:45.238
152.0, 13483.913360108538, 21976.30220369127, -8340.262870819912, 2531.0221351411506, 12154.342192929053, 6987.803517318192, 1684.0921859851107, 17950.909489501653, 46118.421389868425, -2556.883103475941, 21329.062739498942, 45212.59459407265, 9331.585089157235, -1149.1925894251574, 18512.00533056323, -16084.51647573906, 0.0893311308855191, 0.9754259536904283, 0.14110076435026714, 192.0, 0.0, 0.0, 0.0, 0.0, 0.0, 0.0, 0.0, 0.0, 0.0, 1.741985685297656E9, 0.0, 2025-03-14 15:54:45.297
154.0, 13480.225322273413, 21972.033020500305, -8363.173408886601, 2522.4390652703128, 12133.644477563439, 6976.582941601628, 1674.145659702499, 17938.325457373317, 46114.84511075558, -2553.1950656408153, 21362.657411415268, 45250.10082126866, 9343.342106740727, -1158.6026738408416, 18515.179278275882, -16078.70502218068, 0.0893311308855191, 0.9754259536904283, 0.14110076435026714, 192.0, 0.0, 0.0, 0.0, 0.0, 0.0, 0.0, 0.0, 0.0, 0.0, 1.741985685297915E9, 0.0, 2025-03-14 15:54:45.297
156.0, 13489.166020055536, 21979.118523492638, -8345.716696467007, 2529.256347329181, 12149.625974848983, 6974.839505534113, 1683.5780958626385, 17938.92895447361, 46100.40588383745, -2559.3641471104797, 21327.811041809447, 45204.45855909092, 9329.37226645616, -1158.6920808186628, 18513.23467650827, -16086.863408906867, 0.0893311308855191, 0.9754259536904283, 0.14110076435026714, 192.0, 0.0, 0.0, 0.0, 0.0, 0.0, 0.0, 0.0, 0.0, 0.0, 1.741985685298119E9, 0.0, 2025-03-14 15:54:45.298
158.0, 13480.068860062225, 21973.754104823365, -8377.65733929364, 2520.44976001379, 12133.152739185422, 6974.794802045203, 1672.4916306128064, 17937.140814917188, 46117.54967183467, -2552.703327262798, 21378.214225556163, 45256.89575158307, 9364.218636061983, -1158.2897494184672, 18506.797374105143, -16093.032490376532, 0.0893311308855191, 0.9754259536904283, 0.14110076435026714, 192.0, 0.0, 0.0, 0.0, 0.0, 0.0, 0.0, 0.0, 0.0, 0.0, 1.741985685298312E9, 0.0, 2025-03-14 15:54:45.298
160.0, 13489.680110178007, 21983.87944506162, -8333.110312594214, 2536.297146832603, 12150.520044627196, 6985.121307983555, 1688.406072664985, 17953.34582964728, 46110.106540931054, -2550.691670261821, 21333.331922689908, 45208.68303879297, 9332.099179279707, -1158.267397674012, 18510.105432284527, -16089.433859519228, 0.09166556544275956, 0.9757129768452142, 0.13955038217513357, 192.0, 1.0, 120.0, 15.0, 64.0, 2.0, 40.0, 0.0, 0.0, 0.0, 1.741985685298537E9, 0.0, 2025-03-14 15:54:45.298
162.0, 13473.251578003357, 21968.25557568736, -8372.09175492427, 2521.9473268922957, 12142.048733478634, 6970.413860131963, 1677.274903926242, 17940.515928329936, 46108.564270563635, -2549.909359205885, 21387.780772183036, 45259.91323708454, 9346.739571897933, -1152.2547784155345, 18518.37557773299, -16085.008214117077, 0.09166556544275956, 0.9757129768452142, 0.13955038217513357, 192.0, 0.0, 0.0, 0.0, 0.0, 0.0, 0.0, 0.0, 0.0, 0.0, 1.741985685298749E9, 0.0, 2025-03-14 15:54:45.298
164.0, 13486.66262467654, 21981.532511893813, -8329.042295103347, 2534.397248553902, 12145.423846891386, 6988.518773140761, 1678.146621959999, 17949.65779181216, 46101.25525012675, -2549.104696405494, 21326.93932377569, 45202.64806779004, 9334.13318802514, -1154.1323249497802, 18516.34156898756, -16088.070403107455, 0.09166556544275956, 0.9757129768452142, 0.13955038217513357, 192.0, 0.0, 0.0, 0.0, 0.0, 0.0, 0.0, 0.0, 0.0, 0.0, 1.74198568529893E9, 0.0, 2025-03-14 15:54:45.298
166.0, 13485.477982220411, 21980.68314560451, -8345.537882511364, 2532.0279636416394, 12141.914623011902, 6985.14365972801, 1679.7559475607811, 17944.11455918724, 46103.87040422802, -2542.1309521354383, 21402.108240378886, 45265.97055983193, 9320.006885529387, -1144.364612622811, 18518.397929477447, -16086.058746106477, 0.09166556544275956, 0.9757129768452142, 0.13955038217513357, 192.0, 0.0, 0.0, 0.0, 0.0, 0.0, 0.0, 0.0, 0.0, 0.0, 1.741985685357777E9, 0.0, 2025-03-14 15:54:45.357
168.0, 13484.628615931108, 21975.654003102067, -8353.65156574864, 2528.4069810398796, 12136.594907831539, 6978.035804991223, 1678.8618777825689, 17942.616992308736, 46094.996761679264, -2545.5060655481893, 21340.17155649323, 45212.70635279493, 9328.589955400224, -1150.8019150259395, 18507.557333416622, -16091.691385709213, 0.09166556544275956, 0.9757129768452142, 0.13955038217513357, 192.0, 0.0, 0.0, 0.0, 0.0, 0.0, 0.0, 0.0, 0.0, 0.0, 1.741985685357992E9, 0.0, 2025-03-14 15:54:45.357
170.0, 13493.502258479866, 21982.560692138755, -8348.264795334911, 2531.871501430452, 12150.117713227, 6981.2321044483315, 1679.9124097719682, 17944.181614420606, 46101.79169199368, -2545.394306825913, 21390.440629773217, 45256.06873703823, 9328.947583311508, -1152.590054582364, 18507.222057249794, -16100.207400346686, 0.08783278272137979, 0.9748564884226071, 0.1387751910875668, 192.0, 1.0, 80.0, 15.0, 56.0, 2.0, 40.0, 0.0, 0.0, 0.0, 1.741985685358191E9, 0.0, 2025-03-14 15:54:45.358
172.0, 13495.156287569558, 21984.192369483993, -8351.03641164737, 2533.145550864405, 12132.683352551861, 6990.753947586292, 1683.1981162068982, 17951.088303457298, 46107.82666299661, -2539.8510742009967, 21343.323152461428, 45214.44978886245, 9335.004906058897, -1147.203284168635, 18514.50872594222, -16088.115106596364, 0.08783278272137979, 0.9748564884226071, 0.1387751910875668, 192.0, 0.0, 0.0, 0.0, 0.0, 0.0, 0.0, 0.0, 0.0, 0.0, 1.741985685358395E9, 0.0, 2025-03-14 15:54:45.358
174.0, 13494.083403835702, 21981.219587471438, -8344.755571455427, 2534.844283443008, 12138.740675299248, 6984.204886460887, 1678.6830638269264, 17942.54993707537, 46102.574003049616, -2541.236882357226, 21390.150057095296, 45257.32043472772, 9330.378094956648, -1145.4151446122105, 18509.32312122859, -16087.779830429536, 0.08783278272137979, 0.9748564884226071, 0.1387751910875668, 192.0, 0.0, 0.0, 0.0, 0.0, 0.0, 0.0, 0.0, 0.0, 0.0, 1.741985685358578E9, 0.0, 2025-03-14 15:54:45.358
176.0, 13506.063938863748, 21992.082535276717, -8345.426123789088, 2536.095981132505, 12144.283907924166, 6988.898752796502, 1682.751081317792, 17942.63934405319, 46111.090017687085, -2535.35837356548, 21354.029638055523, 45225.02216398981, 9334.870795592165, -1145.5492550789422, 18519.403757977936, -16087.42220251825, 0.08783278272137979, 0.9748564884226071, 0.1387751910875668, 192.0, 0.0, 0.0, 0.0, 0.0, 0.0, 0.0, 0.0, 0.0, 0.0, 1.741985685358777E9, 0.0, 2025-03-14 15:54:45.358
178.0, 13508.880258665116, 21995.21177950046, -8339.122931852691, 2537.9958794112063, 12139.1653584439, 6987.2223719623535, 1674.5032876137839, 17950.50715810146, 46111.00061070926, -2532.139722363916, 21397.72729846565, 45265.65763540955, 9332.210938001983, -1143.5599498224199, 18516.833307365574, -16087.489257751617, 0.08783278272137979, 0.9748564884226071, 0.1387751910875668, 192.0, 0.0, 0.0, 0.0, 0.0, 0.0, 0.0, 0.0, 0.0, 0.0, 1.741985685358972E9, 0.0, 2025-03-14 15:54:45.358
180.0, 13525.688770495508, 22013.78607914282, -8335.546652739842, 2546.422487070857, 12145.78147480267, 6988.630531863038, 1673.0951277130996, 17937.74431201748, 46116.11916018953, -2522.7966931815977, 21366.636021928316, 45233.89580653856, 9332.99324905792, -1141.168313165702, 18511.4688886963, -16090.439688019716, 0.0849163913606899, 0.9744282442113035, 0.1393875955437834, 192.0, 1.0, 72.0, 15.0, 56.0, 2.0, 48.0, 0.0, 0.0, 0.0, 1.741985685359161E9, 0.0, 2025-03-14 15:54:45.359
182.0, 13513.440014533999, 22001.60437841468, -8323.432007245065, 2546.3554318374913, 12144.663887579905, 6988.9211045409575, 1667.6860055549153, 17940.672390541124, 46126.4903696168, -2510.682047686821, 21413.1052986509, 45272.452565723965, 9341.822188117765, -1127.5337490479649, 18532.792452906662, -16080.113182081364, 0.0849163913606899, 0.9744282442113035, 0.1393875955437834, 192.0, 0.0, 0.0, 0.0, 0.0, 0.0, 0.0, 0.0, 0.0, 0.0, 1.741985685417295E9, 0.0, 2025-03-14 15:54:45.417
184.0, 13499.939560882995, 21990.964948053952, -8345.60493774473, 2532.229129341737, 12142.40636138992, 6975.018319489756, 1659.8852467400131, 17932.558707303848, 46106.9325932184, -2525.031867627128, 21370.18994929671, 45238.410858918534, 9327.382961199637, -1144.5210748339982, 18518.397929477447, -16095.222961333153, 0.0849163913606899, 0.9744282442113035, 0.1393875955437834, 192.0, 0.0, 0.0, 0.0, 0.0, 0.0, 0.0, 0.0, 0.0, 0.0, 1.741985685417503E9, 0.0, 2025-03-14 15:54:45.417
186.0, 13499.067842849237, 21987.20985498546, -8327.589431713752, 2540.4322195568348, 12145.937937013858, 6980.025110247745, 1674.9726742473454, 17942.862861497746, 46101.21054663784, -2526.2165100832594, 21382.88574014732, 45245.49636191087, 9322.286763463828, -1144.7222405340958, 18519.582571933577, -16096.787583445024, 0.0849163913606899, 0.9744282442113035, 0.1393875955437834, 192.0, 0.0, 0.0, 0.0, 0.0, 0.0, 0.0, 0.0, 0.0, 0.0, 1.741985685417698E9, 0.0, 2025-03-14 15:54:45.417
188.0, 13508.723796453929, 21993.96008181096, -8340.240519075456, 2542.7791527246422, 12152.241128950254, 6990.105746997088, 1691.3117994441748, 17950.149530190174, 46106.23968914029, -2524.8754054159413, 21372.60393769788, 45244.93756829949, 9323.091426264218, -1143.0011562110374, 18526.221040036802, -16085.969339128655, 0.0849163913606899, 0.9744282442113035, 0.1393875955437834, 192.0, 0.0, 0.0, 0.0, 0.0, 0.0, 0.0, 0.0, 0.0, 0.0, 1.741985685417873E9, 0.0, 2025-03-14 15:54:45.417
190.0, 13512.724758711429, 21992.618977143644, -8321.889736877649, 2549.037641172128, 12161.226530221287, 6993.726729598848, 1687.3778924200408, 17950.820082523835, 46111.46999734283, -2521.3214780475473, 21375.88964413281, 45240.35546068614, 9321.817376830266, -1141.235368399068, 18528.590324949066, -16084.337661783418, 0.08445819568034496, 0.9752141221056517, 0.13969379777189173, 192.0, 1.0, 80.0, 15.0, 64.0, 2.0, 48.0, 0.0, 0.0, 0.0, 1.741985685418055E9, 0.0, 2025-03-14 15:54:45.418
192.0, 13506.488622008399, 21985.935805551508, -8342.252176076434, 2540.611033512477, 12146.1167509695, 6996.632456378038, 1680.7841278057251, 17948.294335400384, 46111.5370525762, -2518.3263442905363, 21383.399830269795, 45253.364175959134, 9317.570545383758, -1139.0896009313585, 18530.110243572028, -16081.968376871155, 0.08445819568034496, 0.9752141221056517, 0.13969379777189173, 192.0, 0.0, 0.0, 0.0, 0.0, 0.0, 0.0, 0.0, 0.0, 0.0, 1.741985685418247E9, 0.0, 2025-03-14 15:54:45.418
194.0, 13505.326331296723, 21981.77838108282, -8324.057856089814, 2542.8238562135525, 12154.185730717867, 6999.851107579602, 1678.4818981268286, 17952.518815102438, 46107.044351940676, -2523.8025216820865, 21361.539824192503, 45227.57026285771, 9310.239173202417, -1142.3529556218334, 18529.462042982825, -16082.70598443818, 0.08445819568034496, 0.9752141221056517, 0.13969379777189173, 192.0, 0.0, 0.0, 0.0, 0.0, 0.0, 0.0, 0.0, 0.0, 0.0, 1.741985685418441E9, 0.0, 2025-03-14 15:54:45.418
196.0, 13498.509049237855, 21977.576253125222, -8344.88968192216, 2535.3807253099353, 12149.424809148886, 6991.357444686586, 1679.018339993756, 17941.45470159706, 46099.198889636864, -2530.4186380408573, 21378.460094745173, 45250.994891046874, 9300.784385297822, -1150.5113423480204, 18522.644760923955, -16086.416374017761, 0.08445819568034496, 0.9752141221056517, 0.13969379777189173, 192.0, 0.0, 0.0, 0.0, 0.0, 0.0, 0.0, 0.0, 0.0, 0.0, 1.741985685476917E9, 0.0, 2025-03-14 15:54:45.476
198.0, 13492.697595679474, 21967.383857653604, -8343.526225510386, 2533.145550864405, 12148.039000992656, 6984.473107394351, 1674.4809358693285, 17936.604373050257, 46103.49042457229, -2526.954117650285, 21360.601050925383, 45222.76463779982, 9302.438414387514, -1151.0924877038585, 18526.221040036802, -16085.254083306085, 0.08445819568034496, 0.9752141221056517, 0.13969379777189173, 192.0, 0.0, 0.0, 0.0, 0.0, 0.0, 0.0, 0.0, 0.0, 0.0, 1.741985685477128E9, 0.0, 2025-03-14 15:54:45.477
200.0, 13496.944427125982, 21974.178787968016, -8353.696269237551, 2530.888024674419, 12144.172149201888, 6989.032863263234, 1680.5829621056275, 17941.186480663597, 46094.817947723626, -2537.750010222198, 21383.71275469217, 45246.882170067096, 9300.471460875448, -1161.8436767868611, 18502.99757754774, -16098.70983346818, 0.08422909784017249, 0.9746070610528259, 0.13784689888594587, 192.0, 1.0, 80.0, 15.0, 56.0, 2.0, 32.0, 0.0, 0.0, 0.0, 1.741985685477325E9, 0.0, 2025-03-14 15:54:45.477
202.0, 13494.306921280257, 21967.20504369796, -8339.994649886448, 2528.518739762156, 12147.569614359096, 6979.399261402997, 1671.4858021123175, 17929.07183516882, 46096.02494192421, -2529.211643840271, 21341.959696049656, 45209.93473648247, 9311.066187747263, -1159.2061709411348, 18505.85860083802, -16096.385252044827, 0.08422909784017249, 0.9746070610528259, 0.13784689888594587, 192.0, 0.0, 0.0, 0.0, 0.0, 0.0, 0.0, 0.0, 0.0, 0.0, 1.741985685477531E9, 0.0, 2025-03-14 15:54:45.477
204.0, 13499.157249827058, 21971.228357699914, -8338.519434752398, 2530.9550799077847, 12146.675544580883, 6981.545028870706, 1674.2350666803202, 17935.419730594127, 46100.383532092994, -2537.370030566458, 21394.888626919823, 45252.49245792538, 9274.02934718482, -1165.9563977666376, 18507.4679264388, -16099.268627079562, 0.08422909784017249, 0.9746070610528259, 0.13784689888594587, 192.0, 0.0, 0.0, 0.0, 0.0, 0.0, 0.0, 0.0, 0.0, 0.0, 1.74198568547772E9, 0.0, 2025-03-14 15:54:45.477
206.0, 13501.660645206053, 21973.284718189803, -8331.143359082145, 2536.140684621416, 12140.64057357795, 6978.639302091516, 1661.5839793186165, 17929.69768401357, 46103.69159027238, -2531.0668386300613, 21351.772111865535, 45213.309849895224, 9287.954483980475, -1162.9389122651712, 18518.107356799526, -16091.311406053474, 0.08422909784017249, 0.9746070610528259, 0.13784689888594587, 192.0, 0.0, 0.0, 0.0, 0.0, 0.0, 0.0, 0.0, 0.0, 0.0, 1.741985685477901E9, 0.0, 2025-03-14 15:54:45.477
208.0, 13504.968703385437, 21976.078686246718, -8350.36585931371, 2530.843321185508, 12136.97488748728, 6979.533371869728, 1669.3847381335186, 17932.134024159197, 46102.05991292714, -2530.686858974321, 21395.782696698036, 45263.020129563825, 9295.88935326211, -1165.7552320665397, 18506.99853980524, -16097.435784034227, 0.08422909784017249, 0.9746070610528259, 0.13784689888594587, 192.0, 0.0, 0.0, 0.0, 0.0, 0.0, 0.0, 0.0, 0.0, 0.0, 1.741985685478087E9, 0.0, 2025-03-14 15:54:45.478
210.0, 13496.698557936974, 21967.137988464594, -8357.630176261686, 2527.490559517212, 12126.268401893187, 6966.23408391882, 1653.2914821256975, 17916.35369257375, 46110.88885198699, -2535.0230973986504, 21343.189041994698, 45207.07371319219, 9300.024425986341, -1172.1254792363025, 18494.70508035482, -16106.734109727635, 0.08211454892008624, 0.9723035305264129, 0.13792344944297294, 192.0, 1.0, 64.0, 15.0, 40.0, 2.0, 40.0, 0.0, 0.0, 0.0, 1.741985685478267E9, 0.0, 2025-03-14 15:54:45.478
212.0, 13505.348683041178, 21972.658869345054, -8355.998498916448, 2534.173731109349, 12132.504538596218, 6972.269054921753, 1650.341051857597, 17915.638436751182, 46119.02488696872, -2528.496388017701, 21392.38523154083, 45258.63918765059, 9306.014693500363, -1165.9340460221822, 18497.02966177817, -16100.252103835595, 0.08211454892008624, 0.9723035305264129, 0.13792344944297294, 192.0, 0.0, 0.0, 0.0, 0.0, 0.0, 0.0, 0.0, 0.0, 0.0, 1.741985685537398E9, 0.0, 2025-03-14 15:54:45.537
214.0, 13496.407985259055, 21967.830892542708, -8354.500932037941, 2537.012402655173, 12134.762064786204, 6976.42647939044, 1665.6072933205717, 17922.947457188067, 46107.178462407406, -2542.3991730689017, 21325.397053408273, 45199.38471309957, 9298.348045152194, -1177.1769734832017, 18480.80229530362, -16107.8516969504, 0.08211454892008624, 0.9723035305264129, 0.13792344944297294, 192.0, 0.0, 0.0, 0.0, 0.0, 0.0, 0.0, 0.0, 0.0, 0.0, 1.741985685537608E9, 0.0, 2025-03-14 15:54:45.537
216.0, 13507.606209231164, 21980.414924671048, -8332.707981194018, 2544.500237047701, 12140.126483455479, 6981.925008526446, 1668.401261377485, 17933.45277708206, 46123.20466318187, -2527.937594406318, 21408.679653248746, 45267.40107147707, 9298.504507363381, -1165.1293832217912, 18511.75946137422, -16088.8974176523, 0.08211454892008624, 0.9723035305264129, 0.13792344944297294, 192.0, 0.0, 0.0, 0.0, 0.0, 0.0, 0.0, 0.0, 0.0, 0.0, 1.74198568553781E9, 0.0, 2025-03-14 15:54:45.537
218.0, 13497.816145159739, 21980.21375897095, -8338.98882138596, 2538.778190467142, 12130.671695550884, 6981.612084104072, 1660.75696477377, 17926.59079153428, 46119.762494535746, -2528.7646089511645, 21347.726446119126, 45210.582937071675, 9313.07784474824, -1171.812554813928, 18501.38825194696, -16091.33375779793, 0.08211454892008624, 0.9723035305264129, 0.13792344944297294, 192.0, 0.0, 0.0, 0.0, 0.0, 0.0, 0.0, 0.0, 0.0, 0.0, 1.741985685538003E9, 0.0, 2025-03-14 15:54:45.538
220.0, 13494.843363147183, 21980.21375897095, -8347.236615089967, 2537.034754399628, 12124.614372803495, 6987.892924296013, 1658.6111973060606, 17925.27203861142, 46134.24642494279, -2528.608146739977, 21394.37453679735, 45253.90061782606, 9311.692036592012, -1172.460755403132, 18502.215266491803, -16088.875065907845, 0.08305727446004313, 0.9771517652632065, 0.1389617247214865, 192.0, 1.0, 80.0, 15.0, 88.0, 2.0, 48.0, 0.0, 0.0, 0.0, 1.741985685538197E9, 0.0, 2025-03-14 15:54:45.538
222.0, 13493.85988639115, 21987.433372430012, -8354.635042504673, 2539.2252253562483, 12126.693085037838, 6990.418671419463, 1672.4916306128064, 17945.03098070991, 46134.89462553199, -2531.916204919363, 21342.22791698312, 45205.33027712468, 9330.087522278729, -1173.5112873925314, 18493.967472787797, -16082.102487337886, 0.08305727446004313, 0.9771517652632065, 0.1389617247214865, 192.0, 0.0, 0.0, 0.0, 0.0, 0.0, 0.0, 0.0, 0.0, 0.0, 1.741985685538393E9, 0.0, 2025-03-14 15:54:45.538
224.0, 13500.453651005466, 21998.16220976856, -8350.879949436183, 2546.2883766041255, 12143.233375934766, 6991.513906897772, 1671.4410986234068, 17943.041675453387, 46123.65169807097, -2528.4069810398796, 21385.23267331513, 45243.19413223197, 9340.481083450448, -1165.8669907888163, 18501.23178973577, -16074.100562822887, 0.08305727446004313, 0.9771517652632065, 0.1389617247214865, 192.0, 0.0, 0.0, 0.0, 0.0, 0.0, 0.0, 0.0, 0.0, 0.0, 1.741985685538592E9, 0.0, 2025-03-14 15:54:45.538
226.0, 13501.727700439418, 22009.60630292968, -8343.861501677216, 2541.1474753794046, 12127.542451327141, 6986.082432995133, 1672.5586858461722, 17945.50036734347, 46137.241558699796, -2522.2378995702147, 21352.375608965827, 45211.3205446387, 9322.08559776373, -1162.5142291205204, 18503.489315925755, -16063.215263273152, 0.08305727446004313, 0.9771517652632065, 0.1389617247214865, 192.0, 0.0, 0.0, 0.0, 0.0, 0.0, 0.0, 0.0, 0.0, 0.0, 1.741985685597569E9, 0.0, 2025-03-14 15:54:45.597
228.0, 13512.43418603351, 22027.577105471744, -8322.828510144773, 2551.5410365511225, 12131.856338007014, 6984.271941694253, 1672.5586858461722, 17940.22535565202, 46149.13268675002, -2521.5896989810108, 21397.168504854264, 45242.07654500921, 9331.115702523673, -1164.6152930993192, 18505.299807226635, -16065.986879585611, 0.08305727446004313, 0.9771517652632065, 0.1389617247214865, 192.0, 0.0, 0.0, 0.0, 0.0, 0.0, 0.0, 0.0, 0.0, 0.0, 1.741985685597798E9, 0.0, 2025-03-14 15:54:45.597
230.0, 13504.208744073958, 22027.577105471744, -8343.727391210485, 2538.845245700508, 12128.481224594263, 6976.962921257368, 1669.9658834893567, 17934.70447477156, 46152.44074492941, -2515.934707633818, 21366.45720797267, 45219.94831799845, 9337.664763649078, -1161.7766215534953, 18517.95089458834, -16061.047144060987, 0.082, 0.978, 0.146, 192.0, 1.0, 72.0, 15.0, 72.0, 2.0, 72.0, 0.0, 0.0, 0.0, 1.741985685597992E9, 0.0, 2025-03-14 15:54:45.597
