%OpenBCI Raw EXG Data
%Number of channels = 16
%Sample Rate = 125 Hz
%Board = OpenBCI_GUI$BoardCytonSerialDaisy
Sample Index, EXG Channel 0, EXG Channel 1, EXG Channel 2, EXG Channel 3, EXG Channel 4, EXG Channel 5, EXG Channel 6, EXG Channel 7, EXG Channel 8, EXG Channel 9, EXG Channel 10, EXG Channel 11, EXG Channel 12, EXG Channel 13, EXG Channel 14, EXG Channel 15, Accel Channel 0, Accel Channel 1, Accel Channel 2, Not Used, Digital Channel 0 (D11), Digital Channel 1 (D12), Digital Channel 2 (D13), Digital Channel 3 (D17), Not Used, Digital Channel 4 (D18), Analog Channel 0, Analog Channel 1, Analog Channel 2, Timestamp, Marker Channel, Timestamp (Formatted)
0.0, 15470.134075896034, 13548.35343937319, -10739.677934608215, -5747.840493660033, 16142.742770045135, 17292.628263548406, -28411.95057773001, 13160.863597495985, 0.0, 0.0, 0.0, 0.0, 0.0, 0.0, 0.0, 0.0, 0.0, 0.0, 0.0, 192.0, 0.0, 0.0, 0.0, 0.0, 0.0, 0.0, 0.0, 0.0, 0.0, 1.741716406360771E9, 0.0, 2025-03-11 13:06:46.360
100.0, 15460.500474035798, 13537.557546801276, -10741.443722420183, -5762.592645000535, 16207.115794076419, 17276.69146975177, -28422.344138901728, 13149.955946201795, 36034.297768389915, 8872.770830723148, 1892.4104443085726, 46449.24955955143, -16139.188842676742, -240.214197661185, 62260.203034901984, 42259.7726893154, 0.0, 0.0, 0.0, 192.0, 0.0, 0.0, 0.0, 0.0, 0.0, 0.0, 0.0, 0.0, 0.0, 1.741716406361422E9, 0.0, 2025-03-11 13:06:46.361
106.0, 15478.672442277963, 13555.371887132156, -10728.770283314025, -5746.789961670633, 16131.835118750945, 17290.303682125053, -28409.62599630666, 13159.880120739952, 36026.742878764024, 8870.155676621876, 1889.5941245072038, 46445.85209439422, -16144.48620611265, -254.34050015693907, 62293.12715448465, 42235.811619259315, 0.0, 0.0, 0.0, 192.0, 0.0, 0.0, 0.0, 0.0, 0.0, 0.0, 0.0, 0.0, 0.0, 1.741716406362157E9, 0.0, 2025-03-11 13:06:46.362
108.0, 15474.313852109177, 13549.53808182932, -10730.93840252619, -5751.349717539516, 16217.799927926057, 17280.55832154254, -28415.705670798503, 13149.911242712886, 36039.21515217008, 8881.778583738636, 1904.2792206143406, 46463.778193447375, -16138.205365920707, -233.17339815776327, 62245.00384867238, 42242.092459451254, 0.0, 0.0, 0.0, 192.0, 0.0, 0.0, 0.0, 0.0, 0.0, 0.0, 0.0, 0.0, 0.0, 1.741716406362912E9, 0.0, 2025-03-11 13:06:46.362
110.0, 15480.997023701315, 13559.283442411834, -10729.79846355897, -5747.9746041267645, 16125.174298903263, 17289.297853624565, -28409.46953409547, 13155.968565460273, 36030.47562008806, 8875.47539180224, 1897.037255410821, 46454.412812520604, -16146.877842769367, -247.34440414242795, 62310.8073843488, 42233.62114830269, -0.07, 0.47600000000000003, -0.10400000000000001, 192.0, 125.5, 80.0, 14.5, 96.0, 124.5, 64.0, 0.0, 0.0, 0.0, 1.74171640636365E9, 0.0, 2025-03-11 13:06:46.363
112.0, 15469.642337518018, 13546.945279472504, -10735.095826994877, -5755.28362456365, 16219.364550037928, 17282.23470237669, -28416.733851043446, 13143.429236820846, 36037.67288180267, 8879.722223248747, 1903.51926130286, 46460.62659747918, -16139.971153732677, -238.51546508258167, 62235.660819490055, 42242.33832864027, -0.07, 0.47600000000000003, -0.10400000000000001, 192.0, 0.0, 0.0, 0.0, 0.0, 0.0, 0.0, 0.0, 0.0, 0.0, 1.741716406364461E9, 0.0, 2025-03-11 13:06:46.364
114.0, 15475.699660265407, 13553.762561531374, -10728.949097269666, -5742.788999413133, 16187.44625895575, 17289.2307983912, -28414.029289964354, 13162.69644054132, 36030.855599743794, 8876.101240646987, 1896.7243309884468, 46452.80348691982, -16152.219909694186, -245.5786163304587, 62325.47012871148, 42238.51618033841, -0.07, 0.47600000000000003, -0.10400000000000001, 192.0, 0.0, 0.0, 0.0, 0.0, 0.0, 0.0, 0.0, 0.0, 0.0, 1.741716406365214E9, 0.0, 2025-03-11 13:06:46.365
116.0, 15461.01456415827, 13538.541023557309, -10743.65654512126, -5757.295281564628, 16210.826183656, 17277.60789127444, -28428.133240715655, 13146.17850138885, 36028.44161134263, 8875.274226102141, 1893.5056797868824, 46452.669376453094, -16145.402627635316, -239.11896218287495, 62254.52569181034, 42245.82520077529, -0.07, 0.47600000000000003, -0.10400000000000001, 192.0, 0.0, 0.0, 0.0, 0.0, 0.0, 0.0, 0.0, 0.0, 0.0, 1.741716406366007E9, 0.0, 2025-03-11 13:06:46.366
116.0, 15476.817247488172, 13553.2484714089, -10728.524414125015, -5741.000859856708, 16206.512296976127, 17285.408650089343, -28423.0593947243, 13149.017172934673, 36028.44161134263, 8875.274226102141, 1893.5056797868824, 46452.669376453094, -16145.402627635316, -239.11896218287495, 62254.52569181034, 42245.82520077529, -0.10300000000000001, 0.7130000000000001, -0.157, 192.0, 125.5, 96.0, 14.5, 88.0, 124.5, 56.0, 0.0, 0.0, 0.0, 1.741716406366781E9, 0.0, 2025-03-11 13:06:46.366
116.0, 15483.20984640239, 13560.490436612421, -10727.697399580169, -5737.312822021583, 16146.207290435708, 17293.36587111543, -28411.078859696256, 13161.690612040831, 36028.44161134263, 8875.274226102141, 1893.5056797868824, 46452.669376453094, -16145.402627635316, -239.11896218287495, 62254.52569181034, 42245.82520077529, -0.10300000000000001, 0.7130000000000001, -0.157, 192.0, 62.75, 48.0, 7.25, 44.0, 62.25, 28.0, 0.0, 0.0, 0.0, 1.741716406367579E9, 0.0, 2025-03-11 13:06:46.367
126.0, 15463.115628137068, 13540.91030846957, -10746.159940500253, -5763.553770012113, 16165.452142411727, 17272.936376683283, -28433.29649368483, 13141.12700714195, 36033.09077418933, 8863.56191200756, 1898.4007118225948, 46449.00369036242, -16148.129540458864, -243.32109014047268, 62332.60033519272, 42236.21395065951, -0.10300000000000001, 0.7130000000000001, -0.157, 192.0, 0.0, 0.0, 0.0, 0.0, 0.0, 0.0, 0.0, 0.0, 0.0, 1.741716406368405E9, 0.0, 2025-03-11 13:06:46.368
128.0, 15466.401334571998, 13543.883090482128, -10741.421370675727, -5763.598473501024, 16166.502674401127, 17267.303737080543, -28438.169173976086, 13134.935573927829, 36026.47465783056, 8855.60469098147, 1892.1198716306535, 46439.28068152436, -16152.9128137723, -261.20248570471836, 62275.51397985387, 42216.790284727846, -0.10300000000000001, 0.7130000000000001, -0.157, 192.0, 0.0, 0.0, 0.0, 0.0, 0.0, 0.0, 0.0, 0.0, 0.0, 1.741716406369172E9, 0.0, 2025-03-11 13:06:46.369
130.0, 15480.43823008993, 13560.15516044559, -10725.26105943454, -5746.477037248259, 16165.943880789744, 17282.637033776886, -28419.974853989468, 13146.402018833402, 36033.51545733398, 8861.170275350843, 1901.7087700019802, 46444.30982402681, -16146.989601491643, -252.28413966705082, 62358.32719306078, 42218.22079637299, -0.12150000000000001, 0.8305, -0.1815, 192.0, 125.5, 80.0, 14.5, 80.0, 124.5, 72.0, 0.0, 0.0, 0.0, 1.741716406369911E9, 0.0, 2025-03-11 13:06:46.369
130.0, 15468.122418895056, 13566.59246284872, -10725.26105943454, -5737.424580743859, 16158.38899116385, 17280.625376775908, -28419.080784211255, 13146.111446155483, 36033.51545733398, 8861.170275350843, 1901.7087700019802, 46444.30982402681, -16146.989601491643, -252.28413966705082, 62358.32719306078, 42218.22079637299, -0.12150000000000001, 0.8305, -0.1815, 192.0, 62.75, 40.0, 7.25, 40.0, 62.25, 36.0, 0.0, 0.0, 0.0, 1.741716406370701E9, 0.0, 2025-03-11 13:06:46.370
130.0, 15479.074773678158, 13559.39520113411, -10722.60120184436, -5742.498426735214, 16159.439523153249, 17282.435868076787, -28419.594874333725, 13142.468111809269, 36033.51545733398, 8861.170275350843, 1901.7087700019802, 46444.30982402681, -16146.989601491643, -252.28413966705082, 62358.32719306078, 42218.22079637299, -0.12150000000000001, 0.8305, -0.1815, 192.0, 31.375, 20.0, 3.625, 20.0, 31.125, 18.0, 0.0, 0.0, 0.0, 1.741716406371501E9, 0.0, 2025-03-11 13:06:46.371
138.0, 15462.646241503508, 13565.787800048329, -10728.636172847293, -5743.3924965134265, 16195.470535215205, 17277.406725574343, -28425.160458703096, 13143.384533331935, 36031.03441369944, 8876.838848214013, 1892.1869268640194, 46454.59162647625, -16155.907947529311, -237.084953437442, 62340.98223936347, 42217.773761483884, -0.12150000000000001, 0.8305, -0.1815, 192.0, 0.0, 0.0, 0.0, 0.0, 0.0, 0.0, 0.0, 0.0, 0.0, 1.741716406372287E9, 0.0, 2025-03-11 13:06:46.372
140.0, 15479.678270778451, 13592.74400386143, -10715.202774429652, -5731.143740551918, 16133.511499585093, 17288.04615593507, -28426.09923197022, 13155.901510226908, 36035.66122480169, 8879.18578138182, 1893.617438509159, 46449.54013222935, -16151.817578293989, -239.70010753871293, 62302.291369711325, 42215.78445622736, -0.12150000000000001, 0.8305, -0.1815, 192.0, 0.0, 0.0, 0.0, 0.0, 0.0, 0.0, 0.0, 0.0, 0.0, 1.741716406373019E9, 0.0, 2025-03-11 13:06:46.373
140.0, 15465.462561304876, 13576.226064708957, -10724.501100123061, -5739.145665066918, 16205.886448131378, 17280.759487242638, -28434.05645299631, 13147.050219422606, 36035.66122480169, 8879.18578138182, 1893.617438509159, 46449.54013222935, -16151.817578293989, -239.70010753871293, 62302.291369711325, 42215.78445622736, -0.12150000000000001, 0.8305, -0.1815, 192.0, 0.0, 0.0, 0.0, 0.0, 0.0, 0.0, 0.0, 0.0, 0.0, 1.741716406373757E9, 0.0, 2025-03-11 13:06:46.373
140.0, 15473.844465475615, 13576.896617042616, -10722.824719288912, -5735.2341097872395, 16190.91077934632, 17290.214275147235, -28416.800906276814, 13154.627460792955, 36035.66122480169, 8879.18578138182, 1893.617438509159, 46449.54013222935, -16151.817578293989, -239.70010753871293, 62302.291369711325, 42215.78445622736, -0.12150000000000001, 0.8305, -0.1815, 192.0, 0.0, 0.0, 0.0, 0.0, 0.0, 0.0, 0.0, 0.0, 0.0, 1.741716406374522E9, 0.0, 2025-03-11 13:06:46.374
0.0, 14536.635820464591, 1438.9829562882135, -8260.243625669913, 5269.7590315054695, 16725.78802416182, -5568.8253723174785, -7601.202440405184, 6501.0719300594255, 22466.67712529625, 5394.437062077172, 24176.11618949368, 15152.672249397308, -8201.90557264156, 31070.24354579968, 52276.28228381661, 21101.589036177284, -0.14, 0.9420000000000001, -0.202, 192.0, 125.5, 80.0, 14.5, 56.0, 124.5, 88.0, 0.0, 0.0, 0.0, 1.741716406471764E9, 0.0, 2025-03-11 13:06:46.471
2.0, 15465.01552641577, 13580.472896155465, -10802.307522571984, -5690.798841810089, 16137.534813587048, 17276.870283707416, -28368.029399875333, 12987.928150645275, 36055.04018724444, 8903.258610160186, 1747.7723059382804, 46447.39436476164, -16125.867202981379, -206.10543562238644, 63293.65829153756, 42149.42212693956, -0.14, 0.9420000000000001, -0.202, 192.0, 0.0, 0.0, 0.0, 0.0, 0.0, 0.0, 0.0, 0.0, 0.0, 1.741716406494823E9, 0.0, 2025-03-11 13:06:46.494
4.0, 15475.945529454415, 13593.481611428453, -10789.70113869919, -5681.679330072324, 16112.031473163543, 17290.147219913866, -28356.764120669857, 12999.931037417775, 36052.49208837654, 8901.33636013703, 1745.2242070703755, 46439.12421931318, -16134.159700174298, -222.7574852415902, 63247.16666307052, 42154.60773165318, -0.14, 0.9420000000000001, -0.202, 192.0, 0.0, 0.0, 0.0, 0.0, 0.0, 0.0, 0.0, 0.0, 0.0, 1.741716406495664E9, 0.0, 2025-03-11 13:06:46.495
6.0, 15467.742439239317, 13593.302797472812, -10795.154964346286, -5688.742481320201, 16157.651383596825, 17286.861513478936, -28366.062446363267, 12993.13610710336, 36056.40364365622, 8901.202249670298, 1745.403021026018, 46446.790867661344, -16132.885650740345, -214.39793281530535, 63308.209277177964, 42157.28994098782, -0.14, 0.9420000000000001, -0.202, 192.0, 0.0, 0.0, 0.0, 0.0, 0.0, 0.0, 0.0, 0.0, 0.0, 1.741716406525852E9, 0.0, 2025-03-11 13:06:46.525
8.0, 15487.367270871076, 13614.425195983076, -10776.51360947056, -5668.849428754977, 16115.764214487579, 17309.123850956425, -28345.632951931115, 13013.744415491155, 36069.099434506825, 8910.545278852616, 1756.8694659315904, 46452.78113517537, -16122.246220379619, -211.4027990582942, 63284.49407631089, 42177.25004878641, -0.146, 0.9440000000000001, -0.20400000000000001, 192.0, 125.5, 56.0, 14.5, 64.0, 124.5, 80.0, 0.0, 0.0, 0.0, 1.741716406571928E9, 0.0, 2025-03-11 13:06:46.571
10.0, 15471.072849163158, 13603.048158055326, -10792.115127100364, -5688.2730946866395, 16171.464761670204, 17290.03546119159, -28364.0954928512, 12994.90189491533, 36071.84869907483, 8911.439348630827, 1751.5273990067722, 46456.580931732766, -16128.974095460666, -201.09864486439764, 63307.739890544406, 42175.59601969672, -0.146, 0.9440000000000001, -0.20400000000000001, 192.0, 0.0, 0.0, 0.0, 0.0, 0.0, 0.0, 0.0, 0.0, 0.0, 1.741716406596939E9, 0.0, 2025-03-11 13:06:46.596
12.0, 15488.909541238492, 13622.091844331248, -10772.378536746328, -5674.638530568902, 16111.293865596517, 17303.960597987247, -28346.16939379804, 13011.129261389884, 36078.57657415588, 8914.52388936566, 1753.6061112411155, 46453.07170785328, -16130.337551872439, -208.98881065712104, 63307.22580042193, 42178.63585694264, -0.146, 0.9440000000000001, -0.20400000000000001, 192.0, 0.0, 0.0, 0.0, 0.0, 0.0, 0.0, 0.0, 0.0, 0.0, 1.741716406623003E9, 0.0, 2025-03-11 13:06:46.623
14.0, 15490.250645905811, 13622.02478909788, -10773.965510602655, -5683.243952184195, 16171.800037837034, 17293.254112393155, -28356.495899736394, 13001.138031618362, 36081.43759744616, 8910.701741063804, 1753.1814280964647, 46456.96091138851, -16122.313275612983, -206.08308387793113, 63317.41819589355, 42170.58922893873, -0.146, 0.9440000000000001, -0.20400000000000001, 192.0, 0.0, 0.0, 0.0, 0.0, 0.0, 0.0, 0.0, 0.0, 0.0, 1.741716406623815E9, 0.0, 2025-03-11 13:06:46.623
16.0, 15497.626721576062, 13636.776940438383, -10766.500027954582, -5674.4820683577145, 16104.051900392999, 17299.602007818463, -28347.711664165457, 13007.932961932775, 36095.36273424181, 8922.794034814124, 1762.524457278783, 46460.31367305681, -16112.746728986112, -207.87122343435567, 63306.66700681055, 42173.58436269574, -0.146, 0.9440000000000001, -0.20400000000000001, 192.0, 0.0, 0.0, 0.0, 0.0, 0.0, 0.0, 0.0, 0.0, 0.0, 1.741716406671093E9, 0.0, 2025-03-11 13:06:46.671
18.0, 15491.837619762138, 13632.88773690316, -10771.730336157125, -5681.83579228351, 16187.267445000107, 17290.95188271426, -28357.70289393698, 12998.053490883529, 36096.83794937586, 8922.883441791946, 1760.8257247001798, 46464.5158010144, -16117.127670899354, -199.33285705242838, 63295.55818981626, 42168.912848104585, -0.164, 0.9420000000000001, -0.20400000000000001, 192.0, 125.0, 112.0, 14.5, 56.0, 124.5, 80.0, 0.0, 0.0, 0.0, 1.741716406719152E9, 0.0, 2025-03-11 13:06:46.719
20.0, 15501.40416638901, 13646.410542298621, -10763.817818619946, -5668.782373521612, 16103.8507346929, 17301.256036908155, -28345.1412135531, 13003.820240952999, 36095.20627203063, 8926.14679648242, 1758.791715954747, 46459.33019630077, -16117.708816255192, -205.61369724436966, 63316.52412611534, 42163.05669105729, -0.164, 0.9420000000000001, -0.20400000000000001, 192.0, 0.0, 0.0, 0.0, 0.0, 0.0, 0.0, 0.0, 0.0, 0.0, 1.741716406783255E9, 0.0, 2025-03-11 13:06:46.783
22.0, 15495.615064575084, 13642.878966674682, -10765.047164564987, -5669.1400014328965, 16204.567695208514, 17298.50677234015, -28347.42109148754, 13007.441223554759, 36099.47545522159, 8933.142892496931, 1762.8373817011575, 46470.52842027288, -16114.736034242635, -190.63802845931394, 63278.66027100805, 42169.315179504774, -0.164, 0.9420000000000001, -0.20400000000000001, 192.0, 0.0, 0.0, 0.0, 0.0, 0.0, 0.0, 0.0, 0.0, 0.0, 1.741716406815296E9, 0.0, 2025-03-11 13:06:46.815
24.0, 15491.2564744063, 13642.99072539696, -10772.490295468604, -5674.750289291178, 16105.929446927244, 17291.242455392177, -28355.62418170264, 13001.853287440932, 36091.339420239856, 8925.163319726387, 1757.4282595429731, 46460.13485910116, -16126.649514037314, -202.28328732052893, 63319.00516974988, 42164.06251955778, -0.164, 0.9420000000000001, -0.20400000000000001, 192.0, 0.0, 0.0, 0.0, 0.0, 0.0, 0.0, 0.0, 0.0, 0.0, 1.74171640684532E9, 0.0, 2025-03-11 13:06:46.845
26.0, 15481.645224290518, 13628.864422901204, -10782.548580473493, -5690.061234243064, 16179.287872229563, 17273.137542383378, -28378.959402913977, 12978.898045885331, 36081.45994919061, 8918.234278945241, 1747.72760244937, 46454.43516426506, -16121.642723279325, -206.6642292337691, 63281.25307336487, 42148.68451937253, -0.161, 0.9430000000000001, -0.20500000000000002, 192.0, 125.5, 8.0, 14.5, 64.0, 124.5, 72.0, 0.0, 0.0, 0.0, 1.74171640684618E9, 0.0, 2025-03-11 13:06:46.846
28.0, 15492.709337795895, 13648.332792321777, -10767.617615177347, -5670.481106100215, 16084.583530972426, 17297.500943839663, -28359.155757326575, 12999.305188573026, 36077.1684142552, 8917.854299289502, 1743.2796053027637, 46445.13683857165, -16122.201516890707, -212.49803453660425, 63351.146978276614, 42140.727298346435, -0.161, 0.9430000000000001, -0.20500000000000002, 192.0, 0.0, 0.0, 0.0, 0.0, 0.0, 0.0, 0.0, 0.0, 0.0, 1.741716406874388E9, 0.0, 2025-03-11 13:06:46.874
30.0, 15487.054346448702, 13644.085960875269, -10766.634138421314, -5669.855257255466, 16172.559997148515, 17296.67392929482, -28359.267516048854, 12998.589932750456, 36084.81271085891, 8930.192462228832, 1753.6061112411155, 46458.70434745602, -16111.070348151965, -186.7264731796352, 63269.89838718157, 42159.23454275543, -0.161, 0.9430000000000001, -0.20500000000000002, 192.0, 0.0, 0.0, 0.0, 0.0, 0.0, 0.0, 0.0, 0.0, 0.0, 1.741716406890409E9, 0.0, 2025-03-11 13:06:46.890
32.0, 15486.517904581775, 13654.27835634689, -10764.51072269806, -5657.271225127128, 16107.538772528027, 17304.67585380982, -28345.27532401983, 13008.58116252198, 36078.6659811337, 8928.784302328146, 1750.5439222507384, 46458.10085035573, -16115.652455765303, -196.67299946224685, 63345.268469484865, 42159.5027636889, -0.161, 0.9430000000000001, -0.20500000000000002, 192.0, 0.0, 0.0, 0.0, 0.0, 0.0, 0.0, 0.0, 0.0, 0.0, 1.741716406945489E9, 0.0, 2025-03-11 13:06:46.945
34.0, 15482.181666157445, 13672.785600755884, -10777.340624015407, -5658.142943160885, 16155.036229495554, 17289.968405958225, -28354.70776017997, 12990.275083813081, 36073.39096944225, 8927.9572877833, 1748.1969890829314, 46458.547885244836, -16123.564973302482, -190.90624939277762, 63274.94988142847, 42162.63200791264, -0.161, 0.9430000000000001, -0.20500000000000002, 192.0, 0.0, 0.0, 0.0, 0.0, 0.0, 0.0, 0.0, 0.0, 0.0, 1.741716406946318E9, 0.0, 2025-03-11 13:06:46.946
36.0, 15474.604424787096, 13646.27643183189, -10778.569969960448, -5667.1506961763735, 16118.692293011225, 17289.923702469314, -28352.13730956761, 12994.410156537315, 36066.171355983184, 8918.636610345437, 1738.6080907116045, 46446.76851591689, -16128.61646754938, -203.78085419903448, 63361.04880107031, 42148.63981588362, -0.1585, 0.9455, -0.20750000000000002, 192.0, 125.5, 16.0, 14.5, 80.0, 124.5, 56.0, 0.0, 0.0, 0.0, 1.741716406971561E9, 0.0, 2025-03-11 13:06:46.971
72.0, 15504.06402397919, 13688.61063583024, -10753.200740003675, -5635.500626027659, 16161.361773176406, 17309.213257934243, -28333.115975036144, 13012.626828268389, 36075.20146074313, 8935.15454949791, 1773.0521289172327, 46462.23592307996, -16098.016929390065, -163.637121157303, 63297.83806775071, 42212.655212003614, -0.15425, 0.94475, -0.20575000000000002, 192.0, 125.5, 40.0, 14.5, 64.0, 124.5, 80.0, 0.0, 0.0, 0.0, 1.741716406972431E9, 0.0, 2025-03-11 13:06:46.972
72.0, 15489.78125927225, 13523.788872216806, -10805.369711562362, -5692.609333110969, 16180.87484608589, 17294.863437993936, -28329.629102901115, 13025.255563885637, 36075.20146074313, 8935.15454949791, 1773.0521289172327, 46462.23592307996, -16098.016929390065, -163.637121157303, 63297.83806775071, 42212.655212003614, -0.15425, 0.94475, -0.20575000000000002, 192.0, 62.75, 20.0, 7.25, 32.0, 62.25, 40.0, 0.0, 0.0, 0.0, 1.741716406987544E9, 0.0, 2025-03-11 13:06:46.987
68.0, 15491.502343595308, 13677.166542669123, -10789.567028232459, -5658.679385027813, 16173.521122160093, 17289.320205369022, -28356.02651310283, 12997.695862972245, 36091.831158617875, 8945.034020547155, 1778.68476851997, 46469.61199875021, -16105.147135871308, -159.70321413316896, 63303.24718990889, 42187.241278557936, -0.150125, 0.9453750000000001, -0.20287500000000003, 192.0, 125.5, 56.0, 14.5, 72.0, 124.5, 96.0, 0.0, 0.0, 0.0, 1.741716407010601E9, 0.0, 2025-03-11 13:06:47.010
68.0, 15478.761849255783, 13545.067732938258, -10810.868240698366, -5695.693873845801, 16194.799982881545, 17301.501906097164, -28341.877858862623, 13025.7249505192, 36091.831158617875, 8945.034020547155, 1778.68476851997, 46469.61199875021, -16105.147135871308, -159.70321413316896, 63303.24718990889, 42187.241278557936, -0.1460625, 0.9456875, -0.19643750000000001, 192.0, 188.25, 100.0, 21.75, 108.0, 187.25, 56.0, 0.0, 0.0, 0.0, 1.741716407011498E9, 0.0, 2025-03-11 13:06:47.011
68.0, 15493.290483151733, 13539.122168913147, -10806.33083657394, -5688.69777783129, 16111.740900485624, 17304.251170665168, -28326.544562166284, 13032.989267467174, 36091.831158617875, 8945.034020547155, 1778.68476851997, 46469.61199875021, -16105.147135871308, -159.70321413316896, 63303.24718990889, 42187.241278557936, -0.1460625, 0.9456875, -0.19643750000000001, 192.0, 94.125, 50.0, 10.875, 54.0, 93.625, 28.0, 0.0, 0.0, 0.0, 1.741716407038636E9, 0.0, 2025-03-11 13:06:47.038
68.0, 15494.028090718759, 13682.888589249682, -10779.240522294107, -5654.253739625662, 16117.798223233012, 17291.08599318099, -28350.058597333267, 12997.785269950065, 36091.831158617875, 8945.034020547155, 1778.68476851997, 46469.61199875021, -16105.147135871308, -159.70321413316896, 63303.24718990889, 42187.241278557936, -0.1460625, 0.9456875, -0.19643750000000001, 192.0, 47.0625, 25.0, 5.4375, 27.0, 46.8125, 14.0, 0.0, 0.0, 0.0, 1.741716407039465E9, 0.0, 2025-03-11 13:06:47.039
68.0, 15493.759869785294, 13574.370869919167, -10796.13844110232, -5675.465545113748, 16104.27541783755, 17321.640827851395, -28322.029509786313, 13044.656878072845, 36091.831158617875, 8945.034020547155, 1778.68476851997, 46469.61199875021, -16105.147135871308, -159.70321413316896, 63303.24718990889, 42187.241278557936, -0.1460625, 0.9456875, -0.19643750000000001, 192.0, 23.53125, 12.5, 2.71875, 13.5, 23.40625, 7.0, 0.0, 0.0, 0.0, 1.741716407063656E9, 0.0, 2025-03-11 13:06:47.063
90.0, 15485.623834803562, 13520.257296592868, -10791.8469061669, -5707.316780962561, 16172.492941915149, 17301.99364447518, -28263.870270713604, 13035.24679365716, 36068.80886182891, 8928.851357561512, 1792.788719271269, 46472.96476041851, -16102.196705603208, -172.95779859516605, 63401.39369981214, 42219.02545917338, -0.14903125, 0.94684375, -0.19621875, 192.0, 125.5, 32.0, 14.5, 80.0, 124.5, 112.0, 0.0, 0.0, 0.0, 1.741716407126761E9, 0.0, 2025-03-11 13:06:47.126
88.0, 15486.629663304051, 13515.161098857057, -10790.394042777305, -5703.114653004963, 16119.027569178053, 17302.552438086565, -28263.646753269048, 13039.225404170205, 36066.41722517219, 8921.497633635716, 1793.012236715822, 46468.65087373863, -16099.983882902132, -177.02581608603194, 63315.227724936936, 42219.092514406744, -0.14903125, 0.94684375, -0.19621875, 192.0, 0.0, 0.0, 0.0, 0.0, 0.0, 0.0, 0.0, 0.0, 0.0, 1.741716407142801E9, 0.0, 2025-03-11 13:06:47.142
114.0, 15476.794895743717, 13509.14847959858, -10801.458156282682, -5708.389664696416, 16156.48909288515, 17300.719595041228, -28275.26966038581, 13031.6258110554, 36049.69812031962, 8915.037979488132, 1769.9005329490344, 46467.33212081577, -16110.891534196322, -191.4650430041603, 63381.344185035734, 42212.386991070154, -0.14903125, 0.94684375, -0.19621875, 192.0, 0.0, 0.0, 0.0, 0.0, 0.0, 0.0, 0.0, 0.0, 0.0, 1.741716407201904E9, 0.0, 2025-03-11 13:06:47.201
112.0, 15495.369195386076, 13528.48273855242, -10780.447516494694, -5695.98444652372, 16114.870144709366, 17313.862420780948, -28257.50002354384, 13054.357535166448, 36065.72432109408, 8931.91354655189, 1787.133727924076, 46478.53034478788, -16094.820629932956, -179.73037716512408, 63354.499739944906, 42228.10026742223, -0.14903125, 0.94684375, -0.19621875, 192.0, 0.0, 0.0, 0.0, 0.0, 0.0, 0.0, 0.0, 0.0, 0.0, 1.741716407231934E9, 0.0, 2025-03-11 13:06:47.231
112.0, 15479.030070189247, 13522.760691971862, -10798.954760903689, -5690.530620876625, 16105.728281227146, 17302.351272386466, -28272.945078962457, 13025.635543541377, 36065.72432109408, 8931.91354655189, 1787.133727924076, 46478.53034478788, -16094.820629932956, -179.73037716512408, 63354.499739944906, 42228.10026742223, -0.14903125, 0.94684375, -0.19621875, 192.0, 0.0, 0.0, 0.0, 0.0, 0.0, 0.0, 0.0, 0.0, 0.0, 1.741716407265031E9, 0.0, 2025-03-11 13:06:47.265
112.0, 15501.44886987792, 13546.744113772407, -10777.340624015407, -5676.583132336514, 16188.742660134158, 17305.14524044338, -28259.802253222737, 13036.990229724674, 36065.72432109408, 8931.91354655189, 1787.133727924076, 46478.53034478788, -16094.820629932956, -179.73037716512408, 63354.499739944906, 42228.10026742223, -0.14903125, 0.94684375, -0.19621875, 192.0, 0.0, 0.0, 0.0, 0.0, 0.0, 0.0, 0.0, 0.0, 0.0, 1.741716407265613E9, 0.0, 2025-03-11 13:06:47.265
112.0, 15499.213695432389, 13536.752884000885, -10780.447516494694, -5654.141980903385, 16148.286002670051, 17327.47463315423, -28253.67787524198, 13048.76959905262, 36065.72432109408, 8931.91354655189, 1787.133727924076, 46478.53034478788, -16094.820629932956, -179.73037716512408, 63354.499739944906, 42228.10026742223, -0.14851562499999998, 0.952421875, -0.194109375, 192.0, 125.5, 48.0, 14.5, 120.0, 125.0, 0.0, 0.0, 0.0, 0.0, 1.741716407266119E9, 0.0, 2025-03-11 13:06:47.266
112.0, 15484.752116769805, 13532.863680465662, -10789.567028232459, -5682.215771939251, 16170.05660176952, 17308.453298622764, -28265.703113758937, 13030.664686043821, 36065.72432109408, 8931.91354655189, 1787.133727924076, 46478.53034478788, -16094.820629932956, -179.73037716512408, 63354.499739944906, 42228.10026742223, -0.14825781249999997, 0.9542109375000001, -0.1940546875, 192.0, 188.25, 72.0, 21.75, 172.0, 187.0, 120.0, 0.0, 0.0, 0.0, 1.741716407266674E9, 0.0, 2025-03-11 13:06:47.266
138.0, 15504.935742012947, 13549.605137062686, -10764.600129675882, -5664.133210674908, 16130.29284838353, 17319.67387433933, -28247.10646237212, 13042.712276305232, 36067.53481239496, 8923.397531914417, 1781.9257714659896, 46466.28158882637, -16105.795336460513, -183.2619527890626, 63380.33835653524, 42216.231491116465, -0.14825781249999997, 0.9542109375000001, -0.1940546875, 192.0, 0.0, 0.0, 0.0, 0.0, 0.0, 0.0, 0.0, 0.0, 0.0, 1.741716407297091E9, 0.0, 2025-03-11 13:06:47.297
138.0, 15486.652015048507, 13525.711122239964, -10796.697234713702, -5668.514152588147, 16136.663095553291, 17319.919743528335, -28263.445587568953, 13040.030066970596, 36067.53481239496, 8923.397531914417, 1781.9257714659896, 46466.28158882637, -16105.795336460513, -183.2619527890626, 63380.33835653524, 42216.231491116465, -0.14825781249999997, 0.9542109375000001, -0.1940546875, 192.0, 0.0, 0.0, 0.0, 0.0, 0.0, 0.0, 0.0, 0.0, 0.0, 1.741716407297774E9, 0.0, 2025-03-11 13:06:47.297
138.0, 15498.386680887543, 13538.473968323944, -10774.390193747306, -5670.950492733776, 16157.62903185237, 17310.107327712456, -28262.104482901632, 13033.391598867369, 36067.53481239496, 8923.397531914417, 1781.9257714659896, 46466.28158882637, -16105.795336460513, -183.2619527890626, 63380.33835653524, 42216.231491116465, -0.14825781249999997, 0.9542109375000001, -0.1940546875, 192.0, 0.0, 0.0, 0.0, 0.0, 0.0, 0.0, 0.0, 0.0, 0.0, 1.741716407313166E9, 0.0, 2025-03-11 13:06:47.313
138.0, 15498.587846587641, 13545.626526549642, -10784.649644452293, -5682.416937639348, 16106.801164961002, 17299.93728398529, -28265.41254108102, 13030.798796510553, 36067.53481239496, 8923.397531914417, 1781.9257714659896, 46466.28158882637, -16105.795336460513, -183.2619527890626, 63380.33835653524, 42216.231491116465, -0.14825781249999997, 0.9542109375000001, -0.1940546875, 192.0, 0.0, 0.0, 0.0, 0.0, 0.0, 0.0, 0.0, 0.0, 0.0, 1.741716407345199E9, 0.0, 2025-03-11 13:06:47.345
138.0, 15485.422669103466, 13528.05805540777, -10788.963531132165, -5673.923274746332, 16163.932223788766, 17314.801194048072, -28260.852785212137, 13038.644258814367, 36067.53481239496, 8923.397531914417, 1781.9257714659896, 46466.28158882637, -16105.795336460513, -183.2619527890626, 63380.33835653524, 42216.231491116465, -0.14825781249999997, 0.9542109375000001, -0.1940546875, 192.0, 0.0, 0.0, 0.0, 0.0, 0.0, 0.0, 0.0, 0.0, 0.0, 1.741716407378285E9, 0.0, 2025-03-11 13:06:47.378
150.0, 15497.537314598241, 13537.088160167714, -10791.489278255616, -5678.617141081946, 16100.028586391043, 17311.828412035517, -28269.793482994257, 13030.463520343725, 36066.77485308348, 8921.117653979976, 1790.1512134255427, 46467.19801034904, -16106.37648181635, -186.32414177943969, 63403.293598090844, 42225.529816809874, -0.14825781249999997, 0.9542109375000001, -0.1940546875, 192.0, 0.0, 0.0, 0.0, 0.0, 0.0, 0.0, 0.0, 0.0, 0.0, 1.741716407378873E9, 0.0, 2025-03-11 13:06:47.378
150.0, 15486.16027667049, 13540.150349158092, -10785.320196785951, -5677.1866294368065, 16128.437653593739, 17312.90129576937, -28255.35425607613, 13044.992154239673, 36066.77485308348, 8921.117653979976, 1790.1512134255427, 46467.19801034904, -16106.37648181635, -186.32414177943969, 63403.293598090844, 42225.529816809874, -0.14825781249999997, 0.9542109375000001, -0.1940546875, 192.0, 0.0, 0.0, 0.0, 0.0, 0.0, 0.0, 0.0, 0.0, 0.0, 1.741716407379393E9, 0.0, 2025-03-11 13:06:47.379
148.0, 15495.97269248637, 13536.685828767519, -10793.590342234414, -5678.013643981653, 16194.643520670357, 17310.576714346018, -28275.537881319273, 13023.690941773766, 36069.85939381831, 8925.47624414876, 1789.6594750475258, 46473.992940663455, -16100.363862557873, -169.87325786033367, 63458.949441784556, 42241.84659026225, -0.14825781249999997, 0.9542109375000001, -0.1940546875, 192.0, 0.0, 0.0, 0.0, 0.0, 0.0, 0.0, 0.0, 0.0, 0.0, 1.74171640740429E9, 0.0, 2025-03-11 13:06:47.404
176.0, 15481.220541145867, 13549.53808182932, -10798.015987636565, -5676.69489105879, 16181.59010190846, 17306.866324766437, -28277.25896564233, 13018.371226593403, 36074.217983987095, 8918.18957545633, 1779.4894313203613, 46461.475963768484, -16114.981903431644, -187.62054295784748, 63406.95928418152, 42203.088665376745, -0.14825781249999997, 0.9542109375000001, -0.1940546875, 192.0, 0.0, 0.0, 0.0, 0.0, 0.0, 0.0, 0.0, 0.0, 0.0, 1.741716407452484E9, 0.0, 2025-03-11 13:06:47.452
176.0, 15510.344864171133, 13553.986078975926, -10781.855676395378, -5661.227483895717, 16115.875973209855, 17321.90904878486, -28261.188061378965, 13042.958145494242, 36074.217983987095, 8918.18957545633, 1779.4894313203613, 46461.475963768484, -16114.981903431644, -187.62054295784748, 63406.95928418152, 42203.088665376745, -0.14825781249999997, 0.9542109375000001, -0.1940546875, 192.0, 0.0, 0.0, 0.0, 0.0, 0.0, 0.0, 0.0, 0.0, 0.0, 1.741716407496537E9, 0.0, 2025-03-11 13:06:47.496
164.0, 15498.45373612091, 13569.252320438902, -10783.375595018339, -5654.723126259223, 16110.176278373752, 17316.544630115586, -28262.663276513016, 13031.156424421839, 36078.50951892251, 8925.76681682668, 1796.4767571063946, 46474.708196486026, -16097.882818923334, -177.42814748622746, 63439.145796197154, 42220.61243302971, -0.14912890624999997, 0.9541054687500001, -0.19502734375, 192.0, 125.5, 40.0, 14.5, 104.0, 124.5, 112.0, 0.0, 0.0, 0.0, 1.741716407537512E9, 0.0, 2025-03-11 13:06:47.537
172.0, 15482.315776624177, 13554.343706887212, -10793.90326665679, -5669.207056666262, 16168.335517446461, 17307.42511837782, -28273.727390018394, 13019.600572538446, 36063.869126304286, 8913.47335737626, 1773.946198695445, 46456.82680092178, -16109.61748476237, -190.10158659238658, 63415.34118835226, 42198.23833682994, -0.14912890624999997, 0.9541054687500001, -0.19502734375, 192.0, 0.0, 0.0, 0.0, 0.0, 0.0, 0.0, 0.0, 0.0, 0.0, 1.741716407538078E9, 0.0, 2025-03-11 13:06:47.538
206.0, 15481.019375445769, 13557.182378433035, -10801.480508027138, -5671.97867297872, 16103.314292825973, 17309.526182356618, -28277.527186575793, 13019.57822079399, 36071.9157543082, 8930.036000017644, 1758.4564397879171, 46458.03379512236, -16129.04115069403, -187.6652464467581, 63520.394387292195, 42180.1557755656, -0.14912890624999997, 0.9541054687500001, -0.19502734375, 192.0, 0.0, 0.0, 0.0, 0.0, 0.0, 0.0, 0.0, 0.0, 0.0, 1.741716407538582E9, 0.0, 2025-03-11 13:06:47.538
206.0, 15481.555817312697, 13559.01522147837, -10795.75846144658, -5668.715318288246, 16113.66315050878, 17295.511638583142, -28292.636965827583, 13012.693883501755, 36071.9157543082, 8930.036000017644, 1758.4564397879171, 46458.03379512236, -16129.04115069403, -187.6652464467581, 63520.394387292195, 42180.1557755656, -0.14912890624999997, 0.9541054687500001, -0.19502734375, 192.0, 0.0, 0.0, 0.0, 0.0, 0.0, 0.0, 0.0, 0.0, 0.0, 1.741716407539099E9, 0.0, 2025-03-11 13:06:47.539
202.0, 15468.278881106244, 13531.969610687449, -10813.103415143898, -5675.890228258399, 16108.879877195344, 17308.341539900488, -28317.80503008426, 13036.856119257942, 36076.63197238827, 8922.302296436108, 1770.8616579606125, 46461.45361202402, -16115.205420876197, -172.17548753923032, 63515.298189556386, 42192.42688327156, -0.146564453125, 0.954052734375, -0.19451367187500002, 192.0, 125.5, 64.0, 14.5, 104.0, 124.5, 120.0, 0.0, 0.0, 0.0, 1.741716407773813E9, 0.0, 2025-03-11 13:06:47.773
252.0, 15467.608328772585, 13528.750959485884, -10808.633066252836, -5676.381966636416, 16165.362735433906, 17304.787612532094, -28324.689367376493, 13032.475177344702, 36087.38316147127, 8952.901834595423, 1769.654663760026, 46479.60322852174, -16133.153871673809, -158.96560656614383, 63526.18348910612, 42155.72531887595, -0.146564453125, 0.954052734375, -0.19451367187500002, 192.0, 0.0, 0.0, 0.0, 0.0, 0.0, 0.0, 0.0, 0.0, 0.0, 1.741716407774396E9, 0.0, 2025-03-11 13:06:47.774
250.0, 15495.324491897165, 13617.375626251178, -10781.430993250728, -5640.954451674754, 16083.465943749661, 17310.353196901466, -28323.594131898182, 13020.271124872104, 36088.92543183869, 8949.392610715939, 1769.2746841042858, 46470.506068528426, -16125.531926814549, -171.08025206092026, 63481.100020539765, 42145.15294374859, -0.146564453125, 0.954052734375, -0.19451367187500002, 192.0, 0.0, 0.0, 0.0, 0.0, 0.0, 0.0, 0.0, 0.0, 0.0, 1.741716407774891E9, 0.0, 2025-03-11 13:06:47.774
48.0, 15474.447962575909, 13673.590263556274, -10780.402813005783, -5622.49191075467, 16104.677749237748, 17324.077167997024, -28332.065443046744, 13011.844517212454, 36056.537754122946, 8929.231337217252, 1787.267838390808, 46465.83455393727, -16088.338624040918, -168.6439119152918, 63509.911419142656, 42230.11192442321, -0.146564453125, 0.954052734375, -0.19451367187500002, 192.0, 0.0, 0.0, 0.0, 0.0, 0.0, 0.0, 0.0, 0.0, 0.0, 1.74171640790906E9, 0.0, 2025-03-11 13:06:47.909
14.0, 15477.39839284401, 13677.926501980604, -10770.925673356733, -5633.131341115397, 16107.628179505848, 17323.116042985446, -28326.388099955097, 13032.38577036688, 36067.73597809506, 8928.33726743904, 1763.977320668378, 46446.589701961246, -16111.070348151965, -178.1434033087973, 63527.63635249572, 42176.043054585825, -0.146564453125, 0.954052734375, -0.19451367187500002, 192.0, 0.0, 0.0, 0.0, 0.0, 0.0, 0.0, 0.0, 0.0, 0.0, 1.741716407969105E9, 0.0, 2025-03-11 13:06:47.969
10.0, 15473.486837564331, 13522.693636738497, -10818.512537302082, -5683.087489973008, 16117.61940927737, 17317.595162104986, -28318.810858584748, 13036.587898324478, 36077.12371076628, 8947.023325803677, 1764.5137625353054, 46462.39238529115, -16114.467813309171, -164.59824616888122, 63520.50614601447, 42162.117917790165, -0.146564453125, 0.954052734375, -0.19451367187500002, 192.0, 0.0, 0.0, 0.0, 0.0, 0.0, 0.0, 0.0, 0.0, 0.0, 1.741716408000178E9, 0.0, 2025-03-11 13:06:48.000
40.0, 15481.332299868143, 13516.189279102002, -10801.055824882487, -5650.11866690143, 16146.251993924618, 17300.94311248578, -28320.867219074637, 13027.043703442063, 36043.81961152788, 8906.790185784124, 1772.1804108834758, 46452.55761773081, -16104.208362604186, -186.92763887973297, 63506.826878407825, 42222.48997956395, -0.1432822265625, 0.9550263671875001, -0.1932568359375, 192.0, 125.5, 80.0, 14.5, 112.0, 125.0, 0.0, 0.0, 0.0, 0.0, 1.741716408025317E9, 0.0, 2025-03-11 13:06:48.025
40.0, 15497.358500642598, 13510.467232521443, -10784.94021713021, -5663.909693230355, 16099.246275335108, 17310.219086434732, -28316.620387628125, 13034.039799456574, 36043.81961152788, 8906.790185784124, 1772.1804108834758, 46452.55761773081, -16104.208362604186, -186.92763887973297, 63506.826878407825, 42222.48997956395, -0.14464111328125, 0.95551318359375, -0.19362841796875002, 192.0, 188.25, 96.0, 21.75, 168.0, 187.0, 120.0, 0.0, 0.0, 0.0, 1.741716408025912E9, 0.0, 2025-03-11 13:06:48.025
40.0, 15483.679233035951, 13498.352587026668, -10796.205496335686, -5678.728899804223, 16179.243168740652, 17309.772051545628, -28320.621349885627, 13039.515976848124, 36043.81961152788, 8906.790185784124, 1772.1804108834758, 46452.55761773081, -16104.208362604186, -186.92763887973297, 63506.826878407825, 42222.48997956395, -0.14464111328125, 0.95551318359375, -0.19362841796875002, 192.0, 94.125, 48.0, 10.875, 84.0, 93.5, 60.0, 0.0, 0.0, 0.0, 1.741716408062405E9, 0.0, 2025-03-11 13:06:48.062
40.0, 15476.236102132334, 13506.756842941862, -10801.033473138032, -5662.12155367393, 16094.284188066029, 17281.698260509762, -28334.07710004772, 13015.040816669562, 36043.81961152788, 8906.790185784124, 1772.1804108834758, 46452.55761773081, -16104.208362604186, -186.92763887973297, 63506.826878407825, 42222.48997956395, -0.14464111328125, 0.95551318359375, -0.19362841796875002, 192.0, 47.0625, 24.0, 5.4375, 42.0, 46.75, 30.0, 0.0, 0.0, 0.0, 1.741716408063E9, 0.0, 2025-03-11 13:06:48.063
40.0, 15486.853180748605, 13494.508086980355, -10792.584513733926, -5672.64922531238, 16187.066279300008, 17292.404746103854, -28339.55327743927, 13029.34593312096, 36043.81961152788, 8906.790185784124, 1772.1804108834758, 46452.55761773081, -16104.208362604186, -186.92763887973297, 63506.826878407825, 42222.48997956395, -0.14464111328125, 0.95551318359375, -0.19362841796875002, 192.0, 23.53125, 12.0, 2.71875, 21.0, 23.375, 15.0, 0.0, 0.0, 0.0, 1.741716408063558E9, 0.0, 2025-03-11 13:06:48.063
40.0, 15476.414916087977, 13505.192220829991, -10795.04320562401, -5662.725050774223, 16143.8603572679, 17282.368812843422, -28336.379329726617, 13017.343046348458, 36043.81961152788, 8906.790185784124, 1772.1804108834758, 46452.55761773081, -16104.208362604186, -186.92763887973297, 63506.826878407825, 42222.48997956395, -0.14464111328125, 0.95551318359375, -0.19362841796875002, 192.0, 11.765625, 6.0, 1.359375, 10.5, 11.6875, 7.5, 0.0, 0.0, 0.0, 1.741716408064072E9, 0.0, 2025-03-11 13:06:48.064
66.0, 15493.78222152975, 13519.76555821485, -10779.955778116677, -5644.284861598595, 16109.885705695833, 17303.357100886955, -28323.392966198084, 13033.324543634004, 36035.23654165704, 8908.66773231837, 1765.6313497580709, 46462.01240563541, -16114.66897900927, -187.15115632428603, 63525.82586119484, 42201.99342989844, -0.14464111328125, 0.95551318359375, -0.19362841796875002, 192.0, 0.0, 0.0, 0.0, 0.0, 0.0, 0.0, 0.0, 0.0, 0.0, 1.741716408184497E9, 0.0, 2025-03-11 13:06:48.184
68.0, 15470.514055551776, 13582.506904900898, -10802.240467338619, -5623.497739255159, 16082.974205371644, 17310.174382945825, -28330.679634890515, 13015.063168414017, 36033.403698611706, 8909.092415463021, 1762.6138642566043, 46456.13389684366, -16117.820574977468, -190.88389764832232, 63612.55062968143, 42210.9117759361, -0.14464111328125, 0.95551318359375, -0.19362841796875002, 192.0, 0.0, 0.0, 0.0, 0.0, 0.0, 0.0, 0.0, 0.0, 0.0, 1.741716408200503E9, 0.0, 2025-03-11 13:06:48.200
68.0, 15468.278881106244, 13567.575939604752, -10803.782737706035, -5626.358762545438, 16170.838912825457, 17305.167592187834, -28322.811820842246, 13000.199258351238, 36033.403698611706, 8909.092415463021, 1762.6138642566043, 46456.13389684366, -16117.820574977468, -190.88389764832232, 63612.55062968143, 42210.9117759361, -0.14464111328125, 0.95551318359375, -0.19362841796875002, 192.0, 0.0, 0.0, 0.0, 0.0, 0.0, 0.0, 0.0, 0.0, 0.0, 1.741716408232604E9, 0.0, 2025-03-11 13:06:48.232
88.0, 15488.283692393745, 13507.3379882977, -10794.484412012627, -5647.279995355606, 16117.194726132719, 17306.016958477136, -28328.46681218944, 13032.966915722718, 36047.21707668508, 8907.505441606694, 1778.30478886423, 46458.07849861128, -16113.461984808682, -179.19393529819672, 63610.94130408065, 42208.00604915692, -0.143320556640625, 0.9557565917968751, -0.191814208984375, 192.0, 125.5, 72.0, 14.5, 112.0, 125.0, 8.0, 0.0, 0.0, 0.0, 1.741716408264631E9, 0.0, 2025-03-11 13:06:48.264
88.0, 15467.988308428325, 13561.764486046373, -10814.690389000225, -5632.326678315006, 16086.349318784396, 17299.75847002965, -28328.444460444985, 13004.33433107547, 36047.21707668508, 8907.505441606694, 1778.30478886423, 46458.07849861128, -16113.461984808682, -179.19393529819672, 63610.94130408065, 42208.00604915692, -0.143320556640625, 0.9557565917968751, -0.191814208984375, 192.0, 62.75, 36.0, 7.25, 56.0, 62.5, 4.0, 0.0, 0.0, 0.0, 1.741716408356806E9, 0.0, 2025-03-11 13:06:48.356
88.0, 15471.251663118801, 13562.390334891123, -10816.053845411998, -5633.623079493414, 16181.29952923054, 17301.837182263993, -28328.64562614508, 13007.821203210498, 36047.21707668508, 8907.505441606694, 1778.30478886423, 46458.07849861128, -16113.461984808682, -179.19393529819672, 63610.94130408065, 42208.00604915692, -0.143320556640625, 0.9557565917968751, -0.191814208984375, 192.0, 31.375, 18.0, 3.625, 28.0, 31.25, 2.0, 0.0, 0.0, 0.0, 1.74171640835741E9, 0.0, 2025-03-11 13:06:48.357
88.0, 15480.01354694528, 13643.482463774975, -10780.201647305686, -5605.5716402020025, 16191.134296790875, 17314.912952770348, -28311.635948614592, 13010.279895100583, 36047.21707668508, 8907.505441606694, 1778.30478886423, 46458.07849861128, -16113.461984808682, -179.19393529819672, 63610.94130408065, 42208.00604915692, -0.143320556640625, 0.9557565917968751, -0.191814208984375, 192.0, 15.6875, 9.0, 1.8125, 14.0, 15.625, 1.0, 0.0, 0.0, 0.0, 1.741716408372778E9, 0.0, 2025-03-11 13:06:48.372
214.0, 15477.264282377279, 13643.638925986163, -10788.047109609499, -5613.0818263389865, 16093.457173521183, 17312.118984713434, -28310.294843947275, 13003.19439210825, 36058.59411461283, 8930.036000017644, 1749.6051489836157, 46443.90749262661, -16130.270496639074, -169.44857471568284, 63618.25032451753, 42129.17144646304, -0.143320556640625, 0.9557565917968751, -0.191814208984375, 192.0, 0.0, 0.0, 0.0, 0.0, 0.0, 0.0, 0.0, 0.0, 0.0, 1.741716408404835E9, 0.0, 2025-03-11 13:06:48.404
216.0, 15469.3517648401, 13637.045161371847, -10796.026682380043, -5622.648372965858, 16180.919549574799, 17307.648635822374, -28295.676803073504, 13007.485927043668, 36062.32685593687, 8935.601584387015, 1751.7732681957805, 46451.88706539715, -16129.711703027691, -161.31253973395107, 63571.19990243911, 42140.28026345733, -0.143320556640625, 0.9557565917968751, -0.191814208984375, 192.0, 0.0, 0.0, 0.0, 0.0, 0.0, 0.0, 0.0, 0.0, 0.0, 1.741716408451919E9, 0.0, 2025-03-11 13:06:48.451
218.0, 15476.43726783243, 13642.789559696861, -10796.943103902711, -5625.330582300495, 16090.32792929744, 17319.00332200567, -28280.61172731063, 13029.278877887593, 36051.39685289822, 8924.090435992532, 1740.5526924792164, 46437.38078324566, -16134.316162385485, -175.55060095198166, 63648.69340046566, 42130.736068574915, -0.143320556640625, 0.9557565917968751, -0.191814208984375, 192.0, 0.0, 0.0, 0.0, 0.0, 0.0, 0.0, 0.0, 0.0, 0.0, 1.741716408452543E9, 0.0, 2025-03-11 13:06:48.452
220.0, 15475.386735843033, 13634.184138081568, -10793.90326665679, -5633.712486471234, 16173.67758437128, 17314.37651090342, -28279.248270898854, 13025.032046441085, 36072.02751303047, 8942.262404234696, 1759.9316549219675, 46459.62076897869, -16115.38423483184, -154.45055418617181, 63577.2572251865, 42150.69617637351, -0.14400000000000002, 0.96, -0.19, 192.0, 125.5, 64.0, 15.0, 0.0, 125.0, 8.0, 0.0, 0.0, 0.0, 1.741716408453035E9, 0.0, 2025-03-11 13:06:48.453
222.0, 15473.553892797698, 13623.74587342094, -10802.151060360797, -5643.010812164643, 16087.735126940624, 17313.750662058672, -28276.946041219955, 13022.282781873082, 36059.398777413226, 8929.521909895171, 1747.6828989604592, 46447.506123483916, -16126.962438459688, -170.32029274943983, 63660.69628723816, 42141.26374021337, -0.14400000000000002, 0.96, -0.19, 192.0, 0.0, 0.0, 0.0, 0.0, 0.0, 0.0, 0.0, 0.0, 0.0, 1.741716408507964E9, 0.0, 2025-03-11 13:06:48.507
224.0, 15472.905692208493, 13600.54476267633, -10801.145231860308, -5647.637623266891, 16159.327764430973, 17314.354159158964, -28278.085980187177, 13021.165194650317, 36066.41722517219, 8935.15454949791, 1758.791715954747, 46455.8656759102, -16116.18889763223, -161.29018798949576, 63590.86943755978, 42165.44832771401, -0.14400000000000002, 0.96, -0.19, 192.0, 0.0, 0.0, 0.0, 0.0, 0.0, 0.0, 0.0, 0.0, 0.0, 1.741716408508578E9, 0.0, 2025-03-11 13:06:48.508
226.0, 15478.739497511327, 13591.537009660842, -10806.017912151565, -5653.0020419361645, 16088.629196718837, 17317.528106871618, -28274.174424907498, 13023.288610373571, 36056.873030289775, 8922.414055158384, 1753.1367246075542, 46442.47698098147, -16121.57566804596, -171.32612124992863, 63674.688479267184, 42163.794298624314, -0.14400000000000002, 0.96, -0.19, 192.0, 0.0, 0.0, 0.0, 0.0, 0.0, 0.0, 0.0, 0.0, 0.0, 1.741716408540014E9, 0.0, 2025-03-11 13:06:48.540
228.0, 15481.801686501705, 13571.822771051262, -10801.033473138032, -5657.382983849405, 16147.660153825302, 17315.695263826285, -28266.306610859232, 13023.780348751587, 36068.74180659554, 8932.338229696541, 1766.6818817474702, 46454.14459158714, -16108.52224928406, -159.92673157772202, 63597.0608707739, 42178.43469124254, -0.14400000000000002, 0.96, -0.19, 192.0, 0.0, 0.0, 0.0, 0.0, 0.0, 0.0, 0.0, 0.0, 0.0, 1.741716408580079E9, 0.0, 2025-03-11 13:06:48.580
230.0, 15479.119477167069, 13557.025916221848, -10810.577668020447, -5666.748364776178, 16096.720528211657, 17307.916856755837, -28263.445587568953, 13021.321656861504, 36054.503745377515, 8919.441273145829, 1758.2776258322747, 46444.95802461601, -16109.148098128808, -173.38248173981688, 63685.0820404389, 42171.1033190612, -0.14400000000000002, 0.9520000000000001, -0.186, 192.0, 125.5, 64.0, 14.5, 96.0, 125.0, 24.0, 0.0, 0.0, 0.0, 1.741716408596045E9, 0.0, 2025-03-11 13:06:48.596
232.0, 15482.852218491105, 13550.476855096444, -10808.074272641454, -5662.12155367393, 16139.166490932286, 17311.336673657497, -28253.342599075153, 13033.190433167272, 36057.45417564562, 8925.252726704208, 1763.7314514793698, 46450.233036307465, -16103.403699803794, -176.35526375237274, 63603.56522841039, 42180.848679643714, -0.14400000000000002, 0.9520000000000001, -0.186, 192.0, 0.0, 0.0, 0.0, 0.0, 0.0, 0.0, 0.0, 0.0, 0.0, 1.741716408668191E9, 0.0, 2025-03-11 13:06:48.668
234.0, 15483.20984640239, 13536.350552600688, -10811.47173779866, -5664.021451952631, 16119.89928721181, 17308.721519556228, -28255.600125265137, 13031.91638373332, 36051.620370342775, 8920.357694668495, 1763.7314514793698, 46453.00465261992, -16112.9031911973, -172.51076370605992, 63694.49212485459, 42179.12759532066, -0.14400000000000002, 0.9520000000000001, -0.186, 192.0, 0.0, 0.0, 0.0, 0.0, 0.0, 0.0, 0.0, 0.0, 0.0, 1.741716408668807E9, 0.0, 2025-03-11 13:06:48.668
236.0, 15488.909541238492, 13533.891860710606, -10802.151060360797, -5654.007870436653, 16130.605772805904, 17314.13064171441, -28254.795462464746, 13032.29636338906, 36058.974094268575, 8932.315877952085, 1779.4447278314506, 46465.253408581426, -16091.490220009116, -169.04624331548732, 63607.722652879085, 42187.53185123585, -0.14400000000000002, 0.9520000000000001, -0.186, 192.0, 0.0, 0.0, 0.0, 0.0, 0.0, 0.0, 0.0, 0.0, 0.0, 1.741716408700247E9, 0.0, 2025-03-11 13:06:48.700
238.0, 15485.355613870099, 13523.788872216806, -10810.197688364708, -5653.247911125173, 16118.826403477957, 17315.494098126186, -28260.40575032303, 13032.408122111336, 36059.3093704354, 8929.119578494976, 1781.0093499433221, 46470.10373712823, -16099.201571846197, -160.7090426336578, 63681.684575281695, 42193.14213909413, -0.14400000000000002, 0.9520000000000001, -0.186, 192.0, 0.0, 0.0, 0.0, 0.0, 0.0, 0.0, 0.0, 0.0, 0.0, 1.74171640872626E9, 0.0, 2025-03-11 13:06:48.726
240.0, 15480.527637067753, 13513.372959300634, -10815.47270005616, -5653.2926146140835, 16108.321083583962, 17313.415385891843, -28266.552480048238, 13017.343046348458, 36054.570800610876, 8922.637572602936, 1777.3883673415623, 46461.63242597967, -16103.247237592608, -169.56033343795937, 63606.85093484532, 42196.78547344035, -0.148, 0.9500000000000001, -0.186, 192.0, 125.5, 48.0, 14.5, 88.0, 125.0, 24.0, 0.0, 0.0, 0.0, 1.741716408790368E9, 0.0, 2025-03-11 13:06:48.790
28.0, 15498.92312275447, 13518.044473891792, -10789.589379976915, -5636.998192906165, 16176.516255917104, 17325.731197086716, -28251.129776374077, 13043.986325739184, 36046.97120749608, 8957.662756164404, 1774.9296754514785, 46477.94919943204, -16106.510592283083, -145.73337384860204, 63718.96728503315, 42203.87097643268, -0.148, 0.9500000000000001, -0.186, 192.0, 0.0, 0.0, 0.0, 0.0, 0.0, 0.0, 0.0, 0.0, 0.0, 1.741716408868499E9, 0.0, 2025-03-11 13:06:48.868
26.0, 15483.478067335853, 13515.898706424083, -10807.80605170799, -5642.49672204217, 16148.308354414507, 17325.306513942065, -28262.12683464609, 13037.14669193586, 36062.57272512588, 8969.710346425814, 1793.8392512606683, 46491.762577505426, -16100.430917791238, -143.14057149178643, 63653.16374935672, 42217.37143008369, -0.148, 0.9500000000000001, -0.186, 192.0, 0.0, 0.0, 0.0, 0.0, 0.0, 0.0, 0.0, 0.0, 0.0, 1.741716408869045E9, 0.0, 2025-03-11 13:06:48.869
20.0, 15486.249683648311, 13511.562467999753, -10807.269609841063, -5640.619175507924, 16096.787583445024, 17323.58542961901, -28257.522375288296, 13028.317752876015, 36050.48043137556, 8957.416886975394, 1789.8382890031683, 46490.6226385382, -16105.52711552705, -155.50108617557123, 63752.8972331163, 42215.06920040479, -0.146, 0.9540000000000001, -0.186, 192.0, 0.0, 0.0, 0.0, 0.0, 0.0, 0.0, 0.0, 0.0, 0.0, 1.741716409007674E9, 0.0, 2025-03-11 13:06:49.007
42.0, 15495.033919219248, 13564.625509336653, -10785.923693886245, -5603.425872734293, 16148.688334070246, 17327.787557576605, -28329.09266103419, 13010.704578245233, 36061.99157977004, 8966.379936501973, 1768.4476695594394, 46472.182449362575, -16107.158792872286, -146.4486296711719, 63696.213209177644, 42178.99348485393, -0.146, 0.96, -0.182, 192.0, 0.0, 0.0, 0.0, 0.0, 0.0, 0.0, 0.0, 0.0, 0.0, 1.741716409091808E9, 0.0, 2025-03-11 13:06:49.091
42.0, 15474.962052698382, 13551.750904530396, -10798.932409159233, -5615.831090906989, 16157.874901041378, 17317.930438271815, -28294.715678061926, 13011.799813723543, 36061.99157977004, 8966.379936501973, 1768.4476695594394, 46472.182449362575, -16107.158792872286, -146.4486296711719, 63696.213209177644, 42178.99348485393, -0.146, 0.96, -0.182, 192.0, 0.0, 0.0, 0.0, 0.0, 0.0, 0.0, 0.0, 0.0, 0.0, 1.741716409092379E9, 0.0, 2025-03-11 13:06:49.092
42.0, 15469.843503218115, 13551.326221385745, -10806.263781340574, -5618.4238932638045, 16087.13162984033, 17321.841993551494, -28288.948927992456, 13020.740511505666, 36061.99157977004, 8966.379936501973, 1768.4476695594394, 46472.182449362575, -16107.158792872286, -146.4486296711719, 63696.213209177644, 42178.99348485393, -0.146, 0.96, -0.182, 192.0, 0.0, 0.0, 0.0, 0.0, 0.0, 0.0, 0.0, 0.0, 0.0, 1.741716409139896E9, 0.0, 2025-03-11 13:06:49.139
112.0, 15473.39743058651, 13549.828654507239, -10801.055824882487, -5617.328657785494, 16173.63288088237, 17328.368702932443, -28284.12095119011, 13029.502395332145, 36047.12766970726, 8911.014665486176, 1752.0861926181547, 46444.04160309334, -16120.391025589828, -177.33874050840623, 63773.41613452628, 42133.08300174272, -0.146, 0.96, -0.182, 192.0, 0.0, 0.0, 0.0, 0.0, 0.0, 0.0, 0.0, 0.0, 0.0, 1.741716409204045E9, 0.0, 2025-03-11 13:06:49.204
112.0, 15481.309948123688, 13553.181416175536, -10792.875086411845, -5623.1848148327845, 16101.570856758459, 17330.827394822525, -28277.46013134243, 13040.320639648515, 36047.12766970726, 8911.014665486176, 1752.0861926181547, 46444.04160309334, -16120.391025589828, -177.33874050840623, 63773.41613452628, 42133.08300174272, -0.146, 0.96, -0.182, 192.0, 0.0, 0.0, 0.0, 0.0, 0.0, 0.0, 0.0, 0.0, 0.0, 1.741716409204628E9, 0.0, 2025-03-11 13:06:49.204
112.0, 15484.126267925058, 13546.386485861121, -10797.859525425378, -5624.034181122087, 16059.41546671575, 17302.84301076448, -28339.575629183728, 12998.120546116896, 36047.12766970726, 8911.014665486176, 1752.0861926181547, 46444.04160309334, -16120.391025589828, -177.33874050840623, 63773.41613452628, 42133.08300174272, -0.146, 0.96, -0.182, 192.0, 0.0, 0.0, 0.0, 0.0, 0.0, 0.0, 0.0, 0.0, 0.0, 1.741716409252088E9, 0.0, 2025-03-11 13:06:49.252
112.0, 15491.815268017683, 13549.135750429125, -10785.364900274863, -5618.06626535252, 16153.918642272789, 17311.85076377997, -28326.678672633014, 12997.785269950065, 36047.12766970726, 8911.014665486176, 1752.0861926181547, 46444.04160309334, -16120.391025589828, -177.33874050840623, 63773.41613452628, 42133.08300174272, -0.146, 0.96, -0.182, 192.0, 0.0, 0.0, 0.0, 0.0, 0.0, 0.0, 0.0, 0.0, 0.0, 1.741716409300132E9, 0.0, 2025-03-11 13:06:49.300
142.0, 15454.621965244052, 13592.989873050437, -10800.027644637543, -5637.802855706555, 16083.912978638768, 17322.0878627405, -28333.22773375842, 12997.494697272146, 36045.764213295486, 8904.443252616316, 1734.8977011320235, 46414.984335301444, -16125.107243669898, -185.38536851231677, 63722.632971123814, 42119.02375448034, -0.146, 0.96, -0.182, 192.0, 0.0, 0.0, 0.0, 0.0, 0.0, 0.0, 0.0, 0.0, 0.0, 1.741716409323226E9, 0.0, 2025-03-11 13:06:49.323
176.0, 15454.934889666427, 13575.68962284203, -10794.126784101341, -5642.742591231178, 16102.062595136476, 17323.51837438564, -28325.65049238807, 13006.971836921197, 36031.79437301092, 8922.995200514222, 1733.4224859979734, 46419.03000104785, -16118.133499399843, -163.57006592393708, 63718.07321525493, 42118.10733295767, -0.146, 0.96, -0.182, 192.0, 0.0, 0.0, 0.0, 0.0, 0.0, 0.0, 0.0, 0.0, 0.0, 1.741716409371321E9, 0.0, 2025-03-11 13:06:49.371
178.0, 15429.230383542823, 13530.58380253122, -10823.876955971356, -5674.862048013455, 16087.824533918445, 17298.50677234015, -28347.331684509718, 12992.644368725345, 36011.96837567906, 8902.47629910425, 1719.5197009467722, 46405.23897471893, -16116.501822054604, -175.05886257396492, 63788.0565271445, 42111.67003055454, -0.146, 0.96, -0.182, 192.0, 0.0, 0.0, 0.0, 0.0, 0.0, 0.0, 0.0, 0.0, 0.0, 1.741716409428366E9, 0.0, 2025-03-11 13:06:49.428
180.0, 15420.155575293968, 13501.459479505955, -10824.61456353838, -5674.593827079992, 16103.113127125876, 17298.350310128964, -28344.157736797064, 12990.543304746547, 35999.87608192874, 8894.496726333706, 1715.2505177558087, 46394.644247847114, -16120.927467456755, -185.02774060103187, 63718.9896367776, 42107.26673689685, -0.146, 0.96, -0.182, 192.0, 0.0, 0.0, 0.0, 0.0, 0.0, 0.0, 0.0, 0.0, 0.0, 1.741716409444376E9, 0.0, 2025-03-11 13:06:49.444
182.0, 15407.213915254346, 13480.895874607073, -10831.074217685964, -5676.851353269977, 16094.842981677411, 17294.79638276057, -28346.61642868715, 12989.313958801504, 35978.41840725165, 8879.18578138182, 1702.0853402716327, 46388.02813148834, -16142.586307833948, -184.91598187875533, 63804.7085767637, 42097.54372805879, -0.146, 0.96, -0.182, 192.0, 0.0, 0.0, 0.0, 0.0, 0.0, 0.0, 0.0, 0.0, 0.0, 1.741716409492474E9, 0.0, 2025-03-11 13:06:49.492
184.0, 15415.729929891817, 13471.038755302281, -10815.852679711901, -5666.435440353804, 16072.088905821909, 17303.08887995349, -28344.805937386267, 12996.198296093738, 35985.12393058824, 8897.536563579628, 1722.7830556372471, 46408.547032898314, -16124.19082214723, -174.81299338495654, 63740.17909052123, 42120.253100425376, -0.15, 0.96, -0.19, 192.0, 125.5, 40.0, 15.0, 0.0, 125.0, 8.0, 0.0, 0.0, 0.0, 1.74171640954953E9, 0.0, 2025-03-11 13:06:49.549
186.0, 15419.28385726021, 13458.857054574139, -10813.036359910531, -5663.663824041346, 16101.973188158654, 17303.401804375866, -28340.581457684217, 13001.026272896084, 35979.11131132976, 8895.167278667364, 1727.789846395236, 46415.87840507965, -16118.088795910931, -175.7070631631688, 63796.14785863732, 42120.3425074032, -0.15, 0.96, -0.19, 192.0, 0.0, 0.0, 0.0, 0.0, 0.0, 0.0, 0.0, 0.0, 0.0, 1.741716409550117E9, 0.0, 2025-03-11 13:06:49.550
188.0, 15414.724101391328, 13438.606374097631, -10818.870165213368, -5669.162353177351, 16074.189969800707, 17297.0315572061, -28338.972132083432, 12999.305188573026, 35976.965543862054, 8892.127441421442, 1730.6732214299705, 46412.190367244526, -16117.060615665987, -180.53503996551515, 63739.12855853183, 42127.450362139985, -0.15, 0.96, -0.19, 192.0, 0.0, 0.0, 0.0, 0.0, 0.0, 0.0, 0.0, 0.0, 0.0, 1.741716409597604E9, 0.0, 2025-03-11 13:06:49.597
188.0, 15437.00879061327, 13433.487824617367, -10827.967325206677, -5675.622007324935, 16136.23841240864, 17290.929530969803, -28337.966303582944, 12993.627845481378, 35976.965543862054, 8892.127441421442, 1730.6732214299705, 46412.190367244526, -16117.060615665987, -180.53503996551515, 63739.12855853183, 42127.450362139985, -0.15, 0.96, -0.19, 192.0, 0.0, 0.0, 0.0, 0.0, 0.0, 0.0, 0.0, 0.0, 0.0, 1.741716409629676E9, 0.0, 2025-03-11 13:06:49.629
188.0, 15410.544325178185, 13429.50921410432, -10830.627182796858, -5675.152620691374, 16117.731167999646, 17295.824563005517, -28340.201478028477, 12999.171078106294, 35976.965543862054, 8892.127441421442, 1730.6732214299705, 46412.190367244526, -16117.060615665987, -180.53503996551515, 63739.12855853183, 42127.450362139985, -0.15, 0.96, -0.19, 192.0, 0.0, 0.0, 0.0, 0.0, 0.0, 0.0, 0.0, 0.0, 0.0, 1.741716409645679E9, 0.0, 2025-03-11 13:06:49.645
192.0, 15415.975799080827, 13424.725940790886, -10829.263726385085, -5672.068079956542, 16066.098638307887, 17298.88675199589, -28331.17137326853, 12996.868848427397, 35979.35718051877, 8890.272246631652, 1735.657660443504, 46414.224375989965, -16113.372577830862, -181.3397027659062, 63736.31223873046, 42139.22973146793, -0.15, 0.96, -0.19, 192.0, 0.0, 0.0, 0.0, 0.0, 0.0, 0.0, 0.0, 0.0, 0.0, 1.741716409688761E9, 0.0, 2025-03-11 13:06:49.688
192.0, 15436.539403979708, 13435.857109529628, -10827.47558682866, -5676.471373614237, 16054.185158513208, 17294.57286531602, -28330.679634890515, 12995.371281548893, 35979.35718051877, 8890.272246631652, 1735.657660443504, 46414.224375989965, -16113.372577830862, -181.3397027659062, 63736.31223873046, 42139.22973146793, -0.15, 0.96, -0.19, 192.0, 0.0, 0.0, 0.0, 0.0, 0.0, 0.0, 0.0, 0.0, 0.0, 1.741716409689324E9, 0.0, 2025-03-11 13:06:49.689
192.0, 15427.017560841747, 13424.725940790886, -10830.470720585672, -5674.16914393534, 16138.071255453975, 17295.84691474997, -28332.445422702483, 12995.19246759325, 35979.35718051877, 8890.272246631652, 1735.657660443504, 46414.224375989965, -16113.372577830862, -181.3397027659062, 63736.31223873046, 42139.22973146793, -0.15, 0.96, -0.19, 192.0, 0.0, 0.0, 0.0, 0.0, 0.0, 0.0, 0.0, 0.0, 0.0, 1.741716409720836E9, 0.0, 2025-03-11 13:06:49.720
196.0, 15424.782386396217, 13427.56461233671, -10832.95176422021, -5662.278015885117, 16058.074362048432, 17305.0334817211, -28332.534829680306, 13005.228400853683, 35981.97233462004, 8889.087604175522, 1739.591567467638, 46418.22533824746, -16120.771005245568, -177.69636841969114, 63743.73301788962, 42154.652435142096, -0.15, 0.96, -0.19, 192.0, 0.0, 0.0, 0.0, 0.0, 0.0, 0.0, 0.0, 0.0, 0.0, 1.741716409780951E9, 0.0, 2025-03-11 13:06:49.780
244.0, 15496.106802953102, 13535.277668866835, -10782.481525240128, -5611.3830937603825, 16127.81180474899, 17301.457202608253, -28269.480558571882, 13002.926171174786, 36041.65149231571, 8926.794997071624, 1763.9996724128334, 46443.10282982622, -16111.673845252259, -158.67503388822485, 63800.9087802063, 42159.07808054425, -0.146, 0.9560000000000001, -0.186, 192.0, 125.5, 56.0, 14.5, 112.0, 125.0, 24.0, 0.0, 0.0, 0.0, 1.741716409781504E9, 0.0, 2025-03-11 13:06:49.781
244.0, 15487.21080865989, 13523.3418373277, -10788.203571820686, -5617.127492085397, 16132.438615851239, 17302.99947297567, -28273.056837684733, 12993.627845481378, 36041.65149231571, 8926.794997071624, 1763.9996724128334, 46443.10282982622, -16111.673845252259, -158.67503388822485, 63800.9087802063, 42159.07808054425, -0.146, 0.9560000000000001, -0.186, 192.0, 62.75, 28.0, 7.25, 56.0, 62.5, 12.0, 0.0, 0.0, 0.0, 1.74171640982905E9, 0.0, 2025-03-11 13:06:49.829
244.0, 15484.01450920278, 13499.961912627448, -10803.492165028116, -5629.06332362453, 16130.583421061448, 17308.833278278504, -28288.613651825628, 12994.320749559492, 36041.65149231571, 8926.794997071624, 1763.9996724128334, 46443.10282982622, -16111.673845252259, -158.67503388822485, 63800.9087802063, 42159.07808054425, -0.146, 0.9560000000000001, -0.186, 192.0, 31.375, 14.0, 3.625, 28.0, 31.25, 6.0, 0.0, 0.0, 0.0, 1.741716409852049E9, 0.0, 2025-03-11 13:06:49.852
244.0, 15481.354651612599, 13496.117412581136, -10796.205496335686, -5632.818416693022, 16076.000461101588, 17308.542705600586, -28288.770114036815, 12995.28187457107, 36041.65149231571, 8926.794997071624, 1763.9996724128334, 46443.10282982622, -16111.673845252259, -158.67503388822485, 63800.9087802063, 42159.07808054425, -0.146, 0.9560000000000001, -0.186, 192.0, 15.6875, 7.0, 1.8125, 14.0, 15.625, 3.0, 0.0, 0.0, 0.0, 1.74171640985266E9, 0.0, 2025-03-11 13:06:49.852
244.0, 15482.740459768827, 13522.134843127114, -10795.400833535294, -5620.659067709335, 16098.95570265719, 17314.108289969958, -28274.420294096508, 12996.801793194032, 36041.65149231571, 8926.794997071624, 1763.9996724128334, 46443.10282982622, -16111.673845252259, -158.67503388822485, 63800.9087802063, 42159.07808054425, -0.146, 0.9560000000000001, -0.186, 192.0, 7.84375, 3.5, 0.90625, 7.0, 7.8125, 1.5, 0.0, 0.0, 0.0, 1.741716409853173E9, 0.0, 2025-03-11 13:06:49.853
244.0, 15481.44405859042, 13508.34381679819, -10800.27351382655, -5627.945736401765, 16156.042057996043, 17302.708900297752, -28285.26089015733, 12995.438336782257, 36041.65149231571, 8926.794997071624, 1763.9996724128334, 46443.10282982622, -16111.673845252259, -158.67503388822485, 63800.9087802063, 42159.07808054425, -0.146, 0.9560000000000001, -0.186, 192.0, 3.921875, 1.75, 0.453125, 3.5, 3.90625, 0.75, 0.0, 0.0, 0.0, 1.741716409868096E9, 0.0, 2025-03-11 13:06:49.868
244.0, 15458.555872268185, 13459.371144696612, -10816.411473323284, -5662.92621647432, 16049.446588688683, 17305.10053695447, -28326.23163774391, 12999.551057762035, 36041.65149231571, 8926.794997071624, 1763.9996724128334, 46443.10282982622, -16111.673845252259, -158.67503388822485, 63800.9087802063, 42159.07808054425, -0.146, 0.9560000000000001, -0.186, 192.0, 1.9609375, 0.875, 0.2265625, 1.75, 1.953125, 0.375, 0.0, 0.0, 0.0, 1.741716409884095E9, 0.0, 2025-03-11 13:06:49.884
244.0, 15475.29732886521, 13498.039662604293, -10791.623388722348, -5632.840768437478, 16120.23456337864, 17307.46982186673, -28290.31238440423, 12995.371281548893, 36041.65149231571, 8926.794997071624, 1763.9996724128334, 46443.10282982622, -16111.673845252259, -158.67503388822485, 63800.9087802063, 42159.07808054425, -0.146, 0.9560000000000001, -0.186, 192.0, 0.98046875, 0.4375, 0.11328125, 0.875, 0.9765625, 0.1875, 0.0, 0.0, 0.0, 1.741716409948242E9, 0.0, 2025-03-11 13:06:49.948
244.0, 15481.421706845966, 13514.669360479042, -10798.440670781216, -5625.0623613670305, 16132.349208873417, 17316.656388837862, -28280.298802888254, 13000.378072306881, 36041.65149231571, 8926.794997071624, 1763.9996724128334, 46443.10282982622, -16111.673845252259, -158.67503388822485, 63800.9087802063, 42159.07808054425, -0.15, 0.9500000000000001, -0.187, 192.0, 125.990234375, 24.21875, 14.556640625, 64.4375, 125.48828125, 16.09375, 0.0, 0.0, 0.0, 1.741716409980256E9, 0.0, 2025-03-11 13:06:49.980
232.0, 15485.757945270294, 13521.240773348902, -10798.910057414778, -5625.3529340449495, 16087.958644385177, 17316.902258026872, -28277.571890064704, 13001.607418251922, 36032.397870111214, 8928.449026161317, 1762.9938439123446, 46450.90358864112, -16099.983882902132, -165.5370194360041, 63841.63365860387, 42185.07315934577, -0.15, 0.9500000000000001, -0.187, 192.0, 0.0, 0.0, 0.0, 0.0, 0.0, 0.0, 0.0, 0.0, 0.0, 1.741716409980876E9, 0.0, 2025-03-11 13:06:49.980
248.0, 15487.031994704246, 13531.29905835379, -10792.539810245014, -5622.782483432589, 16147.593098591937, 17312.118984713434, -28277.147206920054, 12996.62297923839, 36039.192800425626, 8924.29160169263, 1759.4846200328614, 46435.056201822306, -16111.740900485624, -159.23382749960751, 63802.898085462824, 42162.96728407947, -0.15, 0.9500000000000001, -0.187, 192.0, 0.0, 0.0, 0.0, 0.0, 0.0, 0.0, 0.0, 0.0, 0.0, 1.741716409981379E9, 0.0, 2025-03-11 13:06:49.981
34.0, 15494.16220118549, 13531.3437618427, -10781.475696739639, -5614.44528275076, 16104.767156215568, 17300.205504918755, -28278.577718565193, 12993.314921059004, 36060.40460591371, 8933.142892496931, 1767.7324137368696, 46449.07074559579, -16110.645665007314, -163.86063860185607, 63833.20705094422, 42141.33079544673, -0.15, 0.9500000000000001, -0.187, 192.0, 0.0, 0.0, 0.0, 0.0, 0.0, 0.0, 0.0, 0.0, 0.0, 1.741716410145523E9, 0.0, 2025-03-11 13:06:50.145
134.0, 15471.58693928563, 13555.774218532351, -10803.626275494848, -5617.596878718959, 16076.55925471297, 17297.56799907303, -28299.163675208532, 12981.177923819772, 36055.978960511566, 8921.922316780367, 1720.7937503807248, 46414.11261726769, -16147.324877658473, -174.00833058456547, 63975.297090446606, 42063.36791078662, -0.148, 0.9510000000000001, -0.1935, 192.0, 125.5, 56.0, 14.5, 96.0, 124.5, 96.0, 0.0, 0.0, 0.0, 1.741716410228601E9, 0.0, 2025-03-11 13:06:50.228
134.0, 15476.861950977082, 13576.762506575884, -10793.210362578675, -5615.92049788481, 16109.9527609292, 17289.61077804694, -28298.716640319424, 12974.293586527538, 36055.978960511566, 8921.922316780367, 1720.7937503807248, 46414.11261726769, -16147.324877658473, -174.00833058456547, 63975.297090446606, 42063.36791078662, -0.148, 0.9510000000000001, -0.1935, 192.0, 62.75, 28.0, 7.25, 48.0, 62.25, 48.0, 0.0, 0.0, 0.0, 1.741716410229203E9, 0.0, 2025-03-11 13:06:50.229
132.0, 15475.386735843033, 13619.901373374627, -10795.557295746481, -5603.023541334098, 16151.281136427062, 17315.471746381732, -28295.296823417764, 12985.536513988556, 36058.37059716828, 8927.286735449641, 1726.0911138166325, 46415.09609402372, -16141.982810733654, -177.2046300416744, 63937.16501440585, 42068.55351550025, -0.148, 0.9510000000000001, -0.1935, 192.0, 0.0, 0.0, 0.0, 0.0, 0.0, 0.0, 0.0, 0.0, 0.0, 1.741716410229732E9, 0.0, 2025-03-11 13:06:50.229
146.0, 15478.895959722515, 13616.97329485098, -10797.680711469737, -5605.68339892428, 16059.303707993473, 17301.680720052806, -28300.236558942386, 12977.534589473556, 36081.12467302378, 8938.328497210563, 1755.5730647531827, 46430.56350118679, -16104.09660388191, -159.72556587762426, 63928.62664802393, 42093.676876268015, -0.148, 0.9510000000000001, -0.1935, 192.0, 0.0, 0.0, 0.0, 0.0, 0.0, 0.0, 0.0, 0.0, 0.0, 1.741716410333783E9, 0.0, 2025-03-11 13:06:50.333
164.0, 15483.880398736048, 13550.700372540996, -10807.04609239651, -5635.455922538748, 16172.29177621505, 17309.973217245726, -28291.675840816002, 13005.250752598138, 36039.058689958896, 8917.876651033957, 1746.431201270962, 46432.597509932224, -16110.802127218501, -165.04528105798735, 64015.083195577055, 42142.42603092504, -0.148, 0.9510000000000001, -0.1935, 192.0, 0.0, 0.0, 0.0, 0.0, 0.0, 0.0, 0.0, 0.0, 0.0, 1.741716410477054E9, 0.0, 2025-03-11 13:06:50.477
148.0, 15479.96884345637, 13512.34477905569, -10811.80701396549, -5631.142035858874, 16098.463964279172, 17316.61168534895, -28277.415427853517, 13010.682226500778, 36074.262687476, 8929.298392450619, 1750.6333292285597, 46420.9075475821, -16115.518345298571, -166.07346130293146, 63973.486599145726, 42097.56607980324, -0.148, 0.9510000000000001, -0.1935, 192.0, 0.0, 0.0, 0.0, 0.0, 0.0, 0.0, 0.0, 0.0, 0.0, 1.741716410477623E9, 0.0, 2025-03-11 13:06:50.477
148.0, 15479.63356728954, 13562.21152093548, -10816.9032117013, -5644.553082532058, 16070.189007543207, 17297.389185117387, -28304.483390388894, 12993.314921059004, 36074.262687476, 8929.298392450619, 1750.6333292285597, 46420.9075475821, -16115.518345298571, -166.07346130293146, 63973.486599145726, 42097.56607980324, -0.148, 0.9510000000000001, -0.1935, 192.0, 0.0, 0.0, 0.0, 0.0, 0.0, 0.0, 0.0, 0.0, 0.0, 1.741716410478116E9, 0.0, 2025-03-11 13:06:50.478
148.0, 15480.997023701315, 13578.3047769433, -10808.990694164122, -5639.7921609630785, 16164.491017400149, 17295.489286838685, -28303.70107933296, 12990.565656491, 36074.262687476, 8929.298392450619, 1750.6333292285597, 46420.9075475821, -16115.518345298571, -166.07346130293146, 63973.486599145726, 42097.56607980324, -0.148, 0.9510000000000001, -0.1935, 192.0, 0.0, 0.0, 0.0, 0.0, 0.0, 0.0, 0.0, 0.0, 0.0, 1.741716410615286E9, 0.0, 2025-03-11 13:06:50.615
0.0, 15475.20792188739, 13522.425415805033, -10815.293886100519, -5618.11096884143, 16087.601016473893, 17298.46206885124, -28305.869198545122, 12970.113810314395, 36038.58930332533, 8920.111825479487, 1737.5575587222052, 46425.60141391771, -16118.222906377663, -186.05592084597598, 64137.6378104255, 42108.25021365288, -0.14600000000000002, 0.9555, -0.19075, 192.0, 125.5, 64.0, 15.0, 0.0, 125.0, 16.0, 0.0, 0.0, 0.0, 1.741716410615866E9, 0.0, 2025-03-11 13:06:50.615
2.0, 15471.341070096621, 13514.11056686766, -10817.394950079317, -5623.9447741442655, 16155.013877751098, 17296.584522316996, -28308.9313875355, 12984.888313399353, 36039.84100101483, 8924.179842970354, 1737.6916691889369, 46423.23212900545, -16125.822499492468, -181.83144114392294, 64066.49220782426, 42111.04418170979, -0.14600000000000002, 0.9555, -0.19075, 192.0, 0.0, 0.0, 0.0, 0.0, 0.0, 0.0, 0.0, 0.0, 0.0, 1.741716410616396E9, 0.0, 2025-03-11 13:06:50.616
4.0, 15482.606349302096, 13528.370979830144, -10812.745787232612, -5616.211070562729, 16086.416374017761, 17302.932417742304, -28303.857541544145, 12987.302301800526, 36040.64566381522, 8917.0049330002, 1740.3068232902078, 46423.41094296109, -16123.252048880107, -182.83726964441178, 64144.43274073992, 42113.86050151116, -0.14600000000000002, 0.9555, -0.19075, 192.0, 0.0, 0.0, 0.0, 0.0, 0.0, 0.0, 0.0, 0.0, 0.0, 1.741716410675477E9, 0.0, 2025-03-11 13:06:50.675
6.0, 15472.168084641467, 13517.888011680605, -10816.9032117013, -5622.804835177045, 16151.504653871616, 17293.879961237904, -28311.8818178036, 12976.461705739703, 36041.986768482544, 8915.86499403298, 1741.2455965573308, 46420.46051269299, -16123.699083769214, -181.6749789327358, 64058.35617284253, 42116.07332421224, -0.14600000000000002, 0.9555, -0.19075, 192.0, 0.0, 0.0, 0.0, 0.0, 0.0, 0.0, 0.0, 0.0, 0.0, 1.741716410676031E9, 0.0, 2025-03-11 13:06:50.676
8.0, 15485.06504119218, 13536.372904345144, -10806.777871463046, -5610.712541426724, 16113.417281319773, 17303.871191009428, -28297.397887396564, 12983.547208732034, 36036.01885271297, 8905.963171239278, 1737.110523833099, 46416.28073647985, -16134.740845530136, -192.7390924381128, 64158.55904323567, 42112.497045099386, -0.14600000000000002, 0.9555, -0.19075, 192.0, 0.0, 0.0, 0.0, 0.0, 0.0, 0.0, 0.0, 0.0, 0.0, 1.741716410707505E9, 0.0, 2025-03-11 13:06:50.707
10.0, 15481.131134168047, 13541.290288125312, -10800.51938301556, -5606.711579169224, 16160.065371997998, 17302.19481017528, -28300.50477987585, 12982.563731976, 36057.83415530135, 8927.219680216274, 1760.8257247001798, 46434.4080012331, -16119.407548833795, -175.0141590850543, 64072.99656546075, 42127.450362139985, -0.14800000000000002, 0.95475, -0.19037500000000002, 192.0, 125.5, 40.0, 14.5, 104.0, 125.0, 8.0, 0.0, 0.0, 0.0, 1.741716410730556E9, 0.0, 2025-03-11 13:06:50.730
12.0, 15481.332299868143, 13545.984154460926, -10802.821612694457, -5603.291762267561, 16127.610639048891, 17307.93920850029, -28296.727335062904, 12991.347967546937, 36049.251085430515, 8919.731845823748, 1750.141590850543, 46429.71413489749, -16130.29284838353, -175.21532478515206, 64166.65037472849, 42118.80023703578, -0.14800000000000002, 0.95475, -0.19037500000000002, 192.0, 0.0, 0.0, 0.0, 0.0, 0.0, 0.0, 0.0, 0.0, 0.0, 1.741716410759557E9, 0.0, 2025-03-11 13:06:50.759
14.0, 15481.712279523885, 13549.091046940213, -10798.507726014583, -5595.8709831084, 16138.697104298724, 17310.688473068294, -28292.659317572037, 12986.318825044493, 36056.738919823045, 8923.732808081248, 1755.9306926644676, 46430.585852931246, -16123.162641902287, -173.4048334842722, 64086.63112957849, 42122.6447370821, -0.14800000000000002, 0.95475, -0.19037500000000002, 192.0, 0.0, 0.0, 0.0, 0.0, 0.0, 0.0, 0.0, 0.0, 0.0, 1.741716410784649E9, 0.0, 2025-03-11 13:06:50.784
16.0, 15478.650090533507, 13548.286384139823, -10802.106356871887, -5603.0458930785535, 16128.95174371621, 17303.558266587053, -28306.36093692314, 12972.728964415666, 36047.865277274286, 8919.664790590381, 1748.1299338495653, 46427.791884874336, -16129.845813494423, -168.80037412647894, 64158.8943194025, 42111.40180962108, -0.14800000000000002, 0.95475, -0.19037500000000002, 192.0, 0.0, 0.0, 0.0, 0.0, 0.0, 0.0, 0.0, 0.0, 0.0, 1.74171641083477E9, 0.0, 2025-03-11 13:06:50.834
18.0, 15491.681157550951, 13561.92094825756, -10788.203571820686, -5592.518221440104, 16128.102377426909, 17307.96156024475, -28302.248215943364, 12978.205141807217, 36064.51732689349, 8933.277002963663, 1761.5856840116603, 46435.391477989135, -16111.76325223008, -167.7945456259901, 64086.318205156116, 42115.02279222284, -0.14800000000000002, 0.95475, -0.19037500000000002, 192.0, 0.0, 0.0, 0.0, 0.0, 0.0, 0.0, 0.0, 0.0, 0.0, 1.741716410835325E9, 0.0, 2025-03-11 13:06:50.835
20.0, 15472.324546852655, 13545.805340505283, -10811.404682565295, -5614.154710072841, 16142.183976433753, 17285.76627800063, -28323.281207475808, 12956.725115385667, 36050.07809997536, 8917.161395211388, 1746.3864977820515, 46424.10384703921, -16131.544546073026, -174.20949628466326, 64162.425895026434, 42095.710885013454, -0.14800000000000002, 0.9553750000000001, -0.1901875, 192.0, 125.5, 48.0, 14.5, 112.0, 125.0, 8.0, 0.0, 0.0, 0.0, 1.74171641085077E9, 0.0, 2025-03-11 13:06:50.850
22.0, 15474.067982920169, 13552.041477208315, -10807.649589496803, -5611.874832138399, 16110.891534196322, 17292.494153081676, -28314.51932364933, 12964.90585385631, 36046.16654469568, 8918.502499878705, 1744.5536547367162, 46415.476073679456, -16127.342418115428, -187.91111563576646, 64122.103348029064, 42094.34742860168, -0.14800000000000002, 0.9553750000000001, -0.1901875, 192.0, 0.0, 0.0, 0.0, 0.0, 0.0, 0.0, 0.0, 0.0, 0.0, 1.741716410889857E9, 0.0, 2025-03-11 13:06:50.889
24.0, 15474.425610831453, 13561.719782557462, -10808.074272641454, -5606.5104134691255, 16147.23547068065, 17299.445545607276, -28306.89737879007, 12973.690089427244, 36044.19959118361, 8923.844566803524, 1741.1338378350542, 46421.01930630438, -16121.799185490512, -173.0919090618979, 64169.93608116342, 42098.54955655927, -0.14800000000000002, 0.9553750000000001, -0.1901875, 192.0, 0.0, 0.0, 0.0, 0.0, 0.0, 0.0, 0.0, 0.0, 0.0, 1.741716410918893E9, 0.0, 2025-03-11 13:06:50.918
26.0, 15474.962052698382, 13561.764486046373, -10808.409548808284, -5603.492927967659, 16098.75453695709, 17299.1326211849, -28308.484352646396, 12971.23139753716, 36043.19376268313, 8921.76585456918, 1739.6362709565487, 46415.61018414619, -16127.320066370972, -185.02774060103187, 64132.18398477841, 42095.2862018688, -0.14800000000000002, 0.9553750000000001, -0.1901875, 192.0, 0.0, 0.0, 0.0, 0.0, 0.0, 0.0, 0.0, 0.0, 0.0, 1.741716410943932E9, 0.0, 2025-03-11 13:06:50.943
28.0, 15473.1515613975, 13564.044363980815, -10807.001388907598, -5596.854459864433, 16163.127560988374, 17302.41832761983, -28313.26762595983, 12973.444220238236, 36050.56983835338, 8930.706552351303, 1744.9559861369119, 46427.88129185216, -16129.130557671853, -168.3309874929175, 64163.5434822492, 42101.298821127275, -0.14800000000000002, 0.9553750000000001, -0.1901875, 192.0, 0.0, 0.0, 0.0, 0.0, 0.0, 0.0, 0.0, 0.0, 0.0, 1.741716410969002E9, 0.0, 2025-03-11 13:06:50.969
30.0, 15485.333262125643, 13577.857742054195, -10797.166621347264, -5585.991512059154, 16088.830362418934, 17311.24726667968, -28309.35607068015, 12983.502505243125, 36053.18499245465, 8927.264383705186, 1743.301957047219, 46422.33805922724, -16134.606735063404, -178.90336262027773, 64150.154787320476, 42104.22689965092, -0.14700000000000002, 0.9526875000000001, -0.18609375, 192.0, 125.5, 56.0, 14.5, 88.0, 125.0, 40.0, 0.0, 0.0, 0.0, 1.74171641096959E9, 0.0, 2025-03-11 13:06:50.969
38.0, 15476.392564343521, 13573.566207118774, -10809.594191264414, -5599.983704088176, 16151.571709104981, 17300.496077596676, -28327.952722066966, 12960.122580542873, 36053.162640710194, 8924.649229603914, 1739.658622701004, 46418.8064836033, -16133.466796096183, -186.07827259043128, 64182.98949992532, 42088.08894015419, -0.14700000000000002, 0.9526875000000001, -0.18609375, 192.0, 0.0, 0.0, 0.0, 0.0, 0.0, 0.0, 0.0, 0.0, 0.0, 1.741716411028057E9, 0.0, 2025-03-11 13:06:51.028
54.0, 15481.175837656956, 13584.987948535438, -10805.146194117808, -5595.334541241472, 16070.881911621324, 17308.073318967025, -28321.26955047483, 12984.217761065695, 36054.436690144146, 8925.789168571135, 1738.1610558224984, 46421.220472004476, -16131.455139095206, -187.41937725774972, 64197.831058243646, 42074.722596969914, -0.14700000000000002, 0.9526875000000001, -0.18609375, 192.0, 0.0, 0.0, 0.0, 0.0, 0.0, 0.0, 0.0, 0.0, 0.0, 1.741716411053106E9, 0.0, 2025-03-11 13:06:51.053
44.0, 15475.811418987683, 13620.817794897295, -10795.356130046384, -5595.401596474838, 16105.907095182789, 17311.515487613142, -28333.071271547233, 12974.897083627831, 36056.314236678394, 8933.031133774655, 1743.7042884474147, 46428.37303023017, -16127.342418115428, -174.94710385168838, 64131.13345278901, 42095.30855361326, -0.14700000000000002, 0.9526875000000001, -0.18609375, 192.0, 0.0, 0.0, 0.0, 0.0, 0.0, 0.0, 0.0, 0.0, 0.0, 1.741716411140275E9, 0.0, 2025-03-11 13:06:51.140
42.0, 15483.746288269316, 13639.995591639949, -10793.746804445602, -5587.377320215383, 16159.417171408793, 17307.983911989202, -28333.115975036144, 12968.750353902622, 36052.78266105445, 8926.482072649249, 1740.5526924792164, 46417.219509746974, -16124.369636102872, -184.5136504785598, 64186.16344763798, 42093.542765801285, -0.14700000000000002, 0.9526875000000001, -0.18609375, 192.0, 0.0, 0.0, 0.0, 0.0, 0.0, 0.0, 0.0, 0.0, 0.0, 1.741716411140873E9, 0.0, 2025-03-11 13:06:51.140
42.0, 15480.505285323297, 13631.948963636038, -10799.42414753725, -5588.3160934825055, 16139.591174076937, 17295.936321727793, -28342.995446085388, 12964.749391645122, 36052.78266105445, 8926.482072649249, 1740.5526924792164, 46417.219509746974, -16124.369636102872, -184.5136504785598, 64186.16344763798, 42093.542765801285, -0.14950000000000002, 0.95034375, -0.188046875, 192.0, 125.5, 32.0, 14.5, 80.0, 125.0, 8.0, 0.0, 0.0, 0.0, 1.741716411141372E9, 0.0, 2025-03-11 13:06:51.141
42.0, 15482.047555690713, 13617.2638675289, -10795.356130046384, -5594.373416229894, 16088.51743799656, 17309.682644567805, -28329.964379067944, 12976.171133061784, 36052.78266105445, 8926.482072649249, 1740.5526924792164, 46417.219509746974, -16124.369636102872, -184.5136504785598, 64186.16344763798, 42093.542765801285, -0.14950000000000002, 0.95034375, -0.188046875, 192.0, 62.75, 16.0, 7.25, 40.0, 62.5, 4.0, 0.0, 0.0, 0.0, 1.741716411141907E9, 0.0, 2025-03-11 13:06:51.141
42.0, 15468.994136928814, 13635.03350437087, -10809.99652266461, -5588.62901790488, 16093.233656076629, 17302.530086342107, -28334.501783192372, 12959.384972975848, 36052.78266105445, 8926.482072649249, 1740.5526924792164, 46417.219509746974, -16124.369636102872, -184.5136504785598, 64186.16344763798, 42093.542765801285, -0.14950000000000002, 0.95034375, -0.188046875, 192.0, 31.375, 8.0, 3.625, 20.0, 31.25, 2.0, 0.0, 0.0, 0.0, 1.741716411142442E9, 0.0, 2025-03-11 13:06:51.142
42.0, 15475.58790154313, 13678.060612447336, -10794.774984690546, -5602.777672145089, 16152.018743994087, 17321.57377261803, -28316.687442861494, 12990.543304746547, 36052.78266105445, 8926.482072649249, 1740.5526924792164, 46417.219509746974, -16124.369636102872, -184.5136504785598, 64186.16344763798, 42093.542765801285, -0.14950000000000002, 0.95034375, -0.188046875, 192.0, 15.6875, 4.0, 1.8125, 10.0, 15.625, 1.0, 0.0, 0.0, 0.0, 1.741716411171299E9, 0.0, 2025-03-11 13:06:51.171
42.0, 15485.199151658911, 13641.381399796177, -10795.08790911292, -5580.515334667603, 16148.66598232579, 17307.96156024475, -28329.60675115666, 12972.796019649031, 36052.78266105445, 8926.482072649249, 1740.5526924792164, 46417.219509746974, -16124.369636102872, -184.5136504785598, 64186.16344763798, 42093.542765801285, -0.14950000000000002, 0.95034375, -0.188046875, 192.0, 7.84375, 2.0, 0.90625, 5.0, 7.8125, 0.5, 0.0, 0.0, 0.0, 1.741716411171891E9, 0.0, 2025-03-11 13:06:51.171
42.0, 15462.042744403214, 13623.343542020744, -10817.126729145853, -5599.648427921346, 16179.086706529464, 17296.539818828085, -28344.649475175083, 12955.316955484981, 36052.78266105445, 8926.482072649249, 1740.5526924792164, 46417.219509746974, -16124.369636102872, -184.5136504785598, 64186.16344763798, 42093.542765801285, -0.14950000000000002, 0.95034375, -0.188046875, 192.0, 3.921875, 1.0, 0.453125, 2.5, 3.90625, 0.25, 0.0, 0.0, 0.0, 1.741716411226291E9, 0.0, 2025-03-11 13:06:51.226
42.0, 15475.431439331942, 13646.164673109613, -10809.23656335313, -5588.897238838344, 16182.238302497663, 17301.79247877508, -28340.290885006296, 12957.641536908333, 36052.78266105445, 8926.482072649249, 1740.5526924792164, 46417.219509746974, -16124.369636102872, -184.5136504785598, 64186.16344763798, 42093.542765801285, -0.14575000000000002, 0.947171875, -0.1890234375, 192.0, 127.4609375, 72.5, 14.7265625, 65.25, 126.953125, 8.125, 0.0, 0.0, 0.0, 1.741716411226862E9, 0.0, 2025-03-11 13:06:51.226
42.0, 15463.942642681915, 13668.359955353733, -10798.731243459135, -5607.829166391989, 16166.100343000931, 17307.492173611186, -28330.389062212595, 12976.931092373265, 36052.78266105445, 8926.482072649249, 1740.5526924792164, 46417.219509746974, -16124.369636102872, -184.5136504785598, 64186.16344763798, 42093.542765801285, -0.147875, 0.9485859375000001, -0.18851171875, 192.0, 189.23046875, 76.25, 21.86328125, 120.625, 188.4765625, 20.0625, 0.0, 0.0, 0.0, 1.741716411292398E9, 0.0, 2025-03-11 13:06:51.292
136.0, 15468.01066017278, 13684.207342172545, -10796.18314459123, -5603.53763145657, 16117.597057532914, 17306.866324766437, -28328.869143589636, 12975.14295281684, 36042.29969290492, 8928.761950583692, 1744.82187567018, 46423.52270168337, -16115.518345298571, -165.42526071372757, 64229.659942348, 42112.89937649958, -0.147875, 0.9485859375000001, -0.18851171875, 192.0, 0.0, 0.0, 0.0, 0.0, 0.0, 0.0, 0.0, 0.0, 0.0, 1.741716411292991E9, 0.0, 2025-03-11 13:06:51.292
94.0, 15463.070924648158, 13668.047030931359, -10797.18897309172, -5603.135300056374, 16162.635822610358, 17301.412499119342, -28339.910905350556, 12964.816446878487, 36054.012006999495, 8929.879537806457, 1730.6508696855153, 46415.0066870459, -16134.450272852217, -186.97234236864358, 64177.692136489415, 42044.525390210794, -0.147875, 0.9485859375000001, -0.18851171875, 192.0, 0.0, 0.0, 0.0, 0.0, 0.0, 0.0, 0.0, 0.0, 0.0, 1.741716411318463E9, 0.0, 2025-03-11 13:06:51.318
176.0, 15462.310965336677, 13666.437705330576, -10794.596170734903, -5587.310264982017, 16170.525988403082, 17308.408595133853, -28342.369597240642, 12964.592929433935, 36040.80212602641, 8922.726979580759, 1743.6819367029593, 46423.81327436129, -16116.166545887774, -181.94319986619948, 64267.90377711103, 42116.63211782362, -0.147875, 0.9485859375000001, -0.18851171875, 192.0, 0.0, 0.0, 0.0, 0.0, 0.0, 0.0, 0.0, 0.0, 0.0, 1.741716411459698E9, 0.0, 2025-03-11 13:06:51.459
160.0, 15477.174875399456, 13534.294192110801, -10812.678731999247, -5596.049797064042, 16147.347229402929, 17306.53104859961, -28332.42307095803, 12977.445182495736, 36037.53877133594, 8929.186633728343, 1751.3485850511295, 46429.04358256383, -16105.437708549227, -176.42231898573866, 64213.32081715117, 42129.46201914096, -0.15, 0.9500000000000001, -0.19, 192.0, 125.5, 40.0, 14.5, 88.0, 125.0, 8.0, 0.0, 0.0, 0.0, 1.741716411475731E9, 0.0, 2025-03-11 13:06:51.475
174.0, 15492.843448262627, 13538.563375301765, -10812.723435488157, -5600.5201459551035, 16117.082967410443, 17294.57286531602, -28333.160678525055, 12972.483095226658, 36050.36867265328, 8941.167168756387, 1754.9248641639788, 46441.64996643662, -16112.545563286016, -163.88299034631137, 64296.13403035809, 42121.52714985933, -0.15, 0.9500000000000001, -0.19, 192.0, 0.0, 0.0, 0.0, 0.0, 0.0, 0.0, 0.0, 0.0, 0.0, 1.741716411498753E9, 0.0, 2025-03-11 13:06:51.498
138.0, 15494.475125607863, 13545.447712594, -10812.052883154498, -5594.976913330187, 16141.602831077915, 17300.42902236331, -28328.153887767065, 12983.055470354018, 36044.46781211708, 8930.95242154031, 1749.851018172624, 46421.93572782704, -16113.774909231057, -169.40387122677222, 64259.14189328455, 42114.95573698947, -0.15, 0.9500000000000001, -0.19, 192.0, 0.0, 0.0, 0.0, 0.0, 0.0, 0.0, 0.0, 0.0, 0.0, 1.741716411544889E9, 0.0, 2025-03-11 13:06:51.544
170.0, 15485.802648759205, 13535.188261889012, -10815.651514011803, -5602.375340744894, 16137.691275798235, 17296.539818828085, -28335.485259948407, 12972.594853948935, 36040.735070793045, 8933.321706452574, 1746.1629803374983, 46434.13978029964, -16123.676732024758, -175.0365108295096, 64307.91339968603, 42103.51164382835, -0.15, 0.9560000000000001, -0.19, 192.0, 125.5, 40.0, 14.5, 112.0, 125.0, 8.0, 0.0, 0.0, 0.0, 1.741716411587002E9, 0.0, 2025-03-11 13:06:51.587
170.0, 15481.175837656956, 13530.382636831122, -10819.920697202766, -5609.706712926235, 16127.297714626518, 17294.03642344909, -28336.26757100434, 12961.307222999005, 36040.735070793045, 8933.321706452574, 1746.1629803374983, 46434.13978029964, -16123.676732024758, -175.0365108295096, 64307.91339968603, 42103.51164382835, -0.15, 0.9560000000000001, -0.19, 192.0, 62.75, 20.0, 7.25, 56.0, 62.5, 4.0, 0.0, 0.0, 0.0, 1.741716411616018E9, 0.0, 2025-03-11 13:06:51.616
170.0, 15490.764736028283, 13527.3427995852, -10813.058711654987, -5600.162518043819, 16150.029438737565, 17303.737080542694, -28337.921600094036, 12984.038947110052, 36040.735070793045, 8933.321706452574, 1746.1629803374983, 46434.13978029964, -16123.676732024758, -175.0365108295096, 64307.91339968603, 42103.51164382835, -0.15, 0.9560000000000001, -0.19, 192.0, 31.375, 10.0, 3.625, 28.0, 31.25, 2.0, 0.0, 0.0, 0.0, 1.741716411616606E9, 0.0, 2025-03-11 13:06:51.616
166.0, 15480.795858001216, 13521.732511726917, -10820.18891813623, -5615.987553118176, 16142.452197367216, 17293.678795537806, -28338.36863498314, 12969.286795769549, 36035.214189912585, 8929.365447683984, 1742.2961285467302, 46431.09994305372, -16119.407548833795, -178.34456900889506, 64297.922169914506, 42113.30170789978, -0.15, 0.9560000000000001, -0.19, 192.0, 0.0, 0.0, 0.0, 0.0, 0.0, 0.0, 0.0, 0.0, 0.0, 1.7417164116481E9, 0.0, 2025-03-11 13:06:51.648
166.0, 15478.672442277963, 13506.309808052756, -10830.023685696566, -5631.276146325606, 16122.626200035358, 17301.74777528617, -28322.253027230865, 12994.499563515135, 36035.214189912585, 8929.365447683984, 1742.2961285467302, 46431.09994305372, -16119.407548833795, -178.34456900889506, 64297.922169914506, 42113.30170789978, -0.15, 0.9560000000000001, -0.19, 192.0, 0.0, 0.0, 0.0, 0.0, 0.0, 0.0, 0.0, 0.0, 0.0, 1.741716411687092E9, 0.0, 2025-03-11 13:06:51.687
166.0, 15479.141828911523, 13518.491508780899, -10825.352171105405, -5623.497739255159, 16114.087833653432, 17295.131658927403, -28333.831230858712, 12975.27706328357, 36035.214189912585, 8929.365447683984, 1742.2961285467302, 46431.09994305372, -16119.407548833795, -178.34456900889506, 64297.922169914506, 42113.30170789978, -0.15, 0.9560000000000001, -0.19, 192.0, 0.0, 0.0, 0.0, 0.0, 0.0, 0.0, 0.0, 0.0, 0.0, 1.741716411687768E9, 0.0, 2025-03-11 13:06:51.687
166.0, 15480.952320212404, 13524.235907105913, -10811.89642094331, -5611.070169338009, 16168.20140697973, 17287.576769301508, -28336.960475082455, 12975.031194094563, 36035.214189912585, 8929.365447683984, 1742.2961285467302, 46431.09994305372, -16119.407548833795, -178.34456900889506, 64297.922169914506, 42113.30170789978, -0.15, 0.9560000000000001, -0.19, 192.0, 0.0, 0.0, 0.0, 0.0, 0.0, 0.0, 0.0, 0.0, 0.0, 1.741716411688275E9, 0.0, 2025-03-11 13:06:51.688
166.0, 15480.594692301118, 13518.223287847435, -10820.926525703255, -5623.4753875107035, 16156.220871951686, 17298.685586295796, -28331.908980835557, 12979.702708685722, 36035.214189912585, 8929.365447683984, 1742.2961285467302, 46431.09994305372, -16119.407548833795, -178.34456900889506, 64297.922169914506, 42113.30170789978, -0.15, 0.9560000000000001, -0.19, 192.0, 0.0, 0.0, 0.0, 0.0, 0.0, 0.0, 0.0, 0.0, 0.0, 1.741716411688806E9, 0.0, 2025-03-11 13:06:51.688
198.0, 15484.238026647334, 13527.25339260738, -10806.777871463046, -5601.235401777673, 16077.073344835442, 17290.549551314063, -28332.288960491296, 12982.362566275904, 36053.94495176613, 8940.876596078468, 1749.1134106055988, 46422.51687318288, -16111.115051640876, -159.77026936653488, 64253.44219844845, 42118.91199575806, -0.15, 0.9560000000000001, -0.19, 192.0, 0.0, 0.0, 0.0, 0.0, 0.0, 0.0, 0.0, 0.0, 0.0, 1.741716411689308E9, 0.0, 2025-03-11 13:06:51.689
196.0, 15483.522770824764, 13521.441939048998, -10825.866261227879, -5624.168291588819, 16097.681653223235, 17303.62532182042, -28329.629102901115, 12981.513199986603, 36049.89928601972, 8938.0602762771, 1746.4535530154174, 46416.727771368955, -16111.875010952355, -168.86742935984486, 64330.5333650748, 42105.03156245132, -0.15, 0.9560000000000001, -0.19, 192.0, 0.0, 0.0, 0.0, 0.0, 0.0, 0.0, 0.0, 0.0, 0.0, 1.741716411735239E9, 0.0, 2025-03-11 13:06:51.735
196.0, 15463.093276392614, 13531.500224053887, -10821.172394892263, -5610.4443204932595, 16070.613690687858, 17305.27935091011, -28328.958550567455, 12979.389784263347, 36049.89928601972, 8938.0602762771, 1746.4535530154174, 46416.727771368955, -16111.875010952355, -168.86742935984486, 64330.5333650748, 42105.03156245132, -0.15, 0.9560000000000001, -0.19, 192.0, 0.0, 0.0, 0.0, 0.0, 0.0, 0.0, 0.0, 0.0, 0.0, 1.741716411774274E9, 0.0, 2025-03-11 13:06:51.774
196.0, 15457.572395512152, 13523.297133838789, -10825.486281572137, -5613.662971694824, 16150.074142226476, 17295.154010671857, -28339.55327743927, 12968.638595180344, 36049.89928601972, 8938.0602762771, 1746.4535530154174, 46416.727771368955, -16111.875010952355, -168.86742935984486, 64330.5333650748, 42105.03156245132, -0.15, 0.9560000000000001, -0.19, 192.0, 0.0, 0.0, 0.0, 0.0, 0.0, 0.0, 0.0, 0.0, 0.0, 1.741716411774838E9, 0.0, 2025-03-11 13:06:51.774
196.0, 15488.395451116021, 13528.77331123034, -10816.52323204556, -5615.115835084419, 16086.125801339842, 17307.96156024475, -28322.811820842246, 12990.453897768724, 36049.89928601972, 8938.0602762771, 1746.4535530154174, 46416.727771368955, -16111.875010952355, -168.86742935984486, 64330.5333650748, 42105.03156245132, -0.15, 0.9560000000000001, -0.19, 192.0, 0.0, 0.0, 0.0, 0.0, 0.0, 0.0, 0.0, 0.0, 0.0, 1.741716411775331E9, 0.0, 2025-03-11 13:06:51.775
196.0, 15450.44218903091, 13527.67807575203, -10835.09753168792, -5626.537576501081, 16160.82533130948, 17297.65740605085, -28344.671826919537, 12964.056487567006, 36049.89928601972, 8938.0602762771, 1746.4535530154174, 46416.727771368955, -16111.875010952355, -168.86742935984486, 64330.5333650748, 42105.03156245132, -0.15, 0.9560000000000001, -0.19, 192.0, 0.0, 0.0, 0.0, 0.0, 0.0, 0.0, 0.0, 0.0, 0.0, 1.74171641179031E9, 0.0, 2025-03-11 13:06:51.790
196.0, 15475.722012009861, 13531.500224053887, -10809.728301731146, -5595.982741830676, 16103.157830614786, 17309.81675503454, -28331.19372501299, 12978.383955762858, 36049.89928601972, 8938.0602762771, 1746.4535530154174, 46416.727771368955, -16111.875010952355, -168.86742935984486, 64330.5333650748, 42105.03156245132, -0.15, 0.9560000000000001, -0.19, 192.0, 0.0, 0.0, 0.0, 0.0, 0.0, 0.0, 0.0, 0.0, 0.0, 1.741716411822398E9, 0.0, 2025-03-11 13:06:51.822
196.0, 15458.600575757097, 13533.422474077044, -10826.71562751718, -5617.440416507771, 16073.385307000317, 17308.050967222567, -28330.679634890515, 12978.339252273949, 36049.89928601972, 8938.0602762771, 1746.4535530154174, 46416.727771368955, -16111.875010952355, -168.86742935984486, 64330.5333650748, 42105.03156245132, -0.15, 0.9560000000000001, -0.19, 192.0, 0.0, 0.0, 0.0, 0.0, 0.0, 0.0, 0.0, 0.0, 0.0, 1.741716411845396E9, 0.0, 2025-03-11 13:06:51.845
196.0, 15470.178779384945, 13553.024953964348, -10821.462967570182, -5608.075035580997, 16153.493959128138, 17289.074336180012, -28353.970152612947, 12959.407324720303, 36049.89928601972, 8938.0602762771, 1746.4535530154174, 46416.727771368955, -16111.875010952355, -168.86742935984486, 64330.5333650748, 42105.03156245132, -0.15, 0.9560000000000001, -0.19, 192.0, 0.0, 0.0, 0.0, 0.0, 0.0, 0.0, 0.0, 0.0, 0.0, 1.741716411845958E9, 0.0, 2025-03-11 13:06:51.845
18.0, 15466.289575849722, 13543.748980015396, -10825.374522849861, -5611.696018182757, 16072.558292455471, 17308.14037420039, -28331.774870368823, 12974.539455716545, 36039.75159403701, 8929.074875006065, 1725.3088027606968, 46408.18940498703, -16140.86522351089, -181.16088881026374, 64346.40310363807, 42055.008358360334, -0.15, 0.9560000000000001, -0.19, 192.0, 0.0, 0.0, 0.0, 0.0, 0.0, 0.0, 0.0, 0.0, 0.0, 1.741716411872443E9, 0.0, 2025-03-11 13:06:51.872
38.0, 15458.44411354591, 13572.850951296205, -10818.66899951327, -5600.743663399657, 16107.985807417132, 17296.1821909168, -28350.03624558881, 12950.399571704815, 36033.448402100614, 8931.15358724041, 1717.4409887124289, 46405.79776833031, -16138.115958942886, -185.92181037924414, 64322.0844056707, 42022.59832890014, -0.15, 0.9560000000000001, -0.19, 192.0, 0.0, 0.0, 0.0, 0.0, 0.0, 0.0, 0.0, 0.0, 0.0, 1.741716411926541E9, 0.0, 2025-03-11 13:06:51.926
38.0, 15460.433418802431, 13575.98019551995, -10810.37650232035, -5589.925419083288, 16113.730205742146, 17307.93920850029, -28338.502745449874, 12968.325670757971, 36033.448402100614, 8931.15358724041, 1717.4409887124289, 46405.79776833031, -16138.115958942886, -185.92181037924414, 64322.0844056707, 42022.59832890014, -0.15, 0.9560000000000001, -0.19, 192.0, 0.0, 0.0, 0.0, 0.0, 0.0, 0.0, 0.0, 0.0, 0.0, 1.741716411927108E9, 0.0, 2025-03-11 13:06:51.927
56.0, 15456.790084456217, 13616.414501239598, -10822.826423981956, -5606.309247769028, 16081.90132163779, 17286.839161734482, -28362.41911201705, 12935.826234319955, 36034.94596897912, 8930.907718051401, 1712.9259363324568, 46401.39447467262, -16147.95072650322, -186.32414177943969, 64409.39031951313, 42012.27182296179, -0.15, 0.9560000000000001, -0.19, 192.0, 0.0, 0.0, 0.0, 0.0, 0.0, 0.0, 0.0, 0.0, 0.0, 1.741716412140769E9, 0.0, 2025-03-11 13:06:52.140
32.0, 15472.212788130379, 13534.920040955549, -10828.973153707166, -5621.910765398832, 16119.340493600428, 17313.348330658475, -28333.27243724733, 12987.056432611518, 36034.25306490101, 8935.19925298682, 1719.9890875803337, 46396.387683914625, -16143.703895056713, -182.79256615550116, 64358.38363866611, 42036.88109360708, -0.15, 0.9560000000000001, -0.19, 192.0, 0.0, 0.0, 0.0, 0.0, 0.0, 0.0, 0.0, 0.0, 0.0, 1.741716412141355E9, 0.0, 2025-03-11 13:06:52.141
52.0, 15489.445983105421, 13564.401991892099, -10806.084967384932, -5608.991457103665, 16154.298621928529, 17319.942095272792, -28322.92357956452, 12994.007825137118, 36031.79437301092, 8928.449026161317, 1712.7918258657248, 46396.23122170344, -16147.391932891838, -186.81588015745643, 64410.28438929134, 42029.66148014802, -0.15, 0.9560000000000001, -0.19, 192.0, 0.0, 0.0, 0.0, 0.0, 0.0, 0.0, 0.0, 0.0, 0.0, 1.741716412236941E9, 0.0, 2025-03-11 13:06:52.236
52.0, 15482.963977213381, 13576.695451342519, -10814.28805760003, -5618.334486285983, 16087.913940896267, 17305.055833465558, -28336.602847171172, 12980.529723230567, 36031.79437301092, 8928.449026161317, 1712.7918258657248, 46396.23122170344, -16147.391932891838, -186.81588015745643, 64410.28438929134, 42029.66148014802, -0.15, 0.9560000000000001, -0.19, 192.0, 0.0, 0.0, 0.0, 0.0, 0.0, 0.0, 0.0, 0.0, 0.0, 1.74171641226899E9, 0.0, 2025-03-11 13:06:52.268
114.0, 15459.606404257585, 13616.12392856168, -10817.126729145853, -5608.142090814364, 16137.221889164673, 17288.716708268727, -28363.715513195457, 12936.139158742328, 36022.56310255088, 8943.983488557755, 1737.334041277652, 46413.50912016739, -16102.688443981224, -158.67503388822485, 64454.742009012945, 42073.42619579151, -0.134, 0.96, -0.188, 192.0, 125.5, 104.0, 15.0, 0.0, 125.0, 16.0, 0.0, 0.0, 0.0, 1.741716412317134E9, 0.0, 2025-03-11 13:06:52.317
114.0, 15482.651052791007, 13593.302797472812, -10811.18116512074, -5616.63575370738, 16140.775816533069, 17300.3843188744, -28338.36863498314, 12974.47240048318, 36022.56310255088, 8943.983488557755, 1737.334041277652, 46413.50912016739, -16102.688443981224, -158.67503388822485, 64454.742009012945, 42073.42619579151, -0.134, 0.96, -0.188, 192.0, 62.75, 52.0, 7.5, 0.0, 62.5, 8.0, 0.0, 0.0, 0.0, 1.741716412365047E9, 0.0, 2025-03-11 13:06:52.365
112.0, 15471.341070096621, 13602.846992355227, -10822.75936874859, -5627.386942790383, 16078.61561520286, 17291.778897259104, -28350.304466522273, 12963.832970122454, 36025.17825665215, 8943.24588099073, 1738.1834075669537, 46405.30602995229, -16105.460060293683, -164.19591476868567, 64405.098784577705, 42091.82168147823, -0.134, 0.96, -0.188, 192.0, 0.0, 0.0, 0.0, 0.0, 0.0, 0.0, 0.0, 0.0, 0.0, 1.741716412413209E9, 0.0, 2025-03-11 13:06:52.413
110.0, 15473.933872453437, 13646.477597531986, -10795.80316493549, -5576.424965432282, 16092.607807231881, 17294.148182171368, -28350.90796362257, 12945.817464091477, 36004.27937558644, 8923.062255747587, 1718.2903550017304, 46389.90567802259, -16117.060615665987, -174.05303407347608, 64477.69725056854, 42085.67495175302, -0.134, 0.96, -0.188, 192.0, 0.0, 0.0, 0.0, 0.0, 0.0, 0.0, 0.0, 0.0, 0.0, 1.741716412525406E9, 0.0, 2025-03-11 13:06:52.525
110.0, 15486.696718537418, 13651.573795267797, -10807.314313329973, -5605.549288457548, 16080.13553382582, 17306.12871719941, -28337.116937293642, 12984.016595365596, 36004.27937558644, 8923.062255747587, 1718.2903550017304, 46389.90567802259, -16117.060615665987, -174.05303407347608, 64477.69725056854, 42085.67495175302, -0.134, 0.96, -0.188, 192.0, 0.0, 0.0, 0.0, 0.0, 0.0, 0.0, 0.0, 0.0, 0.0, 1.741716412580482E9, 0.0, 2025-03-11 13:06:52.580
110.0, 15500.73361405535, 13609.88779185865, -10792.919789900756, -5563.751526326123, 16081.543693726504, 17314.801194048072, -28345.968228097943, 12966.381068990358, 36004.27937558644, 8923.062255747587, 1718.2903550017304, 46389.90567802259, -16117.060615665987, -174.05303407347608, 64477.69725056854, 42085.67495175302, -0.134, 0.96, -0.188, 192.0, 0.0, 0.0, 0.0, 0.0, 0.0, 0.0, 0.0, 0.0, 0.0, 1.741716412581045E9, 0.0, 2025-03-11 13:06:52.581
150.0, 15503.728747812362, 13614.40284423862, -10790.237580566118, -5559.281177435062, 16168.827255824479, 17322.870173796437, -28339.32975999472, 12974.539455716545, 36040.3550911373, 8952.298337495129, 1745.0900966036436, 46432.97748958797, -16116.881801710344, -155.94812106467737, 64474.90328251163, 42116.16273119006, -0.134, 0.96, -0.188, 192.0, 0.0, 0.0, 0.0, 0.0, 0.0, 0.0, 0.0, 0.0, 0.0, 1.741716412612663E9, 0.0, 2025-03-11 13:06:52.612
150.0, 15479.119477167069, 13665.342469852267, -10807.940162174722, -5599.8719453659, 16072.893568622301, 17305.547571843574, -28342.70487340747, 12963.631804422355, 36040.3550911373, 8952.298337495129, 1745.0900966036436, 46432.97748958797, -16116.881801710344, -155.94812106467737, 64474.90328251163, 42116.16273119006, -0.134, 0.96, -0.188, 192.0, 0.0, 0.0, 0.0, 0.0, 0.0, 0.0, 0.0, 0.0, 0.0, 1.741716412659718E9, 0.0, 2025-03-11 13:06:52.659
122.0, 15508.713186825895, 13616.660370428608, -10788.829420665434, -5559.52704662407, 16091.33375779793, 17326.267638953643, -28333.451251202972, 12977.892217384842, 36039.03633821444, 8933.81344483059, 1755.1260298640764, 46421.220472004476, -16108.298731839506, -158.58562691040362, 64458.38534335916, 42098.19192864799, -0.134, 0.96, -0.188, 192.0, 0.0, 0.0, 0.0, 0.0, 0.0, 0.0, 0.0, 0.0, 0.0, 1.741716412660254E9, 0.0, 2025-03-11 13:06:52.660
122.0, 15492.955206984903, 13547.369962617155, -10794.596170734903, -5593.233477262674, 16106.622351005359, 17303.08887995349, -28338.055710560766, 12969.37620274737, 36039.03633821444, 8933.81344483059, 1755.1260298640764, 46421.220472004476, -16108.298731839506, -158.58562691040362, 64458.38534335916, 42098.19192864799, -0.134, 0.96, -0.188, 192.0, 0.0, 0.0, 0.0, 0.0, 0.0, 0.0, 0.0, 0.0, 0.0, 1.741716412660843E9, 0.0, 2025-03-11 13:06:52.660
122.0, 15487.881360993548, 13567.128904715646, -10804.497993528605, -5586.729119626179, 16105.795336460513, 17307.201600933266, -28348.941010110502, 12964.458818967203, 36039.03633821444, 8933.81344483059, 1755.1260298640764, 46421.220472004476, -16108.298731839506, -158.58562691040362, 64458.38534335916, 42098.19192864799, -0.134, 0.96, -0.188, 192.0, 0.0, 0.0, 0.0, 0.0, 0.0, 0.0, 0.0, 0.0, 0.0, 1.741716412661335E9, 0.0, 2025-03-11 13:06:52.661
122.0, 15498.63255007655, 13601.505887687908, -10798.798298692502, -5575.508543909615, 16149.358886403907, 17313.28127542511, -28348.22575428793, 12965.062316067495, 36039.03633821444, 8933.81344483059, 1755.1260298640764, 46421.220472004476, -16108.298731839506, -158.58562691040362, 64458.38534335916, 42098.19192864799, -0.134, 0.96, -0.188, 192.0, 0.0, 0.0, 0.0, 0.0, 0.0, 0.0, 0.0, 0.0, 0.0, 1.741716412661832E9, 0.0, 2025-03-11 13:06:52.661
122.0, 15497.06792796468, 13598.77897486436, -10795.400833535294, -5572.7592793416125, 16098.70983346818, 17310.263789923643, -28349.745672910893, 12963.85532186691, 36039.03633821444, 8933.81344483059, 1755.1260298640764, 46421.220472004476, -16108.298731839506, -158.58562691040362, 64458.38534335916, 42098.19192864799, -0.134, 0.96, -0.188, 192.0, 0.0, 0.0, 0.0, 0.0, 0.0, 0.0, 0.0, 0.0, 0.0, 1.741716412662364E9, 0.0, 2025-03-11 13:06:52.662
122.0, 15487.322567382165, 13565.944262259516, -10800.8993626713, -5583.197544002241, 16148.308354414507, 17311.24726667968, -28345.208268786464, 12965.665813167789, 36039.03633821444, 8933.81344483059, 1755.1260298640764, 46421.220472004476, -16108.298731839506, -158.58562691040362, 64458.38534335916, 42098.19192864799, -0.134, 0.96, -0.188, 192.0, 0.0, 0.0, 0.0, 0.0, 0.0, 0.0, 0.0, 0.0, 0.0, 1.741716412662891E9, 0.0, 2025-03-11 13:06:52.662
122.0, 15488.283692393745, 13589.659463126596, -10802.128708616341, -5580.716500367702, 16138.674752554269, 17296.04808045007, -28358.619315459648, 12954.936975829241, 36039.03633821444, 8933.81344483059, 1755.1260298640764, 46421.220472004476, -16108.298731839506, -158.58562691040362, 64458.38534335916, 42098.19192864799, -0.134, 0.96, -0.188, 192.0, 0.0, 0.0, 0.0, 0.0, 0.0, 0.0, 0.0, 0.0, 0.0, 1.741716412663396E9, 0.0, 2025-03-11 13:06:52.663
244.0, 15496.129154697557, 13567.888864027127, -10801.435804538227, -5575.48619216516, 16072.826513388934, 17314.51062137015, -28330.545524423782, 12974.13712431635, 36051.5086116205, 8937.926165810368, 1733.53424472025, 46404.38960842963, -16124.414339591784, -173.02485382853197, 64703.606331778334, 42027.046326046744, -0.148, 0.9500000000000001, -0.186, 192.0, 125.5, 48.0, 14.5, 88.0, 125.0, 24.0, 0.0, 0.0, 0.0, 1.741716412691756E9, 0.0, 2025-03-11 13:06:52.691
244.0, 15500.666558821984, 13598.846030097728, -10789.388214276816, -5566.43373566076, 16137.467758353683, 17313.08010972501, -28335.149983781575, 12971.65608068181, 36051.5086116205, 8937.926165810368, 1733.53424472025, 46404.38960842963, -16124.414339591784, -173.02485382853197, 64703.606331778334, 42027.046326046744, -0.148, 0.9500000000000001, -0.186, 192.0, 62.75, 24.0, 7.25, 44.0, 62.5, 12.0, 0.0, 0.0, 0.0, 1.741716412692313E9, 0.0, 2025-03-11 13:06:52.692
242.0, 15498.789012287738, 13595.001530051415, -10786.102507841886, -5564.086802492953, 16113.506688297593, 17314.13064171441, -28337.921600094036, 12962.938900344241, 36065.411396671705, 8948.051506048621, 1749.2922245612413, 46419.14175977013, -16116.345359843417, -163.36890022383932, 64626.02342677396, 42037.171666285, -0.148, 0.9500000000000001, -0.186, 192.0, 0.0, 0.0, 0.0, 0.0, 0.0, 0.0, 0.0, 0.0, 0.0, 1.741716412744834E9, 0.0, 2025-03-11 13:06:52.744
242.0, 15486.83082900415, 13560.490436612421, -10809.080101141943, -5592.0711865509975, 16083.51064723857, 17307.1345456999, -28348.40456824357, 12979.121563329883, 36065.411396671705, 8948.051506048621, 1749.2922245612413, 46419.14175977013, -16116.345359843417, -163.36890022383932, 64626.02342677396, 42037.171666285, -0.148, 0.9500000000000001, -0.186, 192.0, 0.0, 0.0, 0.0, 0.0, 0.0, 0.0, 0.0, 0.0, 0.0, 1.741716412745345E9, 0.0, 2025-03-11 13:06:52.745
242.0, 15490.943549983926, 13614.64871342763, -10803.04513013901, -5580.537686412059, 16180.114886774409, 17299.46789735173, -28361.457987005473, 12940.855376822397, 36065.411396671705, 8948.051506048621, 1749.2922245612413, 46419.14175977013, -16116.345359843417, -163.36890022383932, 64626.02342677396, 42037.171666285, -0.148, 0.9500000000000001, -0.186, 192.0, 0.0, 0.0, 0.0, 0.0, 0.0, 0.0, 0.0, 0.0, 0.0, 1.741716412745857E9, 0.0, 2025-03-11 13:06:52.745
242.0, 15494.765698285782, 13600.12007953168, -10792.450403267194, -5568.311282195006, 16169.274290713585, 17307.156897444358, -28347.868126376645, 12961.754257888111, 36065.411396671705, 8948.051506048621, 1749.2922245612413, 46419.14175977013, -16116.345359843417, -163.36890022383932, 64626.02342677396, 42037.171666285, -0.148, 0.9500000000000001, -0.186, 192.0, 0.0, 0.0, 0.0, 0.0, 0.0, 0.0, 0.0, 0.0, 0.0, 1.741716412746353E9, 0.0, 2025-03-11 13:06:52.746
242.0, 15499.034881476748, 13618.247344284933, -10800.541734760016, -5574.547418898037, 16097.435784034227, 17302.485382853196, -28353.634876446115, 12956.345135729925, 36065.411396671705, 8948.051506048621, 1749.2922245612413, 46419.14175977013, -16116.345359843417, -163.36890022383932, 64626.02342677396, 42037.171666285, -0.148, 0.9500000000000001, -0.186, 192.0, 0.0, 0.0, 0.0, 0.0, 0.0, 0.0, 0.0, 0.0, 0.0, 1.741716412746842E9, 0.0, 2025-03-11 13:06:52.746
230.0, 15486.875532493059, 13643.348353308244, -10797.144269602808, -5579.420099189294, 16111.718548741168, 17305.27935091011, -28358.731074181924, 12956.94863283022, 36059.15290822422, 8941.43538968985, 1755.9753961533781, 46420.12523652616, -16114.624275520358, -162.0501473009762, 64615.249885946505, 42042.98311984338, -0.148, 0.9500000000000001, -0.186, 192.0, 0.0, 0.0, 0.0, 0.0, 0.0, 0.0, 0.0, 0.0, 0.0, 1.741716412747336E9, 0.0, 2025-03-11 13:06:52.747
230.0, 15499.88424776605, 13617.397977995632, -10794.41735677926, -5568.221875217185, 16180.025479796586, 17298.842048506984, -28353.9925043574, 12957.954461330708, 36059.15290822422, 8941.43538968985, 1755.9753961533781, 46420.12523652616, -16114.624275520358, -162.0501473009762, 64615.249885946505, 42042.98311984338, -0.148, 0.9500000000000001, -0.186, 192.0, 0.0, 0.0, 0.0, 0.0, 0.0, 0.0, 0.0, 0.0, 0.0, 1.74171641280091E9, 0.0, 2025-03-11 13:06:52.800
2.0, 15503.281712923255, 13621.823623397784, -10790.639911966315, -5565.919645538288, 16088.718603696658, 17299.244379907177, -28348.918658366045, 12966.269310268082, 36059.242315202035, 8952.946538084334, 1739.5468639787275, 46414.55965215679, -16122.693255268725, -172.4660602171493, 64644.48596769405, 42027.98509931387, -0.148, 0.9500000000000001, -0.186, 192.0, 0.0, 0.0, 0.0, 0.0, 0.0, 0.0, 0.0, 0.0, 0.0, 1.741716412851035E9, 0.0, 2025-03-11 13:06:52.851
246.0, 15483.701584780407, 13623.611762954208, -10799.312388814973, -5579.800078845034, 16162.255842954619, 17307.447470122275, -28358.596963715194, 12956.725115385667, 36059.7117018356, 8951.270157250185, 1741.0891343461437, 46415.543128912825, -16115.451290065204, -158.63033039931423, 64610.757185310984, 42037.551645940744, -0.148, 0.9500000000000001, -0.186, 192.0, 0.0, 0.0, 0.0, 0.0, 0.0, 0.0, 0.0, 0.0, 0.0, 1.741716412851613E9, 0.0, 2025-03-11 13:06:52.851
254.0, 15488.708375538396, 13650.880891189683, -10786.258970053073, -5571.485229907659, 16124.637857036336, 17301.926589241815, -28360.161585827063, 12951.94184207223, 36059.19761171313, 8951.58308167256, 1737.0881720886437, 46413.12914051165, -16115.853621465401, -166.3863857253058, 64631.58901114333, 42024.90055857904, -0.15, 0.9540000000000001, -0.192, 192.0, 125.5, 40.0, 14.5, 104.0, 125.0, 0.0, 0.0, 0.0, 0.0, 1.741716412896998E9, 0.0, 2025-03-11 13:06:52.896
4.0, 15488.641320305029, 13653.630155757684, -10798.03833938102, -5573.541590397548, 16141.245203166629, 17302.261865408644, -28366.688295208016, 12948.56672865948, 36060.918696036184, 8948.34207872654, 1738.0492971002218, 46418.135931269644, -16127.968266960177, -167.68278690371358, 64721.934762231685, 42020.072581776694, -0.15, 0.9540000000000001, -0.192, 192.0, 0.0, 0.0, 0.0, 0.0, 0.0, 0.0, 0.0, 0.0, 0.0, 1.741716412922106E9, 0.0, 2025-03-11 13:06:52.922
6.0, 15498.654901821006, 13663.531978551386, -10789.075289854443, -5558.677680334768, 16117.641761021825, 17311.64959807987, -28359.692199193505, 12956.725115385667, 36065.50080364953, 8957.014555575199, 1741.5361692352499, 46413.62087888967, -16126.47070008167, -166.69931014768008, 64672.93973838565, 42025.995794057344, -0.15, 0.9540000000000001, -0.192, 192.0, 0.0, 0.0, 0.0, 0.0, 0.0, 0.0, 0.0, 0.0, 0.0, 1.741716412947342E9, 0.0, 2025-03-11 13:06:52.947
18.0, 15491.144715684024, 13655.239481358467, -10799.781775448535, -5566.880770549867, 16149.00125849262, 17303.60297007596, -28372.387990044117, 12946.733885614143, 36069.43471067366, 8961.283738766162, 1745.1571518370095, 46411.38570444414, -16111.204458618697, -155.14345826428632, 64672.291537796445, 42031.807247615725, -0.15, 0.9540000000000001, -0.192, 192.0, 0.0, 0.0, 0.0, 0.0, 0.0, 0.0, 0.0, 0.0, 0.0, 1.7417164129722E9, 0.0, 2025-03-11 13:06:52.972
18.0, 15483.679233035951, 13697.528981867908, -10785.588417719415, -5560.465819891193, 16151.05761898251, 17302.552438086565, -28357.971114870445, 12956.143970029829, 36069.43471067366, 8961.283738766162, 1745.1571518370095, 46411.38570444414, -16111.204458618697, -155.14345826428632, 64672.291537796445, 42031.807247615725, -0.15, 0.9540000000000001, -0.192, 192.0, 0.0, 0.0, 0.0, 0.0, 0.0, 0.0, 0.0, 0.0, 0.0, 1.741716412972788E9, 0.0, 2025-03-11 13:06:52.972
18.0, 15480.326471367654, 13693.66213007714, -10793.031548623032, -5564.019747259587, 16106.398833560806, 17299.28908339609, -28362.866146906155, 12954.735810129145, 36069.43471067366, 8961.283738766162, 1745.1571518370095, 46411.38570444414, -16111.204458618697, -155.14345826428632, 64672.291537796445, 42031.807247615725, -0.15, 0.9540000000000001, -0.192, 192.0, 0.0, 0.0, 0.0, 0.0, 0.0, 0.0, 0.0, 0.0, 0.0, 1.741716412998204E9, 0.0, 2025-03-11 13:06:52.998
12.0, 15484.439192347432, 13689.527057352909, -10792.09277535591, -5561.33753792495, 16157.025534752076, 17298.484420595698, -28365.637763218616, 12936.966173287175, 36075.44732993213, 8959.026212576176, 1750.365108295096, 46424.59558541723, -16114.512516798082, -149.30965296145118, 64714.938666217175, 42026.48753243536, -0.15, 0.9540000000000001, -0.192, 192.0, 0.0, 0.0, 0.0, 0.0, 0.0, 0.0, 0.0, 0.0, 0.0, 1.741716413023256E9, 0.0, 2025-03-11 13:06:53.023
20.0, 15477.666613777474, 13659.396905827154, -10798.686539970224, -5561.717517580691, 16170.05660176952, 17301.099574696967, -28367.112978352667, 12945.45983618019, 36049.07227147487, 8943.759971113202, 1722.3136690036856, 46400.27688744985, -16125.867202981379, -166.02875781402085, 64674.817284919896, 42009.857834560615, -0.15, 0.9540000000000001, -0.192, 192.0, 0.0, 0.0, 0.0, 0.0, 0.0, 0.0, 0.0, 0.0, 0.0, 1.741716413048282E9, 0.0, 2025-03-11 13:06:53.048
20.0, 15491.725861039862, 13699.250066190967, -10787.510667742572, -5547.367697640383, 16115.42893832075, 17318.33276967201, -28347.488146720905, 12964.458818967203, 36049.07227147487, 8943.759971113202, 1722.3136690036856, 46400.27688744985, -16125.867202981379, -166.02875781402085, 64674.817284919896, 42009.857834560615, -0.15, 0.9540000000000001, -0.192, 192.0, 0.0, 0.0, 0.0, 0.0, 0.0, 0.0, 0.0, 0.0, 0.0, 1.741716413048823E9, 0.0, 2025-03-11 13:06:53.048
20.0, 15490.094183694624, 13674.3278711233, -10795.914923657767, -5547.47945636266, 16084.337661783418, 17310.911990512846, -28360.832138160724, 12955.741638629634, 36049.07227147487, 8943.759971113202, 1722.3136690036856, 46400.27688744985, -16125.867202981379, -166.02875781402085, 64674.817284919896, 42009.857834560615, -0.14500000000000002, 0.9550000000000001, -0.192, 192.0, 125.5, 80.0, 14.5, 112.0, 125.0, 0.0, 0.0, 0.0, 0.0, 1.741716413081334E9, 0.0, 2025-03-11 13:06:53.081
20.0, 15490.071831950168, 13684.363804383733, -10790.796374177502, -5550.787514542046, 16166.323860445484, 17311.336673657497, -28358.686370693016, 12951.248937994116, 36049.07227147487, 8943.759971113202, 1722.3136690036856, 46400.27688744985, -16125.867202981379, -166.02875781402085, 64674.817284919896, 42009.857834560615, -0.14350000000000002, 0.9555, -0.188, 192.0, 188.25, 112.0, 21.75, 168.0, 187.5, 32.0, 0.0, 0.0, 0.0, 1.741716413081905E9, 0.0, 2025-03-11 13:06:53.081
50.0, 15479.477105078353, 13676.026603701903, -10803.626275494848, -5588.204334760229, 16148.218947436686, 17316.634037093405, -28357.47937649243, 12968.325670757971, 36065.970190283086, 8959.62970967647, 1730.4050004965068, 46413.62087888967, -16122.849717479912, -143.47584765861603, 64747.0804747439, 42016.295136963745, -0.14350000000000002, 0.9555, -0.188, 192.0, 0.0, 0.0, 0.0, 0.0, 0.0, 0.0, 0.0, 0.0, 0.0, 1.741716413082449E9, 0.0, 2025-03-11 13:06:53.082
50.0, 15492.999910473814, 13690.935217253593, -10793.590342234414, -5546.451276117716, 16097.324025311951, 17315.784670804103, -28354.730111924426, 12952.56769091698, 36065.970190283086, 8959.62970967647, 1730.4050004965068, 46413.62087888967, -16122.849717479912, -143.47584765861603, 64747.0804747439, 42016.295136963745, -0.14350000000000002, 0.9555, -0.188, 192.0, 0.0, 0.0, 0.0, 0.0, 0.0, 0.0, 0.0, 0.0, 0.0, 1.741716413113403E9, 0.0, 2025-03-11 13:06:53.113
58.0, 15496.039747719735, 13698.154830712658, -10789.99171137711, -5567.976006028176, 16132.259801895596, 17330.939153544805, -28346.37055949814, 12976.014670850596, 36062.57272512588, 8957.595700931037, 1731.0979045746215, 46406.602431130705, -16104.968321915667, -138.06672550043172, 64731.434253625186, 42030.57790167069, -0.14350000000000002, 0.9555, -0.188, 192.0, 0.0, 0.0, 0.0, 0.0, 0.0, 0.0, 0.0, 0.0, 0.0, 1.741716413174524E9, 0.0, 2025-03-11 13:06:53.174
66.0, 15495.659768063995, 13540.48562532492, -10821.887650714832, -5591.490041195159, 16087.601016473893, 17319.875040039427, -28341.140251295597, 12996.198296093738, 36053.36380641029, 8948.00680255971, 1740.6197477125822, 46419.90171908161, -16100.743842213613, -145.21928372613, 64690.23998859406, 42041.038518075766, -0.14350000000000002, 0.9555, -0.188, 192.0, 0.0, 0.0, 0.0, 0.0, 0.0, 0.0, 0.0, 0.0, 0.0, 1.741716413175083E9, 0.0, 2025-03-11 13:06:53.175
70.0, 15490.608273817095, 13618.806137896318, -10814.958609933688, -5601.794195389056, 16151.996392249632, 17309.704996312263, -28337.027530315823, 12988.419889023291, 36035.7059282906, 8940.921299567379, 1728.661564428993, 46409.35169569871, -16108.589304517425, -147.38740293829477, 64713.105823171834, 42051.34267226967, -0.14350000000000002, 0.9555, -0.188, 192.0, 0.0, 0.0, 0.0, 0.0, 0.0, 0.0, 0.0, 0.0, 0.0, 1.741716413199568E9, 0.0, 2025-03-11 13:06:53.199
70.0, 15496.911465753492, 13540.306811369279, -10821.99940943711, -5593.032311562576, 16169.207235480219, 17319.986798761704, -28342.28019026282, 13006.234229354171, 36035.7059282906, 8940.921299567379, 1728.661564428993, 46409.35169569871, -16108.589304517425, -147.38740293829477, 64713.105823171834, 42051.34267226967, -0.14350000000000002, 0.9555, -0.188, 192.0, 0.0, 0.0, 0.0, 0.0, 0.0, 0.0, 0.0, 0.0, 0.0, 1.741716413200129E9, 0.0, 2025-03-11 13:06:53.200
74.0, 15473.017450930769, 13549.001639962393, -10835.05282819901, -5615.406407762338, 16166.636784867858, 17295.80221126106, -28360.161585827063, 12969.890292869843, 36046.79239354043, 8950.085514794055, 1745.0006896258224, 46427.61307091869, -16102.084946880932, -136.23388245509653, 64704.99213993456, 42070.16284110103, -0.14350000000000002, 0.9555, -0.188, 192.0, 0.0, 0.0, 0.0, 0.0, 0.0, 0.0, 0.0, 0.0, 0.0, 1.741716413241592E9, 0.0, 2025-03-11 13:06:53.241
72.0, 15497.716128553884, 13549.269860895856, -10820.725360003158, -5593.501698196137, 16078.950891369688, 17319.405653405865, -28335.485259948407, 12976.729926673166, 36044.37840513926, 8951.270157250185, 1740.7985616682247, 46417.46537893598, -16102.464926536672, -145.12987674830876, 64749.94149803418, 42064.91018115404, -0.14375000000000002, 0.95275, -0.184, 192.0, 125.5, 64.0, 14.5, 88.0, 125.0, 48.0, 0.0, 0.0, 0.0, 1.741716413257646E9, 0.0, 2025-03-11 13:06:53.257
102.0, 15488.216637160378, 13519.76555821485, -10812.365807576873, -5598.240268020662, 16144.128578201364, 17311.00139749067, -28339.396815228083, 12991.52678150258, 36034.90126549021, 8950.353735727518, 1735.1659220654872, 46413.68793412304, -16098.262798579073, -152.61771114083663, 64704.38864283427, 42088.46891980993, -0.14375000000000002, 0.95275, -0.184, 192.0, 0.0, 0.0, 0.0, 0.0, 0.0, 0.0, 0.0, 0.0, 0.0, 1.741716413296686E9, 0.0, 2025-03-11 13:06:53.296
84.0, 15499.34780589912, 13536.305849111779, -10805.548525518005, -5586.907933581821, 16095.357071799885, 17322.62430460743, -28327.952722066966, 13002.725005474687, 36030.05093694341, 8942.910604823901, 1744.173675080976, 46415.073742279266, -16117.127670899354, -145.48750465959367, 64773.187312267706, 42088.155995387555, -0.14375000000000002, 0.95275, -0.184, 192.0, 0.0, 0.0, 0.0, 0.0, 0.0, 0.0, 0.0, 0.0, 0.0, 1.741716413297246E9, 0.0, 2025-03-11 13:06:53.297
108.0, 15484.886227236537, 13532.908383954571, -10819.987752436133, -5592.898201095843, 16148.308354414507, 17312.007225991158, -28340.89438210659, 12987.90579890082, 36036.46588760208, 8942.932956568357, 1738.3622215225962, 46421.064009793285, -16108.388138817329, -154.3611472083506, 64750.6344021123, 42091.4864053114, -0.14375000000000002, 0.95275, -0.184, 192.0, 0.0, 0.0, 0.0, 0.0, 0.0, 0.0, 0.0, 0.0, 0.0, 1.741716413329769E9, 0.0, 2025-03-11 13:06:53.329
114.0, 15470.335241596133, 13521.710159982464, -10831.945935719721, -5592.853497606933, 16154.946822517733, 17302.977121231215, -28353.299600279286, 12972.37133650438, 36029.045108442915, 8939.557843155604, 1730.4050004965068, 46406.71418985298, -16127.0071419486, -170.186182282708, 64748.846262555875, 42077.248344093365, -0.14375000000000002, 0.95275, -0.184, 192.0, 0.0, 0.0, 0.0, 0.0, 0.0, 0.0, 0.0, 0.0, 0.0, 1.741716413330334E9, 0.0, 2025-03-11 13:06:53.330
126.0, 15476.72784051035, 13531.880203709628, -10818.199612879707, -5597.055625564531, 16066.36685924135, 17299.400842118364, -28347.55520195427, 12979.635653452357, 36036.91292249119, 8951.940709583845, 1740.5526924792164, 46411.18453874404, -16105.415356804771, -146.67214711572495, 64796.455478245676, 42088.06658840973, -0.14375000000000002, 0.95275, -0.184, 192.0, 0.0, 0.0, 0.0, 0.0, 0.0, 0.0, 0.0, 0.0, 0.0, 1.741716413361816E9, 0.0, 2025-03-11 13:06:53.361
124.0, 15483.455715591397, 13539.233927635423, -10812.321104087961, -5585.678587636779, 16143.48037761216, 17308.833278278504, -28345.36473099765, 12981.7143656867, 36022.0043089395, 8941.703610623314, 1728.7733231512696, 46406.244803219415, -16121.866240723879, -148.05795527195397, 64758.61397488284, 42079.23764934989, -0.145875, 0.9533750000000001, -0.183, 192.0, 125.5, 48.0, 14.5, 104.0, 125.0, 40.0, 0.0, 0.0, 0.0, 1.741716413412926E9, 0.0, 2025-03-11 13:06:53.412
140.0, 15465.909596193982, 13532.640163021108, -10831.029514197055, -5604.565811701514, 16102.397871303307, 17298.46206885124, -28372.812673188768, 12960.882539854354, 36030.47562008806, 8936.540357654138, 1725.7781893942583, 46396.253573447895, -16106.018853905065, -171.61669392784762, 64725.1757651777, 42056.50592523884, -0.145875, 0.9533750000000001, -0.183, 192.0, 0.0, 0.0, 0.0, 0.0, 0.0, 0.0, 0.0, 0.0, 0.0, 1.741716413413563E9, 0.0, 2025-03-11 13:06:53.413
