%OpenBCI Raw EXG Data
%Number of channels = 16
%Sample Rate = 125 Hz
%Board = OpenBCI_GUI$BoardCytonSerialDaisy
Sample Index, EXG Channel 0, EXG Channel 1, EXG Channel 2, EXG Channel 3, EXG Channel 4, EXG Channel 5, EXG Channel 6, EXG Channel 7, EXG Channel 8, EXG Channel 9, EXG Channel 10, EXG Channel 11, EXG Channel 12, EXG Channel 13, EXG Channel 14, EXG Channel 15, Accel Channel 0, Accel Channel 1, Accel Channel 2, Not Used, Digital Channel 0 (D11), Digital Channel 1 (D12), Digital Channel 2 (D13), Digital Channel 3 (D17), Not Used, Digital Channel 4 (D18), Analog Channel 0, Analog Channel 1, Analog Channel 2, Timestamp, Marker Channel, Timestamp (Formatted)
0.0, -7297.889268146667, -11769.288691197478, -36849.354129952684, -25172.8922334781, -43182.49740391939, 9235.740808932878, -22879.33503143013, 17116.96590387415, 0.0, 0.0, 0.0, 0.0, 0.0, 0.0, 0.0, 0.0, -0.013000000000000001, 0.488, -0.055, 192.0, 127.5, 24.0, 15.0, 64.0, 126.0, 72.0, 0.0, 0.0, 0.0, 1.741810269108759E9, 0.0, 2025-03-12 15:11:09.108
44.0, -7300.057387358831, -11773.42376392171, -36850.203496241986, -25177.809617258266, -43183.860860331166, 9232.075122842209, -22880.363211675074, 17117.122366085336, -10385.268674524865, -22162.313421048337, -38568.67266519936, -8085.564742751688, -32779.05676115236, -11850.20200612569, -1616.120531096522, 31214.032317880672, -0.013000000000000001, 0.488, -0.055, 192.0, 0.0, 0.0, 0.0, 0.0, 0.0, 0.0, 0.0, 0.0, 0.0, 1.741810269108807E9, 0.0, 2025-03-12 15:11:09.108
46.0, -7310.428596786094, -11791.595732163874, -36852.863353832174, -25181.02826845983, -43188.30885747777, 9227.06833208422, -22883.984194276836, 17109.500421226076, -10385.536895458328, -22159.139473335683, -38571.46663325628, -8101.859164459606, -32774.29583958338, -11846.29045084601, -1657.2477408942868, 31185.265622766692, -0.013000000000000001, 0.488, -0.055, 192.0, 0.0, 0.0, 0.0, 0.0, 0.0, 0.0, 0.0, 0.0, 0.0, 1.741810269108854E9, 0.0, 2025-03-12 15:11:09.108
48.0, -7326.141873138175, -11810.885287628806, -36866.81084237228, -25197.881483779132, -43206.25730827538, 9209.701026642446, -22900.01039505129, 17105.611217690854, -10438.666992028593, -22175.120970621225, -38587.13520611945, -8099.847507458629, -32789.3385636018, -11860.39440159731, -1616.3887520299857, 31214.725221958786, -0.013000000000000001, 0.488, -0.055, 192.0, 0.0, 0.0, 0.0, 0.0, 0.0, 0.0, 0.0, 0.0, 0.0, 1.741810269108882E9, 0.0, 2025-03-12 15:11:09.108
50.0, -7315.9271259221, -11789.3829094628, -36857.11018527868, -25190.058373219774, -43201.63049717313, 9217.613544179625, -22892.790781592226, 17085.852275592362, -10414.68357022805, -22181.044182901882, -38588.4092555534, -8124.412074615011, -32799.28508988441, -11871.100887191402, -1629.4421707918848, 31185.891471611438, -0.013000000000000001, 0.488, -0.055, 192.0, 0.0, 0.0, 0.0, 0.0, 0.0, 0.0, 0.0, 0.0, 0.0, 1.741810269108921E9, 0.0, 2025-03-12 15:11:09.108
52.0, -7333.808521486345, -11815.757967920063, -36880.467758234474, -25205.27991119384, -43221.41179101608, 9198.569857903703, -22912.97440683537, 17089.67442389422, -10420.785596464348, -22192.600034785275, -38596.83586321305, -8108.989370940849, -32809.47748535603, -11872.956081981192, -1619.9650311428347, 31203.70581194232, -0.0175, 0.731, -0.0805, 192.0, 127.5, 40.0, 15.0, 56.0, 126.0, 88.0, 0.0, 0.0, 0.0, 1.741810269108951E9, 0.0, 2025-03-12 15:11:09.108
54.0, -7327.9076609501435, -11797.541296188987, -36870.23065927394, -25198.820257046256, -43210.615898444164, 9207.868183597111, -22902.96082531939, 17072.776505086007, -10435.381285593663, -22194.56698829734, -38607.028258684666, -8133.688048563964, -32814.484276114024, -11884.266064675578, -1624.1671591004324, 31181.08584655355, -0.0175, 0.731, -0.0805, 192.0, 0.0, 0.0, 0.0, 0.0, 0.0, 0.0, 0.0, 0.0, 0.0, 1.741810269108984E9, 0.0, 2025-03-12 15:11:09.108
56.0, -7317.9834864119875, -11807.599581193876, -36868.64368541761, -25192.94174825451, -43203.619802429654, 9211.779738876789, -22897.73051711685, 17105.119479312834, -10408.894468414124, -22171.075304874816, -38585.12354911847, -8098.573458024676, -32791.52903455842, -11858.91918646326, -1645.4460198218846, 31161.416311432877, -0.0175, 0.731, -0.0805, 192.0, 0.0, 0.0, 0.0, 0.0, 0.0, 0.0, 0.0, 0.0, 0.0, 1.741810269109014E9, 0.0, 2025-03-12 15:11:09.109
58.0, -7329.40522782865, -11808.359540505355, -36876.17622329906, -25204.43054490454, -43213.007535100885, 9200.872087582598, -22906.917084087978, 17071.211882974134, -10419.131567374656, -22186.050973659872, -38599.965107436794, -8122.6239350585865, -32808.06932545535, -11876.44295411622, -1611.9631066278348, 31166.40075044641, -0.0175, 0.731, -0.0805, 192.0, 0.0, 0.0, 0.0, 0.0, 0.0, 0.0, 0.0, 0.0, 0.0, 1.741810269109054E9, 0.0, 2025-03-12 15:11:09.109
60.0, -7333.316783108328, -11807.979560849615, -36882.32295302427, -25206.911588539075, -43218.528415981345, 9191.506706655826, -22912.370909735073, 17089.205037260657, -10429.480425057463, -22184.888682948196, -38594.712447489794, -8108.31881860719, -32806.57175857684, -11875.370070382365, -1647.5470838006836, 31145.904200780893, -0.0175, 0.731, -0.0805, 192.0, 0.0, 0.0, 0.0, 0.0, 0.0, 0.0, 0.0, 0.0, 0.0, 1.741810269109083E9, 0.0, 2025-03-12 15:11:09.109
62.0, -7330.679277262602, -11805.833793381906, -36878.54550821132, -25213.23713221993, -43218.237843303425, 9186.611674620113, -22912.39326147953, 17056.3256211669, -10429.055741912813, -22192.2871103629, -38605.73185750626, -8128.055408961226, -32818.37347964924, -11887.39530889932, -1608.1633100704325, 31158.97997128725, -0.021750000000000002, 0.8574999999999999, -0.09425, 192.0, 127.5, 24.0, 15.0, 96.0, 126.0, 80.0, 0.0, 0.0, 0.0, 1.741810269109112E9, 0.0, 2025-03-12 15:11:09.109
64.0, -7331.752160996457, -11818.551935976975, -36883.842871647226, -25217.79688808881, -43221.72471543845, 9173.692366324945, -22922.719767417882, 17075.65988012074, -10432.810834981303, -22192.756496996462, -38599.85334871452, -8115.963115210905, -32807.30936614387, -11889.898704278316, -1661.6063310630718, 31128.87217150595, -0.021750000000000002, 0.8574999999999999, -0.09425, 192.0, 0.0, 0.0, 0.0, 0.0, 0.0, 0.0, 0.0, 0.0, 0.0, 1.741810269109153E9, 0.0, 2025-03-12 15:11:09.109
66.0, -7331.059256918342, -11805.364406748344, -36877.58438319974, -25217.483963666436, -43217.7014014365, 9179.615578605602, -22924.194982551933, 17054.76099905503, -10421.456148798008, -22197.405659843167, -38602.35674409351, -8130.0223624732935, -32810.93034874563, -11894.123183980368, -1607.2245368033095, 31152.67677935085, -0.021750000000000002, 0.8574999999999999, -0.09425, 192.0, 0.0, 0.0, 0.0, 0.0, 0.0, 0.0, 0.0, 0.0, 0.0, 1.741810269109182E9, 0.0, 2025-03-12 15:11:09.109
68.0, -7331.238070873985, -11810.617066695342, -36884.044037347325, -25214.533533398335, -43221.680011949546, 9178.877971038577, -22929.20177330992, 17077.403316188254, -10427.602878523217, -22199.10439242177, -38602.423799326876, -8125.261440904313, -32807.51053184397, -11892.625617101863, -1669.0941654555995, 31116.91398822236, -0.021750000000000002, 0.8574999999999999, -0.09425, 192.0, 0.0, 0.0, 0.0, 0.0, 0.0, 0.0, 0.0, 0.0, 0.0, 1.741810269109216E9, 0.0, 2025-03-12 15:11:09.109
70.0, -7332.825044730312, -11819.110729588358, -36875.05863607629, -25211.6501583636, -43225.233939317935, 9191.797279333745, -22929.179421565466, 17061.578281113896, -10436.431817583063, -22197.584473798808, -38605.30717436161, -8128.591850828154, -32817.97114824905, -11889.049337989014, -1603.111815823533, 31158.555288142597, -0.021750000000000002, 0.8574999999999999, -0.09425, 192.0, 0.0, 0.0, 0.0, 0.0, 0.0, 0.0, 0.0, 0.0, 0.0, 1.741810269109245E9, 0.0, 2025-03-12 15:11:09.109
72.0, -7303.030169371387, -11792.087470541892, -36854.20445849949, -25190.684222064523, -43208.671296676555, 9209.566916175714, -22915.589560936638, 17090.85906635035, -10394.522296729363, -22176.685592733098, -38581.524918261166, -8110.50928956381, -32804.135418431215, -11867.926939478748, -1676.8278690371358, 31125.34059588201, -0.021875, 0.92075, -0.10112499999999999, 192.0, 127.5, 40.0, 15.0, 96.0, 126.0, 80.0, 0.0, 0.0, 0.0, 1.741810269109278E9, 0.0, 2025-03-12 15:11:09.109
74.0, -7303.991294382965, -11779.659900624742, -36847.63304562963, -25188.829027274733, -43207.061971075775, 9212.182070276986, -22916.371871992575, 17080.085525522893, -10397.182154319544, -22167.275508317412, -38566.102214587, -8098.84167895814, -32794.88179622672, -11859.477980074642, -1604.69878967986, 31185.198567533324, -0.021875, 0.92075, -0.10112499999999999, 192.0, 0.0, 0.0, 0.0, 0.0, 0.0, 0.0, 0.0, 0.0, 0.0, 1.741810269109312E9, 0.0, 2025-03-12 15:11:09.109
76.0, -7316.083588133287, -11796.982502577604, -36860.418243458065, -25195.914530267066, -43210.23591878843, 9193.048977023242, -22919.702281916416, 17087.640415148784, -10410.369683548175, -22170.650621730165, -38570.751377433706, -8104.988408683349, -32795.28412762691, -11867.34579412291, -1678.526601615739, 31152.341503184023, -0.021875, 0.92075, -0.10112499999999999, 192.0, 0.0, 0.0, 0.0, 0.0, 0.0, 0.0, 0.0, 0.0, 0.0, 1.74181026910934E9, 0.0, 2025-03-12 15:11:09.109
78.0, -7328.242937116974, -11814.439214997199, -36866.363807483176, -25208.431507162037, -43213.11929382316, 9183.281264696272, -22918.383528993552, 17069.155522484245, -10418.30455282981, -22187.81676147184, -38582.19547059482, -8113.79499599874, -32808.963395233564, -11878.141686694824, -1611.404313016452, 31190.74180015824, -0.021875, 0.92075, -0.10112499999999999, 192.0, 0.0, 0.0, 0.0, 0.0, 0.0, 0.0, 0.0, 0.0, 0.0, 1.741810269109368E9, 0.0, 2025-03-12 15:11:09.109
80.0, -7334.501425564459, -11823.983409879615, -36870.16360404058, -25212.074841508253, -43215.19800605751, 9175.05582273672, -22922.026863339768, 17074.698755109162, -10426.0606081558, -22204.468811091043, -38599.51807254768, -8135.140911953558, -32821.88270352873, -11896.805393315006, -1680.4264998944402, 31134.661273319874, -0.021875, 0.92075, -0.10112499999999999, 192.0, 0.0, 0.0, 0.0, 0.0, 0.0, 0.0, 0.0, 0.0, 0.0, 1.741810269109401E9, 0.0, 2025-03-12 15:11:09.109
82.0, -7323.571422525814, -11800.71524390164, -36848.43770843002, -25198.395573901606, -43200.065875061264, 9192.132555500575, -22908.68287189995, 17071.278938207503, -10426.105311644711, -22200.043165688894, -38589.83976719854, -8119.785263512763, -32811.8467702683, -11887.931750766249, -1616.4111037744408, 31172.435721449343, -0.0259375, 0.955375, -0.1045625, 192.0, 127.5, 8.0, 15.0, 120.0, 126.0, 80.0, 0.0, 0.0, 0.0, 1.741810269109429E9, 0.0, 2025-03-12 15:11:09.109
84.0, -7316.68708523358, -11818.753101677074, -36848.41535668557, -25193.925225010542, -43204.29035476332, 9185.918770541999, -22911.655653912505, 17081.04665053447, -10397.383320019642, -22179.56896776783, -38575.221726324766, -8116.186632655458, -32790.12087465774, -11869.133933679335, -1692.5187936447614, 31125.139430181913, -0.0259375, 0.955375, -0.1045625, 192.0, 0.0, 0.0, 0.0, 0.0, 0.0, 0.0, 0.0, 0.0, 0.0, 1.741810269109459E9, 0.0, 2025-03-12 15:11:09.109
86.0, -7333.585004041792, -11811.868764384839, -36861.44642370301, -25215.047623520808, -43223.71402069498, 9169.28907266725, -22931.772223922282, 17053.933984510182, -10437.884680972658, -22203.127706423726, -38594.75715097871, -8119.897022235039, -32812.83024702433, -11891.508029879098, -1613.7735979287147, 31189.64656467993, -0.0259375, 0.955375, -0.1045625, 192.0, 0.0, 0.0, 0.0, 0.0, 0.0, 0.0, 0.0, 0.0, 0.0, 1.741810269109493E9, 0.0, 2025-03-12 15:11:09.109
88.0, -7313.334323565284, -11804.246819525579, -36846.87308631815, -25199.28964367982, -43203.709209407476, 9182.968340273897, -22917.66827317098, 17067.635603861287, -10421.925535431568, -22181.133589879704, -38578.865060670985, -8124.926164737483, -32801.56496781886, -11877.87346576136, -1681.275866183742, 31126.502886593687, -0.0259375, 0.955375, -0.1045625, 192.0, 0.0, 0.0, 0.0, 0.0, 0.0, 0.0, 0.0, 0.0, 0.0, 1.741810269109521E9, 0.0, 2025-03-12 15:11:09.109
90.0, -7315.122463121708, -11811.377026006821, -36850.427013686545, -25204.139972226618, -43201.83166287323, 9182.34249142915, -22915.0084155808, 17069.490798651077, -10411.82254693777, -22186.498008548977, -38575.557002491594, -8109.726978507874, -32797.78752300591, -11878.521666350563, -1629.017487647234, 31160.365779443477, -0.0259375, 0.955375, -0.1045625, 192.0, 0.0, 0.0, 0.0, 0.0, 0.0, 0.0, 0.0, 0.0, 0.0, 1.741810269109553E9, 0.0, 2025-03-12 15:11:09.109
92.0, -7321.157434124641, -11813.05340684097, -36864.57566792675, -25210.37610892965, -43211.71113392248, 9174.608787847614, -22923.524430218273, 17061.42181890271, -10429.748645990927, -22187.973223683028, -38583.044836884124, -8128.994182228349, -32798.547482317386, -11876.197084927213, -1676.3584824035745, 31125.072374948548, -0.024968749999999998, 0.9666874999999999, -0.10528124999999999, 192.0, 127.5, 32.0, 15.0, 72.0, 126.0, 88.0, 0.0, 0.0, 0.0, 1.741810269109581E9, 0.0, 2025-03-12 15:11:09.109
94.0, -7333.249727874962, -11822.619953467842, -36878.590211700226, -25222.200181746506, -43223.11052359468, 9164.304633653717, -22935.907296646514, 17057.19733920066, -10415.801157450815, -22197.137438909704, -38582.553098506105, -8117.840661745151, -32810.34920338979, -11889.45166938921, -1626.1341126124994, 31154.084939251537, -0.024968749999999998, 0.9666874999999999, -0.10528124999999999, 192.0, 0.0, 0.0, 0.0, 0.0, 0.0, 0.0, 0.0, 0.0, 0.0, 1.741810269109615E9, 0.0, 2025-03-12 15:11:09.109
96.0, -7333.741466252979, -11819.647171455284, -36881.518290223874, -25229.151574272106, -43223.69166895052, 9159.700174295924, -22935.370854779587, 17047.720199551608, -10429.167500635089, -22205.385232613713, -38592.03023815516, -8145.243900447357, -32816.74180230401, -11901.678073606263, -1650.2963483686863, 31109.448505574288, -0.024968749999999998, 0.9666874999999999, -0.10528124999999999, 192.0, 0.0, 0.0, 0.0, 0.0, 0.0, 0.0, 0.0, 0.0, 0.0, 1.741810269109644E9, 0.0, 2025-03-12 15:11:09.109
98.0, -7348.784190271401, -11829.906622160272, -36886.61448795968, -25235.81239411979, -43227.24559631891, 9151.38532535855, -22938.656561214517, 17053.75517055454, -10439.53871006235, -22217.701043808585, -38604.569566794584, -8136.839644532162, -32824.74372681901, -11908.473003920675, -1622.5801852441057, 31132.090822707516, -0.024968749999999998, 0.9666874999999999, -0.10528124999999999, 192.0, 0.0, 0.0, 0.0, 0.0, 0.0, 0.0, 0.0, 0.0, 0.0, 1.741810269109672E9, 0.0, 2025-03-12 15:11:09.109
100.0, -7334.747294753468, -11835.136930362813, -36869.44834821801, -25225.284722481338, -43218.7519334259, 9158.873159751078, -22930.609933210606, 17045.127397194792, -10466.629024342183, -22206.72633728103, -38599.49572080323, -8145.601528358642, -32817.74763080449, -11901.58866662844, -1641.9591476868568, 31113.561226554066, -0.024968749999999998, 0.9666874999999999, -0.10528124999999999, 192.0, 0.0, 0.0, 0.0, 0.0, 0.0, 0.0, 0.0, 0.0, 0.0, 1.7418102691097E9, 0.0, 2025-03-12 15:11:09.109
102.0, -7337.429504088105, -11838.020305397547, -36872.04115057483, -25231.431452206547, -43225.81508467378, 9148.43489509045, -22939.461224014907, 17055.073923477405, -10425.211241866498, -22211.68842455011, -38594.69009574534, -8128.971830483893, -32825.92836927514, -11907.511878909098, -1638.2264063628206, 31129.945055239805, -0.023484375, 0.97334375, -0.10564062499999999, 192.0, 127.5, 40.0, 15.0, 80.0, 126.0, 88.0, 0.0, 0.0, 0.0, 1.741810269109733E9, 0.0, 2025-03-12 15:11:09.109
104.0, -7315.323628821806, -11804.403281736766, -36845.53198165083, -25207.157457728084, -43198.00951457137, 9173.647662836036, -22909.845162611626, 17049.396580385754, -10420.87500344217, -22203.418279101646, -38591.985534666244, -8142.248766690346, -32816.518284859456, -11902.862716062393, -1641.534464542206, 31115.237607388215, -0.023484375, 0.97334375, -0.10564062499999999, 192.0, 0.0, 0.0, 0.0, 0.0, 0.0, 0.0, 0.0, 0.0, 0.0, 1.741810269109763E9, 0.0, 2025-03-12 15:11:09.109
106.0, -7318.743445723468, -11809.924162617226, -36847.4989351629, -25200.831914047234, -43200.132930294625, 9171.43484013496, -22912.616778924083, 17078.00681328855, -10411.531974259851, -22184.486351548, -38570.594915222515, -8103.647304016031, -32797.496950327986, -11880.265102418078, -1664.824982264636, 31119.01505220116, -0.023484375, 0.97334375, -0.10564062499999999, 192.0, 0.0, 0.0, 0.0, 0.0, 0.0, 0.0, 0.0, 0.0, 0.0, 1.741810269109793E9, 0.0, 2025-03-12 15:11:09.109
108.0, -7322.3867800696835, -11807.554877704964, -36842.380385682634, -25202.441239648015, -43199.95411633899, 9171.34543315714, -22914.44962196942, 17059.276051435, -10420.316209830788, -22189.5378457949, -38580.51908976067, -8121.260478646813, -32803.93425273112, -11885.607169342897, -1631.9902696597899, 31137.45524137679, -0.023484375, 0.97334375, -0.10564062499999999, 192.0, 0.0, 0.0, 0.0, 0.0, 0.0, 0.0, 0.0, 0.0, 0.0, 1.741810269109828E9, 0.0, 2025-03-12 15:11:09.109
110.0, -7325.292506848873, -11827.805558181473, -36857.60192365669, -25210.733736840935, -43209.140683310114, 9160.057802207208, -22924.597313952127, 17077.76094409954, -10410.950828904013, -22193.24823537448, -38584.07301712907, -8114.6443622880415, -32806.1917789211, -11889.228151944657, -1657.7618310167588, 31127.911046494373, -0.023484375, 0.97334375, -0.10564062499999999, 192.0, 0.0, 0.0, 0.0, 0.0, 0.0, 0.0, 0.0, 0.0, 0.0, 1.741810269109861E9, 0.0, 2025-03-12 15:11:09.109
112.0, -7325.583079526792, -11809.745348661585, -36850.11408926417, -25208.9008937956, -43199.48472970542, 9170.071383723187, -22916.23776152584, 17052.07878972039, -10442.131512419166, -22198.76911625494, -38595.83003471256, -8133.866862519606, -32809.5445405894, -11893.273817691066, -1611.8289961611029, 31137.410537887878, -0.0177421875, 0.977671875, -0.1048203125, 192.0, 127.5, 80.0, 15.0, 88.0, 126.0, 96.0, 0.0, 0.0, 0.0, 1.741810269109889E9, 0.0, 2025-03-12 15:11:09.109
114.0, -7315.591849755269, -11824.698665702184, -36852.08104277623, -25203.894103037608, -43199.95411633899, 9165.981014487865, -22912.706185901905, 17075.03403127599, -10407.039273624334, -22183.569930025333, -38578.239211826236, -8112.006856442315, -32798.70394452858, -11878.119334950368, -1666.4119561209627, 31101.44658105929, -0.0177421875, 0.977671875, -0.1048203125, 192.0, 0.0, 0.0, 0.0, 0.0, 0.0, 0.0, 0.0, 0.0, 0.0, 1.741810269109919E9, 0.0, 2025-03-12 15:11:09.109
116.0, -7315.5247945219035, -11811.019398095537, -36856.90901957858, -25208.6997280955, -43204.08918906322, 9168.618520333592, -22911.38743297904, 17051.385885642278, -10414.258887083399, -22189.515494050444, -38584.810624696096, -8122.467472847399, -32803.15194167518, -11888.557599610996, -1605.279935035698, 31138.617532088465, -0.0177421875, 0.977671875, -0.1048203125, 192.0, 0.0, 0.0, 0.0, 0.0, 0.0, 0.0, 0.0, 0.0, 0.0, 1.741810269109954E9, 0.0, 2025-03-12 15:11:09.109
118.0, -7321.358599824739, -11828.990200637603, -36876.73501691044, -25217.93099855554, -43219.713058437475, 9153.709906781902, -22920.21637203889, 17067.52384513901, -10413.34246556073, -22187.68265100511, -38586.59876425252, -8117.192461155947, -32803.75543877547, -11887.663529832786, -1668.6247788220383, 31098.96553742475, -0.0177421875, 0.977671875, -0.1048203125, 192.0, 0.0, 0.0, 0.0, 0.0, 0.0, 0.0, 0.0, 0.0, 0.0, 1.741810269109982E9, 0.0, 2025-03-12 15:11:09.109
120.0, -7339.441161089082, -11841.14954962129, -36891.62127871767, -25235.05243480831, -43237.1027156237, 9144.925671210965, -22932.30866578921, 17033.593897055853, -10434.554271048817, -22203.932369224116, -38601.10504640401, -8130.804673529229, -32826.04012799742, -11904.78496608555, -1592.3829784849859, 31137.723462310252, -0.0177421875, 0.977671875, -0.1048203125, 192.0, 0.0, 0.0, 0.0, 0.0, 0.0, 0.0, 0.0, 0.0, 0.0, 1.741810269110009E9, 0.0, 2025-03-12 15:11:09.110
122.0, -7318.072893389809, -11827.693799459195, -36882.63587744664, -25221.820202090767, -43224.339869539726, 9153.374630615072, -22923.747947662825, 17052.86110077633, -10417.388131307142, -22200.892531978196, -38600.054514414616, -8132.682220063475, -32822.799125051395, -11903.108585251402, -1663.4838775973176, 31084.2357378287, -0.01687109375, 0.9758359375, -0.10441015625, 192.0, 127.5, 64.0, 15.0, 56.0, 126.0, 96.0, 0.0, 0.0, 0.0, 1.74181026911006E9, 0.0, 2025-03-12 15:11:09.110
124.0, -7306.204117084041, -11814.886249886305, -36868.1519470396, -25217.7521845999, -43211.12998856664, 9162.561197586203, -22916.036595825746, 17038.84655700285, -10422.238459853943, -22191.77302024043, -38586.35289506351, -8116.2313361443685, -32812.673784813145, -11900.649893361318, -1594.2605250192316, 31110.834313730516, -0.01687109375, 0.9758359375, -0.10441015625, 192.0, 0.0, 0.0, 0.0, 0.0, 0.0, 0.0, 0.0, 0.0, 0.0, 1.741810269110084E9, 0.0, 2025-03-12 15:11:09.110
126.0, -7300.660884459125, -11805.967903848637, -36868.44251971752, -25211.38193743014, -43205.43029373053, 9165.153999943019, -22912.035633568245, 17062.89703403676, -10395.68458744104, -22173.936328165095, -38568.76207217718, -8109.07877791867, -32797.04991543888, -11884.511933864587, -1676.4255376369404, 31052.071577557515, -0.01687109375, 0.9758359375, -0.10441015625, 192.0, 0.0, 0.0, 0.0, 0.0, 0.0, 0.0, 0.0, 0.0, 0.0, 1.741810269110103E9, 0.0, 2025-03-12 15:11:09.110
128.0, -7310.048617130354, -11825.950363391681, -36867.81667087277, -25219.04858577831, -43209.65477343259, 9165.936310998954, -22919.121136560578, 17044.121568694303, -10407.754529446904, -22180.530092779412, -38581.368456049975, -8107.849431973628, -32807.287014399415, -11891.306864179, -1594.7746151417036, 31098.943185680295, -0.01687109375, 0.9758359375, -0.10441015625, 192.0, 0.0, 0.0, 0.0, 0.0, 0.0, 0.0, 0.0, 0.0, 0.0, 1.741810269110122E9, 0.0, 2025-03-12 15:11:09.110
130.0, -7302.091396104264, -11810.974694606626, -36862.6981213925, -25213.527704897846, -43205.385590241625, 9167.791505788744, -22917.891790615537, 17058.918423523715, -10398.657369453595, -22172.416409542133, -38575.40054028041, -8111.626876786576, -32802.97312771954, -11884.310768164489, -1664.8920374980019, 31044.94137107627, -0.01687109375, 0.9758359375, -0.10441015625, 192.0, 0.0, 0.0, 0.0, 0.0, 0.0, 0.0, 0.0, 0.0, 0.0, 1.741810269110145E9, 0.0, 2025-03-12 15:11:09.110
132.0, -7287.4062999971275, -11796.177839777212, -36842.648606616094, -25201.547169869802, -43187.01245629936, 9187.751613587334, -22904.01135730879, 17069.222577717614, -10387.392090248119, -22157.217223312524, -38561.47540348475, -8090.437423042945, -32790.076171168825, -11871.726736036151, -1597.6132866875275, 31090.76244720965, -0.017435546875, 0.97691796875, -0.102205078125, 192.0, 127.5, 56.0, 15.0, 72.0, 126.0, 112.0, 0.0, 0.0, 0.0, 1.741810269110168E9, 0.0, 2025-03-12 15:11:09.110
134.0, -7284.165297051108, -11802.659845669252, -36843.65443511659, -25198.395573901606, -43184.330246964724, 9190.232657221874, -22900.569188662674, 17085.71816512563, -10362.492246924907, -22149.282354030893, -38548.48903995622, -8089.945684664927, -32771.6359819932, -11861.780209753539, -1673.8774387690353, 31047.735339133185, -0.017435546875, 0.97691796875, -0.102205078125, 192.0, 0.0, 0.0, 0.0, 0.0, 0.0, 0.0, 0.0, 0.0, 0.0, 1.74181026911019E9, 0.0, 2025-03-12 15:11:09.110
136.0, -7316.4635677890265, -11831.91827916125, -36872.24231627492, -25228.03398704934, -43211.55467171129, 9164.617558076092, -22930.654636699517, 17054.537481610478, -10401.898372399613, -22181.222996857527, -38582.17311885037, -8101.948571437428, -32799.374496862234, -11886.858867032393, -1590.3713214840081, 31112.53304630912, -0.017435546875, 0.97691796875, -0.102205078125, 192.0, 0.0, 0.0, 0.0, 0.0, 0.0, 0.0, 0.0, 0.0, 0.0, 1.741810269110211E9, 0.0, 2025-03-12 15:11:09.110
138.0, -7301.890230404167, -11810.572363206431, -36854.22681024394, -25210.666681607567, -43195.953154081486, 9180.017910005798, -22919.903447616514, 17066.361554427334, -10406.145203846121, -22173.24342408698, -38581.83784268354, -8117.527737322776, -32801.05087769638, -11885.227189687157, -1651.145714657988, 31050.976342079204, -0.017435546875, 0.97691796875, -0.102205078125, 192.0, 0.0, 0.0, 0.0, 0.0, 0.0, 0.0, 0.0, 0.0, 0.0, 1.741810269110235E9, 0.0, 2025-03-12 15:11:09.110
140.0, -7312.775529953901, -11828.185537837213, -36860.82057485826, -25219.093289267217, -43203.82096812975, 9170.29490116774, -22932.30866578921, 17062.33824042538, -10390.00724434939, -22174.29395607638, -38575.221726324766, -8095.243048100835, -32800.38032536273, -11880.868599518371, -1607.023371103212, 31087.230871585714, -0.017435546875, 0.97691796875, -0.102205078125, 192.0, 0.0, 0.0, 0.0, 0.0, 0.0, 0.0, 0.0, 0.0, 0.0, 1.741810269110254E9, 0.0, 2025-03-12 15:11:09.110
142.0, -7312.842585187267, -11829.43723552671, -36867.16847028357, -25222.93778931353, -43205.586755941724, 9164.706965053912, -22932.554534978215, 17055.69977232215, -10389.850782138203, -22172.081133375304, -38575.64640946942, -8113.3479611096345, -32795.73116251602, -11883.796678042017, -1657.337147872108, 31048.29413274457, -0.0177177734375, 0.975458984375, -0.1021025390625, 192.0, 127.5, 56.0, 15.0, 56.0, 126.0, 104.0, 0.0, 0.0, 0.0, 1.741810269110273E9, 0.0, 2025-03-12 15:11:09.110
144.0, -7327.393570827672, -11838.91437517576, -36883.99933385841, -25239.343969743728, -43222.864654405676, 9147.8090462457, -22949.519509019796, 17051.922327509204, -10405.206430578999, -22187.973223683028, -38591.11381663249, -8112.029208186771, -32813.65726156918, -11895.956027025704, -1618.4451125198739, 31088.191996597292, -0.0177177734375, 0.975458984375, -0.1021025390625, 192.0, 0.0, 0.0, 0.0, 0.0, 0.0, 0.0, 0.0, 0.0, 0.0, 1.741810269110296E9, 0.0, 2025-03-12 15:11:09.110
146.0, -7309.176899096597, -11831.001857638581, -36867.72726389495, -25221.060242779287, -43206.36906699766, 9164.95283424292, -22933.895639645536, 17044.568603583408, -10410.257924825899, -22190.364860339745, -38597.931098691355, -8133.9562694974275, -32816.92061625965, -11900.985169528149, -1651.726860013826, 31056.34076074848, -0.0177177734375, 0.975458984375, -0.1021025390625, 192.0, 0.0, 0.0, 0.0, 0.0, 0.0, 0.0, 0.0, 0.0, 0.0, 1.741810269110315E9, 0.0, 2025-03-12 15:11:09.110
148.0, -7304.9524193945435, -11823.938706390705, -36867.03435981683, -25219.89795206761, -43202.233994273425, 9162.985880730854, -22930.766395421793, 17061.354763669344, -10383.52523845735, -22171.276470574914, -38573.94767689081, -8094.036053900249, -32797.5416538169, -11877.135858194335, -1652.442115836396, 31064.47679573021, -0.0177177734375, 0.975458984375, -0.1021025390625, 192.0, 0.0, 0.0, 0.0, 0.0, 0.0, 0.0, 0.0, 0.0, 0.0, 1.741810269110334E9, 0.0, 2025-03-12 15:11:09.110
150.0, -7304.415977527617, -11817.389645265299, -36860.686464391525, -25219.875600323154, -43192.868613346654, 9167.43387787746, -22923.032691840257, 17045.88735650627, -10403.597104978217, -22169.555386251854, -38576.965162392284, -8116.27603963328, -32795.261775882456, -11875.146552937813, -1660.1981711623873, 31043.600266408954, -0.0177177734375, 0.975458984375, -0.1021025390625, 192.0, 0.0, 0.0, 0.0, 0.0, 0.0, 0.0, 0.0, 0.0, 0.0, 1.741810269110353E9, 0.0, 2025-03-12 15:11:09.110
152.0, -7309.869803174711, -11835.740427463106, -36874.321028509265, -25233.62192316317, -43206.45847397548, 9147.965508456888, -22939.48357575936, 17054.492778121567, -10402.524221244363, -22171.14236010818, -38581.2566973277, -8100.808632470207, -32794.1888921486, -11875.191256426724, -1658.4770868393286, 31055.133766547893, -0.01785888671875, 0.9757294921874999, -0.10305126953125, 192.0, 127.5, 56.0, 15.0, 64.0, 126.0, 96.0, 0.0, 0.0, 0.0, 1.741810269110373E9, 0.0, 2025-03-12 15:11:09.110
154.0, -7305.310047305828, -11825.369218035845, -36868.62133367316, -25233.04077780733, -43199.7976541278, 9155.542749827237, -22934.074453601177, 17033.817414500405, -10399.797308420815, -22180.463037546044, -38590.62207825447, -8125.820234515695, -32801.94494747459, -11896.715986337183, -1640.2380633637981, 31043.220286753214, -0.01785888671875, 0.9757294921874999, -0.10305126953125, 192.0, 0.0, 0.0, 0.0, 0.0, 0.0, 0.0, 0.0, 0.0, 0.0, 1.741810269110396E9, 0.0, 2025-03-12 15:11:09.110
156.0, -7312.373198553705, -11841.194253110201, -36878.523156466865, -25239.120452299172, -43207.3972472426, 9143.8080839882, -22939.818851926193, 17048.010772229525, -10389.068471082268, -22179.948947423574, -38583.78244445115, -8106.865955217595, -32804.67186029814, -11887.864695532882, -1664.0426712087003, 31040.00163555165, -0.01785888671875, 0.9757294921874999, -0.10305126953125, 192.0, 0.0, 0.0, 0.0, 0.0, 0.0, 0.0, 0.0, 0.0, 0.0, 1.741810269110415E9, 0.0, 2025-03-12 15:11:09.110
158.0, -7315.725960222002, -11837.282697830522, -36875.52802270985, -25236.728815642455, -43202.591622184715, 9153.62049980408, -22934.38737802355, 17028.341237108856, -10398.746776431415, -22185.000441670472, -38590.77854046566, -8127.362504883112, -32803.66603179766, -11894.369053169377, -1633.7784092162144, 31049.165850778325, -0.01785888671875, 0.9757294921874999, -0.10305126953125, 192.0, 0.0, 0.0, 0.0, 0.0, 0.0, 0.0, 0.0, 0.0, 0.0, 1.741810269110433E9, 0.0, 2025-03-12 15:11:09.110
160.0, -7325.828948715801, -11860.126180663847, -36893.23060431846, -25248.307019270305, -43214.97448861295, 9141.304688609205, -22947.77607295228, 17045.03799021697, -10411.666084726583, -22189.470790561532, -38600.814473726095, -8124.300315892735, -32813.05376446888, -11897.58770437094, -1673.1621829464655, 31033.89960931535, -0.01785888671875, 0.9757294921874999, -0.10305126953125, 192.0, 0.0, 0.0, 0.0, 0.0, 0.0, 0.0, 0.0, 0.0, 0.0, 1.741810269110454E9, 0.0, 2025-03-12 15:11:09.110
162.0, -7310.361541552728, -11834.220508840146, -36870.67769416305, -25232.79490861832, -43200.26704076136, 9159.409601618005, -22932.93451463396, 17031.157556910224, -10410.77201494837, -22186.63211901571, -38599.45101731432, -8132.279888663279, -32812.42791562413, -11895.866620047882, -1630.0680196366334, 31041.320388474513, -0.015929443359375, 0.97686474609375, -0.107525634765625, 192.0, 127.5, 72.0, 15.0, 72.0, 126.0, 64.0, 0.0, 0.0, 0.0, 1.741810269110473E9, 0.0, 2025-03-12 15:11:09.110
164.0, -7335.082570920297, -11845.441084556709, -36889.96724962798, -25250.497490226924, -43216.89673863611, 9135.13560713954, -22950.793558453748, 17039.852385503338, -10406.033445123845, -22191.14717139568, -38601.015639426194, -8124.009743214816, -32818.887569771716, -11898.861753804893, -1677.7666423042588, 31017.60518760743, -0.015929443359375, 0.97686474609375, -0.107525634765625, 192.0, 0.0, 0.0, 0.0, 0.0, 0.0, 0.0, 0.0, 0.0, 0.0, 1.741810269110493E9, 0.0, 2025-03-12 15:11:09.110
166.0, -7326.141873138175, -11851.878386959837, -36870.00714182939, -25239.031045321353, -43201.87636636214, 9150.111275924597, -22932.241610555844, 17023.13328065077, -10418.505718529907, -22192.622386529732, -38608.88345347446, -8137.465493376911, -32824.140229718716, -11904.606152129907, -1613.0806938506, 31039.956932062738, -0.015929443359375, 0.97686474609375, -0.107525634765625, 192.0, 0.0, 0.0, 0.0, 0.0, 0.0, 0.0, 0.0, 0.0, 0.0, 1.741810269110515E9, 0.0, 2025-03-12 15:11:09.110
168.0, -7328.980544683999, -11855.007631183582, -36876.80207214381, -25244.194298290528, -43208.42542748755, 9139.04716241922, -22939.595334481637, 17048.301344907446, -10406.234610823944, -22176.86440668874, -38596.478235301765, -8118.041827445249, -32814.01488948046, -11893.989073513636, -1683.6675028404597, 31007.14457120235, -0.015929443359375, 0.97686474609375, -0.107525634765625, 192.0, 0.0, 0.0, 0.0, 0.0, 0.0, 0.0, 0.0, 0.0, 0.0, 1.741810269110533E9, 0.0, 2025-03-12 15:11:09.110
170.0, -7331.9533266965545, -11855.074686416947, -36866.63202841664, -25241.37797848916, -43203.75391289639, 9151.765305014289, -22934.34267453464, 17022.306266105923, -10425.658276755605, -22193.5388080524, -38612.57149130959, -8131.899909007539, -32830.01873851046, -11903.957951540704, -1604.274106535209, 31058.017141582626, -0.015929443359375, 0.97686474609375, -0.107525634765625, 192.0, 0.0, 0.0, 0.0, 0.0, 0.0, 0.0, 0.0, 0.0, 0.0, 1.741810269110554E9, 0.0, 2025-03-12 15:11:09.110
172.0, -7331.193367385074, -11853.353602093888, -36868.934258095534, -25240.55096394431, -43203.46334021847, 9146.087961922642, -22936.801366424726, 17044.121568694303, -10427.379361078663, -22187.459133560555, -38604.88249121696, -8130.804673529229, -32815.6465668257, -11897.006559015103, -1678.504249871284, 31001.84720776644, -0.016964721679687503, 0.9784323730468749, -0.1087628173828125, 192.0, 127.5, 56.0, 15.0, 80.0, 126.0, 72.0, 0.0, 0.0, 0.0, 1.741810269110573E9, 0.0, 2025-03-12 15:11:09.110
174.0, -7334.032038930898, -11854.2476718721, -36872.95757209749, -25250.363379760194, -43209.96769785496, 9143.539863054737, -22938.54480249224, 17022.596838783844, -10421.702017987016, -22197.137438909704, -38607.18472089586, -8129.508272350821, -32817.23354068203, -11906.30488470851, -1599.1555570549438, 31049.255257756147, -0.016964721679687503, 0.9784323730468749, -0.1087628173828125, 192.0, 0.0, 0.0, 0.0, 0.0, 0.0, 0.0, 0.0, 0.0, 0.0, 1.741810269110595E9, 0.0, 2025-03-12 15:11:09.110
176.0, -7325.627783015702, -11852.370125337855, -36866.699083650004, -25239.411024977093, -43203.53039545183, 9148.569005557181, -22928.57592446517, 17037.684266291173, -10403.1053666002, -22195.706927264564, -38600.74741849273, -8134.872691020095, -32815.42304938115, -11904.293227707532, -1678.95128476039, 31001.444876366244, -0.016964721679687503, 0.9784323730468749, -0.1087628173828125, 192.0, 0.0, 0.0, 0.0, 0.0, 0.0, 0.0, 0.0, 0.0, 0.0, 1.741810269110616E9, 0.0, 2025-03-12 15:11:09.110
178.0, -7335.97664069851, -11858.650965529796, -36868.5542784398, -25243.076711067763, -43201.809311128774, 9147.227900889862, -22927.614799453593, 17028.162423153215, -10422.618439509683, -22199.327909866322, -38602.24498537123, -8126.89311824955, -32812.74084004651, -11904.025006774069, -1606.6210397030163, 31042.303865230548, -0.016964721679687503, 0.9784323730468749, -0.1087628173828125, 192.0, 0.0, 0.0, 0.0, 0.0, 0.0, 0.0, 0.0, 0.0, 0.0, 1.741810269110635E9, 0.0, 2025-03-12 15:11:09.110
180.0, -7338.837663988789, -11872.754916281096, -36876.75736865489, -25248.083501825753, -43206.25730827538, 9140.790598486734, -22932.085148344657, 17036.969010468605, -10435.649506527127, -22200.78077325592, -38606.044781928635, -8138.851301533139, -32816.07124997035, -11905.12024225238, -1674.279770169231, 30990.425466349778, -0.016964721679687503, 0.9784323730468749, -0.1087628173828125, 192.0, 0.0, 0.0, 0.0, 0.0, 0.0, 0.0, 0.0, 0.0, 0.0, 1.741810269110654E9, 0.0, 2025-03-12 15:11:09.110
182.0, -7351.175826928119, -11878.655776817295, -36886.972115870965, -25260.734589187457, -43214.661564190574, 9128.38538031404, -22940.712921704402, 17019.400539326733, -10454.02264046939, -22219.176258942636, -38618.04766870113, -8139.857130033628, -32830.24225595501, -11917.100777280424, -1596.6968651648601, 31041.320388474513, -0.018482360839843753, 0.9802161865234374, -0.10938140869140625, 192.0, 127.5, 48.0, 15.0, 88.0, 126.0, 72.0, 0.0, 0.0, 0.0, 1.741810269110675E9, 0.0, 2025-03-12 15:11:09.110
184.0, -7331.64040227418, -11849.57615728094, -36867.81667087277, -25243.90372561261, -43201.541090195315, 9140.924708953466, -22929.02295935428, 17029.257658631523, -10437.907032717114, -22209.81087801586, -38611.38684885346, -8150.228339460891, -32826.33070067534, -11915.26793423509, -1666.0096247207673, 30989.21847214919, -0.018482360839843753, 0.9802161865234374, -0.10938140869140625, 192.0, 0.0, 0.0, 0.0, 0.0, 0.0, 0.0, 0.0, 0.0, 0.0, 1.741810269110695E9, 0.0, 2025-03-12 15:11:09.110
186.0, -7348.851245504767, -11888.669358333274, -36875.68448492104, -25257.29242054134, -43211.197043800006, 9132.14047338253, -22939.148299592533, 17022.395673083745, -10435.493044315941, -22205.139363424703, -38605.24011912824, -8130.245879917847, -32820.22867443904, -11904.248524218623, -1612.6783624504046, 31032.491449414665, -0.018482360839843753, 0.9802161865234374, -0.10938140869140625, 192.0, 0.0, 0.0, 0.0, 0.0, 0.0, 0.0, 0.0, 0.0, 0.0, 1.741810269110714E9, 0.0, 2025-03-12 15:11:09.110
188.0, -7334.233204630996, -11872.911378492283, -36869.716569151475, -25252.844423394734, -43204.98325884143, 9133.302764094205, -22931.794575666736, 17022.194507383647, -10441.058628685312, -22211.755479783475, -38611.65506978692, -8150.85418830564, -32823.76025006297, -11916.385521457854, -1664.668520053449, 30995.789885019054, -0.018482360839843753, 0.9802161865234374, -0.10938140869140625, 192.0, 0.0, 0.0, 0.0, 0.0, 0.0, 0.0, 0.0, 0.0, 0.0, 1.741810269110736E9, 0.0, 2025-03-12 15:11:09.110
190.0, -7336.3566203542505, -11869.44685810171, -36868.06254006178, -25250.296324526826, -43203.08336056273, 9136.499063551315, -22926.318398275187, 17026.55309755243, -10436.1635966496, -22213.25304666198, -38618.33824137905, -8133.08455146367, -32821.189799450614, -11915.893783079837, -1620.1661968429325, 31034.771327349106, -0.018482360839843753, 0.9802161865234374, -0.10938140869140625, 192.0, 0.0, 0.0, 0.0, 0.0, 0.0, 0.0, 0.0, 0.0, 0.0, 1.741810269110797E9, 0.0, 2025-03-12 15:11:09.110
192.0, -7320.129253879697, -11845.731657234628, -36845.37551943964, -25228.86100159419, -43184.911392320566, 9153.396982359527, -22906.850028854613, 17034.778539511986, -10423.423102310075, -22186.475656804523, -38591.784368966146, -8130.849377018139, -32810.572720834345, -11898.660588104796, -1664.8696857535465, 30996.23691990816, -0.022241180419921878, 0.9831080932617187, -0.11069070434570313, 192.0, 127.5, 24.0, 15.0, 104.0, 126.0, 64.0, 0.0, 0.0, 0.0, 1.741810269110816E9, 0.0, 2025-03-12 15:11:09.110
192.0, -7338.077704677308, -11872.73256453664, -36863.92746733755, -25248.061150081296, -43203.46334021847, 9133.99566817232, -22925.78195640826, 17038.108949435824, -10423.423102310075, -22186.475656804523, -38591.784368966146, -8130.849377018139, -32810.572720834345, -11898.660588104796, -1664.8696857535465, 30996.23691990816, -0.022241180419921878, 0.9831080932617187, -0.11069070434570313, 192.0, 63.75, 12.0, 7.5, 52.0, 63.0, 32.0, 0.0, 0.0, 0.0, 1.741810269111239E9, 0.0, 2025-03-12 15:11:09.111
196.0, -7324.666658004125, -11850.872558459349, -36854.897362577605, -25239.61219067719, -43194.16501452506, 9144.121008410575, -22918.09295631563, 17024.65319927373, -10434.375457093174, -22204.759383768964, -38606.178892395365, -8141.198234700947, -32820.295729672405, -11908.338893453943, -1637.0641156511447, 31017.716946329707, -0.022241180419921878, 0.9831080932617187, -0.11069070434570313, 192.0, 0.0, 0.0, 0.0, 0.0, 0.0, 0.0, 0.0, 0.0, 0.0, 1.741810269111264E9, 0.0, 2025-03-12 15:11:09.111
198.0, -7330.5451667958705, -11873.783096526038, -36867.280229005846, -25246.161251802594, -43202.7480843959, 9133.95096468341, -22928.665331442993, 17038.04189420246, -10423.646619754627, -22194.81285748635, -38589.750360220714, -8113.683237276464, -32811.95852899057, -11896.134840981345, -1633.599595260572, 31036.738280861176, -0.022241180419921878, 0.9831080932617187, -0.11069070434570313, 192.0, 0.0, 0.0, 0.0, 0.0, 0.0, 0.0, 0.0, 0.0, 0.0, 1.741810269111285E9, 0.0, 2025-03-12 15:11:09.111
200.0, -7333.361486597239, -11858.606262040885, -36866.96730458347, -25249.357551259705, -43204.06683731876, 9133.61568851658, -22930.67698844397, 17017.45593755912, -10436.789445494347, -22201.808953500862, -38599.83099697006, -8136.169092198503, -32821.905055273186, -11908.338893453943, -1626.5140922682397, 31031.910304058827, -0.022241180419921878, 0.9831080932617187, -0.11069070434570313, 192.0, 0.0, 0.0, 0.0, 0.0, 0.0, 0.0, 0.0, 0.0, 0.0, 1.741810269111304E9, 0.0, 2025-03-12 15:11:09.111
202.0, -7338.234166888496, -11872.911378492283, -36876.60090644371, -25256.063074596295, -43208.447779232, 9123.624458745058, -22934.72265419038, 17025.32375160739, -10425.68062850006, -22205.407584358167, -38597.39465682443, -8122.243955402846, -32821.63683433972, -11902.54979164002, -1627.698734724371, 31030.14451624686, -0.026120590209960937, 0.9825540466308593, -0.10834535217285157, 192.0, 127.5, 8.0, 15.0, 88.0, 126.0, 88.0, 0.0, 0.0, 0.0, 1.741810269111326E9, 0.0, 2025-03-12 15:11:09.111
204.0, -7327.997067927965, -11867.859884245383, -36866.29675224981, -25255.14665307363, -43201.65284891759, 9129.726484981356, -22928.59827620963, 17011.264504345003, -10424.786558721848, -22199.55142731088, -38595.96414517929, -8136.504368365332, -32820.31808141686, -11907.802451587017, -1605.9281356249019, 31015.973510262196, -0.026120590209960937, 0.9825540466308593, -0.10834535217285157, 192.0, 0.0, 0.0, 0.0, 0.0, 0.0, 0.0, 0.0, 0.0, 0.0, 1.741810269111346E9, 0.0, 2025-03-12 15:11:09.111
206.0, -7336.69189652108, -11868.530436579042, -36877.606734944195, -25261.785121176854, -43211.50996822238, 9115.287258063228, -22939.8635554151, 17020.78634748296, -10441.192739152044, -22207.173372170135, -38601.4626743153, -8128.65890606152, -32827.560046620376, -11912.78689060055, -1628.503397524762, 31012.196065449247, -0.026120590209960937, 0.9825540466308593, -0.10834535217285157, 192.0, 0.0, 0.0, 0.0, 0.0, 0.0, 0.0, 0.0, 0.0, 0.0, 1.741810269111365E9, 0.0, 2025-03-12 15:11:09.111
208.0, -7330.992201684976, -11861.579044053442, -36863.01104581488, -25255.57133621828, -43202.859843118174, 9126.530185524249, -22931.25813379981, 16999.999225139527, -10428.899279701625, -22205.832267502818, -38597.81933996908, -8139.454798633433, -32825.88366578623, -11914.172698756778, -1591.310094751131, 31024.511876644123, -0.026120590209960937, 0.9825540466308593, -0.10834535217285157, 192.0, 0.0, 0.0, 0.0, 0.0, 0.0, 0.0, 0.0, 0.0, 0.0, 1.741810269163588E9, 0.0, 2025-03-12 15:11:09.163
208.0, -7596.083890924918, -12622.521832289915, -36984.73864611848, -26125.992968796847, -43247.09394539523, 8330.338696281755, -23295.412754465673, 16151.571709104981, -10428.899279701625, -22205.832267502818, -38597.81933996908, -8139.454798633433, -32825.88366578623, -11914.172698756778, -1591.310094751131, 31024.511876644123, -0.026120590209960937, 0.9825540466308593, -0.10834535217285157, 192.0, 0.0, 0.0, 0.0, 0.0, 0.0, 0.0, 0.0, 0.0, 0.0, 1.741810269163639E9, 0.0, 2025-03-12 15:11:09.163
192.0, -7626.07993198394, -12634.54707080687, -37003.581166694305, -26151.853937131636, -43270.63033230667, 8305.707073892007, -23318.65856869919, 16115.071310409465, -10642.760770650002, -22524.07640505748, -38770.21834495287, -8493.43937557213, -33259.84278438601, -12331.993857859834, -1913.845767241212, 29491.673945388073, -0.026120590209960937, 0.9825540466308593, -0.10834535217285157, 192.0, 0.0, 0.0, 0.0, 0.0, 0.0, 0.0, 0.0, 0.0, 0.0, 1.741810269163658E9, 0.0, 2025-03-12 15:11:09.163
194.0, -7605.583382318424, -12618.140890376675, -36992.29353574438, -26132.45262294443, -43253.01715767589, 8328.192928814045, -23296.239769010517, 16144.530909601559, -10643.051343327921, -22509.30190197252, -38761.43410938193, -8500.703692520106, -33244.554191178584, -12318.314590253185, -1998.3577130267279, 29421.377709076132, -0.026120590209960937, 0.9825540466308593, -0.10834535217285157, 192.0, 0.0, 0.0, 0.0, 0.0, 0.0, 0.0, 0.0, 0.0, 0.0, 1.741810269163682E9, 0.0, 2025-03-12 15:11:09.163
196.0, -7611.5960015769015, -12618.297352587862, -36991.69003864408, -26136.61004741312, -43258.67214902308, 8328.93053638107, -23301.559484190882, 16141.602831077915, -10637.731628147558, -22506.731451360163, -38755.24267616781, -8480.341253321321, -33244.62124641195, -12309.91033433799, -1932.554177350304, 29475.670096358073, -0.02306029510498047, 0.9832770233154297, -0.10417267608642579, 192.0, 127.5, 48.0, 15.0, 96.0, 126.0, 112.0, 0.0, 0.0, 0.0, 1.741810269163707E9, 0.0, 2025-03-12 15:11:09.163
198.0, -7605.829251507432, -12615.279867086396, -36989.253698498454, -26134.017245056304, -43251.00550067491, 8328.483501491964, -23296.418582966162, 16148.554223603514, -10624.566450663382, -22504.96566354819, -38752.225190666344, -8489.01373016998, -33242.38607196642, -12311.921991338968, -2006.002009630443, 29425.11045040017, -0.02306029510498047, 0.9832770233154297, -0.10417267608642579, 192.0, 0.0, 0.0, 0.0, 0.0, 0.0, 0.0, 0.0, 0.0, 0.0, 1.741810269163728E9, 0.0, 2025-03-12 15:11:09.163
200.0, -7633.143083231817, -12634.144739406674, -37014.7346871775, -26165.197928571455, -43272.8655067522, 8301.996684312426, -23319.731452433047, 16124.61550529188, -10645.241814284542, -22527.65268417033, -38772.788795565226, -8488.92432319216, -33259.41810124136, -12331.457415992907, -1941.6960408325244, 29474.954840535505, -0.02306029510498047, 0.9832770233154297, -0.10417267608642579, 192.0, 0.0, 0.0, 0.0, 0.0, 0.0, 0.0, 0.0, 0.0, 0.0, 1.741810269163752E9, 0.0, 2025-03-12 15:11:09.163
202.0, -7615.440501623214, -12618.073835143308, -36999.17787303661, -26147.674160918494, -43255.25233212142, 8320.414521743598, -23299.36901323426, 16128.86233673839, -10635.71997114658, -22519.002559066124, -38765.658589083985, -8504.704654777606, -33250.097423803505, -12323.813119389191, -1998.1118438377196, 29415.320386328745, -0.02306029510498047, 0.9832770233154297, -0.10417267608642579, 192.0, 0.0, 0.0, 0.0, 0.0, 0.0, 0.0, 0.0, 0.0, 0.0, 1.741810269163772E9, 0.0, 2025-03-12 15:11:09.163
204.0, -7614.7699492895545, -12636.424617341116, -36998.32850674731, -26152.099806320646, -43254.22415187647, 8323.387303756155, -23299.257254511984, 16139.34530488793, -10628.567412920882, -22519.427242210775, -38761.54586810421, -8484.163401623178, -33250.05272031459, -12322.136738555044, -1960.7620788529014, 29454.01125598088, -0.02306029510498047, 0.9832770233154297, -0.10417267608642579, 192.0, 0.0, 0.0, 0.0, 0.0, 0.0, 0.0, 0.0, 0.0, 0.0, 1.741810269207197E9, 0.0, 2025-03-12 15:11:09.207
206.0, -7619.977905747642, -12632.870689972722, -37001.2342335265, -26151.853937131636, -43256.8616577222, 8318.358161253711, -23301.403021979695, 16128.9070402273, -10655.59067196735, -22520.880105600372, -38768.519612374264, -8508.213878657089, -33251.974970337746, -12326.96471535739, -1999.58705897177, 29409.19600834799, -0.024530147552490236, 0.9816385116577149, -0.0990863380432129, 192.0, 127.5, 24.0, 15.0, 80.0, 126.5, 8.0, 0.0, 0.0, 0.0, 1.74181026920722E9, 0.0, 2025-03-12 15:11:09.207
208.0, -7620.894327270309, -12634.412960340138, -36997.52384394692, -26153.21739354341, -43255.38644258815, 8314.178385040568, -23300.397193479206, 16132.036284451044, -10636.949317091623, -22523.003521323626, -38769.01135075228, -8492.00886392699, -33257.697016918304, -12327.05412233521, -1962.7290323649686, 29435.481659827434, -0.024530147552490236, 0.9816385116577149, -0.0990863380432129, 192.0, 0.0, 0.0, 0.0, 0.0, 0.0, 0.0, 0.0, 0.0, 0.0, 1.741810269207241E9, 0.0, 2025-03-12 15:11:09.207
210.0, -7616.066350467962, -12617.8279659543, -36988.5831461648, -26142.98029458288, -43248.12212564017, 8322.470882233487, -23291.456495697083, 16131.0081042061, -10637.9104421032, -22512.98993980765, -38766.23973443982, -8506.649256545217, -33252.310246504574, -12320.326247254163, -1986.0866053207644, 29411.25236883788, -0.024530147552490236, 0.9816385116577149, -0.0990863380432129, 192.0, 0.0, 0.0, 0.0, 0.0, 0.0, 0.0, 0.0, 0.0, 0.0, 1.74181026920726E9, 0.0, 2025-03-12 15:11:09.207
212.0, -7617.541565602013, -12623.840585212778, -36994.349896234264, -26144.142585294558, -43253.53124779835, 8315.295972263333, -23299.056088811885, 16143.256860167607, -10629.327372232363, -22507.156134504814, -38757.47785061334, -8482.017634155469, -33247.638731913416, -12315.878250107557, -1986.3101227653174, 29439.169697662557, -0.024530147552490236, 0.9816385116577149, -0.0990863380432129, 192.0, 0.0, 0.0, 0.0, 0.0, 0.0, 0.0, 0.0, 0.0, 0.0, 1.741810269223225E9, 0.0, 2025-03-12 15:11:09.223
214.0, -7624.939993016719, -12631.440178327583, -36995.55689043485, -26146.534221951275, -43256.10169841072, 8316.905297864116, -23303.14645804721, 16119.519307556071, -10650.270956786986, -22512.699367129728, -38769.368978663566, -8504.72700652206, -33257.62996168494, -12320.795633887725, -1981.4150907296053, 29436.241619138913, -0.024530147552490236, 0.9816385116577149, -0.0990863380432129, 192.0, 0.0, 0.0, 0.0, 0.0, 0.0, 0.0, 0.0, 0.0, 0.0, 1.741810269239261E9, 0.0, 2025-03-12 15:11:09.239
216.0, -7619.016780736063, -12621.806576467345, -36998.84259686978, -26147.048312073748, -43255.47584956597, 8313.88781236265, -23305.001652837, 16136.976019975666, -10631.495491444528, -22512.78877410755, -38761.70233031539, -8484.811602212381, -33254.63482792793, -12319.67804666496, -1991.003989100932, 29435.571066805252, -0.02426507377624512, 0.9798192558288574, -0.09654316902160645, 192.0, 127.5, 32.0, 15.0, 72.0, 126.5, 8.0, 0.0, 0.0, 0.0, 1.741810269273298E9, 0.0, 2025-03-12 15:11:09.273
218.0, -7619.821443536454, -12621.940686934076, -36990.795968865874, -26141.25921025982, -43253.553599542814, 8320.88390837716, -23298.56435043387, 16120.167508145274, -10626.376941964263, -22512.095870029436, -38761.456461126385, -8497.082709918346, -33252.93609534932, -12323.209622288898, -1971.4462127025383, 29427.569142290253, -0.02426507377624512, 0.9798192558288574, -0.09654316902160645, 192.0, 0.0, 0.0, 0.0, 0.0, 0.0, 0.0, 0.0, 0.0, 0.0, 1.741810269273349E9, 0.0, 2025-03-12 15:11:09.273
220.0, -7627.398684906803, -12630.523756804914, -37001.211881782045, -26148.635285930075, -43264.41654734809, 8309.21629777149, -23308.22030403856, 16134.249107152118, -10630.132035032753, -22510.55359966202, -38755.75676629028, -8478.217837598067, -33257.96523785177, -12318.58281118665, -1997.7989194153452, 29414.180447361523, -0.02426507377624512, 0.9798192558288574, -0.09654316902160645, 192.0, 0.0, 0.0, 0.0, 0.0, 0.0, 0.0, 0.0, 0.0, 0.0, 1.741810269273375E9, 0.0, 2025-03-12 15:11:09.273
222.0, -7618.726208058144, -12619.59375376627, -36987.778483364404, -26144.18728878347, -43251.877218708665, 8322.895565378138, -23296.93267308863, 16114.624275520358, -10644.39244799524, -22517.281474743068, -38769.212516452375, -8498.915552963681, -33266.21303155578, -12328.529337469261, -1958.9515875520217, 29420.796563720294, -0.02426507377624512, 0.9798192558288574, -0.09654316902160645, 192.0, 0.0, 0.0, 0.0, 0.0, 0.0, 0.0, 0.0, 0.0, 0.0, 1.741810269329136E9, 0.0, 2025-03-12 15:11:09.329
224.0, -7623.911812771776, -12632.378951594705, -36997.90382360266, -26152.703303420938, -43261.68963452454, 8307.428158215065, -23308.779097649945, 16136.57368857547, -10634.714142646091, -22510.084213028458, -38751.733452288325, -8483.112869633778, -33251.550287193095, -12314.380683229052, -2013.1098643672306, 29391.091095339194, -0.02426507377624512, 0.9798192558288574, -0.09654316902160645, 192.0, 0.0, 0.0, 0.0, 0.0, 0.0, 0.0, 0.0, 0.0, 0.0, 1.741810269329162E9, 0.0, 2025-03-12 15:11:09.329
226.0, -7627.1528157177945, -12625.584021280292, -36991.37711422171, -26153.955001110437, -43258.783907745354, 8311.384416983654, -23306.208647037583, 16108.969284173167, -10633.842424612336, -22520.075442799982, -38760.115356459064, -8498.222648885567, -33260.44628148631, -12329.579869458661, -1956.5375991508483, 29411.609996749165, -0.02513253688812256, 0.9789096279144287, -0.09827158451080323, 192.0, 127.5, 24.0, 15.0, 72.0, 126.0, 112.0, 0.0, 0.0, 0.0, 1.741810269329193E9, 0.0, 2025-03-12 15:11:09.329
228.0, -7611.46189111017, -12619.526698532904, -36981.69880887256, -26141.28156200428, -43246.46809655048, 8321.330943266266, -23294.09400154281, 16138.29477289853, -10631.651953655715, -22515.359224719912, -38749.38651912052, -8492.075919160357, -33253.71840640526, -12319.454529220406, -2023.6151842612248, 29380.786941145296, -0.02513253688812256, 0.9789096279144287, -0.09827158451080323, 192.0, 0.0, 0.0, 0.0, 0.0, 0.0, 0.0, 0.0, 0.0, 0.0, 1.741810269329215E9, 0.0, 2025-03-12 15:11:09.329
230.0, -7626.884594784331, -12628.64621027067, -36990.03600955439, -26158.067722090214, -43254.89470421013, 8310.512698949899, -23302.989995836022, 16123.453214580204, -10632.210747267098, -22522.89176260135, -38755.42149012345, -8498.334407607843, -33259.529859963644, -12326.517680468283, -1960.359747452706, 29424.372842833145, -0.02513253688812256, 0.9789096279144287, -0.09827158451080323, 192.0, 0.0, 0.0, 0.0, 0.0, 0.0, 0.0, 0.0, 0.0, 0.0, 1.741810269329234E9, 0.0, 2025-03-12 15:11:09.329
232.0, -7612.758292288577, -12630.836681227289, -36978.52486115991, -26147.85297487414, -43239.8072767028, 8319.587507198752, -23288.103734028788, 16151.77287480508, -10613.278819713452, -22520.03073931107, -38748.604208064586, -8499.496698319519, -33248.91278134737, -12322.896697866523, -2032.4217715766158, 29385.01142084735, -0.02513253688812256, 0.9789096279144287, -0.09827158451080323, 192.0, 0.0, 0.0, 0.0, 0.0, 0.0, 0.0, 0.0, 0.0, 0.0, 1.741810269329254E9, 0.0, 2025-03-12 15:11:09.329
234.0, -7630.952612275197, -12632.535413805892, -36992.248832255464, -26163.70036169295, -43252.10073615322, 8309.551573938319, -23299.123144045254, 16124.57080180297, -10647.29817477443, -22526.55744869202, -38756.6508360685, -8501.709521020593, -33253.651351171895, -12328.909317125, -1962.5949218982366, 29432.508877814875, -0.02513253688812256, 0.9789096279144287, -0.09827158451080323, 192.0, 0.0, 0.0, 0.0, 0.0, 0.0, 0.0, 0.0, 0.0, 0.0, 1.741810269329279E9, 0.0, 2025-03-12 15:11:09.329
236.0, -7622.973039504653, -12646.16997792363, -36998.820245125324, -26159.14060582407, -43254.89470421013, 8305.729425636462, -23304.174638292152, 16144.48620611265, -10641.151445049221, -22522.69059690125, -38756.360263390576, -8504.436433844141, -33253.98662733872, -12323.67900892246, -2045.542245571881, 29384.56438595824, -0.02356626844406128, 0.9764548139572143, -0.09913579225540162, 192.0, 127.5, 40.0, 15.0, 56.0, 126.0, 112.0, 0.0, 0.0, 0.0, 1.741810269344408E9, 0.0, 2025-03-12 15:11:09.344
238.0, -7633.277193698549, -12641.498463332471, -36993.63464041169, -26165.08616984918, -43254.62648327667, 8306.891716348138, -23305.76161214848, 16116.792394732523, -10651.232081798564, -22532.972399350692, -38768.13963271852, -8505.129337922257, -33270.7504356802, -12335.704247439415, -1962.7290323649686, 29440.331988374233, -0.02356626844406128, 0.9764548139572143, -0.09913579225540162, 192.0, 0.0, 0.0, 0.0, 0.0, 0.0, 0.0, 0.0, 0.0, 0.0, 1.741810269400354E9, 0.0, 2025-03-12 15:11:09.400
240.0, -7611.104263198885, -12626.12046314722, -36984.6268873962, -26149.797576641748, -43239.06966913577, 8315.474786218976, -23292.082344541832, 16129.108205927398, -10627.00279080901, -22524.74695739114, -38754.05803371168, -8505.956352467103, -33254.16544129437, -12333.133796827055, -2042.7035740260571, 29378.57411844422, -0.02356626844406128, 0.9764548139572143, -0.09913579225540162, 192.0, 0.0, 0.0, 0.0, 0.0, 0.0, 0.0, 0.0, 0.0, 0.0, 1.741810269400391E9, 0.0, 2025-03-12 15:11:09.400
242.0, -7622.369542404359, -12623.59471602377, -36985.766826363426, -26153.84324238816, -43241.28249183685, 8315.631248430163, -23290.048335796397, 16126.694217526225, -10629.506186188006, -22519.36018697741, -38752.6945772999, -8485.526858034951, -33252.1984877823, -12324.10369206711, -1969.6580731461136, 29428.999653935392, -0.02356626844406128, 0.9764548139572143, -0.09913579225540162, 192.0, 0.0, 0.0, 0.0, 0.0, 0.0, 0.0, 0.0, 0.0, 0.0, 1.741810269400415E9, 0.0, 2025-03-12 15:11:09.400
244.0, -7621.900155770798, -12622.633591012192, -36986.83971009728, -26148.992913841357, -43249.37382332967, 8316.12298680818, -23297.89379810021, 16136.216060664185, -10622.174814006665, -22509.16779150579, -38745.27379814074, -8487.896142947215, -33248.71161564727, -12317.44287221943, -2034.9475187000655, 29381.68101092351, -0.02356626844406128, 0.9764548139572143, -0.09913579225540162, 192.0, 0.0, 0.0, 0.0, 0.0, 0.0, 0.0, 0.0, 0.0, 0.0, 1.741810269400434E9, 0.0, 2025-03-12 15:11:09.400
246.0, -7625.342324416915, -12608.484936771982, -36983.93398331809, -26146.93655335147, -43255.69936701052, 8320.950963610527, -23305.18046679264, 16118.491127311127, -10634.1106455458, -22519.22607651068, -38757.00846397978, -8485.526858034951, -33268.604668212494, -12326.741197912837, -1951.9107880486, 29441.29311338581, -0.01878313422203064, 0.9772274069786071, -0.09856789612770081, 192.0, 127.5, 72.0, 15.0, 72.0, 126.0, 120.0, 0.0, 0.0, 0.0, 1.741810269400453E9, 0.0, 2025-03-12 15:11:09.400
248.0, -7597.8049752479765, -12603.835773925279, -36964.64442785316, -26125.054195529723, -43239.293186580326, 8336.910109151615, -23295.7480306325, 16125.420168092272, -10600.650084096203, -22498.908340800805, -38738.65768178197, -8486.130355135245, -33254.567772694565, -12308.904505837501, -2013.06516087832, 29400.00944137686, -0.01878313422203064, 0.9772274069786071, -0.09856789612770081, 192.0, 0.0, 0.0, 0.0, 0.0, 0.0, 0.0, 0.0, 0.0, 0.0, 1.741810269400478E9, 0.0, 2025-03-12 15:11:09.400
250.0, -7624.6494203388, -12626.835718969789, -36995.758056134946, -26158.246536045855, -43267.72460552747, 8305.59531516973, -23321.36312977828, 16114.803089476001, -10614.86579356978, -22492.672204097773, -38731.79569623419, -8461.565787978863, -33250.00801682568, -12302.780127856748, -1962.3714044536835, 29450.72554954595, -0.01878313422203064, 0.9772274069786071, -0.09856789612770081, 192.0, 0.0, 0.0, 0.0, 0.0, 0.0, 0.0, 0.0, 0.0, 0.0, 1.741810269400496E9, 0.0, 2025-03-12 15:11:09.400
252.0, -7654.51135093109, -12654.998916983477, -37001.81537888234, -26165.89083264957, -43262.33783511375, 8295.984065053948, -23311.50601047349, 16100.922656169256, -10645.711200918104, -22519.248428255134, -38768.22903969634, -8507.185698412144, -33278.79706368411, -12332.776168915769, -2000.0564456053312, 29403.92099665654, -0.01878313422203064, 0.9772274069786071, -0.09856789612770081, 192.0, 0.0, 0.0, 0.0, 0.0, 0.0, 0.0, 0.0, 0.0, 0.0, 1.741810269450581E9, 0.0, 2025-03-12 15:11:09.450
254.0, -7651.046830540518, -12639.889137731689, -36994.282841000895, -26164.907355893538, -43252.2571983644, 8300.789690111838, -23300.553655690393, 16106.577647516448, -10665.604253483327, -22524.32227424649, -38776.700350844905, -8498.356759352298, -33283.62504048646, -12342.007439375811, -1963.1760672540747, 29420.97537767594, -0.01878313422203064, 0.9772274069786071, -0.09856789612770081, 192.0, 0.0, 0.0, 0.0, 0.0, 0.0, 0.0, 0.0, 0.0, 0.0, 1.741810269450616E9, 0.0, 2025-03-12 15:11:09.450
0.0, -7647.8728828278645, -12622.566535778826, -36978.70367511555, -26147.003608584837, -43234.80048594481, 8320.995667099436, -23282.73931535951, 16121.799185490512, -10655.076581844876, -22500.49531465713, -38761.90349601549, -8500.033140186446, -33264.4025402549, -12318.761625142291, -2007.8795561646887, 29393.348621529178, -0.01839156711101532, 0.9786137034893035, -0.0972839480638504, 192.0, 127.5, 56.0, 15.0, 80.0, 126.5, 0.0, 0.0, 0.0, 0.0, 1.741810269450635E9, 0.0, 2025-03-12 15:11:09.450
2.0, -7662.267406257082, -12650.617975070236, -37004.47523647252, -26170.405885029544, -43260.8626199797, 8296.11817552068, -23312.154211062698, 16122.939124457733, -10655.568320222894, -22504.31746295899, -38769.19016470792, -8492.34414009382, -33272.248002558714, -12318.381645486552, -1981.325683751784, 29430.564276047266, -0.01839156711101532, 0.9786137034893035, -0.0972839480638504, 192.0, 0.0, 0.0, 0.0, 0.0, 0.0, 0.0, 0.0, 0.0, 0.0, 1.741810269450655E9, 0.0, 2025-03-12 15:11:09.450
4.0, -7660.479266700658, -12646.639364557192, -36996.40625672415, -26164.66148670453, -43254.872352465674, 8304.097748291224, -23305.694556915114, 16110.623313262859, -10660.865683658802, -22514.241637497144, -38780.50014740231, -8523.100140464323, -33283.33446780854, -12333.178500315966, -1988.2100210440185, 29401.19408383299, -0.01839156711101532, 0.9786137034893035, -0.0972839480638504, 192.0, 0.0, 0.0, 0.0, 0.0, 0.0, 0.0, 0.0, 0.0, 0.0, 1.741810269450674E9, 0.0, 2025-03-12 15:11:09.450
6.0, -7677.913627375798, -12654.17190243863, -37018.64624245718, -26189.248405605365, -43273.9160387416, 8280.78487882434, -23324.492374002028, 16115.004255176098, -10654.718953933592, -22511.93940781825, -38778.175565978956, -8504.01175069949, -33283.62504048646, -12328.216413046886, -1991.9874658569654, 29412.861694438663, -0.01839156711101532, 0.9786137034893035, -0.0972839480638504, 192.0, 0.0, 0.0, 0.0, 0.0, 0.0, 0.0, 0.0, 0.0, 0.0, 1.741810269450696E9, 0.0, 2025-03-12 15:11:09.450
8.0, -7667.341252248437, -12655.714172806047, -37003.22353878302, -26178.363106055633, -43260.03560543485, 8297.16870751008, -23308.622635438758, 16096.206438089186, -10669.314643062908, -22520.678939900274, -38790.737246362834, -8537.561719126907, -33296.097313892526, -12348.288279567752, -1986.8018611433342, 29399.271833809835, -0.01839156711101532, 0.9786137034893035, -0.0972839480638504, 192.0, 0.0, 0.0, 0.0, 0.0, 0.0, 0.0, 0.0, 0.0, 0.0, 1.741810269450719E9, 0.0, 2025-03-12 15:11:09.450
10.0, -7683.389804767347, -12665.347774666283, -37023.295405303885, -26191.930614940004, -43276.15121318713, 8278.996739267915, -23325.27468505796, 16111.13740338533, -10682.390413569263, -22520.79069862255, -38786.37865619405, -8514.718236293584, -33299.96416568329, -12340.755741686315, -2009.1312538541858, 29400.925862899527, -0.01719578355550766, 0.9753068517446517, -0.0946419740319252, 192.0, 127.5, 64.0, 15.0, 48.0, 126.5, 16.0, 0.0, 0.0, 0.0, 1.741810269450738E9, 0.0, 2025-03-12 15:11:09.450
12.0, -7679.165325065294, -12652.428466371115, -37011.15840806466, -26182.498178779864, -43267.85871599421, 8290.552591151309, -23316.959836120586, 16089.702080452691, -10673.136791364765, -22525.395157980343, -38794.1570632645, -8535.639469103751, -33305.84267447504, -12348.936480156957, -1984.1867070420633, 29401.01526987735, -0.01719578355550766, 0.9753068517446517, -0.0946419740319252, 192.0, 0.0, 0.0, 0.0, 0.0, 0.0, 0.0, 0.0, 0.0, 0.0, 1.741810269500121E9, 0.0, 2025-03-12 15:11:09.500
14.0, -7677.265426786594, -12659.98335599701, -37019.42855351312, -26187.594376515674, -43272.08319569626, 8280.159029979592, -23322.927751890154, 16107.874048694855, -10664.39725928274, -22519.494297444144, -38786.44571142742, -8517.355742139309, -33303.227520373766, -12345.315497555197, -2025.9174139401216, 29390.15232207207, -0.01719578355550766, 0.9753068517446517, -0.0946419740319252, 192.0, 0.0, 0.0, 0.0, 0.0, 0.0, 0.0, 0.0, 0.0, 0.0, 1.741810269500159E9, 0.0, 2025-03-12 15:11:09.500
16.0, -7669.665833671789, -12640.626745298714, -37011.15840806466, -26183.19108285798, -43262.33783511375, 8293.033634785848, -23315.28345528644, 16087.176333329242, -10666.654785472725, -22520.008387566613, -38788.859699828594, -8528.68807657815, -33301.55113953962, -12349.003535390322, -1989.1040908222308, 29397.416639020044, -0.01719578355550766, 0.9753068517446517, -0.0946419740319252, 192.0, 0.0, 0.0, 0.0, 0.0, 0.0, 0.0, 0.0, 0.0, 0.0, 1.741810269500179E9, 0.0, 2025-03-12 15:11:09.500
18.0, -7670.582255194457, -12653.45664661606, -37016.90280638967, -26184.912167181035, -43269.825669506274, 8282.148335236114, -23325.677016458158, 16115.80891797649, -10648.77338990848, -22500.674128612773, -38767.15615596249, -8501.620114042773, -33289.168273111376, -12328.864613636091, -2049.587911318292, 29371.935650340994, -0.01719578355550766, 0.9753068517446517, -0.0946419740319252, 192.0, 0.0, 0.0, 0.0, 0.0, 0.0, 0.0, 0.0, 0.0, 0.0, 1.741810269500198E9, 0.0, 2025-03-12 15:11:09.500
20.0, -7657.059449798996, -12637.810425497346, -36997.97087883602, -26175.74795195436, -43258.94036995654, 8290.530239406853, -23318.055071598897, 16086.505780995582, -10664.374907538284, -22514.867486341893, -38776.543888633714, -8519.25564041801, -33305.30623260811, -12336.330096284164, -1983.4714512194935, 29400.791752432797, -0.01559789177775383, 0.9716534258723258, -0.0933209870159626, 192.0, 127.5, 72.0, 15.0, 32.0, 126.5, 16.0, 0.0, 0.0, 0.0, 1.74181026950022E9, 0.0, 2025-03-12 15:11:09.500
22.0, -7648.789304350532, -12628.914431204134, -36993.522881689416, -26172.50694900834, -43256.056994921804, 8282.550666636309, -23321.251371056005, 16104.09660388191, -10643.498378217027, -22496.472000655176, -38755.42149012345, -8498.468518074575, -33287.424837043865, -12327.925840368967, -2059.422678878627, 29357.027036789306, -0.01559789177775383, 0.9716534258723258, -0.0933209870159626, 192.0, 0.0, 0.0, 0.0, 0.0, 0.0, 0.0, 0.0, 0.0, 0.0, 1.74181026950024E9, 0.0, 2025-03-12 15:11:09.500
24.0, -7659.361679477893, -12654.037791971898, -36991.31005898834, -26181.268832834823, -43262.22607639147, 8271.419497897567, -23329.56621999338, 16073.89939712279, -10645.711200918104, -22510.73241361766, -38761.63527508203, -8507.766843767982, -33291.53755802364, -12341.605107975616, -1983.9184861085996, 29396.567272730743, -0.01559789177775383, 0.9716534258723258, -0.0933209870159626, 192.0, 0.0, 0.0, 0.0, 0.0, 0.0, 0.0, 0.0, 0.0, 0.0, 1.741810269500258E9, 0.0, 2025-03-12 15:11:09.500
26.0, -7669.41996448278, -12664.677222332624, -37007.93975686309, -26191.528283539807, -43274.720701541984, 8251.146465676602, -23341.52440327697, 16079.464981492161, -10668.800552940434, -22517.616750909896, -38770.419510652966, -8518.49568110653, -33302.26639536219, -12351.663392980505, -2038.2332251349958, 29354.925972810506, -0.01559789177775383, 0.9716534258723258, -0.0933209870159626, 192.0, 0.0, 0.0, 0.0, 0.0, 0.0, 0.0, 0.0, 0.0, 0.0, 1.741810269558802E9, 0.0, 2025-03-12 15:11:09.558
28.0, -7667.318900503982, -12654.373068138728, -36997.38973348019, -26190.00836491685, -43263.70129152552, 8259.550721591797, -23329.23094382655, 16063.03644931751, -10659.748096436037, -22517.214419509703, -38778.82376656816, -8516.864003761293, -33303.33927909604, -12355.396134304541, -1964.3607097102058, 29380.22814753391, -0.01559789177775383, 0.9716534258723258, -0.0933209870159626, 192.0, 0.0, 0.0, 0.0, 0.0, 0.0, 0.0, 0.0, 0.0, 0.0, 1.741810269558854E9, 0.0, 2025-03-12 15:11:09.558
30.0, -7661.730964390155, -12653.70251580507, -37000.161349792645, -26185.068629392223, -43261.5108205689, 8261.517675103865, -23323.352435034805, 16081.588397215415, -10647.834616641358, -22505.479753670665, -38772.31940893167, -8514.651181060217, -33291.93988942383, -12342.946212642933, -2049.252635151462, 29324.527600351288, -0.014798945888876914, 0.9738267129361629, -0.09366049350798131, 192.0, 127.5, 72.0, 15.0, 64.0, 126.5, 8.0, 0.0, 0.0, 0.0, 1.74181026955888E9, 0.0, 2025-03-12 15:11:09.558
32.0, -7661.887426601342, -12654.8871582612, -37002.55298644936, -26190.4330480615, -43264.528306070366, 8269.29608217431, -23321.094908844818, 16065.31632725195, -10670.074602374389, -22521.08127130047, -38789.15027250651, -8521.446111374631, -33304.68038376336, -12355.619651749093, -1967.0876225337533, 29379.781112644807, -0.014798945888876914, 0.9738267129361629, -0.09366049350798131, 192.0, 0.0, 0.0, 0.0, 0.0, 0.0, 0.0, 0.0, 0.0, 0.0, 1.7418102695589E9, 0.0, 2025-03-12 15:11:09.558
34.0, -7650.555092162502, -12655.423600128128, -37008.92323361913, -26182.81110320224, -43264.05891943681, 8276.470992144465, -23319.843211155323, 16086.304615295485, -10638.983325837056, -22508.005500794116, -38769.81601355267, -8518.853309017815, -33289.369438811475, -12342.119198098088, -2046.615129305736, 29320.45958286042, -0.014798945888876914, 0.9738267129361629, -0.09366049350798131, 192.0, 0.0, 0.0, 0.0, 0.0, 0.0, 0.0, 0.0, 0.0, 0.0, 1.741810269558922E9, 0.0, 2025-03-12 15:11:09.558
36.0, -7650.532740418046, -12640.962021465544, -37012.58891970979, -26181.42529504601, -43257.44280307803, 8292.49719291892, -23310.634292439736, 16080.113182081364, -10639.542119448439, -22506.932617060258, -38776.566240378175, -8510.560811824897, -33292.386924312945, -12340.53222424176, -1974.1731255260856, 29368.33701948369, -0.014798945888876914, 0.9738267129361629, -0.09366049350798131, 192.0, 0.0, 0.0, 0.0, 0.0, 0.0, 0.0, 0.0, 0.0, 0.0, 1.741810269558946E9, 0.0, 2025-03-12 15:11:09.558
38.0, -7660.568673678479, -12658.038754229397, -37024.12241984873, -26192.154132384556, -43269.825669506274, 8280.315492190777, -23319.016196610475, 16087.623368218348, -10632.970706578579, -22499.869465812382, -38777.750882834305, -8515.768768282982, -33287.73776146624, -12336.620668962083, -2049.7890770183894, 29323.119440450602, -0.014798945888876914, 0.9738267129361629, -0.09366049350798131, 192.0, 0.0, 0.0, 0.0, 0.0, 0.0, 0.0, 0.0, 0.0, 0.0, 1.741810269558966E9, 0.0, 2025-03-12 15:11:09.558
40.0, -7663.876731857865, -12675.249597459984, -37030.87264667424, -26199.84313247718, -43273.78192827487, 8281.097803246714, -23321.273722800463, 16075.173446556742, -10665.268977316497, -22520.053091055524, -38796.95103132141, -8516.484024105552, -33306.423819830874, -12353.965622659402, -1972.4073377141165, 29377.165958543537, -0.015399472944438457, 0.9759133564680814, -0.09583024675399066, 192.0, 127.5, 64.0, 15.0, 72.0, 126.0, 120.0, 0.0, 0.0, 0.0, 1.741810269558985E9, 0.0, 2025-03-12 15:11:09.558
42.0, -7647.738772361133, -12651.757914037456, -37024.971786138034, -26187.12498988211, -43266.22703864897, 8295.447623187021, -23312.623597696256, 16088.025699618544, -10655.993003367545, -22499.958872790205, -38784.165833492974, -8517.646314817228, -33290.5093777787, -12337.604145718116, -2040.6248617917136, 29333.825926044698, -0.015399472944438457, 0.9759133564680814, -0.09583024675399066, 192.0, 0.0, 0.0, 0.0, 0.0, 0.0, 0.0, 0.0, 0.0, 0.0, 1.741810269632958E9, 0.0, 2025-03-12 15:11:09.632
44.0, -7660.143990533828, -12662.21853044254, -37038.4945915335, -26201.13953365559, -43281.22505917848, 8289.524410906364, -23324.22415306856, 16082.594225715904, -10651.67911668767, -22509.12308801688, -38793.06182778619, -8506.381035611754, -33304.94860469682, -12340.979259130867, -1982.8008988858342, 29385.793731903286, -0.015399472944438457, 0.9759133564680814, -0.09583024675399066, 192.0, 0.0, 0.0, 0.0, 0.0, 0.0, 0.0, 0.0, 0.0, 0.0, 1.741810269632983E9, 0.0, 2025-03-12 15:11:09.632
46.0, -7652.767914863577, -12663.604338598769, -37031.94553040809, -26197.742068498384, -43277.380559132165, 8289.703224862007, -23321.966626878577, 16078.548559969493, -10643.163102050197, -22497.678994855763, -38789.39614169552, -8522.295477663933, -33298.041915660135, -12333.066741593688, -2028.9125476971326, 29335.882286534583, -0.015399472944438457, 0.9759133564680814, -0.09583024675399066, 192.0, 0.0, 0.0, 0.0, 0.0, 0.0, 0.0, 0.0, 0.0, 0.0, 1.741810269633003E9, 0.0, 2025-03-12 15:11:09.633
48.0, -7647.627013638857, -12657.681126318113, -37022.2895768034, -26193.361126585143, -43269.3115793838, 8291.178439996058, -23321.698405945113, 16088.070403107455, -10637.686924658648, -22498.79658207853, -38786.3563044496, -8502.782404754449, -33297.59488077103, -12329.781035158758, -1992.6356664461694, 29361.251516491357, -0.015399472944438457, 0.9759133564680814, -0.09583024675399066, 192.0, 0.0, 0.0, 0.0, 0.0, 0.0, 0.0, 0.0, 0.0, 0.0, 1.741810269633023E9, 0.0, 2025-03-12 15:11:09.633
50.0, -7635.17709197725, -12644.180672667108, -37007.157445807155, -26180.240652589877, -43257.80043098932, 8303.337788979745, -23313.94235061912, 16089.389156030316, -10627.96391582059, -22481.563387103484, -38774.71104558838, -8504.995227455525, -33280.004057884704, -12316.526450696761, -2024.486902294982, 29330.674330076497, -0.019699736472219228, 0.9769566782340406, -0.09691512337699533, 192.0, 127.5, 32.0, 15.0, 72.0, 126.0, 120.0, 0.0, 0.0, 0.0, 1.741810269633054E9, 0.0, 2025-03-12 15:11:09.633
52.0, -7648.409324694792, -12660.251576930474, -37020.70260294707, -26190.298937594765, -43271.27853289587, 8293.078338274758, -23329.38740603774, 16095.245313077607, -10638.335125247851, -22487.151323217313, -38774.48752814383, -8490.019558670469, -33289.41414230039, -12321.756758899302, -2001.3975502726496, 29358.368141456624, -0.019699736472219228, 0.9769566782340406, -0.09691512337699533, 192.0, 0.0, 0.0, 0.0, 0.0, 0.0, 0.0, 0.0, 0.0, 0.0, 1.741810269633078E9, 0.0, 2025-03-12 15:11:09.633
54.0, -7626.124635472851, -12639.956192965055, -36995.42277996812, -26169.288297806776, -43248.03271866235, 8315.541841452341, -23306.298054015406, 16089.769135686058, -10632.903651345212, -22473.270889910567, -38765.74799606181, -8498.133241907744, -33275.8019299271, -12313.553668684206, -2014.6297829901914, 29332.529524866288, -0.019699736472219228, 0.9769566782340406, -0.09691512337699533, 192.0, 0.0, 0.0, 0.0, 0.0, 0.0, 0.0, 0.0, 0.0, 0.0, 1.741810269633098E9, 0.0, 2025-03-12 15:11:09.633
56.0, -7642.553167647501, -12664.163132210153, -37015.338184277796, -26184.21926310292, -43266.94229447154, 8293.88300107515, -23329.253295571005, 16089.344452541407, -10640.145616548733, -22478.791770791027, -38766.44090013992, -8479.58129400984, -33281.143996851926, -12312.145508783522, -2013.7580649564345, 29359.28456297929, -0.019699736472219228, 0.9769566782340406, -0.09691512337699533, 192.0, 0.0, 0.0, 0.0, 0.0, 0.0, 0.0, 0.0, 0.0, 0.0, 1.74181026966898E9, 0.0, 2025-03-12 15:11:09.668
58.0, -7639.580385634946, -12643.823044755824, -37010.75607666446, -26181.73821946838, -43259.56621880129, 8297.347521465721, -23328.470984515072, 16069.697269165192, -10635.898785102223, -22487.26308193959, -38776.074502000156, -8502.849459987816, -33285.882566676446, -12327.76937815778, -1999.96703862751, 29354.18836524348, -0.019699736472219228, 0.9769566782340406, -0.09691512337699533, 192.0, 0.0, 0.0, 0.0, 0.0, 0.0, 0.0, 0.0, 0.0, 0.0, 1.741810269669011E9, 0.0, 2025-03-12 15:11:09.669
60.0, -7658.825237610965, -12679.161152739664, -37036.1923618546, -26204.827571490714, -43281.62739057868, 8267.26207342888, -23356.835348228855, 16072.42418198874, -10623.091235529333, -22496.874332055373, -38777.68382760094, -8493.886410461237, -33291.71637197928, -12330.920974125978, -2019.5024632814484, 29360.022170546315, -0.02084986823610961, 0.9784783391170203, -0.09645756168849767, 192.0, 127.5, 40.0, 15.0, 80.0, 126.5, 0.0, 0.0, 0.0, 0.0, 1.741810269698115E9, 0.0, 2025-03-12 15:11:09.698
62.0, -7631.645516353312, -12653.948384994077, -37003.022373082924, -26180.03948688978, -43245.10464013871, 8301.817870356783, -23320.156135577698, 16064.779885385024, -10630.512014688495, -22501.67995711326, -38784.12113000407, -8516.282858405455, -33294.5103400362, -12342.230956820364, -1992.2780385348844, 29350.52267915281, -0.02084986823610961, 0.9784783391170203, -0.09645756168849767, 192.0, 0.0, 0.0, 0.0, 0.0, 0.0, 0.0, 0.0, 0.0, 0.0, 1.741810269698152E9, 0.0, 2025-03-12 15:11:09.698
64.0, -7633.523062887557, -12648.427504113615, -37010.0855243308, -26181.537053768287, -43245.23875060544, 8301.013207556392, -23321.027853611453, 16099.179220101742, -10621.303095972908, -22478.4564946242, -38756.67318781295, -8480.721232977061, -33268.53761297913, -12312.592543672627, -2047.8221235063224, 29337.581019113186, -0.02084986823610961, 0.9784783391170203, -0.09645756168849767, 192.0, 0.0, 0.0, 0.0, 0.0, 0.0, 0.0, 0.0, 0.0, 0.0, 1.741810269727073E9, 0.0, 2025-03-12 15:11:09.727
66.0, -7638.731019345644, -12657.479960618015, -37008.25268128546, -26186.879120693106, -43244.76936397188, 8305.081225047257, -23321.8548681563, 16071.41835348825, -10636.032895568955, -22492.962776775694, -38770.28540018623, -8503.855288488305, -33283.73679920874, -12329.512814225294, -1993.932067624577, 29367.442949705477, -0.02084986823610961, 0.9784783391170203, -0.09645756168849767, 192.0, 0.0, 0.0, 0.0, 0.0, 0.0, 0.0, 0.0, 0.0, 0.0, 1.741810269727097E9, 0.0, 2025-03-12 15:11:09.727
68.0, -7653.9749090641635, -12675.115486993252, -37032.459620530564, -26207.353318614165, -43266.47290783798, 8278.505000889898, -23346.508842290503, 16090.37263278635, -10624.789968107936, -22488.000689506614, -38760.115356459064, -8496.523916306964, -33277.16538633888, -12322.181442043953, -2050.5043328409593, 29344.979446527894, -0.02084986823610961, 0.9784783391170203, -0.09645756168849767, 192.0, 0.0, 0.0, 0.0, 0.0, 0.0, 0.0, 0.0, 0.0, 0.0, 1.741810269727117E9, 0.0, 2025-03-12 15:11:09.727
70.0, -7656.478304443158, -12669.907530535165, -37027.54223675039, -26209.744955270882, -43265.89176248214, 8282.170686980568, -23344.63129575626, 16052.642888145792, -10655.858892900813, -22522.154155034325, -38793.21828999738, -8529.917422523193, -33305.0603634191, -12353.92091917049, -1975.6930441490465, 29373.366161986134, -0.020424934118054808, 0.9802391695585102, -0.09522878084424884, 192.0, 127.5, 48.0, 15.0, 88.0, 126.5, 8.0, 0.0, 0.0, 0.0, 1.741810269794408E9, 0.0, 2025-03-12 15:11:09.794
72.0, -7656.567711420979, -12684.883199320222, -37031.56555075235, -26210.884894238105, -43270.85384975122, 8273.632320598641, -23352.655572015712, 16069.809027887468, -10646.381753251762, -22504.54098040354, -38775.76157757778, -8509.48792809104, -33292.945717924325, -12332.977334615867, -2053.6559288091576, 29333.513001622323, -0.020424934118054808, 0.9802391695585102, -0.09522878084424884, 192.0, 0.0, 0.0, 0.0, 0.0, 0.0, 0.0, 0.0, 0.0, 0.0, 1.741810269794453E9, 0.0, 2025-03-12 15:11:09.794
74.0, -7657.573539921468, -12672.70149859208, -37025.75409719397, -26215.84698150718, -43268.55162007232, 8275.420460155066, -23353.571993538382, 16039.209489728153, -10665.850122672335, -22519.98603582216, -38789.19497599542, -8524.374189898275, -33306.33441285305, -12349.785846446259, -1973.2343522589629, 29368.33701948369, -0.020424934118054808, 0.9802391695585102, -0.09522878084424884, 192.0, 0.0, 0.0, 0.0, 0.0, 0.0, 0.0, 0.0, 0.0, 0.0, 1.741810269794478E9, 0.0, 2025-03-12 15:11:09.794
76.0, -7650.130409017851, -12667.180617711618, -37022.401335525676, -26206.973338958425, -43267.389329360645, 8273.744079320917, -23349.77219698098, 16060.60010917188, -10635.429398468661, -22502.484619913652, -38768.027873996245, -8510.583163569352, -33289.34708706702, -12336.173634072977, -2060.02617597892, 29305.23804488636, -0.020424934118054808, 0.9802391695585102, -0.09522878084424884, 192.0, 0.0, 0.0, 0.0, 0.0, 0.0, 0.0, 0.0, 0.0, 0.0, 1.741810269794497E9, 0.0, 2025-03-12 15:11:09.794
78.0, -7666.156609792306, -12684.726737109035, -37029.55389375137, -26218.931522242015, -43274.47483235298, 8269.676061830052, -23354.399008083226, 16039.008324028055, -10642.939584605645, -22513.63814039685, -38778.71200784588, -8512.818338014882, -33301.99817442872, -12347.908299912013, -1981.4374424740604, 29354.18836524348, -0.020424934118054808, 0.9802391695585102, -0.09522878084424884, 192.0, 0.0, 0.0, 0.0, 0.0, 0.0, 0.0, 0.0, 0.0, 0.0, 1.741810269794515E9, 0.0, 2025-03-12 15:11:09.794
80.0, -7653.0361357970405, -12673.03677475891, -37021.73078319202, -26205.65458603556, -43265.48943108194, 8271.307739175289, -23346.48649054605, 16055.123931780332, -10632.300154244918, -22505.6138641374, -38772.31940893167, -8514.226497915566, -33294.3091743361, -12338.006477118312, -2060.003824234465, 29300.544178550743, -0.019212467059027405, 0.9771195847792551, -0.09761439042212441, 192.0, 127.5, 56.0, 15.0, 56.0, 126.0, 112.0, 0.0, 0.0, 0.0, 1.741810269794538E9, 0.0, 2025-03-12 15:11:09.794
82.0, -7660.702784145211, -12679.407021928671, -37015.74051567799, -26206.4368970915, -43264.41654734809, 8274.392279910122, -23343.04432189993, 16046.205585742664, -10656.10476208982, -22511.447669440233, -38777.54971713421, -8504.503489077508, -33296.2090726148, -12342.521529498283, -1987.9865035994655, 29355.775339099808, -0.019212467059027405, 0.9771195847792551, -0.09761439042212441, 192.0, 0.0, 0.0, 0.0, 0.0, 0.0, 0.0, 0.0, 0.0, 0.0, 1.741810269794559E9, 0.0, 2025-03-12 15:11:09.794
84.0, -7660.523970189568, -12678.825876572833, -37020.009698868955, -26208.67207153703, -43269.64685555063, 8266.949149006505, -23348.72166499158, 16050.452417189172, -10665.82777092788, -22506.88791357135, -38780.09781600211, -8514.695884549128, -33299.025392416166, -12339.861671908102, -2065.12237371473, 29313.88816999056, -0.019212467059027405, 0.9771195847792551, -0.09761439042212441, 192.0, 0.0, 0.0, 0.0, 0.0, 0.0, 0.0, 0.0, 0.0, 0.0, 1.741810269817203E9, 0.0, 2025-03-12 15:11:09.817
86.0, -7656.143028276329, -12665.750106066478, -37006.95628010706, -26203.37470810112, -43259.141535656636, 8275.68868108853, -23340.8091474544, 16049.133664266308, -10653.981346366567, -22505.770326348582, -38777.79558632321, -8500.904858220203, -33294.77856096966, -12336.01717186179, -1998.134195582175, 29358.85987983464, -0.019212467059027405, 0.9771195847792551, -0.09761439042212441, 192.0, 0.0, 0.0, 0.0, 0.0, 0.0, 0.0, 0.0, 0.0, 0.0, 1.74181026984225E9, 0.0, 2025-03-12 15:11:09.842
88.0, -7649.124580517362, -12658.619899585236, -37002.41887598263, -26195.663356264038, -43253.17361988707, 8276.023957255358, -23333.34366480633, 16062.455303961671, -10632.903651345212, -22490.459381396697, -38762.17171694896, -8502.692997776629, -33280.853424174005, -12319.946267598423, -2065.8152777928444, 29310.84833274464, -0.019212467059027405, 0.9771195847792551, -0.09761439042212441, 192.0, 0.0, 0.0, 0.0, 0.0, 0.0, 0.0, 0.0, 0.0, 0.0, 1.741810269883316E9, 0.0, 2025-03-12 15:11:09.883
90.0, -7679.634711698856, -12690.582894156325, -37028.190437339596, -26221.43491762101, -43275.8159370203, 8255.30389014529, -23355.494243561538, 16046.272640976029, -10648.147541063732, -22511.827649095972, -38779.986057279835, -8506.001055956014, -33300.50060755022, -12342.342715542642, -1995.4072827586274, 29370.125159040115, -0.019606233529513704, 0.9775597923896275, -0.10080719521106221, 192.0, 127.5, 48.0, 15.0, 72.0, 126.0, 96.0, 0.0, 0.0, 0.0, 1.741810269883337E9, 0.0, 2025-03-12 15:11:09.883
92.0, -7668.481191215657, -12670.309861935362, -37020.635547713704, -26214.729394284415, -43268.573971816775, 8263.305814660289, -23346.128862634763, 16044.149225252775, -10656.551796978927, -22508.541942661042, -38783.539984648225, -8524.240079431544, -33301.23821511724, -12341.560404486705, -2052.3148241418394, 29309.395469355044, -0.019606233529513704, 0.9775597923896275, -0.10080719521106221, 192.0, 0.0, 0.0, 0.0, 0.0, 0.0, 0.0, 0.0, 0.0, 0.0, 1.741810269883366E9, 0.0, 2025-03-12 15:11:09.883
94.0, -7676.483115730658, -12696.282588992428, -37026.42464952763, -26222.820725777237, -43273.7148730415, 8254.25335815589, -23351.04624641493, 16044.46214967515, -10648.77338990848, -22515.314521231, -38782.780025336746, -8506.515146078485, -33305.0603634191, -12341.91803239799, -2005.1526433411414, 29340.79967031475, -0.019606233529513704, 0.9775597923896275, -0.10080719521106221, 192.0, 0.0, 0.0, 0.0, 0.0, 0.0, 0.0, 0.0, 0.0, 0.0, 1.741810269883385E9, 0.0, 2025-03-12 15:11:09.883
96.0, -7674.180886051761, -12684.950254553587, -37022.31192854785, -26215.265836151342, -43267.72460552747, 8258.813114024773, -23347.358208579804, 16042.986934541099, -10664.844294171846, -22515.180410764267, -38781.64008636953, -8522.742512553039, -33300.54531103913, -12346.813064433702, -2045.2963763828727, 29293.03399241376, -0.019606233529513704, 0.9775597923896275, -0.10080719521106221, 192.0, 0.0, 0.0, 0.0, 0.0, 0.0, 0.0, 0.0, 0.0, 0.0, 1.741810269883407E9, 0.0, 2025-03-12 15:11:09.883
98.0, -7669.889351116342, -12686.55958015437, -37019.92029189113, -26215.511705340352, -43267.590495060744, 8261.472971614954, -23344.653647500712, 16050.564175911448, -10670.767506452503, -22519.136669532858, -38778.55554563469, -8505.978704211559, -33296.4102383149, -12343.057971365211, -2020.0389051483758, 29326.718071307907, -0.019606233529513704, 0.9775597923896275, -0.10080719521106221, 192.0, 0.0, 0.0, 0.0, 0.0, 0.0, 0.0, 0.0, 0.0, 0.0, 1.741810269936909E9, 0.0, 2025-03-12 15:11:09.936
100.0, -7664.480228958158, -12679.049394017387, -37015.87462614472, -26212.270702394333, -43266.67407353807, 8265.339823405722, -23341.122071876773, 16041.869347318334, -10657.468218501595, -22509.994806050636, -38775.091025244124, -8516.998114228025, -33294.73385748075, -12338.542918985238, -2047.5315508284034, 29307.741440265352, -0.022803116764756853, 0.9777798961948138, -0.10040359760553111, 192.0, 127.5, 24.0, 15.0, 72.0, 126.0, 112.0, 0.0, 0.0, 0.0, 1.741810269936941E9, 0.0, 2025-03-12 15:11:09.936
102.0, -7657.573539921468, -12676.680109105124, -37013.68415518811, -26207.398022103076, -43268.61867530569, 8262.992890237914, -23344.117205633785, 16053.022867801532, -10643.990116595045, -22509.033681039058, -38764.49629837231, -8497.68620701864, -33295.471465047776, -12337.090055595643, -2038.836722235289, 29330.540219609764, -0.022803116764756853, 0.9777798961948138, -0.10040359760553111, 192.0, 0.0, 0.0, 0.0, 0.0, 0.0, 0.0, 0.0, 0.0, 0.0, 1.741810269936961E9, 0.0, 2025-03-12 15:11:09.936
104.0, -7655.584234664945, -12673.640271859202, -37002.44122772708, -26204.447591834974, -43260.0132536904, 8270.3019106748, -23335.71294971859, 16040.438835673194, -10643.610136939304, -22508.363128705398, -38764.85392628359, -8509.06324494639, -33295.69498249233, -12337.112407340099, -2034.4781320665043, 29309.216655399403, -0.022803116764756853, 0.9777798961948138, -0.10040359760553111, 192.0, 0.0, 0.0, 0.0, 0.0, 0.0, 0.0, 0.0, 0.0, 0.0, 1.741810269936981E9, 0.0, 2025-03-12 15:11:09.936
106.0, -7657.305318988004, -12676.635405616213, -37008.72206791903, -26205.94515871348, -43263.07544268077, 8263.372869893656, -23339.870374187278, 16059.393114971295, -10635.25058451302, -22502.998710036125, -38758.52838260274, -8487.516163291475, -33289.950584167316, -12322.829642633158, -2036.4897890674818, 29313.105858934625, -0.022803116764756853, 0.9777798961948138, -0.10040359760553111, 192.0, 0.0, 0.0, 0.0, 0.0, 0.0, 0.0, 0.0, 0.0, 0.0, 1.741810269937E9, 0.0, 2025-03-12 15:11:09.937
108.0, -7653.393763708325, -12657.591719340291, -37002.15065504917, -26202.14536215608, -43254.69353851003, 8278.080317745247, -23329.007426382, 16048.261946232553, -10631.137863533242, -22498.64011986734, -38762.506993115785, -8501.150727409211, -33285.01084864269, -12322.024979832768, -2019.2342423479847, 29312.748231023343, -0.022803116764756853, 0.9777798961948138, -0.10040359760553111, 192.0, 0.0, 0.0, 0.0, 0.0, 0.0, 0.0, 0.0, 0.0, 0.0, 1.741810269937026E9, 0.0, 2025-03-12 15:11:09.937
110.0, -7669.688185416244, -12692.728661624034, -37015.204073811066, -26214.796449517784, -43266.271742137884, 8264.959843749983, -23343.80428121141, 16062.298841750486, -10658.205826068619, -22504.853904825915, -38766.64206584002, -8497.417986085175, -33296.54434878163, -12327.657619435504, -2040.9154344696326, 29315.609254313622, -0.023401558382378427, 0.9788899480974069, -0.10220179880276556, 192.0, 127.5, 32.0, 15.0, 80.0, 126.0, 96.0, 0.0, 0.0, 0.0, 1.74181026993705E9, 0.0, 2025-03-12 15:11:09.937
112.0, -7665.821333625476, -12678.46824866155, -37005.86104462875, -26210.90724598256, -43263.79069850334, 8269.653710085597, -23342.12790037726, 16037.60016412737, -10658.272881301986, -22506.440878682242, -38769.3019234302, -8509.48792809104, -33297.81839821558, -12333.9608113719, -2000.0564456053312, 29324.79582128475, -0.023401558382378427, 0.9788899480974069, -0.10220179880276556, 192.0, 0.0, 0.0, 0.0, 0.0, 0.0, 0.0, 0.0, 0.0, 0.0, 1.741810269991797E9, 0.0, 2025-03-12 15:11:09.991
112.0, -7671.163400550295, -12679.921112051143, -37014.9358528776, -26218.61859781964, -43270.45151835102, 8265.898617017105, -23348.229926613563, 16023.764434309536, -10658.272881301986, -22506.440878682242, -38769.3019234302, -8509.48792809104, -33297.81839821558, -12333.9608113719, -2000.0564456053312, 29324.79582128475, -0.023401558382378427, 0.9788899480974069, -0.10220179880276556, 192.0, 0.0, 0.0, 0.0, 0.0, 0.0, 0.0, 0.0, 0.0, 0.0, 1.74181026999185E9, 0.0, 2025-03-12 15:11:09.991
112.0, -7670.381089494359, -12690.068804033854, -37016.880454645216, -26216.651644307574, -43270.49622183994, 8259.662480314075, -23350.308638847906, 16050.541824166994, -10658.272881301986, -22506.440878682242, -38769.3019234302, -8509.48792809104, -33297.81839821558, -12333.9608113719, -2000.0564456053312, 29324.79582128475, -0.023401558382378427, 0.9788899480974069, -0.10220179880276556, 192.0, 0.0, 0.0, 0.0, 0.0, 0.0, 0.0, 0.0, 0.0, 0.0, 1.741810269991868E9, 0.0, 2025-03-12 15:11:09.991
118.0, -7667.475362715169, -12691.767536612457, -37018.04274535689, -26213.634158806108, -43267.098756682724, 8263.954015249494, -23343.066673644385, 16054.02869630202, -10648.527520719472, -22505.077422270468, -38770.24069669732, -8504.458785588597, -33294.01860165818, -12330.473939236874, -2057.478077111015, 29272.246870070325, -0.023401558382378427, 0.9788899480974069, -0.10220179880276556, 192.0, 0.0, 0.0, 0.0, 0.0, 0.0, 0.0, 0.0, 0.0, 0.0, 1.741810269991895E9, 0.0, 2025-03-12 15:11:09.991
120.0, -7670.023461583074, -12683.072708019341, -37006.01750683993, -26209.968472715434, -43254.06768966528, 8272.06769848677, -23328.62744672626, 16058.65550740427, -10666.945358150644, -22514.956893319715, -38778.443786912416, -8519.054474717912, -33302.19934012882, -12338.475863751873, -1988.6347041886693, 29297.057306415714, -0.022700779191189215, 0.9794449740487035, -0.09910089940138278, 192.0, 127.5, 40.0, 15.0, 80.0, 126.5, 0.0, 0.0, 0.0, 0.0, 1.741810269991914E9, 0.0, 2025-03-12 15:11:09.991
122.0, -7679.210028554205, -12688.280664477428, -37010.510207475454, -26214.975263473425, -43260.192067646036, 8271.754774064395, -23331.823746183367, 16042.562251396448, -10634.892956601734, -22502.21639898019, -38763.825746038645, -8506.91747747868, -33289.14592136692, -12325.221279289875, -2065.5023533704702, 29254.164308805983, -0.022700779191189215, 0.9794449740487035, -0.09910089940138278, 192.0, 0.0, 0.0, 0.0, 0.0, 0.0, 0.0, 0.0, 0.0, 0.0, 1.741810269991939E9, 0.0, 2025-03-12 15:11:09.991
124.0, -7675.365528507892, -12689.666472633657, -37014.55587322186, -26217.299844896777, -43264.28243688136, 8266.323300161755, -23336.67407473017, 16034.26975420353, -10643.207805539108, -22512.677015385274, -38774.8004525662, -8511.343122880831, -33301.618194772986, -12334.541956727739, -1983.7620238974125, 29310.446001344444, -0.022700779191189215, 0.9794449740487035, -0.09910089940138278, 192.0, 0.0, 0.0, 0.0, 0.0, 0.0, 0.0, 0.0, 0.0, 0.0, 1.741810269991959E9, 0.0, 2025-03-12 15:11:09.991
132.0, -7679.388842509848, -12683.98912954201, -37007.582128951806, -26219.065632708745, -43255.69936701052, 8265.965672250471, -23338.685731731148, 16044.685667119702, -10651.634413198759, -22513.2134572522, -38769.570144363664, -8504.883468733247, -33300.075924405566, -12334.29608753873, -1978.8893436061555, 29325.108745707126, -0.022700779191189215, 0.9794449740487035, -0.09910089940138278, 192.0, 0.0, 0.0, 0.0, 0.0, 0.0, 0.0, 0.0, 0.0, 0.0, 1.741810269991978E9, 0.0, 2025-03-12 15:11:09.991
134.0, -7671.498676717124, -12683.98912954201, -37001.904785860155, -26211.242522149387, -43253.710061754, 8264.937492005527, -23336.42820554116, 16049.468940433138, -10656.171817323187, -22513.727547374674, -38771.11241473108, -8520.797910785426, -33295.650279003414, -12332.82087240468, -2049.6549665516577, 29276.046666627728, -0.022700779191189215, 0.9794449740487035, -0.09910089940138278, 192.0, 0.0, 0.0, 0.0, 0.0, 0.0, 0.0, 0.0, 0.0, 0.0, 1.741810270019554E9, 0.0, 2025-03-12 15:11:10.019
136.0, -7677.176019808772, -12687.341891210306, -37000.094294559276, -26218.931522242015, -43258.023948433874, 8255.773276778851, -23344.22896435606, 16040.8858705623, -10642.559604949905, -22511.827649095972, -38761.165888448464, -8498.58027679685, -33300.433552316856, -12330.809215403702, -1981.8174221298007, 29327.679196319485, -0.022700779191189215, 0.9794449740487035, -0.09910089940138278, 192.0, 0.0, 0.0, 0.0, 0.0, 0.0, 0.0, 0.0, 0.0, 0.0, 1.741810270019601E9, 0.0, 2025-03-12 15:11:10.019
138.0, -7668.503542960113, -12680.122277751241, -36996.316849746334, -26215.623464062628, -43253.5088960539, 8255.035669211826, -23342.7090457331, 16034.627382114815, -10644.30304101742, -22514.867486341893, -38764.63040883904, -8516.215803172088, -33297.19254937083, -12338.095884096132, -2040.4683995805265, 29277.633640484055, -0.022700779191189215, 0.9794449740487035, -0.09910089940138278, 192.0, 0.0, 0.0, 0.0, 0.0, 0.0, 0.0, 0.0, 0.0, 0.0, 1.741810270091705E9, 0.0, 2025-03-12 15:11:10.091
140.0, -7683.389804767347, -12686.134897009719, -37012.16423656514, -26233.482507882418, -43270.78679451785, 8242.876320228139, -23354.644877272236, 16032.012228013544, -10654.20486381112, -22517.281474743068, -38759.66832156996, -8498.222648885567, -33295.42676155886, -12339.928727141469, -1989.2605530334179, 29310.51305657781, -0.022350389595594607, 0.9777224870243517, -0.1015504497006914, 192.0, 127.5, 40.0, 15.0, 64.0, 126.0, 96.0, 0.0, 0.0, 0.0, 1.741810270091735E9, 0.0, 2025-03-12 15:11:10.091
142.0, -7683.90389488982, -12713.046397333908, -37014.75703892196, -26234.57774336073, -43271.83732650725, 8241.624622538642, -23350.33099059236, 16027.586582611393, -10672.555646008926, -22533.50884121762, -38776.18626072243, -8532.130245224267, -33309.19543614333, -12353.898567426035, -2029.4266378196048, 29260.243983297823, -0.022350389595594607, 0.9777224870243517, -0.1015504497006914, 192.0, 0.0, 0.0, 0.0, 0.0, 0.0, 0.0, 0.0, 0.0, 0.0, 1.741810270091776E9, 0.0, 2025-03-12 15:11:10.091
144.0, -7685.557923979512, -12703.32338849585, -37015.18172206661, -26237.66228409556, -43270.406814862115, 8241.937546961015, -23348.542851035938, 16030.179384968209, -10672.44388728665, -22542.36013202192, -38781.304810202695, -8520.68615206315, -33320.63952930445, -12362.056954152222, -1982.9797128414766, 29289.83769295665, -0.022350389595594607, 0.9777224870243517, -0.1015504497006914, 192.0, 0.0, 0.0, 0.0, 0.0, 0.0, 0.0, 0.0, 0.0, 0.0, 1.741810270091802E9, 0.0, 2025-03-12 15:11:10.091
146.0, -7686.094365846439, -12698.361301226772, -37010.13022781971, -26237.170545717545, -43266.02587294887, 8242.429285339033, -23343.983095167056, 16028.815928556434, -10671.661576230714, -22523.09292830145, -38774.26401069928, -8526.743474810539, -33301.52878779516, -12347.125988856076, -2027.7502569854566, 29241.35675923309, -0.022350389595594607, 0.9777224870243517, -0.1015504497006914, 192.0, 0.0, 0.0, 0.0, 0.0, 0.0, 0.0, 0.0, 0.0, 0.0, 1.741810270091822E9, 0.0, 2025-03-12 15:11:10.091
148.0, -7702.031159643074, -12715.192164801618, -37030.38090829622, -26255.543679659808, -43287.37178890369, 8222.446825795987, -23366.938336722655, 16024.993780254577, -10680.222294357098, -22538.850908142438, -38782.981191036844, -8521.915498008191, -33319.47723859277, -12362.392230319052, -1999.8776316496887, 29278.974745151372, -0.022350389595594607, 0.9777224870243517, -0.1015504497006914, 192.0, 0.0, 0.0, 0.0, 0.0, 0.0, 0.0, 0.0, 0.0, 0.0, 1.741810270091845E9, 0.0, 2025-03-12 15:11:10.091
150.0, -7698.209011341216, -12705.826783874845, -37026.04466987189, -26245.306580699278, -43285.82951853627, 8233.466235812455, -23365.887804733255, 16003.871381744311, -10680.088183890366, -22545.869355901403, -38797.91215633299, -8547.955280298625, -33329.51317185321, -12372.606977535126, -2014.2721550789065, 29252.823204138662, -0.024175194797797304, 0.9788612435121758, -0.10077522485034571, 192.0, 127.5, 24.0, 15.0, 80.0, 126.0, 112.0, 0.0, 0.0, 0.0, 1.741810270091868E9, 0.0, 2025-03-12 15:11:10.091
152.0, -7692.464613016202, -12695.008539558476, -37021.842541914295, -26238.8916300406, -43284.04137897985, 8234.606174779676, -23364.054961687918, 16026.245477944074, -10663.190265082154, -22531.5195359611, -38783.94231604842, -8517.668666561683, -33323.07586945008, -12354.63617499306, -2022.9669836720211, 29259.64048619753, -0.024175194797797304, 0.9788612435121758, -0.10077522485034571, 192.0, 0.0, 0.0, 0.0, 0.0, 0.0, 0.0, 0.0, 0.0, 0.0, 1.741810270166807E9, 0.0, 2025-03-12 15:11:10.166
154.0, -7691.704653704722, -12688.548885410892, -37019.22738781302, -26245.507746399373, -43280.532155100365, 8232.080427656225, -23361.886842475757, 16012.297989403964, -10659.748096436037, -22525.484564958166, -38783.94231604842, -8529.671553334183, -33319.45488684832, -12359.195930861943, -2020.7318092264902, 29252.130300060548, -0.024175194797797304, 0.9788612435121758, -0.10077522485034571, 192.0, 0.0, 0.0, 0.0, 0.0, 0.0, 0.0, 0.0, 0.0, 0.0, 1.741810270166832E9, 0.0, 2025-03-12 15:11:10.166
156.0, -7704.489851533157, -12716.443862491114, -37036.37117581024, -26259.76815936186, -43291.46215813901, 8214.422549536534, -23377.8683397613, 16022.17746045321, -10678.992948412055, -22538.292114531054, -38786.22219398287, -8526.341143410342, -33326.719203796296, -12363.822741964192, -2032.4664750655265, 29259.282858286246, -0.024175194797797304, 0.9788612435121758, -0.10077522485034571, 192.0, 0.0, 0.0, 0.0, 0.0, 0.0, 0.0, 0.0, 0.0, 0.0, 1.741810270166864E9, 0.0, 2025-03-12 15:11:10.166
158.0, -7696.890258418353, -12697.601341915291, -37020.859065158256, -26245.48539465492, -43271.8149747628, 8234.784988735317, -23360.590441297347, 16008.45348935765, -10681.764564724514, -22536.056940085524, -38791.586612652136, -8541.1156464953, -33327.99325323025, -12372.472867068394, -2018.966021414521, 29248.196393036415, -0.024175194797797304, 0.9788612435121758, -0.10077522485034571, 192.0, 0.0, 0.0, 0.0, 0.0, 0.0, 0.0, 0.0, 0.0, 0.0, 1.741810270166883E9, 0.0, 2025-03-12 15:11:10.166
160.0, -7696.398520040336, -12699.121260538252, -37025.86585591625, -26242.043226008802, -43269.64685555063, 8233.53329104582, -23358.82465348538, 16037.98014378311, -10666.453619772628, -22525.93159984727, -38784.34464744862, -8518.87566076227, -33319.76781127069, -12354.770285459792, -2062.6860335691017, 29241.580276677643, -0.02308759739889865, 0.9804306217560879, -0.09938761242517286, 192.0, 127.5, 40.0, 15.0, 88.0, 126.0, 120.0, 0.0, 0.0, 0.0, 1.741810270166902E9, 0.0, 2025-03-12 15:11:10.166
162.0, -7721.924212208297, -12725.921002140165, -37041.66853924615, -26266.831310609738, -43283.90726851312, 8213.930811158516, -23371.38633386926, 16002.418518354718, -10676.869532688801, -22549.2221175697, -38801.98017382386, -8547.329431453876, -33337.80566904612, -12375.088021169666, -2012.640477733669, 29272.425684025966, -0.02308759739889865, 0.9804306217560879, -0.09938761242517286, 192.0, 0.0, 0.0, 0.0, 0.0, 0.0, 0.0, 0.0, 0.0, 0.0, 1.741810270206885E9, 0.0, 2025-03-12 15:11:10.206
164.0, -7721.81245348602, -12732.671228965668, -37048.30700734937, -26264.05969429728, -43287.37178890369, 8208.186412833502, -23373.44269435915, 16022.669198831225, -10689.297102605951, -22557.291097318066, -38805.44469421443, -8548.894053565748, -33339.996140002746, -12378.038451437766, -2065.3682429037385, 29234.271256240758, -0.02308759739889865, 0.9804306217560879, -0.09938761242517286, 192.0, 0.0, 0.0, 0.0, 0.0, 0.0, 0.0, 0.0, 0.0, 0.0, 1.741810270206973E9, 0.0, 2025-03-12 15:11:10.206
166.0, -7707.529688779079, -12706.698501908602, -37028.27984431742, -26247.988790033913, -43280.57685858928, 8236.081389913725, -23361.886842475757, 16004.430175355696, -10700.763547511524, -22564.08602763248, -38817.02289784228, -8562.260396750022, -33353.22837272029, -12389.25902715433, -2009.7571026989344, 29256.243021040325, -0.02308759739889865, 0.9804306217560879, -0.09938761242517286, 192.0, 0.0, 0.0, 0.0, 0.0, 0.0, 0.0, 0.0, 0.0, 0.0, 1.741810270206998E9, 0.0, 2025-03-12 15:11:10.206
170.0, -7713.7881772265655, -12729.251412064006, -37036.41587929915, -26255.43192093753, -43289.00346624893, 8223.318543829744, -23378.315374650407, 16017.55064935096, -10676.713070477614, -22531.854812127927, -38788.43501668394, -8530.096236478834, -33328.57439858608, -12353.317422070197, -2014.16039635663, 29277.097198617128, -0.02308759739889865, 0.9804306217560879, -0.09938761242517286, 192.0, 0.0, 0.0, 0.0, 0.0, 0.0, 0.0, 0.0, 0.0, 0.0, 1.741810270269928E9, 0.0, 2025-03-12 15:11:10.269
174.0, -7729.680267534289, -12734.794644688922, -37044.86483870326, -26270.653458911594, -43297.385370419666, 8211.382712290611, -23380.77406654049, 15988.381622836785, -10702.663445790226, -22564.689524732774, -38816.84408388664, -8560.941643827158, -33356.80465183314, -12383.224056151397, -2023.3693150722165, 29256.913573373986, -0.02308759739889865, 0.9804306217560879, -0.09938761242517286, 192.0, 0.0, 0.0, 0.0, 0.0, 0.0, 0.0, 0.0, 0.0, 0.0, 1.741810270269952E9, 0.0, 2025-03-12 15:11:10.269
180.0, -7705.942714922752, -12691.141687767707, -37007.917405118635, -26236.947028272993, -43273.93839048605, 8221.888032184605, -23364.52434832148, 16011.649788814759, -10666.900654661735, -22528.904381859826, -38775.53806013323, -8531.571451612885, -33327.59092183005, -12358.391268061552, -2119.5041679744922, 29190.01480221925, -0.02308759739889865, 0.9804306217560879, -0.09938761242517286, 192.0, 0.0, 0.0, 0.0, 0.0, 0.0, 0.0, 0.0, 0.0, 0.0, 1.741810270269987E9, 0.0, 2025-03-12 15:11:10.269
192.0, -7699.907743919819, -12700.954103583588, -37008.36444000774, -26236.00825500587, -43272.30671314082, 8223.609116507663, -23364.546700065937, 16008.45348935765, -10668.755849451525, -22530.558410949518, -38776.49918514481, -8531.370285912786, -33335.03405273367, -12353.831512192668, -2085.6859786136124, 29218.669738610955, -0.02308759739889865, 0.9804306217560879, -0.09938761242517286, 192.0, 0.0, 0.0, 0.0, 0.0, 0.0, 0.0, 0.0, 0.0, 0.0, 1.741810270270006E9, 0.0, 2025-03-12 15:11:10.270
190.0, -7699.259543330615, -12700.574123927847, -37010.35374526426, -26237.05878699527, -43270.7644427734, 8224.145558374592, -23364.747865766036, 16009.951056236156, -10680.021128657, -22529.239658026658, -38772.81114730968, -8511.879564747758, -33333.73765155526, -12342.67799170947, -2042.4353530925935, 29252.376169249557, -0.02308759739889865, 0.9804306217560879, -0.09938761242517286, 192.0, 0.0, 0.0, 0.0, 0.0, 0.0, 0.0, 0.0, 0.0, 0.0, 1.741810270270029E9, 0.0, 2025-03-12 15:11:10.270
194.0, -7704.355741066425, -12711.03474033293, -37015.338184277796, -26243.540792887306, -43273.84898350823, 8218.177642605024, -23368.949993723632, 16015.874268516813, -10668.0182418845, -22536.615733696908, -38774.5545833772, -8520.797910785426, -33338.27505567969, -12352.132779614065, -2048.9173589846323, 29247.570544191665, -0.02308759739889865, 0.9804306217560879, -0.09938761242517286, 192.0, 0.0, 0.0, 0.0, 0.0, 0.0, 0.0, 0.0, 0.0, 0.0, 1.741810270292057E9, 0.0, 2025-03-12 15:11:10.292
200.0, -7694.297456061538, -12702.161097784174, -37002.0835998158, -26232.364920659653, -43261.600227546725, 8230.024067166338, -23358.109397662807, 16016.12013770582, -10657.19999756813, -22529.88785861586, -38769.92777227495, -8539.036934260957, -33337.51509636821, -12352.557462758716, -2080.0756907553305, 29217.328633943634, -0.02308759739889865, 0.9804306217560879, -0.09938761242517286, 192.0, 0.0, 0.0, 0.0, 0.0, 0.0, 0.0, 0.0, 0.0, 0.0, 1.741810270292086E9, 0.0, 2025-03-12 15:11:10.292
198.0, -7707.9767236681855, -12727.977362630054, -37020.34497503578, -26257.465929682963, -43268.015178205394, 8216.970648404438, -23362.937374465153, 16019.495251118571, -10660.73157319207, -22533.218268539702, -38768.318446674166, -8518.965067740091, -33335.74930855624, -12348.891776668046, -2063.4012893916715, 29238.27221849826, -0.025543798699449324, 0.9822153108780439, -0.10169380621258643, 192.0, 127.5, 16.0, 15.0, 96.0, 126.0, 96.0, 0.0, 0.0, 0.0, 1.741810270346436E9, 0.0, 2025-03-12 15:11:10.346
202.0, -7722.751226753143, -12738.303868568406, -37028.972748395536, -26266.786607120826, -43282.40970163461, 8203.090215097693, -23384.14917995324, 16012.11917544832, -10669.44875352964, -22548.41745476931, -38784.29994395971, -8538.098160993834, -33347.97571277329, -12362.21341636341, -2072.699615085079, 29239.21099176538, -0.025543798699449324, 0.9822153108780439, -0.10169380621258643, 192.0, 0.0, 0.0, 0.0, 0.0, 0.0, 0.0, 0.0, 0.0, 0.0, 1.741810270346467E9, 0.0, 2025-03-12 15:11:10.346
202.0, -7712.268258603604, -12718.32140902536, -37010.152579564165, -26254.11316801467, -43260.125012412675, 8225.732532230919, -23357.14827265123, 15994.863628728823, -10669.44875352964, -22548.41745476931, -38784.29994395971, -8538.098160993834, -33347.97571277329, -12362.21341636341, -2072.699615085079, 29239.21099176538, -0.025543798699449324, 0.9822153108780439, -0.10169380621258643, 192.0, 0.0, 0.0, 0.0, 0.0, 0.0, 0.0, 0.0, 0.0, 0.0, 1.741810270346513E9, 0.0, 2025-03-12 15:11:10.346
202.0, -7726.551023310545, -12733.542946999425, -37027.54223675039, -26270.496996700407, -43280.42039637809, 8201.682055197007, -23380.57290084039, 15986.951111191645, -10669.44875352964, -22548.41745476931, -38784.29994395971, -8538.098160993834, -33347.97571277329, -12362.21341636341, -2072.699615085079, 29239.21099176538, -0.025543798699449324, 0.9822153108780439, -0.10169380621258643, 192.0, 0.0, 0.0, 0.0, 0.0, 0.0, 0.0, 0.0, 0.0, 0.0, 1.741810270346537E9, 0.0, 2025-03-12 15:11:10.346
206.0, -7719.823148229498, -12749.18916811814, -37021.93194889211, -26263.38914196362, -43274.92186724208, 8209.080482611715, -23372.280403647474, 16003.826678255402, -10709.480727849093, -22563.169606109812, -38804.930604091955, -8559.019393804001, -33362.146718757955, -12377.412602593018, -2075.8288593088223, 29220.860209567574, -0.025543798699449324, 0.9822153108780439, -0.10169380621258643, 192.0, 0.0, 0.0, 0.0, 0.0, 0.0, 0.0, 0.0, 0.0, 0.0, 1.741810270346556E9, 0.0, 2025-03-12 15:11:10.346
212.0, -7724.964049454218, -12756.364078088294, -37034.60538799827, -26270.072313555756, -43286.343608658746, 8206.57708723272, -23376.169607182695, 15989.476858315094, -10688.112460149821, -22554.117149605412, -38806.87520585957, -8561.388678716265, -33353.004855275736, -12374.126896158088, -2031.997088431965, 29238.965122576374, -0.025543798699449324, 0.9822153108780439, -0.10169380621258643, 192.0, 0.0, 0.0, 0.0, 0.0, 0.0, 0.0, 0.0, 0.0, 0.0, 1.741810270346575E9, 0.0, 2025-03-12 15:11:10.346
214.0, -7706.210935856216, -12734.772292944466, -37027.31871930584, -26251.073330768744, -43278.632256821664, 8220.368113561644, -23366.20072915563, 16008.83346901339, -10698.617780043814, -22556.531138006587, -38814.519502463285, -8558.527655425985, -33360.872669324, -12377.16673340401, -2081.9755890340316, 29208.186770461416, -0.025543798699449324, 0.9822153108780439, -0.10169380621258643, 192.0, 0.0, 0.0, 0.0, 0.0, 0.0, 0.0, 0.0, 0.0, 0.0, 1.741810270346599E9, 0.0, 2025-03-12 15:11:10.346
216.0, -7685.155592579316, -12713.962818856577, -37002.84355912728, -26230.979112503424, -43257.263989122395, 8246.92198597455, -23343.021970155474, 16002.105593932343, -10675.72959372158, -22530.31254176051, -38788.68088587295, -8536.824111559881, -33334.45290737783, -12353.16095985901, -2034.098152410764, 29229.242113738313, -0.025543798699449324, 0.9822153108780439, -0.10169380621258643, 192.0, 0.0, 0.0, 0.0, 0.0, 0.0, 0.0, 0.0, 0.0, 0.0, 1.741810270346618E9, 0.0, 2025-03-12 15:11:10.346
218.0, -7691.883467660364, -12730.95014464261, -37027.96691989504, -26250.603944135186, -43272.217306162995, 8227.565375276254, -23363.429112843172, 16016.991855739578, -10663.324375548886, -22522.40002422333, -38777.5050136453, -8525.3129631654, -33323.18762817235, -12341.672163208981, -2099.0076183089755, 29210.86897979605, -0.025543798699449324, 0.9822153108780439, -0.10169380621258643, 192.0, 0.0, 0.0, 0.0, 0.0, 0.0, 0.0, 0.0, 0.0, 0.0, 1.74181027040683E9, 0.0, 2025-03-12 15:11:10.406
220.0, -7698.14195610785, -12722.56824047187, -37032.05728913037, -26258.00237154989, -43271.859678251705, 8232.05807591177, -23361.976249453575, 15985.610006524326, -10675.930759421679, -22544.751768678638, -38804.32710699167, -8548.447018676641, -33345.62877960548, -12370.394154834052, -2023.3022598388507, 29245.961218590885, -0.022, 0.982, -0.10400000000000001, 192.0, 127.5, 40.0, 15.0, 88.0, 126.0, 96.0, 0.0, 0.0, 0.0, 1.741810270406889E9, 0.0, 2025-03-12 15:11:10.406
222.0, -7698.387825296859, -12733.252374321506, -37043.635492758214, -26263.947935575, -43280.241582422444, 8221.351590317678, -23372.325107136385, 16004.8772102448, -10671.63922448626, -22531.787756894562, -38794.313525475685, -8537.628774360273, -33338.90090452444, -12360.40292506253, -2103.030932310931, 29193.188749931905, -0.022, 0.982, -0.10400000000000001, 192.0, 0.0, 0.0, 0.0, 0.0, 0.0, 0.0, 0.0, 0.0, 0.0, 1.74181027040691E9, 0.0, 2025-03-12 15:11:10.406
224.0, -7676.080784330462, -12718.969609614565, -37016.99221336749, -26248.838156323214, -43257.77807924486, 8244.217424895456, -23349.99571442553, 15996.271788629509, -10661.782105181468, -22532.726530161683, -38790.20080449591, -8531.482044635064, -33337.44804113484, -12358.793599461747, -2034.8357599777892, 29225.97875904784, -0.022, 0.982, -0.10400000000000001, 192.0, 0.0, 0.0, 0.0, 0.0, 0.0, 0.0, 0.0, 0.0, 0.0, 1.741810270406929E9, 0.0, 2025-03-12 15:11:10.406
226.0, -7686.183772824261, -12729.676095208657, -37031.43144028562, -26257.1977087495, -43274.00544571942, 8226.425436309033, -23363.89849947673, 16013.482631860094, -10656.462390001107, -22518.801393366026, -38775.44865315541, -8522.764864297493, -33322.94175898335, -12346.701305711425, -2119.3030022743947, 29190.59594757509, -0.022, 0.982, -0.10400000000000001, 192.0, 0.0, 0.0, 0.0, 0.0, 0.0, 0.0, 0.0, 0.0, 0.0, 1.741810270406948E9, 0.0, 2025-03-12 15:11:10.406
226.0, -7701.025331142585, -12738.817958690877, -37042.0932223908, -26276.48726421443, -43276.978227731975, 8221.642162995597, -23366.42424660018, 15984.671233257204, -10656.462390001107, -22518.801393366026, -38775.44865315541, -8522.764864297493, -33322.94175898335, -12346.701305711425, -2119.3030022743947, 29190.59594757509, -0.022, 0.982, -0.10400000000000001, 192.0, 0.0, 0.0, 0.0, 0.0, 0.0, 0.0, 0.0, 0.0, 0.0, 1.741810270406971E9, 0.0, 2025-03-12 15:11:10.406
226.0, -7699.259543330615, -12728.223231819062, -37044.88719044771, -26269.91585134457, -43284.734283057966, 8219.541099016798, -23371.632203058267, 15981.989023922566, -10656.462390001107, -22518.801393366026, -38775.44865315541, -8522.764864297493, -33322.94175898335, -12346.701305711425, -2119.3030022743947, 29190.59594757509, -0.022, 0.982, -0.10400000000000001, 192.0, 0.0, 0.0, 0.0, 0.0, 0.0, 0.0, 0.0, 0.0, 0.0, 1.741810270406993E9, 0.0, 2025-03-12 15:11:10.406
230.0, -7702.567601510001, -12733.900574910711, -37047.59175152681, -26270.429941467042, -43285.53894585836, 8217.864718182649, -23370.380505368772, 15999.311625875429, -10658.183474324165, -22525.46221321371, -38792.10070277461, -8530.900899279226, -33348.13217498448, -12358.838302950657, -2112.709237660079, 29183.53279632721, -0.018000000000000002, 0.984, -0.10400000000000001, 192.0, 127.5, 56.0, 15.0, 96.0, 126.0, 96.0, 0.0, 0.0, 0.0, 1.741810270407012E9, 0.0, 2025-03-12 15:11:10.407
234.0, -7690.989397882152, -12732.648877221212, -37035.7900304544, -26267.077179798747, -43267.255218893915, 8223.363247318655, -23358.735246507556, 15997.054099685443, -10657.736439435059, -22529.709044660216, -38791.47485392986, -8540.40039067273, -33338.252703935235, -12361.140532629553, -2121.9181563756656, 29171.23933687679, -0.018000000000000002, 0.984, -0.10400000000000001, 192.0, 0.0, 0.0, 0.0, 0.0, 0.0, 0.0, 0.0, 0.0, 0.0, 1.741810270407037E9, 0.0, 2025-03-12 15:11:10.407
236.0, -7716.38097958338, -12750.485569296548, -37054.900771963694, -26283.52806371785, -43290.21046044952, 8204.587781976197, -23383.47862761958, 15976.06581164191, -10671.773334952992, -22551.03260887058, -38809.93739484995, -8538.612251116307, -33359.46450942332, -12380.094811927655, -2051.6666235526354, 29237.288741742224, -0.018000000000000002, 0.984, -0.10400000000000001, 192.0, 0.0, 0.0, 0.0, 0.0, 0.0, 0.0, 0.0, 0.0, 0.0, 1.741810270482255E9, 0.0, 2025-03-12 15:11:10.482
238.0, -7694.543325250545, -12739.488511024538, -37038.114611877754, -26265.49020594242, -43275.03362596436, 8220.926907173027, -23367.027743700477, 15980.759677977525, -10680.378756568285, -22541.89074538836, -38800.70612438991, -8552.403277445232, -33350.45675640783, -12372.897550213045, -2110.6305254257354, 29178.995392202785, -0.018000000000000002, 0.984, -0.10400000000000001, 192.0, 0.0, 0.0, 0.0, 0.0, 0.0, 0.0, 0.0, 0.0, 0.0, 1.741810270482287E9, 0.0, 2025-03-12 15:11:10.482
240.0, -7684.216819312194, -12736.359266800793, -37030.358556551764, -26264.19380476401, -43264.12597467017, 8229.15234913258, -23359.85283373032, 15985.945282691157, -10674.433192543172, -22535.98988485216, -38793.28534523074, -8530.587974856851, -33344.868820294, -12364.44859080894, -2069.793888305889, 29214.78053507573, -0.018000000000000002, 0.976, -0.10400000000000001, 192.0, 127.5, 56.0, 15.0, 64.0, 126.0, 96.0, 0.0, 0.0, 0.0, 1.741810270482307E9, 0.0, 2025-03-12 15:11:10.482
242.0, -7692.621075227389, -12740.628449991758, -37041.08739389031, -26274.67677291355, -43269.87037299519, 8215.137805359103, -23369.48643559056, 15985.78882047997, -10653.958994622111, -22525.17164053579, -38786.95980154989, -8539.908652294715, -33329.60257883103, -12360.11235238461, -2113.6480109272015, 29176.424941590423, -0.018000000000000002, 0.976, -0.10400000000000001, 192.0, 0.0, 0.0, 0.0, 0.0, 0.0, 0.0, 0.0, 0.0, 0.0, 1.741810270482347E9, 0.0, 2025-03-12 15:11:10.482
244.0, -7691.749357193632, -12736.180452845152, -37040.640359001205, -26273.089799057223, -43267.545791571836, 8217.350628060178, -23368.19003441215, 15987.576960036393, -10662.58676798186, -22537.822727897495, -38799.834406356145, -8535.50535863702, -33341.29254118115, -12366.437896065461, -2082.3108652008614, 29209.147895472994, -0.018000000000000002, 0.976, -0.10400000000000001, 192.0, 0.0, 0.0, 0.0, 0.0, 0.0, 0.0, 0.0, 0.0, 0.0, 1.741810270482366E9, 0.0, 2025-03-12 15:11:10.482
246.0, -7685.893200146342, -12726.725664940557, -37035.49945777648, -26265.534909431328, -43261.5108205689, 8226.671305498041, -23360.143406408242, 15985.453544313139, -10653.176683566177, -22522.51178294561, -38794.22411849786, -8541.294460450943, -33333.80470678863, -12356.267852338297, -2114.005638838487, 29176.849624735074, -0.018000000000000002, 0.976, -0.10400000000000001, 192.0, 0.0, 0.0, 0.0, 0.0, 0.0, 0.0, 0.0, 0.0, 0.0, 1.741810270482385E9, 0.0, 2025-03-12 15:11:10.482
248.0, -7703.640485243855, -12755.961746688099, -37043.41197531366, -26282.030496839347, -43272.12789918517, 8206.688845954997, -23373.845025759343, 15992.583750794382, -10657.088238845854, -22525.93159984727, -38800.50495868981, -8527.59284109984, -33341.4713551368, -12358.950061672935, -2097.353589219283, 29197.10030521158, -0.018000000000000002, 0.976, -0.10400000000000001, 192.0, 0.0, 0.0, 0.0, 0.0, 0.0, 0.0, 0.0, 0.0, 0.0, 1.741810270482404E9, 0.0, 2025-03-12 15:11:10.482
250.0, -7704.646313744344, -12736.00163888951, -37042.85318170228, -26288.06546784228, -43270.20564916202, 8203.581953475708, -23372.325107136385, 15964.934642903167, -10671.080430874877, -22534.581724951473, -38810.809112883704, -8556.918329825203, -33348.48980289576, -12372.785791490769, -2092.279743227928, 29179.978868958817, -0.018000000000000002, 0.984, -0.098, 192.0, 127.5, 56.0, 15.0, 96.0, 126.0, 120.0, 0.0, 0.0, 0.0, 1.741810270482427E9, 0.0, 2025-03-12 15:11:10.482
252.0, -7713.832880715476, -12763.941319458643, -37050.34101609481, -26289.2054068095, -43276.08415795376, 8201.927924386016, -23378.427133372683, 15980.893788444257, -10694.281541619486, -22540.1696610653, -38814.56420595219, -8546.79298958695, -33354.74829134325, -12372.584625790672, -2095.163118262663, 29188.87486325203, -0.018000000000000002, 0.984, -0.098, 192.0, 0.0, 0.0, 0.0, 0.0, 0.0, 0.0, 0.0, 0.0, 0.0, 1.741810270546931E9, 0.0, 2025-03-12 15:11:10.546
254.0, -7720.314886607514, -12762.890787469243, -37048.77639398294, -26288.601909709207, -43277.35820738771, 8208.05230236677, -23374.783799026467, 15965.225215581086, -10687.955997938634, -22549.17741408079, -38825.136581079554, -8568.36242298632, -33363.39841644745, -12379.670128783004, -2066.776402804423, 29187.4890550958, -0.018000000000000002, 0.984, -0.098, 192.0, 0.0, 0.0, 0.0, 0.0, 0.0, 0.0, 0.0, 0.0, 0.0, 1.74181027054697E9, 0.0, 2025-03-12 15:11:10.546
0.0, -7719.286706362571, -12765.483589826059, -37049.08931840531, -26290.032421354346, -43275.83828876475, 8200.05037785177, -23377.421304872194, 15986.414669324717, -10670.92396866369, -22546.718722190708, -38818.922796120976, -8551.866835578303, -33357.251686722244, -12373.59045429116, -2088.390539692705, 29179.531834069712, -0.018000000000000002, 0.984, -0.098, 192.0, 0.0, 0.0, 0.0, 0.0, 0.0, 0.0, 0.0, 0.0, 0.0, 1.741810270546998E9, 0.0, 2025-03-12 15:11:10.546
2.0, -7720.806624985532, -12747.490435539537, -37041.66853924615, -26287.57372946426, -43273.893686997144, 8200.989151118893, -23377.644822316746, 15964.040573124956, -10693.521582308005, -22549.37857978089, -38819.83921764365, -8564.428515962187, -33356.625837877495, -12382.709966028926, -2047.7327165285012, 29191.668831308943, -0.018000000000000002, 0.984, -0.098, 192.0, 0.0, 0.0, 0.0, 0.0, 0.0, 0.0, 0.0, 0.0, 0.0, 1.741810270547057E9, 0.0, 2025-03-12 15:11:10.547
4.0, -7720.359590096426, -12766.66823228219, -37045.22246661454, -26287.26080504189, -43281.314466156306, 8190.349720758167, -23384.752677053533, 15977.339861075863, -10677.517733278006, -22549.333876291978, -38812.86547337359, -8552.939719312159, -33355.12827099899, -12382.419393351007, -2085.1942402355958, 29174.569746800633, -0.014, 0.986, -0.098, 192.0, 127.5, 72.0, 15.0, 104.0, 126.0, 120.0, 0.0, 0.0, 0.0, 1.741810270547084E9, 0.0, 2025-03-12 15:11:10.547
4.0, -7710.904802191831, -12763.628395036269, -37033.308986819866, -26281.53875846133, -43275.59241957575, 8184.918246855527, -23385.53498810947, 15978.59155876536, -10677.517733278006, -22549.333876291978, -38812.86547337359, -8552.939719312159, -33355.12827099899, -12382.419393351007, -2085.1942402355958, 29174.569746800633, -0.014, 0.986, -0.098, 192.0, 63.75, 36.0, 7.5, 52.0, 63.0, 60.0, 0.0, 0.0, 0.0, 1.741810270547112E9, 0.0, 2025-03-12 15:11:10.547
4.0, -7714.995171427152, -12757.951051944621, -37033.443097286596, -26284.891520129626, -43275.65947480911, 8192.450784736966, -23382.85277877483, 15951.456540996616, -10677.517733278006, -22549.333876291978, -38812.86547337359, -8552.939719312159, -33355.12827099899, -12382.419393351007, -2085.1942402355958, 29174.569746800633, -0.014, 0.986, -0.098, 192.0, 31.875, 18.0, 3.75, 26.0, 31.5, 30.0, 0.0, 0.0, 0.0, 1.741810270547147E9, 0.0, 2025-03-12 15:11:10.547
10.0, -7722.706523264233, -12755.201787376618, -37039.27690258943, -26295.173322579067, -43279.32516089978, 8183.2642177658345, -23387.18901719916, 15950.16013981821, -10676.422497799695, -22549.289172803066, -38816.82173214218, -8560.807533360427, -33361.61027689103, -12384.565160818716, -2032.9805651879985, 29191.288851653204, -0.014, 0.986, -0.098, 192.0, 0.0, 0.0, 0.0, 0.0, 0.0, 0.0, 0.0, 0.0, 0.0, 1.741810270547179E9, 0.0, 2025-03-12 15:11:10.547
12.0, -7724.1817383982825, -12757.727534500067, -37052.75500449598, -26295.24037781243, -43284.95780050252, 8176.75986012934, -23389.357136411327, 15968.153294104732, -10691.420518329205, -22550.02678037009, -38821.80617115572, -8559.801704859938, -33363.063140280625, -12384.319291629708, -2105.3331619898277, 29153.179127356903, -0.014, 0.986, -0.098, 192.0, 0.0, 0.0, 0.0, 0.0, 0.0, 0.0, 0.0, 0.0, 0.0, 1.741810270587517E9, 0.0, 2025-03-12 15:11:10.587
14.0, -7728.316811122515, -12767.651709038224, -37056.018359186455, -26304.181075594555, -43287.4164923926, 8180.850229364662, -23389.401839900238, 15941.688828669649, -10689.721785750602, -22563.75075146565, -38827.952900880926, -8558.058268792423, -33377.0776840541, -12397.529172602794, -2029.3595825862387, 29188.472531851832, -0.018000000000000002, 0.986, -0.10200000000000001, 192.0, 127.5, 56.0, 15.0, 104.0, 126.0, 104.0, 0.0, 0.0, 0.0, 1.741810270587581E9, 0.0, 2025-03-12 15:11:10.587
16.0, -7714.2575638601265, -12769.730421272567, -37045.736556737014, -26293.116962089178, -43274.69834979753, 8192.00374984786, -23378.53889209496, 15971.260186584019, -10686.190210126664, -22553.156024593834, -38818.60987169861, -8547.172969242689, -33362.88432632498, -12387.06855619771, -2115.5255574614475, 29135.588304470577, -0.018000000000000002, 0.986, -0.10200000000000001, 192.0, 0.0, 0.0, 0.0, 0.0, 0.0, 0.0, 0.0, 0.0, 0.0, 1.741810270587615E9, 0.0, 2025-03-12 15:11:10.587
18.0, -7709.362531824414, -12759.806246734412, -37031.967882152545, -26287.43961899753, -43264.55065781482, 8204.230154064913, -23366.223080900083, 15964.264090569508, -10681.339881579863, -22553.08896936047, -38813.759543151806, -8538.209919716111, -33356.0223407772, -12385.436878852473, -2037.9426524570767, 29180.984697459306, -0.018000000000000002, 0.986, -0.10200000000000001, 192.0, 0.0, 0.0, 0.0, 0.0, 0.0, 0.0, 0.0, 0.0, 0.0, 1.741810270587655E9, 0.0, 2025-03-12 15:11:10.587
20.0, -7717.0738836614955, -12761.48262756856, -37051.03392017292, -26297.363793535686, -43280.06276846681, 8187.600456190165, -23379.254147917527, 15971.21548309511, -10662.117381348298, -22551.300829804044, -38809.5127117053, -8539.640431361251, -33353.09426225356, -12381.21239915042, -2112.9551068490873, 29139.745728939266, -0.018000000000000002, 0.986, -0.10200000000000001, 192.0, 0.0, 0.0, 0.0, 0.0, 0.0, 0.0, 0.0, 0.0, 0.0, 1.741810270587687E9, 0.0, 2025-03-12 15:11:10.587
