%OpenBCI Raw EXG Data
%Number of channels = 8
%Sample Rate = 250 Hz
%Board = OpenBCI_GUI$BoardCytonSerial
Sample Index, EXG Channel 0, EXG Channel 1, EXG Channel 2, EXG Channel 3, EXG Channel 4, EXG Channel 5, EXG Channel 6, EXG Channel 7, Accel Channel 0, Accel Channel 1, Accel Channel 2, Not Used, Digital Channel 0 (D11), Digital Channel 1 (D12), Digital Channel 2 (D13), Digital Channel 3 (D17), Not Used, Digital Channel 4 (D18), Analog Channel 0, Analog Channel 1, Analog Channel 2, Timestamp, Marker Channel, Timestamp (Formatted)
28.0, -57610.77196726465, -50509.354532880134, -38668.38379721449, -47797.439729862184, -58751.09091414105, -53652.3674312076, -64585.83499024332, -59055.67813583352, 0.0, 0.0, 0.0, 192.0, 0.0, 0.0, 0.0, 0.0, 0.0, 0.0, 0.0, 0.0, 0.0, 1.741115322375982E9, 0.0, 2025-03-04 13:08:42.375
29.0, -57615.152909177894, -50517.2223469284, -38671.1777652714, -47803.60881133185, -58756.634146765966, -53657.240111498846, -64594.10513569178, -59062.137789981105, 0.0, 0.0, 0.0, 192.0, 0.0, 0.0, 0.0, 0.0, 0.0, 0.0, 0.0, 0.0, 0.0, 1.741115322376048E9, 0.0, 2025-03-04 13:08:42.376
30.0, -57634.21894719827, -50465.70157595892, -38685.102902067054, -47810.9848870021, -58772.436830095874, -53675.076803574186, -64612.590028356324, -59078.47691517793, 0.04, 0.9560000000000001, -0.23, 192.0, 1.0, 64.0, 29.0, 224.0, 248.0, 208.0, 0.0, 0.0, 0.0, 1.741115322376089E9, 0.0, 2025-03-04 13:08:42.376
31.0, -57632.22964194175, -50464.67339571397, -38687.360428257045, -47805.88868926629, -58771.0733736841, -53669.64532967155, -64615.96514176907, -59076.532313410324, 0.04, 0.9560000000000001, -0.23, 192.0, 0.0, 0.0, 0.0, 0.0, 0.0, 0.0, 0.0, 0.0, 0.0, 1.74111532237614E9, 0.0, 2025-03-04 13:08:42.376
32.0, -57626.060560472084, -50504.23598339987, -38685.97462010082, -47812.52715736951, -58769.6205102945, -53667.7677831373, -64615.518106879965, -59077.13581051062, 0.04, 0.9560000000000001, -0.23, 192.0, 0.0, 0.0, 0.0, 0.0, 0.0, 0.0, 0.0, 0.0, 0.0, 1.741115322376171E9, 0.0, 2025-03-04 13:08:42.376
33.0, -57626.060560472084, -50523.972573753905, -38686.39930324547, -47817.735113827606, -58773.420306851905, -53667.030175570275, -64612.79119405642, -59079.192171000504, 0.04, 0.9560000000000001, -0.23, 192.0, 0.0, 0.0, 0.0, 0.0, 0.0, 0.0, 0.0, 0.0, 0.0, 1.741115322376202E9, 0.0, 2025-03-04 13:08:42.376
34.0, -57625.077083716045, -50477.54800052023, -38683.582983444096, -47809.57672710142, -58774.96257721932, -53667.14193429255, -64617.52976388094, -59082.209656501975, 0.04, 0.9560000000000001, -0.23, 192.0, 0.0, 0.0, 0.0, 0.0, 0.0, 0.0, 0.0, 0.0, 0.0, 1.741115322376241E9, 0.0, 2025-03-04 13:08:42.376
35.0, -57627.28990641712, -50452.31288103019, -38685.59464044507, -47806.49218636658, -58779.701147043845, -53668.90772210452, -64622.49185115002, -59084.35542396968, 0.04, 0.9560000000000001, -0.23, 192.0, 0.0, 0.0, 0.0, 0.0, 0.0, 0.0, 0.0, 0.0, 0.0, 1.741115322376273E9, 0.0, 2025-03-04 13:08:42.376
36.0, -57623.35599939299, -50497.99984669684, -38683.31476251063, -47818.964459772644, -58777.08599294257, -53669.690033160456, -64624.503508151, -59084.93656932552, 0.04, 0.9560000000000001, -0.23, 192.0, 0.0, 0.0, 0.0, 0.0, 0.0, 0.0, 0.0, 0.0, 0.0, 1.741115322376304E9, 0.0, 2025-03-04 13:08:42.376
37.0, -57622.417226125865, -50529.51580637882, -38678.062102563636, -47825.625279620326, -58774.62730105249, -53671.03113782778, -64621.888354049726, -59079.616854145155, 0.04, 0.9560000000000001, -0.23, 192.0, 0.0, 0.0, 0.0, 0.0, 0.0, 0.0, 0.0, 0.0, 0.0, 1.741115322376342E9, 0.0, 2025-03-04 13:08:42.376
38.0, -57637.34819142201, -50492.18839313846, -38685.326419511606, -47829.9391663002, -58788.5747895926, -53685.559771723725, -64630.337313453834, -59090.61391241717, 0.04, 0.9560000000000001, -0.23, 192.0, 0.0, 0.0, 0.0, 0.0, 0.0, 0.0, 0.0, 0.0, 0.0, 1.741115322376373E9, 0.0, 2025-03-04 13:08:42.376
39.0, -57633.28017393115, -50459.15251483351, -38684.4323497334, -47824.50769239756, -58786.898408758454, -53684.06220484522, -64635.32175246737, -59092.22323801795, 0.04, 0.9560000000000001, -0.23, 192.0, 0.0, 0.0, 0.0, 0.0, 0.0, 0.0, 0.0, 0.0, 0.0, 1.741115322376404E9, 0.0, 2025-03-04 13:08:42.376
40.0, -57635.33653442103, -50496.47992807388, -38690.24380329178, -47827.61458487685, -58786.0266907247, -53682.49758273335, -64646.497624695025, -59094.05608106328, 0.036000000000000004, 0.9560000000000001, -0.228, 192.0, 1.0, 32.0, 29.0, 224.0, 248.0, 224.0, 0.0, 0.0, 0.0, 1.741115322376436E9, 0.0, 2025-03-04 13:08:42.376
41.0, -57637.68346758884, -50538.724725094406, -38694.66944869393, -47838.969271060145, -58785.33378664658, -53680.664739688014, -64650.49858695252, -59091.083299050726, 0.036000000000000004, 0.9560000000000001, -0.228, 192.0, 0.0, 0.0, 0.0, 0.0, 0.0, 0.0, 0.0, 0.0, 0.0, 1.741115322376469E9, 0.0, 2025-03-04 13:08:42.376
42.0, -57635.917679776874, -50505.84530900065, -38689.103864324556, -47830.27444246703, -58779.61174006602, -53679.86007688762, -64619.653179604196, -59089.898656594596, 0.036000000000000004, 0.9560000000000001, -0.228, 192.0, 0.0, 0.0, 0.0, 0.0, 0.0, 0.0, 0.0, 0.0, 0.0, 1.7411153223765E9, 0.0, 2025-03-04 13:08:42.376
43.0, -57644.34428743652, -50457.45378225491, -38696.18936731689, -47817.55629987196, -58787.41249888093, -53682.564637966716, -64623.22945871705, -59097.587656687225, 0.036000000000000004, 0.9560000000000001, -0.228, 192.0, 0.0, 0.0, 0.0, 0.0, 0.0, 0.0, 0.0, 0.0, 0.0, 1.741115322376531E9, 0.0, 2025-03-04 13:08:42.376
44.0, -57636.14119722143, -50486.82397446918, -38696.56934697263, -47821.57961387392, -58785.26673141322, -53674.89798961854, -64625.68815060713, -59075.25826397637, 0.036000000000000004, 0.9560000000000001, -0.228, 192.0, 0.0, 0.0, 0.0, 0.0, 0.0, 0.0, 0.0, 0.0, 0.0, 1.741115322376574E9, 0.0, 2025-03-04 13:08:42.376
45.0, -57638.53283387815, -50529.225233700905, -38696.725809183816, -47829.20155873318, -58784.886751757476, -53672.23813202836, -64611.09246147782, -59071.41376393006, 0.036000000000000004, 0.9560000000000001, -0.228, 192.0, 0.0, 0.0, 0.0, 0.0, 0.0, 0.0, 0.0, 0.0, 0.0, 1.741115322376611E9, 0.0, 2025-03-04 13:08:42.376
0.0, 0.0, 0.0, 0.0, 0.0, 0.0, 0.0, 0.0, 0.0, 0.03, 0.96, -0.22, 192.0, 0.0, 240.0, 30.0, 0.0, 249.0, 32.0, 0.0, 0.0, 0.0, 1.741115322441752E9, 0.0, 2025-03-04 13:08:42.441
1.0, -57555.83137939351, -50457.297320043726, -38771.470042642366, -48003.92514514031, -58723.62062020548, -53727.983382699895, -64604.99043524152, -59094.16783978556, 0.03, 0.96, -0.22, 192.0, 0.0, 0.0, 0.0, 0.0, 0.0, 0.0, 0.0, 0.0, 0.0, 1.741115322509114E9, 0.0, 2025-03-04 13:08:42.509
2.0, -57551.67395492482, -50493.70831176142, -38774.465176399375, -48006.49559575267, -58732.13663484295, -53729.883280978596, -64640.73087462555, -59101.87919162264, 0.03, 0.96, -0.22, 192.0, 0.0, 0.0, 0.0, 0.0, 0.0, 0.0, 0.0, 0.0, 0.0, 1.741115322509158E9, 0.0, 2025-03-04 13:08:42.509
3.0, -57553.573853203525, -50479.11262263211, -38775.0016182663, -48005.95915388574, -58733.969477888284, -53735.02418220332, -64629.33148495335, -59107.06479633627, 0.03, 0.96, -0.22, 192.0, 0.0, 0.0, 0.0, 0.0, 0.0, 0.0, 0.0, 0.0, 0.0, 1.741115322509191E9, 0.0, 2025-03-04 13:08:42.509
4.0, -57547.74004790068, -50412.59383113311, -38767.6478943405, -47988.569496699514, -58721.966591115786, -53736.32058338173, -64546.42886476861, -59106.327188769246, 0.03, 0.96, -0.22, 192.0, 0.0, 0.0, 0.0, 0.0, 0.0, 0.0, 0.0, 0.0, 0.0, 1.741115322509254E9, 0.0, 2025-03-04 13:08:42.509
5.0, -57554.400867748365, -50431.145779031016, -38777.97440027886, -47997.7784154151, -58729.74499818624, -53740.67917355051, -64557.31416431835, -59107.511831225376, 0.03, 0.96, -0.22, 192.0, 0.0, 0.0, 0.0, 0.0, 0.0, 0.0, 0.0, 0.0, 0.0, 1.741115322509285E9, 0.0, 2025-03-04 13:08:42.509
6.0, -57547.49417871168, -50479.55965752121, -38778.86847005707, -48005.26624980763, -58729.56618423059, -53732.90076648007, -64599.62601657224, -59102.12506081165, 0.03, 0.96, -0.22, 192.0, 0.0, 0.0, 0.0, 0.0, 0.0, 0.0, 0.0, 0.0, 0.0, 1.741115322509324E9, 0.0, 2025-03-04 13:08:42.509
7.0, -57535.64775415036, -50470.216628338894, -38766.552658862194, -47992.63751419038, -58721.31839052658, -53725.03295243179, -64585.00797569847, -59093.58669442972, 0.03, 0.96, -0.22, 192.0, 0.0, 0.0, 0.0, 0.0, 0.0, 0.0, 0.0, 0.0, 0.0, 1.741115322509355E9, 0.0, 2025-03-04 13:08:42.509
8.0, -57541.36980073092, -50413.26438346677, -38765.368016406064, -47983.65211291935, -58724.73820742824, -53730.62088854562, -64551.905042160164, -59084.98127281443, 0.028, 0.9560000000000001, -0.214, 192.0, 0.0, 224.0, 29.0, 224.0, 249.0, 80.0, 0.0, 0.0, 0.0, 1.741115322509386E9, 0.0, 2025-03-04 13:08:42.509
9.0, -57544.76726588813, -50424.95434581689, -38769.145461219014, -47988.83771763298, -58728.58270747456, -53730.82205424572, -64564.556129521865, -59087.998758315895, 0.028, 0.9560000000000001, -0.214, 192.0, 0.0, 0.0, 0.0, 0.0, 0.0, 0.0, 0.0, 0.0, 0.0, 1.741115322509419E9, 0.0, 2025-03-04 13:08:42.509
10.0, -57544.275527510115, -50472.9658929069, -38767.267914684766, -47998.87365089341, -58723.59826846103, -53728.743342011374, -64572.64746101469, -59088.53520018282, 0.028, 0.9560000000000001, -0.214, 192.0, 0.0, 0.0, 0.0, 0.0, 0.0, 0.0, 0.0, 0.0, 0.0, 1.74111532250945E9, 0.0, 2025-03-04 13:08:42.509
11.0, -57542.88971935389, -50483.04652965624, -38758.796603536204, -47992.03401709009, -58716.66922767988, -53719.333257595696, -64568.199463868084, -59081.18147625703, 0.028, 0.9560000000000001, -0.214, 192.0, 0.0, 0.0, 0.0, 0.0, 0.0, 0.0, 0.0, 0.0, 0.0, 1.741115322509481E9, 0.0, 2025-03-04 13:08:42.509
12.0, -57556.68074568281, -50431.39164822002, -38763.66928382746, -47984.590886186474, -58726.23577430675, -53728.38571410009, -64582.68339427512, -59092.469107206955, 0.028, 0.9560000000000001, -0.214, 192.0, 0.0, 0.0, 0.0, 0.0, 0.0, 0.0, 0.0, 0.0, 0.0, 1.741115322509511E9, 0.0, 2025-03-04 13:08:42.509
13.0, -57560.77111491813, -50430.27406099726, -38772.0511879982, -47989.620028688914, -58730.415550519894, -53732.2302141464, -64595.513295592464, -59099.77812764384, 0.028, 0.9560000000000001, -0.214, 192.0, 0.0, 0.0, 0.0, 0.0, 0.0, 0.0, 0.0, 0.0, 0.0, 1.74111532250956E9, 0.0, 2025-03-04 13:08:42.509
14.0, -57548.455303723254, -50473.6140934961, -38764.33983616112, -47993.755101413146, -58715.14930905692, -53720.54025179628, -64590.439449601115, -59088.22227576045, 0.028, 0.9560000000000001, -0.214, 192.0, 0.0, 0.0, 0.0, 0.0, 0.0, 0.0, 0.0, 0.0, 0.0, 1.741115322509598E9, 0.0, 2025-03-04 13:08:42.509
15.0, -57543.292050754084, -50491.85311697163, -38759.95889424788, -47994.06802583552, -58706.67799790836, -53710.68313249149, -64583.73392626452, -59077.31462446626, 0.028, 0.9560000000000001, -0.214, 192.0, 0.0, 0.0, 0.0, 0.0, 0.0, 0.0, 0.0, 0.0, 0.0, 1.741115322509642E9, 0.0, 2025-03-04 13:08:42.509
16.0, -57551.51749271363, -50436.01845932227, -38762.41758613796, -47983.0262640746, -58712.98118984475, -53714.17000462652, -64578.43656282861, -59081.36029021267, 0.028, 0.9560000000000001, -0.214, 192.0, 0.0, 0.0, 0.0, 0.0, 0.0, 0.0, 0.0, 0.0, 0.0, 1.741115322569557E9, 0.0, 2025-03-04 13:08:42.569
17.0, -57558.312423028045, -50420.32753471465, -38773.88403104353, -47990.961133356235, -58720.424320748374, -53722.5295570528, -64600.05069971689, -59096.49242120891, 0.028, 0.9560000000000001, -0.214, 192.0, 0.0, 0.0, 0.0, 0.0, 0.0, 0.0, 0.0, 0.0, 0.0, 1.741115322569604E9, 0.0, 2025-03-04 13:08:42.569
18.0, -57558.35712651696, -50464.002843380316, -38777.72853108985, -48006.473244008215, -58718.94910561432, -53727.75986525534, -64598.26256016047, -59102.952075356494, 0.03, 0.96, -0.214, 192.0, 0.0, 240.0, 30.0, 0.0, 249.0, 80.0, 0.0, 0.0, 0.0, 1.741115322569637E9, 0.0, 2025-03-04 13:08:42.569
19.0, -57549.14820780137, -50488.85798321462, -38765.21155419487, -48004.863918407435, -58705.78392813014, -53721.32256285221, -64585.00797569847, -59091.61974091765, 0.03, 0.96, -0.214, 192.0, 0.0, 0.0, 0.0, 0.0, 0.0, 0.0, 0.0, 0.0, 0.0, 1.741115322569694E9, 0.0, 2025-03-04 13:08:42.569
20.0, -57552.791542147585, -50443.84156988163, -38762.30582741569, -47995.25266829165, -58708.35437874251, -53720.00380992935, -64612.47826963405, -59090.3456914837, 0.03, 0.96, -0.214, 192.0, 0.0, 0.0, 0.0, 0.0, 0.0, 0.0, 0.0, 0.0, 0.0, 1.741115322569725E9, 0.0, 2025-03-04 13:08:42.569
21.0, -57555.56315846004, -50409.68810435392, -38767.17850770694, -47996.21379330323, -58713.11530031149, -53722.50720530835, -64631.8572320768, -59086.45648794848, 0.03, 0.96, -0.214, 192.0, 0.0, 0.0, 0.0, 0.0, 0.0, 0.0, 0.0, 0.0, 0.0, 1.741115322569765E9, 0.0, 2025-03-04 13:08:42.569
22.0, -57549.75170490166, -50444.623880937565, -38763.199897193896, -47995.65499969185, -58703.19112577333, -53719.55677504025, -64585.11973442075, -59082.768450113355, 0.03, 0.96, -0.214, 192.0, 0.0, 0.0, 0.0, 0.0, 0.0, 0.0, 0.0, 0.0, 0.0, 1.741115322569796E9, 0.0, 2025-03-04 13:08:42.569
23.0, -57549.32702175701, -50482.241866855846, -38761.56821984866, -48001.42174976131, -58696.91028558139, -53722.55190879726, -64530.089739571784, -59079.30392972278, 0.03, 0.96, -0.214, 192.0, 0.0, 0.0, 0.0, 0.0, 0.0, 0.0, 0.0, 0.0, 0.0, 1.741115322569827E9, 0.0, 2025-03-04 13:08:42.569
24.0, -57546.30953625555, -50453.922206630974, -38760.22711518134, -47993.1292525684, -58700.7547856277, -53723.62479253111, -64541.75735017745, -59080.55562741228, 0.03, 0.96, -0.214, 192.0, 0.0, 0.0, 0.0, 0.0, 0.0, 0.0, 0.0, 0.0, 0.0, 1.741115322569858E9, 0.0, 2025-03-04 13:08:42.569
25.0, -57548.187082789795, -50408.97284853135, -38765.0997954726, -47985.37319724241, -58707.683826408844, -53722.5295570528, -64566.813655711856, -59081.47204893495, 0.03, 0.96, -0.214, 192.0, 0.0, 0.0, 0.0, 0.0, 0.0, 0.0, 0.0, 0.0, 0.0, 1.741115322569889E9, 0.0, 2025-03-04 13:08:42.569
26.0, -57548.05297232306, -50438.812427379184, -38770.30775193069, -47993.91156362434, -58709.650779920914, -53720.76376924083, -64569.85349295777, -59073.71599360895, 0.03, 0.96, -0.214, 192.0, 0.0, 0.0, 0.0, 0.0, 0.0, 0.0, 0.0, 0.0, 0.0, 1.74111532256992E9, 0.0, 2025-03-04 13:08:42.569
27.0, -57541.63802166439, -50471.44597428393, -38765.54683036171, -47996.0796828365, -58704.88985835193, -53719.44501631797, -64544.081931600806, -59067.88218830612, 0.03, 0.96, -0.214, 192.0, 0.0, 0.0, 0.0, 0.0, 0.0, 0.0, 0.0, 0.0, 0.0, 1.741115322569956E9, 0.0, 2025-03-04 13:08:42.569
28.0, -57542.465036209236, -50462.77349743527, -38768.586667607626, -47999.208927060245, -58711.125995054965, -53725.97172569892, -64551.68152471561, -59074.520656409346, 0.018000000000000002, 0.962, -0.224, 192.0, 0.0, 144.0, 30.0, 16.0, 249.0, 0.0, 0.0, 0.0, 0.0, 1.741115322569995E9, 0.0, 2025-03-04 13:08:42.569
29.0, -57547.896510111874, -50415.186633489924, -38775.58276362214, -47995.16326131383, -58724.78291091716, -53733.303097880256, -64580.78349599642, -59084.377775714136, 0.018000000000000002, 0.962, -0.224, 192.0, 0.0, 0.0, 0.0, 0.0, 0.0, 0.0, 0.0, 0.0, 0.0, 1.741115322570042E9, 0.0, 2025-03-04 13:08:42.570
30.0, -57548.96939384573, -50441.919319858476, -38779.74018809083, -48003.187537573285, -58729.8120534196, -53735.94060372598, -64591.6464438017, -59089.049290305295, 0.018000000000000002, 0.962, -0.224, 192.0, 0.0, 0.0, 0.0, 0.0, 0.0, 0.0, 0.0, 0.0, 0.0, 1.741115322570087E9, 0.0, 2025-03-04 13:08:42.570
31.0, -57545.63898392189, -50478.75499472082, -38774.82280431066, -48006.674409708314, -58726.61575396249, -53733.01252520234, -64579.800019240385, -59086.322377481745, 0.018000000000000002, 0.962, -0.224, 192.0, 0.0, 0.0, 0.0, 0.0, 0.0, 0.0, 0.0, 0.0, 0.0, 1.74111532262983E9, 0.0, 2025-03-04 13:08:42.629
32.0, -57541.86153910894, -50480.96781742189, -38767.37967340704, -48001.10882533894, -58721.98894286024, -53729.70446702296, -64558.52115851893, -59085.65182514809, 0.018000000000000002, 0.962, -0.224, 192.0, 0.0, 0.0, 0.0, 0.0, 0.0, 0.0, 0.0, 0.0, 0.0, 1.741115322629877E9, 0.0, 2025-03-04 13:08:42.629
33.0, -57530.57390815901, -50420.64045913702, -38754.70623430088, -47982.981560585686, -58715.14930905692, -53722.55190879726, -64566.41132431166, -59085.204790258984, 0.018000000000000002, 0.962, -0.224, 192.0, 0.0, 0.0, 0.0, 0.0, 0.0, 0.0, 0.0, 0.0, 0.0, 1.741115322629909E9, 0.0, 2025-03-04 13:08:42.629
34.0, -57532.2279372487, -50422.16037775998, -38756.494373857306, -47984.76970014211, -58717.362131758, -53725.63644953209, -64570.03230691342, -59088.132868782624, 0.018000000000000002, 0.962, -0.224, 192.0, 0.0, 0.0, 0.0, 0.0, 0.0, 0.0, 0.0, 0.0, 0.0, 1.741115322629973E9, 0.0, 2025-03-04 13:08:42.629
35.0, -57530.39509420337, -50476.05043364173, -38756.11439420157, -47999.45479624925, -58716.512765468695, -53725.81526348773, -64573.00508892597, -59089.78689787232, 0.018000000000000002, 0.962, -0.224, 192.0, 0.0, 0.0, 0.0, 0.0, 0.0, 0.0, 0.0, 0.0, 0.0, 1.741115322630004E9, 0.0, 2025-03-04 13:08:42.630
36.0, -57523.26488772212, -50484.3652825791, -38744.33502487362, -47992.25753453464, -58709.76253864319, -53715.91344069403, -64577.9448244506, -59084.087203036215, 0.018000000000000002, 0.962, -0.224, 192.0, 0.0, 0.0, 0.0, 0.0, 0.0, 0.0, 0.0, 0.0, 0.0, 1.741115322630043E9, 0.0, 2025-03-04 13:08:42.630
37.0, -57523.71192261123, -50418.6511538805, -38739.41764109345, -47971.91744708031, -58710.008407832196, -53711.711312736436, -64572.960385437065, -59068.999775528886, 0.018000000000000002, 0.962, -0.224, 192.0, 0.0, 0.0, 0.0, 0.0, 0.0, 0.0, 0.0, 0.0, 0.0, 1.741115322630074E9, 0.0, 2025-03-04 13:08:42.630
38.0, -57536.787693117585, -50421.24395623731, -38754.750937789795, -47984.34501699746, -58717.406835246904, -53721.903708208054, -64573.27330985944, -59079.25922623387, 0.022, 0.9560000000000001, -0.22, 192.0, 0.0, 176.0, 29.0, 224.0, 249.0, 32.0, 0.0, 0.0, 0.0, 1.741115322630105E9, 0.0, 2025-03-04 13:08:42.630
39.0, -57538.66523965183, -50475.29047433025, -38758.304865158185, -47998.158395070845, -58716.37865500196, -53722.7307227529, -64562.36565856525, -59078.32045296675, 0.022, 0.9560000000000001, -0.22, 192.0, 0.0, 0.0, 0.0, 0.0, 0.0, 0.0, 0.0, 0.0, 0.0, 1.741115322630138E9, 0.0, 2025-03-04 13:08:42.630
40.0, -57527.556422657544, -50492.456614071925, -38748.023062708744, -47993.039845590574, -58705.605114174505, -53712.78419647029, -64545.06540835684, -59069.916197051556, 0.022, 0.9560000000000001, -0.22, 192.0, 0.0, 0.0, 0.0, 0.0, 0.0, 0.0, 0.0, 0.0, 0.0, 1.741115322630168E9, 0.0, 2025-03-04 13:08:42.630
41.0, -57529.791597103074, -50438.8571308681, -38747.62073130855, -47985.417900731314, -58709.784890387644, -53713.07476914821, -64550.07219911483, -59064.17179872654, 0.022, 0.9560000000000001, -0.22, 192.0, 0.0, 0.0, 0.0, 0.0, 0.0, 0.0, 0.0, 0.0, 0.0, 1.741115322630199E9, 0.0, 2025-03-04 13:08:42.630
42.0, -57526.77411160161, -50414.73959860082, -38749.81120226517, -47986.55783969854, -58707.683826408844, -53707.375074312105, -64554.94487940609, -59058.5391591238, 0.022, 0.9560000000000001, -0.22, 192.0, 0.0, 0.0, 0.0, 0.0, 0.0, 0.0, 0.0, 0.0, 0.0, 1.74111532263023E9, 0.0, 2025-03-04 13:08:42.630
43.0, -57526.014152290125, -50458.30314854421, -38749.67709179844, -47993.93391536879, -58707.23679151974, -53701.854193431645, -64555.34721080628, -59055.02993524432, 0.022, 0.9560000000000001, -0.22, 192.0, 0.0, 0.0, 0.0, 0.0, 0.0, 0.0, 0.0, 0.0, 0.0, 1.741115322630267E9, 0.0, 2025-03-04 13:08:42.630
44.0, -57539.782826874594, -50498.37982635258, -38754.90740000098, -48005.10978759644, -58715.037550334644, -53709.40908305754, -64536.05765534135, -59056.34868816718, 0.022, 0.9560000000000001, -0.22, 192.0, 0.0, 0.0, 0.0, 0.0, 0.0, 0.0, 0.0, 0.0, 0.0, 1.741115322630307E9, 0.0, 2025-03-04 13:08:42.630
45.0, -57540.140454785884, -50455.330366531656, -38749.90060924299, -47991.11759556742, -58716.60217244652, -53703.44116728797, -64528.79333839338, -59051.67717357602, 0.022, 0.9560000000000001, -0.22, 192.0, 0.0, 0.0, 0.0, 0.0, 0.0, 0.0, 0.0, 0.0, 0.0, 1.741115322630345E9, 0.0, 2025-03-04 13:08:42.630
46.0, -57541.90624259785, -50423.32266847166, -38754.86269651207, -47985.66376992033, -58723.44180624984, -53702.39063529857, -64550.027495625916, -59055.991060255896, 0.022, 0.9560000000000001, -0.22, 192.0, 0.0, 0.0, 0.0, 0.0, 0.0, 0.0, 0.0, 0.0, 0.0, 1.741115322690111E9, 0.0, 2025-03-04 13:08:42.690
47.0, -57541.63802166439, -50463.578160235666, -38760.98707449283, -47992.81632814602, -58726.39223651794, -53704.06701613272, -64552.06150437135, -59058.91913877954, 0.022, 0.9560000000000001, -0.22, 192.0, 0.0, 0.0, 0.0, 0.0, 0.0, 0.0, 0.0, 0.0, 0.0, 1.741115322690158E9, 0.0, 2025-03-04 13:08:42.690
48.0, -57537.279431495605, -50498.22336414139, -38762.52934486024, -48002.53933698408, -58725.43111150636, -53705.117548122114, -64549.06637061434, -59060.61787135815, 0.022, 0.962, -0.214, 192.0, 0.0, 176.0, 30.0, 16.0, 249.0, 80.0, 0.0, 0.0, 0.0, 1.74111532269019E9, 0.0, 2025-03-04 13:08:42.690
49.0, -57543.716733898735, -50473.52468651828, -38769.25721994129, -48002.069950350524, -58734.79649243313, -53712.85125170365, -64572.8933302037, -59071.05613601877, 0.022, 0.962, -0.214, 192.0, 0.0, 0.0, 0.0, 0.0, 0.0, 0.0, 0.0, 0.0, 0.0, 1.741115322690251E9, 0.0, 2025-03-04 13:08:42.690
50.0, -57538.128797784906, -50413.3984939335, -38761.92584775994, -47979.82996461749, -58728.58270747456, -53706.21278360043, -64571.99926042548, -59063.680060348524, 0.022, 0.962, -0.214, 192.0, 0.0, 0.0, 0.0, 0.0, 0.0, 0.0, 0.0, 0.0, 0.0, 1.741115322690283E9, 0.0, 2025-03-04 13:08:42.690
51.0, -57528.96458255823, -50445.339136760136, -38756.40496687948, -47983.473298963705, -58722.14540507143, -53705.18460335548, -64568.93707143511, -59056.907481778566, 0.022, 0.962, -0.214, 192.0, 0.0, 0.0, 0.0, 0.0, 0.0, 0.0, 0.0, 0.0, 0.0, 1.741115322690314E9, 0.0, 2025-03-04 13:08:42.690
52.0, -57524.15895750034, -50483.918247689995, -38752.76163253327, -47987.11663330992, -58718.30090502512, -53705.698693477956, -64564.39966731068, -59058.67326959053, 0.022, 0.962, -0.214, 192.0, 0.0, 0.0, 0.0, 0.0, 0.0, 0.0, 0.0, 0.0, 0.0, 1.741115322690353E9, 0.0, 2025-03-04 13:08:42.690
53.0, -57523.019018533116, -50468.45084052692, -38746.12316443004, -47983.4285954748, -58715.84221313503, -53707.375074312105, -64560.91279517565, -59059.3885254131, 0.022, 0.962, -0.214, 192.0, 0.0, 0.0, 0.0, 0.0, 0.0, 0.0, 0.0, 0.0, 0.0, 1.741115322690384E9, 0.0, 2025-03-04 13:08:42.690
54.0, -57527.82464359101, -50410.76098808778, -38747.24075165281, -47974.21967675921, -58720.849003893025, -53716.047551160766, -64560.845739942284, -59066.65284236108, 0.022, 0.962, -0.214, 192.0, 0.0, 0.0, 0.0, 0.0, 0.0, 0.0, 0.0, 0.0, 0.0, 1.741115322690415E9, 0.0, 2025-03-04 13:08:42.690
55.0, -57531.04329479257, -50441.628747180555, -38753.45453661138, -47988.725958910705, -58723.844137650034, -53720.60730702965, -64564.24320509949, -59070.76556334086, 0.022, 0.962, -0.214, 192.0, 0.0, 0.0, 0.0, 0.0, 0.0, 0.0, 0.0, 0.0, 0.0, 1.741115322690446E9, 0.0, 2025-03-04 13:08:42.690
56.0, -57534.82073960552, -50479.33614007666, -38754.28155115623, -47991.0281885896, -58728.40389351892, -53718.86387096213, -64585.678528032135, -59069.42445867354, 0.022, 0.962, -0.214, 192.0, 0.0, 0.0, 0.0, 0.0, 0.0, 0.0, 0.0, 0.0, 0.0, 1.741115322690477E9, 0.0, 2025-03-04 13:08:42.690
57.0, -57533.4796349382, -50482.91241918951, -38751.86756275506, -47993.486880479686, -58724.827614406066, -53719.26620236233, -64569.249995857484, -59066.02699351633, 0.022, 0.962, -0.214, 192.0, 0.0, 0.0, 0.0, 0.0, 0.0, 0.0, 0.0, 0.0, 0.0, 1.741115322690508E9, 0.0, 2025-03-04 13:08:42.690
58.0, -57522.19200398827, -50416.795959090705, -38741.6975190279, -47974.13026978139, -58718.23384979175, -53713.63356275959, -64555.07898987282, -59060.59551961369, 0.024, 0.9580000000000001, -0.218, 192.0, 0.0, 192.0, 29.0, 240.0, 249.0, 48.0, 0.0, 0.0, 0.0, 1.741115322690538E9, 0.0, 2025-03-04 13:08:42.690
59.0, -57520.493271409665, -50424.26144173878, -38746.212571407865, -47976.074871549, -58717.89857362492, -53711.06311214723, -64549.02166712543, -59055.25345268887, 0.024, 0.9580000000000001, -0.218, 192.0, 0.0, 0.0, 0.0, 0.0, 0.0, 0.0, 0.0, 0.0, 0.0, 1.741115322690584E9, 0.0, 2025-03-04 13:08:42.690
60.0, -57516.827585319, -50466.6627009705, -38743.32919637313, -47979.98642682868, -58708.28732350914, -53702.681207976486, -64522.35603599025, -59045.016353728344, 0.024, 0.9580000000000001, -0.218, 192.0, 0.0, 0.0, 0.0, 0.0, 0.0, 0.0, 0.0, 0.0, 0.0, 1.741115322690622E9, 0.0, 2025-03-04 13:08:42.690
61.0, -57514.9276870403, -50480.498430788335, -38744.80441150718, -47980.187592528775, -58707.57206768657, -53701.988303898375, -64532.257858783945, -59047.27387991833, 0.024, 0.9580000000000001, -0.218, 192.0, 0.0, 0.0, 0.0, 0.0, 0.0, 0.0, 0.0, 0.0, 0.0, 1.741115322750434E9, 0.0, 2025-03-04 13:08:42.750
62.0, -57520.985009787684, -50433.380953476546, -38751.37582437704, -47980.14288903987, -58715.99867534622, -53711.711312736436, -64548.261707813945, -59057.533330623315, 0.024, 0.9580000000000001, -0.218, 192.0, 0.0, 0.0, 0.0, 0.0, 0.0, 0.0, 0.0, 0.0, 0.0, 1.741115322750481E9, 0.0, 2025-03-04 13:08:42.750
63.0, -57526.95292555725, -50429.71526738587, -38756.53907734622, -47983.24978151915, -58719.373788758974, -53715.53346103829, -64550.60864098176, -59061.444885902994, 0.024, 0.9580000000000001, -0.218, 192.0, 0.0, 0.0, 0.0, 0.0, 0.0, 0.0, 0.0, 0.0, 0.0, 1.741115322750514E9, 0.0, 2025-03-04 13:08:42.750
64.0, -57527.981105802195, -50473.47998302937, -38755.33208314563, -47989.39651124436, -58714.277591023165, -53712.6277342591, -64551.59211773779, -59056.125170722626, 0.024, 0.9580000000000001, -0.218, 192.0, 0.0, 0.0, 0.0, 0.0, 0.0, 0.0, 0.0, 0.0, 0.0, 1.741115322750544E9, 0.0, 2025-03-04 13:08:42.750
65.0, -57529.90335582535, -50499.25154438634, -38755.399138379, -47993.08454907949, -58716.28924802414, -53712.538327281276, -64557.47062652953, -59058.941490524, 0.024, 0.9580000000000001, -0.218, 192.0, 0.0, 0.0, 0.0, 0.0, 0.0, 0.0, 0.0, 0.0, 0.0, 1.741115322750603E9, 0.0, 2025-03-04 13:08:42.750
66.0, -57529.50102442515, -50444.89210187103, -38748.246580153296, -47974.84552560396, -58716.71393116879, -53710.39255981357, -64551.99444913799, -59059.09795273518, 0.024, 0.9580000000000001, -0.218, 192.0, 0.0, 0.0, 0.0, 0.0, 0.0, 0.0, 0.0, 0.0, 0.0, 1.741115322750634E9, 0.0, 2025-03-04 13:08:42.750
67.0, -57527.7799401021, -50421.22160449286, -38749.47592609834, -47972.74446162516, -58715.21636429028, -53711.3760365696, -64551.94974564907, -59061.73545858091, 0.024, 0.9580000000000001, -0.218, 192.0, 0.0, 0.0, 0.0, 0.0, 0.0, 0.0, 0.0, 0.0, 0.0, 1.741115322750673E9, 0.0, 2025-03-04 13:08:42.750
68.0, -57521.49909991016, -50458.63842471104, -38748.76067027577, -47980.45581346224, -58711.08129156605, -53707.933867923486, -64545.49009150149, -59055.76754281134, 0.02, 0.962, -0.222, 192.0, 0.0, 160.0, 30.0, 16.0, 249.0, 16.0, 0.0, 0.0, 0.0, 1.741115322750704E9, 0.0, 2025-03-04 13:08:42.750
69.0, -57531.42327444831, -50496.54698330724, -38757.746071546804, -47996.906697381346, -58720.424320748374, -53717.14278663907, -64560.242242841996, -59059.72380157993, 0.02, 0.962, -0.222, 192.0, 0.0, 0.0, 0.0, 0.0, 0.0, 0.0, 0.0, 0.0, 0.0, 1.741115322750738E9, 0.0, 2025-03-04 13:08:42.750
70.0, -57537.52530068461, -50470.283683572256, -38761.65762682648, -47998.784243915594, -58725.878146395466, -53725.56939429872, -64571.4404668141, -59066.22815921643, 0.02, 0.962, -0.222, 192.0, 0.0, 0.0, 0.0, 0.0, 0.0, 0.0, 0.0, 0.0, 0.0, 1.741115322750769E9, 0.0, 2025-03-04 13:08:42.750
71.0, -57531.19975700376, -50425.84841559511, -38758.50603085828, -47990.938781611774, -58725.56522197309, -53725.65880127654, -64562.20919635406, -59068.35157493968, 0.02, 0.962, -0.222, 192.0, 0.0, 0.0, 0.0, 0.0, 0.0, 0.0, 0.0, 0.0, 0.0, 1.7411153227508E9, 0.0, 2025-03-04 13:08:42.750
72.0, -57523.19783248876, -50462.43822126844, -38757.03081572423, -47996.01262760313, -58722.100701582516, -53721.568432041226, -64568.24416735699, -59067.21163597246, 0.02, 0.962, -0.222, 192.0, 0.0, 0.0, 0.0, 0.0, 0.0, 0.0, 0.0, 0.0, 0.0, 1.741115322750831E9, 0.0, 2025-03-04 13:08:42.750
73.0, -57520.69443710976, -50504.07952118868, -38752.38165287753, -48002.002895117155, -58714.38934974544, -53721.16610064103, -64555.99541139548, -59063.680060348524, 0.02, 0.962, -0.222, 192.0, 0.0, 0.0, 0.0, 0.0, 0.0, 0.0, 0.0, 0.0, 0.0, 1.741115322750862E9, 0.0, 2025-03-04 13:08:42.750
74.0, -57520.359160942935, -50481.548962777735, -38747.77719351974, -47998.426616004304, -58712.08712006654, -53723.33421985319, -64545.467739757034, -59060.28259519132, 0.02, 0.962, -0.222, 192.0, 0.0, 0.0, 0.0, 0.0, 0.0, 0.0, 0.0, 0.0, 0.0, 1.741115322750907E9, 0.0, 2025-03-04 13:08:42.750
75.0, -57523.376646444405, -50427.07776154015, -38746.95017897489, -47985.50730770914, -58716.155137557405, -53724.38475184259, -64556.6883154736, -59059.612042857654, 0.02, 0.962, -0.222, 192.0, 0.0, 0.0, 0.0, 0.0, 0.0, 0.0, 0.0, 0.0, 0.0, 1.741115322750952E9, 0.0, 2025-03-04 13:08:42.750
76.0, -57520.69443710976, -50454.4586484979, -38748.447745853395, -47993.15160431285, -58713.94231485633, -53725.323525109714, -64558.81173119685, -59056.68396433401, 0.02, 0.962, -0.222, 192.0, 0.0, 0.0, 0.0, 0.0, 0.0, 0.0, 0.0, 0.0, 0.0, 1.741115322810663E9, 0.0, 2025-03-04 13:08:42.810
77.0, -57525.63417263439, -50500.95027696494, -38751.86756275506, -48005.53447074109, -58717.18331780235, -53724.96589719843, -64578.3918593397, -59060.8413888027, 0.02, 0.962, -0.222, 192.0, 0.0, 0.0, 0.0, 0.0, 0.0, 0.0, 0.0, 0.0, 0.0, 1.741115322810709E9, 0.0, 2025-03-04 13:08:42.810
78.0, -57528.00345754665, -50483.024177911786, -38745.67612954094, -47995.05150259155, -58714.38934974544, -53717.366304083625, -64559.97402190853, -59057.44392364549, 0.022, 0.97, -0.214, 192.0, 0.0, 176.0, 30.0, 80.0, 249.0, 80.0, 0.0, 0.0, 0.0, 1.741115322810741E9, 0.0, 2025-03-04 13:08:42.810
79.0, -57529.21045174724, -50421.08749402613, -38743.26214113976, -47981.19342102926, -58713.629390433955, -53713.74532148187, -64549.58046073681, -59063.92592953753, 0.022, 0.97, -0.214, 192.0, 0.0, 0.0, 0.0, 0.0, 0.0, 0.0, 0.0, 0.0, 0.0, 1.741115322810775E9, 0.0, 2025-03-04 13:08:42.810
80.0, -57520.917954554316, -50439.08064831265, -38746.48079234133, -47984.032092575086, -58713.24941077822, -53712.046588903264, -64556.35303930677, -59053.197092198985, 0.022, 0.97, -0.214, 192.0, 0.0, 0.0, 0.0, 0.0, 0.0, 0.0, 0.0, 0.0, 0.0, 1.741115322810834E9, 0.0, 2025-03-04 13:08:42.810
81.0, -57511.418463160815, -50485.6169802686, -38745.36320511856, -47997.957229370746, -58704.219306018276, -53711.73366448089, -64521.1266900452, -59063.72476383743, 0.022, 0.97, -0.214, 192.0, 0.0, 0.0, 0.0, 0.0, 0.0, 0.0, 0.0, 0.0, 0.0, 1.741115322810865E9, 0.0, 2025-03-04 13:08:42.810
82.0, -57506.36696891391, -50476.63157899756, -38739.216475393354, -47992.10107232345, -58700.9559513278, -53708.64912374606, -64513.10241378575, -59073.00073778639, 0.022, 0.97, -0.214, 192.0, 0.0, 0.0, 0.0, 0.0, 0.0, 0.0, 0.0, 0.0, 0.0, 1.741115322810905E9, 0.0, 2025-03-04 13:08:42.810
83.0, -57518.79453883106, -50427.74831387381, -38747.061937697166, -47987.384854243384, -58711.684788666345, -53714.88526044909, -64531.073216327815, -59052.012449742855, 0.022, 0.97, -0.214, 192.0, 0.0, 0.0, 0.0, 0.0, 0.0, 0.0, 0.0, 0.0, 0.0, 1.74111532281094E9, 0.0, 2025-03-04 13:08:42.810
84.0, -57511.686684094275, -50431.59281392012, -38744.37972836253, -47986.64724667636, -58704.621637418466, -53712.180699369994, -64537.89049838669, -59043.898766505576, 0.022, 0.97, -0.214, 192.0, 0.0, 0.0, 0.0, 0.0, 0.0, 0.0, 0.0, 0.0, 0.0, 1.741115322810971E9, 0.0, 2025-03-04 13:08:42.810
85.0, -57519.33098069799, -50482.89006744505, -38758.86365876957, -48010.69772371027, -58714.76932940118, -53726.038780932286, -64561.80686495386, -59060.796685313784, 0.022, 0.97, -0.214, 192.0, 0.0, 0.0, 0.0, 0.0, 0.0, 0.0, 0.0, 0.0, 0.0, 1.741115322811001E9, 0.0, 2025-03-04 13:08:42.811
86.0, -57518.01222777513, -50496.12230016259, -38758.662493069474, -48011.860014421945, -58717.45153873582, -53724.67532452051, -64576.82723722783, -59052.10185672067, 0.022, 0.97, -0.214, 192.0, 0.0, 0.0, 0.0, 0.0, 0.0, 0.0, 0.0, 0.0, 0.0, 1.741115322811032E9, 0.0, 2025-03-04 13:08:42.811
87.0, -57517.34167544147, -50432.26336625378, -38748.246580153296, -47989.418862988816, -58714.858736379, -53720.786120985285, -64557.3365160628, -59051.364249153645, 0.024, 0.962, -0.216, 192.0, 0.0, 192.0, 30.0, 16.0, 249.0, 64.0, 0.0, 0.0, 0.0, 1.741115322811062E9, 0.0, 2025-03-04 13:08:42.811
88.0, -57517.78871033058, -50421.10984577058, -38747.687786541916, -47978.33239773898, -58712.22123053327, -53720.54025179628, -64532.59313495078, -59052.23596718741, 0.024, 0.962, -0.216, 192.0, 0.0, 0.0, 0.0, 0.0, 0.0, 0.0, 0.0, 0.0, 0.0, 1.741115322811096E9, 0.0, 2025-03-04 13:08:42.811
89.0, -57515.21825971822, -50467.69088121544, -38744.80441150718, -47981.84162161847, -58704.3087129961, -53715.84638546067, -64523.27245751292, -59048.41381888555, 0.024, 0.962, -0.216, 192.0, 0.0, 0.0, 0.0, 0.0, 0.0, 0.0, 0.0, 0.0, 0.0, 1.741115322811139E9, 0.0, 2025-03-04 13:08:42.811
90.0, -57521.99083828817, -50489.46148031491, -38748.447745853395, -47985.66376992033, -58710.52249795467, -53719.26620236233, -64536.70585593055, -59052.012449742855, 0.024, 0.962, -0.216, 192.0, 0.0, 0.0, 0.0, 0.0, 0.0, 0.0, 0.0, 0.0, 0.0, 1.741115322811177E9, 0.0, 2025-03-04 13:08:42.811
91.0, -57535.1336640279, -50445.89793037152, -38758.796603536204, -47987.54131645457, -58724.201765561316, -53727.04460943277, -64552.486187516, -59061.511941136356, 0.024, 0.962, -0.216, 192.0, 0.0, 0.0, 0.0, 0.0, 0.0, 0.0, 0.0, 0.0, 0.0, 1.741115322869891E9, 0.0, 2025-03-04 13:08:42.869
92.0, -57532.98789656018, -50414.04669452271, -38756.33791164612, -47971.69392963576, -58722.48068123826, -53717.701580250454, -64551.88269041571, -59055.432266644515, 0.024, 0.962, -0.216, 192.0, 0.0, 0.0, 0.0, 0.0, 0.0, 0.0, 0.0, 0.0, 0.0, 1.741115322869943E9, 0.0, 2025-03-04 13:08:42.869
93.0, -57529.18810000278, -50459.82306716718, -38752.80633602218, -47972.565647669515, -58715.61869569048, -53710.303152835746, -64545.84771941278, -59048.54792935228, 0.024, 0.962, -0.216, 192.0, 0.0, 0.0, 0.0, 0.0, 0.0, 0.0, 0.0, 0.0, 0.0, 1.741115322869975E9, 0.0, 2025-03-04 13:08:42.869
94.0, -57526.70705636824, -50490.60141928213, -38750.16883017645, -47982.06513906302, -58712.22123053327, -53713.07476914821, -64545.35598103476, -59052.906519521064, 0.024, 0.962, -0.216, 192.0, 0.0, 0.0, 0.0, 0.0, 0.0, 0.0, 0.0, 0.0, 0.0, 1.741115322870006E9, 0.0, 2025-03-04 13:08:42.870
95.0, -57529.99276280317, -50451.7093839299, -38748.13482143102, -47974.33143548149, -58715.61869569048, -53716.91926919452, -64551.59211773779, -59056.39339165609, 0.024, 0.962, -0.216, 192.0, 0.0, 0.0, 0.0, 0.0, 0.0, 0.0, 0.0, 0.0, 0.0, 1.741115322870066E9, 0.0, 2025-03-04 13:08:42.870
96.0, -57523.644867377865, -50414.67254336745, -38745.34085337411, -47968.31881622301, -58716.46806197978, -53716.91926919452, -64554.11786486124, -59048.54792935228, 0.024, 0.962, -0.216, 192.0, 0.0, 0.0, 0.0, 0.0, 0.0, 0.0, 0.0, 0.0, 0.0, 1.741115322870097E9, 0.0, 2025-03-04 13:08:42.870
97.0, -57522.97431504421, -50448.91541587299, -38746.74901327479, -47973.750290125645, -58717.65270443591, -53717.075731405705, -64559.34817306378, -59052.16891195404, 0.022, 0.97, -0.222, 192.0, 0.0, 176.0, 30.0, 80.0, 249.0, 16.0, 0.0, 0.0, 0.0, 1.741115322870136E9, 0.0, 2025-03-04 13:08:42.870
98.0, -57519.21922197571, -50484.61115176811, -38743.26214113976, -47980.65697916233, -58712.7576724002, -53712.02423715881, -64564.93610917761, -59050.470179375436, 0.022, 0.97, -0.222, 192.0, 0.0, 0.0, 0.0, 0.0, 0.0, 0.0, 0.0, 0.0, 0.0, 1.74111532287017E9, 0.0, 2025-03-04 13:08:42.870
99.0, -57518.90629755334, -50456.291491543234, -38737.00365269228, -47975.6725401488, -58710.768367143675, -53711.7783679698, -64559.90696667516, -59051.29719392028, 0.022, 0.97, -0.222, 192.0, 0.0, 0.0, 0.0, 0.0, 0.0, 0.0, 0.0, 0.0, 0.0, 1.741115322870201E9, 0.0, 2025-03-04 13:08:42.870
100.0, -57530.57390815901, -50418.51704341377, -38747.86660049756, -47977.326569238496, -58722.68184693836, -53721.65783901905, -64568.17711212362, -59063.9929847709, 0.022, 0.97, -0.222, 192.0, 0.0, 0.0, 0.0, 0.0, 0.0, 0.0, 0.0, 0.0, 0.0, 1.741115322870232E9, 0.0, 2025-03-04 13:08:42.870
101.0, -57523.06372202203, -50446.68024142746, -38742.97156846185, -47979.09235705047, -58713.33881775604, -53709.99022841337, -64571.26165285846, -59053.84529278819, 0.022, 0.97, -0.222, 192.0, 0.0, 0.0, 0.0, 0.0, 0.0, 0.0, 0.0, 0.0, 0.0, 1.741115322870262E9, 0.0, 2025-03-04 13:08:42.870
102.0, -57525.589469145474, -50483.5159162898, -38743.26214113976, -47986.44608097626, -58714.76932940118, -53711.89012669207, -64564.73494347751, -59060.953147524975, 0.022, 0.97, -0.222, 192.0, 0.0, 0.0, 0.0, 0.0, 0.0, 0.0, 0.0, 0.0, 0.0, 1.741115322870293E9, 0.0, 2025-03-04 13:08:42.870
103.0, -57526.70705636824, -50472.60826499561, -38740.065841682655, -47982.80274663005, -58719.172623058876, -53712.56067902574, -64590.12652517874, -59069.893845307095, 0.022, 0.97, -0.222, 192.0, 0.0, 0.0, 0.0, 0.0, 0.0, 0.0, 0.0, 0.0, 0.0, 1.741115322870324E9, 0.0, 2025-03-04 13:08:42.870
104.0, -57523.48840516668, -50415.968944545864, -38737.964777703855, -47978.04182506107, -58721.251335293215, -53714.505280793346, -64603.11288870727, -59074.90063606509, 0.022, 0.97, -0.222, 192.0, 0.0, 0.0, 0.0, 0.0, 0.0, 0.0, 0.0, 0.0, 0.0, 1.741115322870368E9, 0.0, 2025-03-04 13:08:42.870
105.0, -57525.589469145474, -50434.78911337723, -38742.21160915036, -47983.473298963705, -58721.251335293215, -53716.315772094225, -64555.41426603965, -59062.562473125756, 0.022, 0.97, -0.222, 192.0, 0.0, 0.0, 0.0, 0.0, 0.0, 0.0, 0.0, 0.0, 0.0, 1.741115322870406E9, 0.0, 2025-03-04 13:08:42.870
106.0, -57513.54187888407, -50473.010596395805, -38736.6907282699, -47977.795955872054, -58710.29898051012, -53711.10781563614, -64530.40266399416, -59050.604289842166, 0.022, 0.97, -0.222, 192.0, 0.0, 0.0, 0.0, 0.0, 0.0, 0.0, 0.0, 0.0, 0.0, 1.741115322929792E9, 0.0, 2025-03-04 13:08:42.929
107.0, -57522.08024526599, -50480.67724474397, -38743.75387951778, -47984.05444431954, -58718.323256769574, -53719.310905851235, -64548.35111479177, -59060.28259519132, 0.024, 0.966, -0.224, 192.0, 0.0, 192.0, 30.0, 48.0, 249.0, 0.0, 0.0, 0.0, 0.0, 1.741115322929839E9, 0.0, 2025-03-04 13:08:42.929
108.0, -57528.00345754665, -50423.32266847166, -38747.061937697166, -47972.29742673605, -58721.407797504406, -53721.99311518588, -64548.46287351404, -59063.747115581886, 0.024, 0.966, -0.224, 192.0, 0.0, 0.0, 0.0, 0.0, 0.0, 0.0, 0.0, 0.0, 0.0, 1.741115322929873E9, 0.0, 2025-03-04 13:08:42.929
109.0, -57526.7294081127, -50427.569499918165, -38748.64891155349, -47970.66574939081, -58713.53998345614, -53717.76863548382, -64529.91092561614, -59057.2874614343, 0.024, 0.966, -0.224, 192.0, 0.0, 0.0, 0.0, 0.0, 0.0, 0.0, 0.0, 0.0, 0.0, 1.741115322929905E9, 0.0, 2025-03-04 13:08:42.929
110.0, -57517.34167544147, -50473.770555707284, -38745.89964698549, -47975.560781426524, -58710.500146210215, -53711.5772022697, -64543.366675778234, -59050.89486252009, 0.024, 0.966, -0.224, 192.0, 0.0, 0.0, 0.0, 0.0, 0.0, 0.0, 0.0, 0.0, 0.0, 1.741115322929978E9, 0.0, 2025-03-04 13:08:42.929
111.0, -57528.875175580404, -50491.58489603816, -38755.399138379, -47990.24587753366, -58719.306733525606, -53721.79194948578, -64548.66403921414, -59057.26510968985, 0.024, 0.966, -0.224, 192.0, 0.0, 0.0, 0.0, 0.0, 0.0, 0.0, 0.0, 0.0, 0.0, 1.741115322930001E9, 0.0, 2025-03-04 13:08:42.930
112.0, -57536.653582650855, -50443.32747975916, -38759.42245238095, -47988.077758321495, -58723.19593706083, -53728.22925188891, -64537.44346349758, -59058.7403248239, 0.024, 0.966, -0.224, 192.0, 0.0, 0.0, 0.0, 0.0, 0.0, 0.0, 0.0, 0.0, 0.0, 1.741115322930032E9, 0.0, 2025-03-04 13:08:42.930
113.0, -57530.283335481094, -50422.02626729325, -38755.06386221217, -47979.58409542848, -58716.937448613346, -53725.14471115407, -64540.080969343304, -59055.87930153362, 0.024, 0.966, -0.224, 192.0, 0.0, 0.0, 0.0, 0.0, 0.0, 0.0, 0.0, 0.0, 0.0, 1.741115322930053E9, 0.0, 2025-03-04 13:08:42.930
114.0, -57533.233765749195, -50469.4119655385, -38762.46228962688, -47995.16326131383, -58721.13957657094, -53732.58784205769, -64548.57463223632, -59062.71893533695, 0.024, 0.966, -0.224, 192.0, 0.0, 0.0, 0.0, 0.0, 0.0, 0.0, 0.0, 0.0, 0.0, 1.741115322930074E9, 0.0, 2025-03-04 13:08:42.930
115.0, -57536.47476869521, -50502.917230477, -38766.77617630675, -48004.32747654051, -58724.98407661726, -53739.56158632775, -64556.55420500687, -59071.32435695224, 0.024, 0.966, -0.224, 192.0, 0.0, 0.0, 0.0, 0.0, 0.0, 0.0, 0.0, 0.0, 0.0, 1.741115322930096E9, 0.0, 2025-03-04 13:08:42.930
116.0, -57533.658448893846, -50453.07284034167, -38757.880182013534, -47989.35180775545, -58722.2124603048, -53734.39833335857, -64556.75537070697, -59069.200941228984, 0.024, 0.966, -0.224, 192.0, 0.0, 0.0, 0.0, 0.0, 0.0, 0.0, 0.0, 0.0, 0.0, 1.741115322930118E9, 0.0, 2025-03-04 13:08:42.930
117.0, -57528.76341685813, -50420.081665525635, -38754.1474406895, -47981.528697196096, -58716.84804163552, -53727.73751351089, -64553.00027763847, -59062.9424527815, 0.024, 0.968, -0.222, 192.0, 0.0, 192.0, 30.0, 64.0, 249.0, 16.0, 0.0, 0.0, 0.0, 1.74111532293014E9, 0.0, 2025-03-04 13:08:42.930
118.0, -57525.41065518984, -50465.50041025882, -38755.46619361236, -47991.69874092326, -58715.730454412755, -53725.25646987635, -64561.51629227595, -59066.45167666098, 0.024, 0.968, -0.222, 192.0, 0.0, 0.0, 0.0, 0.0, 0.0, 0.0, 0.0, 0.0, 0.0, 1.741115322930164E9, 0.0, 2025-03-04 13:08:42.930
119.0, -57518.05693126404, -50490.60141928213, -38744.44678359589, -47985.999046087156, -58705.314541496584, -53714.01354241533, -64550.519234003936, -59054.35938291066, 0.024, 0.968, -0.222, 192.0, 0.0, 0.0, 0.0, 0.0, 0.0, 0.0, 0.0, 0.0, 0.0, 1.74111532293019E9, 0.0, 2025-03-04 13:08:42.930
120.0, -57525.99180054567, -50453.855151397605, -38749.364167376065, -47980.45581346224, -58716.222192790774, -53720.942583196476, -64556.46479802905, -59065.46819990495, 0.024, 0.968, -0.222, 192.0, 0.0, 0.0, 0.0, 0.0, 0.0, 0.0, 0.0, 0.0, 0.0, 1.741115322930219E9, 0.0, 2025-03-04 13:08:42.930
121.0, -57528.36108545794, -50417.26534572427, -38753.700405800395, -47977.170107027305, -58722.324219027076, -53723.55773729774, -64560.711629475554, -59071.011432529864, 0.024, 0.968, -0.222, 192.0, 0.0, 0.0, 0.0, 0.0, 0.0, 0.0, 0.0, 0.0, 0.0, 1.741115322989993E9, 0.0, 2025-03-04 13:08:42.989
122.0, -57525.90239356785, -50452.111715330095, -38752.31459764417, -47982.981560585686, -58720.066692837085, -53720.40614132955, -64560.80103645338, -59066.94341503899, 0.024, 0.968, -0.222, 192.0, 0.0, 0.0, 0.0, 0.0, 0.0, 0.0, 0.0, 0.0, 0.0, 1.741115322990073E9, 0.0, 2025-03-04 13:08:42.990
123.0, -57525.38830344538, -50484.52174479029, -38750.21353366537, -47985.55201119805, -58718.457367236304, -53717.098083150166, -64569.92054819114, -59063.613005115156, 0.024, 0.968, -0.222, 192.0, 0.0, 0.0, 0.0, 0.0, 0.0, 0.0, 0.0, 0.0, 0.0, 1.741115322990106E9, 0.0, 2025-03-04 13:08:42.990
124.0, -57522.05789352154, -50458.07963109966, -38747.64308305301, -47980.25464776214, -58717.67505618037, -53713.030065659295, -64574.03326917092, -59061.40018241408, 0.024, 0.968, -0.222, 192.0, 0.0, 0.0, 0.0, 0.0, 0.0, 0.0, 0.0, 0.0, 0.0, 1.741115322990137E9, 0.0, 2025-03-04 13:08:42.990
125.0, -57531.28916398158, -50412.83970032212, -38759.82478378115, -47984.367368741914, -58728.80622491911, -53720.76376924083, -64572.37924008122, -59068.150409239584, 0.024, 0.968, -0.222, 192.0, 0.0, 0.0, 0.0, 0.0, 0.0, 0.0, 0.0, 0.0, 0.0, 1.741115322990176E9, 0.0, 2025-03-04 13:08:42.990
126.0, -57521.4767481657, -50436.68901165593, -38757.0978709576, -47987.98835134368, -58715.61869569048, -53712.605382514645, -64544.216042067535, -59059.343821924194, 0.024, 0.968, -0.222, 192.0, 0.0, 0.0, 0.0, 0.0, 0.0, 0.0, 0.0, 0.0, 0.0, 1.741115322990208E9, 0.0, 2025-03-04 13:08:42.990
127.0, -57516.06762600752, -50474.12818361857, -38755.22032442335, -47994.20213630225, -58711.86360262199, -53711.264277847324, -64558.87878643022, -59061.82486555873, 0.026000000000000002, 0.966, -0.218, 192.0, 0.0, 208.0, 30.0, 48.0, 249.0, 48.0, 0.0, 0.0, 0.0, 1.741115322990239E9, 0.0, 2025-03-04 13:08:42.990
128.0, -57517.565192886024, -50463.17582883547, -38756.40496687948, -47992.03401709009, -58713.94231485633, -53713.790024970775, -64567.90889119016, -59066.98811852791, 0.026000000000000002, 0.966, -0.218, 192.0, 0.0, 0.0, 0.0, 0.0, 0.0, 0.0, 0.0, 0.0, 0.0, 1.74111532299028E9, 0.0, 2025-03-04 13:08:42.990
129.0, -57520.96265804323, -50405.128348485036, -38758.08134771363, -47983.27213326361, -58717.65270443591, -53722.127225652606, -64564.80199871088, -59073.470124419946, 0.026000000000000002, 0.966, -0.218, 192.0, 0.0, 0.0, 0.0, 0.0, 0.0, 0.0, 0.0, 0.0, 0.0, 1.741115322990312E9, 0.0, 2025-03-04 13:08:42.990
130.0, -57533.09965528246, -50429.379991219044, -38770.21834495287, -47997.107863081445, -58726.16871907339, -53736.20882465945, -64553.20144333857, -59077.98517679992, 0.026000000000000002, 0.966, -0.218, 192.0, 0.0, 0.0, 0.0, 0.0, 0.0, 0.0, 0.0, 0.0, 0.0, 1.741115322990343E9, 0.0, 2025-03-04 13:08:42.990
131.0, -57522.63903887738, -50473.47998302937, -38760.49533611481, -48000.84060440548, -58715.93162011285, -53729.99503970087, -64539.6339344542, -59063.21067371496, 0.026000000000000002, 0.966, -0.218, 192.0, 0.0, 0.0, 0.0, 0.0, 0.0, 0.0, 0.0, 0.0, 0.0, 1.741115322990374E9, 0.0, 2025-03-04 13:08:42.990
132.0, -57516.4252539188, -50465.47805851437, -38748.78302202022, -47983.74151989717, -58709.024931076165, -53721.72489425241, -64537.55522221985, -59054.42643814402, 0.026000000000000002, 0.966, -0.218, 192.0, 0.0, 0.0, 0.0, 0.0, 0.0, 0.0, 0.0, 0.0, 0.0, 1.741115322990405E9, 0.0, 2025-03-04 13:08:42.990
133.0, -57529.41161744733, -50411.36448518807, -38756.561429090674, -47981.01460707362, -58722.927716127364, -53732.72195252442, -64561.5386440204, -59069.98325228492, 0.026000000000000002, 0.966, -0.218, 192.0, 0.0, 0.0, 0.0, 0.0, 0.0, 0.0, 0.0, 0.0, 0.0, 1.741115322990436E9, 0.0, 2025-03-04 13:08:42.990
134.0, -57535.42423670581, -50421.22160449286, -38761.70233031539, -47988.88242112189, -58724.04530335013, -53735.29240313678, -64571.79809472539, -59072.486647663914, 0.026000000000000002, 0.966, -0.218, 192.0, 0.0, 0.0, 0.0, 0.0, 0.0, 0.0, 0.0, 0.0, 0.0, 1.741115322990473E9, 0.0, 2025-03-04 13:08:42.990
135.0, -57529.791597103074, -50465.90274165902, -38757.96958899136, -47995.699703180755, -58718.97145735878, -53729.43624608949, -64571.10519064727, -59067.21163597246, 0.026000000000000002, 0.966, -0.218, 192.0, 0.0, 0.0, 0.0, 0.0, 0.0, 0.0, 0.0, 0.0, 0.0, 1.741115322990511E9, 0.0, 2025-03-04 13:08:42.990
136.0, -57526.39413194587, -50475.98337840836, -38751.08525169912, -47995.58794445848, -58712.020064833174, -53723.96006869794, -64546.40651302416, -59062.45071440348, 0.026000000000000002, 0.966, -0.218, 192.0, 0.0, 0.0, 0.0, 0.0, 0.0, 0.0, 0.0, 0.0, 0.0, 1.741115323050367E9, 0.0, 2025-03-04 13:08:43.050
137.0, -57522.81785283302, -50414.62783987854, -38743.66447253996, -47976.79012737157, -58707.214439775285, -53720.04851341826, -64538.94103037608, -59060.59551961369, 0.03, 0.962, -0.218, 192.0, 0.0, 240.0, 30.0, 16.0, 249.0, 48.0, 0.0, 0.0, 0.0, 1.74111532305045E9, 0.0, 2025-03-04 13:08:43.050
138.0, -57529.6798383808, -50413.97963928934, -38750.61586506556, -47979.8746681064, -58712.109471810996, -53722.171929141514, -64551.972097393525, -59065.80347607178, 0.03, 0.962, -0.218, 192.0, 0.0, 0.0, 0.0, 0.0, 0.0, 0.0, 0.0, 0.0, 0.0, 1.741115323050485E9, 0.0, 2025-03-04 13:08:43.050
139.0, -57532.943193071274, -50464.91926490299, -38752.158135432976, -47991.89990662336, -58712.51180321119, -53722.99894368636, -64556.44244628459, -59064.68588884901, 0.03, 0.962, -0.218, 192.0, 0.0, 0.0, 0.0, 0.0, 0.0, 0.0, 0.0, 0.0, 0.0, 1.741115323050516E9, 0.0, 2025-03-04 13:08:43.050
140.0, -57534.01607680513, -50494.08829141716, -38750.74997553229, -47995.34207526947, -58712.78002414465, -53721.85900471914, -64558.05177188537, -59059.7908568133, 0.03, 0.962, -0.218, 192.0, 0.0, 0.0, 0.0, 0.0, 0.0, 0.0, 0.0, 0.0, 0.0, 1.741115323050555E9, 0.0, 2025-03-04 13:08:43.050
141.0, -57527.71288486873, -50440.7570291468, -38741.51870507225, -47978.95824658373, -58708.7567101427, -53715.73462673839, -64555.883652673205, -59058.04742074579, 0.03, 0.962, -0.218, 192.0, 0.0, 0.0, 0.0, 0.0, 0.0, 0.0, 0.0, 0.0, 0.0, 1.741115323050586E9, 0.0, 2025-03-04 13:08:43.050
142.0, -57526.84116683497, -50407.83290956413, -38743.37389986204, -47971.06808079101, -58709.85194562101, -53716.606344772146, -64566.12075163374, -59061.713106836454, 0.03, 0.962, -0.218, 192.0, 0.0, 0.0, 0.0, 0.0, 0.0, 0.0, 0.0, 0.0, 0.0, 1.741115323050617E9, 0.0, 2025-03-04 13:08:43.050
143.0, -57524.85186157845, -50451.1058868296, -38746.39138536351, -47977.93006633879, -58709.00257933171, -53713.07476914821, -64579.15181865118, -59061.13196148062, 0.03, 0.962, -0.218, 192.0, 0.0, 0.0, 0.0, 0.0, 0.0, 0.0, 0.0, 0.0, 0.0, 1.741115323050654E9, 0.0, 2025-03-04 13:08:43.050
144.0, -57528.897527324865, -50488.27683785878, -38748.55950457567, -47989.01653158862, -58707.75088164221, -53717.2768971058, -64560.6892777311, -59061.444885902994, 0.03, 0.962, -0.218, 192.0, 0.0, 0.0, 0.0, 0.0, 0.0, 0.0, 0.0, 0.0, 0.0, 1.741115323050686E9, 0.0, 2025-03-04 13:08:43.050
145.0, -57532.026771548604, -50448.401325750514, -38745.76553651876, -47976.70072039375, -58708.689654909336, -53717.52276629482, -64558.744675963484, -59061.511941136356, 0.03, 0.962, -0.218, 192.0, 0.0, 0.0, 0.0, 0.0, 0.0, 0.0, 0.0, 0.0, 0.0, 1.741115323050717E9, 0.0, 2025-03-04 13:08:43.050
146.0, -57530.66331513683, -50401.1944414609, -38750.66056855447, -47968.11765052291, -58716.155137557405, -53722.23898437488, -64572.78157148142, -59071.7937435858, 0.03, 0.962, -0.218, 192.0, 0.0, 0.0, 0.0, 0.0, 0.0, 0.0, 0.0, 0.0, 0.0, 1.741115323050748E9, 0.0, 2025-03-04 13:08:43.050
147.0, -57527.04233253507, -50442.72398265886, -38755.08621395662, -47981.34988324045, -58713.56233520059, -53722.28368786379, -64579.55415005138, -59073.961862797965, 0.03, 0.96, -0.214, 192.0, 0.0, 240.0, 30.0, 0.0, 249.0, 80.0, 0.0, 0.0, 0.0, 1.741115323050779E9, 0.0, 2025-03-04 13:08:43.050
148.0, -57521.09676850996, -50482.33127383367, -38753.87921975604, -47990.84937463396, -58708.689654909336, -53723.445978575466, -64564.06439114385, -59071.369060441146, 0.03, 0.96, -0.214, 192.0, 0.0, 0.0, 0.0, 0.0, 0.0, 0.0, 0.0, 0.0, 0.0, 1.741115323050813E9, 0.0, 2025-03-04 13:08:43.050
149.0, -57517.0287510191, -50457.52083748828, -38747.50897258627, -47983.92033385281, -58703.079367051054, -53720.719065751924, -64540.863280399244, -59062.83069405922, 0.03, 0.96, -0.214, 192.0, 0.0, 0.0, 0.0, 0.0, 0.0, 0.0, 0.0, 0.0, 0.0, 1.741115323050844E9, 0.0, 2025-03-04 13:08:43.050
150.0, -57522.884908066386, -50411.67740961044, -38753.25337091129, -47980.34405473996, -58711.21540203279, -53727.5810512997, -64565.15962662216, -59075.54883665429, 0.03, 0.96, -0.214, 192.0, 0.0, 0.0, 0.0, 0.0, 0.0, 0.0, 0.0, 0.0, 0.0, 1.741115323050886E9, 0.0, 2025-03-04 13:08:43.050
151.0, -57525.50006216766, -50437.47132271187, -38758.41662388046, -47990.178822300295, -58711.79654738862, -53728.09514142217, -64566.63484175621, -59073.31366220876, 0.03, 0.96, -0.214, 192.0, 0.0, 0.0, 0.0, 0.0, 0.0, 0.0, 0.0, 0.0, 0.0, 1.741115323110609E9, 0.0, 2025-03-04 13:08:43.110
152.0, -57526.505890668144, -50480.006692410316, -38758.64014132501, -47999.968886371724, -58704.71104439629, -53723.244812875375, -64579.241225629004, -59069.625624373635, 0.03, 0.96, -0.214, 192.0, 0.0, 0.0, 0.0, 0.0, 0.0, 0.0, 0.0, 0.0, 0.0, 1.741115323110686E9, 0.0, 2025-03-04 13:08:43.110
153.0, -57526.28237322359, -50468.249674826824, -38757.120222702055, -47994.090377579974, -58709.71783515428, -53722.0825221637, -64587.712536777566, -59064.507074893365, 0.03, 0.96, -0.214, 192.0, 0.0, 0.0, 0.0, 0.0, 0.0, 0.0, 0.0, 0.0, 0.0, 1.741115323110719E9, 0.0, 2025-03-04 13:08:43.110
154.0, -57521.43204467679, -50406.62591536354, -38749.364167376065, -47978.846487861454, -58706.54388744163, -53719.51207155133, -64564.66788824414, -59059.36617366865, 0.03, 0.96, -0.214, 192.0, 0.0, 0.0, 0.0, 0.0, 0.0, 0.0, 0.0, 0.0, 0.0, 1.74111532311075E9, 0.0, 2025-03-04 13:08:43.110
155.0, -57526.10355926795, -50425.51313942828, -38752.359301133074, -47982.86980186341, -58705.04632056312, -53722.328391352705, -64545.44538801258, -59063.83652255971, 0.03, 0.96, -0.214, 192.0, 0.0, 0.0, 0.0, 0.0, 0.0, 0.0, 0.0, 0.0, 0.0, 1.741115323110788E9, 0.0, 2025-03-04 13:08:43.110
156.0, -57529.90335582535, -50469.27785507177, -38753.61099882257, -47992.12342406791, -58705.873335107965, -53721.903708208054, -64543.38902752269, -59059.9920225134, 0.03, 0.96, -0.214, 192.0, 0.0, 0.0, 0.0, 0.0, 0.0, 0.0, 0.0, 0.0, 0.0, 1.74111532311082E9, 0.0, 2025-03-04 13:08:43.110
157.0, -57531.46797793722, -50476.98920690885, -38752.98514997782, -47992.905735123844, -58708.01910257568, -53722.57426054171, -64548.46287351404, -59061.847217303184, 0.02, 0.9560000000000001, -0.22, 192.0, 0.0, 160.0, 29.0, 224.0, 249.0, 32.0, 0.0, 0.0, 0.0, 1.741115323110851E9, 0.0, 2025-03-04 13:08:43.110
158.0, -57534.753684372154, -50422.51800567126, -38755.019158723255, -47987.42955773229, -58713.919963111875, -53725.39058034308, -64566.00899291146, -59067.14458073909, 0.02, 0.9560000000000001, -0.22, 192.0, 0.0, 0.0, 0.0, 0.0, 0.0, 0.0, 0.0, 0.0, 0.0, 1.741115323110892E9, 0.0, 2025-03-04 13:08:43.110
159.0, -57526.438835434776, -50421.758046359784, -38751.24171391031, -47986.15550829834, -58706.34272174153, -53723.26716461983, -64553.804940438866, -59065.982290027416, 0.02, 0.9560000000000001, -0.22, 192.0, 0.0, 0.0, 0.0, 0.0, 0.0, 0.0, 0.0, 0.0, 0.0, 1.741115323110927E9, 0.0, 2025-03-04 13:08:43.110
160.0, -57530.61861164792, -50467.37795679307, -38756.71789130186, -47998.73954042668, -58710.366035743486, -53727.89397572207, -64547.34528629128, -59064.70824059346, 0.02, 0.9560000000000001, -0.22, 192.0, 0.0, 0.0, 0.0, 0.0, 0.0, 0.0, 0.0, 0.0, 0.0, 1.741115323110959E9, 0.0, 2025-03-04 13:08:43.110
161.0, -57520.11329175393, -50485.95225643543, -38749.43122260943, -47996.7278834257, -58702.63233216195, -53717.12043489462, -64546.98765837999, -59055.5887288557, 0.02, 0.9560000000000001, -0.22, 192.0, 0.0, 0.0, 0.0, 0.0, 0.0, 0.0, 0.0, 0.0, 0.0, 1.74111532311099E9, 0.0, 2025-03-04 13:08:43.110
162.0, -57515.41942541831, -50423.76970336076, -38740.490524827306, -47978.98059832819, -58699.793660616124, -53710.504318535845, -64546.71943744653, -59054.60525209967, 0.02, 0.9560000000000001, -0.22, 192.0, 0.0, 0.0, 0.0, 0.0, 0.0, 0.0, 0.0, 0.0, 0.0, 1.74111532311102E9, 0.0, 2025-03-04 13:08:43.111
163.0, -57520.56032664303, -50411.96798228836, -38743.552713817684, -47979.8746681064, -58703.302884495606, -53712.29245809227, -64540.863280399244, -59058.04742074579, 0.02, 0.9560000000000001, -0.22, 192.0, 0.0, 0.0, 0.0, 0.0, 0.0, 0.0, 0.0, 0.0, 0.0, 1.741115323111051E9, 0.0, 2025-03-04 13:08:43.111
164.0, -57523.06372202203, -50462.12529684607, -38745.00557720728, -47991.788147901076, -58703.302884495606, -53715.08642614919, -64546.518271746434, -59061.31077543626, 0.02, 0.9560000000000001, -0.22, 192.0, 0.0, 0.0, 0.0, 0.0, 0.0, 0.0, 0.0, 0.0, 0.0, 1.741115323111083E9, 0.0, 2025-03-04 13:08:43.111
165.0, -57526.036504034586, -50486.35458783562, -38743.30684462868, -47996.66082819233, -58702.8558496065, -53715.756978482845, -64554.96723115054, -59060.34965042468, 0.02, 0.9560000000000001, -0.22, 192.0, 0.0, 0.0, 0.0, 0.0, 0.0, 0.0, 0.0, 0.0, 0.0, 1.741115323111125E9, 0.0, 2025-03-04 13:08:43.111
166.0, -57524.270716222614, -50437.87365411206, -38736.064879425154, -47980.23229601768, -58702.8558496065, -53712.6277342591, -64557.425923040624, -59060.953147524975, 0.02, 0.9560000000000001, -0.22, 192.0, 0.0, 0.0, 0.0, 0.0, 0.0, 0.0, 0.0, 0.0, 0.0, 1.741115323170868E9, 0.0, 2025-03-04 13:08:43.170
167.0, -57522.79550108856, -50409.91162179847, -38733.27091136824, -47969.414051701315, -58702.09589029502, -53711.353684825146, -64549.40164678117, -59062.897749292584, 0.024, 0.9520000000000001, -0.226, 192.0, 0.0, 192.0, 29.0, 192.0, 248.0, 240.0, 0.0, 0.0, 0.0, 1.741115323170952E9, 0.0, 2025-03-04 13:08:43.170
168.0, -57520.94030629878, -50450.2565205403, -38730.23107412232, -47968.654092389836, -58697.4020239594, -53702.882373676584, -64551.212138082046, -59056.50515037837, 0.024, 0.9520000000000001, -0.226, 192.0, 0.0, 0.0, 0.0, 0.0, 0.0, 0.0, 0.0, 0.0, 0.0, 1.741115323170987E9, 0.0, 2025-03-04 13:08:43.170
169.0, -57512.53605038358, -50472.27298882878, -38725.53720778671, -47964.58607489897, -58692.57404715706, -53692.04177761576, -64549.69221945909, -59045.73160955091, 0.024, 0.9520000000000001, -0.226, 192.0, 0.0, 0.0, 0.0, 0.0, 0.0, 0.0, 0.0, 0.0, 0.0, 1.741115323171019E9, 0.0, 2025-03-04 13:08:43.171
170.0, -57518.43691091978, -50433.13508428754, -38732.08626891211, -47959.53458065207, -58700.911247838885, -53698.18850734097, -64555.28015557292, -59054.806417799766, 0.024, 0.9520000000000001, -0.226, 192.0, 0.0, 0.0, 0.0, 0.0, 0.0, 0.0, 0.0, 0.0, 0.0, 1.74111532317105E9, 0.0, 2025-03-04 13:08:43.171
171.0, -57527.7799401021, -50399.24983969329, -38747.01723420826, -47967.91648482281, -58711.59538168852, -53714.17000462652, -64569.60762376877, -59071.68198486352, 0.024, 0.9520000000000001, -0.226, 192.0, 0.0, 0.0, 0.0, 0.0, 0.0, 0.0, 0.0, 0.0, 0.0, 1.741115323171089E9, 0.0, 2025-03-04 13:08:43.171
172.0, -57524.38247494489, -50439.63944192403, -38750.258237154274, -47978.712377394724, -58707.16973628638, -53714.5276325378, -64568.73590573501, -59065.62466211613, 0.024, 0.9520000000000001, -0.226, 192.0, 0.0, 0.0, 0.0, 0.0, 0.0, 0.0, 0.0, 0.0, 0.0, 1.741115323171121E9, 0.0, 2025-03-04 13:08:43.171
173.0, -57525.34359995647, -50480.72194823289, -38752.62752206654, -47984.233258275184, -58706.25331476371, -53714.61703951562, -64574.52500754893, -59063.09891499268, 0.024, 0.9520000000000001, -0.226, 192.0, 0.0, 0.0, 0.0, 0.0, 0.0, 0.0, 0.0, 0.0, 0.0, 1.741115323171158E9, 0.0, 2025-03-04 13:08:43.171
174.0, -57520.82854757649, -50456.090325843135, -38751.35347263259, -47979.4723367062, -58704.554582185105, -53717.05337966125, -64565.42784755562, -59062.49541789239, 0.024, 0.9520000000000001, -0.226, 192.0, 0.0, 0.0, 0.0, 0.0, 0.0, 0.0, 0.0, 0.0, 0.0, 1.74111532317119E9, 0.0, 2025-03-04 13:08:43.171
175.0, -57521.78967258808, -50401.86499379457, -38753.00750172228, -47975.717243637715, -58706.67799790836, -53721.65783901905, -64572.4909988035, -59068.19511272849, 0.024, 0.9520000000000001, -0.226, 192.0, 0.0, 0.0, 0.0, 0.0, 0.0, 0.0, 0.0, 0.0, 0.0, 1.741115323171221E9, 0.0, 2025-03-04 13:08:43.171
176.0, -57523.82368133351, -50429.93878483043, -38758.9977692363, -47984.99321758666, -58709.024931076165, -53723.7812547423, -64575.955519194074, -59074.520656409346, 0.024, 0.9520000000000001, -0.226, 192.0, 0.0, 0.0, 0.0, 0.0, 0.0, 0.0, 0.0, 0.0, 0.0, 1.741115323171252E9, 0.0, 2025-03-04 13:08:43.171
177.0, -57524.270716222614, -50473.569390007186, -38762.97637974934, -47996.79493865907, -58710.09781481002, -53725.81526348773, -64595.40153687019, -59079.63920588961, 0.03, 0.9500000000000001, -0.222, 192.0, 0.0, 240.0, 29.0, 176.0, 249.0, 16.0, 0.0, 0.0, 0.0, 1.741115323171283E9, 0.0, 2025-03-04 13:08:43.171
178.0, -57533.18906226028, -50468.540247504745, -38764.49629837231, -47996.39260725887, -58715.752806157216, -53729.50330132286, -64583.376298353236, -59079.1474675116, 0.03, 0.9500000000000001, -0.222, 192.0, 0.0, 0.0, 0.0, 0.0, 0.0, 0.0, 0.0, 0.0, 0.0, 1.741115323171316E9, 0.0, 2025-03-04 13:08:43.171
179.0, -57530.88683258138, -50409.35282818709, -38756.695539557404, -47979.271171006105, -58711.818899133075, -53722.0825221637, -64551.92739390462, -59068.91036855106, 0.03, 0.9500000000000001, -0.222, 192.0, 0.0, 0.0, 0.0, 0.0, 0.0, 0.0, 0.0, 0.0, 0.0, 1.741115323171348E9, 0.0, 2025-03-04 13:08:43.171
180.0, -57529.34456221397, -50419.14289225852, -38755.175620934446, -47973.79499361456, -58707.840288620035, -53713.72296973741, -64563.81852195484, -59059.477932390924, 0.03, 0.9500000000000001, -0.222, 192.0, 0.0, 0.0, 0.0, 0.0, 0.0, 0.0, 0.0, 0.0, 0.0, 1.741115323171391E9, 0.0, 2025-03-04 13:08:43.171
181.0, -57527.73523661319, -50463.13112534656, -38751.75580403278, -47977.14775528285, -58702.2076490173, -53711.73366448089, -64548.753446191964, -59056.482798633915, 0.03, 0.9500000000000001, -0.222, 192.0, 0.0, 0.0, 0.0, 0.0, 0.0, 0.0, 0.0, 0.0, 0.0, 1.74111532323022E9, 0.0, 2025-03-04 13:08:43.230
182.0, -57531.24446049267, -50475.55869526371, -38752.6945772999, -47986.200211787254, -58704.64398916293, -53718.64035351758, -64558.1858823521, -59065.80347607178, 0.03, 0.9500000000000001, -0.222, 192.0, 0.0, 0.0, 0.0, 0.0, 0.0, 0.0, 0.0, 0.0, 0.0, 1.741115323230299E9, 0.0, 2025-03-04 13:08:43.230
183.0, -57534.57487041651, -50419.92520331445, -38753.05220521119, -47977.90771459433, -58712.042416577635, -53721.65783901905, -64591.6464438017, -59071.860798819165, 0.03, 0.9500000000000001, -0.222, 192.0, 0.0, 0.0, 0.0, 0.0, 0.0, 0.0, 0.0, 0.0, 0.0, 1.741115323230331E9, 0.0, 2025-03-04 13:08:43.230
184.0, -57536.69828613976, -50421.08749402613, -38753.834516267125, -47980.5228686956, -58705.06867230758, -53723.7812547423, -64533.308390773345, -59070.98908078541, 0.03, 0.9500000000000001, -0.222, 192.0, 0.0, 0.0, 0.0, 0.0, 0.0, 0.0, 0.0, 0.0, 0.0, 1.741115323230363E9, 0.0, 2025-03-04 13:08:43.230
185.0, -57527.53407091309, -50464.02519512477, -38744.64794929599, -47986.55783969854, -58688.260160477184, -53712.15834762554, -64510.040224795375, -59055.566377111245, 0.03, 0.9500000000000001, -0.222, 192.0, 0.0, 0.0, 0.0, 0.0, 0.0, 0.0, 0.0, 0.0, 0.0, 1.741115323230395E9, 0.0, 2025-03-04 13:08:43.230
186.0, -57534.10548378295, -50480.74429997734, -38747.93365573092, -47993.01749384612, -58691.81408784558, -53716.85221396115, -64533.12957681771, -59054.672307333036, 0.03, 0.9500000000000001, -0.222, 192.0, 0.0, 0.0, 0.0, 0.0, 0.0, 0.0, 0.0, 0.0, 0.0, 1.741115323230434E9, 0.0, 2025-03-04 13:08:43.230
187.0, -57544.476693210214, -50435.7055348999, -38753.9462749894, -47988.94947635526, -58699.54779142712, -53725.79291174328, -64551.45800727106, -59067.233987716914, 0.026000000000000002, 0.9580000000000001, -0.222, 192.0, 0.0, 208.0, 29.0, 240.0, 249.0, 16.0, 0.0, 0.0, 0.0, 1.741115323230467E9, 0.0, 2025-03-04 13:08:43.230
188.0, -57553.32798401451, -50429.804674363695, -38763.08813847162, -47988.79301414407, -58705.49335545223, -53730.88910947909, -64575.08380116032, -59074.00656628687, 0.026000000000000002, 0.9580000000000001, -0.222, 192.0, 0.0, 0.0, 0.0, 0.0, 0.0, 0.0, 0.0, 0.0, 0.0, 1.741115323230508E9, 0.0, 2025-03-04 13:08:43.230
189.0, -57540.60984141944, -50470.50720101681, -38752.225190666344, -47989.24004903317, -58690.87531457846, -53717.96980118392, -64562.7903417099, -59062.07073474774, 0.026000000000000002, 0.9580000000000001, -0.222, 192.0, 0.0, 0.0, 0.0, 0.0, 0.0, 0.0, 0.0, 0.0, 0.0, 1.74111532323054E9, 0.0, 2025-03-04 13:08:43.230
190.0, -57537.65941115134, -50491.89782046054, -38746.45844059687, -47992.905735123844, -58687.924884310356, -53717.61217327263, -64544.10428334526, -59060.819037058245, 0.026000000000000002, 0.9580000000000001, -0.222, 192.0, 0.0, 0.0, 0.0, 0.0, 0.0, 0.0, 0.0, 0.0, 0.0, 1.741115323230573E9, 0.0, 2025-03-04 13:08:43.230
191.0, -57538.039390807084, -50449.675375184466, -38747.821897008645, -47989.50826996664, -58697.02204430367, -53723.7812547423, -64550.094550859285, -59066.98811852791, 0.026000000000000002, 0.9580000000000001, -0.222, 192.0, 0.0, 0.0, 0.0, 0.0, 0.0, 0.0, 0.0, 0.0, 0.0, 1.741115323230619E9, 0.0, 2025-03-04 13:08:43.230
192.0, -57536.653582650855, -50417.62297363555, -38747.24075165281, -47983.07096756351, -58698.117279781975, -53720.45084481846, -64548.08289385831, -59064.46237140446, 0.026000000000000002, 0.9580000000000001, -0.222, 192.0, 0.0, 0.0, 0.0, 0.0, 0.0, 0.0, 0.0, 0.0, 0.0, 1.741115323230643E9, 0.0, 2025-03-04 13:08:43.230
193.0, -57536.40771346185, -50458.325500288665, -38751.1970104214, -47990.58115370049, -58700.7547856277, -53719.7802924848, -64552.08385611581, -59066.92106329454, 0.026000000000000002, 0.9580000000000001, -0.222, 192.0, 0.0, 0.0, 0.0, 0.0, 0.0, 0.0, 0.0, 0.0, 0.0, 1.741115323230664E9, 0.0, 2025-03-04 13:08:43.230
194.0, -57534.19489076077, -50495.36234085111, -38753.074556955646, -47997.15256657035, -58702.319407739575, -53720.160272140536, -64557.358867807256, -59067.368098183644, 0.026000000000000002, 0.9580000000000001, -0.222, 192.0, 0.0, 0.0, 0.0, 0.0, 0.0, 0.0, 0.0, 0.0, 0.0, 1.741115323230686E9, 0.0, 2025-03-04 13:08:43.230
195.0, -57532.54086167108, -50457.8114101662, -38750.74997553229, -47988.25657227714, -58701.02300656116, -53717.90274595055, -64559.07995213032, -59066.13875223861, 0.026000000000000002, 0.9580000000000001, -0.222, 192.0, 0.0, 0.0, 0.0, 0.0, 0.0, 0.0, 0.0, 0.0, 0.0, 1.741115323230731E9, 0.0, 2025-03-04 13:08:43.230
196.0, -57537.59235591798, -50411.140967743515, -38756.78494653523, -47984.233258275184, -58708.7567101427, -53723.75890299784, -64569.69703074659, -59073.71599360895, 0.026000000000000002, 0.9580000000000001, -0.222, 192.0, 0.0, 0.0, 0.0, 0.0, 0.0, 0.0, 0.0, 0.0, 0.0, 1.741115323289879E9, 0.0, 2025-03-04 13:08:43.289
197.0, -57543.80614087655, -50448.043697839224, -38767.06674898467, -47995.699703180755, -58716.37865500196, -53728.05043793326, -64577.22956862803, -59079.3933367006, 0.026000000000000002, 0.9560000000000001, -0.22, 192.0, 0.0, 208.0, 29.0, 224.0, 249.0, 32.0, 0.0, 0.0, 0.0, 1.74111532328996E9, 0.0, 2025-03-04 13:08:43.289
198.0, -57543.82849262101, -50487.9192099475, -38768.00552225179, -48001.91348813933, -58716.71393116879, -53726.12818791011, -64578.57067329535, -59080.6450343901, 0.026000000000000002, 0.9560000000000001, -0.22, 192.0, 0.0, 0.0, 0.0, 0.0, 0.0, 0.0, 0.0, 0.0, 0.0, 1.74111532329E9, 0.0, 2025-03-04 13:08:43.290
199.0, -57549.505835712655, -50469.8142969387, -38771.023007753254, -48002.31581953953, -58721.18428005985, -53732.27491763532, -64586.01380419896, -59090.5468571838, 0.026000000000000002, 0.9560000000000001, -0.22, 192.0, 0.0, 0.0, 0.0, 0.0, 0.0, 0.0, 0.0, 0.0, 0.0, 1.741115323290036E9, 0.0, 2025-03-04 13:08:43.290
200.0, -57554.35616425946, -50420.305182970194, -38776.43212991144, -48001.06412185003, -58725.945201628834, -53740.32154563923, -64593.25576940248, -59097.654711920586, 0.026000000000000002, 0.9560000000000001, -0.22, 192.0, 0.0, 0.0, 0.0, 0.0, 0.0, 0.0, 0.0, 0.0, 0.0, 1.741115323290071E9, 0.0, 2025-03-04 13:08:43.290
201.0, -57549.19291129028, -50451.66468044099, -38774.77810082175, -48007.859052164444, -58717.965628858285, -53732.610193802146, -64592.42875485763, -59088.155220527085, 0.026000000000000002, 0.9560000000000001, -0.22, 192.0, 0.0, 0.0, 0.0, 0.0, 0.0, 0.0, 0.0, 0.0, 0.0, 1.741115323290111E9, 0.0, 2025-03-04 13:08:43.290
202.0, -57545.41546647734, -50486.24282911335, -38772.4535193984, -48007.56847948652, -58715.730454412755, -53729.816225745235, -64598.5978363273, -59085.60712165918, 0.026000000000000002, 0.9560000000000001, -0.22, 192.0, 0.0, 0.0, 0.0, 0.0, 0.0, 0.0, 0.0, 0.0, 0.0, 1.741115323290146E9, 0.0, 2025-03-04 13:08:43.290
203.0, -57558.178312561315, -50493.12716640558, -38782.780025336746, -48018.006744147155, -58728.538003985646, -53740.61211831714, -64614.66874059066, -59096.246552019904, 0.026000000000000002, 0.9560000000000001, -0.22, 192.0, 0.0, 0.0, 0.0, 0.0, 0.0, 0.0, 0.0, 0.0, 0.0, 1.741115323290187E9, 0.0, 2025-03-04 13:08:43.290
204.0, -57555.76432416014, -50435.72788664435, -38773.14642347651, -47998.292505537574, -58721.85483239351, -53734.77831301431, -64575.57553953833, -59085.54006642581, 0.026000000000000002, 0.9560000000000001, -0.22, 192.0, 0.0, 0.0, 0.0, 0.0, 0.0, 0.0, 0.0, 0.0, 0.0, 1.741115323290222E9, 0.0, 2025-03-04 13:08:43.290
205.0, -57554.66908868183, -50448.02134609477, -38769.90542053049, -47997.75606367065, -58713.51763171168, -53730.26326063434, -64551.81563518234, -59081.0473657903, 0.026000000000000002, 0.9560000000000001, -0.22, 192.0, 0.0, 0.0, 0.0, 0.0, 0.0, 0.0, 0.0, 0.0, 0.0, 1.741115323290257E9, 0.0, 2025-03-04 13:08:43.290
206.0, -57551.048106080074, -50493.06011117221, -38767.17850770694, -48005.355656785454, -58710.8577741215, -53723.87066172012, -64560.75633296446, -59074.67711862053, 0.026000000000000002, 0.9560000000000001, -0.22, 192.0, 0.0, 0.0, 0.0, 0.0, 0.0, 0.0, 0.0, 0.0, 0.0, 1.741115323290294E9, 0.0, 2025-03-04 13:08:43.290
207.0, -57554.04323983708, -50504.90653573353, -38768.34079841862, -48008.55195624256, -58717.74211141373, -53723.73655125339, -64583.75627800897, -59077.82871458873, 0.026000000000000002, 0.9560000000000001, -0.222, 192.0, 0.0, 208.0, 29.0, 224.0, 249.0, 16.0, 0.0, 0.0, 0.0, 1.741115323290336E9, 0.0, 2025-03-04 13:08:43.290
208.0, -57559.3853067619, -50451.7093839299, -38770.01717925277, -47999.410092760336, -58721.51955622668, -53723.42362683101, -64603.93990325212, -59079.43804018951, 0.026000000000000002, 0.9560000000000001, -0.222, 192.0, 0.0, 0.0, 0.0, 0.0, 0.0, 0.0, 0.0, 0.0, 0.0, 1.741115323290375E9, 0.0, 2025-03-04 13:08:43.290
209.0, -57552.322155514026, -50441.069953569175, -38767.17850770694, -47989.68708392228, -58713.361169500495, -53714.639391260076, -64574.72617324903, -59074.67711862053, 0.026000000000000002, 0.9560000000000001, -0.222, 192.0, 0.0, 0.0, 0.0, 0.0, 0.0, 0.0, 0.0, 0.0, 0.0, 1.74111532329041E9, 0.0, 2025-03-04 13:08:43.290
210.0, -57550.51166421315, -50482.55479127822, -38768.944295518915, -47995.61029620294, -58709.13668979844, -53711.7783679698, -64565.94193767809, -59067.368098183644, 0.026000000000000002, 0.9560000000000001, -0.222, 192.0, 0.0, 0.0, 0.0, 0.0, 0.0, 0.0, 0.0, 0.0, 0.0, 1.741115323290455E9, 0.0, 2025-03-04 13:08:43.290
211.0, -57537.65941115134, -50489.2156111259, -38758.08134771363, -47988.435386232784, -58697.491430937225, -53703.307056821235, -64562.54447252089, -59055.47697013342, 0.026000000000000002, 0.9560000000000001, -0.222, 192.0, 0.0, 0.0, 0.0, 0.0, 0.0, 0.0, 0.0, 0.0, 0.0, 1.741115323350253E9, 0.0, 2025-03-04 13:08:43.350
212.0, -57539.69341989678, -50430.89990984201, -38758.48367911383, -47980.85814486243, -58700.82184086107, -53709.900821435556, -64560.979850409014, -59063.45654290397, 0.026000000000000002, 0.9560000000000001, -0.222, 192.0, 0.0, 0.0, 0.0, 0.0, 0.0, 0.0, 0.0, 0.0, 0.0, 1.741115323350331E9, 0.0, 2025-03-04 13:08:43.350
213.0, -57543.917899598826, -50417.37710444655, -38761.90349601549, -47984.47912746419, -58702.07353855056, -53713.07476914821, -64543.05375135586, -59068.06100226176, 0.026000000000000002, 0.9560000000000001, -0.222, 192.0, 0.0, 0.0, 0.0, 0.0, 0.0, 0.0, 0.0, 0.0, 0.0, 1.741115323350367E9, 0.0, 2025-03-04 13:08:43.350
214.0, -57538.79935011856, -50459.35368053361, -38760.51768785926, -47996.21379330323, -58701.112413538984, -53713.63356275959, -64535.52121347442, -59067.68102260602, 0.026000000000000002, 0.9560000000000001, -0.222, 192.0, 0.0, 0.0, 0.0, 0.0, 0.0, 0.0, 0.0, 0.0, 0.0, 1.741115323350408E9, 0.0, 2025-03-04 13:08:43.350
215.0, -57537.16767277333, -50491.920172205, -38763.11049021608, -48010.54126149908, -58704.71104439629, -53720.13792039608, -64552.10620786026, -59075.23591223192, 0.026000000000000002, 0.9560000000000001, -0.222, 192.0, 0.0, 0.0, 0.0, 0.0, 0.0, 0.0, 0.0, 0.0, 0.0, 1.741115323350452E9, 0.0, 2025-03-04 13:08:43.350
216.0, -57540.92276584182, -50443.17101754797, -38764.07161522766, -47999.343037526975, -58712.89178286694, -53727.40223734406, -64569.47351330204, -59082.947264069, 0.026000000000000002, 0.9560000000000001, -0.222, 192.0, 0.0, 0.0, 0.0, 0.0, 0.0, 0.0, 0.0, 0.0, 0.0, 1.741115323350506E9, 0.0, 2025-03-04 13:08:43.350
217.0, -57547.851806622966, -50415.0972265121, -38770.97830426435, -48000.01358986063, -58722.2124603048, -53734.845368247676, -64592.808734513375, -59089.94336008351, 0.024, 0.9560000000000001, -0.218, 192.0, 0.0, 192.0, 29.0, 224.0, 249.0, 48.0, 0.0, 0.0, 0.0, 1.74111532335055E9, 0.0, 2025-03-04 13:08:43.350
218.0, -57542.55444318706, -50449.47420948437, -38771.09006298662, -48007.05438936406, -58721.22898354876, -53734.80066475877, -64586.84081874381, -59087.26115074887, 0.024, 0.9560000000000001, -0.218, 192.0, 0.0, 0.0, 0.0, 0.0, 0.0, 0.0, 0.0, 0.0, 0.0, 1.741115323350596E9, 0.0, 2025-03-04 13:08:43.350
219.0, -57532.69732388227, -50478.665587742995, -38761.92584775994, -48009.133101598396, -58712.84707937802, -53728.05043793326, -64562.49976903198, -59078.07458377774, 0.024, 0.9560000000000001, -0.218, 192.0, 0.0, 0.0, 0.0, 0.0, 0.0, 0.0, 0.0, 0.0, 0.0, 1.741115323350631E9, 0.0, 2025-03-04 13:08:43.350
220.0, -57534.10548378295, -50441.02525008026, -38758.729548302836, -47996.21379330323, -58719.19497480333, -53726.82109198822, -64571.284004602916, -59079.08041227823, 0.024, 0.9560000000000001, -0.218, 192.0, 0.0, 0.0, 0.0, 0.0, 0.0, 0.0, 0.0, 0.0, 0.0, 1.741115323350666E9, 0.0, 2025-03-04 13:08:43.350
221.0, -57538.44172220728, -50397.931086770426, -38762.95402800489, -47989.57532520001, -58725.22994580626, -53728.832748989196, -64574.03326917092, -59080.55562741228, 0.024, 0.9560000000000001, -0.218, 192.0, 0.0, 0.0, 0.0, 0.0, 0.0, 0.0, 0.0, 0.0, 0.0, 1.741115323350689E9, 0.0, 2025-03-04 13:08:43.350
222.0, -57533.70315238275, -50435.817293622174, -38762.75286230479, -47993.3751217574, -58721.45250099331, -53722.35074309716, -64578.28010061743, -59073.82775233123, 0.024, 0.9560000000000001, -0.218, 192.0, 0.0, 0.0, 0.0, 0.0, 0.0, 0.0, 0.0, 0.0, 0.0, 1.74111532335071E9, 0.0, 2025-03-04 13:08:43.350
223.0, -57537.16767277333, -50479.40319531002, -38763.557525105185, -48003.85808990694, -58723.03947484964, -53725.77055999882, -64584.51623732046, -59079.28157797833, 0.024, 0.9560000000000001, -0.218, 192.0, 0.0, 0.0, 0.0, 0.0, 0.0, 0.0, 0.0, 0.0, 0.0, 1.741115323350732E9, 0.0, 2025-03-04 13:08:43.350
224.0, -57532.56321341553, -50457.766706677285, -38755.46619361236, -47998.717188682225, -58716.19984104632, -53726.038780932286, -64569.29469934639, -59076.755830854876, 0.024, 0.9560000000000001, -0.218, 192.0, 0.0, 0.0, 0.0, 0.0, 0.0, 0.0, 0.0, 0.0, 0.0, 1.741115323350753E9, 0.0, 2025-03-04 13:08:43.350
225.0, -57529.18810000278, -50405.73184558533, -38750.81703076566, -47985.10497630894, -58712.64591367792, -53720.45084481846, -64569.92054819114, -59072.285481963816, 0.024, 0.9560000000000001, -0.218, 192.0, 0.0, 0.0, 0.0, 0.0, 0.0, 0.0, 0.0, 0.0, 0.0, 1.741115323350779E9, 0.0, 2025-03-04 13:08:43.350
226.0, -57528.271678480116, -50426.78718886223, -38749.990016220814, -47989.68708392228, -58709.181393287356, -53717.8803942061, -64569.1382371352, -59070.56439764076, 0.024, 0.9560000000000001, -0.218, 192.0, 0.0, 0.0, 0.0, 0.0, 0.0, 0.0, 0.0, 0.0, 0.0, 1.741115323410578E9, 0.0, 2025-03-04 13:08:43.410
227.0, -57532.876137837906, -50469.6131312386, -38752.38165287753, -47997.19727005927, -58712.444747977825, -53724.02712393131, -64581.18582739661, -59076.621720388146, 0.024, 0.962, -0.22, 192.0, 0.0, 192.0, 30.0, 16.0, 249.0, 32.0, 0.0, 0.0, 0.0, 1.741115323410656E9, 0.0, 2025-03-04 13:08:43.410
228.0, -57534.619573905424, -50472.876485929075, -38751.93461798842, -47999.968886371724, -58709.96370434329, -53725.14471115407, -64583.93509196462, -59076.80053434379, 0.024, 0.962, -0.22, 192.0, 0.0, 0.0, 0.0, 0.0, 0.0, 0.0, 0.0, 0.0, 0.0, 1.741115323410691E9, 0.0, 2025-03-04 13:08:43.410
229.0, -57533.12200702692, -50413.95728754489, -38745.05028069619, -47985.10497630894, -58705.42630021886, -53721.16610064103, -64568.80296096837, -59075.12415350964, 0.024, 0.962, -0.22, 192.0, 0.0, 0.0, 0.0, 0.0, 0.0, 0.0, 0.0, 0.0, 0.0, 1.741115323410722E9, 0.0, 2025-03-04 13:08:43.410
230.0, -57528.56225115803, -50421.556880659686, -38740.825800994135, -47980.00877857313, -58696.06091929209, -53710.034931902286, -64554.20727183906, -59066.630490616626, 0.024, 0.962, -0.22, 192.0, 0.0, 0.0, 0.0, 0.0, 0.0, 0.0, 0.0, 0.0, 0.0, 1.741115323410752E9, 0.0, 2025-03-04 13:08:43.410
231.0, -57531.51268142613, -50466.52859050377, -38744.67030104045, -47988.65890367734, -58695.52447742516, -53708.60442025714, -64565.40549581117, -59060.796685313784, 0.024, 0.962, -0.22, 192.0, 0.0, 0.0, 0.0, 0.0, 0.0, 0.0, 0.0, 0.0, 0.0, 1.741115323410791E9, 0.0, 2025-03-04 13:08:43.410
232.0, -57530.59625990347, -50477.65975924251, -38746.078460941135, -47991.47522347871, -58700.73243388325, -53716.69575174997, -64556.375391051224, -59069.84914181819, 0.024, 0.962, -0.22, 192.0, 0.0, 0.0, 0.0, 0.0, 0.0, 0.0, 0.0, 0.0, 0.0, 1.741115323410823E9, 0.0, 2025-03-04 13:08:43.410
233.0, -57528.405788946846, -50414.67254336745, -38741.98809170581, -47974.97963607069, -58700.33010248305, -53713.29828659276, -64551.770931693434, -59076.01822328785, 0.024, 0.962, -0.22, 192.0, 0.0, 0.0, 0.0, 0.0, 0.0, 0.0, 0.0, 0.0, 0.0, 1.74111532341086E9, 0.0, 2025-03-04 13:08:43.410
234.0, -57530.86448083693, -50407.40822641948, -38748.246580153296, -47973.81734535901, -58704.04049206263, -53708.20208885695, -64584.82916174283, -59070.83261857422, 0.024, 0.962, -0.22, 192.0, 0.0, 0.0, 0.0, 0.0, 0.0, 0.0, 0.0, 0.0, 0.0, 1.741115323410891E9, 0.0, 2025-03-04 13:08:43.410
235.0, -57528.67400988031, -50453.296357786225, -38748.179524919935, -47980.99225532917, -58701.58180017255, -53701.8765451761, -64581.78932449691, -59060.77433356933, 0.024, 0.962, -0.22, 192.0, 0.0, 0.0, 0.0, 0.0, 0.0, 0.0, 0.0, 0.0, 0.0, 1.741115323410925E9, 0.0, 2025-03-04 13:08:43.410
236.0, -57525.83533833449, -50471.13304986156, -38743.88798998451, -47982.981560585686, -58696.865582092476, -53706.63746674508, -64548.284059558406, -59071.994909285895, 0.024, 0.962, -0.22, 192.0, 0.0, 0.0, 0.0, 0.0, 0.0, 0.0, 0.0, 0.0, 0.0, 1.741115323410957E9, 0.0, 2025-03-04 13:08:43.410
237.0, -57525.03067553409, -50409.5986973761, -38741.4963533278, -47968.14000226736, -58698.0055210597, -53705.38576905558, -64545.17716707911, -59070.22912147392, 0.028, 0.964, -0.224, 192.0, 0.0, 224.0, 30.0, 32.0, 249.0, 0.0, 0.0, 0.0, 0.0, 1.741115323410988E9, 0.0, 2025-03-04 13:08:43.410
238.0, -57532.183233759795, -50392.87959252353, -38752.31459764417, -47969.88343833488, -58706.05214906361, -53708.38090281259, -64561.270423086935, -59062.07073474774, 0.028, 0.964, -0.224, 192.0, 0.0, 0.0, 0.0, 0.0, 0.0, 0.0, 0.0, 0.0, 0.0, 1.741115323411021E9, 0.0, 2025-03-04 13:08:43.411
239.0, -57527.66818137982, -50443.014555336784, -38758.41662388046, -47986.35667399844, -58706.94621884182, -53712.605382514645, -64560.979850409014, -59067.63631911711, 0.028, 0.964, -0.224, 192.0, 0.0, 0.0, 0.0, 0.0, 0.0, 0.0, 0.0, 0.0, 0.0, 1.741115323411051E9, 0.0, 2025-03-04 13:08:43.411
240.0, -57522.99666678866, -50468.65200622702, -38756.78494653523, -47989.24004903317, -58703.638160662435, -53710.28080109129, -64552.173263093624, -59071.5925778857, 0.028, 0.964, -0.224, 192.0, 0.0, 0.0, 0.0, 0.0, 0.0, 0.0, 0.0, 0.0, 0.0, 1.741115323411088E9, 0.0, 2025-03-04 13:08:43.411
241.0, -57530.88683258138, -50433.023325565264, -38759.37774889204, -47978.15358378334, -58708.533192698145, -53711.33133308069, -64553.91669916114, -59071.994909285895, 0.028, 0.964, -0.224, 192.0, 0.0, 0.0, 0.0, 0.0, 0.0, 0.0, 0.0, 0.0, 0.0, 1.741115323471025E9, 0.0, 2025-03-04 13:08:43.471
242.0, -57532.40675120435, -50392.767833801256, -38761.07648147064, -47971.85039184694, -58713.27176252267, -53707.19626035646, -64550.13925434819, -59064.61883361565, 0.028, 0.964, -0.224, 192.0, 0.0, 0.0, 0.0, 0.0, 0.0, 0.0, 0.0, 0.0, 0.0, 1.74111532347107E9, 0.0, 2025-03-04 13:08:43.471
243.0, -57528.115216268925, -50432.50923544279, -38762.70815881588, -47981.05931056253, -58712.176527044365, -53701.54126900927, -64544.506614745456, -59060.05907774676, 0.028, 0.964, -0.224, 192.0, 0.0, 0.0, 0.0, 0.0, 0.0, 0.0, 0.0, 0.0, 0.0, 1.741115323471135E9, 0.0, 2025-03-04 13:08:43.471
244.0, -57531.06564653703, -50472.63061674007, -38768.83253679664, -47994.33624676899, -58715.79750964612, -53708.760882468334, -64562.16449286515, -59066.29521444979, 0.028, 0.964, -0.224, 192.0, 0.0, 0.0, 0.0, 0.0, 0.0, 0.0, 0.0, 0.0, 0.0, 1.741115323471167E9, 0.0, 2025-03-04 13:08:43.471
245.0, -57526.39413194587, -50439.77355239076, -38768.07257748515, -47987.27309552111, -58721.29603878213, -53710.83959470267, -64582.43752508611, -59070.318528451746, 0.028, 0.964, -0.224, 192.0, 0.0, 0.0, 0.0, 0.0, 0.0, 0.0, 0.0, 0.0, 0.0, 1.741115323471198E9, 0.0, 2025-03-04 13:08:43.471
246.0, -57524.538937156074, -50389.616237833055, -38763.199897193896, -47975.091394792966, -58718.613829447495, -53709.00675165734, -64584.78445825392, -59071.50317090788, 0.028, 0.964, -0.224, 192.0, 0.0, 0.0, 0.0, 0.0, 0.0, 0.0, 0.0, 0.0, 0.0, 1.741115323471237E9, 0.0, 2025-03-04 13:08:43.471
247.0, -57529.23280349169, -50429.69291564142, -38766.50795537329, -47988.01070308813, -58716.512765468695, -53714.30411509325, -64570.3899348247, -59072.911330808565, 0.036000000000000004, 0.964, -0.22, 192.0, 1.0, 32.0, 30.0, 32.0, 249.0, 32.0, 0.0, 0.0, 0.0, 1.741115323471268E9, 0.0, 2025-03-04 13:08:43.471
248.0, -57521.07441676551, -50466.68505271495, -38758.729548302836, -47992.436348490286, -58709.27080026517, -53710.77253946931, -64563.55030102138, -59067.30104295028, 0.036000000000000004, 0.964, -0.22, 192.0, 0.0, 0.0, 0.0, 0.0, 0.0, 0.0, 0.0, 0.0, 0.0, 1.741115323471302E9, 0.0, 2025-03-04 13:08:43.471
249.0, -57521.00736153214, -50452.42463975247, -38751.75580403278, -47986.96017109873, -58706.27566650816, -53715.44405406047, -64564.17614986613, -59072.66546161955, 0.036000000000000004, 0.964, -0.22, 192.0, 0.0, 0.0, 0.0, 0.0, 0.0, 0.0, 0.0, 0.0, 0.0, 1.741115323471341E9, 0.0, 2025-03-04 13:08:43.471
250.0, -57528.2269749912, -50402.42378740595, -38752.47105985535, -47984.97086584221, -58713.96466660079, -53723.40127508656, -64590.55120832339, -59082.611987902164, 0.036000000000000004, 0.964, -0.22, 192.0, 0.0, 0.0, 0.0, 0.0, 0.0, 0.0, 0.0, 0.0, 0.0, 1.741115323471372E9, 0.0, 2025-03-04 13:08:43.471
251.0, -57523.06372202203, -50422.78622660473, -38743.910341728966, -47977.952418083245, -58707.505012453206, -53711.30898133624, -64561.78451320941, -59058.69562133499, 0.036000000000000004, 0.964, -0.22, 192.0, 0.0, 0.0, 0.0, 0.0, 0.0, 0.0, 0.0, 0.0, 0.0, 1.741115323471404E9, 0.0, 2025-03-04 13:08:43.471
252.0, -57526.9752773017, -50469.54607600523, -38740.31171087166, -47984.41207223083, -58702.34175948403, -53709.476138290906, -64532.36961750622, -59054.7393625664, 0.036000000000000004, 0.964, -0.22, 192.0, 0.0, 0.0, 0.0, 0.0, 0.0, 0.0, 0.0, 0.0, 0.0, 1.741115323471435E9, 0.0, 2025-03-04 13:08:43.471
253.0, -57520.850899320954, -50471.267160328294, -38731.750992745285, -47980.2769995066, -58701.894724594924, -53701.40715854253, -64569.182940624116, -59052.772409054334, 0.036000000000000004, 0.964, -0.22, 192.0, 0.0, 0.0, 0.0, 0.0, 0.0, 0.0, 0.0, 0.0, 0.0, 1.741115323471467E9, 0.0, 2025-03-04 13:08:43.471
254.0, -57517.05110276355, -50410.55982238768, -38722.47501879633, -47963.98257779868, -58699.77130887167, -53696.91445790702, -64570.32287959134, -59052.19126369849, 0.036000000000000004, 0.964, -0.22, 192.0, 0.0, 0.0, 0.0, 0.0, 0.0, 0.0, 0.0, 0.0, 0.0, 1.741115323471498E9, 0.0, 2025-03-04 13:08:43.471
255.0, -57527.422312190814, -50421.24395623731, -38733.76264974626, -47969.43640344577, -58707.72852989776, -53707.218612100914, -64554.274327072424, -59067.77042958384, 0.036000000000000004, 0.964, -0.22, 192.0, 0.0, 0.0, 0.0, 0.0, 0.0, 0.0, 0.0, 0.0, 0.0, 1.741115323471535E9, 0.0, 2025-03-04 13:08:43.471
0.0, -57525.50006216766, -50465.96979689239, -38735.1931613914, -47975.20315351524, -58704.08519555154, -53704.58110625519, -64520.590248178276, -59054.672307333036, 0.036000000000000004, 0.964, -0.22, 192.0, 0.0, 0.0, 0.0, 0.0, 0.0, 0.0, 0.0, 0.0, 0.0, 1.741115323531257E9, 0.0, 2025-03-04 13:08:43.531
1.0, -57529.6798383808, -50479.291436587744, -38738.881199226525, -47980.85814486243, -58707.88499210894, -53702.36828355411, -64527.96632384853, -59045.39633338408, 0.034, 0.964, -0.214, 192.0, 1.0, 16.0, 30.0, 32.0, 249.0, 80.0, 0.0, 0.0, 0.0, 1.741115323531321E9, 0.0, 2025-03-04 13:08:43.531
2.0, -57518.123986497405, -50413.21967997786, -38727.213588620856, -47961.00979578612, -58697.849058848515, -53691.93001889349, -64534.60479195176, -59040.188376925995, 0.034, 0.964, -0.214, 192.0, 0.0, 0.0, 0.0, 0.0, 0.0, 0.0, 0.0, 0.0, 0.0, 1.74111532353137E9, 0.0, 2025-03-04 13:08:43.531
3.0, -57520.04623652056, -50403.11669148406, -38732.75682124577, -47965.05546153253, -58695.23390474724, -53693.874620661096, -64522.91482960163, -59040.27778390382, 0.034, 0.964, -0.214, 192.0, 0.0, 0.0, 0.0, 0.0, 0.0, 0.0, 0.0, 0.0, 0.0, 1.741115323531401E9, 0.0, 2025-03-04 13:08:43.531
4.0, -57522.19200398827, -50450.2565205403, -38737.338928859106, -47980.29935125105, -58690.24946573371, -53693.56169623872, -64520.523192944915, -59036.79091176879, 0.034, 0.964, -0.214, 192.0, 0.0, 0.0, 0.0, 0.0, 0.0, 0.0, 0.0, 0.0, 0.0, 1.741115323531432E9, 0.0, 2025-03-04 13:08:43.531
5.0, -57528.78576860259, -50477.88327668706, -38744.826763251636, -47992.838679890476, -58694.8539250915, -53700.088405619674, -64532.03434133939, -59045.53044385081, 0.034, 0.964, -0.214, 192.0, 0.0, 0.0, 0.0, 0.0, 0.0, 0.0, 0.0, 0.0, 0.0, 1.741115323531469E9, 0.0, 2025-03-04 13:08:43.531
6.0, -57538.62053616292, -50433.67152615447, -38754.326254645144, -47991.0281885896, -58704.04049206263, -53710.63842900258, -64538.24812629797, -59053.688830577, 0.034, 0.964, -0.214, 192.0, 0.0, 0.0, 0.0, 0.0, 0.0, 0.0, 0.0, 0.0, 0.0, 1.741115323531499E9, 0.0, 2025-03-04 13:08:43.531
7.0, -57533.81491110503, -50413.28673521122, -38755.24267616781, -47983.62976117489, -58700.41950946087, -53710.05728364674, -64528.63687618219, -59048.41381888555, 0.034, 0.964, -0.214, 192.0, 0.0, 0.0, 0.0, 0.0, 0.0, 0.0, 0.0, 0.0, 0.0, 1.74111532353153E9, 0.0, 2025-03-04 13:08:43.531
8.0, -57532.183233759795, -50458.30314854421, -38757.746071546804, -48000.12534858291, -58698.18433501534, -53717.992152928375, -64519.78558537789, -59054.31467942175, 0.034, 0.964, -0.214, 192.0, 0.0, 0.0, 0.0, 0.0, 0.0, 0.0, 0.0, 0.0, 0.0, 1.741115323531567E9, 0.0, 2025-03-04 13:08:43.531
9.0, -57534.261945994134, -50494.691788517455, -38759.355397147585, -48011.144758599374, -58699.01134956019, -53723.222461130914, -64534.60479195176, -59058.44975214598, 0.034, 0.964, -0.214, 192.0, 0.0, 0.0, 0.0, 0.0, 0.0, 0.0, 0.0, 0.0, 0.0, 1.741115323531599E9, 0.0, 2025-03-04 13:08:43.531
10.0, -57533.32317272701, -50449.2059885509, -38752.40400462199, -48001.73467418369, -58697.849058848515, -53721.34491459667, -64527.161661048136, -59054.40408639957, 0.034, 0.964, -0.214, 192.0, 0.0, 0.0, 0.0, 0.0, 0.0, 0.0, 0.0, 0.0, 0.0, 1.74111532353163E9, 0.0, 2025-03-04 13:08:43.531
11.0, -57535.15601577235, -50413.800825333696, -38753.18631567792, -47995.275020036104, -58701.984131572746, -53722.97659194191, -64532.257858783945, -59057.86860679014, 0.03, 0.962, -0.21, 192.0, 0.0, 240.0, 30.0, 16.0, 249.0, 112.0, 0.0, 0.0, 0.0, 1.741115323531661E9, 0.0, 2025-03-04 13:08:43.531
12.0, -57526.371780201414, -50450.21181705139, -38746.74901327479, -47995.54324096957, -58694.697462880315, -53718.30507735075, -64527.27341977041, -59052.16891195404, 0.03, 0.962, -0.21, 192.0, 0.0, 0.0, 0.0, 0.0, 0.0, 0.0, 0.0, 0.0, 0.0, 1.741115323531695E9, 0.0, 2025-03-04 13:08:43.531
13.0, -57523.95779180024, -50483.56061977871, -38744.62559755154, -47995.11855782492, -58695.47977393625, -53714.080597648695, -64535.565916963336, -59048.74909505238, 0.03, 0.962, -0.21, 192.0, 0.0, 0.0, 0.0, 0.0, 0.0, 0.0, 0.0, 0.0, 0.0, 1.741115323531726E9, 0.0, 2025-03-04 13:08:43.531
14.0, -57515.888812051875, -50449.6083199511, -38738.456516081875, -47980.16524078432, -58698.31844548207, -53708.71617897942, -64539.70098968757, -59044.234042672404, 0.03, 0.962, -0.21, 192.0, 0.0, 0.0, 0.0, 0.0, 0.0, 0.0, 0.0, 0.0, 0.0, 1.741115323531756E9, 0.0, 2025-03-04 13:08:43.531
15.0, -57537.078265795506, -50409.956325287385, -38755.399138379, -47989.73178741119, -58718.30090502512, -53725.681153021, -64562.56682426534, -59063.054211503775, 0.03, 0.962, -0.21, 192.0, 0.0, 0.0, 0.0, 0.0, 0.0, 0.0, 0.0, 0.0, 0.0, 1.741115323590541E9, 0.0, 2025-03-04 13:08:43.590
16.0, -57528.741065113674, -50444.44506698192, -38749.230056909335, -47987.876592621404, -58709.67313166537, -53714.19235637097, -64559.169359108135, -59052.30302242077, 0.03, 0.962, -0.21, 192.0, 0.0, 0.0, 0.0, 0.0, 0.0, 0.0, 0.0, 0.0, 0.0, 1.741115323590612E9, 0.0, 2025-03-04 13:08:43.590
17.0, -57520.00153303165, -50479.20202960993, -38739.32823411563, -47980.83579311798, -58706.454480463806, -53707.35272256765, -64554.63195498371, -59046.06688571774, 0.03, 0.962, -0.21, 192.0, 0.0, 0.0, 0.0, 0.0, 0.0, 0.0, 0.0, 0.0, 0.0, 1.741115323590658E9, 0.0, 2025-03-04 13:08:43.590
18.0, -57527.19879474626, -50472.40709929551, -38738.63533003752, -47980.85814486243, -58710.38838748794, -53708.24679234586, -64581.87873147473, -59044.25639441686, 0.03, 0.962, -0.21, 192.0, 0.0, 0.0, 0.0, 0.0, 0.0, 0.0, 0.0, 0.0, 0.0, 1.74111532359069E9, 0.0, 2025-03-04 13:08:43.590
19.0, -57532.943193071274, -50421.914508570975, -38737.830667237125, -47971.73863312467, -58717.071559080076, -53709.72200747991, -64595.31212989237, -59049.19612994148, 0.03, 0.962, -0.21, 192.0, 0.0, 0.0, 0.0, 0.0, 0.0, 0.0, 0.0, 0.0, 0.0, 1.741115323590721E9, 0.0, 2025-03-04 13:08:43.590
20.0, -57541.70507689776, -50448.60249145061, -38740.982263205326, -47976.477202949194, -58713.629390433955, -53714.17000462652, -64558.43175154111, -59053.26414743235, 0.03, 0.962, -0.21, 192.0, 0.0, 0.0, 0.0, 0.0, 0.0, 0.0, 0.0, 0.0, 0.0, 1.741115323590751E9, 0.0, 2025-03-04 13:08:43.590
21.0, -57526.84116683497, -50483.493564545344, -38723.078515896625, -47967.044766789055, -58693.19989600181, -53704.26818183281, -64505.77104160441, -59039.92015599253, 0.028, 0.964, -0.212, 192.0, 0.0, 224.0, 30.0, 32.0, 249.0, 96.0, 0.0, 0.0, 0.0, 1.74111532359079E9, 0.0, 2025-03-04 13:08:43.590
22.0, -57520.493271409665, -50478.44207029844, -38715.97066115984, -47961.9709207977, -58690.60709364499, -53704.849327188655, -64507.40271894965, -59042.64706881608, 0.028, 0.964, -0.212, 192.0, 0.0, 0.0, 0.0, 0.0, 0.0, 0.0, 0.0, 0.0, 0.0, 1.741115323590824E9, 0.0, 2025-03-04 13:08:43.590
23.0, -57517.38637893038, -50418.60645039159, -38710.069800623634, -47948.73868808016, -58688.57308489956, -53703.53057426579, -64501.14423050216, -59045.79866478428, 0.028, 0.964, -0.212, 192.0, 0.0, 0.0, 0.0, 0.0, 0.0, 0.0, 0.0, 0.0, 0.0, 1.741115323590862E9, 0.0, 2025-03-04 13:08:43.590
24.0, -57506.05404449154, -50413.510252655775, -38702.134931342, -47942.68136533277, -58677.33015743854, -53695.32748405069, -64494.41635542111, -59029.34778086517, 0.028, 0.964, -0.212, 192.0, 0.0, 0.0, 0.0, 0.0, 0.0, 0.0, 0.0, 0.0, 0.0, 1.741115323590893E9, 0.0, 2025-03-04 13:08:43.590
25.0, -57507.708073581234, -50460.426564267465, -38710.96387040184, -47960.62981613038, -58675.16203822637, -53702.56944925421, -64498.01498627842, -59027.51493781983, 0.028, 0.964, -0.212, 192.0, 0.0, 0.0, 0.0, 0.0, 0.0, 0.0, 0.0, 0.0, 0.0, 1.741115323590928E9, 0.0, 2025-03-04 13:08:43.590
26.0, -57511.86549804992, -50473.74820396283, -38717.04354489369, -47964.56372315451, -58675.81023881558, -53702.56944925421, -64511.69425388506, -59026.44205408598, 0.028, 0.964, -0.212, 192.0, 0.0, 0.0, 0.0, 0.0, 0.0, 0.0, 0.0, 0.0, 0.0, 1.741115323590959E9, 0.0, 2025-03-04 13:08:43.590
27.0, -57522.19200398827, -50416.86301432407, -38728.84526596609, -47960.406298685826, -58687.61195988798, -53712.314809836724, -64522.19957377906, -59042.62471707162, 0.028, 0.964, -0.212, 192.0, 0.0, 0.0, 0.0, 0.0, 0.0, 0.0, 0.0, 0.0, 0.0, 1.74111532359099E9, 0.0, 2025-03-04 13:08:43.590
28.0, -57525.38830344538, -50419.0981887696, -38738.300053870684, -47963.4237841873, -58687.9025325659, -53708.15738536804, -64529.262725026936, -59042.06592346024, 0.028, 0.964, -0.212, 192.0, 0.0, 0.0, 0.0, 0.0, 0.0, 0.0, 0.0, 0.0, 0.0, 1.741115323591021E9, 0.0, 2025-03-04 13:08:43.591
29.0, -57524.15895750034, -50463.62286372457, -38738.56827480415, -47969.01172030112, -58681.75580284069, -53698.94846665245, -64532.57078320632, -59031.96293496644, 0.028, 0.964, -0.212, 192.0, 0.0, 0.0, 0.0, 0.0, 0.0, 0.0, 0.0, 0.0, 0.0, 1.741115323591051E9, 0.0, 2025-03-04 13:08:43.591
30.0, -57534.66427739433, -50487.1145471471, -38748.69361504241, -47979.271171006105, -58690.920018067365, -53705.18460335548, -64528.838041882285, -59033.192280911484, 0.028, 0.964, -0.212, 192.0, 0.0, 0.0, 0.0, 0.0, 0.0, 0.0, 0.0, 0.0, 0.0, 1.741115323650535E9, 0.0, 2025-03-04 13:08:43.650
31.0, -57539.06757105203, -50445.31678501568, -38755.75676629028, -47980.321702995505, -58699.5030879382, -53712.78419647029, -64515.04701555336, -59041.171853682026, 0.03, 0.964, -0.20600000000000002, 192.0, 0.0, 240.0, 30.0, 32.0, 249.0, 144.0, 0.0, 0.0, 0.0, 1.74111532365061E9, 0.0, 2025-03-04 13:08:43.650
32.0, -57531.35621921495, -50422.89798532701, -38756.78494653523, -47976.007816315636, -58697.51378268168, -53707.39742605656, -64523.11599530173, -59037.662629802544, 0.03, 0.964, -0.20600000000000002, 192.0, 0.0, 0.0, 0.0, 0.0, 0.0, 0.0, 0.0, 0.0, 0.0, 1.74111532365066E9, 0.0, 2025-03-04 13:08:43.650
33.0, -57523.04137027757, -50462.05824161271, -38755.98028373483, -47981.70751115173, -58690.69650062281, -53700.11075736413, -64518.89151559967, -59030.97945821041, 0.03, 0.964, -0.20600000000000002, 192.0, 0.0, 0.0, 0.0, 0.0, 0.0, 0.0, 0.0, 0.0, 0.0, 1.741115323650691E9, 0.0, 2025-03-04 13:08:43.650
34.0, -57524.22601273371, -50488.1650791365, -38759.981245992334, -47987.317799010016, -58693.87044833547, -53704.357588810635, -64527.072254070314, -59034.06399894524, 0.03, 0.964, -0.20600000000000002, 192.0, 0.0, 0.0, 0.0, 0.0, 0.0, 0.0, 0.0, 0.0, 0.0, 1.741115323650722E9, 0.0, 2025-03-04 13:08:43.650
35.0, -57528.6293063914, -50449.2059885509, -38760.85296402609, -47983.54035419707, -58699.5030879382, -53708.64912374606, -64536.50469023045, -59039.94250773699, 0.03, 0.964, -0.20600000000000002, 192.0, 0.0, 0.0, 0.0, 0.0, 0.0, 0.0, 0.0, 0.0, 0.0, 1.741115323650753E9, 0.0, 2025-03-04 13:08:43.650
36.0, -57547.31536475603, -50422.22743299335, -38777.79558632321, -47995.722054925216, -58718.323256769574, -53723.13305415309, -64554.430789283615, -59056.21457770045, 0.03, 0.964, -0.20600000000000002, 192.0, 0.0, 0.0, 0.0, 0.0, 0.0, 0.0, 0.0, 0.0, 0.0, 1.741115323650791E9, 0.0, 2025-03-04 13:08:43.650
37.0, -57540.29691699707, -50460.96300613439, -38777.594420623114, -48003.612220717936, -58712.310637511095, -53720.60730702965, -64553.00027763847, -59054.85112128867, 0.03, 0.964, -0.20600000000000002, 192.0, 0.0, 0.0, 0.0, 0.0, 0.0, 0.0, 0.0, 0.0, 0.0, 1.741115323650822E9, 0.0, 2025-03-04 13:08:43.650
38.0, -57532.29499248207, -50495.5188030623, -38772.54292637622, -48011.8823661664, -58706.38742523044, -53717.992152928375, -64555.86130092875, -59056.01341200035, 0.03, 0.964, -0.20600000000000002, 192.0, 0.0, 0.0, 0.0, 0.0, 0.0, 0.0, 0.0, 0.0, 0.0, 1.74111532365086E9, 0.0, 2025-03-04 13:08:43.650
39.0, -57534.79838786106, -50462.34881429062, -38766.10562397309, -47991.229354289695, -58706.655646163905, -53712.44892030346, -64551.48035901551, -59045.016353728344, 0.03, 0.964, -0.20600000000000002, 192.0, 0.0, 0.0, 0.0, 0.0, 0.0, 0.0, 0.0, 0.0, 0.0, 1.741115323650891E9, 0.0, 2025-03-04 13:08:43.650
40.0, -57543.94025134329, -50416.30422071269, -38771.738263575826, -47982.6239326744, -58718.4126637474, -53716.06990290522, -64575.21791162705, -59048.34676365218, 0.03, 0.964, -0.20600000000000002, 192.0, 0.0, 0.0, 0.0, 0.0, 0.0, 0.0, 0.0, 0.0, 0.0, 1.741115323650936E9, 0.0, 2025-03-04 13:08:43.650
41.0, -57530.79742560357, -50442.00872683629, -38759.087176214125, -47980.54522044006, -58698.877239093454, -53702.34593180966, -64536.39293150818, -59030.28655413229, 0.032, 0.962, -0.20600000000000002, 192.0, 1.0, 0.0, 30.0, 16.0, 249.0, 144.0, 0.0, 0.0, 0.0, 1.741115323650973E9, 0.0, 2025-03-04 13:08:43.650
42.0, -57535.26777449463, -50484.23117211237, -38754.885048256525, -47988.860069377435, -58691.344701212016, -53706.793928956264, -64509.615541650724, -59035.31569663474, 0.032, 0.962, -0.20600000000000002, 192.0, 0.0, 0.0, 0.0, 0.0, 0.0, 0.0, 0.0, 0.0, 0.0, 1.741115323651002E9, 0.0, 2025-03-04 13:08:43.651
43.0, -57542.19681527577, -50478.97851216537, -38754.63917906752, -47989.66473217782, -58698.407852459895, -53714.05824590424, -64523.13834704618, -59048.05619097426, 0.032, 0.962, -0.20600000000000002, 192.0, 0.0, 0.0, 0.0, 0.0, 0.0, 0.0, 0.0, 0.0, 0.0, 1.741115323651028E9, 0.0, 2025-03-04 13:08:43.651
44.0, -57541.59331817547, -50419.20994749188, -38749.67709179844, -47978.06417680552, -58703.74991938471, -53713.946487181965, -64554.497844516976, -59050.64899333108, 0.032, 0.962, -0.20600000000000002, 192.0, 0.0, 0.0, 0.0, 0.0, 0.0, 0.0, 0.0, 0.0, 0.0, 1.741115323651055E9, 0.0, 2025-03-04 13:08:43.651
45.0, -57538.57583267401, -50438.8571308681, -38744.536190573715, -47975.76194712662, -58701.87237285047, -53706.63746674508, -64547.90407990266, -59043.07175196073, 0.032, 0.962, -0.20600000000000002, 192.0, 0.0, 0.0, 0.0, 0.0, 0.0, 0.0, 0.0, 0.0, 0.0, 1.741115323711193E9, 0.0, 2025-03-04 13:08:43.711
46.0, -57520.359160942935, -50469.70253821642, -38724.263158352755, -47960.272188219096, -58686.60613138749, -53687.1243938356, -64523.026588323904, -59021.949353450465, 0.032, 0.962, -0.20600000000000002, 192.0, 0.0, 0.0, 0.0, 0.0, 0.0, 0.0, 0.0, 0.0, 0.0, 1.741115323711268E9, 0.0, 2025-03-04 13:08:43.711
47.0, -57525.2765447231, -50465.098078858624, -38722.452667051875, -47955.75713583912, -58690.69650062281, -53687.1243938356, -64519.33855048878, -59032.275859388814, 0.032, 0.962, -0.20600000000000002, 192.0, 0.0, 0.0, 0.0, 0.0, 0.0, 0.0, 0.0, 0.0, 0.0, 1.741115323711304E9, 0.0, 2025-03-04 13:08:43.711
48.0, -57524.404826689344, -50407.855261308585, -38720.93274842892, -47946.74938282363, -58690.852962834004, -53687.81729791371, -64501.926541558096, -59036.23211815741, 0.032, 0.962, -0.20600000000000002, 192.0, 0.0, 0.0, 0.0, 0.0, 0.0, 0.0, 0.0, 0.0, 0.0, 1.74111532371133E9, 0.0, 2025-03-04 13:08:43.711
49.0, -57522.70609411074, -50415.052523023194, -38725.40309731998, -47945.25181594513, -58690.07065177806, -53683.14578332255, -64511.87306784071, -59028.54311806478, 0.032, 0.962, -0.20600000000000002, 192.0, 0.0, 0.0, 0.0, 0.0, 0.0, 0.0, 0.0, 0.0, 0.0, 1.741115323711356E9, 0.0, 2025-03-04 13:08:43.711
50.0, -57526.28237322359, -50465.50041025882, -38734.52260905774, -47962.417955686804, -58693.75868961319, -53689.69484444796, -64523.69714065757, -59036.902670491065, 0.032, 0.962, -0.20600000000000002, 192.0, 0.0, 0.0, 0.0, 0.0, 0.0, 0.0, 0.0, 0.0, 0.0, 1.741115323711377E9, 0.0, 2025-03-04 13:08:43.711
51.0, -57520.29210570957, -50478.35266332063, -38733.0920974126, -47966.46362143321, -58688.59543664401, -53684.95627462343, -64534.068350084824, -59032.94641172248, 0.032, 0.9560000000000001, -0.20800000000000002, 192.0, 1.0, 0.0, 29.0, 224.0, 249.0, 128.0, 0.0, 0.0, 0.0, 1.741115323711402E9, 0.0, 2025-03-04 13:08:43.711
52.0, -57514.5253556401, -50410.090435754115, -38730.74516424479, -47955.95830153922, -58687.88018082144, -53685.35860602363, -64545.64655371268, -59034.309868134245, 0.032, 0.9560000000000001, -0.20800000000000002, 192.0, 0.0, 0.0, 0.0, 0.0, 0.0, 0.0, 0.0, 0.0, 0.0, 1.741115323711425E9, 0.0, 2025-03-04 13:08:43.711
53.0, -57517.967524286214, -50406.15652872998, -38740.2446556383, -47965.41308944382, -58693.75868961319, -53698.88141141909, -64530.022684338415, -59044.50226360587, 0.032, 0.9560000000000001, -0.20800000000000002, 192.0, 0.0, 0.0, 0.0, 0.0, 0.0, 0.0, 0.0, 0.0, 0.0, 1.741115323711455E9, 0.0, 2025-03-04 13:08:43.711
54.0, -57516.38055042989, -50452.804619408205, -38742.233960894824, -47978.26534250562, -58693.04343379062, -53704.782271955286, -64536.43763499709, -59047.653859574064, 0.032, 0.9560000000000001, -0.20800000000000002, 192.0, 0.0, 0.0, 0.0, 0.0, 0.0, 0.0, 0.0, 0.0, 0.0, 1.741115323711476E9, 0.0, 2025-03-04 13:08:43.711
55.0, -57522.70609411074, -50475.871619686084, -38749.855905754084, -47990.804671145044, -58698.89959083791, -53714.81820521572, -64540.639762954685, -59056.01341200035, 0.032, 0.9560000000000001, -0.20800000000000002, 192.0, 0.0, 0.0, 0.0, 0.0, 0.0, 0.0, 0.0, 0.0, 0.0, 1.741115323711498E9, 0.0, 2025-03-04 13:08:43.711
56.0, -57521.34263769897, -50419.522871914254, -38746.68195804143, -47979.58409542848, -58699.57014317157, -53717.567469783724, -64541.690294944085, -59058.49445563489, 0.032, 0.9560000000000001, -0.20800000000000002, 192.0, 0.0, 0.0, 0.0, 0.0, 0.0, 0.0, 0.0, 0.0, 0.0, 1.74111532371152E9, 0.0, 2025-03-04 13:08:43.711
57.0, -57527.846995335465, -50402.6473048505, -38757.79077503571, -47987.13898505438, -58707.57206768657, -53723.84830997566, -64561.87392018723, -59062.897749292584, 0.032, 0.9560000000000001, -0.20800000000000002, 192.0, 0.0, 0.0, 0.0, 0.0, 0.0, 0.0, 0.0, 0.0, 0.0, 1.741115323711542E9, 0.0, 2025-03-04 13:08:43.711
58.0, -57526.796463346065, -50449.943596117926, -38763.199897193896, -47999.81242416053, -58706.56623918608, -53722.97659194191, -64557.62708874072, -59060.93079578052, 0.032, 0.9560000000000001, -0.20800000000000002, 192.0, 0.0, 0.0, 0.0, 0.0, 0.0, 0.0, 0.0, 0.0, 0.0, 1.741115323711564E9, 0.0, 2025-03-04 13:08:43.711
59.0, -57517.632248119386, -50479.24673309884, -38757.00846397978, -47999.477147993704, -58699.07840479355, -53715.466405804924, -64545.71360894604, -59053.64412708809, 0.032, 0.9560000000000001, -0.20800000000000002, 192.0, 0.0, 0.0, 0.0, 0.0, 0.0, 0.0, 0.0, 0.0, 0.0, 1.741115323711585E9, 0.0, 2025-03-04 13:08:43.711
60.0, -57527.7799401021, -50444.24390128183, -38764.69746407241, -48000.393569516375, -58711.46127122179, -53724.071827420215, -64554.408437539154, -59066.40697317207, 0.032, 0.9560000000000001, -0.20800000000000002, 192.0, 0.0, 0.0, 0.0, 0.0, 0.0, 0.0, 0.0, 0.0, 0.0, 1.741115323771002E9, 0.0, 2025-03-04 13:08:43.771
61.0, -57533.18906226028, -50411.20802297688, -38770.91124903098, -47998.49367123767, -58715.19401254583, -53726.508167565844, -64569.00412666847, -59068.75390633988, 0.032, 0.9580000000000001, -0.216, 192.0, 1.0, 0.0, 29.0, 240.0, 249.0, 64.0, 0.0, 0.0, 0.0, 1.741115323771087E9, 0.0, 2025-03-04 13:08:43.771
62.0, -57533.81491110503, -50451.955253118904, -38773.59345836562, -48004.372180029415, -58715.305771268104, -53725.547042554266, -64572.334536592316, -59066.94341503899, 0.032, 0.9580000000000001, -0.216, 192.0, 0.0, 0.0, 0.0, 0.0, 0.0, 0.0, 0.0, 0.0, 0.0, 1.741115323771125E9, 0.0, 2025-03-04 13:08:43.771
63.0, -57535.603050661455, -50495.09411991765, -38771.805318809194, -48014.78809294559, -58712.89178286694, -53726.508167565844, -64553.15673984966, -59062.49541789239, 0.032, 0.9580000000000001, -0.216, 192.0, 0.0, 0.0, 0.0, 0.0, 0.0, 0.0, 0.0, 0.0, 0.0, 1.741115323771151E9, 0.0, 2025-03-04 13:08:43.771
64.0, -57530.14922501436, -50459.532494489256, -38764.608057094585, -48005.713284696736, -58711.79654738862, -53721.61313553013, -64564.93610917761, -59060.14848472458, 0.032, 0.9580000000000001, -0.216, 192.0, 0.0, 0.0, 0.0, 0.0, 0.0, 0.0, 0.0, 0.0, 0.0, 1.741115323771177E9, 0.0, 2025-03-04 13:08:43.771
65.0, -57529.34456221397, -50409.799863076194, -38765.27860942824, -47992.16812755682, -58718.27855328066, -53720.160272140536, -64580.60468204078, -59058.80738005727, 0.032, 0.9580000000000001, -0.216, 192.0, 0.0, 0.0, 0.0, 0.0, 0.0, 0.0, 0.0, 0.0, 0.0, 1.741115323771204E9, 0.0, 2025-03-04 13:08:43.771
66.0, -57528.00345754665, -50439.75120064631, -38762.641103582515, -47997.46549099273, -58714.32229451207, -53718.19331862847, -64552.2850218159, -59055.47697013342, 0.032, 0.9580000000000001, -0.216, 192.0, 0.0, 0.0, 0.0, 0.0, 0.0, 0.0, 0.0, 0.0, 0.0, 1.741115323771234E9, 0.0, 2025-03-04 13:08:43.771
67.0, -57529.97041105872, -50487.74039599185, -38757.07551921315, -48001.62291546141, -58707.86264036449, -53713.96883892642, -64540.237431554495, -59051.05132473127, 0.032, 0.9580000000000001, -0.216, 192.0, 0.0, 0.0, 0.0, 0.0, 0.0, 0.0, 0.0, 0.0, 0.0, 1.741115323771258E9, 0.0, 2025-03-04 13:08:43.771
68.0, -57540.96746933073, -50484.14176513455, -38758.50603085828, -48001.444101505775, -58711.52832645516, -53718.03685641728, -64547.41234152464, -59055.16404571105, 0.032, 0.9580000000000001, -0.216, 192.0, 0.0, 0.0, 0.0, 0.0, 0.0, 0.0, 0.0, 0.0, 0.0, 1.741115323771283E9, 0.0, 2025-03-04 13:08:43.771
69.0, -57531.60208840395, -50428.01653480727, -38747.77719351974, -47981.28282800708, -58706.11920429698, -53710.75018772486, -64544.59602172328, -59049.33024040821, 0.032, 0.9580000000000001, -0.216, 192.0, 0.0, 0.0, 0.0, 0.0, 0.0, 0.0, 0.0, 0.0, 0.0, 1.741115323771305E9, 0.0, 2025-03-04 13:08:43.771
70.0, -57525.72357961221, -50439.3041657572, -38744.871466740544, -47973.906752336836, -58703.19112577333, -53709.65495224654, -64546.518271746434, -59052.99592649889, 0.032, 0.9580000000000001, -0.216, 192.0, 0.0, 0.0, 0.0, 0.0, 0.0, 0.0, 0.0, 0.0, 0.0, 1.741115323771327E9, 0.0, 2025-03-04 13:08:43.771
71.0, -57514.7265213402, -50476.452765041926, -38734.835533480116, -47974.57730467049, -58691.679977378844, -53702.614152743125, -64532.43667273959, -59043.65289731657, 0.026000000000000002, 0.962, -0.22, 192.0, 0.0, 208.0, 30.0, 16.0, 249.0, 32.0, 0.0, 0.0, 0.0, 1.741115323771348E9, 0.0, 2025-03-04 13:08:43.771
72.0, -57519.62155337591, -50475.17871560797, -38735.97547244734, -47975.359615726426, -58694.94333206932, -53709.00675165734, -64533.598963451266, -59052.280670676315, 0.026000000000000002, 0.962, -0.22, 192.0, 0.0, 0.0, 0.0, 0.0, 0.0, 0.0, 0.0, 0.0, 0.0, 1.741115323771372E9, 0.0, 2025-03-04 13:08:43.771
73.0, -57529.34456221397, -50422.29448822671, -38743.552713817684, -47974.59965641495, -58701.067710050076, -53714.974667426904, -64544.484263001, -59067.54691213929, 0.026000000000000002, 0.962, -0.22, 192.0, 0.0, 0.0, 0.0, 0.0, 0.0, 0.0, 0.0, 0.0, 0.0, 1.741115323771394E9, 0.0, 2025-03-04 13:08:43.771
74.0, -57522.90725981084, -50428.01653480727, -38743.23978939531, -47974.13026978139, -58692.7528611127, -53702.614152743125, -64547.21117582455, -59058.986194012905, 0.026000000000000002, 0.962, -0.22, 192.0, 0.0, 0.0, 0.0, 0.0, 0.0, 0.0, 0.0, 0.0, 0.0, 1.741115323771416E9, 0.0, 2025-03-04 13:08:43.771
75.0, -57525.2765447231, -50471.267160328294, -38747.03958595271, -47987.518964710114, -58690.920018067365, -53703.798795199255, -64546.33945779079, -59040.65776355955, 0.026000000000000002, 0.962, -0.22, 192.0, 0.0, 0.0, 0.0, 0.0, 0.0, 0.0, 0.0, 0.0, 0.0, 1.741115323831363E9, 0.0, 2025-03-04 13:08:43.831
76.0, -57537.01121056214, -50490.914343704506, -38763.22224893836, -48009.69189520978, -58707.79558513112, -53721.38961808558, -64588.181923411124, -59058.62856610162, 0.026000000000000002, 0.962, -0.22, 192.0, 0.0, 0.0, 0.0, 0.0, 0.0, 0.0, 0.0, 0.0, 0.0, 1.741115323831398E9, 0.0, 2025-03-04 13:08:43.831
77.0, -57541.52626294211, -50441.494636713825, -38771.71591183137, -48009.35661904295, -58716.780986402155, -53729.14567341157, -64597.25673165998, -59070.22912147392, 0.026000000000000002, 0.962, -0.22, 192.0, 0.0, 0.0, 0.0, 0.0, 0.0, 0.0, 0.0, 0.0, 0.0, 1.741115323831423E9, 0.0, 2025-03-04 13:08:43.831
78.0, -57540.87806235291, -50433.023325565264, -38776.18626072243, -48012.39645628887, -58710.969532843774, -53727.290478621784, -64560.10813237526, -59063.948281281984, 0.026000000000000002, 0.962, -0.22, 192.0, 0.0, 0.0, 0.0, 0.0, 0.0, 0.0, 0.0, 0.0, 0.0, 1.741115323831452E9, 0.0, 2025-03-04 13:08:43.831
79.0, -57534.35135297196, -50476.98920690885, -38775.11337698858, -48022.49944478267, -58703.995788573724, -53721.72489425241, -64540.55035597687, -59052.50418812087, 0.026000000000000002, 0.962, -0.22, 192.0, 0.0, 0.0, 0.0, 0.0, 0.0, 0.0, 0.0, 0.0, 0.0, 1.741115323831473E9, 0.0, 2025-03-04 13:08:43.831
80.0, -57537.50294894016, -50498.55864030822, -38781.99771428081, -48026.23218610671, -58712.62356193347, -53726.68698152149, -64553.71553346104, -59061.26607194735, 0.026000000000000002, 0.962, -0.22, 192.0, 0.0, 0.0, 0.0, 0.0, 0.0, 0.0, 0.0, 0.0, 0.0, 1.741115323831494E9, 0.0, 2025-03-04 13:08:43.831
81.0, -57548.187082789795, -50456.3585467766, -38788.18914749493, -48025.69574423978, -58720.357265515006, -53737.214653159936, -64564.08674288831, -59069.60327262918, 0.03, 0.962, -0.22, 192.0, 0.0, 240.0, 30.0, 16.0, 249.0, 32.0, 0.0, 0.0, 0.0, 1.741115323831519E9, 0.0, 2025-03-04 13:08:43.831
82.0, -57544.275527510115, -50428.70943888539, -38787.22802248335, -48019.30314532556, -58719.53025097016, -53731.96199321294, -64565.51725453344, -59066.69754584999, 0.03, 0.962, -0.22, 192.0, 0.0, 0.0, 0.0, 0.0, 0.0, 0.0, 0.0, 0.0, 0.0, 1.741115323831544E9, 0.0, 2025-03-04 13:08:43.831
83.0, -57531.31151572603, -50461.87942765706, -38778.801414823705, -48014.81044469005, -58710.701311910314, -53718.260373861835, -64556.10717011776, -59054.29232767729, 0.03, 0.962, -0.22, 192.0, 0.0, 0.0, 0.0, 0.0, 0.0, 0.0, 0.0, 0.0, 0.0, 1.741115323831566E9, 0.0, 2025-03-04 13:08:43.831
84.0, -57533.18906226028, -50489.796756481745, -38774.84515605511, -48015.81627319053, -58705.739224641235, -53717.701580250454, -64541.9361641331, -59054.225272443924, 0.03, 0.962, -0.22, 192.0, 0.0, 0.0, 0.0, 0.0, 0.0, 0.0, 0.0, 0.0, 0.0, 1.74111532383159E9, 0.0, 2025-03-04 13:08:43.831
85.0, -57536.653582650855, -50451.7093839299, -38770.263048441775, -48007.16614808633, -58708.689654909336, -53718.908574451045, -64553.78258869441, -59057.6897928345, 0.03, 0.962, -0.22, 192.0, 0.0, 0.0, 0.0, 0.0, 0.0, 0.0, 0.0, 0.0, 0.0, 1.741115323831612E9, 0.0, 2025-03-04 13:08:43.831
86.0, -57533.90431808285, -50414.82900557864, -38766.77617630675, -47997.39843575936, -58707.72852989776, -53715.466405804924, -64548.418170025136, -59058.092124234696, 0.03, 0.962, -0.22, 192.0, 0.0, 0.0, 0.0, 0.0, 0.0, 0.0, 0.0, 0.0, 0.0, 1.741115323831632E9, 0.0, 2025-03-04 13:08:43.831
87.0, -57531.60208840395, -50454.57040722018, -38766.10562397309, -48000.97471487221, -58701.47004145027, -53709.63260050209, -64536.750559419466, -59052.86181603216, 0.03, 0.962, -0.22, 192.0, 0.0, 0.0, 0.0, 0.0, 0.0, 0.0, 0.0, 0.0, 0.0, 1.741115323831654E9, 0.0, 2025-03-04 13:08:43.831
88.0, -57528.6293063914, -50484.87937270157, -38758.7519000473, -47999.18657531578, -58696.016215803174, -53702.39063529857, -64531.207326794545, -59044.12228395013, 0.03, 0.962, -0.22, 192.0, 0.0, 0.0, 0.0, 0.0, 0.0, 0.0, 0.0, 0.0, 0.0, 1.741115323831675E9, 0.0, 2025-03-04 13:08:43.831
89.0, -57540.78865537509, -50472.585913251154, -38763.66928382746, -48003.96984862922, -58706.90151535291, -53708.87264119061, -64548.50757700296, -59049.889034019594, 0.03, 0.962, -0.22, 192.0, 0.0, 0.0, 0.0, 0.0, 0.0, 0.0, 0.0, 0.0, 0.0, 1.741115323831698E9, 0.0, 2025-03-04 13:08:43.831
90.0, -57542.55444318706, -50418.51704341377, -38759.86948727006, -47990.69291242277, -58708.62259967597, -53710.54902202476, -64540.97503912152, -59050.20195844197, 0.03, 0.962, -0.22, 192.0, 0.0, 0.0, 0.0, 0.0, 0.0, 0.0, 0.0, 0.0, 0.0, 1.741115323891497E9, 0.0, 2025-03-04 13:08:43.891
91.0, -57544.901376354865, -50447.619014694574, -38762.19406869341, -47997.71136018173, -58708.77906188716, -53712.78419647029, -64543.92546938962, -59051.94539450949, 0.028, 0.96, -0.218, 192.0, 0.0, 224.0, 30.0, 0.0, 249.0, 48.0, 0.0, 0.0, 0.0, 1.741115323891534E9, 0.0, 2025-03-04 13:08:43.891
92.0, -57545.34841124397, -50486.153422135525, -38762.931676260436, -47999.79007241608, -58710.8577741215, -53715.30994359374, -64555.01193463945, -59054.69465907749, 0.028, 0.96, -0.218, 192.0, 0.0, 0.0, 0.0, 0.0, 0.0, 0.0, 0.0, 0.0, 0.0, 1.74111532389156E9, 0.0, 2025-03-04 13:08:43.891
93.0, -57532.317344226525, -50466.08155561466, -38755.10856570108, -47987.34015075447, -58705.1580792854, -53711.711312736436, -64552.955574149564, -59051.61011834266, 0.028, 0.96, -0.218, 192.0, 0.0, 0.0, 0.0, 0.0, 0.0, 0.0, 0.0, 0.0, 0.0, 1.741115323891587E9, 0.0, 2025-03-04 13:08:43.891
94.0, -57537.52530068461, -50412.77264508875, -38757.880182013534, -47978.846487861454, -58707.080329308556, -53715.64521976057, -64557.04594338488, -59058.62856610162, 0.028, 0.96, -0.218, 192.0, 0.0, 0.0, 0.0, 0.0, 0.0, 0.0, 0.0, 0.0, 0.0, 1.741115323891609E9, 0.0, 2025-03-04 13:08:43.891
95.0, -57532.09382678197, -50428.910604585486, -38754.30390290069, -47976.20898201573, -58697.93846582633, -53709.76671096882, -64541.265611799434, -59050.604289842166, 0.028, 0.96, -0.218, 192.0, 0.0, 0.0, 0.0, 0.0, 0.0, 0.0, 0.0, 0.0, 0.0, 1.741115323891631E9, 0.0, 2025-03-04 13:08:43.891
96.0, -57531.28916398158, -50472.742375462345, -38751.37582437704, -47980.947551840254, -58695.546829169616, -53707.017446400816, -64547.09941710227, -59050.02314448633, 0.028, 0.96, -0.218, 192.0, 0.0, 0.0, 0.0, 0.0, 0.0, 0.0, 0.0, 0.0, 0.0, 1.741115323891653E9, 0.0, 2025-03-04 13:08:43.891
97.0, -57528.115216268925, -50476.47511678638, -38746.45844059687, -47977.3712727274, -58689.35539595549, -53702.323580065204, -64542.07027459983, -59045.97747873992, 0.028, 0.96, -0.218, 192.0, 0.0, 0.0, 0.0, 0.0, 0.0, 0.0, 0.0, 0.0, 0.0, 1.741115323891678E9, 0.0, 2025-03-04 13:08:43.891
98.0, -57529.456320936246, -50417.019476535264, -38747.46426909736, -47970.39752845735, -58692.596398901514, -53701.831841687184, -64543.791358922885, -59043.65289731657, 0.028, 0.96, -0.218, 192.0, 0.0, 0.0, 0.0, 0.0, 0.0, 0.0, 0.0, 0.0, 0.0, 1.741115323891699E9, 0.0, 2025-03-04 13:08:43.891
99.0, -57526.81881509052, -50416.05835152369, -38747.93365573092, -47967.4247464448, -58690.83061108954, -53695.618056728614, -64548.976963636516, -59040.79187402629, 0.028, 0.96, -0.218, 192.0, 0.0, 0.0, 0.0, 0.0, 0.0, 0.0, 0.0, 0.0, 0.0, 1.741115323891724E9, 0.0, 2025-03-04 13:08:43.891
100.0, -57529.63513489189, -50464.94161664744, -38752.6945772999, -47980.187592528775, -58692.529343668146, -53696.467423017915, -64562.7903417099, -59046.42451362903, 0.028, 0.96, -0.218, 192.0, 0.0, 0.0, 0.0, 0.0, 0.0, 0.0, 0.0, 0.0, 0.0, 1.741115323891745E9, 0.0, 2025-03-04 13:08:43.891
101.0, -57532.585565159985, -50483.784137223265, -38755.1979726789, -47989.620028688914, -58695.94916056981, -53699.7754811973, -64575.10615290477, -59049.30788866376, 0.02, 0.96, -0.214, 192.0, 0.0, 160.0, 30.0, 0.0, 249.0, 80.0, 0.0, 0.0, 0.0, 1.741115323891766E9, 0.0, 2025-03-04 13:08:43.891
102.0, -57540.363972230436, -50428.687087140934, -38762.97637974934, -47990.40233974485, -58704.107547296, -53710.05728364674, -64567.75242897897, -59051.386600898106, 0.02, 0.96, -0.214, 192.0, 0.0, 0.0, 0.0, 0.0, 0.0, 0.0, 0.0, 0.0, 0.0, 1.74111532389179E9, 0.0, 2025-03-04 13:08:43.891
103.0, -57538.06174255154, -50417.89119456902, -38767.759653062785, -47990.49174672267, -58701.402986216905, -53706.01161790033, -64549.40164678117, -59046.335106651204, 0.02, 0.96, -0.214, 192.0, 0.0, 0.0, 0.0, 0.0, 0.0, 0.0, 0.0, 0.0, 0.0, 1.741115323891811E9, 0.0, 2025-03-04 13:08:43.891
104.0, -57537.01121056214, -50462.81820092419, -38773.03466475423, -47999.343037526975, -58700.39715771642, -53704.31288532173, -64543.1878618226, -59045.0387054728, 0.02, 0.96, -0.214, 192.0, 0.0, 0.0, 0.0, 0.0, 0.0, 0.0, 0.0, 0.0, 0.0, 1.741115323891832E9, 0.0, 2025-03-04 13:08:43.891
105.0, -57532.25028899316, -50486.04166341325, -38774.152251977, -48001.64526720587, -58700.53126818315, -53707.48683303438, -64534.716550674035, -59049.129074708115, 0.02, 0.96, -0.214, 192.0, 0.0, 0.0, 0.0, 0.0, 0.0, 0.0, 0.0, 0.0, 0.0, 1.741115323950875E9, 0.0, 2025-03-04 13:08:43.950
106.0, -57536.20654776175, -50437.8065988787, -38776.275667700254, -47999.92418288281, -58707.773233386666, -53715.824033716206, -64557.80590269637, -59059.83556030221, 0.02, 0.96, -0.214, 192.0, 0.0, 0.0, 0.0, 0.0, 0.0, 0.0, 0.0, 0.0, 0.0, 1.741115323950951E9, 0.0, 2025-03-04 13:08:43.950
107.0, -57541.23569026419, -50421.355714959594, -38781.55067939171, -48005.31095329654, -58712.28828576664, -53718.841519217676, -64599.53660959442, -59064.57413012673, 0.02, 0.96, -0.214, 192.0, 0.0, 0.0, 0.0, 0.0, 0.0, 0.0, 0.0, 0.0, 0.0, 1.741115323950979E9, 0.0, 2025-03-04 13:08:43.950
108.0, -57532.585565159985, -50456.7608781768, -38768.47490888535, -48000.192403816276, -58696.798526859115, -53709.878469691095, -64549.58046073681, -59047.20682468496, 0.02, 0.96, -0.214, 192.0, 0.0, 0.0, 0.0, 0.0, 0.0, 0.0, 0.0, 0.0, 0.0, 1.741115323951014E9, 0.0, 2025-03-04 13:08:43.951
109.0, -57538.37466697391, -50491.49548906035, -38768.63137109654, -48008.35079054246, -58698.22903850425, -53715.91344069403, -64527.988675592984, -59051.520711364836, 0.02, 0.96, -0.214, 192.0, 0.0, 0.0, 0.0, 0.0, 0.0, 0.0, 0.0, 0.0, 0.0, 1.741115323951035E9, 0.0, 2025-03-04 13:08:43.951
110.0, -57547.3824199894, -50463.10877360211, -38775.0016182663, -48003.70162769576, -58709.85194562101, -53721.92605995251, -64570.47934180252, -59062.562473125756, 0.02, 0.96, -0.214, 192.0, 0.0, 0.0, 0.0, 0.0, 0.0, 0.0, 0.0, 0.0, 0.0, 1.741115323951061E9, 0.0, 2025-03-04 13:08:43.951
111.0, -57546.7342194002, -50424.88729058353, -38773.14642347651, -47994.98444735819, -58707.773233386666, -53719.3779610846, -64549.91573690364, -59055.32050792224, 0.028, 0.962, -0.214, 192.0, 0.0, 224.0, 30.0, 16.0, 249.0, 80.0, 0.0, 0.0, 0.0, 1.741115323951083E9, 0.0, 2025-03-04 13:08:43.951
112.0, -57535.044257050075, -50455.21860780938, -38764.33983616112, -47995.05150259155, -58694.831573347044, -53707.933867923486, -64529.173318049114, -59046.5362723513, 0.028, 0.962, -0.214, 192.0, 0.0, 0.0, 0.0, 0.0, 0.0, 0.0, 0.0, 0.0, 0.0, 1.741115323951109E9, 0.0, 2025-03-04 13:08:43.951
113.0, -57536.11714078393, -50492.3672070941, -38763.91515301647, -48004.103959095955, -58694.47394543576, -53708.49266153487, -64538.3822367647, -59047.944432251985, 0.028, 0.962, -0.214, 192.0, 0.0, 0.0, 0.0, 0.0, 0.0, 0.0, 0.0, 0.0, 0.0, 1.74111532395113E9, 0.0, 2025-03-04 13:08:43.951
114.0, -57540.96746933073, -50477.771517964786, -38761.25529542629, -48002.53933698408, -58693.088137279534, -53710.794891213765, -64529.08391107129, -59050.89486252009, 0.028, 0.962, -0.214, 192.0, 0.0, 0.0, 0.0, 0.0, 0.0, 0.0, 0.0, 0.0, 0.0, 1.741115323951155E9, 0.0, 2025-03-04 13:08:43.951
115.0, -57555.56315846004, -50439.3041657572, -38768.96664726337, -48002.002895117155, -58705.1580792854, -53720.987286685384, -64548.127597347215, -59065.08822024921, 0.028, 0.962, -0.214, 192.0, 0.0, 0.0, 0.0, 0.0, 0.0, 0.0, 0.0, 0.0, 0.0, 1.741115323951176E9, 0.0, 2025-03-04 13:08:43.951
116.0, -57544.81196937704, -50465.96979689239, -38762.81991753816, -47998.96305787123, -58697.625541403955, -53709.72200747991, -64547.65821071366, -59057.82390330123, 0.028, 0.962, -0.214, 192.0, 0.0, 0.0, 0.0, 0.0, 0.0, 0.0, 0.0, 0.0, 0.0, 1.741115323951197E9, 0.0, 2025-03-04 13:08:43.951
117.0, -57526.640001134874, -50494.4682710729, -38745.89964698549, -47986.98252284319, -58682.672224363356, -53692.46646076041, -64543.25491705596, -59043.94346999448, 0.028, 0.962, -0.214, 192.0, 0.0, 0.0, 0.0, 0.0, 0.0, 0.0, 0.0, 0.0, 0.0, 1.741115323951219E9, 0.0, 2025-03-04 13:08:43.951
118.0, -57530.9315360703, -50486.17577387998, -38748.06776619766, -47983.78622338608, -58687.16492499888, -53700.26721957532, -64546.11594034624, -59051.00662124236, 0.028, 0.962, -0.214, 192.0, 0.0, 0.0, 0.0, 0.0, 0.0, 0.0, 0.0, 0.0, 0.0, 1.74111532395124E9, 0.0, 2025-03-04 13:08:43.951
119.0, -57543.04618156507, -50429.536453430235, -38756.4496703684, -47980.947551840254, -58696.016215803174, -53709.69965573546, -64550.87686191522, -59059.85791204667, 0.028, 0.962, -0.214, 192.0, 0.0, 0.0, 0.0, 0.0, 0.0, 0.0, 0.0, 0.0, 0.0, 1.741115323951261E9, 0.0, 2025-03-04 13:08:43.951
120.0, -57550.37755374641, -50445.182674548945, -38769.52544087475, -47991.05054033406, -58704.80045137411, -53711.39838831406, -64579.46474307356, -59067.54691213929, 0.028, 0.962, -0.214, 192.0, 0.0, 0.0, 0.0, 0.0, 0.0, 0.0, 0.0, 0.0, 0.0, 1.741115324010673E9, 0.0, 2025-03-04 13:08:44.010
121.0, -57541.615669919935, -50488.9697419369, -38770.28540018623, -48002.762854428634, -58704.04049206263, -53708.78323421279, -64589.92535947864, -59066.58578712771, 0.028, 0.962, -0.218, 192.0, 0.0, 224.0, 30.0, 16.0, 249.0, 48.0, 0.0, 0.0, 0.0, 1.741115324010716E9, 0.0, 2025-03-04 13:08:44.010
122.0, -57526.9752773017, -50487.360416336116, -38755.443841867906, -47993.039845590574, -58688.103698266, -53699.9766468974, -64531.94493436157, -59048.436170630004, 0.028, 0.962, -0.218, 192.0, 0.0, 0.0, 0.0, 0.0, 0.0, 0.0, 0.0, 0.0, 0.0, 1.741115324010749E9, 0.0, 2025-03-04 13:08:44.010
123.0, -57536.497120439664, -50431.65986915349, -38761.65762682648, -47989.754139155644, -58694.988035558235, -53705.832803944686, -64546.49592000198, -59053.331202665715, 0.028, 0.962, -0.218, 192.0, 0.0, 0.0, 0.0, 0.0, 0.0, 0.0, 0.0, 0.0, 0.0, 1.741115324010776E9, 0.0, 2025-03-04 13:08:44.010
