%OpenBCI Raw EXG Data
%Number of channels = 16
%Sample Rate = 125 Hz
%Board = OpenBCI_GUI$BoardCytonSerialDaisy
Sample Index, EXG Channel 0, EXG Channel 1, EXG Channel 2, EXG Channel 3, EXG Channel 4, EXG Channel 5, EXG Channel 6, EXG Channel 7, EXG Channel 8, EXG Channel 9, EXG Channel 10, EXG Channel 11, EXG Channel 12, EXG Channel 13, EXG Channel 14, EXG Channel 15, Accel Channel 0, Accel Channel 1, Accel Channel 2, Not Used, Digital Channel 0 (D11), Digital Channel 1 (D12), Digital Channel 2 (D13), Digital Channel 3 (D17), Not Used, Digital Channel 4 (D18), Analog Channel 0, Analog Channel 1, Analog Channel 2, Timestamp, Marker Channel, Timestamp (Formatted)
42.0, -31419.489552913852, -19618.237867145286, -29993.64942236536, -17093.72008964063, -39612.63324172893, -30782.50953942651, -37715.64068980702, -12876.616463257846, -27252.811462022244, -29257.584125707643, -35130.57203657294, -18644.282954249735, -25054.7632640318, -38077.5377842829, -34398.93238531738, -187500.02235174447, 0.0, 0.0, 0.0, 192.0, 0.0, 0.0, 0.0, 0.0, 0.0, 0.0, 0.0, 0.0, 0.0, 1.74190176273362E9, 0.0, 2025-03-13 16:36:02.733
44.0, -31432.252398997833, -19632.07359696312, -30007.485152183195, -17093.51892394053, -39626.111343635486, -30793.528949442978, -37728.42588763546, -12890.720414009145, -27252.789110277787, -29263.283820543747, -35140.31739715546, -18650.630849675043, -25060.70882805691, -38082.701037252074, -34394.79731259314, -187500.02235174447, 0.0, 0.0, 0.0, 192.0, 0.0, 0.0, 0.0, 0.0, 0.0, 0.0, 0.0, 0.0, 0.0, 1.741901762736689E9, 0.0, 2025-03-13 16:36:02.736
46.0, -31426.2174279949, -19624.228134659308, -29999.952614301757, -17095.709394897152, -39619.98696565473, -30789.550338929934, -37725.408402133995, -12886.920617451742, -27266.513081373345, -29264.446111255424, -35144.85480127988, -18653.424817731957, -25065.849729281632, -38079.39297907269, -34410.97997557878, -187500.02235174447, 0.0, 0.0, 0.0, 192.0, 0.0, 0.0, 0.0, 0.0, 0.0, 0.0, 0.0, 0.0, 0.0, 1.741901762739609E9, 0.0, 2025-03-13 16:36:02.739
48.0, -31431.000701308338, -19634.375826642015, -30001.316070713532, -17098.749232143073, -39623.31737557857, -30796.837007622365, -37733.94676851592, -12893.02264368804, -27258.734674302897, -29264.535518233242, -35141.278522167035, -18648.909765351986, -25059.702999556423, -38087.4396070766, -34402.21809175231, -187500.02235174447, 0.0, 0.0, 0.0, 192.0, 0.0, 0.0, 0.0, 0.0, 0.0, 0.0, 0.0, 0.0, 0.0, 1.741901762742506E9, 0.0, 2025-03-13 16:36:02.742
50.0, -31439.65082641254, -19641.416626145437, -30004.020631792624, -17101.274979266524, -39622.08802963353, -30794.467722710102, -37727.39770739051, -12888.373480841337, -27267.183633707005, -29273.096236359626, -35142.48551636762, -18651.256698519792, -25063.413389136003, -38090.83707223381, -34409.63887091147, -187500.02235174447, -0.048, 0.444, -0.20700000000000002, 192.0, 126.5, 0.0, 13.5, 96.0, 121.5, 8.0, 0.0, 0.0, 0.0, 1.741901762745431E9, 0.0, 2025-03-13 16:36:02.745
52.0, -31440.142564790556, -19647.429245403917, -30002.47836142521, -17108.1369648143, -39622.91504417837, -30804.078972825882, -37731.89040802603, -12893.894361721797, -27267.988296507396, -29283.556852764712, -35150.88977228281, -18661.382038758045, -25067.14613046004, -38101.3423921278, -34403.84976909754, -187500.02235174447, -0.048, 0.444, -0.20700000000000002, 192.0, 0.0, 0.0, 0.0, 0.0, 0.0, 0.0, 0.0, 0.0, 0.0, 1.741901762748619E9, 0.0, 2025-03-13 16:36:02.748
54.0, -31438.287370000766, -19638.734416810803, -29997.06923926702, -17102.683139167206, -39617.215349342274, -30793.506597698524, -37723.41909687747, -12886.317120351448, -27270.558747119758, -29281.83576844165, -35145.77122280255, -18660.242099790823, -25064.57567984768, -38098.16844441515, -34406.93430983237, -187500.02235174447, -0.048, 0.444, -0.20700000000000002, 192.0, 0.0, 0.0, 0.0, 0.0, 0.0, 0.0, 0.0, 0.0, 0.0, 1.741901762751223E9, 0.0, 2025-03-13 16:36:02.751
56.0, -31423.334052960166, -19629.011407972743, -29988.866149051926, -17105.85708687986, -39606.93354689283, -30796.211158777616, -37716.42300086296, -12882.383213327315, -27259.516985358834, -29275.97961139436, -35141.50203961159, -18656.30819276669, -25060.015923978797, -38094.56981355784, -34395.80314109363, -187500.02235174447, -0.048, 0.444, -0.20700000000000002, 192.0, 0.0, 0.0, 0.0, 0.0, 0.0, 0.0, 0.0, 0.0, 0.0, 1.741901762753431E9, 0.0, 2025-03-13 16:36:02.753
58.0, -31436.610989166616, -19634.778158042212, -30000.84668407997, -17095.99996757507, -39611.2474335727, -30786.42109470619, -37714.210178161884, -12875.655338246268, -27257.661790569044, -29269.4081985245, -35137.88105700983, -18650.340276997125, -25059.032447222766, -38085.718522753545, -34397.25600448323, -187500.02235174447, -0.048, 0.444, -0.20700000000000002, 192.0, 0.0, 0.0, 0.0, 0.0, 0.0, 0.0, 0.0, 0.0, 0.0, 1.741901762755446E9, 0.0, 2025-03-13 16:36:02.755
60.0, -31412.02407026578, -19617.63437004499, -29983.635840849383, -17096.80463037546, -39597.23288979923, -30782.554242915423, -37705.98473620233, -12870.40267829927, -27248.229354408904, -29260.087521086636, -35133.298949396485, -18645.02056181676, -25051.075226196674, -38077.314266838344, -34392.0703997696, -187500.02235174447, -0.07600000000000001, 0.665, -0.3125, 192.0, 126.0, 96.0, 13.5, 88.0, 121.0, 120.0, 0.0, 0.0, 0.0, 1.741901762757441E9, 0.0, 2025-03-13 16:36:02.757
62.0, -31423.892846571547, -19622.752919525257, -29994.297622954564, -17096.04467106398, -39609.034610871626, -30782.844815593344, -37711.79618976071, -12876.102373135374, -27254.398435878567, -29261.585087965144, -35135.757641286575, -18646.69694265091, -25057.66899081099, -38083.192775630094, -34396.808969594116, -187500.02235174447, -0.07600000000000001, 0.665, -0.3125, 192.0, 0.0, 0.0, 0.0, 0.0, 0.0, 0.0, 0.0, 0.0, 0.0, 1.741901762759612E9, 0.0, 2025-03-13 16:36:02.759
64.0, -31414.773334833782, -19622.864678247533, -29988.530872885094, -17102.727842656117, -39605.43598001432, -30792.456065709124, -37714.79132351772, -12881.332681337915, -27247.33528463069, -29259.528727475255, -35131.555513328974, -18644.21589901637, -25052.215165163896, -38081.806967473865, -34392.13745500296, -187500.02235174447, -0.07600000000000001, 0.665, -0.3125, 192.0, 0.0, 0.0, 0.0, 0.0, 0.0, 0.0, 0.0, 0.0, 0.0, 1.741901762761668E9, 0.0, 2025-03-13 16:36:02.761
66.0, -31428.005567551325, -19626.239791660286, -29997.672736367316, -17093.988310574092, -39613.61671848497, -30784.99058306105, -37717.160608429986, -12876.750573724577, -27250.44217710998, -29260.869832142573, -35132.6954522962, -18644.46176820538, -25054.94207798744, -38081.3375808403, -34392.80800733662, -187500.02235174447, -0.07600000000000001, 0.665, -0.3125, 192.0, 0.0, 0.0, 0.0, 0.0, 0.0, 0.0, 0.0, 0.0, 0.0, 1.741901762763663E9, 0.0, 2025-03-13 16:36:02.763
0.0, -15719.981875417458, -9814.360417647413, -15010.336340705913, -8543.194358729645, -19804.025567057797, -15382.202313208856, -18848.019104959858, -6429.255775124523, -13629.177347323579, -14633.485929189435, -17570.05811572768, -9325.79598734331, -12530.8573282787, -19043.127482310236, -17201.947236293225, -93750.01117587223, -0.08800000000000001, 0.7785, -0.36624999999999996, 192.0, 126.0, 112.0, 13.5, 112.0, 121.0, 112.0, 0.0, 0.0, 0.0, 1.74190176288005E9, 0.0, 2025-03-13 16:36:02.880
2.0, -31445.819907882204, -19627.55854458315, -30020.873847111925, -17083.438287191188, -39610.576881239045, -30765.05282700692, -37696.64170702001, -12862.981899140108, -27297.31378523276, -29239.188640020926, -35174.15793826079, -18663.617213203575, -25097.008061052333, -38053.30849329335, -34413.3716122355, -187500.02235174447, -0.08800000000000001, 0.7785, -0.36624999999999996, 192.0, 0.0, 0.0, 0.0, 0.0, 0.0, 0.0, 0.0, 0.0, 0.0, 1.741901762882404E9, 0.0, 2025-03-13 16:36:02.882
4.0, -31435.49340194385, -19625.859812004546, -30006.74754461617, -17086.902807581762, -39601.79264566811, -30771.534832898957, -37695.99350643081, -12868.078096875919, -27290.898834574087, -29233.287779484726, -35165.21724047867, -18656.621117189065, -25088.402639437038, -38048.36875776872, -34407.00136506574, -187500.02235174447, -0.08800000000000001, 0.7785, -0.36624999999999996, 192.0, 0.0, 0.0, 0.0, 0.0, 0.0, 0.0, 0.0, 0.0, 0.0, 1.741901762884528E9, 0.0, 2025-03-13 16:36:02.884
6.0, -31441.26015201332, -19623.82580325911, -30003.730059114703, -17081.80660984595, -39601.010334612176, -30765.209289218106, -37694.853567463586, -12858.466846760137, -27297.179674766026, -29238.83101210964, -35167.54182190202, -18663.59486145912, -25091.375421449593, -38052.2803130484, -34401.704001629834, -187500.02235174447, -0.08800000000000001, 0.7785, -0.36624999999999996, 192.0, 0.0, 0.0, 0.0, 0.0, 0.0, 0.0, 0.0, 0.0, 0.0, 1.741901762886531E9, 0.0, 2025-03-13 16:36:02.886
8.0, -31436.54393393325, -19627.424434116416, -29999.192654990275, -17081.67249937922, -39600.36213402297, -30772.160681743706, -37698.72041925436, -12867.653413731268, -27288.797770595287, -29232.59487540661, -35158.824641564446, -18654.520053210264, -25079.081961999174, -38046.87119089022, -34399.82645509559, -187500.02235174447, -0.1, 0.89, -0.41600000000000004, 192.0, 126.0, 112.0, 13.5, 104.0, 121.5, 0.0, 0.0, 0.0, 0.0, 1.741901762888576E9, 0.0, 2025-03-13 16:36:02.888
10.0, -31441.528372946785, -19625.83746026009, -30009.206236506256, -17079.482028422597, -39608.31935504906, -30772.98769628855, -37703.45898907888, -12869.352146309871, -27296.35266022118, -29238.316921987167, -35166.223068979154, -18660.778541657754, -25088.894377815053, -38056.75066193946, -34410.46588545631, -187500.02235174447, -0.1, 0.89, -0.41600000000000004, 192.0, 0.0, 0.0, 0.0, 0.0, 0.0, 0.0, 0.0, 0.0, 0.0, 1.741901762890714E9, 0.0, 2025-03-13 16:36:02.890
12.0, -31415.712108100906, -19606.234980372785, -29998.32093695652, -17082.164237757235, -39596.383523509925, -30780.47553068108, -37696.97698318684, -12868.905111420765, -27289.937709562506, -29231.097308528104, -35159.42813866474, -18655.12355031056, -25085.183988235472, -38049.151068824656, -34413.304557002135, -187500.02235174447, -0.1, 0.89, -0.41600000000000004, 192.0, 0.0, 0.0, 0.0, 0.0, 0.0, 0.0, 0.0, 0.0, 0.0, 1.741901762892684E9, 0.0, 2025-03-13 16:36:02.892
14.0, -31413.253416210824, -19601.362300081528, -30000.35494570195, -17070.80955157394, -39605.63714571442, -30778.463873680103, -37708.89046298152, -12874.493047534592, -27277.756008834363, -29219.183828733425, -35148.98987400411, -18640.97489607035, -25079.48429339937, -38041.037385587384, -34406.12964703198, -187500.02235174447, -0.1, 0.89, -0.41600000000000004, 192.0, 0.0, 0.0, 0.0, 0.0, 0.0, 0.0, 0.0, 0.0, 0.0, 1.741901762894674E9, 0.0, 2025-03-13 16:36:02.894
16.0, -31411.331166187665, -19606.458497817337, -30002.523064914116, -17078.252682477556, -39604.81013116958, -30789.818559863397, -37709.31514612617, -12880.706832493166, -27275.006744266364, -29221.128430501038, -35147.067623980955, -18642.53951818222, -25080.62423236659, -38044.43485074459, -34412.90222560194, -187500.02235174447, -0.1, 0.89, -0.41600000000000004, 192.0, 0.0, 0.0, 0.0, 0.0, 0.0, 0.0, 0.0, 0.0, 0.0, 1.741901762940304E9, 0.0, 2025-03-13 16:36:02.940
18.0, -31423.244645982344, -19612.337006609083, -30012.51429468564, -17072.82120857492, -39610.95686089479, -30781.03432429246, -37709.06927693716, -12875.565931268446, -27284.528587404322, -29229.890314327517, -35159.316379942466, -18650.139111297027, -25092.40360169454, -38053.82258341582, -34413.34926049105, -187500.02235174447, -0.10400000000000001, 0.892, -0.418, 192.0, 126.0, 96.0, 13.5, 112.0, 121.0, 120.0, 0.0, 0.0, 0.0, 1.741901762942438E9, 0.0, 2025-03-13 16:36:02.942
20.0, -31415.35448018962, -19613.231076387296, -30006.41226844934, -17078.94558655567, -39603.75959918018, -30776.5639754014, -37698.65336402099, -12868.681593976211, -27288.551901406277, -29230.426756194447, -35155.2483624516, -18647.658067662487, -25092.44830518345, -38046.96059786804, -34419.54069370517, -187500.02235174447, -0.10400000000000001, 0.892, -0.418, 192.0, 0.0, 0.0, 0.0, 0.0, 0.0, 0.0, 0.0, 0.0, 0.0, 1.741901762944597E9, 0.0, 2025-03-13 16:36:02.944
22.0, -31417.857875568614, -19612.895800220467, -30008.088649283487, -17077.202150488156, -39600.87622414544, -30770.171376487182, -37692.37252382905, -12857.997460126575, -27283.72392460393, -29232.751337617796, -35156.96944677466, -18650.943774097417, -25090.9730900494, -38048.301702535355, -34405.99553656525, -187500.02235174447, -0.10400000000000001, 0.892, -0.418, 192.0, 0.0, 0.0, 0.0, 0.0, 0.0, 0.0, 0.0, 0.0, 0.0, 1.741901762946566E9, 0.0, 2025-03-13 16:36:02.946
24.0, -31422.641148882052, -19621.523573580216, -30012.17901851881, -17087.37219421532, -39599.51276773367, -30777.927431813176, -37695.70293375289, -12864.702983463167, -27286.853168827674, -29229.532686416234, -35154.33194092893, -18648.373323485055, -25088.000308036844, -38044.2783885334, -34408.49893194425, -187500.02235174447, -0.10400000000000001, 0.892, -0.418, 192.0, 0.0, 0.0, 0.0, 0.0, 0.0, 0.0, 0.0, 0.0, 0.0, 1.741901762948542E9, 0.0, 2025-03-13 16:36:02.948
26.0, -31443.60708518113, -19639.337913911095, -30026.394727992385, -17092.15546752876, -39611.694468461814, -30784.99058306105, -37709.404553103996, -12875.856503946365, -27297.090267788204, -29246.385901735535, -35169.21820273616, -18662.566681214175, -25101.545465176758, -38065.40078704367, -34409.23653951127, -187500.02235174447, -0.10400000000000001, 0.892, -0.418, 192.0, 0.0, 0.0, 0.0, 0.0, 0.0, 0.0, 0.0, 0.0, 0.0, 1.741901762950503E9, 0.0, 2025-03-13 16:36:02.950
28.0, -31439.069681056702, -19634.30877140865, -30013.765992375138, -17099.19626703218, -39598.84221540001, -30777.90508006872, -37696.97698318684, -12864.837093929898, -27311.5965499397, -29255.617172195576, -35171.85570858189, -18669.227501061858, -25107.714546646424, -38069.491156278986, -34421.977033850795, -187500.02235174447, -0.10200000000000001, 0.892, -0.418, 192.0, 126.0, 104.0, 13.5, 112.0, 121.0, 120.0, 0.0, 0.0, 0.0, 1.741901762952558E9, 0.0, 2025-03-13 16:36:02.952
30.0, -31446.64692242705, -19642.60126860157, -30013.050736552566, -17093.94360708518, -39602.55260497959, -30771.400722432223, -37701.22381463335, -12863.048954373475, -27305.673337659042, -29252.152651805005, -35169.97816204765, -18666.500588238312, -25102.39483146606, -38064.86434517674, -34407.18017902138, -187500.02235174447, -0.10200000000000001, 0.892, -0.418, 192.0, 0.0, 0.0, 0.0, 0.0, 0.0, 0.0, 0.0, 0.0, 0.0, 1.741901763000824E9, 0.0, 2025-03-13 16:36:03.000
32.0, -31445.75285264884, -19640.723722067323, -30008.334518472497, -17089.070926793924, -39597.143482821404, -30772.406550932712, -37699.055695421186, -12864.188893340695, -27310.59072143921, -29250.92330585996, -35163.4514526667, -18664.332469026147, -25100.0255465538, -38061.77980444191, -34414.17627503589, -187500.02235174447, -0.10200000000000001, 0.892, -0.418, 192.0, 0.0, 0.0, 0.0, 0.0, 0.0, 0.0, 0.0, 0.0, 0.0, 1.741901763002907E9, 0.0, 2025-03-13 16:36:03.002
34.0, -31448.435061983477, -19644.568222113638, -30010.45793419575, -17085.94168257018, -39594.72949442023, -30778.262707980004, -37699.70389601039, -12869.665070732246, -27308.10967780467, -29252.197355293913, -35165.3513509454, -18664.444227748423, -25097.276281985796, -38065.95958065505, -34404.073286542094, -187500.02235174447, -0.10200000000000001, 0.892, -0.418, 192.0, 0.0, 0.0, 0.0, 0.0, 0.0, 0.0, 0.0, 0.0, 0.0, 1.741901763004881E9, 0.0, 2025-03-13 16:36:03.004
36.0, -31457.107538832133, -19647.853928548568, -30013.542474930582, -17079.95141505616, -39591.95787810777, -30773.770007344487, -37688.773892971745, -12862.177236339718, -27321.766593666864, -29254.521936717265, -35166.91597305727, -18661.762018413785, -25103.73593613338, -38063.74675795397, -34415.04799306965, -187500.02235174447, -0.10200000000000001, 0.892, -0.418, 192.0, 0.0, 0.0, 0.0, 0.0, 0.0, 0.0, 0.0, 0.0, 0.0, 1.741901763006852E9, 0.0, 2025-03-13 16:36:03.006
38.0, -31477.626440242107, -19669.51276892576, -30029.456916982763, -17088.489781438086, -39603.62548871344, -30788.745676129543, -37706.74469551381, -12879.49983829258, -27326.438108258022, -29257.78529140774, -35175.588449905925, -18662.633736447544, -25107.915712346523, -38065.82547018832, -34407.6719173994, -187500.02235174447, -0.10400000000000001, 0.894, -0.41600000000000004, 192.0, 126.0, 96.0, 13.5, 120.0, 121.5, 0.0, 0.0, 0.0, 0.0, 1.741901763008821E9, 0.0, 2025-03-13 16:36:03.008
40.0, -31481.694457732974, -19668.03755379171, -30032.787326906604, -17083.930025569203, -39602.41849451286, -30779.42499869168, -37704.37541060155, -12873.040184144997, -27343.537192766333, -29266.346009534125, -35185.669086655274, -18668.959280128394, -25118.711604918433, -38064.6855312211, -34424.54748446315, -187500.02235174447, -0.10400000000000001, 0.894, -0.41600000000000004, 192.0, 0.0, 0.0, 0.0, 0.0, 0.0, 0.0, 0.0, 0.0, 0.0, 1.741901763010964E9, 0.0, 2025-03-13 16:36:03.010
42.0, -31480.532167021298, -19670.496245681792, -30035.000149607677, -17088.37802271581, -39602.99963986869, -30783.85064409383, -37703.36958210106, -12876.571759768934, -27341.21261134298, -29266.79304442323, -35191.63700242484, -18671.708544696397, -25120.611503197135, -38071.39105455769, -34418.24429252676, -187500.02235174447, -0.10400000000000001, 0.894, -0.41600000000000004, 192.0, 0.0, 0.0, 0.0, 0.0, 0.0, 0.0, 0.0, 0.0, 0.0, 1.741901763012934E9, 0.0, 2025-03-13 16:36:03.012
44.0, -31476.911184419536, -19663.12017001154, -30031.84855363948, -17077.604481888353, -39598.84221540001, -30769.76904508699, -37692.17135812895, -12862.154884595262, -27343.6042479997, -29257.405311752, -35186.83137736695, -18666.142960327026, -25121.93025612, -38061.48923176399, -34419.02660358269, -187500.02235174447, -0.10400000000000001, 0.894, -0.41600000000000004, 192.0, 0.0, 0.0, 0.0, 0.0, 0.0, 0.0, 0.0, 0.0, 0.0, 1.741901763014926E9, 0.0, 2025-03-13 16:36:03.014
46.0, -31478.56521350923, -19671.435018948916, -30034.396652507385, -17089.026223305016, -39605.99477362571, -30783.783588860464, -37708.21991064786, -12876.21413185765, -27339.670340975565, -29262.389750765535, -35190.31824950198, -18670.009812117794, -25122.489049731383, -38067.34538881128, -34412.23167326828, -187500.02235174447, -0.10400000000000001, 0.894, -0.41600000000000004, 192.0, 0.0, 0.0, 0.0, 0.0, 0.0, 0.0, 0.0, 0.0, 0.0, 1.74190176305957E9, 0.0, 2025-03-13 16:36:03.059
48.0, -31473.75958845134, -19662.114341511053, -30029.99335884969, -17090.52379018352, -39597.992849110706, -30777.458045179614, -37695.45706456388, -12866.82639918642, -27345.280628833847, -29265.36253277809, -35189.49123495713, -18671.082695851648, -25124.63481719909, -38071.07813013531, -34417.30551925964, -187500.02235174447, -0.108, 0.892, -0.41000000000000003, 192.0, 126.0, 80.0, 13.5, 112.0, 121.5, 24.0, 0.0, 0.0, 0.0, 1.741901763061663E9, 0.0, 2025-03-13 16:36:03.061
50.0, -31458.068663843715, -19654.380637929517, -30015.934111587303, -17093.116592540337, -39587.88986061691, -30778.463873680103, -37688.66213424947, -12866.044088130486, -27328.673282703556, -29255.5054134733, -35178.44947319621, -18664.757152170798, -25111.804915881745, -38065.44549053258, -34400.452303940336, -187500.02235174447, -0.108, 0.892, -0.41000000000000003, 192.0, 0.0, 0.0, 0.0, 0.0, 0.0, 0.0, 0.0, 0.0, 0.0, 1.741901763063889E9, 0.0, 2025-03-13 16:36:03.063
52.0, -31461.443777256463, -19647.965687270844, -30018.169286032833, -17083.393583702276, -39594.5953839535, -30774.686428867153, -37690.27145985025, -12862.758381695556, -27333.03187287234, -29256.06420708468, -35179.43294995224, -18665.65122194901, -25118.756308407344, -38066.89835392217, -34403.69330688635, -187500.02235174447, -0.108, 0.892, -0.41000000000000003, 192.0, 0.0, 0.0, 0.0, 0.0, 0.0, 0.0, 0.0, 0.0, 0.0, 1.74190176306586E9, 0.0, 2025-03-13 16:36:03.065
54.0, -31444.41174798152, -19639.40496914446, -30007.283986483097, -17087.41689770423, -39588.18043329483, -30774.48526316706, -37691.299640095196, -12862.35605029536, -27320.425488999546, -29245.335369746135, -35168.324132957954, -18655.25766077729, -25110.553218192246, -38060.99749338597, -34398.88768182846, -187500.02235174447, -0.108, 0.892, -0.41000000000000003, 192.0, 0.0, 0.0, 0.0, 0.0, 0.0, 0.0, 0.0, 0.0, 0.0, 1.741901763067804E9, 0.0, 2025-03-13 16:36:03.067
56.0, -31449.664407928518, -19637.46036737685, -30017.31991974353, -17075.548121398464, -39598.41753225536, -30767.9138502972, -37696.686410508926, -12861.573739239424, -27320.291378532813, -29243.83780286763, -35167.38535969083, -18655.101198566103, -25111.24612227036, -38061.95861839755, -34404.117990031, -187500.02235174447, -0.108, 0.892, -0.41000000000000003, 192.0, 0.0, 0.0, 0.0, 0.0, 0.0, 0.0, 0.0, 0.0, 0.0, 1.741901763069771E9, 0.0, 2025-03-13 16:36:03.069
58.0, -31437.482707200375, -19635.627524331514, -30017.23051276571, -17081.873665079318, -39596.16000606537, -30778.82150159139, -37702.676678022945, -12872.68255623371, -27319.44201224351, -29244.284837756735, -35169.173499247256, -18654.564756699176, -25116.096450817164, -38061.89156316419, -34414.46684771381, -187500.02235174447, -0.10200000000000001, 0.898, -0.41200000000000003, 192.0, 126.0, 104.0, 14.0, 8.0, 121.5, 16.0, 0.0, 0.0, 0.0, 1.74190176307175E9, 0.0, 2025-03-13 16:36:03.071
60.0, -31451.36314050712, -19643.875318035523, -30028.56284720455, -17070.742496340572, -39604.60896546948, -30776.69808586813, -37709.2033874039, -12873.554274267468, -27313.74231740741, -29241.69203539992, -35166.29012421252, -18648.775654885252, -25116.476430472903, -38061.10925210825, -34409.03537381117, -187500.02235174447, -0.10200000000000001, 0.898, -0.41200000000000003, 192.0, 0.0, 0.0, 0.0, 0.0, 0.0, 0.0, 0.0, 0.0, 0.0, 1.741901763073897E9, 0.0, 2025-03-13 16:36:03.073
62.0, -31440.522544446296, -19641.349570912073, -30024.874809369423, -17089.115630282835, -39595.757674665176, -30791.114961041807, -37701.82731173364, -12880.12568713733, -27322.705366933988, -29250.07393957066, -35176.862499339884, -18662.209053302893, -25123.293712531773, -38068.239458589494, -34421.79821989515, -187500.02235174447, -0.10200000000000001, 0.898, -0.41200000000000003, 192.0, 0.0, 0.0, 0.0, 0.0, 0.0, 0.0, 0.0, 0.0, 0.0, 1.741901763120845E9, 0.0, 2025-03-13 16:36:03.120
64.0, -31441.46131771342, -19636.879222021013, -30021.052661067566, -17078.677365622207, -39593.7460176642, -30780.81080684791, -37697.37931458704, -12871.855541688865, -27315.26223603037, -29245.491831957323, -35173.24151673812, -18656.062323577684, -25118.64454968507, -38067.94888591157, -34412.38813547947, -187500.02235174447, -0.10200000000000001, 0.898, -0.41200000000000003, 192.0, 0.0, 0.0, 0.0, 0.0, 0.0, 0.0, 0.0, 0.0, 0.0, 1.741901763122839E9, 0.0, 2025-03-13 16:36:03.122
66.0, -31425.680986127973, -19626.619771316025, -30005.965233560233, -17071.413048674232, -39584.425340226335, -30776.407513190214, -37692.93131744043, -12865.239425330094, -27310.054279572283, -29236.104099286094, -35161.618609621364, -18642.53951818222, -25113.54835194926, -38053.688472949085, -34402.28514698567, -187500.02235174447, -0.10200000000000001, 0.898, -0.41200000000000003, 192.0, 0.0, 0.0, 0.0, 0.0, 0.0, 0.0, 0.0, 0.0, 0.0, 1.74190176312484E9, 0.0, 2025-03-13 16:36:03.124
68.0, -31429.167858263, -19624.295189892673, -30006.591082404982, -17059.454865390642, -39589.78975889561, -30768.740864842042, -37694.585346530126, -12864.524169507524, -27298.051392799785, -29228.057471282184, -35154.37664441784, -18634.716407622866, -25105.948758834453, -38045.373624011714, -34386.683629355866, -187500.02235174447, -0.10400000000000001, 0.904, -0.422, 192.0, 126.0, 96.0, 14.0, 32.0, 121.0, 104.0, 0.0, 0.0, 0.0, 1.741901763126832E9, 0.0, 2025-03-13 16:36:03.126
70.0, -31421.657672126017, -19624.40694861495, -30000.958442802246, -17066.026278260502, -39585.609982682465, -30772.98769628855, -37691.634916262024, -12864.97120439663, -27303.058183557772, -29232.617227151066, -35151.537972872015, -18636.705712879386, -25110.799087381256, -38053.17438282661, -34399.82645509559, -187500.02235174447, -0.10400000000000001, 0.904, -0.422, 192.0, 0.0, 0.0, 0.0, 0.0, 0.0, 0.0, 0.0, 0.0, 0.0, 1.741901763128974E9, 0.0, 2025-03-13 16:36:03.128
72.0, -31423.915198316005, -19622.84232650308, -29999.349117201462, -17063.969917770617, -39580.2902675021, -30762.527079883468, -37681.420169045945, -12853.549462979969, -27295.905625332074, -29234.517125429767, -35150.710958327174, -18638.78442511373, -25107.692194901967, -38054.96252238304, -34391.53395790267, -187500.02235174447, -0.10400000000000001, 0.904, -0.422, 192.0, 0.0, 0.0, 0.0, 0.0, 0.0, 0.0, 0.0, 0.0, 0.0, 1.741901763131032E9, 0.0, 2025-03-13 16:36:03.131
74.0, -31426.418593694998, -19626.820937016124, -30001.60664339145, -17062.33824042538, -39579.843232613, -30762.392969416735, -37686.13638712602, -12855.427009514215, -27299.392497467103, -29229.085651527126, -35145.70416756918, -18634.671704133954, -25106.664014657024, -38046.357100767746, -34392.56213814761, -187500.02235174447, -0.10400000000000001, 0.904, -0.422, 192.0, 0.0, 0.0, 0.0, 0.0, 0.0, 0.0, 0.0, 0.0, 0.0, 1.741901763133023E9, 0.0, 2025-03-13 16:36:03.133
76.0, -31422.97642504888, -19618.64019854548, -30000.265538724132, -17060.125417724303, -39572.86948834294, -30765.56691712939, -37681.39781730149, -12852.54363447948, -27297.961985821963, -29232.05843353968, -35150.57684786044, -18639.946715825405, -25109.860314114132, -38052.74969968196, -34387.68945785635, -187500.02235174447, -0.10400000000000001, 0.904, -0.422, 192.0, 0.0, 0.0, 0.0, 0.0, 0.0, 0.0, 0.0, 0.0, 0.0, 1.741901763181033E9, 0.0, 2025-03-13 16:36:03.181
78.0, -31424.40693669402, -19619.9813032128, -29998.633861378894, -17062.628813103296, -39568.57795340753, -30770.37254218728, -37681.26370683476, -12854.845864158377, -27301.58296842372, -29229.42092769396, -35147.425251892244, -18636.728064623843, -25108.474505957904, -38048.23464730199, -34386.66127761141, -187500.02235174447, -0.10200000000000001, 0.898, -0.41000000000000003, 192.0, 126.0, 104.0, 14.0, 8.0, 121.5, 24.0, 0.0, 0.0, 0.0, 1.741901763183111E9, 0.0, 2025-03-13 16:36:03.183
80.0, -31425.1668960055, -19618.997826456765, -29998.477399167707, -17059.85719679084, -39568.06386328505, -30769.657286364712, -37677.82153818864, -12852.521282735024, -27299.906587589576, -29230.538514916723, -35152.029711250034, -18638.06916929116, -25107.759250135336, -38052.12385083722, -34372.356161160016, -187500.02235174447, -0.10200000000000001, 0.898, -0.41000000000000003, 192.0, 0.0, 0.0, 0.0, 0.0, 0.0, 0.0, 0.0, 0.0, 0.0, 1.741901763185257E9, 0.0, 2025-03-13 16:36:03.185
82.0, -31419.422497680487, -19611.10766066404, -29998.49975091216, -17048.770731541008, -39572.15423252037, -30752.960533256595, -37675.631067232025, -12843.625288441812, -27303.058183557772, -29221.843686323606, -35146.24060943611, -18628.368512197558, -25108.765078635824, -38039.226894286505, -34376.9159170289, -187500.02235174447, -0.10200000000000001, 0.898, -0.41000000000000003, 192.0, 0.0, 0.0, 0.0, 0.0, 0.0, 0.0, 0.0, 0.0, 0.0, 1.741901763187229E9, 0.0, 2025-03-13 16:36:03.187
84.0, -31414.2145412224, -19607.374919340007, -29997.94095730078, -17044.05451346094, -39576.98220932272, -30749.920696010675, -37680.70491322338, -12844.429951242204, -27297.358488721668, -29214.78053507573, -35144.988911746615, -18622.22178247235, -25109.25681701384, -38030.66617616012, -34374.34546641653, -187500.02235174447, -0.10200000000000001, 0.898, -0.41000000000000003, 192.0, 0.0, 0.0, 0.0, 0.0, 0.0, 0.0, 0.0, 0.0, 0.0, 1.741901763189232E9, 0.0, 2025-03-13 16:36:03.189
86.0, -31416.382660434567, -19607.21845712882, -30001.763105602637, -17033.772711011497, -39585.00648558218, -30748.490184365535, -37687.231622604326, -12851.582509467902, -27301.761782379366, -29210.176075717936, -35139.937417499714, -18615.985645769317, -25112.140192048573, -38029.61564417072, -34386.63892586695, -187500.02235174447, -0.10200000000000001, 0.898, -0.41000000000000003, 192.0, 0.0, 0.0, 0.0, 0.0, 0.0, 0.0, 0.0, 0.0, 0.0, 1.741901763191197E9, 0.0, 2025-03-13 16:36:03.191
88.0, -31409.855951053614, -19608.69367226287, -29998.633861378894, -17043.00398147154, -39587.018142583154, -30763.152928728217, -37700.39680008851, -12865.150018352273, -27295.235072998414, -29212.634767608022, -35140.80913553347, -18618.265523703758, -25112.654282171046, -38034.93535935108, -34386.683629355866, -187500.02235174447, -0.10400000000000001, 0.896, -0.41200000000000003, 192.0, 126.0, 96.0, 14.0, 0.0, 121.5, 16.0, 0.0, 0.0, 0.0, 1.741901763193206E9, 0.0, 2025-03-13 16:36:03.193
90.0, -31413.856913311116, -19607.754898995747, -29997.113942755932, -17045.46267336162, -39583.95595359278, -30763.018818261484, -37694.02655291874, -12862.423105528726, -27299.191331767004, -29219.697918855898, -35138.28338841002, -18620.858326060574, -25114.509476960837, -38040.411536742635, -34396.808969594116, -187500.02235174447, -0.10400000000000001, 0.896, -0.41200000000000003, 192.0, 0.0, 0.0, 0.0, 0.0, 0.0, 0.0, 0.0, 0.0, 0.0, 1.74190176319534E9, 0.0, 2025-03-13 16:36:03.195
92.0, -31410.682965598462, -19609.096003663064, -29990.27430895261, -17048.256641418535, -39574.32235173254, -30768.51734739749, -37685.756407470275, -12861.104352605862, -27288.507197917366, -29210.35488967358, -35131.30964413997, -18616.87971554753, -25102.350127977148, -38039.58452219779, -34381.788597320156, -187500.02235174447, -0.10400000000000001, 0.896, -0.41200000000000003, 192.0, 0.0, 0.0, 0.0, 0.0, 0.0, 0.0, 0.0, 0.0, 0.0, 1.74190176324142E9, 0.0, 2025-03-13 16:36:03.241
94.0, -31416.82969532367, -19609.140707151975, -29986.899195539856, -17050.916499008716, -39563.61586613845, -30762.57178337238, -37667.651494461476, -12843.088846574885, -27302.566445179757, -29223.721232857853, -35139.53508609952, -18629.195526742402, -25113.79422113827, -38050.02278685842, -34382.99559152074, -187500.02235174447, -0.10400000000000001, 0.896, -0.41200000000000003, 192.0, 0.0, 0.0, 0.0, 0.0, 0.0, 0.0, 0.0, 0.0, 0.0, 1.741901763243493E9, 0.0, 2025-03-13 16:36:03.243
96.0, -31408.64895685303, -19605.45266931685, -29982.607660604437, -17038.71244653612, -39564.93461906131, -30758.257896692503, -37673.8429276756, -12848.073285588418, -27285.02032578234, -29207.762087316765, -35125.49819058159, -18615.20333471338, -25098.751497119847, -38032.655481416645, -34359.548611587124, -187500.02235174447, -0.10400000000000001, 0.896, -0.41200000000000003, 192.0, 0.0, 0.0, 0.0, 0.0, 0.0, 0.0, 0.0, 0.0, 0.0, 1.741901763245497E9, 0.0, 2025-03-13 16:36:03.245
98.0, -31409.58773012015, -19599.79767796966, -29984.775779816602, -17035.918478479205, -39566.00750279516, -30742.99165522953, -37667.60679097257, -12834.05874181494, -27292.821084597243, -29206.130409971527, -35127.86747549385, -18616.522087636244, -25107.714546646424, -38027.67104240311, -34371.68560882635, -187500.02235174447, -0.10400000000000001, 0.888, -0.40800000000000003, 192.0, 126.0, 96.0, 13.5, 96.0, 121.5, 32.0, 0.0, 0.0, 0.0, 1.741901763247465E9, 0.0, 2025-03-13 16:36:03.247
100.0, -31408.02310800828, -19604.200971627353, -29984.59696586096, -17043.629830316288, -39566.812165595555, -30754.234582690548, -37675.98869514331, -12848.006230355053, -27285.668526371544, -29203.24703493679, -35125.65465279277, -18612.811698056663, -25102.707755888434, -38027.6263389142, -34373.317286171594, -187500.02235174447, -0.10400000000000001, 0.888, -0.40800000000000003, 192.0, 0.0, 0.0, 0.0, 0.0, 0.0, 0.0, 0.0, 0.0, 0.0, 1.741901763249608E9, 0.0, 2025-03-13 16:36:03.249
102.0, -31424.518695416296, -19611.152364152953, -29994.431733421297, -17036.879603490783, -39571.39427320889, -30750.524193110967, -37677.79918644419, -12846.955698365653, -27299.325442233738, -29213.998224019793, -35137.88105700983, -18624.278142962237, -25114.844753127665, -38038.89161811968, -34381.65448685342, -187500.02235174447, -0.10400000000000001, 0.888, -0.40800000000000003, 192.0, 0.0, 0.0, 0.0, 0.0, 0.0, 0.0, 0.0, 0.0, 0.0, 1.74190176325159E9, 0.0, 2025-03-13 16:36:03.251
104.0, -31414.281596455767, -19607.509029806737, -29988.016782762625, -17041.215841915113, -39564.91226731685, -30759.643704848735, -37678.916773666955, -12853.214186813138, -27293.849264842185, -29207.337404172114, -35131.689623795704, -18618.69020684841, -25108.78743038028, -38031.20261802705, -34376.15595771742, -187500.02235174447, -0.10400000000000001, 0.888, -0.40800000000000003, 192.0, 0.0, 0.0, 0.0, 0.0, 0.0, 0.0, 0.0, 0.0, 0.0, 1.741901763253569E9, 0.0, 2025-03-13 16:36:03.253
106.0, -31422.4176314375, -19609.140707151975, -29995.974003788713, -17040.589993070364, -39575.97638082223, -30753.13934721224, -37682.046017890694, -12852.16365482374, -27295.570349165246, -29208.052659994682, -35135.17649593073, -18618.377282426034, -25113.79422113827, -38033.773068639406, -34378.1676147184, -187500.02235174447, -0.10400000000000001, 0.888, -0.40800000000000003, 192.0, 0.0, 0.0, 0.0, 0.0, 0.0, 0.0, 0.0, 0.0, 0.0, 1.741901763301611E9, 0.0, 2025-03-13 16:36:03.301
108.0, -31406.12320972958, -19599.685919247382, -29982.182977459786, -17048.56956584091, -39568.555601663065, -30752.669960578678, -37679.36380855606, -12848.319154777428, -27291.457628185468, -29204.16345645946, -35131.73432728462, -18611.82822130063, -25109.480334458392, -38029.45918195954, -34383.19675722084, -187500.02235174447, -0.10400000000000001, 0.898, -0.41200000000000003, 192.0, 126.0, 96.0, 14.0, 8.0, 121.5, 16.0, 0.0, 0.0, 0.0, 1.741901763303654E9, 0.0, 2025-03-13 16:36:03.303
110.0, -31420.405974436522, -19609.475983318804, -29989.424942663307, -17035.42674010119, -39575.6411046554, -30743.08106220735, -37681.420169045945, -12845.726352420612, -27289.82595084023, -29201.794171547197, -35131.4437546067, -18609.391881155003, -25109.480334458392, -38027.29106274737, -34375.910088528406, -187500.02235174447, -0.10400000000000001, 0.898, -0.41200000000000003, 192.0, 0.0, 0.0, 0.0, 0.0, 0.0, 0.0, 0.0, 0.0, 0.0, 1.741901763305768E9, 0.0, 2025-03-13 16:36:03.305
112.0, -31421.165933748, -19619.847192746067, -29992.576538631507, -17051.6764583202, -39578.010389567666, -30762.236507205547, -37690.092645894605, -12858.69036420469, -27300.17480852304, -29218.40151767749, -35142.038481478514, -18624.88164006253, -25117.571665951215, -38039.96450185353, -34387.48829215626, -187500.02235174447, -0.10400000000000001, 0.898, -0.41200000000000003, 192.0, 0.0, 0.0, 0.0, 0.0, 0.0, 0.0, 0.0, 0.0, 0.0, 1.741901763307763E9, 0.0, 2025-03-13 16:36:03.307
114.0, -31426.955035561925, -19623.088195692086, -29995.88459681089, -17049.351876896846, -39582.592497181, -30757.90026878122, -37687.7457127268, -12857.416314770737, -27299.50425618938, -29224.995282291806, -35145.48065012463, -18632.72710236634, -25119.49391597437, -38046.33474902329, -34382.839129309556, -187500.02235174447, -0.10400000000000001, 0.898, -0.41200000000000003, 192.0, 0.0, 0.0, 0.0, 0.0, 0.0, 0.0, 0.0, 0.0, 0.0, 1.741901763309807E9, 0.0, 2025-03-13 16:36:03.309
116.0, -31416.628529623573, -19621.098890435565, -29995.03523052159, -17065.512188138033, -39579.57501167953, -30769.27730670897, -37687.76806447125, -12864.59122474089, -27297.425543955036, -29225.93405555893, -35141.971426245145, -18635.16344251197, -25118.10810781814, -38049.9333798806, -34389.99168753525, -187500.02235174447, -0.10300000000000001, 0.895, -0.41200000000000003, 192.0, 126.0, 104.0, 13.5, 112.0, 121.5, 16.0, 0.0, 0.0, 0.0, 1.741901763311752E9, 0.0, 2025-03-13 16:36:03.311
118.0, -31416.673233112484, -19615.667416532924, -29994.476436910205, -17059.454865390642, -39575.484642444215, -30759.688408337643, -37683.78945395821, -12857.997460126575, -27289.6918403735, -29224.861171825072, -35138.79747853249, -18632.749454110795, -25114.487125216383, -38047.8323159018, -34385.65544911092, -187500.02235174447, -0.10300000000000001, 0.895, -0.41200000000000003, 192.0, 0.0, 0.0, 0.0, 0.0, 0.0, 0.0, 0.0, 0.0, 0.0, 1.741901763313948E9, 0.0, 2025-03-13 16:36:03.313
120.0, -31412.73932608835, -19616.583838055594, -29991.570710131018, -17061.622984602807, -39568.846174340986, -30762.594135116833, -37683.34241906911, -12860.657317716756, -27287.814293839252, -29222.06720376816, -35130.370870872845, -18627.183869741424, -25111.87197111511, -38040.545647209365, -34390.61753638, -187500.02235174447, -0.10300000000000001, 0.895, -0.41200000000000003, 192.0, 0.0, 0.0, 0.0, 0.0, 0.0, 0.0, 0.0, 0.0, 0.0, 1.741901763315955E9, 0.0, 2025-03-13 16:36:03.315
122.0, -31423.445811682443, -19622.060015447143, -30000.109076512945, -17057.1749874562, -39572.31069473156, -30760.09073973784, -37684.52706152524, -12858.064515359942, -27288.753067106376, -29228.102174771095, -35136.07056570894, -18631.274238976748, -25114.95651184994, -38047.09470833477, -34384.11317874351, -187500.02235174447, -0.10300000000000001, 0.895, -0.41200000000000003, 192.0, 0.0, 0.0, 0.0, 0.0, 0.0, 0.0, 0.0, 0.0, 0.0, 1.741901763361075E9, 0.0, 2025-03-13 16:36:03.361
124.0, -31412.64991911053, -19613.298131620664, -29989.26848045212, -17056.638545589274, -39560.06193877005, -30756.13448096925, -37675.921639909946, -12851.49310249008, -27293.044602041795, -29223.4977154133, -35130.504981339574, -18624.702826106888, -25112.654282171046, -38036.81290588533, -34388.42706542338, -187500.02235174447, -0.10300000000000001, 0.895, -0.41200000000000003, 192.0, 0.0, 0.0, 0.0, 0.0, 0.0, 0.0, 0.0, 0.0, 0.0, 1.741901763363192E9, 0.0, 2025-03-13 16:36:03.363
126.0, -31424.004605293827, -19621.21064915784, -29996.599852633462, -17052.27995542049, -39569.91905807484, -30759.21902170408, -37685.28702083672, -12859.696192705178, -27287.814293839252, -29222.380128190536, -35132.114306940355, -18625.529840651732, -25108.228636768894, -38040.76916465392, -34374.166652460895, -187500.02235174447, -0.1015, 0.8965000000000001, -0.41200000000000003, 192.0, 126.0, 112.0, 14.0, 8.0, 121.5, 16.0, 0.0, 0.0, 0.0, 1.741901763365197E9, 0.0, 2025-03-13 16:36:03.365
128.0, -31416.18149473447, -19613.208724642842, -29988.88850079638, -17059.588975857376, -39560.956008548266, -30754.480451879557, -37674.222907331336, -12850.375515267315, -27292.955195063972, -29222.60364563509, -35130.90731273977, -18626.267448218758, -25104.048860555755, -38036.075298318305, -34384.783731077165, -187500.02235174447, -0.1015, 0.8965000000000001, -0.41200000000000003, 192.0, 0.0, 0.0, 0.0, 0.0, 0.0, 0.0, 0.0, 0.0, 0.0, 1.741901763367328E9, 0.0, 2025-03-13 16:36:03.367
130.0, -31414.192189477944, -19608.40309958495, -29988.17324497381, -17056.593842100363, -39563.30294171607, -30743.997483730018, -37669.46198576236, -12840.943079107175, -27280.751142591376, -29211.472476896346, -35132.181362173724, -18622.557058639177, -25092.44830518345, -38029.503885448445, -34366.410597134905, -187500.02235174447, -0.1015, 0.8965000000000001, -0.41200000000000003, 192.0, 0.0, 0.0, 0.0, 0.0, 0.0, 0.0, 0.0, 0.0, 0.0, 1.741901763369339E9, 0.0, 2025-03-13 16:36:03.369
132.0, -31416.248549967833, -19604.849172216556, -29986.630974606393, -17055.431551388687, -39574.12118603244, -30740.84588776182, -37675.80988118766, -12842.038314585485, -27284.68504961551, -29207.806790805673, -35135.265902908555, -18621.283009205225, -25091.420124938504, -38026.978138324994, -34375.641867594946, -187500.02235174447, -0.1015, 0.8965000000000001, -0.41200000000000003, 192.0, 0.0, 0.0, 0.0, 0.0, 0.0, 0.0, 0.0, 0.0, 0.0, 1.741901763371316E9, 0.0, 2025-03-13 16:36:03.371
134.0, -31416.561474390208, -19607.061994917633, -29982.11592222642, -17057.443208389665, -39580.62554366893, -30747.886687265243, -37684.54941326969, -12849.839073400388, -27274.805578566265, -29206.935072771917, -35139.49038261061, -18621.01478827176, -25084.40167717954, -38030.822638371304, -34369.696303569835, -187500.02235174447, -0.1015, 0.8965000000000001, -0.41200000000000003, 192.0, 0.0, 0.0, 0.0, 0.0, 0.0, 0.0, 0.0, 0.0, 0.0, 1.74190176337339E9, 0.0, 2025-03-13 16:36:03.373
136.0, -31423.64697738254, -19608.514858307226, -29985.98277401719, -17056.012696744525, -39590.50501471818, -30754.61456234629, -37686.27049759275, -12854.30942229145, -27288.484846172913, -29213.752354830787, -35150.30862692698, -18631.095425021103, -25093.16356100602, -38036.76820239642, -34383.464978154305, -187500.02235174447, -0.10475000000000001, 0.89825, -0.41300000000000003, 192.0, 126.0, 80.0, 14.0, 16.0, 121.5, 8.0, 0.0, 0.0, 0.0, 1.741901763420808E9, 0.0, 2025-03-13 16:36:03.420
138.0, -31412.001718521326, -19600.06589890312, -29974.73984655617, -17055.006868244036, -39586.50405246068, -30754.07812047936, -37683.96826791385, -12851.358992023348, -27269.329401174713, -29201.548302358187, -35141.47968786713, -18623.786404584218, -25080.28895619976, -38026.776972624895, -34373.20552744932, -187500.02235174447, -0.10475000000000001, 0.89825, -0.41300000000000003, 192.0, 0.0, 0.0, 0.0, 0.0, 0.0, 0.0, 0.0, 0.0, 0.0, 1.741901763423066E9, 0.0, 2025-03-13 16:36:03.423
140.0, -31415.577997634173, -19596.668433745916, -29974.51632911162, -17059.208996201636, -39587.19695653879, -30749.98775124404, -37680.727264967834, -12847.715657677134, -27273.933860532507, -29201.30243316918, -35144.51952511305, -18630.40252094299, -25080.400714922038, -38024.72061213501, -34380.89452754194, -187500.02235174447, -0.10475000000000001, 0.89825, -0.41300000000000003, 192.0, 0.0, 0.0, 0.0, 0.0, 0.0, 0.0, 0.0, 0.0, 0.0, 1.741901763425053E9, 0.0, 2025-03-13 16:36:03.425
142.0, -31411.554683632217, -19598.74714598026, -29972.66113432183, -17061.04183924697, -39588.29219201711, -30753.675789079167, -37685.21996560335, -12850.48727398959, -27263.473244127425, -29198.55316860118, -35139.95976924417, -18628.16734649746, -25071.19179620645, -38021.05492604434, -34374.70309432782, -187500.02235174447, -0.10475000000000001, 0.89825, -0.41300000000000003, 192.0, 0.0, 0.0, 0.0, 0.0, 0.0, 0.0, 0.0, 0.0, 0.0, 1.741901763427065E9, 0.0, 2025-03-13 16:36:03.427
144.0, -31414.527465644776, -19594.0756313891, -29974.963364000723, -17058.918423523715, -39591.287325774116, -30744.824498274866, -37681.12959636803, -12842.999439597064, -27272.458645398456, -29200.989508746807, -35141.56909484495, -18631.788329099218, -25077.427932909482, -38021.14433302216, -34382.07916999807, -187500.02235174447, -0.10475000000000001, 0.89825, -0.41300000000000003, 192.0, 0.0, 0.0, 0.0, 0.0, 0.0, 0.0, 0.0, 0.0, 0.0, 1.74190176342906E9, 0.0, 2025-03-13 16:36:03.429
146.0, -31411.0629452542, -19596.087288390077, -29975.186881445276, -17061.354763669344, -39595.467101987255, -30754.61456234629, -37689.042113905205, -12853.907090891254, -27266.043694739783, -29197.077953467127, -35140.89854251129, -18631.609515143577, -25073.650488096537, -38018.35036496525, -34376.29006818415, -187500.02235174447, -0.105375, 0.8981250000000001, -0.41250000000000003, 192.0, 126.0, 88.0, 14.0, 8.0, 121.5, 16.0, 0.0, 0.0, 0.0, 1.741901763431056E9, 0.0, 2025-03-13 16:36:03.431
148.0, -31419.042518024748, -19595.394384311963, -29982.8758815379, -17056.303269422446, -39603.53608173563, -30747.864335520786, -37691.277288350735, -12850.844901900877, -27278.717133845945, -29202.934110514416, -35145.92768501374, -18636.45984369038, -25086.882720814076, -38029.61564417072, -34383.62144036549, -187500.02235174447, -0.105375, 0.8981250000000001, -0.41250000000000003, 192.0, 0.0, 0.0, 0.0, 0.0, 0.0, 0.0, 0.0, 0.0, 0.0, 1.741901763433214E9, 0.0, 2025-03-13 16:36:03.433
150.0, -31402.41282015, -19584.620843484503, -29971.923526754803, -17059.745438068563, -39592.78489265262, -30746.478527364558, -37685.689352236914, -12847.983878610597, -27264.6355348391, -29189.813636519153, -35132.047251706994, -18620.232477215824, -25075.259813697317, -38014.72938236349, -34378.502890885225, -187500.02235174447, -0.105375, 0.8981250000000001, -0.41250000000000003, 192.0, 0.0, 0.0, 0.0, 0.0, 0.0, 0.0, 0.0, 0.0, 0.0, 1.741901763435182E9, 0.0, 2025-03-13 16:36:03.435
152.0, -31419.780125591773, -19592.488657532773, -29983.725247827202, -17058.203167701147, -39600.4962444897, -30744.533925596945, -37689.48914879432, -12850.934308878697, -27275.856110555666, -29195.401572632978, -35140.160934944266, -18623.987570284316, -25084.58049113518, -38021.16668476661, -34384.76137933271, -187500.02235174447, -0.105375, 0.8981250000000001, -0.41250000000000003, 192.0, 0.0, 0.0, 0.0, 0.0, 0.0, 0.0, 0.0, 0.0, 0.0, 1.741901763481863E9, 0.0, 2025-03-13 16:36:03.481
154.0, -31407.509017885808, -19589.471172031306, -29970.56007034303, -17062.09237123637, -39586.28053501613, -30746.56793434238, -37685.39877955899, -12848.92265187772, -27268.703552329967, -29186.907909739963, -35133.656577307775, -18619.181945226424, -25074.879834041578, -38010.03551602787, -34376.78180656216, -187500.02235174447, -0.105375, 0.8981250000000001, -0.41250000000000003, 192.0, 0.0, 0.0, 0.0, 0.0, 0.0, 0.0, 0.0, 0.0, 0.0, 1.741901763483932E9, 0.0, 2025-03-13 16:36:03.483
156.0, -31421.88118957057, -19596.333157579083, -29981.624183848406, -17056.99617350056, -39589.99092459571, -30739.594190072323, -37679.22969808933, -12839.82549188441, -27277.4877879009, -29195.759200544264, -35144.45246987969, -18627.027407530237, -25083.48525565687, -38017.903330076144, -34373.47374838278, -187500.02235174447, -0.1046875, 0.8990625000000001, -0.41125, 192.0, 126.0, 96.0, 14.0, 16.0, 121.5, 24.0, 0.0, 0.0, 0.0, 1.741901763486022E9, 0.0, 2025-03-13 16:36:03.486
158.0, -31411.152352232024, -19595.21557035632, -29978.18201520229, -17063.254661948045, -39583.35245649248, -30750.077158221862, -37683.387122558015, -12848.721486177623, -27275.54318613329, -29194.39574413249, -35140.80913553347, -18625.44043367391, -25081.49595040035, -38012.24833872895, -34373.540803616146, -187500.02235174447, -0.1046875, 0.8990625000000001, -0.41125, 192.0, 0.0, 0.0, 0.0, 0.0, 0.0, 0.0, 0.0, 0.0, 0.0, 1.741901763488172E9, 0.0, 2025-03-13 16:36:03.488
160.0, -31413.54398888874, -19593.136858121976, -29980.618355347917, -17054.649240332754, -39582.43603496981, -30744.153945941205, -37675.38519804301, -12841.948907607664, -27275.05144775527, -29198.620223834543, -35144.9442082577, -18629.553154653688, -25082.47942715638, -38016.31635621982, -34374.4125216499, -187500.02235174447, -0.1046875, 0.8990625000000001, -0.41125, 192.0, 0.0, 0.0, 0.0, 0.0, 0.0, 0.0, 0.0, 0.0, 0.0, 1.741901763490166E9, 0.0, 2025-03-13 16:36:03.490
162.0, -31412.1134772436, -19600.20000936985, -29979.21019544723, -17065.1769119712, -39582.92777334783, -30756.112129224795, -37680.63785799001, -12852.409524012748, -27271.564575620247, -29196.608566833565, -35138.976292488136, -18626.602724385586, -25077.58439512067, -38017.79157135386, -34376.42417865088, -187500.02235174447, -0.1046875, 0.8990625000000001, -0.41125, 192.0, 0.0, 0.0, 0.0, 0.0, 0.0, 0.0, 0.0, 0.0, 0.0, 1.741901763492154E9, 0.0, 2025-03-13 16:36:03.492
164.0, -31415.019204022792, -19595.50614303424, -29977.958497757736, -17061.153597969245, -39585.29705826009, -30748.333722154348, -37678.17916609993, -12844.765227409032, -27269.2846976858, -29201.771819802743, -35141.09970821139, -18630.938962809916, -25078.277299198784, -38021.85958884473, -34375.686571083854, -187500.02235174447, -0.1046875, 0.8990625000000001, -0.41125, 192.0, 0.0, 0.0, 0.0, 0.0, 0.0, 0.0, 0.0, 0.0, 0.0, 1.741901763494175E9, 0.0, 2025-03-13 16:36:03.494
166.0, -31406.771410318783, -19590.700517976347, -29975.343343656463, -17069.066115506426, -39588.98509609522, -30757.252068192014, -37688.70683773838, -12855.695230447678, -27273.26330819885, -29198.374354645533, -35140.13858319981, -18630.06724477616, -25079.372534677095, -38017.411591698125, -34384.09082699905, -187500.02235174447, -0.10534375, 0.8975312500000001, -0.410625, 192.0, 126.0, 88.0, 14.0, 0.0, 121.5, 24.0, 0.0, 0.0, 0.0, 1.741901763541302E9, 0.0, 2025-03-13 16:36:03.541
168.0, -31413.856913311116, -19591.661642987925, -29981.780646059593, -17063.031144503493, -39596.18235780983, -30756.201536202618, -37688.23745110482, -12854.30942229145, -27268.68120058551, -29193.121694698537, -35140.00447273308, -18627.385035441523, -25077.047953253743, -38019.177379510096, -34378.10055948503, -187500.02235174447, -0.10534375, 0.8975312500000001, -0.410625, 192.0, 0.0, 0.0, 0.0, 0.0, 0.0, 0.0, 0.0, 0.0, 0.0, 1.741901763543548E9, 0.0, 2025-03-13 16:36:03.543
170.0, -31411.554683632217, -19594.723831978303, -29984.060523994034, -17076.732763854598, -39594.12599731994, -30767.511518897, -37689.824424961145, -12861.171407839229, -27279.83472106871, -29197.92731975643, -35143.6925105682, -18632.414177943967, -25082.09944750064, -38023.60302491224, -34395.400809693434, -187500.02235174447, -0.10534375, 0.8975312500000001, -0.410625, 192.0, 0.0, 0.0, 0.0, 0.0, 0.0, 0.0, 0.0, 0.0, 0.0, 1.741901763545571E9, 0.0, 2025-03-13 16:36:03.545
172.0, -31407.486666141354, -19589.180599353385, -29978.629050091393, -17068.775542828505, -39588.44865422829, -30754.07812047936, -37680.727264967834, -12847.290974532483, -27272.145720976085, -29197.413229633956, -35141.1444117003, -18631.341294210113, -25078.232595709873, -38023.46891444551, -34385.364876433, -187500.02235174447, -0.10534375, 0.8975312500000001, -0.410625, 192.0, 0.0, 0.0, 0.0, 0.0, 0.0, 0.0, 0.0, 0.0, 0.0, 1.741901763547547E9, 0.0, 2025-03-13 16:36:03.547
174.0, -31410.414744665, -19593.58389301108, -29981.400666403853, -17068.172045728214, -39590.01327634016, -30754.234582690548, -37684.504709780784, -12851.537805978991, -27269.73173257491, -29192.428790620423, -35133.63422556331, -18624.43460517342, -25071.951755517934, -38010.348440450245, -34382.50385314272, -187500.02235174447, -0.10534375, 0.8975312500000001, -0.410625, 192.0, 0.0, 0.0, 0.0, 0.0, 0.0, 0.0, 0.0, 0.0, 0.0, 1.741901763549518E9, 0.0, 2025-03-13 16:36:03.549
176.0, -31420.405974436522, -19598.523628535706, -29988.419114162818, -17075.928101054204, -39594.23775604222, -30760.291905437938, -37684.23648884732, -12851.537805978991, -27277.53249138981, -29208.25382569478, -35149.90629552678, -18641.73485538183, -25084.133456246076, -38035.09182156227, -34383.12970198747, -187500.02235174447, -0.106671875, 0.8957656250000001, -0.4103125, 192.0, 126.0, 80.0, 13.5, 120.0, 121.5, 24.0, 0.0, 0.0, 0.0, 1.741901763551518E9, 0.0, 2025-03-13 16:36:03.551
178.0, -31416.3156052012, -19594.567369767115, -29985.692201339272, -17073.60351963085, -39589.521537962144, -30754.458100135103, -37680.97313415684, -12848.11798907733, -27277.174863478525, -29200.02838373523, -35140.026824477536, -18633.12943376654, -25077.740857331857, -38022.5748446673, -34386.50481540022, -187500.02235174447, -0.106671875, 0.8957656250000001, -0.4103125, 192.0, 0.0, 0.0, 0.0, 0.0, 0.0, 0.0, 0.0, 0.0, 0.0, 1.741901763553713E9, 0.0, 2025-03-13 16:36:03.553
180.0, -31419.355442447122, -19601.25054135925, -29990.184901974786, -17075.369307442823, -39591.93552636332, -30754.27928617946, -37675.765177698755, -12845.59224195388, -27273.308011687757, -29203.91758727045, -35146.77705130304, -18641.868965848564, -25077.62909860958, -38028.40864997014, -34382.01211476471, -187500.02235174447, -0.106671875, 0.8957656250000001, -0.4103125, 192.0, 0.0, 0.0, 0.0, 0.0, 0.0, 0.0, 0.0, 0.0, 0.0, 1.741901763555692E9, 0.0, 2025-03-13 16:36:03.555
182.0, -31427.0667942842, -19601.675224503902, -29997.873902067415, -17075.190493487178, -39598.66340144437, -30755.262762935494, -37686.85164294859, -12853.437704257693, -27289.088343273204, -29208.902026283984, -35155.605990362885, -18648.3509717406, -25084.938119046466, -38031.269673260416, -34393.79148409265, -187500.02235174447, -0.106671875, 0.8957656250000001, -0.4103125, 192.0, 0.0, 0.0, 0.0, 0.0, 0.0, 0.0, 0.0, 0.0, 0.0, 1.74190176360111E9, 0.0, 2025-03-13 16:36:03.601
184.0, -31418.70724185792, -19598.009538413233, -29996.488093911183, -17074.028202775502, -39595.40004675389, -30758.190841459138, -37684.571765014145, -12851.358992023348, -27287.16609325005, -29209.5949303621, -35158.42231016425, -18646.518128695265, -25089.654337126536, -38035.13652505118, -34388.78469333467, -187500.02235174447, -0.106671875, 0.8957656250000001, -0.4103125, 192.0, 0.0, 0.0, 0.0, 0.0, 0.0, 0.0, 0.0, 0.0, 0.0, 1.741901763603208E9, 0.0, 2025-03-13 16:36:03.603
186.0, -31408.1125149861, -19585.78313419618, -29985.111055983434, -17061.08654273588, -39583.93360184832, -30744.958608741596, -37668.65732296197, -12839.199643039661, -27282.06989551424, -29196.765029044753, -35143.20077219019, -18631.587163399123, -25083.038220767765, -38016.00343179744, -34383.80025432113, -187500.02235174447, -0.1053359375, 0.8938828125, -0.41015625, 192.0, 126.0, 96.0, 13.5, 112.0, 121.5, 24.0, 0.0, 0.0, 0.0, 1.741901763605211E9, 0.0, 2025-03-13 16:36:03.605
188.0, -31409.855951053614, -19596.221398856807, -29988.195596718266, -17067.926176539204, -39591.153215307386, -30758.079082736862, -37687.52219528225, -12852.945965879675, -27278.717133845945, -29204.67754658193, -35145.882981524825, -18636.035160545725, -25082.658241112025, -38029.90621684864, -34380.20162346383, -187500.02235174447, -0.1053359375, 0.8938828125, -0.41015625, 192.0, 0.0, 0.0, 0.0, 0.0, 0.0, 0.0, 0.0, 0.0, 0.0, 1.741901763607387E9, 0.0, 2025-03-13 16:36:03.607
190.0, -31419.4672011694, -19598.36716632452, -29995.79518983307, -17060.192472957668, -39595.53415722062, -30755.061597235395, -37691.18788137292, -12856.611651970346, -27282.91926180354, -29204.07404948164, -35142.64197857881, -18636.25867799028, -25085.049877768743, -38025.458219702035, -34386.2142427223, -187500.02235174447, -0.1053359375, 0.8938828125, -0.41015625, 192.0, 0.0, 0.0, 0.0, 0.0, 0.0, 0.0, 0.0, 0.0, 0.0, 1.741901763609365E9, 0.0, 2025-03-13 16:36:03.609
192.0, -31399.93177651546, -19585.425506284893, -29984.664021094326, -17062.584109614385, -39582.88306985892, -30756.04507399143, -37679.184994600415, -12850.509625734046, -27279.25357571287, -29203.44820063689, -35145.793574547, -18637.108044279583, -25087.77679059229, -38029.034498814886, -34386.50481540022, -187500.02235174447, -0.1053359375, 0.8938828125, -0.41015625, 192.0, 0.0, 0.0, 0.0, 0.0, 0.0, 0.0, 0.0, 0.0, 0.0, 1.741901763611307E9, 0.0, 2025-03-13 16:36:03.611
194.0, -31411.554683632217, -19591.259311587728, -29992.17420723131, -17057.219690945112, -39590.61677344046, -30749.56306809939, -37681.576631257136, -12849.280279789005, -27276.437255911504, -29198.508465112267, -35138.059870965466, -18627.83207033063, -25086.502741158336, -38019.28913823237, -34384.291992699145, -187500.02235174447, -0.1053359375, 0.8938828125, -0.41015625, 192.0, 0.0, 0.0, 0.0, 0.0, 0.0, 0.0, 0.0, 0.0, 0.0, 1.741901763613265E9, 0.0, 2025-03-13 16:36:03.613
196.0, -31413.141657488544, -19600.132954136487, -29991.99539327567, -17074.832865575896, -39597.03172409913, -30764.695199095633, -37694.02655291874, -12862.803085184465, -27279.812369324252, -29205.63867159351, -35146.15120245829, -18637.420968701957, -25091.688345871968, -38027.827504614295, -34387.577699134075, -187500.02235174447, -0.10366796875, 0.89394140625, -0.411078125, 192.0, 126.0, 104.0, 13.5, 120.0, 121.5, 16.0, 0.0, 0.0, 0.0, 1.741901763661351E9, 0.0, 2025-03-13 16:36:03.661
198.0, -31419.02016628029, -19598.50127679125, -29995.817541577526, -17074.497589409064, -39601.412666012366, -30762.12474848327, -37689.2432796053, -12856.365782781337, -27288.283680472814, -29213.081802497127, -35153.996664762104, -18644.26060250528, -25096.96335756342, -38037.17053379661, -34394.32792595958, -187500.02235174447, -0.10366796875, 0.89394140625, -0.411078125, 192.0, 0.0, 0.0, 0.0, 0.0, 0.0, 0.0, 0.0, 0.0, 0.0, 1.741901763663745E9, 0.0, 2025-03-13 16:36:03.663
200.0, -31405.92204402948, -19594.947349422855, -29992.196558975764, -17078.99029004458, -39597.76933166615, -30770.461949165103, -37693.51246279627, -12863.719506707133, -27278.806540823763, -29203.805828548175, -35146.799403047495, -18634.381131456033, -25088.559101648225, -38031.38143198269, -34393.366800948, -187500.02235174447, -0.10366796875, 0.89394140625, -0.411078125, 192.0, 0.0, 0.0, 0.0, 0.0, 0.0, 0.0, 0.0, 0.0, 0.0, 1.741901763665755E9, 0.0, 2025-03-13 16:36:03.665
202.0, -31416.382660434567, -19597.31663433512, -29998.164474745332, -17073.75998184204, -39603.15610207988, -30764.00229501752, -37690.62908776153, -12857.863349659843, -27280.169997235538, -29203.78347680372, -35146.88881002532, -18634.06820703366, -25092.20243599444, -38030.66617616012, -34396.85367308303, -187500.02235174447, -0.10366796875, 0.89394140625, -0.411078125, 192.0, 0.0, 0.0, 0.0, 0.0, 0.0, 0.0, 0.0, 0.0, 0.0, 1.741901763667734E9, 0.0, 2025-03-13 16:36:03.667
204.0, -31406.659651596507, -19595.08145988959, -29986.049829250554, -17084.28765348049, -39588.04632282809, -30766.438635163147, -37683.96826791385, -12854.868215902832, -27276.817235567243, -29205.281043682226, -35144.363062901866, -18634.78346285623, -25087.575624892193, -38031.470838960515, -34397.166597505406, -187500.02235174447, -0.10366796875, 0.89394140625, -0.411078125, 192.0, 0.0, 0.0, 0.0, 0.0, 0.0, 0.0, 0.0, 0.0, 0.0, 1.741901763669732E9, 0.0, 2025-03-13 16:36:03.669
206.0, -31423.624625638084, -19606.34673909506, -29998.54445440107, -17075.03403127599, -39597.90344213288, -30757.98967575904, -37688.81859646065, -12855.605823469858, -27277.040753011795, -29203.78347680372, -35144.832449535425, -18635.141090767516, -25085.429857424482, -38031.6273011717, -34384.33669618806, -187500.02235174447, -0.101833984375, 0.896970703125, -0.41353906250000005, 192.0, 126.0, 112.0, 14.0, 16.0, 121.5, 0.0, 0.0, 0.0, 0.0, 1.741901763671734E9, 0.0, 2025-03-13 16:36:03.671
208.0, -31421.389451192554, -19609.40892808544, -29997.31510845603, -17084.198246502667, -39592.471968230246, -30768.69616135313, -37690.47262555035, -12861.551387494968, -27284.819160082243, -29213.238264708314, -35152.812022305974, -18644.46176820538, -25092.0236220388, -38035.29298726237, -34394.640850381955, -187500.02235174447, -0.101833984375, 0.896970703125, -0.41353906250000005, 192.0, 0.0, 0.0, 0.0, 0.0, 0.0, 0.0, 0.0, 0.0, 0.0, 1.741901763673874E9, 0.0, 2025-03-13 16:36:03.673
210.0, -31425.926855316982, -19603.93275069389, -29997.06923926702, -17075.414010931734, -39590.236793784716, -30762.258858950005, -37682.828328946634, -12853.884739146799, -27285.91439556055, -29215.048756009193, -35155.62834210734, -18644.282954249735, -25093.364726706117, -38035.650615173654, -34390.39401893545, -187500.02235174447, -0.101833984375, 0.896970703125, -0.41353906250000005, 192.0, 0.0, 0.0, 0.0, 0.0, 0.0, 0.0, 0.0, 0.0, 0.0, 1.741901763675883E9, 0.0, 2025-03-13 16:36:03.675
212.0, -31423.132887260068, -19608.73837575178, -29998.209178234243, -17082.67832787971, -39585.38646523791, -30775.13346375626, -37686.02462840374, -12863.652451473768, -27286.58494789421, -29212.992395519304, -35152.96848451716, -18643.12066353806, -25090.9730900494, -38032.61077792773, -34388.829396823574, -187500.02235174447, -0.101833984375, 0.896970703125, -0.41353906250000005, 192.0, 0.0, 0.0, 0.0, 0.0, 0.0, 0.0, 0.0, 0.0, 0.0, 1.741901763721661E9, 0.0, 2025-03-13 16:36:03.721
214.0, -31434.152297276534, -19611.375881597505, -30006.16639926033, -17075.212845231636, -39595.623564198446, -30766.84096656334, -37692.1490063845, -12862.378402039814, -27286.070857771738, -29212.97004377485, -35157.88586829732, -18647.74747464031, -25090.079020271187, -38034.734193650984, -34381.72154208679, -187500.02235174447, -0.101833984375, 0.896970703125, -0.41353906250000005, 192.0, 0.0, 0.0, 0.0, 0.0, 0.0, 0.0, 0.0, 0.0, 0.0, 1.741901763723697E9, 0.0, 2025-03-13 16:36:03.723
216.0, -31428.206733251423, -19608.87248621851, -30004.08768702599, -17089.137982027292, -39591.82376764104, -30774.48526316706, -37693.95949768538, -12867.11697186434, -27294.92214857604, -29215.54049438721, -35161.059816009976, -18652.64250667602, -25095.644604640558, -38032.09668780526, -34396.384286449465, -187500.02235174447, -0.1039169921875, 0.8964853515625, -0.41576953125000005, 192.0, 126.0, 88.0, 14.0, 0.0, 121.0, 120.0, 0.0, 0.0, 0.0, 1.741901763725702E9, 0.0, 2025-03-13 16:36:03.725
218.0, -31440.20962002392, -19618.0814049341, -30015.576483676017, -17082.2312929906, -39600.63035495643, -30774.28409746696, -37697.66988726496, -12870.179160854717, -27295.950328820985, -29218.49092465531, -35168.63705738033, -18657.090503822626, -25097.58920640817, -38043.00433909945, -34386.79538807814, -187500.02235174447, -0.1039169921875, 0.8964853515625, -0.41576953125000005, 192.0, 0.0, 0.0, 0.0, 0.0, 0.0, 0.0, 0.0, 0.0, 0.0, 1.741901763727806E9, 0.0, 2025-03-13 16:36:03.727
220.0, -31431.067756541703, -19616.31561712213, -30008.826256850512, -17087.774525615518, -39594.908308375874, -30775.982830045563, -37696.41818957546, -12869.061573631952, -27300.890064345607, -29221.687224112422, -35166.357179445884, -18657.02344858926, -25101.701927387945, -38045.70890017854, -34396.585452149564, -187500.02235174447, -0.1039169921875, 0.8964853515625, -0.41576953125000005, 192.0, 0.0, 0.0, 0.0, 0.0, 0.0, 0.0, 0.0, 0.0, 0.0, 1.741901763729843E9, 0.0, 2025-03-13 16:36:03.729
222.0, -31429.257265240823, -19612.337006609083, -30005.89817832687, -17084.846447091873, -39590.68382867382, -30765.544565384935, -37685.57759351464, -12857.528073493013, -27299.660718400566, -29227.342215459612, -35168.79351959151, -18660.08563757964, -25103.66888090001, -38049.62045545822, -34386.43776016686, -187500.02235174447, -0.1039169921875, 0.8964853515625, -0.41576953125000005, 192.0, 0.0, 0.0, 0.0, 0.0, 0.0, 0.0, 0.0, 0.0, 0.0, 1.741901763731821E9, 0.0, 2025-03-13 16:36:03.731
224.0, -31418.70724185792, -19603.9774541828, -29993.291794454075, -17077.604481888353, -39587.19695653879, -30761.029513004964, -37686.181090614926, -12859.919710149732, -27289.468322928948, -29210.01961350675, -35148.252266437084, -18643.254774004792, -25089.09554351515, -38028.609815670236, -34383.15205373193, -187500.02235174447, -0.1039169921875, 0.8964853515625, -0.41576953125000005, 192.0, 0.0, 0.0, 0.0, 0.0, 0.0, 0.0, 0.0, 0.0, 0.0, 1.741901763733772E9, 0.0, 2025-03-13 16:36:03.733
226.0, -31415.98032903437, -19599.7753262252, -29988.977907774202, -17067.61325211683, -39587.711046661265, -30755.12865246876, -37682.15777661297, -12855.158788580751, -27284.72975310442, -29207.22564544984, -35146.866458280856, -18637.1974512574, -25087.73208710338, -38029.503885448445, -34372.08794022655, -187500.02235174447, -0.10195849609375, 0.89624267578125, -0.41588476562500004, 192.0, 126.0, 112.0, 14.0, 0.0, 121.5, 0.0, 0.0, 0.0, 0.0, 1.741901763781845E9, 0.0, 2025-03-13 16:36:03.781
228.0, -31416.896750557036, -19598.277759346696, -29991.056620008545, -17068.350859683855, -39588.78393039512, -30754.36869315728, -37684.16943361395, -12856.58930022589, -27292.55286366378, -29205.77278206024, -35145.793574547, -18633.665875633465, -25095.152866262542, -38025.458219702035, -34381.363914175505, -187500.02235174447, -0.10195849609375, 0.89624267578125, -0.41588476562500004, 192.0, 0.0, 0.0, 0.0, 0.0, 0.0, 0.0, 0.0, 0.0, 0.0, 1.741901763785547E9, 0.0, 2025-03-13 16:36:03.785
230.0, -31412.001718521326, -19597.383689568484, -29985.98277401719, -17064.57341487091, -39583.77713963713, -30750.36773089978, -37678.60384924458, -12850.710791434145, -27284.573290893233, -29202.621186092045, -35145.10067046889, -18632.905916321983, -25091.710697616425, -38025.86055110223, -34374.47957688327, -187500.02235174447, -0.10195849609375, 0.89624267578125, -0.41588476562500004, 192.0, 0.0, 0.0, 0.0, 0.0, 0.0, 0.0, 0.0, 0.0, 0.0, 1.741901763789215E9, 0.0, 2025-03-13 16:36:03.789
232.0, -31419.44484942494, -19602.50223904875, -29991.257785708643, -17059.454865390642, -39588.38159899492, -30750.166565199685, -37683.61064000257, -12852.588337968391, -27294.743334620398, -29202.174151202937, -35145.23478093562, -18631.989494799316, -25095.39873545155, -38018.55153066535, -34378.480539140764, -187500.02235174447, -0.10195849609375, 0.89624267578125, -0.41588476562500004, 192.0, 0.0, 0.0, 0.0, 0.0, 0.0, 0.0, 0.0, 0.0, 0.0, 1.741901763791299E9, 0.0, 2025-03-13 16:36:03.791
234.0, -31412.001718521326, -19597.853076202045, -29988.93320428529, -17060.48304563559, -39583.39715998139, -30752.312332667392, -37679.16264285596, -12851.40369551226, -27290.83177934072, -29205.839837293606, -35147.31349316997, -18633.218840744357, -25096.24810174085, -38030.15208603765, -34375.99949550623, -187500.02235174447, -0.10195849609375, 0.89624267578125, -0.41588476562500004, 192.0, 0.0, 0.0, 0.0, 0.0, 0.0, 0.0, 0.0, 0.0, 0.0, 1.741901763793284E9, 0.0, 2025-03-13 16:36:03.793
236.0, -31416.40501217902, -19598.277759346696, -29992.755352587148, -17052.145844953757, -39583.799491381586, -30740.488259850536, -37673.15002359748, -12842.418294241226, -27290.407096196068, -29199.670755823943, -35140.18328668872, -18625.619247629555, -25094.459962184428, -38017.88097833168, -34378.704056585324, -187500.02235174447, -0.100979248046875, 0.894121337890625, -0.4179423828125, 192.0, 126.0, 112.0, 13.5, 112.0, 121.0, 112.0, 0.0, 0.0, 0.0, 1.741901763795285E9, 0.0, 2025-03-13 16:36:03.795
238.0, -31416.248549967833, -19605.29620710566, -29997.158646244843, -17069.3790399288, -39590.48266297372, -30755.396873402224, -37690.33851508362, -12857.505721748557, -27291.72584911893, -29206.82331404964, -35147.58171410343, -18635.230497745335, -25098.416220953015, -38026.79932436935, -34380.112216486006, -187500.02235174447, -0.100979248046875, 0.894121337890625, -0.4179423828125, 192.0, 0.0, 0.0, 0.0, 0.0, 0.0, 0.0, 0.0, 0.0, 0.0, 1.741901763797446E9, 0.0, 2025-03-13 16:36:03.797
240.0, -31430.2183902524, -19611.442936830874, -30006.144047515878, -17065.75805732704, -39594.23775604222, -30749.741882055034, -37686.42695980394, -12851.671916445723, -27297.514950932855, -29209.192598961905, -35150.46508913816, -18638.78442511373, -25104.96528207842, -38028.14042903667, -34391.75747534722, -187500.02235174447, -0.100979248046875, 0.894121337890625, -0.4179423828125, 192.0, 0.0, 0.0, 0.0, 0.0, 0.0, 0.0, 0.0, 0.0, 0.0, 1.74190176379952E9, 0.0, 2025-03-13 16:36:03.799
242.0, -31423.22229423789, -19613.298131620664, -30001.40547769135, -17078.90088306676, -39587.53223270562, -30765.119882240284, -37688.617430760554, -12861.461980517148, -27297.716116632953, -29216.00988102077, -35155.471879896155, -18646.227556017348, -25104.227674511396, -38037.37169949671, -34390.52812940218, -187500.02235174447, -0.100979248046875, 0.894121337890625, -0.4179423828125, 192.0, 0.0, 0.0, 0.0, 0.0, 0.0, 0.0, 0.0, 0.0, 0.0, 1.741901763842066E9, 0.0, 2025-03-13 16:36:03.842
244.0, -31439.02497756779, -19621.523573580216, -30013.587178419493, -17078.56560689993, -39596.91996537685, -30762.32591418337, -37691.61256451757, -12860.947890394675, -27306.232131270426, -29222.82716307964, -35160.65748460979, -18652.418989231468, -25109.614444925126, -38041.43971698758, -34391.10927475802, -187500.02235174447, -0.100979248046875, 0.894121337890625, -0.4179423828125, 192.0, 0.0, 0.0, 0.0, 0.0, 0.0, 0.0, 0.0, 0.0, 0.0, 1.741901763844176E9, 0.0, 2025-03-13 16:36:03.844
246.0, -31425.122192516592, -19613.92398046541, -30002.388954447386, -17081.963072057137, -39585.02883732663, -30762.862356050297, -37684.32589582514, -12855.963451381142, -27303.236997513413, -29223.363604946568, -35162.49032765512, -18654.430646232446, -25107.491029201872, -38038.24341753047, -34392.47273116979, -187500.02235174447, -0.1024896240234375, 0.8930606689453124, -0.41797119140625, 192.0, 126.0, 96.0, 13.5, 112.0, 121.0, 120.0, 0.0, 0.0, 0.0, 1.741901763846171E9, 0.0, 2025-03-13 16:36:03.846
248.0, -31430.955997819427, -19613.16402115393, -30002.053678280558, -17071.413048674232, -39584.67120941534, -30755.843908291332, -37680.81667194566, -12851.604861212358, -27301.135933534617, -29218.848552566596, -35159.29402819801, -18650.720256652865, -25104.786468122777, -38040.65740593164, -34388.47176891229, -187500.02235174447, -0.1024896240234375, 0.8930606689453124, -0.41797119140625, 192.0, 0.0, 0.0, 0.0, 0.0, 0.0, 0.0, 0.0, 0.0, 0.0, 1.741901763848383E9, 0.0, 2025-03-13 16:36:03.848
250.0, -31422.79761109324, -19611.30882636414, -29995.951652044256, -17075.257548720547, -39579.12797679043, -30761.56595487189, -37681.35311381258, -12857.59512872638, -27296.82204685474, -29213.417078663955, -35153.25905719508, -18643.858271105084, -25100.763154120825, -38035.53885645138, -34383.62144036549, -187500.02235174447, -0.1024896240234375, 0.8930606689453124, -0.41797119140625, 192.0, 0.0, 0.0, 0.0, 0.0, 0.0, 0.0, 0.0, 0.0, 0.0, 1.741901763850423E9, 0.0, 2025-03-13 16:36:03.850
252.0, -31434.50992518782, -19616.6285415445, -30005.98758530469, -17069.647260862264, -39587.19695653879, -30757.05090249192, -37687.790416215714, -12857.326907792916, -27303.304052746782, -29218.133296744025, -35157.81881306396, -18649.088579307627, -25108.49685770236, -38039.025728586406, -34383.71084734331, -187500.02235174447, -0.1024896240234375, 0.8930606689453124, -0.41797119140625, 192.0, 0.0, 0.0, 0.0, 0.0, 0.0, 0.0, 0.0, 0.0, 0.0, 1.741901763852427E9, 0.0, 2025-03-13 16:36:03.852
254.0, -31423.132887260068, -19612.337006609083, -29996.778666589104, -17073.648223119762, -39581.564316936056, -30761.789472316443, -37685.71170398137, -12858.39979152677, -27302.745259135398, -29215.83106706513, -35154.421347906755, -18646.361666484077, -25106.842828612665, -38036.94701635206, -34388.494120656746, -187500.02235174447, -0.1024896240234375, 0.8930606689453124, -0.41797119140625, 192.0, 0.0, 0.0, 0.0, 0.0, 0.0, 0.0, 0.0, 0.0, 0.0, 1.741901763854419E9, 0.0, 2025-03-13 16:36:03.854
0.0, -31428.586712907163, -19612.716986264826, -29999.17030324582, -17058.85136829035, -39585.69938966029, -30750.300675666414, -37684.16943361395, -12853.929442635708, -27299.861884100665, -29213.238264708314, -35151.80619380548, -18643.433587960433, -25108.20628502444, -38033.79542038387, -34381.22980370877, -187500.02235174447, -0.10424481201171876, 0.8945303344726563, -0.416985595703125, 192.0, 126.0, 88.0, 14.0, 0.0, 121.5, 0.0, 0.0, 0.0, 0.0, 1.741901763901545E9, 0.0, 2025-03-13 16:36:03.901
2.0, -31414.88509355606, -19607.106698406544, -29989.89432929687, -17062.651164847754, -39578.1892035233, -30753.116995467783, -37685.04115164771, -12853.884739146799, -27297.44789569949, -29214.266444953257, -35146.75469955858, -18641.265468748268, -25105.12174428961, -38030.19678952656, -34382.50385314272, -187500.02235174447, -0.10424481201171876, 0.8945303344726563, -0.416985595703125, 192.0, 0.0, 0.0, 0.0, 0.0, 0.0, 0.0, 0.0, 0.0, 0.0, 1.741901763903766E9, 0.0, 2025-03-13 16:36:03.903
4.0, -31430.151335019036, -19617.343797367073, -30003.528893414605, -17052.190548442668, -39593.41074149737, -30752.84877453432, -37696.57465178664, -12861.752553195067, -27292.083477030217, -29211.047793751695, -35145.01126349107, -18635.83399484563, -25103.73593613338, -38024.02770805689, -34374.770149561184, -187500.02235174447, -0.10424481201171876, 0.8945303344726563, -0.416985595703125, 192.0, 0.0, 0.0, 0.0, 0.0, 0.0, 0.0, 0.0, 0.0, 0.0, 1.741901763905798E9, 0.0, 2025-03-13 16:36:03.905
6.0, -31414.326299944678, -19604.44684081636, -29989.626108363405, -17063.38877241478, -39579.15032853488, -30750.524193110967, -37681.911907423964, -12851.537805978991, -27300.97947132343, -29213.5958926196, -35148.07345248145, -18638.62796290254, -25109.279168758294, -38032.63312967219, -34389.83522532407, -187500.02235174447, -0.10424481201171876, 0.8945303344726563, -0.416985595703125, 192.0, 0.0, 0.0, 0.0, 0.0, 0.0, 0.0, 0.0, 0.0, 0.0, 1.74190176390785E9, 0.0, 2025-03-13 16:36:03.907
8.0, -31425.41276519451, -19613.298131620664, -29999.259710223643, -17056.37032465581, -39586.05701757158, -30745.383291886246, -37683.387122558015, -12851.470750745626, -27296.151494521084, -29211.092497240606, -35148.45343213718, -18636.035160545725, -25107.53573269078, -38031.85081861625, -34375.552460617124, -187500.02235174447, -0.10424481201171876, 0.8945303344726563, -0.416985595703125, 192.0, 0.0, 0.0, 0.0, 0.0, 0.0, 0.0, 0.0, 0.0, 0.0, 1.741901763909837E9, 0.0, 2025-03-13 16:36:03.909
10.0, -31409.61008186461, -19599.998843669753, -29989.08966649648, -17054.26926067701, -39577.67511340083, -30744.243352919028, -37676.70395096588, -12846.508663476547, -27292.150532263582, -29202.978814003327, -35138.32809189893, -18628.435567430923, -25101.97014832141, -38021.79253361136, -34380.581603119565, -187500.02235174447, -0.10412240600585938, 0.8942651672363282, -0.4164927978515625, 192.0, 126.0, 96.0, 13.5, 120.0, 121.5, 0.0, 0.0, 0.0, 0.0, 1.741901763911805E9, 0.0, 2025-03-13 16:36:03.911
12.0, -31415.466238911897, -19603.21749487132, -29992.777704331602, -17055.99034500007, -39581.83253786952, -30750.546544855424, -37680.526099267736, -12850.107294333851, -27296.553825921277, -29209.30435768418, -35146.95586525868, -18635.386959956522, -25110.26264551433, -38033.415440728124, -34379.70988508581, -187500.02235174447, -0.10412240600585938, 0.8942651672363282, -0.4164927978515625, 192.0, 0.0, 0.0, 0.0, 0.0, 0.0, 0.0, 0.0, 0.0, 0.0, 1.741901763913899E9, 0.0, 2025-03-13 16:36:03.913
14.0, -31413.052250510726, -19603.776288482703, -29986.45216065075, -17057.42085664521, -39572.757729620665, -30748.668998321176, -37670.55722124067, -12846.642773943278, -27290.362392707157, -29203.202331447883, -35135.131792441825, -18627.4967941638, -25099.53380817578, -38023.60302491224, -34378.99462926324, -187500.02235174447, -0.10412240600585938, 0.8942651672363282, -0.4164927978515625, 192.0, 0.0, 0.0, 0.0, 0.0, 0.0, 0.0, 0.0, 0.0, 0.0, 1.741901763915894E9, 0.0, 2025-03-13 16:36:03.915
16.0, -31414.79568657824, -19601.943445437366, -29988.016782762625, -17059.56662411292, -39573.58474416551, -30754.793376301932, -37675.49695676529, -12852.588337968391, -27293.02225029734, -29211.651290851987, -35144.273655924044, -18635.521070423256, -25103.378308222094, -38034.7788971399, -34368.89164076944, -187500.02235174447, -0.10412240600585938, 0.8942651672363282, -0.4164927978515625, 192.0, 0.0, 0.0, 0.0, 0.0, 0.0, 0.0, 0.0, 0.0, 0.0, 1.741901763961287E9, 0.0, 2025-03-13 16:36:03.961
18.0, -31408.35838417511, -19598.143648879963, -29986.45216065075, -17058.04670548996, -39572.28834298711, -30754.07812047936, -37676.12280561004, -12851.671916445723, -27288.574253150735, -29203.6940698259, -35134.707109297175, -18626.513317407767, -25098.14800001955, -38022.41838245611, -34373.29493442714, -187500.02235174447, -0.10412240600585938, 0.8942651672363282, -0.4164927978515625, 192.0, 0.0, 0.0, 0.0, 0.0, 0.0, 0.0, 0.0, 0.0, 0.0, 1.741901763963405E9, 0.0, 2025-03-13 16:36:03.963
20.0, -31418.819000580195, -19607.084346662086, -29999.215006734732, -17058.113760723325, -39582.3913314809, -30758.347303670325, -37683.83415744712, -12855.53876823649, -27289.334212462214, -29208.343232672603, -35142.37375764534, -18631.92243956595, -25106.52990419029, -38034.08599306178, -34370.14333845894, -187500.02235174447, -0.1030612030029297, 0.8961325836181642, -0.4152463989257813, 192.0, 126.0, 104.0, 14.0, 8.0, 121.5, 8.0, 0.0, 0.0, 0.0, 1.741901763965418E9, 0.0, 2025-03-13 16:36:03.965
22.0, -31418.997814535836, -19607.061994917633, -29998.41034393434, -17064.19343521517, -39576.19989826679, -30752.446443134126, -37673.820575931146, -12847.536843721491, -27300.68889864551, -29212.008918763273, -35145.52535361354, -18634.582297156132, -25112.92250310451, -38029.41447847062, -34382.99559152074, -187500.02235174447, -0.1030612030029297, 0.8961325836181642, -0.4152463989257813, 192.0, 0.0, 0.0, 0.0, 0.0, 0.0, 0.0, 0.0, 0.0, 0.0, 1.741901763967542E9, 0.0, 2025-03-13 16:36:03.967
24.0, -31420.74125060335, -19611.1300124085, -29996.622204377916, -17067.590900372375, -39572.80243310957, -30757.207364703107, -37676.50278526578, -12851.068419345429, -27295.41388695406, -29216.859247310073, -35148.296969926, -18639.45497744739, -25111.514343203824, -38033.23662677248, -34377.117082729, -187500.02235174447, -0.1030612030029297, 0.8961325836181642, -0.4152463989257813, 192.0, 0.0, 0.0, 0.0, 0.0, 0.0, 0.0, 0.0, 0.0, 0.0, 1.741901763969531E9, 0.0, 2025-03-13 16:36:03.969
26.0, -31424.45164018293, -19611.35352985305, -29998.477399167707, -17066.294499193966, -39576.535174433615, -30758.101434481316, -37687.27632609324, -12860.187931083196, -27297.31378523276, -29217.06041301017, -35143.96073150167, -18638.091521035614, -25108.92154084701, -38030.263844759924, -34380.67101009739, -187500.02235174447, -0.1030612030029297, 0.8961325836181642, -0.4152463989257813, 192.0, 0.0, 0.0, 0.0, 0.0, 0.0, 0.0, 0.0, 0.0, 0.0, 1.741901763971551E9, 0.0, 2025-03-13 16:36:03.971
28.0, -31423.445811682443, -19616.02504444421, -30005.875826582414, -17077.827999332905, -39580.80435762458, -30769.56787938689, -37697.35696284258, -12870.64854748828, -27295.503293931877, -29223.274197968745, -35148.274618181546, -18646.40636997299, -25110.463811214428, -38038.75750765294, -34382.32503918708, -187500.02235174447, -0.1030612030029297, 0.8961325836181642, -0.4152463989257813, 192.0, 0.0, 0.0, 0.0, 0.0, 0.0, 0.0, 0.0, 0.0, 0.0, 1.741901763973649E9, 0.0, 2025-03-13 16:36:03.973
30.0, -31432.967654820404, -19617.0308729447, -30009.765030117636, -17074.27407196451, -39586.07936931603, -30766.550393885424, -37697.22285237585, -12871.49791377758, -27307.886160360118, -29227.92336081545, -35154.08607173993, -18651.927250853452, -25118.30927351824, -38041.50677222094, -34397.010135294215, -187500.02235174447, -0.10053060150146485, 0.8950662918090821, -0.41462319946289067, 192.0, 126.0, 120.0, 13.5, 120.0, 121.5, 8.0, 0.0, 0.0, 0.0, 1.741901764021545E9, 0.0, 2025-03-13 16:36:04.021
32.0, -31426.753869861826, -19615.376843855007, -30004.9817568042, -17079.906711567248, -39582.592497181, -30769.545527642433, -37691.903137195484, -12868.815704442943, -27307.7967533823, -29230.22559049435, -35157.32707468594, -18655.145902055014, -25118.979825851897, -38046.44650774557, -34389.14232124595, -187500.02235174447, -0.10053060150146485, 0.8950662918090821, -0.41462319946289067, 192.0, 0.0, 0.0, 0.0, 0.0, 0.0, 0.0, 0.0, 0.0, 0.0, 1.741901764023789E9, 0.0, 2025-03-13 16:36:04.023
34.0, -31430.35250071913, -19611.755861253245, -30008.22275975022, -17070.51897889602, -39583.240697770205, -30754.52515536847, -37679.11793936705, -12853.482407746604, -27307.5955876822, -29222.290721212714, -35151.78384206103, -18647.658067662487, -25120.477392730405, -38035.315339006826, -34392.45037942533, -187500.02235174447, -0.10053060150146485, 0.8950662918090821, -0.41462319946289067, 192.0, 0.0, 0.0, 0.0, 0.0, 0.0, 0.0, 0.0, 0.0, 0.0, 1.74190176402579E9, 0.0, 2025-03-13 16:36:04.025
36.0, -31424.78691634976, -19613.722814765315, -30004.534721915094, -17074.832865575896, -39580.42437796883, -30760.69423683813, -37677.41920678845, -12855.628175214313, -27302.07470680174, -29220.413174678466, -35149.749833315596, -18641.824262359652, -25117.05757582874, -38038.5786936973, -34387.175367733886, -187500.02235174447, -0.10053060150146485, 0.8950662918090821, -0.41462319946289067, 192.0, 0.0, 0.0, 0.0, 0.0, 0.0, 0.0, 0.0, 0.0, 0.0, 1.741901764027804E9, 0.0, 2025-03-13 16:36:04.027
38.0, -31426.17272450599, -19609.25246587425, -30006.18875100479, -17069.781371328994, -39579.396197723894, -30755.7097978246, -37674.75934919827, -12852.677744946212, -27307.10384930418, -29221.35194794559, -35150.30862692698, -18644.908803094484, -25120.477392730405, -38038.869266375215, -34391.13162650247, -187500.02235174447, -0.10053060150146485, 0.8950662918090821, -0.41462319946289067, 192.0, 0.0, 0.0, 0.0, 0.0, 0.0, 0.0, 0.0, 0.0, 0.0, 1.741901764029819E9, 0.0, 2025-03-13 16:36:04.029
40.0, -31418.439020924452, -19608.40309958495, -30003.32772771451, -17072.28476670799, -39575.86462209995, -30759.688408337643, -37679.00618064478, -12854.376477524815, -27302.78996262431, -29213.707651341876, -35151.73913857211, -18642.628925160043, -25117.482258973392, -38034.80124888435, -34388.069437512095, -187500.02235174447, -0.10426530075073243, 0.8945331459045411, -0.4153115997314454, 192.0, 126.0, 80.0, 13.5, 120.0, 121.5, 0.0, 0.0, 0.0, 0.0, 1.741901764031832E9, 0.0, 2025-03-13 16:36:04.031
42.0, -31419.824829080684, -19602.01050067073, -29999.483227668195, -17058.337278167877, -39571.908363331364, -30739.974169728062, -37665.97511362733, -12839.959602351142, -27301.001823067883, -29210.198427462394, -35147.2464379366, -18636.325733223646, -25116.610540939637, -38028.54276043687, -34383.19675722084, -187500.02235174447, -0.10426530075073243, 0.8945331459045411, -0.4153115997314454, 192.0, 0.0, 0.0, 0.0, 0.0, 0.0, 0.0, 0.0, 0.0, 0.0, 1.741901764033963E9, 0.0, 2025-03-13 16:36:04.033
44.0, -31419.86953256959, -19609.565390296626, -30000.64551837987, -17053.53165310999, -39573.40593020987, -30746.61263783129, -37674.446424775895, -12847.782712910499, -27293.201064252982, -29202.73294481432, -35140.33974889991, -18626.021579029748, -25110.955549592443, -38019.6244143992, -34375.12777747247, -187500.02235174447, -0.10426530075073243, 0.8945331459045411, -0.4153115997314454, 192.0, 0.0, 0.0, 0.0, 0.0, 0.0, 0.0, 0.0, 0.0, 0.0, 1.741901764035931E9, 0.0, 2025-03-13 16:36:04.035
46.0, -31437.907390345026, -19620.853021246556, -30013.386012719395, -17059.410161901735, -39584.26887801515, -30747.618466331776, -37679.475567278336, -12847.961526866142, -27312.177695295537, -29220.189657233914, -35158.53406888653, -18642.651276904497, -25131.07211960222, -38037.77403089691, -34389.410542179416, -187500.02235174447, -0.10426530075073243, 0.8945331459045411, -0.4153115997314454, 192.0, 0.0, 0.0, 0.0, 0.0, 0.0, 0.0, 0.0, 0.0, 0.0, 1.741901764081827E9, 0.0, 2025-03-13 16:36:04.081
48.0, -31421.165933748, -19609.766555996724, -30000.511407913138, -17062.874682292306, -39576.669284900345, -30746.880858764755, -37677.66507597746, -12846.128683820807, -27305.561578936766, -29215.473439153844, -35149.50396412658, -18636.102215779094, -25124.321892776716, -38027.31341449182, -34392.56213814761, -187500.02235174447, -0.10426530075073243, 0.8945331459045411, -0.4153115997314454, 192.0, 0.0, 0.0, 0.0, 0.0, 0.0, 0.0, 0.0, 0.0, 0.0, 1.741901764083914E9, 0.0, 2025-03-13 16:36:04.083
50.0, -31431.514791430807, -19613.946332209867, -30008.669794639325, -17056.1244554668, -39585.98996233821, -30743.7069110521, -37679.76613995626, -12847.02275359902, -27302.16411377956, -29214.467610653355, -35147.58171410343, -18631.765977354764, -25123.807802654246, -38034.689490162076, -34383.263812454206, -187500.02235174447, -0.1061326503753662, 0.8932665729522706, -0.4156557998657227, 192.0, 126.0, 80.0, 13.5, 112.0, 121.5, 0.0, 0.0, 0.0, 0.0, 1.741901764086014E9, 0.0, 2025-03-13 16:36:04.086
52.0, -31423.84814308264, -19616.159154910943, -30003.864169581437, -17073.022374275013, -39582.77131113665, -30762.28121069446, -37681.55427951268, -12857.036335114997, -27305.807448125775, -29219.250883966793, -35151.828545549935, -18642.40540771549, -25127.607599211646, -38042.154972810145, -34392.18215849187, -187500.02235174447, -0.1061326503753662, 0.8932665729522706, -0.4156557998657227, 192.0, 0.0, 0.0, 0.0, 0.0, 0.0, 0.0, 0.0, 0.0, 0.0, 1.741901764088145E9, 0.0, 2025-03-13 16:36:04.088
54.0, -31434.599332165642, -19620.54009682418, -30006.769896360627, -17070.80955157394, -39586.12407280494, -30759.934277526652, -37686.78458771522, -12858.243329315583, -27302.186465524017, -29223.095384013104, -35154.28723744002, -18647.814529873674, -25125.618293955125, -38046.73708042349, -34387.80121657863, -187500.02235174447, -0.1061326503753662, 0.8932665729522706, -0.4156557998657227, 192.0, 0.0, 0.0, 0.0, 0.0, 0.0, 0.0, 0.0, 0.0, 0.0, 1.741901764090144E9, 0.0, 2025-03-13 16:36:04.090
56.0, -31423.378756449078, -19616.159154910943, -29995.21404447723, -17082.566569157432, -39574.05413079907, -30763.711722339598, -37679.40851204497, -12855.717582192134, -27306.276834759337, -29230.136183516526, -35152.744967072606, -18652.44134097592, -25122.042014842275, -38049.374586269216, -34393.92559455938, -187500.02235174447, -0.1061326503753662, 0.8932665729522706, -0.4156557998657227, 192.0, 0.0, 0.0, 0.0, 0.0, 0.0, 0.0, 0.0, 0.0, 0.0, 1.741901764092135E9, 0.0, 2025-03-13 16:36:04.092
58.0, -31432.83354435367, -19619.69073053488, -30002.500713169662, -17064.484007893087, -39580.4914332022, -30755.106300724306, -37677.39685504399, -12853.169483324229, -27295.659756143064, -29226.179924747936, -35148.58754260392, -18649.066227563173, -25115.939988605976, -38043.11609782173, -34378.18996646285, -187500.02235174447, -0.1061326503753662, 0.8932665729522706, -0.4156557998657227, 192.0, 0.0, 0.0, 0.0, 0.0, 0.0, 0.0, 0.0, 0.0, 0.0, 1.741901764094131E9, 0.0, 2025-03-13 16:36:04.094
60.0, -31429.480782685376, -19619.757785768245, -30003.193617247776, -17068.641432361776, -39580.53613669111, -30761.543603127433, -37683.811805702666, -12860.478503761115, -27307.237959770915, -29227.141049759513, -35153.95196127319, -18652.530747953744, -25126.847639900167, -38041.41736524312, -34388.13649274546, -187500.02235174447, -0.10506632518768311, 0.8916332864761354, -0.4158278999328614, 192.0, 126.0, 96.0, 13.5, 104.0, 121.5, 0.0, 0.0, 0.0, 0.0, 1.74190176414215E9, 0.0, 2025-03-13 16:36:04.142
62.0, -31430.84423909715, -19617.70142527836, -30010.770858618125, -17066.115685238325, -39583.374808236935, -30758.99550425953, -37686.6951807374, -12859.763247938545, -27303.102887046683, -29225.621131136555, -35155.404824662786, -18649.043875818716, -25127.004102111354, -38037.550513452356, -34381.498024642235, -187500.02235174447, -0.10506632518768311, 0.8916332864761354, -0.4158278999328614, 192.0, 0.0, 0.0, 0.0, 0.0, 0.0, 0.0, 0.0, 0.0, 0.0, 1.741901764144399E9, 0.0, 2025-03-13 16:36:04.144
64.0, -31425.301006472233, -19614.572181054617, -30007.082820782998, -17067.90382479475, -39573.89766858789, -30757.341475169836, -37679.45321553388, -12854.912919391743, -27305.4945237034, -29221.486058412323, -35152.27558043904, -18642.204242015392, -25126.042977099776, -38035.315339006826, -34392.02569628068, -187500.02235174447, -0.10506632518768311, 0.8916332864761354, -0.4158278999328614, 192.0, 0.0, 0.0, 0.0, 0.0, 0.0, 0.0, 0.0, 0.0, 0.0, 1.741901764146462E9, 0.0, 2025-03-13 16:36:04.146
66.0, -31432.587675164665, -19620.1824689129, -30010.010899306646, -17058.158464212236, -39574.434110454815, -30755.888611780243, -37676.41337828796, -12853.460056002148, -27300.040698056306, -29215.227569964838, -35151.91795252776, -18637.868003591062, -25119.91859911902, -38032.56607443882, -34383.48732989876, -187500.02235174447, -0.10506632518768311, 0.8916332864761354, -0.4158278999328614, 192.0, 0.0, 0.0, 0.0, 0.0, 0.0, 0.0, 0.0, 0.0, 0.0, 1.741901764148505E9, 0.0, 2025-03-13 16:36:04.148
68.0, -31432.542971675754, -19619.042529945677, -30009.787381862094, -17065.355725926845, -39572.06482554255, -30755.240411191036, -37678.64855273349, -12852.834207157399, -27309.562541194267, -29219.630863622533, -35152.76731881706, -18635.96810531236, -25120.34328226367, -38030.95674883804, -34392.249213725234, -187500.02235174447, -0.10506632518768311, 0.8916332864761354, -0.4158278999328614, 192.0, 0.0, 0.0, 0.0, 0.0, 0.0, 0.0, 0.0, 0.0, 0.0, 1.741901764150495E9, 0.0, 2025-03-13 16:36:04.150
70.0, -31429.07845128518, -19618.17081191192, -30012.648405152373, -17066.830941060896, -39581.430206469326, -30762.14710022773, -37687.32102958215, -12861.059649116953, -27299.794828867296, -29217.552151388187, -35154.220182206656, -18637.84565184661, -25114.64358742757, -38034.22010352852, -34381.766245575694, -187500.02235174447, -0.10253316259384156, 0.8958166432380676, -0.4159139499664307, 192.0, 126.0, 112.0, 14.0, 16.0, 121.5, 0.0, 0.0, 0.0, 0.0, 1.741901764152542E9, 0.0, 2025-03-13 16:36:04.152
72.0, -31415.77916333427, -19603.999805927255, -30000.37729744641, -17070.47427540711, -39573.92002033234, -30753.385216401246, -37673.954686397876, -12845.368724509326, -27296.375011965636, -29214.35585193108, -35150.17451646025, -18637.957410568884, -25109.43563096948, -38030.554417437845, -34396.27252772719, -187500.02235174447, -0.10253316259384156, 0.8958166432380676, -0.4159139499664307, 192.0, 0.0, 0.0, 0.0, 0.0, 0.0, 0.0, 0.0, 0.0, 0.0, 1.741901764154648E9, 0.0, 2025-03-13 16:36:04.154
74.0, -31421.948244803938, -19614.371015354518, -30002.165437002834, -17074.117609753324, -39584.850023370986, -30761.208326960605, -37680.28023007873, -12855.583471725402, -27280.997011780386, -29212.277139696736, -35149.3475019154, -18638.06916929116, -25097.946834319453, -38033.683661661584, -34379.62047810799, -187500.02235174447, -0.10253316259384156, 0.8958166432380676, -0.4159139499664307, 192.0, 0.0, 0.0, 0.0, 0.0, 0.0, 0.0, 0.0, 0.0, 0.0, 1.741901764156632E9, 0.0, 2025-03-13 16:36:04.156
76.0, -31426.865628584106, -19609.721852507813, -29996.84572182247, -17081.42663019021, -39589.253317028684, -30763.152928728217, -37682.493052779806, -12853.504759491057, -27291.234110740916, -29220.748450845298, -35156.522411885555, -18648.574489185154, -25100.45022969845, -38039.76333615343, -34392.7186003588, -187500.02235174447, -0.10253316259384156, 0.8958166432380676, -0.4159139499664307, 192.0, 0.0, 0.0, 0.0, 0.0, 0.0, 0.0, 0.0, 0.0, 0.0, 1.741901764202481E9, 0.0, 2025-03-13 16:36:04.202
78.0, -31429.212561751912, -19615.801526999658, -29997.65038462286, -17087.260435493044, -39597.16583456586, -30772.630068377268, -37692.90896569598, -12863.630099729313, -27284.238014726405, -29220.055546767184, -35158.265847953066, -18648.775654885252, -25095.44343894046, -38046.24534204547, -34384.82843456607, -187500.02235174447, -0.10253316259384156, 0.8958166432380676, -0.4159139499664307, 192.0, 0.0, 0.0, 0.0, 0.0, 0.0, 0.0, 0.0, 0.0, 0.0, 1.741901764204566E9, 0.0, 2025-03-13 16:36:04.204
80.0, -31437.326244989188, -19619.400157856962, -30004.75823935965, -17083.594749402375, -39600.65270670089, -30762.214155461093, -37687.76806447125, -12855.762285681045, -27299.68307014502, -29225.621131136555, -35168.882926569335, -18658.40925674549, -25108.362747235627, -38048.324054279816, -34397.97126030579, -187500.02235174447, -0.10326658129692079, 0.8969083216190339, -0.4169569749832154, 192.0, 126.0, 96.0, 14.0, 8.0, 121.0, 120.0, 0.0, 0.0, 0.0, 1.741901764206569E9, 0.0, 2025-03-13 16:36:04.206
82.0, -31433.25822749832, -19618.50608807875, -30005.004108548655, -17086.455772692654, -39597.858738643976, -30767.600925874824, -37691.0984743951, -12859.271509560527, -27293.134009019617, -29223.02832877974, -35170.559307403484, -18661.426742246957, -25103.758287877834, -38044.50190597796, -34391.60101313603, -187500.02235174447, -0.10326658129692079, 0.8969083216190339, -0.4169569749832154, 192.0, 0.0, 0.0, 0.0, 0.0, 0.0, 0.0, 0.0, 0.0, 0.0, 1.741901764208716E9, 0.0, 2025-03-13 16:36:04.208
84.0, -31428.13967801806, -19602.234018115287, -29995.996355533167, -17066.115685238325, -39589.40977923987, -30745.182126186148, -37676.07810212113, -12838.283221516995, -27293.849264842185, -29212.3441949301, -35164.68079861174, -18652.88837586503, -25100.360822720628, -38029.48153370399, -34389.70111485733, -187500.02235174447, -0.10326658129692079, 0.8969083216190339, -0.4169569749832154, 192.0, 0.0, 0.0, 0.0, 0.0, 0.0, 0.0, 0.0, 0.0, 0.0, 1.741901764210694E9, 0.0, 2025-03-13 16:36:04.210
86.0, -31414.326299944678, -19592.756878466236, -29983.814654805024, -17055.364496155322, -39583.21834602575, -30745.048015719418, -37677.46391027736, -12843.871157630821, -27275.96786927794, -29193.25580516527, -35146.15120245829, -18631.385997699024, -25083.641717868057, -38009.18614973857, -34369.204565191816, -187500.02235174447, -0.10326658129692079, 0.8969083216190339, -0.4169569749832154, 192.0, 0.0, 0.0, 0.0, 0.0, 0.0, 0.0, 0.0, 0.0, 0.0, 1.74190176421263E9, 0.0, 2025-03-13 16:36:04.212
88.0, -31426.820925095195, -19596.35550932354, -29995.817541577526, -17047.541385595963, -39597.61286945497, -30743.773966285466, -37685.53289002572, -12844.11702681983, -27287.83664558371, -29195.11099995506, -35153.370815917355, -18635.45401518989, -25093.275319728295, -38010.974289294994, -34373.13847221595, -187500.02235174447, -0.10326658129692079, 0.8969083216190339, -0.4169569749832154, 192.0, 0.0, 0.0, 0.0, 0.0, 0.0, 0.0, 0.0, 0.0, 0.0, 1.741901764214591E9, 0.0, 2025-03-13 16:36:04.214
90.0, -31398.858892781605, -19580.038735871167, -29972.616430832917, -17046.155577439735, -39577.87627910093, -30737.917809238174, -37663.22584905933, -12831.15301503575, -27271.20694770896, -29181.007049203763, -35136.741118042606, -18620.321884193647, -25080.91480504451, -37994.478701886976, -34368.19873669132, -187500.02235174447, -0.1036332906484604, 0.895454160809517, -0.4154784874916077, 192.0, 126.0, 96.0, 13.5, 120.0, 121.5, 8.0, 0.0, 0.0, 0.0, 1.741901764261867E9, 0.0, 2025-03-13 16:36:04.261
92.0, -31425.233951238868, -19599.484753547284, -29992.80005607606, -17042.400484371243, -39602.37379102395, -30747.55141109841, -37686.60577375958, -12850.420218756226, -27276.370200678135, -29187.39964811798, -35139.82565877744, -18623.093500506104, -25086.480389413882, -38005.69927760354, -34367.930515757864, -187500.02235174447, -0.1036332906484604, 0.895454160809517, -0.4154784874916077, 192.0, 0.0, 0.0, 0.0, 0.0, 0.0, 0.0, 0.0, 0.0, 0.0, 1.741901764264177E9, 0.0, 2025-03-13 16:36:04.264
94.0, -31408.336032430656, -19588.979433653287, -29980.50659662564, -17063.52288288151, -39588.96274435076, -30755.866260035786, -37678.26857307775, -12850.286108289494, -27280.34881119118, -29196.340345900102, -35143.91602801276, -18632.660047132977, -25089.430819681984, -38015.55639690833, -34382.347390931536, -187500.02235174447, -0.1036332906484604, 0.895454160809517, -0.4154784874916077, 192.0, 0.0, 0.0, 0.0, 0.0, 0.0, 0.0, 0.0, 0.0, 0.0, 1.741901764266183E9, 0.0, 2025-03-13 16:36:04.266
96.0, -31423.512866915808, -19597.048413401655, -29988.59792811846, -17059.387810157277, -39595.198881053795, -30751.32885591136, -37682.64951499099, -12849.6826111892, -27277.957174534462, -29194.798075532686, -35142.95490300118, -18634.604648900586, -25088.313232459215, -38016.20459749753, -34376.02184725068, -187500.02235174447, -0.1036332906484604, 0.895454160809517, -0.4154784874916077, 192.0, 0.0, 0.0, 0.0, 0.0, 0.0, 0.0, 0.0, 0.0, 0.0, 1.741901764268172E9, 0.0, 2025-03-13 16:36:04.268
98.0, -31420.182456991966, -19601.965797181823, -29982.65236409335, -17065.62394686031, -39591.37673275194, -30756.38035015826, -37684.83998594761, -12852.744800179578, -27281.935785047506, -29202.777648303232, -35146.933513514225, -18643.947678082906, -25087.083886514174, -38019.06562078781, -34385.275469455184, -187500.02235174447, -0.1036332906484604, 0.895454160809517, -0.4154784874916077, 192.0, 0.0, 0.0, 0.0, 0.0, 0.0, 0.0, 0.0, 0.0, 0.0, 1.741901764270171E9, 0.0, 2025-03-13 16:36:04.270
100.0, -31437.348596733642, -19613.253428131753, -29995.41521017733, -17066.987403272084, -39597.90344213288, -30755.396873402224, -37682.91773592446, -12849.16852106673, -27291.323517718738, -29212.947692030397, -35158.824641564446, -18652.374285742557, -25095.711659873923, -38027.71574589202, -34380.62630660848, -187500.02235174447, -0.10181664532423021, 0.8937270804047586, -0.41673924374580384, 192.0, 126.0, 112.0, 13.5, 112.0, 121.0, 120.0, 0.0, 0.0, 0.0, 1.741901764272181E9, 0.0, 2025-03-13 16:36:04.272
102.0, -31420.830657581173, -19603.619826271515, -29982.607660604437, -17073.1788364862, -39584.715912904256, -30759.509594382, -37675.2957910652, -12847.73800942159, -27294.251596242382, -29215.316976942657, -35158.64582760881, -18655.54823345521, -25097.611558152625, -38029.25801625944, -34386.34835318904, -187500.02235174447, -0.10181664532423021, 0.8937270804047586, -0.41673924374580384, 192.0, 0.0, 0.0, 0.0, 0.0, 0.0, 0.0, 0.0, 0.0, 0.0, 1.741901764274333E9, 0.0, 2025-03-13 16:36:04.274
104.0, -31435.73927113286, -19614.661588032435, -29994.588195632485, -17066.406257916246, -39595.31063977607, -30757.140309469738, -37676.74865445479, -12847.179215810207, -27290.07182002924, -29216.00988102077, -35159.83047006494, -18654.69886716591, -25094.974052306898, -38031.448487216054, -34374.54663211663, -187500.02235174447, -0.10181664532423021, 0.8937270804047586, -0.41673924374580384, 192.0, 0.0, 0.0, 0.0, 0.0, 0.0, 0.0, 0.0, 0.0, 0.0, 1.741901764276307E9, 0.0, 2025-03-13 16:36:04.276
106.0, -31424.138715760557, -19606.9278844509, -29987.368582173418, -17070.13899924028, -39584.96178209326, -30751.597076844824, -37668.85848866207, -12839.512567462036, -27289.40126769558, -29213.059450752673, -35157.349426430395, -18652.195471786916, -25089.855502826635, -38021.03257429988, -34387.2647747117, -187500.02235174447, -0.10181664532423021, 0.8937270804047586, -0.41673924374580384, 192.0, 0.0, 0.0, 0.0, 0.0, 0.0, 0.0, 0.0, 0.0, 0.0, 1.741901764321624E9, 0.0, 2025-03-13 16:36:04.321
108.0, -31435.158125777023, -19612.649931031458, -29995.594024132974, -17063.656993348242, -39593.88012813093, -30749.65247507721, -37671.02660787423, -12839.579622695403, -27291.144703763093, -29213.73000308633, -35167.94415330221, -18655.79410264422, -25093.945872061955, -38030.3756034822, -34382.79442582064, -187500.02235174447, -0.10181664532423021, 0.8937270804047586, -0.41673924374580384, 192.0, 0.0, 0.0, 0.0, 0.0, 0.0, 0.0, 0.0, 0.0, 0.0, 1.741901764323711E9, 0.0, 2025-03-13 16:36:04.323
110.0, -31428.184381506966, -19610.995901941766, -29992.241262464675, -17072.24006321908, -39584.917078604354, -30753.116995467783, -37669.79726192919, -12839.892547117775, -27294.095134031195, -29209.72904082883, -35164.47963291164, -18651.726085153354, -25092.40360169454, -38021.97134756701, -34387.98003053427, -187500.02235174447, -0.10090832266211511, 0.8918635402023793, -0.41536962187290194, 192.0, 126.0, 112.0, 13.5, 104.0, 121.5, 8.0, 0.0, 0.0, 0.0, 1.741901764325723E9, 0.0, 2025-03-13 16:36:04.325
112.0, -31430.576018163687, -19611.398233341963, -29990.475474652707, -17055.878586277795, -39590.25914552917, -30750.770062299976, -37674.75934919827, -12844.139378564285, -27287.54607290579, -29207.62797685003, -35161.3503886879, -18647.188681028925, -25090.615462138114, -38023.11128653423, -34373.47374838278, -187500.02235174447, -0.10090832266211511, 0.8918635402023793, -0.41536962187290194, 192.0, 0.0, 0.0, 0.0, 0.0, 0.0, 0.0, 0.0, 0.0, 0.0, 1.741901764327979E9, 0.0, 2025-03-13 16:36:04.327
114.0, -31428.653768140528, -19611.085308919588, -29985.200462961253, -17057.711429323128, -39587.97926759473, -30753.809899545897, -37673.820575931146, -12843.044143085974, -27291.859959585665, -29207.58327336112, -35155.047196751504, -18643.388884471522, -25089.207302237428, -38021.814885355816, -34377.25119319573, -187500.02235174447, -0.10090832266211511, 0.8918635402023793, -0.41536962187290194, 192.0, 0.0, 0.0, 0.0, 0.0, 0.0, 0.0, 0.0, 0.0, 0.0, 1.741901764329961E9, 0.0, 2025-03-13 16:36:04.329
116.0, -31425.479820427874, -19608.470154818315, -29983.79230306057, -17054.93981301067, -39588.15808155037, -30752.84877453432, -37674.848756176085, -12842.68651517469, -27284.68504961551, -29208.320880928146, -35153.75079557309, -18643.79121587172, -25085.83218882468, -38024.72061213501, -34368.93634425835, -187500.02235174447, -0.10090832266211511, 0.8918635402023793, -0.41536962187290194, 192.0, 0.0, 0.0, 0.0, 0.0, 0.0, 0.0, 0.0, 0.0, 0.0, 1.741901764331967E9, 0.0, 2025-03-13 16:36:04.331
118.0, -31420.294215714242, -19602.412832070928, -29976.706800068237, -17060.550100868953, -39580.223212268735, -30747.819632031875, -37664.74576768229, -12834.572831937414, -27287.568424650246, -29207.78443906122, -35148.45343213718, -18643.12066353806, -25087.01683128081, -38016.58457715328, -34379.888699041454, -187500.02235174447, -0.10090832266211511, 0.8918635402023793, -0.41536962187290194, 192.0, 0.0, 0.0, 0.0, 0.0, 0.0, 0.0, 0.0, 0.0, 0.0, 1.741901764333938E9, 0.0, 2025-03-13 16:36:04.333
120.0, -31425.770393105795, -19610.034776930188, -29984.664021094326, -17058.2255194456, -39589.521537962144, -30752.602905345313, -37676.86041317706, -12846.709829176645, -27282.986317036906, -29206.868017538553, -35150.375682160346, -18645.042913561218, -25083.887587057066, -38023.20069351205, -34369.338675658546, -187500.02235174447, -0.09945416133105756, 0.8919317701011897, -0.412684810936451, 192.0, 126.0, 120.0, 13.5, 112.0, 121.5, 24.0, 0.0, 0.0, 0.0, 1.741901764381875E9, 0.0, 2025-03-13 16:36:04.381
122.0, -31419.713070358404, -19601.854038459547, -29985.133407727888, -17066.160388727236, -39587.48752921671, -30752.781719300954, -37676.16750909895, -12846.016925098531, -27292.329346219227, -29204.386973904013, -35152.43204265023, -18647.07692230665, -25089.788447593266, -38023.02187955641, -34384.26964095469, -187500.02235174447, -0.09945416133105756, 0.8919317701011897, -0.412684810936451, 192.0, 0.0, 0.0, 0.0, 0.0, 0.0, 0.0, 0.0, 0.0, 0.0, 1.74190176438415E9, 0.0, 2025-03-13 16:36:04.384
124.0, -31411.532331887764, -19598.613035513525, -29982.048866993056, -17064.282842192988, -39577.83157561202, -30753.876954779265, -37671.987732885806, -12845.6816489317, -27278.98535477941, -29199.067258723648, -35146.06179548047, -18639.790253614217, -25082.30061320074, -38019.356193465734, -34369.048102980625, -187500.02235174447, -0.09945416133105756, 0.8919317701011897, -0.412684810936451, 192.0, 0.0, 0.0, 0.0, 0.0, 0.0, 0.0, 0.0, 0.0, 0.0, 1.741901764386146E9, 0.0, 2025-03-13 16:36:04.386
126.0, -31422.618797137595, -19603.88804720498, -29988.910852540834, -17054.001039743547, -39575.6411046554, -30742.455213362602, -37663.69523569289, -12835.601012182356, -27288.440142684, -29201.145970957994, -35149.77218506005, -18639.902012336493, -25088.313232459215, -38014.975251552496, -34373.317286171594, -187500.02235174447, -0.09945416133105756, 0.8919317701011897, -0.412684810936451, 192.0, 0.0, 0.0, 0.0, 0.0, 0.0, 0.0, 0.0, 0.0, 0.0, 1.74190176438812E9, 0.0, 2025-03-13 16:36:04.388
128.0, -31425.099840772134, -19612.292303120175, -29989.246128707666, -17059.99130725757, -39573.98707556571, -30749.18308844365, -37668.45615726187, -12840.965430851631, -27292.374049708134, -29209.43846815091, -35160.34456018741, -18648.12745429605, -25095.01875579581, -38020.92081557761, -34367.39407389094, -187500.02235174447, -0.09945416133105756, 0.8919317701011897, -0.412684810936451, 192.0, 0.0, 0.0, 0.0, 0.0, 0.0, 0.0, 0.0, 0.0, 0.0, 1.741901764390094E9, 0.0, 2025-03-13 16:36:04.390
130.0, -31435.024015310293, -19617.053224689153, -29997.337460200484, -17048.81543502992, -39580.26791575765, -30744.71273955259, -37675.51930850975, -12843.49117797508, -27301.806485868274, -29213.21591296386, -35162.49032765512, -18648.798006629706, -25102.193665765964, -38019.11032427673, -34375.12777747247, -187500.02235174447, -0.10072708066552878, 0.8919658850505949, -0.41234240546822554, 192.0, 126.0, 104.0, 13.5, 112.0, 121.5, 16.0, 0.0, 0.0, 0.0, 1.741901764392093E9, 0.0, 2025-03-13 16:36:04.392
132.0, -31430.732480374874, -19618.841364245578, -29995.996355533167, -17055.99034500007, -39575.127014532925, -30753.921658268173, -37675.631067232025, -12848.386210010793, -27293.290471230805, -29209.237302450812, -35157.39412991931, -18642.53951818222, -25096.784543607777, -38013.500036418445, -34369.696303569835, -187500.02235174447, -0.10072708066552878, 0.8919658850505949, -0.41234240546822554, 192.0, 0.0, 0.0, 0.0, 0.0, 0.0, 0.0, 0.0, 0.0, 0.0, 1.741901764394261E9, 0.0, 2025-03-13 16:36:04.394
134.0, -31438.086204300667, -19618.774309012213, -30000.64551837987, -17057.644374089763, -39579.396197723894, -30750.546544855424, -37675.78752944321, -12843.960564608642, -27310.03192782783, -29220.5472851452, -35170.51460391458, -18652.776617142754, -25109.726203647402, -38021.613719655725, -34383.889661298956, -187500.02235174447, -0.10072708066552878, 0.8919658850505949, -0.41234240546822554, 192.0, 0.0, 0.0, 0.0, 0.0, 0.0, 0.0, 0.0, 0.0, 0.0, 1.741901764396311E9, 0.0, 2025-03-13 16:36:04.396
136.0, -31416.82969532367, -19606.458497817337, -29979.254898936142, -17054.76099905503, -39561.82772658202, -30741.8070127734, -37660.34247402459, -12834.841052870877, -27289.24480548439, -29204.275215181737, -35152.4990978836, -18637.868003591062, -25089.564930148714, -38012.583614895775, -34367.99757099123, -187500.02235174447, -0.10072708066552878, 0.8919658850505949, -0.41234240546822554, 192.0, 0.0, 0.0, 0.0, 0.0, 0.0, 0.0, 0.0, 0.0, 0.0, 1.74190176444218E9, 0.0, 2025-03-13 16:36:04.442
138.0, -31437.438003711464, -19618.573143312115, -29990.296660697066, -17049.061304218925, -39577.07161630054, -30737.13549818224, -37668.67967470642, -12836.651544171757, -27295.01155555386, -29208.365584417057, -35156.32124618546, -18641.91366933747, -25090.9730900494, -38015.243472485956, -34363.75073954472, -187500.02235174447, -0.10072708066552878, 0.8919658850505949, -0.41234240546822554, 192.0, 0.0, 0.0, 0.0, 0.0, 0.0, 0.0, 0.0, 0.0, 0.0, 1.741901764444275E9, 0.0, 2025-03-13 16:36:04.444
140.0, -31428.36319546261, -19614.84040198808, -29977.444407635263, -17063.209958459134, -39567.95210456278, -30745.71856805308, -37662.10826183656, -12834.751645893055, -27297.380840466125, -29215.719308342854, -35161.260981710075, -18648.820358374163, -25089.520226659803, -38020.85376034424, -34367.81875703559, -187500.02235174447, -0.1003635403327644, 0.8919829425252974, -0.4151712027341128, 192.0, 126.0, 112.0, 13.5, 112.0, 121.0, 120.0, 0.0, 0.0, 0.0, 1.741901764446256E9, 0.0, 2025-03-13 16:36:04.446
142.0, -31441.12604154659, -19618.707253778848, -29990.74369558617, -17061.734743325083, -39581.05022681358, -30747.08202446485, -37673.73116895332, -12845.458131487148, -27298.16315152206, -29215.004052520282, -35162.15505148829, -18648.50743395179, -25092.62711913909, -38023.96065282353, -34368.44460588034, -187500.02235174447, -0.1003635403327644, 0.8919829425252974, -0.4151712027341128, 192.0, 0.0, 0.0, 0.0, 0.0, 0.0, 0.0, 0.0, 0.0, 0.0, 1.741901764448448E9, 0.0, 2025-03-13 16:36:04.448
144.0, -31422.529390159776, -19609.11835540752, -29984.88753853888, -17067.076810249902, -39574.76938662164, -30750.90417276671, -37670.937200896406, -12844.87698613131, -27294.36335496466, -29212.075973996638, -35156.96944677466, -18645.22172751686, -25090.146075504552, -38021.680774889086, -34375.12777747247, -187500.02235174447, -0.1003635403327644, 0.8919829425252974, -0.4151712027341128, 192.0, 0.0, 0.0, 0.0, 0.0, 0.0, 0.0, 0.0, 0.0, 0.0, 1.741901764450449E9, 0.0, 2025-03-13 16:36:04.450
146.0, -31433.03471005377, -19611.778212997702, -29994.945823543767, -17062.606461358842, -39580.6925989023, -30746.14325119773, -37673.15002359748, -12843.893509375277, -27295.570349165246, -29212.3441949301, -35160.34456018741, -18646.31696299517, -25094.236444739872, -38022.08310628928, -34374.12194897198, -187500.02235174447, -0.1003635403327644, 0.8919829425252974, -0.4151712027341128, 192.0, 0.0, 0.0, 0.0, 0.0, 0.0, 0.0, 0.0, 0.0, 0.0, 1.741901764452442E9, 0.0, 2025-03-13 16:36:04.452
148.0, -31425.07748902768, -19612.69463452037, -29989.31318394103, -17070.161350984734, -39569.24850574118, -30751.731187311554, -37666.824479916635, -12842.77592215251, -27295.056259042773, -29215.227569964838, -35158.824641564446, -18648.97682058535, -25091.554235405238, -38027.93926333657, -34376.20066120633, -187500.02235174447, -0.1003635403327644, 0.8919829425252974, -0.4151712027341128, 192.0, 0.0, 0.0, 0.0, 0.0, 0.0, 0.0, 0.0, 0.0, 0.0, 1.741901764454411E9, 0.0, 2025-03-13 16:36:04.454
150.0, -31433.101765287134, -19613.231076387296, -29996.21987297772, -17059.387810157277, -39572.35539822047, -30741.069405206374, -37663.382311270514, -12834.997515082065, -27294.139837520106, -29214.57936937563, -35162.043292766015, -18651.010829330782, -25093.655299384034, -38025.07824004629, -34368.69047506934, -187500.02235174447, -0.10318177016638219, 0.8929914712626488, -0.4145856013670564, 192.0, 126.0, 88.0, 13.5, 120.0, 121.5, 8.0, 0.0, 0.0, 0.0, 1.741901764502373E9, 0.0, 2025-03-13 16:36:04.502
152.0, -31419.534256402763, -19606.16792513942, -29985.066352494523, -17061.28770843598, -39568.756767363164, -30743.304579651904, -37664.76811942674, -12837.210337783139, -27293.715154375455, -29207.65032859449, -35155.71774908516, -18643.321829238157, -25092.11302901662, -38015.176417252595, -34372.66908558239, -187500.02235174447, -0.10318177016638219, 0.8929914712626488, -0.4145856013670564, 192.0, 0.0, 0.0, 0.0, 0.0, 0.0, 0.0, 0.0, 0.0, 0.0, 1.741901764504572E9, 0.0, 2025-03-13 16:36:04.504
154.0, -31428.02791929578, -19608.87248621851, -29991.526006642107, -17047.98842048507, -39578.30096224558, -30743.46104186309, -37672.92650615293, -12840.965430851631, -27288.88717757311, -29204.386973904013, -35155.58363861843, -18639.276163491748, -25090.816627838212, -38016.24930098645, -34368.26579192469, -187500.02235174447, -0.10318177016638219, 0.8929914712626488, -0.4145856013670564, 192.0, 0.0, 0.0, 0.0, 0.0, 0.0, 0.0, 0.0, 0.0, 0.0, 1.741901764506597E9, 0.0, 2025-03-13 16:36:04.506
156.0, -31412.247587710335, -19599.529457036195, -29979.2772506806, -17052.592879842865, -39573.13770927641, -30746.880858764755, -37668.34439853959, -12838.529090706003, -27292.798732852785, -29204.230511692826, -35151.761490316574, -18634.202317500392, -25094.839941840168, -38015.936376564074, -34379.57577461908, -187500.02235174447, -0.10318177016638219, 0.8929914712626488, -0.4145856013670564, 192.0, 0.0, 0.0, 0.0, 0.0, 0.0, 0.0, 0.0, 0.0, 0.0, 1.741901764508668E9, 0.0, 2025-03-13 16:36:04.508
158.0, -31432.20769550892, -19617.12027992252, -29995.146989243865, -17051.497644364554, -39589.56624145106, -30752.28998092294, -37683.096549880094, -12849.839073400388, -27288.127218261627, -29208.41028790597, -35154.86838279586, -18637.152747768494, -25098.215055252916, -38023.37950746769, -34371.61855359299, -187500.02235174447, -0.10318177016638219, 0.8929914712626488, -0.4145856013670564, 192.0, 0.0, 0.0, 0.0, 0.0, 0.0, 0.0, 0.0, 0.0, 0.0, 1.741901764510648E9, 0.0, 2025-03-13 16:36:04.510
160.0, -31417.969634290894, -19605.251503616753, -29979.567823358517, -17057.778484556497, -39575.21642151075, -30748.04314947643, -37668.143232839495, -12842.083018074396, -27295.615052654157, -29216.45691590988, -35157.30472294149, -18644.484119949833, -25101.903093088044, -38024.474742946004, -34383.71084734331, -187500.02235174447, -0.1035908850831911, 0.8934957356313245, -0.4162928006835282, 192.0, 126.0, 96.0, 13.5, 120.0, 121.0, 120.0, 0.0, 0.0, 0.0, 1.741901764512625E9, 0.0, 2025-03-13 16:36:04.512
162.0, -31425.569227405696, -19612.873448476013, -29984.999297261158, -17049.24011817457, -39581.72077914725, -30750.23362043305, -37677.642724233, -12847.983878610597, -27281.935785047506, -29210.332537929124, -35149.68277808223, -18635.431663445434, -25090.458999926926, -38022.06075454483, -34368.064626224594, -187500.02235174447, -0.1035908850831911, 0.8934957356313245, -0.4162928006835282, 192.0, 0.0, 0.0, 0.0, 0.0, 0.0, 0.0, 0.0, 0.0, 0.0, 1.741901764514785E9, 0.0, 2025-03-13 16:36:04.514
164.0, -31424.83161983867, -19611.331178108594, -29985.088704238977, -17060.41599040222, -39579.55265993508, -30755.307466424405, -37677.01687538825, -12845.748704165067, -27296.576177665735, -29219.474401411346, -35157.75175783059, -18645.981686828338, -25101.657223899034, -38027.87220810321, -34388.695286356844, -187500.02235174447, -0.1035908850831911, 0.8934957356313245, -0.4162928006835282, 192.0, 0.0, 0.0, 0.0, 0.0, 0.0, 0.0, 0.0, 0.0, 0.0, 1.741901764516744E9, 0.0, 2025-03-13 16:36:04.516
166.0, -31432.565323420207, -19618.819012501124, -29992.37537293141, -17065.646298604763, -39579.6420669129, -30762.012989760995, -37676.90511666598, -12851.761323423545, -27292.374049708134, -29216.322805443146, -35161.01511252107, -18647.054570562195, -25099.220883753405, -38030.062679059825, -34368.26579192469, -187500.02235174447, -0.1035908850831911, 0.8934957356313245, -0.4162928006835282, 192.0, 0.0, 0.0, 0.0, 0.0, 0.0, 0.0, 0.0, 0.0, 0.0, 1.741901764562733E9, 0.0, 2025-03-13 16:36:04.562
168.0, -31422.618797137595, -19608.44780307386, -29983.50173038265, -17067.881473050293, -39569.762595863656, -30754.14517571273, -37664.14227058199, -12840.674858173712, -27295.235072998414, -29216.725136843343, -35156.67887409674, -18647.412198473477, -25097.656261641536, -38026.53110343589, -34377.22884145127, -187500.02235174447, -0.1035908850831911, 0.8934957356313245, -0.4162928006835282, 192.0, 0.0, 0.0, 0.0, 0.0, 0.0, 0.0, 0.0, 0.0, 0.0, 1.74190176456485E9, 0.0, 2025-03-13 16:36:04.564
170.0, -31433.79466936525, -19624.02696895921, -29998.432695678795, -17074.72110685362, -39583.77713963713, -30763.935239784154, -37678.31327656666, -12853.907090891254, -27293.201064252982, -29220.837857823117, -35164.65844686728, -18653.760093898785, -25101.81368611022, -38033.9295308506, -34373.13847221595, -187500.02235174447, -0.10179544254159556, 0.8927478678156622, -0.4181464003417641, 192.0, 126.0, 112.0, 13.5, 112.0, 121.0, 112.0, 0.0, 0.0, 0.0, 1.741901764566866E9, 0.0, 2025-03-13 16:36:04.566
172.0, -31427.335015217664, -19613.141669409477, -29992.040096764576, -17072.17300798571, -39570.16492726385, -30749.272495421472, -37663.047035103686, -12836.87506161631, -27299.526607933833, -29220.21200897837, -35164.68079861174, -18653.916556109973, -25102.417183210517, -38028.43100171459, -34388.58352763457, -187500.02235174447, -0.10179544254159556, 0.8927478678156622, -0.4181464003417641, 192.0, 0.0, 0.0, 0.0, 0.0, 0.0, 0.0, 0.0, 0.0, 0.0, 1.741901764569032E9, 0.0, 2025-03-13 16:36:04.569
174.0, -31440.74606189085, -19630.374864384517, -30005.227625993208, -17070.921310296217, -39581.65372391388, -30754.636914090745, -37676.949820154885, -12847.73800942159, -27295.704459631976, -29216.523971143244, -35169.017037036065, -18651.480215964344, -25100.137305276075, -38024.38533596818, -34373.451396638324, -187500.02235174447, -0.10179544254159556, 0.8927478678156622, -0.4181464003417641, 192.0, 0.0, 0.0, 0.0, 0.0, 0.0, 0.0, 0.0, 0.0, 0.0, 1.741901764571029E9, 0.0, 2025-03-13 16:36:04.571
176.0, -31444.836431126172, -19629.21257367284, -30007.50750392765, -17069.28963295098, -39583.15129079238, -30749.026626232462, -37674.46877652035, -12846.195739054172, -27310.523666205845, -29222.625997379542, -35176.16959526177, -18658.766884656776, -25110.10618330314, -38025.83819935777, -34387.37653343398, -187500.02235174447, -0.10179544254159556, 0.8927478678156622, -0.4181464003417641, 192.0, 0.0, 0.0, 0.0, 0.0, 0.0, 0.0, 0.0, 0.0, 0.0, 1.741901764573095E9, 0.0, 2025-03-13 16:36:04.573
178.0, -31427.759698362315, -19620.003654957254, -29998.164474745332, -17074.2293684756, -39576.62458141144, -30758.32495192587, -37673.8429276756, -12850.442570500682, -27304.22047426945, -29223.810639835676, -35175.34258071692, -18660.197396301915, -25110.06147981423, -38031.470838960515, -34385.61074562201, -187500.02235174447, -0.10179544254159556, 0.8927478678156622, -0.4181464003417641, 192.0, 0.0, 0.0, 0.0, 0.0, 0.0, 0.0, 0.0, 0.0, 0.0, 1.741901764575077E9, 0.0, 2025-03-13 16:36:04.575
180.0, -31431.112460030614, -19617.32144562262, -29994.923471799313, -17069.110818995337, -39574.94820057729, -30748.534887854446, -37668.54556423969, -12840.20547154015, -27295.995032309896, -29215.607549620578, -35157.550592130494, -18649.759131641287, -25098.326813975196, -38021.47960918899, -34382.50385314272, -187500.02235174447, -0.10089772127079778, 0.8923739339078312, -0.418073200170882, 192.0, 126.0, 112.0, 13.5, 112.0, 121.0, 120.0, 0.0, 0.0, 0.0, 1.741901764622093E9, 0.0, 2025-03-13 16:36:04.622
182.0, -31433.07941354268, -19625.792756771178, -29995.25874796614, -17075.391659187277, -39575.8422703555, -30758.973152515075, -37673.1947270864, -12850.06259084494, -27293.98337530892, -29220.100250256095, -35159.33873168692, -18654.721218910363, -25098.01388955282, -38026.91108309163, -34379.48636764126, -187500.02235174447, -0.10089772127079778, 0.8923739339078312, -0.418073200170882, 192.0, 0.0, 0.0, 0.0, 0.0, 0.0, 0.0, 0.0, 0.0, 0.0, 1.741901764624314E9, 0.0, 2025-03-13 16:36:04.624
184.0, -31442.26598051381, -19627.60324807206, -30004.490018426182, -17076.442191176677, -39579.463252957255, -30754.905135024208, -37673.06061661967, -12846.419256498726, -27309.16020979407, -29233.64540739601, -35172.05687428199, -18666.500588238312, -25112.07313681521, -38037.5281617079, -34390.28226021317, -187500.02235174447, -0.10089772127079778, 0.8923739339078312, -0.418073200170882, 192.0, 0.0, 0.0, 0.0, 0.0, 0.0, 0.0, 0.0, 0.0, 0.0, 1.74190176462631E9, 0.0, 2025-03-13 16:36:04.626
186.0, -31437.46035545592, -19631.201878929365, -30007.84278009448, -17083.4829906801, -39584.96178209326, -30771.154853243217, -37687.38808481552, -12863.764210196045, -27300.666546901055, -29229.622093394053, -35168.458243424684, -18662.857253892096, -25107.73689839088, -38037.66227217463, -34392.204510236326, -187500.02235174447, -0.10089772127079778, 0.8923739339078312, -0.418073200170882, 192.0, 0.0, 0.0, 0.0, 0.0, 0.0, 0.0, 0.0, 0.0, 0.0, 1.74190176462834E9, 0.0, 2025-03-13 16:36:04.628
188.0, -31431.246570497344, -19619.93659972389, -30001.02549803561, -17074.72110685362, -39576.512822689154, -30754.61456234629, -37668.299695050686, -12841.34541050737, -27306.410945226067, -29233.466593440367, -35168.54765040251, -18662.723143425363, -25115.761174650335, -38044.79247865587, -34395.490216671256, -187500.02235174447, -0.10089772127079778, 0.8923739339078312, -0.418073200170882, 192.0, 0.0, 0.0, 0.0, 0.0, 0.0, 0.0, 0.0, 0.0, 0.0, 1.74190176463034E9, 0.0, 2025-03-13 16:36:04.630
190.0, -31428.74317511835, -19627.424434116416, -30002.165437002834, -17073.62587137531, -39579.28443900162, -30769.254954964515, -37679.184994600415, -12857.93040489321, -27295.704459631976, -29224.771764847254, -35157.32707468594, -18653.536576454233, -25106.73106989039, -38038.5786936973, -34382.74972233173, -187500.02235174447, -0.1024488606353989, 0.8911869669539156, -0.41903660008544097, 192.0, 126.0, 96.0, 13.5, 104.0, 121.0, 112.0, 0.0, 0.0, 0.0, 1.741901764632329E9, 0.0, 2025-03-13 16:36:04.632
192.0, -31432.475916442385, -19622.685864291892, -30004.17709400381, -17074.72110685362, -39580.42437796883, -30767.533870641455, -37676.90511666598, -12853.124779835318, -27306.947387092998, -29235.679416141444, -35168.458243424684, -18663.639564948033, -25119.717433418922, -38050.15689732515, -34393.031524781174, -187500.02235174447, -0.1024488606353989, 0.8911869669539156, -0.41903660008544097, 192.0, 0.0, 0.0, 0.0, 0.0, 0.0, 0.0, 0.0, 0.0, 0.0, 1.741901764634568E9, 0.0, 2025-03-13 16:36:04.634
194.0, -31424.69750937194, -19622.17177416942, -30000.35494570195, -17074.363478942334, -39577.7421686342, -30769.299658453427, -37679.83319518962, -12856.052858358964, -27294.229244497925, -29223.385956691025, -35154.37664441784, -18648.574489185154, -25103.355956477637, -38036.209408785035, -34382.52620488718, -187500.02235174447, -0.1024488606353989, 0.8911869669539156, -0.41903660008544097, 192.0, 0.0, 0.0, 0.0, 0.0, 0.0, 0.0, 0.0, 0.0, 0.0, 1.741901764636545E9, 0.0, 2025-03-13 16:36:04.636
196.0, -31434.68873914346, -19623.088195692086, -30009.072126039522, -17062.47235089211, -39587.21930828325, -30764.18110897316, -37681.53192776822, -12857.393963026281, -27304.51104694737, -29230.06912828316, -35166.96067654618, -18654.69886716591, -25117.325796762205, -38045.75360366745, -34389.678763112875, -187500.02235174447, -0.1024488606353989, 0.8911869669539156, -0.41903660008544097, 192.0, 0.0, 0.0, 0.0, 0.0, 0.0, 0.0, 0.0, 0.0, 0.0, 1.741901764681914E9, 0.0, 2025-03-13 16:36:04.681
198.0, -31421.30004421473, -19616.36032061104, -29995.817541577526, -17058.761961312528, -39582.25722101417, -30766.148062485227, -37683.387122558015, -12856.209320570151, -27296.285604987814, -29217.909779299473, -35156.20948746318, -18642.60657341559, -25111.29082575927, -38032.20844652754, -34389.45524566832, -187500.02235174447, -0.1024488606353989, 0.8911869669539156, -0.41903660008544097, 192.0, 0.0, 0.0, 0.0, 0.0, 0.0, 0.0, 0.0, 0.0, 0.0, 1.741901764684071E9, 0.0, 2025-03-13 16:36:04.684
200.0, -31425.70333787243, -19616.69559677787, -30000.80198059106, -17056.14680721126, -39588.44865422829, -30764.98577177355, -37683.72239872484, -12855.963451381142, -27296.754991621376, -29218.87090431105, -35157.349426430395, -18639.812605358675, -25116.655244428548, -38036.16470529613, -34387.22007122279, -187500.02235174447, -0.10222443031769946, 0.8885934834769578, -0.4195183000427205, 192.0, 126.0, 104.0, 13.5, 88.0, 121.0, 112.0, 0.0, 0.0, 0.0, 1.741901764686082E9, 0.0, 2025-03-13 16:36:04.686
