%OpenBCI Raw EXG Data
%Number of channels = 16
%Sample Rate = 125 Hz
%Board = OpenBCI_GUI$BoardCytonSerialDaisy
Sample Index, EXG Channel 0, EXG Channel 1, EXG Channel 2, EXG Channel 3, EXG Channel 4, EXG Channel 5, EXG Channel 6, EXG Channel 7, EXG Channel 8, EXG Channel 9, EXG Channel 10, EXG Channel 11, EXG Channel 12, EXG Channel 13, EXG Channel 14, EXG Channel 15, Accel Channel 0, Accel Channel 1, Accel Channel 2, Not Used, Digital Channel 0 (D11), Digital Channel 1 (D12), Digital Channel 2 (D13), Digital Channel 3 (D17), Not Used, Digital Channel 4 (D18), Analog Channel 0, Analog Channel 1, Analog Channel 2, Timestamp, Marker Channel, Timestamp (Formatted)
12.0, -32097.485017476683, -20401.398289370336, -31234.439460568366, -17831.0594357323, -40520.1140666144, -31147.424119403855, -38662.77350935621, -13676.56304556883, -27851.569992491008, -29798.831617692904, -35568.04037905221, -18299.440240793258, -25321.19605793906, -38857.233686117375, -35539.27368393823, -187500.02235174447, 0.0, 0.0, 0.0, 192.0, 0.0, 0.0, 0.0, 0.0, 0.0, 0.0, 0.0, 0.0, 0.0, 1.741901662989146E9, 0.0, 2025-03-13 16:34:22.989
14.0, -32080.609450412925, -20391.719984021187, -31219.2179225943, -17825.426796129563, -40504.13256932885, -31147.960561270782, -38650.14477373895, -13675.154885668146, -27841.422300508297, -29794.294213568475, -35558.27266672524, -18294.500505268636, -25308.500267088446, -38843.26384583281, -35541.62061710604, -187500.02235174447, 0.0, 0.0, 0.0, 192.0, 0.0, 0.0, 0.0, 0.0, 0.0, 0.0, 0.0, 0.0, 0.0, 1.741901662991861E9, 0.0, 2025-03-13 16:34:22.991
16.0, -32095.339250008972, -20399.677205047275, -31234.797088479652, -17828.421929886572, -40515.263738067595, -31156.811852075083, -38660.31481746612, -13680.765173526428, -27847.56903023351, -29804.33014682891, -35571.19197502041, -18303.709423984223, -25314.356424135738, -38858.150107640045, -35540.03364324971, -187500.02235174447, 0.0, 0.0, 0.0, 192.0, 0.0, 0.0, 0.0, 0.0, 0.0, 0.0, 0.0, 0.0, 0.0, 1.741901662993886E9, 0.0, 2025-03-13 16:34:22.993
18.0, -32078.68720038977, -20387.920187463784, -31222.458925540323, -17827.77372929737, -40511.17336883228, -31153.5037938957, -38661.38770119997, -13680.474600848509, -27840.572934218995, -29798.921024670726, -35560.105509770576, -18296.914493669807, -25306.95799672103, -38851.17636336999, -35546.26977995274, -187500.02235174447, 0.0, 0.0, 0.0, 192.0, 0.0, 0.0, 0.0, 0.0, 0.0, 0.0, 0.0, 0.0, 0.0, 1.741901662995855E9, 0.0, 2025-03-13 16:34:22.995
20.0, -32098.669659932813, -20403.678167304777, -31241.793184494163, -17830.210069442997, -40526.2160928507, -31160.768110843674, -38673.234125761286, -13693.706833566052, -27841.846983652948, -29803.681946239707, -35567.302771485185, -18302.3683193169, -25310.020185711408, -38868.67777927849, -35541.8888380395, -187500.02235174447, -0.044, 0.465, -0.157, 192.0, 126.5, 32.0, 14.5, 8.0, 123.0, 24.0, 0.0, 0.0, 0.0, 1.741901662997875E9, 0.0, 2025-03-13 16:34:22.997
22.0, -32098.379087254896, -20410.406042385825, -31242.933123461382, -17851.801854586825, -40528.339508573954, -31177.3084017406, -38675.89398335147, -13698.512458623942, -27865.718646731217, -29826.368966861843, -35586.05588508319, -18321.590819548466, -25329.689720832077, -38876.523241582305, -35569.98498081982, -187500.02235174447, -0.044, 0.465, -0.157, 192.0, 0.0, 0.0, 0.0, 0.0, 0.0, 0.0, 0.0, 0.0, 0.0, 1.741901662999945E9, 0.0, 2025-03-13 16:34:22.999
24.0, -32095.607470942436, -20407.65677781782, -31245.056539184636, -17840.022485258876, -40524.003270149624, -31162.958581800292, -38666.9756373138, -13685.861371262237, -27848.440748267265, -29814.723708000627, -35575.57291693365, -18307.28570309707, -25319.273807915906, -38872.23170664689, -35549.84605906559, -187500.02235174447, -0.044, 0.465, -0.157, 192.0, 0.0, 0.0, 0.0, 0.0, 0.0, 0.0, 0.0, 0.0, 0.0, 1.741901663002003E9, 0.0, 2025-03-13 16:34:23.002
26.0, -32087.11380804942, -20402.22530391518, -31237.389890836468, -17844.112854494197, -40517.47656076867, -31168.83709059204, -38666.103919280045, -13689.102374208258, -27853.671056469808, -29817.070641168433, -35574.924716344445, -18307.978607175184, -25323.83356378479, -38860.809965230226, -35564.82172785065, -187500.02235174447, -0.044, 0.465, -0.157, 192.0, 0.0, 0.0, 0.0, 0.0, 0.0, 0.0, 0.0, 0.0, 0.0, 1.7419016630041E9, 0.0, 2025-03-13 16:34:23.004
28.0, -32097.64147968787, -20407.723833051186, -31247.291713630166, -17842.682342849057, -40523.60093874943, -31168.12183476947, -38667.95911406983, -13689.907037008648, -27845.13269008788, -29814.097859155878, -35574.70119889989, -18303.105926883927, -25320.7266713055, -38871.31528512422, -35552.39415793349, -187500.02235174447, -0.044, 0.465, -0.157, 192.0, 0.0, 0.0, 0.0, 0.0, 0.0, 0.0, 0.0, 0.0, 0.0, 1.741901663006044E9, 0.0, 2025-03-13 16:34:23.006
30.0, -32089.9748313397, -20401.711213792707, -31246.442347340864, -17848.426741174073, -40518.974127647176, -31164.523203912166, -38664.40518670144, -13687.89538000767, -27853.380483791887, -29818.925835958224, -35577.42811172344, -18303.709423984223, -25324.660578329633, -38876.03150320429, -35568.643876152506, -187500.02235174447, -0.064, 0.6995, -0.2355, 192.0, 126.5, 48.0, 14.5, 24.0, 123.0, 24.0, 0.0, 0.0, 0.0, 1.74190166300801E9, 0.0, 2025-03-13 16:34:23.008
32.0, -32095.54041570907, -20406.785059784062, -31253.95253347785, -17848.15852024061, -40526.171389361785, -31172.860404593994, -38674.485823450785, -13691.739880053983, -27847.546678489052, -29811.90738819926, -35580.311486758175, -18301.407194305324, -25319.385566638182, -38870.04123569027, -35567.168661018455, -187500.02235174447, -0.064, 0.6995, -0.2355, 192.0, 0.0, 0.0, 0.0, 0.0, 0.0, 0.0, 0.0, 0.0, 0.0, 1.741901663010205E9, 0.0, 2025-03-13 16:34:23.010
34.0, -32091.8747296184, -20404.773402783085, -31250.555068320642, -17843.218784715984, -40519.15294160282, -31165.84195683503, -38671.84831760506, -13694.735013810994, -27850.631219223884, -29811.974443432624, -35572.8460041101, -18298.926150670784, -25324.168839951617, -38862.35223559764, -35574.365922733065, -187500.02235174447, -0.064, 0.6995, -0.2355, 192.0, 0.0, 0.0, 0.0, 0.0, 0.0, 0.0, 0.0, 0.0, 0.0, 1.741901663012177E9, 0.0, 2025-03-13 16:34:23.012
36.0, -32099.675488433302, -20414.42935638778, -31260.121614947515, -17848.806720829813, -40527.89247368485, -31176.839015107038, -38681.23605027629, -13703.541601126386, -27852.933448902782, -29819.015242936046, -35582.59136469261, -18305.67637749629, -25333.333055178293, -38880.50185209535, -35568.71093138587, -187500.02235174447, -0.064, 0.6995, -0.2355, 192.0, 0.0, 0.0, 0.0, 0.0, 0.0, 0.0, 0.0, 0.0, 0.0, 1.74190166301424E9, 0.0, 2025-03-13 16:34:23.014
0.0, -16004.363120122329, -10064.342327635566, -15497.649073320517, -8820.691266142281, -20146.94603049112, -15556.79178914926, -19223.751929253573, -6718.219127442733, -13933.004609704569, -14910.625208690788, -17792.346214335706, -9153.441685848438, -12671.27098694694, -19439.401559758375, -17789.1499148786, -93750.01117587223, -0.09, 0.916, -0.358, 192.0, 126.5, 24.0, 14.0, 80.0, 122.0, 104.0, 0.0, 0.0, 0.0, 1.741901663141492E9, 0.0, 2025-03-13 16:34:23.141
2.0, -32011.140228645832, -20131.098643672307, -31000.908434499317, -17642.38836078505, -40296.41780810569, -31117.517485322656, -38453.24825683216, -13443.121426477603, -27744.438081316723, -29674.310049332387, -35433.59463615354, -18140.765206905035, -25042.156880159007, -38702.40315227547, -35338.555018729574, -187500.02235174447, -0.09, 0.916, -0.358, 192.0, 0.0, 0.0, 0.0, 0.0, 0.0, 0.0, 0.0, 0.0, 0.0, 1.741901663143665E9, 0.0, 2025-03-13 16:34:23.143
4.0, -32007.04985941051, -20130.56220180538, -31000.975489732682, -17644.377666041575, -40294.003819704514, -31123.150124925392, -38449.78373644158, -13444.283717189279, -27743.655770260786, -29673.259517342987, -35438.7131856338, -18142.26277378354, -25048.683589539956, -38696.14466382798, -35333.101193082475, -187500.02235174447, -0.09, 0.916, -0.358, 192.0, 0.0, 0.0, 0.0, 0.0, 0.0, 0.0, 0.0, 0.0, 0.0, 1.741901663145838E9, 0.0, 2025-03-13 16:34:23.145
6.0, -32007.72041174417, -20126.091852914316, -31000.930786243774, -17642.455416018416, -40297.98243021756, -31123.328938881034, -38453.60588474344, -13446.027153256793, -27750.428348830745, -29672.946592920616, -35435.047499543136, -18143.715637173133, -25050.29291514074, -38693.12717832651, -35338.487963496205, -187500.02235174447, -0.09, 0.916, -0.358, 192.0, 0.0, 0.0, 0.0, 0.0, 0.0, 0.0, 0.0, 0.0, 0.0, 1.741901663147811E9, 0.0, 2025-03-13 16:34:23.147
8.0, -31997.997402906112, -20129.623428538256, -30999.99201297665, -17647.238689331854, -40299.36823837379, -31131.330863396033, -38466.39108257188, -13455.347830694656, -27740.928857437237, -29672.946592920616, -35431.06888903009, -18143.380361006304, -25042.04512143673, -38699.00568711826, -35338.01857686265, -187500.02235174447, -0.09, 0.912, -0.382, 192.0, 126.5, 24.0, 14.0, 64.0, 122.0, 8.0, 0.0, 0.0, 0.0, 1.74190166314984E9, 0.0, 2025-03-13 16:34:23.149
10.0, -32007.228673366153, -20133.244411140015, -31007.457495624723, -17645.383494542064, -40306.85607276631, -31123.641863303408, -38466.77106222761, -13451.480978903888, -27747.120290651357, -29679.607412768295, -35430.80066809662, -18147.984820364098, -25050.315266885194, -38717.71409722735, -35349.954408401776, -187500.02235174447, -0.09, 0.912, -0.382, 192.0, 0.0, 0.0, 0.0, 0.0, 0.0, 0.0, 0.0, 0.0, 0.0, 1.741901663151938E9, 0.0, 2025-03-13 16:34:23.151
12.0, -31977.925536385246, -20112.703157985587, -30979.763684244597, -17636.800424671226, -40275.608334017794, -31119.037403945615, -38438.63021595839, -13436.035923485271, -27729.328302064932, -29662.77654919345, -35416.60731036751, -18131.668046911724, -25039.854650480112, -38699.22920456281, -35339.06910885205, -187500.02235174447, -0.09, 0.912, -0.382, 192.0, 0.0, 0.0, 0.0, 0.0, 0.0, 0.0, 0.0, 0.0, 0.0, 1.741901663153881E9, 0.0, 2025-03-13 16:34:23.153
14.0, -32005.015850665077, -20132.283286128437, -31000.95313798823, -17642.567174740696, -40301.67046805268, -31126.815811016062, -38452.75651845414, -13447.390609668568, -27733.552781766986, -29669.973810908057, -35422.39641218143, -18136.898355114266, -25029.997531175322, -38702.51491099774, -35331.55892271506, -187500.02235174447, -0.09, 0.912, -0.382, 192.0, 0.0, 0.0, 0.0, 0.0, 0.0, 0.0, 0.0, 0.0, 0.0, 1.741901663155851E9, 0.0, 2025-03-13 16:34:23.155
16.0, -31991.47069352516, -20130.003408193996, -30990.17959716077, -17652.178424856476, -40290.516947569486, -31135.667101820363, -38450.498992264154, -13449.558728880731, -27735.005645156583, -29671.73959872003, -35423.782220337656, -18141.569869705425, -25031.360987587093, -38697.485768495295, -35336.02927160612, -187500.02235174447, -0.09, 0.912, -0.382, 192.0, 0.0, 0.0, 0.0, 0.0, 0.0, 0.0, 0.0, 0.0, 0.0, 1.741901663201895E9, 0.0, 2025-03-13 16:34:23.201
18.0, -32000.32198432946, -20129.06463492687, -30994.828760007473, -17640.39905552853, -40294.22733714907, -31119.01505220116, -38445.6263119729, -13436.237089185368, -27736.324398079443, -29674.175938865657, -35422.35170869252, -18142.88862262829, -25038.357083601604, -38706.158245343955, -35333.77174541614, -187500.02235174447, -0.088, 0.91, -0.392, 192.0, 126.5, 32.0, 14.0, 56.0, 121.5, 96.0, 0.0, 0.0, 0.0, 1.741901663203939E9, 0.0, 2025-03-13 16:34:23.203
20.0, -32003.76415297558, -20136.03837919693, -31002.67422231129, -17651.105541122623, -40298.83179650686, -31140.11509896697, -38462.65834124784, -13461.829836586696, -27745.667427261764, -29682.177863380657, -35431.538275663646, -18148.655372697758, -25051.991647719344, -38721.04450715119, -35345.23819032171, -187500.02235174447, -0.088, 0.91, -0.392, 192.0, 0.0, 0.0, 0.0, 0.0, 0.0, 0.0, 0.0, 0.0, 0.0, 1.741901663206062E9, 0.0, 2025-03-13 16:34:23.206
22.0, -32013.442458324727, -20136.105434430294, -31008.932710758774, -17649.473863777384, -40301.9610407306, -31130.839125018018, -38456.936294667285, -13450.072819003204, -27748.05906391848, -29680.993220924523, -35437.282673988666, -18151.44934075467, -25050.739950029845, -38715.1883501039, -35344.90291415488, -187500.02235174447, -0.088, 0.91, -0.392, 192.0, 0.0, 0.0, 0.0, 0.0, 0.0, 0.0, 0.0, 0.0, 0.0, 1.741901663207998E9, 0.0, 2025-03-13 16:34:23.207
24.0, -32000.925481429756, -20131.12099541676, -31000.17082693229, -17644.668238719492, -40293.62384004877, -31132.850782018995, -38457.785660956586, -13451.480978903888, -27747.075587162446, -29676.902851689203, -35431.337109963555, -18144.833224395898, -25047.700112783925, -38715.07659138162, -35346.84751592249, -187500.02235174447, -0.088, 0.91, -0.392, 192.0, 0.0, 0.0, 0.0, 0.0, 0.0, 0.0, 0.0, 0.0, 0.0, 1.741901663209888E9, 0.0, 2025-03-13 16:34:23.209
26.0, -32012.682499013248, -20137.245373397516, -31006.049335724038, -17640.197889828432, -40293.243860393035, -31121.652558046888, -38446.587436984475, -13440.729789820885, -27746.561497039977, -29678.646287756717, -35434.265188487196, -18147.738951175088, -25046.448415094426, -38708.66164072295, -35335.38107101692, -187500.02235174447, -0.088, 0.91, -0.392, 192.0, 0.0, 0.0, 0.0, 0.0, 0.0, 0.0, 0.0, 0.0, 0.0, 1.741901663211826E9, 0.0, 2025-03-13 16:34:23.211
28.0, -31994.57758600445, -20128.327027359846, -30986.156283158816, -17639.97437238388, -40279.050502663915, -31120.378508612936, -38438.38434676938, -13436.170033952003, -27743.901639449792, -29675.02530515496, -35425.27978721616, -18142.709808672644, -25042.62626679257, -38701.44202726389, -35332.18477155981, -187500.02235174447, -0.088, 0.9, -0.392, 192.0, 126.5, 32.0, 14.0, 16.0, 121.5, 96.0, 0.0, 0.0, 0.0, 1.741901663213799E9, 0.0, 2025-03-13 16:34:23.213
30.0, -32005.060554153988, -20133.825556495853, -30995.499312341133, -17636.912183393502, -40290.31578186939, -31118.3444998675, -38451.50482076464, -13438.427560141989, -27738.246648102602, -29676.768741222473, -35426.86676107249, -18144.49794822907, -25042.693322025934, -38709.600413990076, -35323.57934994451, -187500.02235174447, -0.088, 0.9, -0.392, 192.0, 0.0, 0.0, 0.0, 0.0, 0.0, 0.0, 0.0, 0.0, 0.0, 1.741901663262143E9, 0.0, 2025-03-13 16:34:23.262
32.0, -32006.871045454867, -20140.12874843225, -30998.18152167577, -17643.170671840988, -40291.2098516476, -31130.12386919545, -38452.93533240978, -13445.13308347858, -27746.40503482879, -29677.171072622667, -35428.96782505129, -18144.766169162533, -25046.247249394328, -38702.313745297644, -35339.02440536313, -187500.02235174447, -0.088, 0.9, -0.392, 192.0, 0.0, 0.0, 0.0, 0.0, 0.0, 0.0, 0.0, 0.0, 0.0, 1.741901663264206E9, 0.0, 2025-03-13 16:34:23.264
34.0, -32011.90018795731, -20141.022818210462, -31002.115428699904, -17639.080302605667, -40296.2613458945, -31122.792497014107, -38453.33766380998, -13444.730752078385, -27744.72865399464, -29681.64142151373, -35434.77927860967, -18147.046047096974, -25049.28708664025, -38707.56640524464, -35330.55309421457, -187500.02235174447, -0.088, 0.9, -0.392, 192.0, 0.0, 0.0, 0.0, 0.0, 0.0, 0.0, 0.0, 0.0, 0.0, 1.741901663266165E9, 0.0, 2025-03-13 16:34:23.266
36.0, -32018.71747001618, -20148.98003923655, -31011.547864860044, -17650.725561466883, -40309.44887512313, -31138.237552432725, -38467.82159421701, -13460.578138897197, -27760.576040813452, -29689.241014628533, -35444.21171476981, -18157.573718735424, -25063.100464713632, -38714.29428032569, -35353.37422530344, -187500.02235174447, -0.088, 0.9, -0.392, 192.0, 0.0, 0.0, 0.0, 0.0, 0.0, 0.0, 0.0, 0.0, 0.0, 1.741901663268105E9, 0.0, 2025-03-13 16:34:23.268
38.0, -32006.96045243269, -20135.323123374357, -30996.393382119346, -17638.588564227648, -40297.1107121838, -31125.899389493396, -38454.87993417739, -13443.635516600076, -27748.595505785408, -29683.67543025916, -35437.93087457787, -18149.05770409795, -25056.95373498842, -38714.74131521479, -35342.75714668717, -187500.02235174447, -0.084, 0.896, -0.396, 192.0, 126.5, 48.0, 14.0, 0.0, 121.5, 80.0, 0.0, 0.0, 0.0, 1.741901663270053E9, 0.0, 2025-03-13 16:34:23.270
40.0, -32007.38513557734, -20137.111262930783, -30999.567329832, -17636.755721182315, -40293.98146796006, -31118.500962078688, -38456.019873144614, -13439.99218225386, -27749.288409863522, -29677.5063487895, -35431.35946170801, -18144.453244740158, -25055.858499510112, -38697.82104466212, -35345.64052172191, -187500.02235174447, -0.084, 0.896, -0.396, 192.0, 0.0, 0.0, 0.0, 0.0, 0.0, 0.0, 0.0, 0.0, 0.0, 1.741901663272157E9, 0.0, 2025-03-13 16:34:23.272
42.0, -32013.33069960245, -20145.22494616806, -31004.998803734637, -17637.135700838055, -40299.07766569587, -31117.070450433548, -38456.39985280036, -13444.194310211458, -27746.494441806608, -29683.049581414412, -35437.260322244205, -18147.783654664, -25061.044104223743, -38719.435181550405, -35334.55405647207, -187500.02235174447, -0.084, 0.896, -0.396, 192.0, 0.0, 0.0, 0.0, 0.0, 0.0, 0.0, 0.0, 0.0, 0.0, 1.741901663274122E9, 0.0, 2025-03-13 16:34:23.274
44.0, -32004.9040919428, -20136.060730941383, -30999.008536220615, -17638.789729927747, -40292.10392142581, -31111.3931073419, -38444.776945683596, -13434.404246140033, -27752.037674431525, -29680.456779057597, -35434.198133253834, -18146.35314301886, -25053.310400642207, -38706.76174244425, -35351.45197528029, -187500.02235174447, -0.084, 0.896, -0.396, 192.0, 0.0, 0.0, 0.0, 0.0, 0.0, 0.0, 0.0, 0.0, 0.0, 1.741901663276066E9, 0.0, 2025-03-13 16:34:23.276
46.0, -32008.301557100007, -20144.46498685658, -31008.66448982531, -17641.15901484001, -40299.524700584974, -31120.49026733521, -38455.37167255541, -13445.13308347858, -27746.047406917503, -29680.72499999106, -35438.0649850446, -18148.297744786472, -25058.786578033756, -38703.72190519833, -35334.487001238704, -187500.02235174447, -0.086, 0.896, -0.398, 192.0, 126.5, 32.0, 14.0, 0.0, 121.5, 64.0, 0.0, 0.0, 0.0, 1.741901663321456E9, 0.0, 2025-03-13 16:34:23.321
48.0, -32008.86035071139, -20140.955762977097, -31008.597434591942, -17639.572040983683, -40298.898851740225, -31116.265787633158, -38450.0743091195, -13439.791016553763, -27754.4516628327, -29686.268232615977, -35437.19326701084, -18151.583451221402, -25066.900261271032, -38712.57319600263, -35348.65800722337, -187500.02235174447, -0.086, 0.896, -0.398, 192.0, 0.0, 0.0, 0.0, 0.0, 0.0, 0.0, 0.0, 0.0, 0.0, 1.741901663323677E9, 0.0, 2025-03-13 16:34:23.323
50.0, -32000.970184918668, -20136.46306234158, -31006.47401886869, -17635.079340348166, -40296.596622061326, -31120.311453379567, -38456.310445822535, -13447.211795712925, -27747.924953451748, -29683.49661630352, -35436.992101310745, -18148.320096530926, -25066.363819404105, -38716.440047793396, -35340.164344330355, -187500.02235174447, -0.086, 0.896, -0.398, 192.0, 0.0, 0.0, 0.0, 0.0, 0.0, 0.0, 0.0, 0.0, 0.0, 1.741901663325721E9, 0.0, 2025-03-13 16:34:23.325
52.0, -32003.138304130833, -20133.110300673285, -31007.658661324822, -17634.609953714604, -40290.53929931394, -31114.25413063218, -38446.31921605101, -13437.734656063874, -27746.78501448453, -29676.07583714436, -35429.19134249584, -18140.228765038108, -25064.62038333659, -38711.45560877986, -35346.735757200215, -187500.02235174447, -0.086, 0.896, -0.398, 192.0, 0.0, 0.0, 0.0, 0.0, 0.0, 0.0, 0.0, 0.0, 0.0, 1.741901663327685E9, 0.0, 2025-03-13 16:34:23.327
54.0, -31999.114990128877, -20135.7031030301, -31009.111524714415, -17634.83347115916, -40299.07766569587, -31119.663252790364, -38458.970303412716, -13446.273022445801, -27749.06489241897, -29681.663773258184, -35438.467316444796, -18145.704942429657, -25073.829302052178, -38711.45560877986, -35346.400481033386, -187500.02235174447, -0.086, 0.896, -0.398, 192.0, 0.0, 0.0, 0.0, 0.0, 0.0, 0.0, 0.0, 0.0, 0.0, 1.741901663329641E9, 0.0, 2025-03-13 16:34:23.329
56.0, -31994.398772048808, -20127.812937237377, -30999.410867620812, -17629.312590278696, -40288.52764231296, -31095.433961800813, -38438.56316072502, -13425.150623935537, -27747.232049373633, -29674.22064235457, -35425.0115662827, -18137.904183614755, -25061.53584260176, -38708.28166106721, -35349.30620781257, -187500.02235174447, -0.08399999999999999, 0.899, -0.399, 192.0, 126.5, 56.0, 14.0, 24.0, 121.5, 64.0, 0.0, 0.0, 0.0, 1.74190166333156E9, 0.0, 2025-03-13 16:34:23.331
58.0, -31988.632021979338, -20128.349379104304, -30996.23691990816, -17624.551668709715, -40288.773511501975, -31112.667156775853, -38448.822611430005, -13439.142815964558, -27744.16986038326, -29673.415979554175, -35426.9114645614, -18137.703017914657, -25064.48627286986, -38694.26711729373, -35342.265408309155, -187500.02235174447, -0.08399999999999999, 0.899, -0.399, 192.0, 0.0, 0.0, 0.0, 0.0, 0.0, 0.0, 0.0, 0.0, 0.0, 1.741901663333676E9, 0.0, 2025-03-13 16:34:23.333
60.0, -31992.051838880998, -20122.828498223844, -30997.4662658532, -17619.656636674004, -40295.68020053866, -31108.755601496174, -38453.80705044354, -13439.120464220103, -27736.570267268453, -29664.899964916705, -35415.310909189095, -18129.25405851055, -25057.221955921887, -38700.927937141416, -35339.65025420788, -187500.02235174447, -0.08399999999999999, 0.899, -0.399, 192.0, 0.0, 0.0, 0.0, 0.0, 0.0, 0.0, 0.0, 0.0, 0.0, 1.741901663381272E9, 0.0, 2025-03-13 16:34:23.381
62.0, -31984.47459751065, -20124.482527313536, -30995.745181530143, -17622.182383797455, -40296.238994150044, -31120.892598735405, -38466.94987618326, -13457.024211528804, -27736.212639357167, -29663.87178467176, -35415.64618535592, -18127.801195120956, -25063.63690658056, -38700.95028888587, -35347.9427514008, -187500.02235174447, -0.08399999999999999, 0.899, -0.399, 192.0, 0.0, 0.0, 0.0, 0.0, 0.0, 0.0, 0.0, 0.0, 0.0, 1.741901663383328E9, 0.0, 2025-03-13 16:34:23.383
64.0, -31994.42112379326, -20123.92373370215, -31000.99784147714, -17625.87042163258, -40300.508177341006, -31119.3950318569, -38461.697216236265, -13456.599528384153, -27743.320494093954, -29672.186633609133, -35420.630624369456, -18136.697189414168, -25070.38713340606, -38720.2398443508, -35351.47432702474, -187500.02235174447, -0.08399999999999999, 0.899, -0.399, 192.0, 0.0, 0.0, 0.0, 0.0, 0.0, 0.0, 0.0, 0.0, 0.0, 1.741901663385282E9, 0.0, 2025-03-13 16:34:23.385
66.0, -31998.66795523977, -20137.13361467524, -31005.624652579387, -17629.781976912258, -40304.12915994277, -31135.130659953436, -38475.465890820735, -13467.23895874488, -27751.814156986973, -29677.707514489593, -35429.97365355178, -18143.670933684225, -25071.8176450512, -38711.27679482422, -35356.391710804906, -187500.02235174447, -0.08499999999999999, 0.9015, -0.3985, 192.0, 126.5, 40.0, 14.0, 32.0, 121.5, 72.0, 0.0, 0.0, 0.0, 1.741901663387258E9, 0.0, 2025-03-13 16:34:23.387
68.0, -31994.130551115344, -20124.281361613437, -31000.729620543676, -17627.39034025554, -40294.94259297164, -31109.269691618647, -38447.772079440605, -13436.482958374378, -27749.24370637461, -29673.952421421105, -35427.24674072823, -18138.95471560415, -25074.47750264138, -38702.9842976313, -35349.97676014624, -187500.02235174447, -0.08499999999999999, 0.9015, -0.3985, 192.0, 0.0, 0.0, 0.0, 0.0, 0.0, 0.0, 0.0, 0.0, 0.0, 1.741901663389344E9, 0.0, 2025-03-13 16:34:23.389
70.0, -31995.024620893553, -20130.718664016567, -30999.008536220615, -17620.72952040786, -40290.06991268038, -31110.431982330323, -38451.14719285336, -13444.41782765601, -27743.074624904948, -29663.91648816067, -35417.568435379086, -18128.136471287784, -25062.34050540215, -38695.31764928313, -35338.823239663034, -187500.02235174447, -0.08499999999999999, 0.9015, -0.3985, 192.0, 0.0, 0.0, 0.0, 0.0, 0.0, 0.0, 0.0, 0.0, 0.0, 1.7419016633913E9, 0.0, 2025-03-13 16:34:23.391
72.0, -32002.914786686277, -20130.6516087832, -31004.28354791207, -17620.39424424103, -40288.99702894653, -31098.29498509109, -38443.9722828832, -13429.777435037784, -27753.624648287852, -29677.327534833854, -35429.90659831841, -18141.569869705425, -25078.657278854524, -38714.204873347866, -35338.13033558492, -187500.02235174447, -0.08499999999999999, 0.9015, -0.3985, 192.0, 0.0, 0.0, 0.0, 0.0, 0.0, 0.0, 0.0, 0.0, 0.0, 1.741901663393324E9, 0.0, 2025-03-13 16:34:23.393
74.0, -31999.874949440356, -20137.960629220084, -31001.4672281107, -17627.502098977817, -40287.47711032356, -31101.91596769285, -38441.64770145985, -13436.482958374378, -27747.00853192908, -29672.946592920616, -35422.68698485935, -18138.7311981596, -25066.319115915194, -38704.30305055417, -35337.28096929562, -187500.02235174447, -0.08499999999999999, 0.9015, -0.3985, 192.0, 0.0, 0.0, 0.0, 0.0, 0.0, 0.0, 0.0, 0.0, 0.0, 1.741901663395256E9, 0.0, 2025-03-13 16:34:23.395
76.0, -32010.84965596791, -20142.878013000252, -31013.51481837211, -17629.424349000972, -40295.68020053866, -31098.339688580003, -38449.20259108575, -13437.734656063874, -27755.770415755564, -29684.345982592822, -35437.81911585559, -18150.130587831805, -25082.188854478463, -38711.63442273551, -35341.32663504203, -187500.02235174447, -0.08449999999999999, 0.9027499999999999, -0.39725, 192.0, 126.5, 48.0, 14.0, 32.0, 121.5, 80.0, 0.0, 0.0, 0.0, 1.741901663441617E9, 0.0, 2025-03-13 16:34:23.441
78.0, -32013.822437980467, -20155.774969550966, -31016.219379451202, -17637.69449444944, -40299.8599767518, -31115.81875274405, -38462.54658252557, -13450.51985389231, -27762.58769781443, -29689.106904161803, -35439.74136587875, -18156.00909662355, -25077.852616054133, -38707.834626178104, -35352.61426599196, -187500.02235174447, -0.08449999999999999, 0.9027499999999999, -0.39725, 192.0, 0.0, 0.0, 0.0, 0.0, 0.0, 0.0, 0.0, 0.0, 0.0, 1.74190166344381E9, 0.0, 2025-03-13 16:34:23.443
80.0, -32015.09648741442, -20154.210347439093, -31012.08430672697, -17637.985067127356, -40293.57913655986, -31109.11322940746, -38447.30269280705, -13439.366333409112, -27753.44583433221, -29691.364430351787, -35440.45662170132, -18159.87594841432, -25078.63492711007, -38714.36133555905, -35341.907780397865, -187500.02235174447, -0.08449999999999999, 0.9027499999999999, -0.39725, 192.0, 0.0, 0.0, 0.0, 0.0, 0.0, 0.0, 0.0, 0.0, 0.0, 1.741901663445814E9, 0.0, 2025-03-13 16:34:23.445
82.0, -32011.81078097949, -20155.12676896176, -31011.52551311559, -17637.225107815877, -40299.90468024072, -31115.10349692148, -38462.18895461428, -13451.548034137253, -27762.610049558887, -29698.047601943923, -35442.78120312467, -18167.520245018037, -25081.764171333813, -38720.88804494, -35352.83778343652, -187500.02235174447, -0.08449999999999999, 0.9027499999999999, -0.39725, 192.0, 0.0, 0.0, 0.0, 0.0, 0.0, 0.0, 0.0, 0.0, 0.0, 1.741901663447784E9, 0.0, 2025-03-13 16:34:23.447
84.0, -32001.506626785595, -20141.313390888383, -31004.395306634346, -17636.107520593112, -40296.68602903915, -31111.326052108536, -38450.99073064217, -13442.495577632855, -27751.72475000915, -29694.627785042263, -35436.612121655, -18161.909957159754, -25075.28216544177, -38731.03573692271, -35346.400481033386, -187500.02235174447, -0.08449999999999999, 0.9027499999999999, -0.39725, 192.0, 0.0, 0.0, 0.0, 0.0, 0.0, 0.0, 0.0, 0.0, 0.0, 1.741901663449744E9, 0.0, 2025-03-13 16:34:23.449
86.0, -31990.308402813484, -20129.71283551608, -30993.889986740352, -17627.2115262999, -40295.83666274985, -31100.01606941415, -38449.4261085303, -13435.99121999636, -27739.498345792097, -29669.05738938539, -35413.09808648802, -18140.25111678256, -25065.469749625892, -38696.09996033907, -35347.920399656345, -187500.02235174447, -0.08424999999999999, 0.899375, -0.397625, 192.0, 126.5, 48.0, 14.0, 0.0, 121.5, 72.0, 0.0, 0.0, 0.0, 1.741901663451674E9, 0.0, 2025-03-13 16:34:23.451
88.0, -32000.32198432946, -20139.79347226542, -31007.23397818017, -17629.469052489883, -40303.90564249821, -31113.15889515387, -38459.81966970202, -13447.167092224014, -27750.473052319656, -29681.44025581363, -35432.90173207542, -18153.192776822183, -25081.272432955797, -38712.34967855808, -35347.20514383377, -187500.02235174447, -0.08424999999999999, 0.899375, -0.397625, 192.0, 0.0, 0.0, 0.0, 0.0, 0.0, 0.0, 0.0, 0.0, 0.0, 1.741901663453722E9, 0.0, 2025-03-13 16:34:23.453
90.0, -31990.95660340269, -20132.015065194973, -31001.80250427753, -17626.675084432973, -40295.63549704975, -31106.609834028466, -38445.827477672996, -13439.433388642477, -27744.10280514989, -29668.96798240757, -35419.24481621323, -18141.8827941278, -25067.235537437864, -38693.99889636027, -35354.916495670856, -187500.02235174447, -0.08424999999999999, 0.899375, -0.397625, 192.0, 0.0, 0.0, 0.0, 0.0, 0.0, 0.0, 0.0, 0.0, 0.0, 1.741901663501806E9, 0.0, 2025-03-13 16:34:23.501
92.0, -32006.245196610118, -20146.633106068744, -31018.208684707726, -17634.073511847677, -40304.95617448761, -31120.19969465729, -38459.84202144647, -13456.04073477277, -27744.192212127713, -29678.82510171236, -35428.49843841773, -18148.901241886764, -25077.15971197602, -38711.388553546494, -35346.19931533329, -187500.02235174447, -0.08424999999999999, 0.899375, -0.397625, 192.0, 0.0, 0.0, 0.0, 0.0, 0.0, 0.0, 0.0, 0.0, 0.0, 1.741901663503927E9, 0.0, 2025-03-13 16:34:23.503
94.0, -31997.840940694925, -20134.138480918227, -31009.737373559165, -17640.48846250635, -40293.55678481541, -31116.69047077781, -38455.99752140016, -13446.854167801639, -27760.374875113353, -29689.19631113962, -35434.600464654024, -18158.78071293601, -25097.16452326352, -38729.96285318886, -35370.33919934502, -187500.02235174447, -0.08424999999999999, 0.899375, -0.397625, 192.0, 0.0, 0.0, 0.0, 0.0, 0.0, 0.0, 0.0, 0.0, 0.0, 1.741901663505989E9, 0.0, 2025-03-13 16:34:23.505
96.0, -31990.733085958134, -20129.422262838158, -31003.545940345044, -17625.71395942139, -40291.67923828116, -31112.376584097936, -38454.92463766631, -13447.569423624209, -27738.380758569332, -29674.712380732584, -35417.59078712354, -18140.16170980474, -25072.82347355169, -38702.00082087527, -35347.42866127833, -187500.02235174447, -0.084125, 0.8996875, -0.3978125, 192.0, 126.5, 48.0, 14.0, 16.0, 121.5, 72.0, 0.0, 0.0, 0.0, 1.741901663508083E9, 0.0, 2025-03-13 16:34:23.508
98.0, -31993.683516226236, -20130.808070994386, -31003.367126389403, -17626.138642566042, -40285.01841843348, -31105.53695029461, -38451.46011727573, -13444.66369684502, -27741.599409770897, -29671.91841267567, -35408.22540619676, -18131.377474233803, -25068.889566527556, -38692.56838471513, -35357.24107709421, -187500.02235174447, -0.084125, 0.8996875, -0.3978125, 192.0, 0.0, 0.0, 0.0, 0.0, 0.0, 0.0, 0.0, 0.0, 0.0, 1.741901663510163E9, 0.0, 2025-03-13 16:34:23.510
100.0, -31989.28022256854, -20135.814861752377, -30999.99201297665, -17629.91608737899, -40289.86874698028, -31108.554435796075, -38457.31627432302, -13446.541243379264, -27735.05034864549, -29679.182729623644, -35410.68409808685, -18137.881831870298, -25063.905127514023, -38703.23016682031, -35349.55207700159, -187500.02235174447, -0.084125, 0.8996875, -0.3978125, 192.0, 0.0, 0.0, 0.0, 0.0, 0.0, 0.0, 0.0, 0.0, 0.0, 1.741901663512119E9, 0.0, 2025-03-13 16:34:23.512
102.0, -32002.020716908064, -20140.262858898983, -31006.98810899116, -17634.677008947972, -40293.69089528214, -31103.72645899373, -38451.86244867593, -13439.455740386933, -27742.024092915548, -29678.132197634244, -35414.64035685544, -18144.92263137372, -25061.133511201562, -38703.20781507585, -35354.96119915977, -187500.02235174447, -0.084125, 0.8996875, -0.3978125, 192.0, 0.0, 0.0, 0.0, 0.0, 0.0, 0.0, 0.0, 0.0, 0.0, 1.74190166351408E9, 0.0, 2025-03-13 16:34:23.514
104.0, -31990.017830135566, -20133.289114628926, -30998.919129242797, -17636.956886882414, -40288.281773123956, -31106.07339216154, -38449.4261085303, -13438.964002008915, -27736.25734284608, -29676.187595866635, -35422.08348775905, -18148.8341866534, -25057.736046044356, -38703.45368426487, -35345.46170776626, -187500.02235174447, -0.084125, 0.8996875, -0.3978125, 192.0, 0.0, 0.0, 0.0, 0.0, 0.0, 0.0, 0.0, 0.0, 0.0, 1.741901663516027E9, 0.0, 2025-03-13 16:34:23.516
106.0, -31998.310327328483, -20133.691446029123, -31004.931748501273, -17639.594392728137, -40295.92606972767, -31102.228892115225, -38445.06751836152, -13434.4713013734, -27739.16306962527, -29677.48399704504, -35428.185513995355, -18153.706866944656, -25056.57375533268, -38710.04744887918, -35344.27706531013, -187500.02235174447, -0.08206250000000001, 0.8988437499999999, -0.39890625, 192.0, 126.5, 64.0, 14.0, 8.0, 121.5, 64.0, 0.0, 0.0, 0.0, 1.741901663562114E9, 0.0, 2025-03-13 16:34:23.562
108.0, -32004.09942914241, -20142.252164155503, -31008.19510319175, -17645.07057011969, -40311.013497235006, -31120.311453379567, -38459.61850400192, -13448.284679446779, -27738.447813802697, -29680.881462202247, -35440.23310425677, -18158.288974557992, -25048.124795928576, -38708.01344013375, -35341.10311759748, -187500.02235174447, -0.08206250000000001, 0.8988437499999999, -0.39890625, 192.0, 0.0, 0.0, 0.0, 0.0, 0.0, 0.0, 0.0, 0.0, 0.0, 1.741901663564284E9, 0.0, 2025-03-13 16:34:23.564
110.0, -31995.449304038204, -20122.98496043503, -30995.43225710777, -17641.78486368476, -40304.4644361096, -31102.877092704428, -38447.25798931813, -13429.911545504518, -27743.275790605046, -29681.373200580267, -35444.055252558624, -18159.16069259175, -25054.53974658725, -38707.29818431118, -35350.26733282415, -187500.02235174447, -0.08206250000000001, 0.8988437499999999, -0.39890625, 192.0, 0.0, 0.0, 0.0, 0.0, 0.0, 0.0, 0.0, 0.0, 0.0, 1.741901663566262E9, 0.0, 2025-03-13 16:34:23.566
112.0, -31995.158731360287, -20128.70700701559, -30995.096980940936, -17640.421407272985, -40309.69474431214, -31114.522351565643, -38456.71277722273, -13445.624821856598, -27725.64026422981, -29663.514156760473, -35434.01931929819, -18146.710770930145, -25037.977103945865, -38691.60725970355, -35338.59972221848, -187500.02235174447, -0.08206250000000001, 0.8988437499999999, -0.39890625, 192.0, 0.0, 0.0, 0.0, 0.0, 0.0, 0.0, 0.0, 0.0, 0.0, 1.741901663568204E9, 0.0, 2025-03-13 16:34:23.568
114.0, -31995.941042416223, -20120.615675522768, -30994.940518729753, -17642.29895380723, -40312.823988535885, -31109.06852591855, -38453.96351265473, -13438.628725842087, -27740.63828475932, -29679.49565404602, -35449.39731948344, -18159.96535539214, -25057.19960417743, -38712.103809369066, -35352.65896948087, -187500.02235174447, -0.08206250000000001, 0.8988437499999999, -0.39890625, 192.0, 0.0, 0.0, 0.0, 0.0, 0.0, 0.0, 0.0, 0.0, 0.0, 1.741901663570256E9, 0.0, 2025-03-13 16:34:23.570
116.0, -31977.456149751684, -20106.288207326914, -30980.255422622613, -17635.235802559353, -40303.50331109802, -31109.984947441215, -38449.40375678585, -13436.460606629922, -27720.365252538355, -29657.00979912398, -35429.52661866267, -18137.278334770006, -25041.732197014357, -38692.21075680384, -35338.219742562746, -187500.02235174447, -0.07903125, 0.897421875, -0.399453125, 192.0, 126.5, 80.0, 14.0, 0.0, 121.5, 64.0, 0.0, 0.0, 0.0, 1.741901663572194E9, 0.0, 2025-03-13 16:34:23.572
118.0, -31987.715600456668, -20106.6458352382, -30986.536262814556, -17638.588564227648, -40311.59464259084, -31106.051040417082, -38449.4261085303, -13433.711342061919, -27716.029014114025, -29653.657037455683, -35425.74917384973, -18134.81964287992, -25030.936304442443, -38682.91243111044, -35335.78340241712, -187500.02235174447, -0.07903125, 0.897421875, -0.399453125, 192.0, 0.0, 0.0, 0.0, 0.0, 0.0, 0.0, 0.0, 0.0, 0.0, 1.741901663574301E9, 0.0, 2025-03-13 16:34:23.574
120.0, -31972.62817294934, -20101.639044480213, -30972.18644287425, -17632.330075780163, -40302.5645378309, -31106.92275845084, -38453.89645742136, -13438.606374097631, -27712.989176868105, -29654.10407234479, -35420.831790069555, -18135.24432602457, -25024.655464250503, -38683.31476251063, -35338.912646640856, -187500.02235174447, -0.07903125, 0.897421875, -0.399453125, 192.0, 0.0, 0.0, 0.0, 0.0, 0.0, 0.0, 0.0, 0.0, 0.0, 1.741901663622402E9, 0.0, 2025-03-13 16:34:23.622
122.0, -31989.593146990916, -20113.01608240796, -30985.217509891692, -17640.53316599526, -40315.10386647032, -31109.224988129736, -38459.48439353519, -13443.501406133344, -27711.82688615643, -29659.02145612496, -35424.20690348231, -18140.944020860676, -25030.71278699789, -38690.37791375851, -35335.87280939493, -187500.02235174447, -0.07903125, 0.897421875, -0.399453125, 192.0, 0.0, 0.0, 0.0, 0.0, 0.0, 0.0, 0.0, 0.0, 0.0, 1.741901663624485E9, 0.0, 2025-03-13 16:34:23.624
124.0, -31974.818643905957, -20104.45536428158, -30972.745236485633, -17641.673104962483, -40306.90077625523, -31109.135581151913, -38452.533001009586, -13439.120464220103, -27718.845333915393, -29657.456834013086, -35426.66559537239, -18144.29678252897, -25034.400824833017, -38693.41775100443, -35347.76393744516, -187500.02235174447, -0.07903125, 0.897421875, -0.399453125, 192.0, 0.0, 0.0, 0.0, 0.0, 0.0, 0.0, 0.0, 0.0, 0.0, 1.741901663626458E9, 0.0, 2025-03-13 16:34:23.626
126.0, -31985.70394345569, -20108.188105605615, -30978.713152255197, -17636.219279315388, -40311.63934607975, -31107.034517173117, -38455.59518999996, -13438.069932230705, -27710.418726255743, -29656.2498398125, -35423.53635114865, -18140.608744693847, -25024.72251948387, -38693.37304751552, -35335.58223671702, -187500.02235174447, -0.079515625, 0.8987109375, -0.39772656250000005, 192.0, 126.5, 64.0, 14.0, 16.0, 121.5, 80.0, 0.0, 0.0, 0.0, 1.741901663628405E9, 0.0, 2025-03-13 16:34:23.628
128.0, -31973.27637353854, -20101.013195635463, -30966.553803271512, -17629.91608737899, -40300.75404653002, -31106.341613095003, -38449.69432946376, -13438.204042697436, -27710.463429744654, -29655.780453178937, -35415.62383361147, -18133.25502076805, -25023.694339238926, -38688.09803582407, -35338.487963496205, -187500.02235174447, -0.079515625, 0.8987109375, -0.39772656250000005, 192.0, 0.0, 0.0, 0.0, 0.0, 0.0, 0.0, 0.0, 0.0, 0.0, 1.741901663630497E9, 0.0, 2025-03-13 16:34:23.630
130.0, -31993.99644064861, -20117.12880338774, -30983.630536035365, -17632.15126182452, -40317.80842754942, -31116.399898099888, -38463.84298370397, -13448.977583524893, -27717.548932736987, -29662.06129337088, -35427.47025817278, -18141.45811098315, -25035.898391711522, -38698.044562106676, -35335.55988497256, -187500.02235174447, -0.079515625, 0.8987109375, -0.39772656250000005, 192.0, 0.0, 0.0, 0.0, 0.0, 0.0, 0.0, 0.0, 0.0, 0.0, 1.741901663632407E9, 0.0, 2025-03-13 16:34:23.632
132.0, -31976.09269333991, -20103.851867181285, -30966.553803271512, -17632.084206591157, -40297.44598835063, -31109.806133485574, -38451.72833820919, -13435.208908940425, -27726.735499708117, -29669.325610318854, -35423.26813021518, -18142.754512161555, -25040.413444091493, -38697.776341173216, -35345.14878334389, -187500.02235174447, -0.079515625, 0.8987109375, -0.39772656250000005, 192.0, 0.0, 0.0, 0.0, 0.0, 0.0, 0.0, 0.0, 0.0, 0.0, 1.741901663634365E9, 0.0, 2025-03-13 16:34:23.634
134.0, -31992.632984236836, -20117.017044665463, -30979.294297611035, -17624.261096031798, -40308.30893615591, -31103.793514227094, -38458.7244342237, -13437.913470019517, -27710.798705911486, -29658.909697402683, -35415.51207488919, -18130.952791089152, -25030.33280734215, -38690.17674805841, -35323.55699820006, -187500.02235174447, -0.079515625, 0.8987109375, -0.39772656250000005, 192.0, 0.0, 0.0, 0.0, 0.0, 0.0, 0.0, 0.0, 0.0, 0.0, 1.741901663636352E9, 0.0, 2025-03-13 16:34:23.636
136.0, -31997.304498827994, -20119.431033066634, -30985.79865524753, -17637.91801189399, -40307.97365998908, -31106.83335147302, -38451.057785875535, -13436.3711996521, -27736.033825401526, -29673.52773827645, -35432.789973353145, -18146.755474419057, -25045.53199357176, -38710.069800623634, -35347.89804791189, -187500.02235174447, -0.0797578125, 0.9003554687499999, -0.39686328125000003, 192.0, 126.5, 64.0, 14.0, 24.0, 121.5, 80.0, 0.0, 0.0, 0.0, 1.74190166368164E9, 0.0, 2025-03-13 16:34:23.681
138.0, -31998.10916162839, -20118.894591199707, -30980.85891972291, -17624.0599303317, -40301.290488396946, -31106.945110195295, -38450.54369575306, -13436.952345007938, -27723.673310717742, -29662.150700348702, -35428.811362840104, -18139.513509215536, -25034.601990533116, -38694.31182078264, -35328.74260291369, -187500.02235174447, -0.0797578125, 0.9003554687499999, -0.39686328125000003, 192.0, 0.0, 0.0, 0.0, 0.0, 0.0, 0.0, 0.0, 0.0, 0.0, 1.741901663715136E9, 0.0, 2025-03-13 16:34:23.715
140.0, -31994.19760634871, -20116.45825105408, -30977.953192943718, -17628.61968620058, -40300.441122107644, -31104.57582528303, -38445.31338755052, -13434.784225795775, -27732.368139310856, -29661.86012767078, -35429.59367389604, -18138.328866759406, -25039.13939465754, -38682.55480319915, -35340.83489666401, -187500.02235174447, -0.0797578125, 0.9003554687499999, -0.39686328125000003, 192.0, 0.0, 0.0, 0.0, 0.0, 0.0, 0.0, 0.0, 0.0, 0.0, 1.741901663717132E9, 0.0, 2025-03-13 16:34:23.717
142.0, -31992.09654236991, -20120.392158078215, -30977.863785965896, -17627.367988511087, -40303.43625586465, -31109.96259569676, -38450.45428877524, -13437.287621174768, -27722.33220605042, -29662.91065966018, -35428.185513995355, -18135.512546958034, -25033.059720165696, -38693.52950972671, -35326.41802149034, -187500.02235174447, -0.0797578125, 0.9003554687499999, -0.39686328125000003, 192.0, 0.0, 0.0, 0.0, 0.0, 0.0, 0.0, 0.0, 0.0, 0.0, 1.741901663719078E9, 0.0, 2025-03-13 16:34:23.719
144.0, -31979.713675941668, -20104.008329392473, -30966.330285826956, -17626.697436177426, -40286.71715101208, -31091.76827571014, -38433.10933507793, -13418.445100598945, -27723.069813617447, -29659.4014357807, -35417.076697001066, -18130.461052711136, -25030.846897464624, -38687.8298148906, -35332.52004772664, -187500.02235174447, -0.0797578125, 0.9003554687499999, -0.39686328125000003, 192.0, 0.0, 0.0, 0.0, 0.0, 0.0, 0.0, 0.0, 0.0, 0.0, 1.74190166372106E9, 0.0, 2025-03-13 16:34:23.721
146.0, -31991.493045269617, -20121.800317978898, -30982.22237613468, -17630.363122268096, -40306.654907066215, -31119.998528957192, -38455.34932081096, -13447.122388735103, -27716.096069347393, -29661.68131371514, -35422.2623017147, -18133.16561379023, -25028.567019530183, -38699.27390805172, -35320.00307083167, -187500.02235174447, -0.07687890624999999, 0.901177734375, -0.398431640625, 192.0, 126.5, 88.0, 14.0, 24.0, 121.5, 64.0, 0.0, 0.0, 0.0, 1.741901663723047E9, 0.0, 2025-03-13 16:34:23.723
148.0, -31998.04210639502, -20121.397986578704, -30983.89875696883, -17640.82373867318, -40311.05820072391, -31121.563151069065, -38461.674864491804, -13449.961060280928, -27733.82100270045, -29674.19829061011, -35433.281711731164, -18149.862366898342, -25039.899353969024, -38702.738428442295, -35347.67453046734, -187500.02235174447, -0.07687890624999999, 0.901177734375, -0.398431640625, 192.0, 0.0, 0.0, 0.0, 0.0, 0.0, 0.0, 0.0, 0.0, 0.0, 1.741901663725167E9, 0.0, 2025-03-13 16:34:23.725
150.0, -31982.41823702076, -20110.959721918076, -30965.03388464855, -17630.00549435681, -40289.71228476909, -31111.750735253187, -38445.35809103943, -13435.410074640522, -27717.63833971481, -29661.837775926328, -35420.18358948035, -18135.154919046752, -25028.90229569701, -38691.22728004781, -35329.94959711428, -187500.02235174447, -0.07687890624999999, 0.901177734375, -0.398431640625, 192.0, 0.0, 0.0, 0.0, 0.0, 0.0, 0.0, 0.0, 0.0, 0.0, 1.741901663741485E9, 0.0, 2025-03-13 16:34:23.741
152.0, -32005.52994078755, -20129.06463492687, -30985.396323847333, -17643.662410219004, -40312.667526324694, -31117.182209155824, -38459.88672493538, -13445.736580578874, -27729.887095676317, -29675.718209233073, -35429.90659831841, -18149.348276775872, -25028.969350930376, -38707.00761163326, -35337.66094895136, -187500.02235174447, -0.07687890624999999, 0.901177734375, -0.398431640625, 192.0, 0.0, 0.0, 0.0, 0.0, 0.0, 0.0, 0.0, 0.0, 0.0, 1.741901663743512E9, 0.0, 2025-03-13 16:34:23.743
154.0, -31997.080981383442, -20127.07532967035, -30979.964849944696, -17651.552576011727, -40306.11846519929, -31127.15108718289, -38462.077195892, -13451.168054481514, -27732.72576722214, -29681.64142151373, -35438.44496470034, -18159.7865414365, -25035.04902542222, -38715.255405337266, -35339.15851582986, -187500.02235174447, -0.07687890624999999, 0.901177734375, -0.398431640625, 192.0, 0.0, 0.0, 0.0, 0.0, 0.0, 0.0, 0.0, 0.0, 0.0, 1.741901663745496E9, 0.0, 2025-03-13 16:34:23.745
156.0, -31997.997402906112, -20120.816841222866, -30977.304992354515, -17640.44375901744, -40304.73265704306, -31104.888749705406, -38448.04030037407, -13430.93972574946, -27728.09895611989, -29671.58313650884, -35428.610197140006, -18153.013962866542, -25028.18703987444, -38702.15728308645, -35335.71634718375, -187500.02235174447, -0.074439453125, 0.8995888671875001, -0.3992158203125, 192.0, 126.5, 96.0, 14.0, 8.0, 121.5, 64.0, 0.0, 0.0, 0.0, 1.741901663747461E9, 0.0, 2025-03-13 16:34:23.747
158.0, -31994.354068559896, -20124.16960289116, -30980.90362321182, -17647.842186432146, -40300.083494196355, -31122.166648169357, -38454.67876847729, -13445.289545689768, -27732.59165675541, -29677.39459006722, -35435.91921757689, -18156.00909662355, -25033.797327732722, -38706.918204655434, -35335.11285008345, -187500.02235174447, -0.074439453125, 0.8995888671875001, -0.3992158203125, 192.0, 0.0, 0.0, 0.0, 0.0, 0.0, 0.0, 0.0, 0.0, 0.0, 1.741901663749653E9, 0.0, 2025-03-13 16:34:23.749
160.0, -31998.377382561852, -20118.581666777332, -30982.22237613468, -17636.554555482217, -40303.34684888683, -31108.219159629247, -38448.7779079411, -13435.052446729238, -27725.036767129513, -29669.705589974594, -35427.15733375041, -18148.722427931123, -25034.266714366284, -38694.133006827, -35332.38593725991, -187500.02235174447, -0.074439453125, 0.8995888671875001, -0.3992158203125, 192.0, 0.0, 0.0, 0.0, 0.0, 0.0, 0.0, 0.0, 0.0, 0.0, 1.741901663751592E9, 0.0, 2025-03-13 16:34:23.751
162.0, -31996.61159474988, -20122.604980779288, -30983.809349991006, -17634.83347115916, -40300.575232574374, -31120.713784779764, -38458.00917840114, -13446.630650357087, -27734.156278867278, -29673.795959209918, -35435.315720476596, -18152.388114021793, -25036.591295789636, -38699.94446038538, -35340.20904781926, -187500.02235174447, -0.074439453125, 0.8995888671875001, -0.3992158203125, 192.0, 0.0, 0.0, 0.0, 0.0, 0.0, 0.0, 0.0, 0.0, 0.0, 1.741901663753524E9, 0.0, 2025-03-13 16:34:23.753
164.0, -32004.769981476067, -20120.63802726722, -30988.48086458217, -17631.279543790763, -40299.10001744032, -31107.3921450844, -38447.16858234031, -13433.018437983805, -27732.032863144024, -29669.68323823014, -35426.55383665011, -18142.35218076136, -25039.497022568827, -38699.720942940825, -35336.09632683949, -187500.02235174447, -0.074439453125, 0.8995888671875001, -0.3992158203125, 192.0, 0.0, 0.0, 0.0, 0.0, 0.0, 0.0, 0.0, 0.0, 0.0, 1.741901663755523E9, 0.0, 2025-03-13 16:34:23.755
166.0, -31989.43668477973, -20117.151155132193, -30980.009553433607, -17636.085168848655, -40292.752122015016, -31115.63993878841, -38450.83426843098, -13439.589850853665, -27735.095052134402, -29672.007819653492, -35426.41972618338, -18144.386189506793, -25040.368740602582, -38698.73746618479, -35338.689129196304, -187500.02235174447, -0.07821972656250001, 0.89979443359375, -0.39960791015625, 192.0, 126.5, 56.0, 14.0, 16.0, 121.5, 64.0, 0.0, 0.0, 0.0, 1.741901663801793E9, 0.0, 2025-03-13 16:34:23.801
168.0, -31998.980879662144, -20118.536963288425, -30988.03382969306, -17633.648828703026, -40299.457645351606, -31112.06365967556, -38448.75555619664, -13436.460606629922, -27733.530430022533, -29671.829005697848, -35428.185513995355, -18147.44837849717, -25042.00041794782, -38697.46341675084, -35331.33540527051, -187500.02235174447, -0.07821972656250001, 0.89979443359375, -0.39960791015625, 192.0, 0.0, 0.0, 0.0, 0.0, 0.0, 0.0, 0.0, 0.0, 0.0, 1.741901663804006E9, 0.0, 2025-03-13 16:34:23.804
170.0, -32002.17717911925, -20131.07629192785, -30993.152379173327, -17646.63519223156, -40308.04071522244, -31127.307549394078, -38463.79828021506, -13453.4255806715, -27736.48086029063, -29673.77360746546, -35430.75596460771, -18150.622326209825, -25045.308476127208, -38710.18155934591, -35339.06910885205, -187500.02235174447, -0.07821972656250001, 0.89979443359375, -0.39960791015625, 192.0, 0.0, 0.0, 0.0, 0.0, 0.0, 0.0, 0.0, 0.0, 0.0, 1.741901663805939E9, 0.0, 2025-03-13 16:34:23.805
172.0, -31995.76222846058, -20117.30761734338, -30983.74229475764, -17641.695456706937, -40296.7083807836, -31113.136543409415, -38443.10056484945, -13433.75604555083, -27736.413805057266, -29680.21090986859, -35433.59463615354, -18155.517358245535, -25039.742891757836, -38711.99205064679, -35338.75618442967, -187500.02235174447, -0.07821972656250001, 0.89979443359375, -0.39960791015625, 192.0, 0.0, 0.0, 0.0, 0.0, 0.0, 0.0, 0.0, 0.0, 0.0, 1.741901663807869E9, 0.0, 2025-03-13 16:34:23.807
174.0, -31988.9002429128, -20115.474774298047, -30977.953192943718, -17636.554555482217, -40290.53929931394, -31116.53400856662, -38448.80025968555, -13442.450874143944, -27730.40118579879, -29663.514156760473, -35425.190380238346, -18142.64275343928, -25035.47370856687, -38693.35069577106, -35336.588065217504, -187500.02235174447, -0.07821972656250001, 0.89979443359375, -0.39960791015625, 192.0, 0.0, 0.0, 0.0, 0.0, 0.0, 0.0, 0.0, 0.0, 0.0, 1.741901663809822E9, 0.0, 2025-03-13 16:34:23.809
176.0, -32005.820513465467, -20131.769196005964, -30991.52070182809, -17641.382532284562, -40303.95034598713, -31128.49219185021, -38456.310445822535, -13450.206929469936, -27737.53139228003, -29679.316840090378, -35438.2661507447, -18155.62911696781, -25042.358045859106, -38709.443951778885, -35330.26252153665, -187500.02235174447, -0.07810986328125, 0.8978972167968751, -0.40180395507812505, 192.0, 126.5, 72.0, 14.0, 0.0, 121.5, 48.0, 0.0, 0.0, 0.0, 1.741901663811782E9, 0.0, 2025-03-13 16:34:23.811
178.0, -31998.623251750858, -20128.103509915294, -30985.955117458718, -17647.97629689888, -40303.2127384201, -31136.6505785764, -38461.272533091615, -13453.827912071696, -27741.465299304164, -29679.629764512752, -35433.81815359809, -18154.891509400786, -25036.993627189833, -38711.32149831313, -35343.85238216548, -187500.02235174447, -0.07810986328125, 0.8978972167968751, -0.40180395507812505, 192.0, 0.0, 0.0, 0.0, 0.0, 0.0, 0.0, 0.0, 0.0, 0.0, 1.741901663813956E9, 0.0, 2025-03-13 16:34:23.813
180.0, -32008.52507454456, -20133.400873351202, -30997.555672831022, -17648.333924810162, -40314.07568622538, -31140.91976176736, -38465.809937216036, -13457.337135951178, -27742.225258615646, -29686.715267505082, -35441.887133346456, -18160.59120423689, -25053.48921459785, -38725.91718744245, -35340.097289096986, -187500.02235174447, -0.07810986328125, 0.8978972167968751, -0.40180395507812505, 192.0, 0.0, 0.0, 0.0, 0.0, 0.0, 0.0, 0.0, 0.0, 0.0, 1.741901663862065E9, 0.0, 2025-03-13 16:34:23.862
182.0, -31987.67089696776, -20115.251256853495, -30980.523643556076, -17635.414616514994, -40296.86484299479, -31125.228837159735, -38453.47177427671, -13444.23901370037, -27736.190287612713, -29677.93103193415, -35427.15733375041, -18148.342448275384, -25045.800214505223, -38706.00178313277, -35343.584161232015, -187500.02235174447, -0.07810986328125, 0.8978972167968751, -0.40180395507812505, 192.0, 0.0, 0.0, 0.0, 0.0, 0.0, 0.0, 0.0, 0.0, 0.0, 1.741901663864088E9, 0.0, 2025-03-13 16:34:23.864
184.0, -31983.826396921446, -20108.478678283536, -30974.533376042054, -17626.1609943105, -40295.52373832747, -31122.747793525195, -38446.98976838467, -13437.667600830508, -27721.952226394682, -29670.174976608156, -35420.74238309174, -18140.8322621384, -25034.311417855195, -38707.208777333355, -35326.86505637944, -187500.02235174447, -0.07810986328125, 0.8978972167968751, -0.40180395507812505, 192.0, 0.0, 0.0, 0.0, 0.0, 0.0, 0.0, 0.0, 0.0, 0.0, 1.741901663866059E9, 0.0, 2025-03-13 16:34:23.866
186.0, -31980.22776606414, -20104.83534393732, -30970.465358551188, -17622.00356984181, -40288.2594213795, -31117.651595789386, -38442.385309026875, -13435.834757785173, -27721.236970572114, -29663.53650850493, -35412.56164462109, -18134.529070202003, -25020.542743270726, -38695.98820161679, -35333.65998669386, -187500.02235174447, -0.07805493164062499, 0.8979486083984376, -0.40090197753906254, 192.0, 126.5, 72.0, 14.0, 8.0, 121.5, 64.0, 0.0, 0.0, 0.0, 1.741901663867998E9, 0.0, 2025-03-13 16:34:23.867
188.0, -31993.795274948512, -20118.246390610504, -30983.429370335267, -17627.055064088712, -40300.97756397457, -31122.658386547377, -38453.62823648789, -13443.546109622253, -27725.461450274164, -29670.957287664092, -35425.68211861636, -18139.40175049326, -25036.367778345084, -38699.8327016631, -35325.65806217886, -187500.02235174447, -0.07805493164062499, 0.8979486083984376, -0.40090197753906254, 192.0, 0.0, 0.0, 0.0, 0.0, 0.0, 0.0, 0.0, 0.0, 0.0, 1.741901663870139E9, 0.0, 2025-03-13 16:34:23.870
190.0, -32008.480371055648, -20133.6020390513, -30995.47696059668, -17642.053084618223, -40308.64421232274, -31132.11317445197, -38460.60198075795, -13452.352696937645, -27739.431290558732, -29681.104979646803, -35433.75109836472, -18149.907070387253, -25048.728293028867, -38710.986222146304, -35343.62886472093, -187500.02235174447, -0.07805493164062499, 0.8979486083984376, -0.40090197753906254, 192.0, 0.0, 0.0, 0.0, 0.0, 0.0, 0.0, 0.0, 0.0, 0.0, 1.741901663872098E9, 0.0, 2025-03-13 16:34:23.872
192.0, -31989.9507749022, -20115.988864420517, -30977.819082476984, -17634.78876767025, -40289.93580221365, -31122.948959225294, -38442.76528868262, -13436.08062697418, -27738.76073822507, -29683.87659595926, -35441.10482229052, -18155.763227434545, -25051.410502363506, -38714.85307393707, -35336.3421960285, -187500.02235174447, -0.07805493164062499, 0.8979486083984376, -0.40090197753906254, 192.0, 0.0, 0.0, 0.0, 0.0, 0.0, 0.0, 0.0, 0.0, 0.0, 1.741901663874034E9, 0.0, 2025-03-13 16:34:23.874
194.0, -31981.635925964827, -20103.15896310317, -30965.682085237753, -17625.646904188026, -40282.06798816538, -31105.00050842768, -38432.34937576645, -13423.787167523762, -27722.511020006066, -29663.44710152711, -35415.62383361147, -18134.26084926854, -25024.789574717233, -38691.22728004781, -35328.42967849132, -187500.02235174447, -0.07805493164062499, 0.8979486083984376, -0.40090197753906254, 192.0, 0.0, 0.0, 0.0, 0.0, 0.0, 0.0, 0.0, 0.0, 0.0, 1.741901663875952E9, 0.0, 2025-03-13 16:34:23.875
196.0, -31987.536786501027, -20116.525306287447, -30972.36525682989, -17628.932610622956, -40288.52764231296, -31120.40086035739, -38445.58160848398, -13439.61220259812, -27715.224351313635, -29659.736711947528, -35416.026165011666, -18134.64082892428, -25021.727385726856, -38686.71222766784, -35314.90687309586, -187500.02235174447, -0.0780274658203125, 0.8979743041992188, -0.4014509887695313, 192.0, 126.5, 72.0, 14.0, 8.0, 121.5, 56.0, 0.0, 0.0, 0.0, 1.741901663922378E9, 0.0, 2025-03-13 16:34:23.922
198.0, -32000.612557007382, -20126.091852914316, -30983.339963357448, -17640.82373867318, -40296.77543601697, -31123.150124925392, -38448.93437015228, -13440.550975865242, -27734.044520145002, -29675.226470855057, -35427.000871539225, -18151.7846169215, -25040.033464435754, -38695.541166727686, -35335.78340241712, -187500.02235174447, -0.0780274658203125, 0.8979743041992188, -0.4014509887695313, 192.0, 0.0, 0.0, 0.0, 0.0, 0.0, 0.0, 0.0, 0.0, 0.0, 1.74190166392463E9, 0.0, 2025-03-13 16:34:23.924
200.0, -31982.932327143233, -20113.708986486075, -30974.64513476433, -17637.24745956033, -40283.43144457715, -31116.53400856662, -38441.066556104015, -13434.203080439936, -27729.10478462038, -29677.72986623405, -35427.9619965508, -18151.181119821205, -25038.468842323884, -38712.21556809134, -35331.625977948424, -187500.02235174447, -0.0780274658203125, 0.8979743041992188, -0.4014509887695313, 192.0, 0.0, 0.0, 0.0, 0.0, 0.0, 0.0, 0.0, 0.0, 0.0, 1.741901663926684E9, 0.0, 2025-03-13 16:34:23.926
202.0, -32001.461923296683, -20125.93539070313, -30992.526530328578, -17642.187195084953, -40294.74142727154, -31118.5456655676, -38451.37071029791, -13439.27692643129, -27732.21167709967, -29671.270212086467, -35427.49260991724, -18145.30261102946, -25042.67097028148, -38704.92889939891, -35335.00109136118, -187500.02235174447, -0.0780274658203125, 0.8979743041992188, -0.4014509887695313, 192.0, 0.0, 0.0, 0.0, 0.0, 0.0, 0.0, 0.0, 0.0, 0.0, 1.741901663928634E9, 0.0, 2025-03-13 16:34:23.928
204.0, -31998.377382561852, -20128.12586165975, -30988.03382969306, -17643.68476196346, -40291.67923828116, -31127.799287772097, -38450.007253886135, -13447.658830602031, -27731.652883488285, -29677.05931390039, -35437.6626536444, -18156.098503601374, -25040.18992664694, -38708.2369575783, -35337.21391406225, -187500.02235174447, -0.0780274658203125, 0.8979743041992188, -0.4014509887695313, 192.0, 0.0, 0.0, 0.0, 0.0, 0.0, 0.0, 0.0, 0.0, 0.0, 1.74190166393059E9, 0.0, 2025-03-13 16:34:23.930
206.0, -32008.703888500204, -20127.634123281732, -30985.396323847333, -17633.313552536198, -40291.03103769196, -31116.31049112207, -38439.1219543364, -13433.532528106276, -27747.76849124056, -29678.981563923546, -35439.33903447855, -18157.55136699097, -25045.017903449287, -38707.78992268919, -35334.19642856079, -187500.02235174447, -0.07601373291015626, 0.8989871520996093, -0.4027254943847657, 192.0, 126.5, 88.0, 14.0, 16.0, 121.5, 48.0, 0.0, 0.0, 0.0, 1.741901663932502E9, 0.0, 2025-03-13 16:34:23.932
208.0, -32004.121780886864, -20131.612733794776, -30984.166977902292, -17629.804328656715, -40287.16418590119, -31117.696299278297, -38442.675881704796, -13438.025228741793, -27737.509040535577, -29665.9504969061, -35430.130115762964, -18145.59318370738, -25035.406653333506, -38688.76858815773, -35321.94767259928, -187500.02235174447, -0.07601373291015626, 0.8989871520996093, -0.4027254943847657, 192.0, 0.0, 0.0, 0.0, 0.0, 0.0, 0.0, 0.0, 0.0, 0.0, 1.741901663934628E9, 0.0, 2025-03-13 16:34:23.934
210.0, -32006.424010565763, -20120.995655178507, -30985.016344191594, -17630.85486064611, -40285.39839808922, -31108.219159629247, -38438.674919447294, -13425.79882452474, -27759.145529168312, -29675.07000864387, -35446.49159270425, -18158.13251234681, -25062.072284468686, -38702.35844878655, -35335.24696055019, -187500.02235174447, -0.07601373291015626, 0.8989871520996093, -0.4027254943847657, 192.0, 0.0, 0.0, 0.0, 0.0, 0.0, 0.0, 0.0, 0.0, 0.0, 1.741901663982632E9, 0.0, 2025-03-13 16:34:23.982
212.0, -31991.493045269617, -20113.999559163996, -30976.768550487584, -17622.651770431017, -40282.58207828785, -31106.83335147302, -38444.86635266142, -13431.699685060941, -27740.705339992684, -29649.58901996482, -35426.084450016555, -18135.423139980216, -25035.361949844595, -38678.10680605254, -35322.551169699575, -187500.02235174447, -0.07601373291015626, 0.8989871520996093, -0.4027254943847657, 192.0, 0.0, 0.0, 0.0, 0.0, 0.0, 0.0, 0.0, 0.0, 0.0, 1.741901663984699E9, 0.0, 2025-03-13 16:34:23.984
214.0, -32002.24423435262, -20111.60792250728, -30983.719943013188, -17629.379645512065, -40281.01745617598, -31097.356211823968, -38428.66133793132, -13417.953362220927, -27752.127081409348, -29654.282886300432, -35434.622816398485, -18145.459073240647, -25058.183080933464, -38691.65196319246, -35325.00986158966, -187500.02235174447, -0.07601373291015626, 0.8989871520996093, -0.4027254943847657, 192.0, 0.0, 0.0, 0.0, 0.0, 0.0, 0.0, 0.0, 0.0, 0.0, 1.741901663986636E9, 0.0, 2025-03-13 16:34:23.986
216.0, -31990.397809791306, -20105.751765459987, -30976.36621908739, -17625.28927627674, -40276.99414217402, -31104.01703167165, -38438.98784386967, -13426.536432091765, -27740.280656848034, -29634.926275602138, -35418.21663596829, -18131.10925330034, -25042.559211559204, -38660.11365176602, -35313.45400970626, -187500.02235174447, -0.08000686645507812, 0.9004935760498047, -0.40136274719238285, 192.0, 126.5, 48.0, 14.0, 24.0, 121.5, 64.0, 0.0, 0.0, 0.0, 1.741901663988594E9, 0.0, 2025-03-13 16:34:23.988
218.0, -31996.566891260973, -20104.053032881384, -30978.154358643817, -17620.43894772994, -40282.85029922132, -31093.355249566466, -38434.137515322866, -13417.752196520829, -27754.071683176957, -29646.23625829652, -35427.559665150606, -18140.139358060285, -25060.552365845724, -38680.20787003134, -35327.53560871311, -187500.02235174447, -0.08000686645507812, 0.9004935760498047, -0.40136274719238285, 192.0, 0.0, 0.0, 0.0, 0.0, 0.0, 0.0, 0.0, 0.0, 0.0, 1.741901663990686E9, 0.0, 2025-03-13 16:34:23.990
220.0, -31978.037295107522, -20092.296015297892, -30962.463434036188, -17606.402052212008, -40271.24974384901, -31089.175473353327, -38430.04714608755, -13412.208963895913, -27741.845278959907, -29630.61238892226, -35407.979537007755, -18120.849802595356, -25043.967371459887, -38662.34882621156, -35321.72415515473, -187500.02235174447, -0.08000686645507812, 0.9004935760498047, -0.40136274719238285, 192.0, 0.0, 0.0, 0.0, 0.0, 0.0, 0.0, 0.0, 0.0, 0.0, 1.74190166399271E9, 0.0, 2025-03-13 16:34:23.992
222.0, -31984.452245766195, -20089.54675072989, -30972.812291718998, -17601.216447498377, -40283.56555504388, -31084.503958762165, -38432.34937576645, -13412.477184829377, -27737.933723680228, -29620.48704868401, -35403.352725905504, -18112.49025016907, -25039.899353969024, -38653.296369707154, -35314.32572774002, -187500.02235174447, -0.08000686645507812, 0.9004935760498047, -0.40136274719238285, 192.0, 0.0, 0.0, 0.0, 0.0, 0.0, 0.0, 0.0, 0.0, 0.0, 1.741901663994665E9, 0.0, 2025-03-13 16:34:23.994
224.0, -31974.46101599467, -20085.568140216845, -30967.13494862735, -17604.859781844592, -40277.73174974105, -31090.76244720965, -38428.46017223122, -13413.930048218972, -27739.744214981107, -29621.53758067341, -35400.849330526515, -18114.703072870147, -25044.794386004734, -38662.30412272264, -35326.14980055688, -187500.02235174447, -0.08000686645507812, 0.9004935760498047, -0.40136274719238285, 192.0, 0.0, 0.0, 0.0, 0.0, 0.0, 0.0, 0.0, 0.0, 0.0, 1.741901663996594E9, 0.0, 2025-03-13 16:34:23.996
226.0, -31994.287013326528, -20100.67791946863, -30982.445893579235, -17599.942398064424, -40286.247764378524, -31091.67886873232, -38437.020890357606, -13421.976676222883, -27742.135851637824, -29623.839810352303, -35408.02424049666, -18121.766224118022, -25050.091749440642, -38655.66565461941, -35315.912701596346, -187500.02235174447, -0.08400343322753906, 0.9022467880249023, -0.40268137359619144, 192.0, 126.5, 32.0, 14.0, 32.0, 121.5, 48.0, 0.0, 0.0, 0.0, 1.741901664042023E9, 0.0, 2025-03-13 16:34:24.042
228.0, -31976.673838695748, -20084.897587883188, -30969.12425388387, -17607.698453390414, -40276.12242414027, -31091.120075120936, -38424.906244862825, -13413.550068563232, -27753.334075609935, -29630.880609855725, -35411.53346437615, -18128.225878265606, -25060.418255378994, -38664.53929716817, -35327.89323662439, -187500.02235174447, -0.08400343322753906, 0.9022467880249023, -0.40268137359619144, 192.0, 0.0, 0.0, 0.0, 0.0, 0.0, 0.0, 0.0, 0.0, 0.0, 1.741901664044282E9, 0.0, 2025-03-13 16:34:24.044
230.0, -31977.724370685148, -20081.678936681623, -30975.405094075813, -17592.543970649716, -40287.18653764565, -31092.550586766076, -38433.24344554466, -13418.93683897696, -27737.218467857656, -29619.324757972332, -35399.82115028157, -18111.171497246207, -25049.86823199609, -38656.20209648635, -35310.727096882714, -187500.02235174447, -0.08400343322753906, 0.9022467880249023, -0.40268137359619144, 192.0, 0.0, 0.0, 0.0, 0.0, 0.0, 0.0, 0.0, 0.0, 0.0, 1.741901664046241E9, 0.0, 2025-03-13 16:34:24.046
232.0, -31962.927515855732, -20070.234843520506, -30965.70443698221, -17594.19799973941, -40267.584057758344, -31087.320278563533, -38420.94998609424, -13407.112766160104, -27737.799613213494, -29611.836923579805, -35392.28861240013, -18101.090860496864, -25043.028598192766, -38647.39550917095, -35319.77955338712, -187500.02235174447, -0.08400343322753906, 0.9022467880249023, -0.40268137359619144, 192.0, 0.0, 0.0, 0.0, 0.0, 0.0, 0.0, 0.0, 0.0, 0.0, 1.741901664048179E9, 0.0, 2025-03-13 16:34:24.048
234.0, -31970.683571181726, -20077.767381401944, -30977.483806310156, -17601.931703320945, -40279.45283406411, -31098.987889169206, -38435.21039905673, -13423.586001823665, -27731.54112476601, -29611.27812996842, -35394.03204846764, -18103.326034942394, -25047.320133128185, -38658.50432616524, -35308.357811970454, -187500.02235174447, -0.08400343322753906, 0.9022467880249023, -0.40268137359619144, 192.0, 0.0, 0.0, 0.0, 0.0, 0.0, 0.0, 0.0, 0.0, 0.0, 1.741901664050147E9, 0.0, 2025-03-13 16:34:24.050
236.0, -31980.495986997605, -20088.384460018213, -30985.686896525254, -17619.030787829255, -40285.39839808922, -31112.15306665338, -38445.76042243963, -13434.001914739838, -27742.091148148913, -29620.77762136193, -35398.16712119187, -18116.02182579301, -25050.829357007668, -38657.65495987594, -35329.59196920299, -187500.02235174447, -0.08300171661376954, 0.9011233940124512, -0.40234068679809576, 192.0, 126.5, 56.0, 14.0, 16.0, 121.5, 56.0, 0.0, 0.0, 0.0, 1.741901664052072E9, 0.0, 2025-03-13 16:34:24.052
238.0, -31974.170443316754, -20083.511779726956, -30981.79769299003, -17619.94720935192, -40280.2574968645, -31105.4922468057, -38440.32894853699, -13428.548089092743, -27746.941476695716, -29636.62500818074, -35413.41101091039, -18132.293895756473, -25061.133511201562, -38680.766663642724, -35329.86019013646, -187500.02235174447, -0.08300171661376954, 0.9011233940124512, -0.40234068679809576, 192.0, 0.0, 0.0, 0.0, 0.0, 0.0, 0.0, 0.0, 0.0, 0.0, 1.741901664054203E9, 0.0, 2025-03-13 16:34:24.054
240.0, -31969.23070779213, -20077.49916046848, -30976.545033043032, -17609.66540690248, -40275.11659563978, -31094.15991236686, -38433.51166647812, -13418.758025021318, -27734.82683120094, -29615.971996304037, -35393.652068811905, -18115.373625203803, -25043.25211563732, -38656.29150346416, -35330.6872046813, -187500.02235174447, -0.08300171661376954, 0.9011233940124512, -0.40234068679809576, 192.0, 0.0, 0.0, 0.0, 0.0, 0.0, 0.0, 0.0, 0.0, 0.0, 1.741901664102557E9, 0.0, 2025-03-13 16:34:24.102
242.0, -31970.52710897054, -20082.46124773756, -30980.99303018964, -17611.364139481084, -40281.64330502073, -31105.760467739165, -38445.402794528345, -13430.85031877164, -27730.82586894344, -29621.96226381806, -35397.74243804722, -18117.720558371613, -25042.134528414554, -38670.68602689338, -35326.21685579024, -187500.02235174447, -0.08300171661376954, 0.9011233940124512, -0.40234068679809576, 192.0, 0.0, 0.0, 0.0, 0.0, 0.0, 0.0, 0.0, 0.0, 0.0, 1.741901664104708E9, 0.0, 2025-03-13 16:34:24.104
244.0, -31972.85169039389, -20083.131800071216, -30982.155320901315, -17616.974427339366, -40289.22054639108, -31108.152104395882, -38451.50482076464, -13436.393551396555, -27742.73934873812, -29623.63864465221, -35398.65885956989, -18117.094709526864, -25051.589316319147, -38664.47224193481, -35343.71827169875, -187500.02235174447, -0.08300171661376954, 0.9011233940124512, -0.40234068679809576, 192.0, 0.0, 0.0, 0.0, 0.0, 0.0, 0.0, 0.0, 0.0, 0.0, 1.741901664106672E9, 0.0, 2025-03-13 16:34:24.106
246.0, -31965.22974553463, -20078.706154669067, -30972.924050441274, -17608.033729557246, -40277.59763927432, -31107.034517173117, -38442.49706774915, -13432.683161816974, -27731.518773021555, -29619.190647505602, -35395.93194674634, -18112.6243606358, -25054.51739484279, -38663.62287564551, -35328.362623257955, -187500.02235174447, -0.08050085830688478, 0.9025616970062256, -0.4031703433990479, 192.0, 126.5, 72.0, 14.0, 32.0, 121.5, 48.0, 0.0, 0.0, 0.0, 1.741901664108626E9, 0.0, 2025-03-13 16:34:24.108
248.0, -31974.393960761307, -20081.053087836874, -30978.713152255197, -17615.566267438684, -40285.93483995615, -31108.599139284986, -38440.1724863258, -13428.771606537297, -27739.788918470018, -29622.58811266281, -35397.89890025841, -18116.245343237562, -25057.736046044356, -38661.58886690007, -35332.56475121555, -187500.02235174447, -0.08050085830688478, 0.9025616970062256, -0.4031703433990479, 192.0, 0.0, 0.0, 0.0, 0.0, 0.0, 0.0, 0.0, 0.0, 0.0, 1.741901664110742E9, 0.0, 2025-03-13 16:34:24.110
250.0, -31975.310382283973, -20090.507875741467, -30981.84239647894, -17612.34761623712, -40286.58304054535, -31115.50582832168, -38444.84400091696, -13434.89598451805, -27732.099918377393, -29621.403470206675, -35397.74243804722, -18118.659331638733, -25051.142281430042, -38669.9260675819, -35327.46855347974, -187500.02235174447, -0.08050085830688478, 0.9025616970062256, -0.4031703433990479, 192.0, 0.0, 0.0, 0.0, 0.0, 0.0, 0.0, 0.0, 0.0, 0.0, 1.741901664112744E9, 0.0, 2025-03-13 16:34:24.112
252.0, -31992.007135392087, -20098.30863455637, -30992.392419861844, -17617.24264827283, -40287.96884870158, -31106.67688926183, -38439.18900956977, -13426.670542558497, -27754.474014577154, -29638.86018262627, -35414.99798476672, -18136.808948136444, -25070.43183689497, -38680.2302217758, -35341.907780397865, -187500.02235174447, -0.08050085830688478, 0.9025616970062256, -0.4031703433990479, 192.0, 0.0, 0.0, 0.0, 0.0, 0.0, 0.0, 0.0, 0.0, 0.0, 1.741901664114725E9, 0.0, 2025-03-13 16:34:24.114
254.0, -31983.08878935442, -20097.861599667263, -30987.922070970784, -17610.648883658516, -40278.58111603035, -31100.53015953662, -38435.99271011266, -13423.317780890202, -27744.996874928103, -29629.15952553267, -35410.706449831305, -18127.376511976305, -25062.653429824524, -38665.612180902026, -35323.2887772666, -187500.02235174447, -0.08050085830688478, 0.9025616970062256, -0.4031703433990479, 192.0, 0.0, 0.0, 0.0, 0.0, 0.0, 0.0, 0.0, 0.0, 0.0, 1.741901664116702E9, 0.0, 2025-03-13 16:34:24.116
0.0, -32001.886606441334, -20109.26098933947, -31002.85303626693, -17622.942343108934, -40290.33813361384, -31104.6428805164, -38439.3231200365, -13427.430501869978, -27763.794692015017, -29642.3470547613, -35428.96782505129, -18142.799215650466, -25082.658241112025, -38678.71030315284, -35334.12937332742, -187500.02235174447, -0.07725042915344238, 0.9052808485031127, -0.40458517169952396, 192.0, 126.5, 88.0, 14.0, 48.0, 121.5, 40.0, 0.0, 0.0, 0.0, 1.74190166416281E9, 0.0, 2025-03-13 16:34:24.162
2.0, -31983.357010287884, -20099.560332245866, -30985.642193036343, -17619.902505863014, -40271.11563338228, -31096.260976345657, -38429.600111198444, -13417.819251754196, -27747.63438077383, -29632.892266856703, -35415.28855744464, -18135.82547138041, -25061.62524957958, -38670.149585026455, -35325.36748950094, -187500.02235174447, -0.07725042915344238, 0.9052808485031127, -0.40458517169952396, 192.0, 0.0, 0.0, 0.0, 0.0, 0.0, 0.0, 0.0, 0.0, 0.0, 1.741901664165011E9, 0.0, 2025-03-13 16:34:24.165
4.0, -31999.182045362242, -20107.27168408295, -31000.394344376844, -17622.718825664382, -40284.861956222296, -31104.262900860656, -38434.919826378806, -13423.138966934559, -27756.955058211694, -29638.05551982588, -35421.4129354254, -18141.167538305228, -25071.348258417638, -38670.66367514893, -35331.44716399279, -187500.02235174447, -0.07725042915344238, 0.9052808485031127, -0.40458517169952396, 192.0, 0.0, 0.0, 0.0, 0.0, 0.0, 0.0, 0.0, 0.0, 0.0, 1.741901664166977E9, 0.0, 2025-03-13 16:34:24.166
6.0, -31987.492083012115, -20105.237675337517, -30991.587757061454, -17627.0103605998, -40281.79976723192, -31113.561226554066, -38439.70309969224, -13433.465472872911, -27753.244668632113, -29640.737729160515, -35417.36726967899, -18140.564041204936, -25067.123778715584, -38675.71516939583, -35334.218780305244, -187500.02235174447, -0.07725042915344238, 0.9052808485031127, -0.40458517169952396, 192.0, 0.0, 0.0, 0.0, 0.0, 0.0, 0.0, 0.0, 0.0, 0.0, 1.741901664168946E9, 0.0, 2025-03-13 16:34:24.168
8.0, -31988.60967023488, -20095.201742077083, -30995.23109140767, -17621.86945937508, -40287.05242717891, -31106.229854372723, -38449.89549516386, -13433.04078972826, -27753.937572710227, -29639.977769849036, -35417.79195282364, -18138.418273737225, -25071.43766539546, -38676.36336998503, -35337.70565244027, -187500.02235174447, -0.07725042915344238, 0.9052808485031127, -0.40458517169952396, 192.0, 0.0, 0.0, 0.0, 0.0, 0.0, 0.0, 0.0, 0.0, 0.0, 1.741901664170972E9, 0.0, 2025-03-13 16:34:24.170
10.0, -31978.417274763262, -20094.97822463253, -30991.498350083635, -17631.704226935413, -40284.75019750002, -31119.238569645713, -38452.33183530949, -13440.908603776528, -27747.187345884722, -29630.81355462236, -35407.688964329835, -18129.231706766095, -25067.839034538156, -38672.49651819426, -35343.13712634291, -187500.02235174447, -0.0776252145767212, 0.9046404242515564, -0.406292585849762, 192.0, 126.5, 72.0, 14.0, 32.0, 121.5, 32.0, 0.0, 0.0, 0.0, 1.741901664172876E9, 0.0, 2025-03-13 16:34:24.172
12.0, -31988.721428957157, -20098.50980025647, -30999.343812387448, -17622.24943903082, -40292.886232481746, -31110.58844454151, -38452.64475973186, -13437.4217316415, -27749.422520330256, -29638.748423903995, -35413.58982486604, -18138.082997570396, -25080.177197477486, -38687.89687012397, -35342.91360889836, -187500.02235174447, -0.0776252145767212, 0.9046404242515564, -0.406292585849762, 192.0, 0.0, 0.0, 0.0, 0.0, 0.0, 0.0, 0.0, 0.0, 0.0, 1.741901664174977E9, 0.0, 2025-03-13 16:34:24.174
14.0, -31976.71854218466, -20095.581721732822, -30986.536262814556, -17626.272753032776, -40281.710360254096, -31111.795438742098, -38439.99367237016, -13428.905717004029, -27746.40503482879, -29635.82034538035, -35405.29732767312, -18134.327904501904, -25066.29676417074, -38674.016436817226, -35344.925265899335, -187500.02235174447, -0.0776252145767212, 0.9046404242515564, -0.406292585849762, 192.0, 0.0, 0.0, 0.0, 0.0, 0.0, 0.0, 0.0, 0.0, 0.0, 1.741901664222177E9, 0.0, 2025-03-13 16:34:24.222
16.0, -31994.890510426823, -20107.94223641661, -31001.914262999806, -17621.24361053033, -40291.25455513651, -31109.604967785475, -38442.13943983787, -13429.017475726305, -27749.333113352433, -29642.436461739122, -35412.69575508783, -18139.5805644489, -25079.43958991046, -38677.68212290789, -35332.87767563792, -187500.02235174447, -0.0776252145767212, 0.9046404242515564, -0.406292585849762, 192.0, 0.0, 0.0, 0.0, 0.0, 0.0, 0.0, 0.0, 0.0, 0.0, 1.74190166422421E9, 0.0, 2025-03-13 16:34:24.224
18.0, -31975.42214100625, -20093.055974609375, -30985.150454658327, -17620.81892738568, -40278.849336963816, -31105.313432850056, -38431.7235269217, -13421.976676222883, -27751.34477035341, -29634.47924071303, -35409.454752141806, -18138.060645825943, -25074.09752298564, -38673.61410541703, -35336.252789050675, -187500.02235174447, -0.0776252145767212, 0.9046404242515564, -0.406292585849762, 192.0, 0.0, 0.0, 0.0, 0.0, 0.0, 0.0, 0.0, 0.0, 0.0, 1.741901664226194E9, 0.0, 2025-03-13 16:34:24.226
20.0, -31981.52416724255, -20095.78288743292, -30992.593585561943, -17615.119232549576, -40282.24680212102, -31108.10740090697, -38437.24440780216, -13425.217679168902, -27740.526526037043, -29628.556028432376, -35408.06894398558, -18134.506718457546, -25066.85555778212, -38667.40032045845, -35325.501599967676, -187500.02235174447, -0.07781260728836059, 0.9043202121257783, -0.406146292924881, 192.0, 126.5, 72.0, 14.0, 32.0, 121.5, 40.0, 0.0, 0.0, 0.0, 1.741901664228132E9, 0.0, 2025-03-13 16:34:24.228
22.0, -31983.491120754617, -20102.26489332496, -31000.23788216566, -17628.753796667315, -40284.079645166355, -31119.596197557, -38443.50289624964, -13434.4713013734, -27750.361293597376, -29636.15562154718, -35409.231234697254, -18139.40175049326, -25075.48333114187, -38678.35267524156, -35341.52780074213, -187500.02235174447, -0.07781260728836059, 0.9043202121257783, -0.406146292924881, 192.0, 0.0, 0.0, 0.0, 0.0, 0.0, 0.0, 0.0, 0.0, 0.0, 1.741901664230237E9, 0.0, 2025-03-13 16:34:24.230
24.0, -31979.534861986027, -20095.268797310448, -30993.286489640057, -17618.695511662427, -40282.64913352122, -31113.561226554066, -38439.881913647885, -13431.029132727283, -27754.362255854878, -29645.275133284944, -35416.31673768959, -18143.000381350565, -25089.430819681984, -38686.95809685685, -35336.409251261866, -187500.02235174447, -0.07781260728836059, 0.9043202121257783, -0.406146292924881, 192.0, 0.0, 0.0, 0.0, 0.0, 0.0, 0.0, 0.0, 0.0, 0.0, 1.741901664232159E9, 0.0, 2025-03-13 16:34:24.232
26.0, -31970.795329904002, -20088.272701295937, -30982.5129488126, -17607.698453390414, -40275.22835436206, -31105.112267149958, -38433.310500778025, -13423.809519268218, -27742.20290687119, -29628.444269710097, -35393.4061996229, -18122.034445051486, -25064.0168862363, -38661.43240468889, -35331.96125411526, -187500.02235174447, -0.07781260728836059, 0.9043202121257783, -0.406146292924881, 192.0, 0.0, 0.0, 0.0, 0.0, 0.0, 0.0, 0.0, 0.0, 0.0, 1.741901664234104E9, 0.0, 2025-03-13 16:34:24.234
28.0, -31975.556251472983, -20092.296015297892, -30990.961908216705, -17610.179497024954, -40285.59956378932, -31112.264825375656, -38440.32894853699, -13427.765778036808, -27739.58775276992, -29628.28780749891, -35399.508225859194, -18122.9285148297, -25070.856520039622, -38670.23899200428, -35321.85826562146, -187500.02235174447, -0.07781260728836059, 0.9043202121257783, -0.406146292924881, 192.0, 0.0, 0.0, 0.0, 0.0, 0.0, 0.0, 0.0, 0.0, 0.0, 1.74190166423615E9, 0.0, 2025-03-13 16:34:24.236
30.0, -31975.131568328332, -20089.569102474346, -30990.157245416314, -17614.67219766047, -40289.600526046816, -31115.036441688117, -38443.36878578291, -13433.465472872911, -27750.271886619557, -29636.222676780544, -35404.850292784016, -18130.192831777673, -25077.472636398394, -38684.40999798894, -35345.17113508834, -187500.02235174447, -0.0779063036441803, 0.9041601060628892, -0.4060731464624405, 192.0, 126.5, 72.0, 14.0, 32.0, 121.5, 40.0, 0.0, 0.0, 0.0, 1.741901664283373E9, 0.0, 2025-03-13 16:34:24.283
32.0, -31960.80410013248, -20077.007422090464, -30976.165053387293, -17608.704281890903, -40272.277924093956, -31104.911101449863, -38430.13655306537, -13418.355693621123, -27735.20681085668, -29626.85729585377, -35393.54031008963, -18116.49121242657, -25070.744761317346, -38678.79971013066, -35326.35096625698, -187500.02235174447, -0.0779063036441803, 0.9041601060628892, -0.4060731464624405, 192.0, 0.0, 0.0, 0.0, 0.0, 0.0, 0.0, 0.0, 0.0, 0.0, 1.741901664285538E9, 0.0, 2025-03-13 16:34:24.285
34.0, -31951.70694013917, -20063.618727161735, -30969.481881795156, -17598.40012769701, -40273.19434561663, -31095.433961800813, -38430.40477399883, -13416.232277897869, -27734.938589923215, -29617.87189458274, -35385.13605417443, -18112.803174591445, -25069.113083972108, -38656.671483119906, -35330.0390040921, -187500.02235174447, -0.0779063036441803, 0.9041601060628892, -0.4060731464624405, 192.0, 0.0, 0.0, 0.0, 0.0, 0.0, 0.0, 0.0, 0.0, 0.0, 1.741901664287499E9, 0.0, 2025-03-13 16:34:24.287
36.0, -31952.690416895202, -20070.368953987236, -30969.54893702852, -17594.57797939515, -40277.865860207785, -31102.228892115225, -38437.53498048007, -13426.111748947114, -27718.15242983728, -29609.825266578828, -35381.67153378386, -18110.76916584601, -25046.649580794525, -38654.03397727418, -35315.0856870515, -187500.02235174447, -0.0779063036441803, 0.9041601060628892, -0.4060731464624405, 192.0, 0.0, 0.0, 0.0, 0.0, 0.0, 0.0, 0.0, 0.0, 0.0, 1.741901664289435E9, 0.0, 2025-03-13 16:34:24.289
38.0, -31966.816719390958, -20083.087096582305, -30981.998858690127, -17604.52450567776, -40285.5101568115, -31099.971365925237, -38440.68657644827, -13428.503385603832, -27734.335092822923, -29622.67751964063, -35390.4557693548, -18122.637942151778, -25070.20831945042, -38663.086433778575, -35328.45203023577, -187500.02235174447, -0.0779063036441803, 0.9041601060628892, -0.4060731464624405, 192.0, 0.0, 0.0, 0.0, 0.0, 0.0, 0.0, 0.0, 0.0, 0.0, 1.741901664291429E9, 0.0, 2025-03-13 16:34:24.291
40.0, -31959.70886465417, -20082.103619826274, -30976.477977809667, -17610.134793536043, -40276.033017162445, -31106.67688926183, -38441.2230183152, -13431.453815871933, -27729.95415090968, -29628.734842388018, -35393.786179278635, -18125.40955846424, -25069.29189792775, -38679.22439327531, -35327.91558836884, -187500.02235174447, -0.07495315182209016, 0.9030800530314447, -0.4070365732312203, 192.0, 126.5, 96.0, 14.0, 24.0, 121.5, 32.0, 0.0, 0.0, 0.0, 1.741901664293397E9, 0.0, 2025-03-13 16:34:24.293
42.0, -31964.648600178793, -20078.05795407986, -30976.99206793214, -17602.646959143516, -40268.4557757921, -31092.125903621425, -38424.32509950699, -13414.108862174615, -27733.038691644513, -29628.511324943465, -35389.36053387648, -18121.274485740007, -25070.610650850613, -38671.691855393874, -35331.648329692885, -187500.02235174447, -0.07495315182209016, 0.9030800530314447, -0.4070365732312203, 192.0, 0.0, 0.0, 0.0, 0.0, 0.0, 0.0, 0.0, 0.0, 0.0, 1.741901664295455E9, 0.0, 2025-03-13 16:34:24.295
44.0, -31965.028579834532, -20085.478733239026, -30980.948326700727, -17598.601293397107, -40269.953342670604, -31096.797418212584, -38432.14821006635, -13421.70845528942, -27726.959017152672, -29623.415127207652, -35390.72399028826, -18118.01113104953, -25061.15586294602, -38663.42170994541, -35320.15953304285, -187500.02235174447, -0.07495315182209016, 0.9030800530314447, -0.4070365732312203, 192.0, 0.0, 0.0, 0.0, 0.0, 0.0, 0.0, 0.0, 0.0, 0.0, 1.741901664342259E9, 0.0, 2025-03-13 16:34:24.342
46.0, -31967.956658358176, -20079.17554130263, -30980.009553433607, -17599.271845730764, -40271.272095593464, -31085.4874355182, -38427.163771052816, -13412.231315640369, -27739.58775276992, -29623.68334814112, -35397.138940946934, -18121.408596206737, -25065.827377537178, -38654.212791229824, -35333.07884133802, -187500.02235174447, -0.07495315182209016, 0.9030800530314447, -0.4070365732312203, 192.0, 0.0, 0.0, 0.0, 0.0, 0.0, 0.0, 0.0, 0.0, 0.0, 1.741901664344328E9, 0.0, 2025-03-13 16:34:24.344
48.0, -31966.570850201948, -20082.483599482013, -30982.04356217904, -17600.903523076002, -40279.27402010847, -31096.618604256942, -38438.98784386967, -13423.384836123567, -27730.311778820967, -29615.033223036913, -35397.42951362485, -18114.54661065896, -25054.316229142696, -38648.4236894159, -35320.51716095414, -187500.02235174447, -0.07495315182209016, 0.9030800530314447, -0.4070365732312203, 192.0, 0.0, 0.0, 0.0, 0.0, 0.0, 0.0, 0.0, 0.0, 0.0, 1.741901664346293E9, 0.0, 2025-03-13 16:34:24.346
50.0, -31978.216109063163, -20084.62936694972, -30989.598451804934, -17611.230029014354, -40292.886232481746, -31100.753676981174, -38444.44166951677, -13425.374141380089, -27743.275790605046, -29624.845638852792, -35412.42753415436, -18126.325979986905, -25063.368685647096, -38664.58400065709, -35335.7386989282, -187500.02235174447, -0.07047657591104509, 0.9045400265157224, -0.4095182866156102, 192.0, 126.5, 120.0, 14.0, 40.0, 121.5, 16.0, 0.0, 0.0, 0.0, 1.741901664348323E9, 0.0, 2025-03-13 16:34:24.348
52.0, -31955.305570996476, -20067.21735801904, -30965.03388464855, -17597.081374774145, -40277.77645322996, -31089.01901114214, -38427.45434373073, -13411.583115051166, -27724.120345606847, -29612.127496257723, -35401.564586349086, -18112.959636802632, -25042.42510109247, -38656.26915171971, -35319.265463264644, -187500.02235174447, -0.07047657591104509, 0.9045400265157224, -0.4095182866156102, 192.0, 0.0, 0.0, 0.0, 0.0, 0.0, 0.0, 0.0, 0.0, 0.0, 1.741901664350413E9, 0.0, 2025-03-13 16:34:24.350
54.0, -31968.94013511421, -20069.430180720115, -30970.17478587327, -17604.189229510932, -40285.487805067045, -31082.58170873901, -38428.25900653112, -13408.297408616234, -27725.103822362882, -29610.495818912488, -35405.09616197302, -18115.48538392608, -25039.452319079915, -38654.346901696554, -35318.05846906405, -187500.02235174447, -0.07047657591104509, 0.9045400265157224, -0.4095182866156102, 192.0, 0.0, 0.0, 0.0, 0.0, 0.0, 0.0, 0.0, 0.0, 0.0, 1.741901664352347E9, 0.0, 2025-03-13 16:34:24.352
56.0, -31970.52710897054, -20076.44862847908, -30969.99597191763, -17612.280561003754, -40292.86388073729, -31099.47962754722, -38441.759460182126, -13424.32360939069, -27728.09895611989, -29611.635757879707, -35413.075734743565, -18119.26282873903, -25044.168537159985, -38642.72399457979, -35323.80286738907, -187500.02235174447, -0.07047657591104509, 0.9045400265157224, -0.4095182866156102, 192.0, 0.0, 0.0, 0.0, 0.0, 0.0, 0.0, 0.0, 0.0, 0.0, 1.741901664354284E9, 0.0, 2025-03-13 16:34:24.354
58.0, -31964.80506238998, -20058.857805592754, -30956.02613163306, -17600.523543420262, -40286.89596496773, -31076.725551691718, -38430.717698421206, -13409.124423161082, -27724.612083984863, -29609.06530726735, -35410.706449831305, -18118.413462449727, -25042.983894703855, -38647.59667487105, -35320.383050487406, -187500.02235174447, -0.07047657591104509, 0.9045400265157224, -0.4095182866156102, 192.0, 0.0, 0.0, 0.0, 0.0, 0.0, 0.0, 0.0, 0.0, 0.0, 1.741901664356249E9, 0.0, 2025-03-13 16:34:24.356
60.0, -31957.42898671973, -20060.288317237893, -30949.566477485478, -17605.306816733697, -40287.00772369, -31089.77897045362, -38434.09281183396, -13415.56172556421, -27713.950301879682, -29603.455019409066, -35397.96595549178, -18113.92076181421, -25018.531086269748, -38643.95334052484, -35311.59881491647, -187500.02235174447, -0.07323828795552254, 0.9042700132578612, -0.4117591433078051, 192.0, 126.5, 80.0, 14.0, 32.0, 121.5, 8.0, 0.0, 0.0, 0.0, 1.741901664402542E9, 0.0, 2025-03-13 16:34:24.402
62.0, -31972.60582120488, -20068.62551791972, -30961.435253791245, -17611.230029014354, -40297.33422962835, -31096.931528679317, -38437.490276991164, -13420.255591899824, -27717.05719435897, -29608.931196800615, -35406.929005018355, -18122.48147994059, -25025.57188577317, -38654.279846463185, -35315.353907984965, -187500.02235174447, -0.07323828795552254, 0.9042700132578612, -0.4117591433078051, 192.0, 0.0, 0.0, 0.0, 0.0, 0.0, 0.0, 0.0, 0.0, 0.0, 1.741901664404747E9, 0.0, 2025-03-13 16:34:24.404
64.0, -31957.78661463101, -20062.389381216693, -30947.93480014024, -17617.197944783922, -40285.97954344506, -31105.38048808342, -38435.90330313484, -13421.440234355956, -27721.169915338745, -29612.216903235545, -35409.27593818616, -18128.583506176892, -25030.7574904868, -38650.234180716776, -35324.451067978276, -187500.02235174447, -0.07323828795552254, 0.9042700132578612, -0.4117591433078051, 192.0, 0.0, 0.0, 0.0, 0.0, 0.0, 0.0, 0.0, 0.0, 0.0, 1.741901664406702E9, 0.0, 2025-03-13 16:34:24.406
66.0, -31971.890565382313, -20072.335907499302, -30961.70347472471, -17615.38745348304, -40299.47999709607, -31105.604005527977, -38444.86635266142, -13426.245859413846, -27714.665557702254, -29605.71254559905, -35405.54319686213, -18124.850764852854, -25036.90422021201, -38647.23904695977, -35311.12942828291, -187500.02235174447, -0.07323828795552254, 0.9042700132578612, -0.4117591433078051, 192.0, 0.0, 0.0, 0.0, 0.0, 0.0, 0.0, 0.0, 0.0, 0.0, 1.741901664408626E9, 0.0, 2025-03-13 16:34:24.408
68.0, -31957.78661463101, -20061.540014927392, -30943.01741636007, -17607.027901056757, -40287.07477892337, -31097.512674035155, -38432.01409959961, -13412.410129596012, -27720.67817696073, -29608.215940978047, -35402.749228805216, -18125.8789450978, -25026.465955551383, -38647.574323126595, -35322.79703888858, -187500.02235174447, -0.07323828795552254, 0.9042700132578612, -0.4117591433078051, 192.0, 0.0, 0.0, 0.0, 0.0, 0.0, 0.0, 0.0, 0.0, 0.0, 1.741901664410599E9, 0.0, 2025-03-13 16:34:24.410
70.0, -31966.503794968583, -20066.569157429836, -30949.521773996566, -17601.976406809856, -40294.65202029372, -31097.423267057333, -38434.65160544534, -13414.533545319266, -27715.403165269276, -29605.220807221034, -35403.88916777243, -18123.91199158573, -25025.482478795348, -38639.59475035605, -35303.57453865702, -187500.02235174447, -0.07561914397776126, 0.9021350066289306, -0.40587957165390254, 192.0, 126.5, 72.0, 14.0, 16.0, 121.5, 64.0, 0.0, 0.0, 0.0, 1.741901664412574E9, 0.0, 2025-03-13 16:34:24.412
72.0, -31954.344445984894, -20056.5332241694, -30939.418785502767, -17601.81994459867, -40282.44796782112, -31086.11328436295, -38425.97912859668, -13405.682254514964, -27720.320549049444, -29604.170275231634, -35398.189472936334, -18120.87215433981, -25026.063624151186, -38644.80270681414, -35312.87286435042, -187500.02235174447, -0.07561914397776126, 0.9021350066289306, -0.40587957165390254, 192.0, 0.0, 0.0, 0.0, 0.0, 0.0, 0.0, 0.0, 0.0, 0.0, 1.741901664414744E9, 0.0, 2025-03-13 16:34:24.414
74.0, -31968.493100225107, -20069.69840165358, -30955.579096743953, -17609.15131678001, -40295.479034838565, -31095.05398214507, -38430.784753654574, -13412.946571462939, -27717.839505414904, -29608.99825203398, -35403.777409050155, -18124.850764852854, -25031.58450503165, -38656.35855869753, -35301.1829020003, -187500.02235174447, -0.07561914397776126, 0.9021350066289306, -0.40587957165390254, 192.0, 0.0, 0.0, 0.0, 0.0, 0.0, 0.0, 0.0, 0.0, 0.0, 1.741901664464193E9, 0.0, 2025-03-13 16:34:24.464
76.0, -31954.36679772935, -20057.762570114442, -30940.69283493672, -17599.2047904974, -40277.3070665964, -31079.318354048533, -38418.53599769306, -13399.893152701039, -27727.361348552866, -29605.53373164341, -35404.604423595, -18125.0295788085, -25037.57477254567, -38638.49951487774, -35313.90104459537, -187500.02235174447, -0.07561914397776126, 0.9021350066289306, -0.40587957165390254, 192.0, 0.0, 0.0, 0.0, 0.0, 0.0, 0.0, 0.0, 0.0, 0.0, 1.741901664466243E9, 0.0, 2025-03-13 16:34:24.466
78.0, -31952.578658172926, -20054.387456701694, -30937.89886687981, -17592.923950305456, -40273.08258689434, -31076.457330758254, -38410.154093522324, -13394.305216587212, -27707.445944243187, -29595.766019316437, -35394.00969672319, -18115.239514737073, -25017.52525776926, -38634.25268343123, -35287.63774486038, -187500.02235174447, -0.07561914397776126, 0.9021350066289306, -0.40587957165390254, 192.0, 0.0, 0.0, 0.0, 0.0, 0.0, 0.0, 0.0, 0.0, 0.0, 1.741901664468211E9, 0.0, 2025-03-13 16:34:24.468
80.0, -31952.13162328382, -20052.889889823186, -30939.396433758313, -17598.981273052847, -40274.714264239585, -31077.172586580826, -38414.51268369111, -13397.657978255509, -27715.58197922492, -29594.71548732704, -35392.869757755965, -18114.25603798104, -25018.82165894767, -38625.82607577158, -35297.91954730982, -187500.02235174447, -0.08080957198888064, 0.9020675033144654, -0.4029397858269513, 192.0, 126.5, 40.0, 14.0, 24.0, 121.5, 64.0, 0.0, 0.0, 0.0, 1.74190166447015E9, 0.0, 2025-03-13 16:34:24.470
82.0, -31951.885754094812, -20053.426331690112, -30944.06794834947, -17598.422479441462, -40280.57042128687, -31085.040400629092, -38423.90041636234, -13406.665731270998, -27711.178685567225, -29597.420048406133, -35396.28957465763, -18116.133584515286, -25025.99656891782, -38638.633625344475, -35292.55512864055, -187500.02235174447, -0.08080957198888064, 0.9020675033144654, -0.4029397858269513, 192.0, 0.0, 0.0, 0.0, 0.0, 0.0, 0.0, 0.0, 0.0, 0.0, 1.741901664472272E9, 0.0, 2025-03-13 16:34:24.472
84.0, -31964.402730989783, -20062.098808538773, -30952.51690775358, -17604.882133589046, -40284.79490098893, -31085.53213900711, -38432.05880308853, -13413.438309840956, -27726.48963051911, -29606.20428397707, -35400.67051657087, -18121.386244462283, -25038.245324879328, -38645.048576003144, -35313.92339633982, -187500.02235174447, -0.08080957198888064, 0.9020675033144654, -0.4029397858269513, 192.0, 0.0, 0.0, 0.0, 0.0, 0.0, 0.0, 0.0, 0.0, 0.0, 1.741901664474193E9, 0.0, 2025-03-13 16:34:24.474
86.0, -31957.98778033111, -20063.216395761538, -30946.280771050548, -17601.417613198475, -40276.457700307095, -31084.123979106425, -38420.07826806048, -13408.587981294153, -27717.86185715936, -29606.025470021425, -35404.403257894905, -18124.87311659731, -25035.71957775588, -38650.27888420569, -35302.971041556724, -187500.02235174447, -0.08080957198888064, 0.9020675033144654, -0.4029397858269513, 192.0, 0.0, 0.0, 0.0, 0.0, 0.0, 0.0, 0.0, 0.0, 0.0, 1.741901664476136E9, 0.0, 2025-03-13 16:34:24.476
88.0, -31959.954733843177, -20059.103674781763, -30944.291465794024, -17601.641130643027, -40279.117557897276, -31080.614755226943, -38417.10548604793, -13399.870800956583, -27721.549894994485, -29605.33256594331, -35401.94456600482, -18123.53201192999, -25022.62145550507, -38637.80661079963, -35308.22370150372, -187500.02235174447, -0.08080957198888064, 0.9020675033144654, -0.4029397858269513, 192.0, 0.0, 0.0, 0.0, 0.0, 0.0, 0.0, 0.0, 0.0, 0.0, 1.741901664478116E9, 0.0, 2025-03-13 16:34:24.478
90.0, -31959.485347209615, -20064.177520773115, -30946.213715817183, -17599.897694575513, -40282.470319565575, -31091.902386176873, -38427.297881519546, -13411.203135395424, -27715.872551902838, -29605.690193854596, -35404.02327823917, -18122.190907262673, -25024.90133343951, -38636.957244510326, -35299.70768686625, -187500.02235174447, -0.08140478599444032, 0.9000337516572328, -0.4034698929134757, 192.0, 126.5, 56.0, 14.0, 8.0, 121.5, 48.0, 0.0, 0.0, 0.0, 1.741901664522995E9, 0.0, 2025-03-13 16:34:24.522
92.0, -31957.451338464183, -20054.767436357433, -30941.83277390394, -17591.560493893685, -40270.869764193274, -31072.05403710056, -38410.84699760044, -13393.232332853358, -27717.34776703689, -29600.258719951955, -35399.463522370286, -18119.084014783384, -25023.806097961202, -38628.284767661666, -35303.529835168105, -187500.02235174447, -0.08140478599444032, 0.9000337516572328, -0.4034698929134757, 192.0, 0.0, 0.0, 0.0, 0.0, 0.0, 0.0, 0.0, 0.0, 0.0, 1.741901664525282E9, 0.0, 2025-03-13 16:34:24.525
94.0, -31955.75260588558, -20057.248479991973, -30941.519849481567, -17587.514828147272, -40276.815328218385, -31082.15702559436, -38420.19002678276, -13405.123460903582, -27713.86089490186, -29596.391868161187, -35401.609289837994, -18114.05487228094, -25022.017958404776, -38630.56464559611, -35299.37241069942, -187500.02235174447, -0.08140478599444032, 0.9000337516572328, -0.4034698929134757, 192.0, 0.0, 0.0, 0.0, 0.0, 0.0, 0.0, 0.0, 0.0, 0.0, 1.741901664527238E9, 0.0, 2025-03-13 16:34:24.527
96.0, -31968.76132115857, -20063.082285294808, -30950.929933897252, -17594.443868928418, -40286.33717135635, -31078.178415081315, -38424.146285551345, -13406.643379526542, -27721.706357205672, -29596.973013517025, -35404.358554406, -18115.217162992616, -25027.38237707405, -38628.37417463949, -35305.94382356928, -187500.02235174447, -0.08140478599444032, 0.9000337516572328, -0.4034698929134757, 192.0, 0.0, 0.0, 0.0, 0.0, 0.0, 0.0, 0.0, 0.0, 0.0, 1.741901664529203E9, 0.0, 2025-03-13 16:34:24.529
98.0, -31956.93724834171, -20057.7849218589, -30942.88330589334, -17601.14939226501, -40277.97761893006, -31092.461179788257, -38427.633157686374, -13409.191478394447, -27719.270017060044, -29598.627042606717, -35406.929005018355, -18118.905200827743, -25024.34253982813, -38630.98932874076, -35309.475399193216, -187500.02235174447, -0.08140478599444032, 0.9000337516572328, -0.4034698929134757, 192.0, 0.0, 0.0, 0.0, 0.0, 0.0, 0.0, 0.0, 0.0, 0.0, 1.741901664531141E9, 0.0, 2025-03-13 16:34:24.531
100.0, -31969.610687447872, -20061.763532371944, -30955.51204151059, -17595.807325340193, -40286.89596496773, -31080.05596161556, -38425.15211405184, -13403.581190536164, -27720.521714749542, -29598.76115307345, -35405.09616197302, -18118.547572916457, -25023.560228772192, -38638.87949453348, -35308.44721894828, -187500.02235174447, -0.08270239299722015, 0.9000168758286164, -0.40473494645673785, 192.0, 126.5, 48.0, 14.0, 16.0, 121.5, 40.0, 0.0, 0.0, 0.0, 1.74190166453311E9, 0.0, 2025-03-13 16:34:24.533
102.0, -31966.883774624323, -20067.664392908144, -30956.696683966722, -17605.351520222608, -40289.466415580086, -31093.824636200028, -38431.075326332495, -13415.762891264307, -27727.584865997418, -29603.29855719788, -35412.22636845426, -18125.83424160889, -25034.66904576648, -38643.171029468904, -35317.27615800812, -187500.02235174447, -0.08270239299722015, 0.9000168758286164, -0.40473494645673785, 192.0, 0.0, 0.0, 0.0, 0.0, 0.0, 0.0, 0.0, 0.0, 0.0, 1.741901664535238E9, 0.0, 2025-03-13 16:34:24.535
104.0, -31973.388132260818, -20064.7363143845, -30960.585887501944, -17602.021110298767, -40289.332305113356, -31080.95003139377, -38424.41450648481, -13404.385853336556, -27733.038691644513, -29602.896225797682, -35417.859008057, -18129.96931433312, -25036.72540625637, -38642.20990445732, -35314.45983820675, -187500.02235174447, -0.08270239299722015, 0.9000168758286164, -0.40473494645673785, 192.0, 0.0, 0.0, 0.0, 0.0, 0.0, 0.0, 0.0, 0.0, 0.0, 1.741901664583367E9, 0.0, 2025-03-13 16:34:24.583
106.0, -31955.864364607856, -20060.377724215716, -30945.6549222058, -17605.597389411618, -40273.104938638804, -31085.710952962752, -38419.43006747128, -13405.03405392576, -27722.846296172895, -29593.888472782193, -35408.270109685676, -18124.20256426365, -25024.18607761694, -38630.78816304066, -35311.19648351628, -187500.02235174447, -0.08270239299722015, 0.9000168758286164, -0.40473494645673785, 192.0, 0.0, 0.0, 0.0, 0.0, 0.0, 0.0, 0.0, 0.0, 0.0, 1.741901664585451E9, 0.0, 2025-03-13 16:34:24.585
108.0, -31976.27150729555, -20075.107523811763, -30960.049445635017, -17601.171744009465, -40280.59277303133, -31085.263918073648, -38420.145323293844, -13403.715301002896, -27730.870572432348, -29607.63479562221, -35415.51207488919, -18133.903221357254, -25035.71957775588, -38645.94264578136, -35303.97687005721, -187500.02235174447, -0.08270239299722015, 0.9000168758286164, -0.40473494645673785, 192.0, 0.0, 0.0, 0.0, 0.0, 0.0, 0.0, 0.0, 0.0, 0.0, 1.741901664587383E9, 0.0, 2025-03-13 16:34:24.587
110.0, -31964.98387634562, -20075.152227300674, -30951.421672275268, -17605.284464989243, -40269.39454905922, -31091.656516987863, -38419.251253515635, -13407.537449304755, -27727.00372064158, -29606.181932232612, -35404.04562998362, -18131.846860867365, -25026.845935207122, -38633.98446249777, -35303.14985551237, -187500.02235174447, -0.08635119649861007, 0.8990084379143082, -0.40236747322836897, 192.0, 126.5, 24.0, 14.0, 8.0, 121.5, 64.0, 0.0, 0.0, 0.0, 1.741901664589365E9, 0.0, 2025-03-13 16:34:24.589
112.0, -31985.592184733414, -20090.6419862082, -30973.549899286023, -17614.091052304633, -40287.8123864904, -31103.748810738187, -38439.14430608086, -13422.379007623078, -27737.441985302212, -29623.63864465221, -35419.26716795769, -18148.07422734192, -25044.794386004734, -38656.76089009773, -35310.77180037163, -187500.02235174447, -0.08635119649861007, 0.8990084379143082, -0.40236747322836897, 192.0, 0.0, 0.0, 0.0, 0.0, 0.0, 0.0, 0.0, 0.0, 0.0, 1.74190166459147E9, 0.0, 2025-03-13 16:34:24.591
114.0, -31956.51256519706, -20067.530282441414, -30948.292428051525, -17605.507982433795, -40263.71720596757, -31089.95778440926, -38424.66037567382, -13407.64920802703, -27731.228200343634, -29613.66976662514, -35409.74532481973, -18139.06647432643, -25032.702092254414, -38644.31096843612, -35321.65709992136, -187500.02235174447, -0.08635119649861007, 0.8990084379143082, -0.40236747322836897, 192.0, 0.0, 0.0, 0.0, 0.0, 0.0, 0.0, 0.0, 0.0, 0.0, 1.741901664593484E9, 0.0, 2025-03-13 16:34:24.593
116.0, -31969.9459636147, -20074.235805778004, -30959.736521212642, -17601.842296343126, -40271.76383397148, -31086.29209831859, -38424.347451251444, -13406.553972548722, -27725.752022952085, -29609.020603778437, -35409.56651086408, -18133.45618646815, -25031.47274630937, -38639.1700672114, -35308.87190209293, -187500.02235174447, -0.08635119649861007, 0.8990084379143082, -0.40236747322836897, 192.0, 0.0, 0.0, 0.0, 0.0, 0.0, 0.0, 0.0, 0.0, 0.0, 1.741901664595455E9, 0.0, 2025-03-13 16:34:24.595
118.0, -31953.808004117967, -20062.232919005506, -30948.4041867738, -17604.300988233208, -40268.008740902995, -31081.10649360496, -38416.32317499199, -13399.803745723219, -27721.661653716765, -29602.113914741745, -35398.882377014445, -18126.549497431457, -25021.079185137653, -38631.83869503006, -35311.10707653846, -187500.02235174447, -0.08635119649861007, 0.8990084379143082, -0.40236747322836897, 192.0, 0.0, 0.0, 0.0, 0.0, 0.0, 0.0, 0.0, 0.0, 0.0, 1.741901664597413E9, 0.0, 2025-03-13 16:34:24.597
120.0, -31962.547536199992, -20066.502102196468, -30958.194250845227, -17603.876305088557, -40276.34594158482, -31080.502996504667, -38423.74395415115, -13403.760004491807, -27724.097993862393, -29610.406411934666, -35409.27593818616, -18134.082035312895, -25029.0587579082, -38642.29931143514, -35306.99435555868, -187500.02235174447, -0.08617559824930504, 0.8985042189571542, -0.4091837366141845, 192.0, 126.5, 40.0, 14.0, 8.0, 121.5, 0.0, 0.0, 0.0, 0.0, 1.74190166464287E9, 0.0, 2025-03-13 16:34:24.642
122.0, -31955.193812274196, -20063.082285294808, -30954.014474632084, -17606.759680123294, -40275.11659563978, -31080.994734882683, -38426.98495709717, -13409.616161539097, -27721.72870895013, -29604.08086825381, -35400.20112993731, -18127.01888406502, -25021.928551426954, -38634.5209043647, -35317.47732370822, -187500.02235174447, -0.08617559824930504, 0.8985042189571542, -0.4091837366141845, 192.0, 0.0, 0.0, 0.0, 0.0, 0.0, 0.0, 0.0, 0.0, 0.0, 1.741901664645066E9, 0.0, 2025-03-13 16:34:24.645
124.0, -31973.209318305177, -20078.54969245788, -30969.03484690605, -17607.966674323878, -40289.06408417989, -31095.92570017883, -38441.759460182126, -13420.635571555564, -27725.126174107336, -29617.156638760167, -35413.567473121584, -18137.658314425746, -25036.8595167231, -38657.722015109306, -35312.67169865032, -187500.02235174447, -0.08617559824930504, 0.8985042189571542, -0.4091837366141845, 192.0, 0.0, 0.0, 0.0, 0.0, 0.0, 0.0, 0.0, 0.0, 0.0, 1.741901664647066E9, 0.0, 2025-03-13 16:34:24.647
126.0, -31972.22584154914, -20073.96758484454, -30968.49840503912, -17614.560438938195, -40285.890136467235, -31101.357174081466, -38435.59037871246, -13422.803690767729, -27736.704377735186, -29620.19647600609, -35417.52373189017, -18143.469767984127, -25045.33082787166, -38652.71522435132, -35329.99430060319, -187500.02235174447, -0.08617559824930504, 0.8985042189571542, -0.4091837366141845, 192.0, 0.0, 0.0, 0.0, 0.0, 0.0, 0.0, 0.0, 0.0, 0.0, 1.741901664649036E9, 0.0, 2025-03-13 16:34:24.649
128.0, -31963.285143767018, -20066.479750452014, -30958.015436889582, -17605.597389411618, -40281.129214898254, -31094.361078066955, -38428.10254431993, -13415.13704241956, -27728.635397986818, -29615.524961414932, -35415.89205454494, -18138.39592199277, -25036.658351023, -38643.19338121336, -35314.34807948447, -187500.02235174447, -0.08617559824930504, 0.8985042189571542, -0.4091837366141845, 192.0, 0.0, 0.0, 0.0, 0.0, 0.0, 0.0, 0.0, 0.0, 0.0, 1.741901664651002E9, 0.0, 2025-03-13 16:34:24.651
130.0, -31945.71667262515, -20047.592526387278, -30943.84443090492, -17593.90742706149, -40266.22060134657, -31082.022915127625, -38413.46215170171, -13400.094318401138, -27719.024147871038, -29600.95162403007, -35399.12824620346, -18124.984875319587, -25019.782783959246, -38629.402354884434, -35315.42096321833, -187500.02235174447, -0.08708779912465252, 0.901252109478577, -0.41059186830709227, 192.0, 126.5, 32.0, 14.0, 32.0, 121.5, 16.0, 0.0, 0.0, 0.0, 1.741901664652961E9, 0.0, 2025-03-13 16:34:24.652
132.0, -31949.80704186047, -20053.962773557043, -30952.31574205348, -17590.308796204186, -40274.53545028394, -31086.828540185517, -38424.52626520709, -13409.772623750285, -27704.696679675184, -29584.925423255616, -35392.22155716676, -18112.11027051333, -25016.608836246593, -38623.85912225951, -35302.14402701188, -187500.02235174447, -0.08708779912465252, 0.901252109478577, -0.41059186830709227, 192.0, 0.0, 0.0, 0.0, 0.0, 0.0, 0.0, 0.0, 0.0, 0.0, 1.741901664655078E9, 0.0, 2025-03-13 16:34:24.655
134.0, -31949.7399866271, -20051.839357833785, -30952.002817631106, -17598.8024590972, -40271.853240949305, -31086.5379675076, -38421.64289017235, -13404.65407427002, -27722.73453745062, -29597.800028061873, -35399.932909003845, -18121.96738981812, -25031.629208520557, -38636.77843055468, -35323.13231505541, -187500.02235174447, -0.08708779912465252, 0.901252109478577, -0.41059186830709227, 192.0, 0.0, 0.0, 0.0, 0.0, 0.0, 0.0, 0.0, 0.0, 0.0, 1.741901664703923E9, 0.0, 2025-03-13 16:34:24.703
136.0, -31950.589352916406, -20054.946250313074, -30955.646151977322, -17600.43413644244, -40275.09424389532, -31095.433961800813, -38427.87902687538, -13412.588943551655, -27715.33611003591, -29597.889435039695, -35401.78810379364, -18120.29100898397, -25030.9586561869, -38645.406203914434, -35311.59881491647, -187500.02235174447, -0.08708779912465252, 0.901252109478577, -0.41059186830709227, 192.0, 0.0, 0.0, 0.0, 0.0, 0.0, 0.0, 0.0, 0.0, 0.0, 1.741901664706061E9, 0.0, 2025-03-13 16:34:24.706
138.0, -31959.28418150952, -20059.796578859878, -30960.116500868382, -17600.702357375903, -40277.15060438521, -31091.276537332124, -38421.95581459472, -13407.626856282575, -27721.28167406102, -29597.822379806326, -35398.97178399227, -18123.934343330187, -25024.655464250503, -38629.670575817894, -35318.72902139772, -187500.02235174447, -0.08708779912465252, 0.901252109478577, -0.41059186830709227, 192.0, 0.0, 0.0, 0.0, 0.0, 0.0, 0.0, 0.0, 0.0, 0.0, 1.741901664708055E9, 0.0, 2025-03-13 16:34:24.708
140.0, -31947.817736603945, -20053.985125301497, -30951.734596697643, -17600.590598653627, -40268.72399672556, -31091.67886873232, -38417.46311395921, -13403.670597513987, -27721.616950227854, -29604.86317930975, -35407.487798629736, -18134.283201012993, -25029.14816488602, -38642.053442246135, -35313.40930621735, -187500.02235174447, -0.08954389956232625, 0.8996260547392885, -0.40829593415354615, 192.0, 126.5, 16.0, 14.0, 8.0, 121.5, 40.0, 0.0, 0.0, 0.0, 1.741901664709987E9, 0.0, 2025-03-13 16:34:24.709
142.0, -31958.83714662041, -20059.908337582154, -30957.300181067014, -17594.510924161783, -40274.982485173045, -31088.34845880848, -38425.12976230738, -13408.498574316332, -27717.63833971481, -29599.99049901849, -35397.54127234713, -18127.130642787295, -25027.985874174345, -38630.18466594037, -35315.30920449605, -187500.02235174447, -0.08954389956232625, 0.8996260547392885, -0.40829593415354615, 192.0, 0.0, 0.0, 0.0, 0.0, 0.0, 0.0, 0.0, 0.0, 0.0, 1.741901664712095E9, 0.0, 2025-03-13 16:34:24.712
144.0, -31961.27348676604, -20069.83251212031, -30957.099015366915, -17600.948226564913, -40274.96013342859, -31093.824636200028, -38430.56123621002, -13414.354731363623, -27720.745232194095, -29609.311176456355, -35405.72201081777, -18135.35608474685, -25035.585467289147, -38646.05440450364, -35313.16343702834, -187500.02235174447, -0.08954389956232625, 0.8996260547392885, -0.40829593415354615, 192.0, 0.0, 0.0, 0.0, 0.0, 0.0, 0.0, 0.0, 0.0, 0.0, 1.741901664714038E9, 0.0, 2025-03-13 16:34:24.714
146.0, -31975.533899728525, -20073.721715655534, -30965.4585677932, -17605.709148133894, -40275.407168317695, -31080.39123778239, -38423.587491939965, -13400.831925968163, -27730.91527592126, -29613.937987558606, -35410.59469110903, -18140.20641329365, -25037.798289990224, -38653.2740179627, -35319.71249815375, -187500.02235174447, -0.08954389956232625, 0.8996260547392885, -0.40829593415354615, 192.0, 0.0, 0.0, 0.0, 0.0, 0.0, 0.0, 0.0, 0.0, 0.0, 1.741901664715996E9, 0.0, 2025-03-13 16:34:24.715
148.0, -31976.070341595456, -20084.942291372095, -30970.107730639906, -17610.73829063634, -40279.8551654643, -31097.40091531288, -38434.74101242316, -13416.142870920048, -27732.099918377393, -29618.140115516202, -35416.58495862305, -18142.978029606107, -25045.28612438275, -38655.55389589714, -35313.72223063972, -187500.02235174447, -0.08954389956232625, 0.8996260547392885, -0.40829593415354615, 192.0, 0.0, 0.0, 0.0, 0.0, 0.0, 0.0, 0.0, 0.0, 0.0, 1.741901664717944E9, 0.0, 2025-03-13 16:34:24.717
150.0, -31978.685495696725, -20076.11335231225, -30971.091207395937, -17609.53129643575, -40275.07189215087, -31088.460217530755, -38427.61080594192, -13409.571458050188, -27742.67229350475, -29622.275188240434, -35425.23508372725, -18150.152939576263, -25047.923630228477, -38651.68704410637, -35321.12065805443, -187500.02235174447, -0.08877194978116312, 0.8988130273696442, -0.4071479670767731, 192.0, 126.5, 32.0, 14.0, 8.0, 121.5, 40.0, 0.0, 0.0, 0.0, 1.741901664762747E9, 0.0, 2025-03-13 16:34:24.762
152.0, -31974.013981105567, -20082.103619826274, -30969.95126842872, -17607.519639434773, -40281.129214898254, -31099.099647891482, -38437.780849669085, -13426.55878383622, -27725.86378167436, -29610.495818912488, -35408.605385852505, -18137.30068651446, -25039.631133035557, -38649.58598012757, -35313.744582384184, -187500.02235174447, -0.08877194978116312, 0.8988130273696442, -0.4071479670767731, 192.0, 0.0, 0.0, 0.0, 0.0, 0.0, 0.0, 0.0, 0.0, 0.0, 1.74190166476496E9, 0.0, 2025-03-13 16:34:24.764
154.0, -31983.602879476894, -20083.668241938143, -30980.65775402281, -17610.224200513865, -40286.20306088961, -31102.228892115225, -38436.03741360157, -13420.3673506221, -27742.761700482573, -29623.90686558567, -35427.09027851704, -18151.426989010215, -25053.511566342302, -38656.85029707555, -35325.076916823025, -187500.02235174447, -0.08877194978116312, 0.8988130273696442, -0.4071479670767731, 192.0, 0.0, 0.0, 0.0, 0.0, 0.0, 0.0, 0.0, 0.0, 0.0, 1.741901664766941E9, 0.0, 2025-03-13 16:34:24.766
156.0, -31953.763300629056, -20066.457398707556, -30961.815233446985, -17599.24949398631, -40270.91446768218, -31096.797418212584, -38427.94608210875, -13415.65113254203, -27728.85891543137, -29607.14305724419, -35408.270109685676, -18132.182137034197, -25047.320133128185, -38643.34984342454, -35325.1886755453, -187500.02235174447, -0.08877194978116312, 0.8988130273696442, -0.4071479670767731, 192.0, 0.0, 0.0, 0.0, 0.0, 0.0, 0.0, 0.0, 0.0, 0.0, 1.741901664769001E9, 0.0, 2025-03-13 16:34:24.769
158.0, -31964.246268778596, -20067.84320686379, -30970.577117273468, -17598.19896199691, -40280.659828264696, -31089.488397775698, -38427.65550943083, -13412.03014994027, -27721.840467672406, -29605.51137989895, -35404.067981728076, -18130.34929398886, -25044.772034260277, -38643.21573295781, -35312.73875388369, -187500.02235174447, -0.08877194978116312, 0.8988130273696442, -0.4071479670767731, 192.0, 0.0, 0.0, 0.0, 0.0, 0.0, 0.0, 0.0, 0.0, 0.0, 1.741901664770969E9, 0.0, 2025-03-13 16:34:24.770
160.0, -31953.85270760688, -20065.29510799588, -30963.871593936874, -17610.023034813767, -40273.57432527236, -31097.02093565714, -38426.806143141526, -13416.03111219777, -27722.309854305968, -29607.85831306676, -35402.41395263839, -18136.406616736247, -25039.675836524468, -38655.822116830605, -35320.69597490978, -187500.02235174447, -0.08738597489058156, 0.8974065136848222, -0.4075739835383866, 192.0, 126.5, 40.0, 14.0, 0.0, 121.5, 32.0, 0.0, 0.0, 0.0, 1.741901664772917E9, 0.0, 2025-03-13 16:34:24.772
162.0, -31967.777844402535, -20072.447666221582, -30970.688875995744, -17615.655674416503, -40272.99317991653, -31094.763409467152, -38419.742991893654, -13407.537449304755, -27720.901694405282, -29613.37919394722, -35408.58303410805, -18144.944983118177, -25039.988760946842, -38655.15156449695, -35317.47732370822, -187500.02235174447, -0.08738597489058156, 0.8974065136848222, -0.4075739835383866, 192.0, 0.0, 0.0, 0.0, 0.0, 0.0, 0.0, 0.0, 0.0, 0.0, 1.741901664775008E9, 0.0, 2025-03-13 16:34:24.775
164.0, -31962.12285305534, -20073.20762553306, -30963.22339334767, -17604.636264400036, -40267.092319380325, -31095.72453447873, -38420.05591631602, -13413.08068192967, -27722.82394442844, -29612.038089279904, -35403.643298583425, -18143.93915461769, -25042.134528414554, -38650.860029561525, -35319.46662896474, -187500.02235174447, -0.08738597489058156, 0.8974065136848222, -0.4075739835383866, 192.0, 0.0, 0.0, 0.0, 0.0, 0.0, 0.0, 0.0, 0.0, 0.0, 1.741901664823192E9, 0.0, 2025-03-13 16:34:24.823
166.0, -31981.56887073146, -20087.512741984458, -30976.50032955412, -17608.972502824367, -40279.341075341836, -31101.625395014933, -38431.902340877336, -13417.551030820732, -27730.378834054332, -29624.845638852792, -35415.64618535592, -18156.657297212758, -25046.51547032779, -38659.89013432147, -35315.15274228487, -187500.02235174447, -0.08738597489058156, 0.8974065136848222, -0.4075739835383866, 192.0, 0.0, 0.0, 0.0, 0.0, 0.0, 0.0, 0.0, 0.0, 0.0, 1.741901664825289E9, 0.0, 2025-03-13 16:34:24.825
168.0, -31974.84099565041, -20088.004480362473, -30974.823948719975, -17617.73438665085, -40275.67538925116, -31105.224025872234, -38436.14917232384, -13422.4684146009, -27734.379796311834, -29628.600731921284, -35412.62869985446, -18158.44543676918, -25054.249173909328, -38662.192364000366, -35322.618224932936, -187500.02235174447, -0.08738597489058156, 0.8974065136848222, -0.4075739835383866, 192.0, 0.0, 0.0, 0.0, 0.0, 0.0, 0.0, 0.0, 0.0, 0.0, 1.741901664827286E9, 0.0, 2025-03-13 16:34:24.827
170.0, -31972.672876438246, -20082.8412273933, -30977.059123165505, -17609.1066132911, -40283.05146492142, -31104.933453194317, -38435.90330313484, -13422.401359367534, -27731.943456166206, -29627.684310398618, -35416.89788304542, -18158.31132630245, -25056.95373498842, -38668.048521047655, -35316.71736439674, -187500.02235174447, -0.08600000000000001, 0.896, -0.406, 192.0, 126.5, 40.0, 14.0, 0.0, 121.5, 40.0, 0.0, 0.0, 0.0, 1.741901664829222E9, 0.0, 2025-03-13 16:34:24.829
172.0, -31978.797254419, -20090.999614119486, -30982.982335446162, -17613.912238348992, -40286.761854501, -31109.046174174095, -38439.457230503234, -13425.552955335732, -27740.079491147935, -29626.074984797837, -35416.227330711765, -18156.232614068107, -25051.991647719344, -38670.9765995713, -35329.99430060319, -187500.02235174447, -0.08600000000000001, 0.896, -0.406, 192.0, 0.0, 0.0, 0.0, 0.0, 0.0, 0.0, 0.0, 0.0, 0.0, 1.741901664831289E9, 0.0, 2025-03-13 16:34:24.831
174.0, -31972.717579927157, -20078.92967211362, -30975.13687314235, -17604.14452602202, -40276.77062472947, -31098.473799046733, -38428.79544839805, -13415.271152886291, -27732.63636024432, -29619.928255072628, -35418.61896736848, -18152.812797166443, -25052.326923886172, -38661.61121864453, -35313.833989362, -187500.02235174447, -0.08600000000000001, 0.896, -0.406, 192.0, 0.0, 0.0, 0.0, 0.0, 0.0, 0.0, 0.0, 0.0, 0.0, 1.741901664833266E9, 0.0, 2025-03-13 16:34:24.833
176.0, -31974.393960761307, -20078.72850641352, -30974.22045161968, -17604.52450567776, -40277.41882531867, -31100.977194425726, -38428.28135827558, -13416.880478487074, -27737.73255798013, -29614.250911980977, -35415.7579440782, -18148.141282575285, -25053.399807620026, -38651.485878406274, -35323.95932960026, -187500.02235174447, -0.08600000000000001, 0.896, -0.406, 192.0, 0.0, 0.0, 0.0, 0.0, 0.0, 0.0, 0.0, 0.0, 0.0, 1.74190166483525E9, 0.0, 2025-03-13 16:34:24.835
178.0, -31975.735065428624, -20082.058916337362, -30973.684009752753, -17601.037633542735, -40280.68218000915, -31104.687584005307, -38432.3717275109, -13421.79786226724, -27732.43519454422, -29615.904941070672, -35415.42266791137, -18142.50864297255, -25053.176290175474, -38660.918314566414, -35311.19648351628, -187500.02235174447, -0.08600000000000001, 0.896, -0.406, 192.0, 0.0, 0.0, 0.0, 0.0, 0.0, 0.0, 0.0, 0.0, 0.0, 1.741901664837288E9, 0.0, 2025-03-13 16:34:24.837
180.0, -31961.117024554853, -20068.580814430814, -30961.94934391372, -17604.72567137786, -40267.49465078052, -31094.785761211606, -38424.816837885, -13409.638513283553, -27730.78116545453, -29616.66490038215, -35404.403257894905, -18135.53489870249, -25038.893525468535, -38654.5257156522, -35320.092477809485, -187500.02235174447, -0.08600000000000001, 0.898, -0.402, 192.0, 126.5, 40.0, 14.0, 8.0, 121.5, 56.0, 0.0, 0.0, 0.0, 1.741901664883398E9, 0.0, 2025-03-13 16:34:24.883
182.0, -31966.36968450185, -20077.052125579372, -30970.17478587327, -17608.279598746252, -40275.608334017794, -31104.285252605114, -38434.40573625633, -13423.094263445648, -27722.890999661806, -29617.894246327192, -35407.17487420736, -18138.574735948412, -25046.224897649874, -38668.94259082587, -35309.02836430411, -187500.02235174447, -0.08600000000000001, 0.898, -0.402, 192.0, 0.0, 0.0, 0.0, 0.0, 0.0, 0.0, 0.0, 0.0, 0.0, 1.741901664885619E9, 0.0, 2025-03-13 16:34:24.885
184.0, -31963.910992611767, -20072.022983076928, -30966.01736140458, -17611.989988325833, -40268.61223800328, -31098.406743813368, -38421.352317494435, -13408.900905716528, -27729.574171253942, -29620.867028339748, -35405.67730732886, -18143.02273309502, -25043.63209529306, -38663.89109657897, -35320.04777432058, -187500.02235174447, -0.08600000000000001, 0.898, -0.402, 192.0, 0.0, 0.0, 0.0, 0.0, 0.0, 0.0, 0.0, 0.0, 0.0, 1.741901664887602E9, 0.0, 2025-03-13 16:34:24.887
186.0, -31968.828376391935, -20083.8917593827, -30971.828814962962, -17609.66540690248, -40267.807575202896, -31103.905272949374, -38427.20847454172, -13419.853260499629, -27722.77924093953, -29621.53758067341, -35409.11947597498, -18143.469767984127, -25047.275429639274, -38661.16418375542, -35303.12750376791, -187500.02235174447, -0.08600000000000001, 0.898, -0.402, 192.0, 0.0, 0.0, 0.0, 0.0, 0.0, 0.0, 0.0, 0.0, 0.0, 1.741901664889586E9, 0.0, 2025-03-13 16:34:24.889
188.0, -31989.727257457645, -20096.721660700045, -30989.956079716216, -17624.28344777625, -40283.2079271326, -31110.96842419725, -38440.910093892824, -13426.022341969294, -27744.192212127713, -29637.653188425684, -35420.831790069555, -18158.9371751472, -25060.664124568004, -38671.24482050477, -35321.835913877, -187500.02235174447, -0.08600000000000001, 0.898, -0.402, 192.0, 0.0, 0.0, 0.0, 0.0, 0.0, 0.0, 0.0, 0.0, 0.0, 1.741901664891611E9, 0.0, 2025-03-13 16:34:24.891
190.0, -31967.956658358176, -20082.573006459836, -30975.47214930918, -17616.169764538976, -40270.19921185961, -31104.866397960952, -38425.956776852225, -13415.874649986585, -27741.44294755971, -29636.088566313814, -35426.15150524992, -18164.323945560925, -25061.58054609067, -38680.721960153816, -35323.98168134471, -187500.02235174447, -0.084, 0.9, -0.404, 192.0, 126.5, 48.0, 14.0, 16.0, 121.5, 48.0, 0.0, 0.0, 0.0, 1.7419016648936E9, 0.0, 2025-03-13 16:34:24.893
192.0, -31973.47753923864, -20080.896625625686, -30977.237937121146, -17603.004587054802, -40265.974732157556, -31090.136598364905, -38414.780904624575, -13404.452908569921, -27725.237932829612, -29615.14498175919, -35404.44796138382, -18141.905145872253, -25043.945019715433, -38655.55389589714, -35307.64255614788, -187500.02235174447, -0.084, 0.9, -0.404, 192.0, 0.0, 0.0, 0.0, 0.0, 0.0, 0.0, 0.0, 0.0, 0.0, 1.741901664895666E9, 0.0, 2025-03-13 16:34:24.895
194.0, -31980.652449208792, -20096.319329299848, -30984.032867435562, -17617.3097035062, -40279.09520615282, -31107.88388346242, -38436.305634535034, -13423.697760545941, -27737.10670913538, -29629.80772612187, -35422.19524648133, -18157.707829202154, -25063.502796113826, -38664.85222159055, -35310.01184106014, -187500.02235174447, -0.084, 0.9, -0.404, 192.0, 0.0, 0.0, 0.0, 0.0, 0.0, 0.0, 0.0, 0.0, 0.0, 1.74190166494362E9, 0.0, 2025-03-13 16:34:24.943
196.0, -31991.694210969716, -20098.93448340112, -30992.884158239864, -17622.137680308544, -40286.78420624545, -31098.96553742475, -38432.93052112228, -13414.757062763818, -27751.612991286875, -29639.44132798211, -35431.06888903009, -18167.721410718135, -25074.410447408016, -38677.30214325216, -35327.49090522419, -187500.02235174447, -0.084, 0.9, -0.404, 192.0, 0.0, 0.0, 0.0, 0.0, 0.0, 0.0, 0.0, 0.0, 0.0, 1.741901664945701E9, 0.0, 2025-03-13 16:34:24.945
198.0, -31976.785597418024, -20091.960739131064, -30973.88517545285, -17599.696528875415, -40271.54031652693, -31100.26193860316, -38426.29205301905, -13415.427615097478, -27735.787956212516, -29622.521057429443, -35418.73072609076, -18153.528052989015, -25058.764226289302, -38655.71035810833, -35316.829123119016, -187500.02235174447, -0.084, 0.9, -0.404, 192.0, 0.0, 0.0, 0.0, 0.0, 0.0, 0.0, 0.0, 0.0, 0.0, 1.741901664947781E9, 0.0, 2025-03-13 16:34:24.947
200.0, -31992.34241155892, -20102.17548634714, -30984.345791857933, -17605.128002778056, -40283.63261027725, -31094.830464700517, -38425.08505881847, -13413.572420307688, -27740.705339992684, -29627.371385976243, -35422.172894736876, -18154.377419278317, -25058.205432677918, -38660.89596282196, -35316.9855853302, -187500.02235174447, -0.082, 0.896, -0.40800000000000003, 192.0, 126.5, 56.0, 14.0, 0.0, 121.5, 32.0, 0.0, 0.0, 0.0, 1.74190166494976E9, 0.0, 2025-03-13 16:34:24.949
202.0, -31986.933289400735, -20108.568085261355, -30978.959021444207, -17615.320398249674, -40280.235145120045, -31108.91206370736, -38433.91399787831, -13424.077740201681, -27743.007569671583, -29638.927237859636, -35423.53635114865, -18160.8370734259, -25064.307458914216, -38672.49651819426, -35319.57838768702, -187500.02235174447, -0.082, 0.896, -0.40800000000000003, 192.0, 0.0, 0.0, 0.0, 0.0, 0.0, 0.0, 0.0, 0.0, 0.0, 1.741901664951858E9, 0.0, 2025-03-13 16:34:24.951
204.0, -31980.85361490889, -20092.161904831162, -30970.465358551188, -17614.49338370483, -40272.344979327325, -31094.87516818943, -38422.22403552819, -13408.431519082967, -27742.2476103601, -29643.01760709496, -35419.60244412452, -18161.619384481834, -25071.25885143982, -38676.49748045176, -35319.62309117593, -187500.02235174447, -0.082, 0.896, -0.40800000000000003, 192.0, 0.0, 0.0, 0.0, 0.0, 0.0, 0.0, 0.0, 0.0, 0.0, 1.74190166495378E9, 0.0, 2025-03-13 16:34:24.953
