%OpenBCI Raw EXG Data
%Number of channels = 8
%Sample Rate = 250 Hz
%Board = OpenBCI_GUI$BoardCytonSerial
Sample Index, EXG Channel 0, EXG Channel 1, EXG Channel 2, EXG Channel 3, EXG Channel 4, EXG Channel 5, EXG Channel 6, EXG Channel 7, Accel Channel 0, Accel Channel 1, Accel Channel 2, Not Used, Digital Channel 0 (D11), Digital Channel 1 (D12), Digital Channel 2 (D13), Digital Channel 3 (D17), Not Used, Digital Channel 4 (D18), Analog Channel 0, Analog Channel 1, Analog Channel 2, Timestamp, Marker Channel, Timestamp (Formatted)
47.0, -67402.60182650111, -62744.386523292844, -58364.852769953344, -59922.232916621324, -68122.84208808448, -64513.97413181951, -73228.5840187769, -69031.8428315929, 0.0, 0.0, 0.0, 192.0, 0.0, 0.0, 0.0, 0.0, 0.0, 0.0, 0.0, 0.0, 0.0, 1.741116412356462E9, 0.0, 2025-03-04 13:26:52.356
48.0, -67413.0177394173, -62782.295081889046, -58375.067517169424, -59935.934535972425, -68131.64867539986, -64527.04990232586, -73252.50038534409, -69048.53958470102, 0.0, 0.0, 0.0, 192.0, 0.0, 0.0, 0.0, 0.0, 0.0, 0.0, 0.0, 0.0, 0.0, 1.741116412356527E9, 0.0, 2025-03-04 13:26:52.356
49.0, -67410.5143440383, -62735.46817725518, -58376.58743579238, -59932.313553370666, -68136.34254173547, -64533.71072217354, -73262.53631860451, -69058.26259353907, 0.0, 0.0, 0.0, 192.0, 0.0, 0.0, 0.0, 0.0, 0.0, 0.0, 0.0, 0.0, 0.0, 1.741116412356558E9, 0.0, 2025-03-04 13:26:52.356
50.0, -67406.44632654743, -62695.12327851335, -58380.78956374998, -59931.48653882582, -68139.49413770367, -64535.20828905205, -73271.87934778683, -69067.04682911001, 0.0, 0.0, 0.0, 192.0, 0.0, 0.0, 0.0, 0.0, 0.0, 0.0, 0.0, 0.0, 0.0, 1.741116412356587E9, 0.0, 2025-03-04 13:26:52.356
51.0, -67389.48135250586, -62724.42641549426, -58368.026717666, -59925.876250967536, -68124.89844857436, -64520.41143422264, -73262.06693197096, -69053.7028376702, 0.018000000000000002, 0.964, -0.18, 192.0, 0.0, 144.0, 30.0, 32.0, 250.0, 96.0, 0.0, 0.0, 0.0, 1.741116412356632E9, 0.0, 2025-03-04 13:26:52.356
52.0, -67387.31323329368, -62763.78783748006, -58366.50679904304, -59930.10073066959, -68124.92080031883, -64524.6806174136, -73240.89982997178, -69059.82721565095, 0.018000000000000002, 0.964, -0.18, 192.0, 0.0, 0.0, 0.0, 0.0, 0.0, 0.0, 0.0, 0.0, 0.0, 1.741116412356666E9, 0.0, 2025-03-04 13:26:52.356
53.0, -67394.51049500829, -62735.19995632172, -58373.10056365735, -59933.542899315704, -68135.94021033529, -64537.62227745322, -73257.41776912425, -69069.32670704446, 0.018000000000000002, 0.964, -0.18, 192.0, 0.0, 0.0, 0.0, 0.0, 0.0, 0.0, 0.0, 0.0, 0.0, 1.741116412356697E9, 0.0, 2025-03-04 13:26:52.356
54.0, -67381.77000066877, -62674.20204570318, -58357.90137742775, -59909.89475368199, -68125.9266288193, -64523.33951274628, -73252.12040568834, -69049.45600622369, 0.018000000000000002, 0.964, -0.18, 192.0, 0.0, 0.0, 0.0, 0.0, 0.0, 0.0, 0.0, 0.0, 0.0, 1.741116412356728E9, 0.0, 2025-03-04 13:26:52.356
55.0, -67381.23355880185, -62701.0017873051, -58364.60690076434, -59917.71786424135, -68137.59423942497, -64535.49886172997, -73264.12329246083, -69060.22954705115, 0.018000000000000002, 0.964, -0.18, 192.0, 0.0, 0.0, 0.0, 0.0, 0.0, 0.0, 0.0, 0.0, 0.0, 1.741116412356758E9, 0.0, 2025-03-04 13:26:52.356
56.0, -67372.06934357516, -62745.12413085987, -58358.862502439326, -59919.5954107756, -68135.06849230152, -64527.80986163734, -73268.23601344062, -69047.42199747825, 0.018000000000000002, 0.964, -0.18, 192.0, 0.0, 0.0, 0.0, 0.0, 0.0, 0.0, 0.0, 0.0, 0.0, 1.741116412356795E9, 0.0, 2025-03-04 13:26:52.356
57.0, -67366.92844235044, -62722.28064802655, -58349.340659301364, -59912.33109382762, -68128.72059687621, -64526.26759126993, -73250.22050740964, -69052.0488085805, 0.018000000000000002, 0.964, -0.18, 192.0, 0.0, 0.0, 0.0, 0.0, 0.0, 0.0, 0.0, 0.0, 0.0, 1.741116412356826E9, 0.0, 2025-03-04 13:26:52.356
58.0, -67376.6514511885, -62663.40615313127, -58352.4699035251, -59907.25724783626, -68134.30853299005, -64538.985733864996, -73243.20205965068, -69070.51134950058, 0.018000000000000002, 0.964, -0.18, 192.0, 0.0, 0.0, 0.0, 0.0, 0.0, 0.0, 0.0, 0.0, 0.0, 1.741116412356856E9, 0.0, 2025-03-04 13:26:52.356
59.0, -67382.03822160223, -62685.02029001955, -58358.080191383386, -59915.728558984825, -68139.65059991486, -64544.841890912285, -73260.09997845888, -69078.31210831548, 0.018000000000000002, 0.964, -0.18, 192.0, 0.0, 0.0, 0.0, 0.0, 0.0, 0.0, 0.0, 0.0, 0.0, 1.741116412356894E9, 0.0, 2025-03-04 13:26:52.356
60.0, -67382.93229138045, -62741.14552034683, -58357.879025683294, -59928.15612890198, -68138.82358537002, -64547.38998978019, -73256.5907545794, -69075.42873328076, 0.018000000000000002, 0.964, -0.18, 192.0, 0.0, 0.0, 0.0, 0.0, 0.0, 0.0, 0.0, 0.0, 0.0, 1.741116412356929E9, 0.0, 2025-03-04 13:26:52.356
61.0, -67371.04116333023, -62734.618810965876, -58340.668182452704, -59913.13575662801, -68124.78668985209, -64533.15192856216, -73250.13110043181, -69065.01282036457, 0.016, 0.966, -0.184, 192.0, 0.0, 128.0, 30.0, 48.0, 250.0, 64.0, 0.0, 0.0, 0.0, 1.741116412356967E9, 0.0, 2025-03-04 13:26:52.356
62.0, -67384.2063408144, -62672.57036835795, -58347.19489183366, -59907.279599580725, -68136.47665220221, -64542.1373298332, -73270.15826346377, -69088.81742820948, 0.016, 0.966, -0.184, 192.0, 0.0, 0.0, 0.0, 0.0, 0.0, 0.0, 0.0, 0.0, 0.0, 1.741116412357002E9, 0.0, 2025-03-04 13:26:52.357
0.0, 0.0, 0.0, 0.0, 0.0, 0.0, 0.0, 0.0, 0.0, 0.056, 0.962, -0.2, 192.0, 1.0, 192.0, 30.0, 16.0, 249.0, 192.0, 0.0, 0.0, 0.0, 1.741116412434604E9, 0.0, 2025-03-04 13:26:52.434
1.0, -67024.23149636168, -62394.76053652293, -58011.42698662603, -59488.9890538441, -67697.51074284443, -64093.53781861518, -72804.77259215982, -68582.77393374132, 0.056, 0.962, -0.2, 192.0, 0.0, 0.0, 0.0, 0.0, 0.0, 0.0, 0.0, 0.0, 0.0, 1.741116412450657E9, 0.0, 2025-03-04 13:26:52.450
2.0, -67034.24507787765, -62332.846204381734, -58017.01492273986, -59484.78692588651, -67712.1287837182, -64100.66802509643, -72826.45378428148, -68580.24818661787, 0.056, 0.962, -0.2, 192.0, 0.0, 0.0, 0.0, 0.0, 0.0, 0.0, 0.0, 0.0, 0.0, 1.741116412509159E9, 0.0, 2025-03-04 13:26:52.509
3.0, -67029.75237724214, -62353.20864358052, -58011.06935871475, -59488.18439104372, -67704.64094932568, -64095.39301340497, -72821.51404875684, -68585.97023319843, 0.056, 0.962, -0.2, 192.0, 0.0, 0.0, 0.0, 0.0, 0.0, 0.0, 0.0, 0.0, 0.0, 1.741116412509234E9, 0.0, 2025-03-04 13:26:52.509
4.0, -67044.61628730492, -62410.943199508576, -58014.265658171855, -59504.9929028741, -67706.13851620418, -64105.65246410996, -72812.75216493037, -68590.61939604513, 0.056, 0.962, -0.2, 192.0, 0.0, 0.0, 0.0, 0.0, 0.0, 0.0, 0.0, 0.0, 0.0, 1.741116412509274E9, 0.0, 2025-03-04 13:26:52.509
5.0, -67061.13422645739, -62422.99078976999, -58022.58050710923, -59517.599286746896, -67716.5320773759, -64114.95078980336, -72825.78323194782, -68590.21706464495, 0.056, 0.962, -0.2, 192.0, 0.0, 0.0, 0.0, 0.0, 0.0, 0.0, 0.0, 0.0, 0.0, 1.741116412509305E9, 0.0, 2025-03-04 13:26:52.509
6.0, -67034.13331915537, -62348.55948073381, -58014.2433064274, -59495.24754229159, -67711.90526627365, -64108.759356589246, -72821.15642084557, -68593.41336410206, 0.056, 0.962, -0.2, 192.0, 0.0, 0.0, 0.0, 0.0, 0.0, 0.0, 0.0, 0.0, 0.0, 1.741116412509336E9, 0.0, 2025-03-04 13:26:52.509
7.0, -67028.83595571946, -62350.124102845686, -58018.33367566272, -59495.00167310258, -67712.46405988504, -64108.960522289344, -72827.48196452642, -68601.34823338369, 0.056, 0.962, -0.2, 192.0, 0.0, 0.0, 0.0, 0.0, 0.0, 0.0, 0.0, 0.0, 0.0, 1.741116412509366E9, 0.0, 2025-03-04 13:26:52.509
8.0, -67005.88071416387, -62391.40777485464, -58001.86043999916, -59493.3923475018, -67692.45924859753, -64094.275426182205, -72814.85322890917, -68593.81569550226, 0.082, 0.964, -0.21, 192.0, 2.0, 144.0, 30.0, 32.0, 249.0, 112.0, 0.0, 0.0, 0.0, 1.741116412509404E9, 0.0, 2025-03-04 13:26:52.509
9.0, -67013.65912123432, -62398.60503656925, -58001.90514348807, -59487.960873599164, -67689.50881832944, -64093.13548721498, -72807.61126370565, -68589.41240184456, 0.082, 0.964, -0.21, 192.0, 0.0, 0.0, 0.0, 0.0, 0.0, 0.0, 0.0, 0.0, 0.0, 1.741116412509439E9, 0.0, 2025-03-04 13:26:52.509
10.0, -67026.53372604058, -62338.45649224002, -58011.33757964821, -59491.045414333996, -67701.55640859084, -64106.725347843814, -72824.26331332485, -68594.86622749164, 0.082, 0.964, -0.21, 192.0, 0.0, 0.0, 0.0, 0.0, 0.0, 0.0, 0.0, 0.0, 0.0, 1.741116412509469E9, 0.0, 2025-03-04 13:26:52.509
11.0, -67024.43266206178, -62331.460396225506, -58008.83418426922, -59492.7441469126, -67696.66137655513, -64104.758394331744, -72818.38480453311, -68596.29673913679, 0.082, 0.964, -0.21, 192.0, 0.0, 0.0, 0.0, 0.0, 0.0, 0.0, 0.0, 0.0, 0.0, 1.741116412509507E9, 0.0, 2025-03-04 13:26:52.509
12.0, -67007.33357755347, -62375.31451884682, -57992.89739047258, -59489.078460821926, -67680.61282403623, -64086.40761213394, -72807.72302242792, -68581.27636686282, 0.082, 0.964, -0.21, 192.0, 0.0, 0.0, 0.0, 0.0, 0.0, 0.0, 0.0, 0.0, 0.0, 1.741116412509538E9, 0.0, 2025-03-04 13:26:52.509
13.0, -67021.01284516012, -62399.16383018063, -58004.65440805607, -59497.92975162623, -67696.23669341048, -64094.901275026954, -72831.79585120629, -68590.28411987831, 0.082, 0.964, -0.21, 192.0, 0.0, 0.0, 0.0, 0.0, 0.0, 0.0, 0.0, 0.0, 0.0, 1.741116412509575E9, 0.0, 2025-03-04 13:26:52.509
14.0, -67019.89525793734, -62341.71984693049, -58005.14614643409, -59491.023062589535, -67699.14242018967, -64097.80700180615, -72823.30218831328, -68596.29673913679, 0.082, 0.964, -0.21, 192.0, 0.0, 0.0, 0.0, 0.0, 0.0, 0.0, 0.0, 0.0, 0.0, 1.741116412509607E9, 0.0, 2025-03-04 13:26:52.509
15.0, -67018.75531897013, -62311.880268082656, -58007.18015517952, -59488.7431846551, -67700.63998706818, -64098.94694077336, -72833.20401110698, -68603.80692527378, 0.082, 0.964, -0.21, 192.0, 0.0, 0.0, 0.0, 0.0, 0.0, 0.0, 0.0, 0.0, 0.0, 1.741116412509645E9, 0.0, 2025-03-04 13:26:52.509
16.0, -67023.22566786119, -62362.05993438482, -58012.790443037804, -59502.73537668412, -67703.38925163618, -64102.679682097405, -72845.11749090166, -68613.52993411184, 0.082, 0.964, -0.21, 192.0, 0.0, 0.0, 0.0, 0.0, 0.0, 0.0, 0.0, 0.0, 0.0, 1.741116412509685E9, 0.0, 2025-03-04 13:26:52.509
17.0, -67024.23149636168, -62399.16383018063, -58013.48334711592, -59504.09883309589, -67704.64094932568, -64102.47851639731, -72858.68499978603, -68607.98670148691, 0.082, 0.964, -0.21, 192.0, 0.0, 0.0, 0.0, 0.0, 0.0, 0.0, 0.0, 0.0, 0.0, 1.741116412569456E9, 0.0, 2025-03-04 13:26:52.569
18.0, -67021.30341783803, -62351.10757960172, -58011.02465522584, -59490.53132421152, -67708.10546971625, -64101.763260574735, -72850.3477991042, -68599.76125952737, 0.092, 0.9580000000000001, -0.21, 192.0, 2.0, 224.0, 29.0, 240.0, 249.0, 112.0, 0.0, 0.0, 0.0, 1.741116412569505E9, 0.0, 2025-03-04 13:26:52.569
19.0, -67027.98658943016, -62316.14945127362, -58015.20443143898, -59490.48662072261, -67709.75949880594, -64110.16751648993, -72817.80365917727, -68604.20925667397, 0.092, 0.9580000000000001, -0.21, 192.0, 0.0, 0.0, 0.0, 0.0, 0.0, 0.0, 0.0, 0.0, 0.0, 1.741116412569567E9, 0.0, 2025-03-04 13:26:52.569
20.0, -67025.70671149573, -62365.278585586384, -58022.46874838696, -59505.66345520777, -67713.71575757454, -64115.91191481494, -72820.97760688992, -68608.50079160939, 0.092, 0.9580000000000001, -0.21, 192.0, 0.0, 0.0, 0.0, 0.0, 0.0, 0.0, 0.0, 0.0, 0.0, 1.741116412569598E9, 0.0, 2025-03-04 13:26:52.569
21.0, -67015.02257764609, -62406.56225759534, -58013.17042269355, -59509.95499014318, -67707.70313831605, -64109.47461241182, -72831.08059538373, -68606.75735554188, 0.092, 0.9580000000000001, -0.21, 192.0, 0.0, 0.0, 0.0, 0.0, 0.0, 0.0, 0.0, 0.0, 0.0, 1.74111641256963E9, 0.0, 2025-03-04 13:26:52.569
22.0, -67020.20818235973, -62378.51081830393, -58013.997437238395, -59503.22711506214, -67710.78767905089, -64112.08976651308, -72847.48677581392, -68610.91478001056, 0.092, 0.9580000000000001, -0.21, 192.0, 0.0, 0.0, 0.0, 0.0, 0.0, 0.0, 0.0, 0.0, 0.0, 1.74111641256966E9, 0.0, 2025-03-04 13:26:52.569
23.0, -67020.63286550438, -62321.46916645398, -58011.02465522584, -59490.66543467825, -67708.59720809427, -64103.26082745324, -72834.96979891894, -68585.90317796507, 0.092, 0.9580000000000001, -0.21, 192.0, 0.0, 0.0, 0.0, 0.0, 0.0, 0.0, 0.0, 0.0, 0.0, 1.741116412569692E9, 0.0, 2025-03-04 13:26:52.569
24.0, -67016.34133056895, -62348.090094100255, -58010.62232382564, -59493.548809712986, -67703.79158303638, -64096.667062838926, -72824.10685111367, -68583.46683781945, 0.092, 0.9580000000000001, -0.21, 192.0, 0.0, 0.0, 0.0, 0.0, 0.0, 0.0, 0.0, 0.0, 0.0, 1.741116412569732E9, 0.0, 2025-03-04 13:26:52.569
25.0, -67007.49003976466, -62391.25131264345, -58004.31913188924, -59491.76067015656, -67694.49325734297, -64085.51354235572, -72817.75895568836, -68578.30358485026, 0.092, 0.9580000000000001, -0.21, 192.0, 0.0, 0.0, 0.0, 0.0, 0.0, 0.0, 0.0, 0.0, 0.0, 1.741116412569763E9, 0.0, 2025-03-04 13:26:52.569
26.0, -67020.83403120447, -62377.661452014625, -58011.0917104592, -59497.41566150376, -67701.22113242402, -64093.8283912931, -72823.92803715802, -68593.21219840196, 0.092, 0.9580000000000001, -0.21, 192.0, 0.0, 0.0, 0.0, 0.0, 0.0, 0.0, 0.0, 0.0, 0.0, 1.741116412569799E9, 0.0, 2025-03-04 13:26:52.569
27.0, -67037.01669419011, -62323.704340899516, -58022.647562342594, -59505.998731374595, -67709.91596101713, -64102.746737330766, -72836.13208963061, -68594.97798621393, 0.092, 0.9580000000000001, -0.21, 192.0, 0.0, 0.0, 0.0, 0.0, 0.0, 0.0, 0.0, 0.0, 0.0, 1.74111641256983E9, 0.0, 2025-03-04 13:26:52.569
28.0, -67028.90301095284, -62339.30585852932, -58018.33367566272, -59501.77425167254, -67698.80714402284, -64090.14035345797, -72823.10102261318, -68588.02659368832, 0.09, 0.9580000000000001, -0.21, 192.0, 2.0, 208.0, 29.0, 240.0, 249.0, 112.0, 0.0, 0.0, 0.0, 1.741116412569861E9, 0.0, 2025-03-04 13:26:52.569
29.0, -67025.66200800681, -62392.413603355126, -58016.90316401758, -59511.25139132159, -67693.04039395337, -64089.13452495749, -72811.07578409622, -68587.91483496605, 0.09, 0.9580000000000001, -0.21, 192.0, 0.0, 0.0, 0.0, 0.0, 0.0, 0.0, 0.0, 0.0, 0.0, 1.741116412569901E9, 0.0, 2025-03-04 13:26:52.569
30.0, -67029.95354294224, -62396.9286557351, -58013.30453316028, -59509.3961965318, -67692.16867591962, -64089.738022057776, -72815.88140915411, -68586.97606169892, 0.09, 0.9580000000000001, -0.21, 192.0, 0.0, 0.0, 0.0, 0.0, 0.0, 0.0, 0.0, 0.0, 0.0, 1.741116412569943E9, 0.0, 2025-03-04 13:26:52.569
31.0, -67017.95065616973, -62328.308800257306, -58005.34731213419, -59489.503143966576, -67691.54282707487, -64085.8264667781, -72819.68120571152, -68589.70297452247, 0.09, 0.9580000000000001, -0.21, 192.0, 0.0, 0.0, 0.0, 0.0, 0.0, 0.0, 0.0, 0.0, 0.0, 1.741116412569981E9, 0.0, 2025-03-04 13:26:52.569
32.0, -67022.89039169435, -62331.99683809243, -58009.1918121805, -59493.34764401289, -67689.01707995142, -64088.93335925739, -72815.32261554273, -68590.77585825633, 0.09, 0.9580000000000001, -0.21, 192.0, 0.0, 0.0, 0.0, 0.0, 0.0, 0.0, 0.0, 0.0, 0.0, 1.741116412630224E9, 0.0, 2025-03-04 13:26:52.630
33.0, -66999.95750188321, -62372.3193850898, -57992.740928261395, -59487.737356154605, -67670.80040822034, -64071.29783288215, -72804.19144680399, -68583.80211398627, 0.09, 0.9580000000000001, -0.21, 192.0, 0.0, 0.0, 0.0, 0.0, 0.0, 0.0, 0.0, 0.0, 0.0, 1.74111641263027E9, 0.0, 2025-03-04 13:26:52.630
34.0, -67008.16059209831, -62391.25131264345, -58005.168498178544, -59509.843231420906, -67679.04820192435, -64087.25697842324, -72821.24582782338, -68594.86622749164, 0.09, 0.9580000000000001, -0.21, 192.0, 0.0, 0.0, 0.0, 0.0, 0.0, 0.0, 0.0, 0.0, 0.0, 1.741116412630333E9, 0.0, 2025-03-04 13:26:52.630
35.0, -67021.88456319387, -62334.25436428242, -58017.841937284706, -59498.26502779306, -67694.40385036515, -64097.78465006169, -72834.96979891894, -68603.40459387358, 0.09, 0.9580000000000001, -0.21, 192.0, 0.0, 0.0, 0.0, 0.0, 0.0, 0.0, 0.0, 0.0, 0.0, 1.741116412630364E9, 0.0, 2025-03-04 13:26:52.630
36.0, -67020.43169980428, -62319.43515770855, -58017.46195762896, -59484.63046367532, -67694.44855385406, -64088.70984181284, -72818.02717662182, -68588.20540764397, 0.09, 0.9580000000000001, -0.21, 192.0, 0.0, 0.0, 0.0, 0.0, 0.0, 0.0, 0.0, 0.0, 0.0, 1.741116412630395E9, 0.0, 2025-03-04 13:26:52.630
37.0, -67008.87584792088, -62361.45643728453, -58009.10240520268, -59491.60420794538, -67685.91018747214, -64082.607815576535, -72811.45576375196, -68583.444486075, 0.09, 0.9580000000000001, -0.21, 192.0, 0.0, 0.0, 0.0, 0.0, 0.0, 0.0, 0.0, 0.0, 0.0, 1.741116412630425E9, 0.0, 2025-03-04 13:26:52.630
38.0, -67012.47447877818, -62390.021966698405, -58008.253038913375, -59498.68971093771, -67690.06761194082, -64086.42996387839, -72822.25165632388, -68592.56399781276, 0.094, 0.964, -0.20600000000000002, 192.0, 2.0, 240.0, 30.0, 32.0, 249.0, 144.0, 0.0, 0.0, 0.0, 1.741116412630456E9, 0.0, 2025-03-04 13:26:52.630
39.0, -67009.07701362098, -62331.77332064788, -58001.055777198766, -59486.61976893184, -67688.5253415734, -64082.98779523228, -72823.03396737982, -68593.61452980216, 0.094, 0.964, -0.20600000000000002, 192.0, 0.0, 0.0, 0.0, 0.0, 0.0, 0.0, 0.0, 0.0, 0.0, 1.741116412630496E9, 0.0, 2025-03-04 13:26:52.630
40.0, -67005.63484497486, -62304.07950926775, -58003.44741385549, -59487.80441138797, -67687.31834737281, -64082.16078068743, -72824.77740344733, -68595.13444842512, 0.094, 0.964, -0.20600000000000002, 192.0, 0.0, 0.0, 0.0, 0.0, 0.0, 0.0, 0.0, 0.0, 0.0, 1.741116412630527E9, 0.0, 2025-03-04 13:26:52.630
41.0, -66994.0119378581, -62343.84326265375, -57995.71371027395, -59491.0901178229, -67676.05306816734, -64075.65642305093, -72817.60249347717, -68592.47459083493, 0.094, 0.964, -0.20600000000000002, 192.0, 0.0, 0.0, 0.0, 0.0, 0.0, 0.0, 0.0, 0.0, 0.0, 1.741116412630563E9, 0.0, 2025-03-04 13:26:52.630
42.0, -66988.04402208854, -62380.67893751609, -57988.18117239251, -59499.67318769374, -67669.61576576422, -64077.086934696075, -72812.8862753971, -68593.50277107987, 0.094, 0.964, -0.20600000000000002, 192.0, 0.0, 0.0, 0.0, 0.0, 0.0, 0.0, 0.0, 0.0, 0.0, 1.741116412630594E9, 0.0, 2025-03-04 13:26:52.630
43.0, -66998.83991466045, -62337.875346884175, -57989.790497993294, -59493.615864946354, -67682.0209839369, -64081.02084172021, -72829.18069710502, -68584.22679713092, 0.094, 0.964, -0.20600000000000002, 192.0, 0.0, 0.0, 0.0, 0.0, 0.0, 0.0, 0.0, 0.0, 0.0, 1.741116412630625E9, 0.0, 2025-03-04 13:26:52.630
44.0, -67003.51142925161, -62294.62472136316, -57992.1374311611, -59490.330158511424, -67686.64779503916, -64080.35028938655, -72820.91055165656, -68580.42700057352, 0.094, 0.964, -0.20600000000000002, 192.0, 0.0, 0.0, 0.0, 0.0, 0.0, 0.0, 0.0, 0.0, 0.0, 1.741116412630661E9, 0.0, 2025-03-04 13:26:52.630
45.0, -67006.95359789772, -62342.8150824088, -57994.99845445138, -59505.372882529846, -67683.56325430433, -64087.12286795651, -72819.79296443379, -68600.72238453894, 0.094, 0.964, -0.20600000000000002, 192.0, 0.0, 0.0, 0.0, 0.0, 0.0, 0.0, 0.0, 0.0, 0.0, 1.741116412630697E9, 0.0, 2025-03-04 13:26:52.630
46.0, -66998.83991466045, -62390.670167287615, -57993.925570717525, -59527.098778140404, -67684.41262059363, -64097.02469075021, -72824.97856914742, -68600.25299790538, 0.094, 0.964, -0.20600000000000002, 192.0, 0.0, 0.0, 0.0, 0.0, 0.0, 0.0, 0.0, 0.0, 0.0, 1.741116412630734E9, 0.0, 2025-03-04 13:26:52.630
47.0, -66978.18690278374, -62341.25046029693, -57976.1335821311, -59482.32823399642, -67678.8693879687, -64073.868283494514, -72823.43629878001, -68577.40951507205, 0.094, 0.964, -0.20600000000000002, 192.0, 0.0, 0.0, 0.0, 0.0, 0.0, 0.0, 0.0, 0.0, 0.0, 1.741116412688562E9, 0.0, 2025-03-04 13:26:52.688
48.0, -66981.96434759669, -62282.53242761284, -57980.916855444535, -59474.952158326174, -67680.54576880285, -64075.16468467292, -72816.06022310976, -68572.939166181, 0.092, 0.962, -0.20400000000000001, 192.0, 2.0, 224.0, 30.0, 16.0, 249.0, 160.0, 0.0, 0.0, 0.0, 1.741116412688616E9, 0.0, 2025-03-04 13:26:52.688
49.0, -66973.47068470367, -62308.41574769208, -57979.77691647732, -59481.76944038504, -67671.06862915381, -64074.0247457057, -72800.36929850213, -68576.87307320513, 0.092, 0.962, -0.20400000000000001, 192.0, 0.0, 0.0, 0.0, 0.0, 0.0, 0.0, 0.0, 0.0, 0.0, 1.741116412688682E9, 0.0, 2025-03-04 13:26:52.688
50.0, -66975.70585914921, -62356.18142559307, -57984.73900374639, -59497.30390278148, -67673.68378325508, -64077.31045214063, -72813.51212424185, -68579.62233777314, 0.092, 0.962, -0.20400000000000001, 192.0, 0.0, 0.0, 0.0, 0.0, 0.0, 0.0, 0.0, 0.0, 0.0, 1.741116412688714E9, 0.0, 2025-03-04 13:26:52.688
51.0, -66976.08583880495, -62348.33596328926, -57984.76135549085, -59498.510896982065, -67672.14151288767, -64074.717649783815, -72796.0777635667, -68560.28807881929, 0.092, 0.962, -0.20400000000000001, 192.0, 0.0, 0.0, 0.0, 0.0, 0.0, 0.0, 0.0, 0.0, 0.0, 1.741116412688745E9, 0.0, 2025-03-04 13:26:52.688
52.0, -66970.34144047993, -62279.313776411276, -57974.56896001923, -59480.58479792891, -67661.39032380466, -64066.939242713364, -72762.88542305058, -68559.97515439692, 0.092, 0.962, -0.20400000000000001, 192.0, 0.0, 0.0, 0.0, 0.0, 0.0, 0.0, 0.0, 0.0, 0.0, 1.741116412688775E9, 0.0, 2025-03-04 13:26:52.688
53.0, -66975.41528647128, -62294.62472136316, -57982.392070578586, -59489.43608873321, -67664.31840232831, -64072.59423406056, -72782.06321979323, -68579.0858959062, 0.092, 0.962, -0.20400000000000001, 192.0, 0.0, 0.0, 0.0, 0.0, 0.0, 0.0, 0.0, 0.0, 0.0, 1.741116412688806E9, 0.0, 2025-03-04 13:26:52.688
54.0, -66980.62324292937, -62352.068704613295, -57992.584466050204, -59508.39036803131, -67666.41946630711, -64077.39985911845, -72783.73960062738, -68579.19765462849, 0.092, 0.962, -0.20400000000000001, 192.0, 0.0, 0.0, 0.0, 0.0, 0.0, 0.0, 0.0, 0.0, 0.0, 1.741116412688844E9, 0.0, 2025-03-04 13:26:52.688
55.0, -66985.92060636528, -62360.472960528496, -57997.412442852554, -59514.55944950098, -67670.6215942647, -64079.23270216378, -72794.80371413275, -68579.62233777314, 0.092, 0.962, -0.20400000000000001, 192.0, 0.0, 0.0, 0.0, 0.0, 0.0, 0.0, 0.0, 0.0, 0.0, 1.741116412688875E9, 0.0, 2025-03-04 13:26:52.688
56.0, -66997.45410650421, -62298.82684932076, -58004.699111544985, -59504.72468194064, -67681.1716176476, -64084.66417606642, -72806.02428984932, -68587.4901518214, 0.092, 0.962, -0.20400000000000001, 192.0, 0.0, 0.0, 0.0, 0.0, 0.0, 0.0, 0.0, 0.0, 0.0, 1.741116412688906E9, 0.0, 2025-03-04 13:26:52.688
57.0, -66984.64655693133, -62296.47991615295, -58000.072300442735, -59499.02498710454, -67673.46026581053, -64072.23660614927, -72798.87173162363, -68572.7380004809, 0.092, 0.962, -0.20400000000000001, 192.0, 0.0, 0.0, 0.0, 0.0, 0.0, 0.0, 0.0, 0.0, 0.0, 1.741116412688948E9, 0.0, 2025-03-04 13:26:52.688
58.0, -66975.72821089366, -62342.74802717543, -57997.3900911081, -59511.96664714416, -67671.04627740935, -64073.667117794415, -72792.43442922049, -68577.49892204987, 0.084, 0.964, -0.20600000000000002, 192.0, 2.0, 160.0, 30.0, 32.0, 249.0, 144.0, 0.0, 0.0, 0.0, 1.741116412688979E9, 0.0, 2025-03-04 13:26:52.688
59.0, -66967.99450731212, -62356.04731512634, -57991.757451505364, -59507.317484297455, -67673.61672802172, -64076.1258096845, -72798.49175196789, -68580.47170406244, 0.084, 0.964, -0.20600000000000002, 192.0, 0.0, 0.0, 0.0, 0.0, 0.0, 0.0, 0.0, 0.0, 0.0, 1.741116412689019E9, 0.0, 2025-03-04 13:26:52.689
60.0, -66976.15289403831, -62297.86572430918, -57993.657349784065, -59500.41079526077, -67683.96558570451, -64085.24532142226, -72814.85322890917, -68592.63105304612, 0.084, 0.964, -0.20600000000000002, 192.0, 0.0, 0.0, 0.0, 0.0, 0.0, 0.0, 0.0, 0.0, 0.0, 1.74111641268905E9, 0.0, 2025-03-04 13:26:52.689
61.0, -66974.67767890426, -62290.89198003912, -57992.91974221704, -59506.11049009687, -67677.48357981248, -64084.66417606642, -72814.1379730866, -68591.37935535662, 0.084, 0.964, -0.20600000000000002, 192.0, 0.0, 0.0, 0.0, 0.0, 0.0, 0.0, 0.0, 0.0, 0.0, 1.741116412689092E9, 0.0, 2025-03-04 13:26:52.689
62.0, -66965.24524274412, -62327.92882060156, -57984.64959676858, -59494.331120768926, -67668.87815819719, -64072.34836487155, -72814.24973180887, -68591.04407918979, 0.084, 0.964, -0.20600000000000002, 192.0, 0.0, 0.0, 0.0, 0.0, 0.0, 0.0, 0.0, 0.0, 0.0, 1.741116412748977E9, 0.0, 2025-03-04 13:26:52.748
63.0, -66960.48432117514, -62352.15811159112, -57980.11219264415, -59485.56923694244, -67669.52635878639, -64072.66128929392, -72812.95333063047, -68589.50180882237, 0.084, 0.964, -0.20600000000000002, 192.0, 0.0, 0.0, 0.0, 0.0, 0.0, 0.0, 0.0, 0.0, 0.0, 1.741116412749023E9, 0.0, 2025-03-04 13:26:52.749
64.0, -66971.39197246933, -62304.9065238126, -57984.94016944649, -59489.34668175539, -67681.50689381444, -64087.368737145516, -72823.6374644801, -68588.25011113287, 0.084, 0.964, -0.20600000000000002, 192.0, 0.0, 0.0, 0.0, 0.0, 0.0, 0.0, 0.0, 0.0, 0.0, 1.741116412749086E9, 0.0, 2025-03-04 13:26:52.749
65.0, -66964.19471075472, -62272.83177051923, -57979.866323455135, -59480.09305955089, -67674.13081814419, -64080.19382717536, -72818.29539755528, -68584.7855907423, 0.084, 0.964, -0.20600000000000002, 192.0, 0.0, 0.0, 0.0, 0.0, 0.0, 0.0, 0.0, 0.0, 0.0, 1.741116412749117E9, 0.0, 2025-03-04 13:26:52.749
66.0, -66953.555280394, -62307.07464302477, -57967.41640179353, -59467.687841378196, -67661.43502729357, -64068.570920058606, -72807.94653987247, -68573.34149758119, 0.084, 0.964, -0.20600000000000002, 192.0, 0.0, 0.0, 0.0, 0.0, 0.0, 0.0, 0.0, 0.0, 0.0, 1.741116412749148E9, 0.0, 2025-03-04 13:26:52.749
67.0, -66956.03632402854, -62351.59931797974, -57969.62922449461, -59488.87729512183, -67665.43598955107, -64078.271577152205, -72816.21668532093, -68581.11990465164, 0.08600000000000001, 0.96, -0.20400000000000001, 192.0, 2.0, 176.0, 30.0, 0.0, 249.0, 160.0, 0.0, 0.0, 0.0, 1.741116412749178E9, 0.0, 2025-03-04 13:26:52.749
68.0, -66952.84002457143, -62313.556648916805, -57958.31924180022, -59479.89189385079, -67658.8198731923, -64075.09762943955, -72807.186580561, -68588.83125648872, 0.08600000000000001, 0.96, -0.20400000000000001, 192.0, 0.0, 0.0, 0.0, 0.0, 0.0, 0.0, 0.0, 0.0, 0.0, 1.741116412749211E9, 0.0, 2025-03-04 13:26:52.749
69.0, -66962.96536480969, -62270.842465262715, -57962.253148824355, -59477.276739749526, -67661.88206218267, -64078.897425996955, -72804.75024041536, -68593.68158503552, 0.08600000000000001, 0.96, -0.20400000000000001, 192.0, 0.0, 0.0, 0.0, 0.0, 0.0, 0.0, 0.0, 0.0, 0.0, 1.741116412749249E9, 0.0, 2025-03-04 13:26:52.749
70.0, -66961.1548735088, -62306.53820115783, -57966.2317593374, -59487.603245687875, -67660.04921913735, -64074.74000152827, -72806.65013869407, -68578.0353639168, 0.08600000000000001, 0.96, -0.20400000000000001, 192.0, 0.0, 0.0, 0.0, 0.0, 0.0, 0.0, 0.0, 0.0, 0.0, 1.741116412749279E9, 0.0, 2025-03-04 13:26:52.749
71.0, -66962.16070200929, -62356.49435001545, -57970.07625938371, -59501.170754572246, -67660.56330925981, -64073.48830383877, -72816.26138880986, -68581.3881255851, 0.08600000000000001, 0.96, -0.20400000000000001, 192.0, 0.0, 0.0, 0.0, 0.0, 0.0, 0.0, 0.0, 0.0, 0.0, 1.74111641274931E9, 0.0, 2025-03-04 13:26:52.749
72.0, -66961.91483282029, -62337.38360850616, -57970.61270125064, -59500.27668479404, -67660.98799240447, -64073.46595209432, -72827.14668835959, -68581.54458779629, 0.08600000000000001, 0.96, -0.20400000000000001, 192.0, 0.0, 0.0, 0.0, 0.0, 0.0, 0.0, 0.0, 0.0, 0.0, 1.741116412749347E9, 0.0, 2025-03-04 13:26:52.749
73.0, -66974.29769924852, -62281.392488645615, -57980.17924787751, -59490.50897246707, -67668.83345470828, -64074.94116722837, -72827.0349296373, -68591.37935535662, 0.08600000000000001, 0.96, -0.20400000000000001, 192.0, 0.0, 0.0, 0.0, 0.0, 0.0, 0.0, 0.0, 0.0, 0.0, 1.741116412749378E9, 0.0, 2025-03-04 13:26:52.749
74.0, -66970.49790269112, -62302.33607320024, -57978.50286704337, -59485.368071242345, -67661.88206218267, -64062.53594905567, -72782.64436514907, -68577.29775634978, 0.08600000000000001, 0.96, -0.20400000000000001, 192.0, 0.0, 0.0, 0.0, 0.0, 0.0, 0.0, 0.0, 0.0, 0.0, 1.741116412749414E9, 0.0, 2025-03-04 13:26:52.749
75.0, -66957.13155950684, -62349.16297783411, -57968.57869250521, -59482.66351016326, -67651.77907368887, -64047.73909422626, -72772.2731557218, -68562.65736373155, 0.08600000000000001, 0.96, -0.20400000000000001, 192.0, 0.0, 0.0, 0.0, 0.0, 0.0, 0.0, 0.0, 0.0, 0.0, 1.741116412749445E9, 0.0, 2025-03-04 13:26:52.749
76.0, -66949.50961464758, -62331.48274796996, -57963.50484651385, -59477.92494033873, -67652.2708120669, -64049.52723378268, -72779.64923139206, -68559.61752648563, 0.08600000000000001, 0.96, -0.20400000000000001, 192.0, 0.0, 0.0, 0.0, 0.0, 0.0, 0.0, 0.0, 0.0, 0.0, 1.741116412749486E9, 0.0, 2025-03-04 13:26:52.749
77.0, -66955.00814378359, -62266.86385474967, -57969.00337564986, -59472.940501325196, -67661.52443427138, -64053.99758267374, -72788.61228091863, -68567.37358181163, 0.088, 0.9580000000000001, -0.20800000000000002, 192.0, 2.0, 192.0, 29.0, 240.0, 249.0, 128.0, 0.0, 0.0, 0.0, 1.741116412809296E9, 0.0, 2025-03-04 13:26:52.809
78.0, -66954.13642574984, -62275.91631125406, -57973.317262329736, -59473.65575714776, -67662.50791102742, -64046.37563781448, -72785.14776052807, -68563.95376490997, 0.088, 0.9580000000000001, -0.20800000000000002, 192.0, 0.0, 0.0, 0.0, 0.0, 0.0, 0.0, 0.0, 0.0, 0.0, 1.741116412809347E9, 0.0, 2025-03-04 13:26:52.809
79.0, -66961.28898397554, -62331.68391367006, -57981.185076378, -59499.136745826814, -67668.81110296382, -64066.246338635254, -72797.5306269563, -68578.14712263909, 0.088, 0.9580000000000001, -0.20800000000000002, 192.0, 0.0, 0.0, 0.0, 0.0, 0.0, 0.0, 0.0, 0.0, 0.0, 1.741116412809403E9, 0.0, 2025-03-04 13:26:52.809
80.0, -66957.53389090704, -62339.73054167397, -57979.39693682158, -59508.16685058676, -67666.28535584037, -64072.951861971844, -72797.03888857829, -68579.26470986185, 0.088, 0.9580000000000001, -0.20800000000000002, 192.0, 0.0, 0.0, 0.0, 0.0, 0.0, 0.0, 0.0, 0.0, 0.0, 1.741116412809444E9, 0.0, 2025-03-04 13:26:52.809
81.0, -66964.57469041046, -62278.91144501108, -57983.017919423335, -59511.16198434377, -67670.71100124253, -64081.15495218694, -72803.36443225914, -68574.16851212604, 0.088, 0.9580000000000001, -0.20800000000000002, 192.0, 0.0, 0.0, 0.0, 0.0, 0.0, 0.0, 0.0, 0.0, 0.0, 1.741116412809475E9, 0.0, 2025-03-04 13:26:52.809
82.0, -66973.69420214822, -62279.649052578105, -57991.10925091616, -59519.61094374787, -67672.70030649904, -64085.93822550037, -72811.29930154077, -68586.52902680982, 0.088, 0.9580000000000001, -0.20800000000000002, 192.0, 0.0, 0.0, 0.0, 0.0, 0.0, 0.0, 0.0, 0.0, 0.0, 1.741116412809506E9, 0.0, 2025-03-04 13:26:52.809
83.0, -66950.15781523679, -62326.1630327896, -57983.2861403568, -59513.91124891177, -67659.89275692616, -64073.98004221679, -72799.49758046838, -68575.3308028377, 0.088, 0.9580000000000001, -0.20800000000000002, 192.0, 0.0, 0.0, 0.0, 0.0, 0.0, 0.0, 0.0, 0.0, 0.0, 1.741116412809537E9, 0.0, 2025-03-04 13:26:52.809
84.0, -66960.66313513079, -62347.37483827768, -57990.4386985825, -59517.800452446994, -67666.93355642958, -64082.20548417634, -72798.26823452333, -68580.11407615115, 0.088, 0.9580000000000001, -0.20800000000000002, 192.0, 0.0, 0.0, 0.0, 0.0, 0.0, 0.0, 0.0, 0.0, 0.0, 1.741116412809574E9, 0.0, 2025-03-04 13:26:52.809
85.0, -66965.98285031115, -62291.62958760615, -57994.417309095545, -59513.66537972276, -67675.60603327824, -64090.654443580446, -72809.06412709525, -68596.63201530362, 0.088, 0.9580000000000001, -0.20800000000000002, 192.0, 0.0, 0.0, 0.0, 0.0, 0.0, 0.0, 0.0, 0.0, 0.0, 1.741116412809605E9, 0.0, 2025-03-04 13:26:52.809
86.0, -66950.2025187257, -62262.97465121444, -57982.883808956605, -59490.888952122805, -67666.08419014027, -64075.23173990628, -72799.11760081263, -68573.05092490328, 0.088, 0.9580000000000001, -0.20800000000000002, 192.0, 0.0, 0.0, 0.0, 0.0, 0.0, 0.0, 0.0, 0.0, 0.0, 1.741116412809635E9, 0.0, 2025-03-04 13:26:52.809
87.0, -66959.83612058594, -62315.07656753976, -57990.014015437846, -59502.62361796184, -67672.00740242093, -64084.999452233256, -72807.27598753881, -68587.19957914347, 0.088, 0.9540000000000001, -0.214, 192.0, 2.0, 192.0, 29.0, 208.0, 249.0, 80.0, 0.0, 0.0, 0.0, 1.741116412809672E9, 0.0, 2025-03-04 13:26:52.809
88.0, -66963.56886190997, -62353.52156800289, -57989.946960204485, -59514.71591171216, -67674.06376291082, -64093.1801907039, -72812.86392365265, -68596.58731181471, 0.088, 0.9540000000000001, -0.214, 192.0, 0.0, 0.0, 0.0, 0.0, 0.0, 0.0, 0.0, 0.0, 0.0, 1.741116412809706E9, 0.0, 2025-03-04 13:26:52.809
89.0, -66955.4551786727, -62293.70829984049, -57974.16662861904, -59485.68099566472, -67665.01130640642, -64080.41734461991, -72807.09717358317, -68585.1432186536, 0.088, 0.9540000000000001, -0.214, 192.0, 0.0, 0.0, 0.0, 0.0, 0.0, 0.0, 0.0, 0.0, 0.0, 1.741116412809742E9, 0.0, 2025-03-04 13:26:52.809
90.0, -66956.25984147309, -62257.67728777853, -57972.35613731816, -59477.902588594276, -67663.73725697247, -64080.797324275656, -72806.80660090526, -68589.25593963337, 0.088, 0.9540000000000001, -0.214, 192.0, 0.0, 0.0, 0.0, 0.0, 0.0, 0.0, 0.0, 0.0, 0.0, 1.741116412809773E9, 0.0, 2025-03-04 13:26:52.809
91.0, -66958.67382987426, -62309.5556866593, -57976.178285620015, -59493.66056843526, -67663.29022208336, -64082.741926043265, -72820.64233072309, -68595.38031761412, 0.088, 0.9540000000000001, -0.214, 192.0, 0.0, 0.0, 0.0, 0.0, 0.0, 0.0, 0.0, 0.0, 0.0, 1.741116412809814E9, 0.0, 2025-03-04 13:26:52.809
92.0, -66939.0042947536, -62342.59156496425, -57958.274538311314, -59487.0891555654, -67645.07355035229, -64068.25799563623, -72797.46357172294, -68572.44742780298, 0.088, 0.9540000000000001, -0.214, 192.0, 0.0, 0.0, 0.0, 0.0, 0.0, 0.0, 0.0, 0.0, 0.0, 1.74111641286944E9, 0.0, 2025-03-04 13:26:52.869
93.0, -66933.21519293966, -62295.69760509701, -57953.75948593134, -59475.91328333775, -67648.49336725395, -64073.175379416396, -72785.48303669489, -68582.52806455232, 0.088, 0.9540000000000001, -0.214, 192.0, 0.0, 0.0, 0.0, 0.0, 0.0, 0.0, 0.0, 0.0, 0.0, 1.741116412869486E9, 0.0, 2025-03-04 13:26:52.869
94.0, -66954.78462633904, -62259.62188954615, -57976.9829484204, -59489.88312362232, -67673.84024546627, -64091.23558893629, -72816.26138880986, -68605.08097470773, 0.088, 0.9540000000000001, -0.214, 192.0, 0.0, 0.0, 0.0, 0.0, 0.0, 0.0, 0.0, 0.0, 0.0, 1.741116412869517E9, 0.0, 2025-03-04 13:26:52.869
95.0, -66945.17337622326, -62300.27971271035, -57971.417364051034, -59505.05995810747, -67660.83153019327, -64085.31237665563, -72804.86199913765, -68584.22679713092, 0.088, 0.9540000000000001, -0.214, 192.0, 0.0, 0.0, 0.0, 0.0, 0.0, 0.0, 0.0, 0.0, 0.0, 1.741116412869579E9, 0.0, 2025-03-04 13:26:52.869
96.0, -66946.89446054632, -62348.47007375599, -57978.50286704337, -59516.749920457594, -67668.38641981917, -64091.548513358655, -72822.16224934605, -68594.93328272502, 0.088, 0.9540000000000001, -0.214, 192.0, 0.0, 0.0, 0.0, 0.0, 0.0, 0.0, 0.0, 0.0, 0.0, 1.74111641286961E9, 0.0, 2025-03-04 13:26:52.869
97.0, -66935.42801564075, -62307.99106454743, -57968.556340760755, -59479.37780372833, -67666.59828026274, -64072.258957893726, -72816.19433357648, -68586.86430297665, 0.088, 0.964, -0.212, 192.0, 2.0, 192.0, 30.0, 32.0, 249.0, 96.0, 0.0, 0.0, 0.0, 1.741116412869641E9, 0.0, 2025-03-04 13:26:52.869
98.0, -66936.54560286351, -62245.40618007257, -57967.61756749363, -59476.986167071605, -67664.76543721741, -64072.16955091591, -72801.71040316945, -68588.38422159961, 0.088, 0.964, -0.212, 192.0, 0.0, 0.0, 0.0, 0.0, 0.0, 0.0, 0.0, 0.0, 0.0, 1.741116412869675E9, 0.0, 2025-03-04 13:26:52.869
99.0, -66950.89542280382, -62281.70541306799, -57980.67098625553, -59494.62169344684, -67673.39321057717, -64079.9256062419, -72814.96498763145, -68599.78361127182, 0.088, 0.964, -0.212, 192.0, 0.0, 0.0, 0.0, 0.0, 0.0, 0.0, 0.0, 0.0, 0.0, 1.741116412869711E9, 0.0, 2025-03-04 13:26:52.869
100.0, -66946.49212914612, -62333.98614334896, -57980.67098625553, -59507.11631859736, -67675.24840536695, -64083.32307139911, -72823.36924354664, -68604.5892363297, 0.088, 0.964, -0.212, 192.0, 0.0, 0.0, 0.0, 0.0, 0.0, 0.0, 0.0, 0.0, 0.0, 1.741116412869742E9, 0.0, 2025-03-04 13:26:52.869
101.0, -66934.22102144016, -62325.17955603356, -57975.19480886398, -59499.136745826814, -67673.54967278834, -64080.46204810883, -72821.24582782338, -68595.69324203649, 0.088, 0.964, -0.212, 192.0, 0.0, 0.0, 0.0, 0.0, 0.0, 0.0, 0.0, 0.0, 0.0, 1.741116412869773E9, 0.0, 2025-03-04 13:26:52.869
102.0, -66954.82932982795, -62275.22340717595, -57991.7350997609, -59507.675112208744, -67688.03360319539, -64099.25986519574, -72833.58399076271, -68622.02359700485, 0.088, 0.964, -0.212, 192.0, 0.0, 0.0, 0.0, 0.0, 0.0, 0.0, 0.0, 0.0, 0.0, 1.741116412869809E9, 0.0, 2025-03-04 13:26:52.869
103.0, -66958.6067746409, -62290.37788991665, -58000.96637022095, -59513.754786700585, -67688.2794723844, -64097.47172563931, -72841.40710132207, -68613.7981550453, 0.088, 0.964, -0.212, 192.0, 0.0, 0.0, 0.0, 0.0, 0.0, 0.0, 0.0, 0.0, 0.0, 1.74111641286984E9, 0.0, 2025-03-04 13:26:52.869
104.0, -66948.68260010274, -62336.824814894775, -57989.11994565964, -59511.40785353278, -67672.16386463212, -64082.45135336535, -72824.97856914742, -68582.79628548578, 0.088, 0.964, -0.212, 192.0, 0.0, 0.0, 0.0, 0.0, 0.0, 0.0, 0.0, 0.0, 0.0, 1.741116412869877E9, 0.0, 2025-03-04 13:26:52.869
105.0, -66946.76035007958, -62345.81021616581, -57977.988776920894, -59511.67607446624, -67657.63523073617, -64084.03832722168, -72783.56078667173, -68583.06450641925, 0.088, 0.964, -0.212, 192.0, 0.0, 0.0, 0.0, 0.0, 0.0, 0.0, 0.0, 0.0, 0.0, 1.741116412869908E9, 0.0, 2025-03-04 13:26:52.869
106.0, -66964.73115262165, -62290.08731723873, -57997.61360855265, -59519.32037106996, -67684.09969617125, -64111.910952557446, -72813.84740040867, -68614.71457656796, 0.088, 0.964, -0.212, 192.0, 0.0, 0.0, 0.0, 0.0, 0.0, 0.0, 0.0, 0.0, 0.0, 1.74111641286995E9, 0.0, 2025-03-04 13:26:52.869
107.0, -66957.7574083516, -62287.405107904095, -57996.5407248188, -59519.141557114315, -67678.8693879687, -64105.07131875412, -72815.74729868738, -68614.82633529024, 0.08600000000000001, 0.9560000000000001, -0.21, 192.0, 2.0, 176.0, 29.0, 224.0, 249.0, 112.0, 0.0, 0.0, 0.0, 1.741116412929768E9, 0.0, 2025-03-04 13:26:52.929
108.0, -66946.58153612394, -62333.80732939331, -57988.31528285924, -59518.292190825014, -67670.59924252024, -64095.16949596042, -72805.42079274902, -68600.16359092755, 0.08600000000000001, 0.9560000000000001, -0.21, 192.0, 0.0, 0.0, 0.0, 0.0, 0.0, 0.0, 0.0, 0.0, 0.0, 1.741116412929817E9, 0.0, 2025-03-04 13:26:52.929
109.0, -66953.77879783855, -62361.05410588433, -57992.04802418328, -59529.490414797125, -67676.14247514516, -64101.91972278592, -72812.55099923027, -68596.09557343669, 0.08600000000000001, 0.9560000000000001, -0.21, 192.0, 0.0, 0.0, 0.0, 0.0, 0.0, 0.0, 0.0, 0.0, 0.0, 1.741116412929849E9, 0.0, 2025-03-04 13:26:52.929
110.0, -66961.53485316454, -62305.53237265735, -57990.10342241567, -59523.41074030528, -67678.08707691278, -64108.69230135588, -72831.72879597293, -68609.9983584879, 0.08600000000000001, 0.9560000000000001, -0.21, 192.0, 0.0, 0.0, 0.0, 0.0, 0.0, 0.0, 0.0, 0.0, 0.0, 1.74111641292991E9, 0.0, 2025-03-04 13:26:52.929
111.0, -66948.57084138047, -62279.0008519889, -57982.92851244551, -59508.47977500913, -67671.49331229847, -64095.66123433843, -72852.96295320547, -68605.30449215228, 0.08600000000000001, 0.9560000000000001, -0.21, 192.0, 0.0, 0.0, 0.0, 0.0, 0.0, 0.0, 0.0, 0.0, 0.0, 1.741116412929945E9, 0.0, 2025-03-04 13:26:52.929
112.0, -66947.11797799087, -62320.28452399785, -57978.94990193247, -59512.36897854436, -67666.01713490691, -64092.71080407033, -72820.59762723418, -68597.61549205965, 0.08600000000000001, 0.9560000000000001, -0.21, 192.0, 0.0, 0.0, 0.0, 0.0, 0.0, 0.0, 0.0, 0.0, 0.0, 1.741116412929976E9, 0.0, 2025-03-04 13:26:52.929
113.0, -66969.1567980238, -62366.820855953796, -57988.56115204825, -59527.27759209605, -67671.89564369865, -64107.0829757551, -72783.09140003817, -68610.31128291026, 0.08600000000000001, 0.9560000000000001, -0.21, 192.0, 0.0, 0.0, 0.0, 0.0, 0.0, 0.0, 0.0, 0.0, 0.0, 1.741116412930007E9, 0.0, 2025-03-04 13:26:52.930
114.0, -66958.0032775406, -62316.59648616272, -57980.58157927771, -59507.00455987508, -67672.58854777677, -64101.78561231919, -72793.70847865444, -68611.07124222175, 0.08600000000000001, 0.9560000000000001, -0.21, 192.0, 0.0, 0.0, 0.0, 0.0, 0.0, 0.0, 0.0, 0.0, 0.0, 1.741116412930038E9, 0.0, 2025-03-04 13:26:52.930
115.0, -66950.53779489253, -62273.927005997546, -57973.20550360746, -59492.20770504567, -67669.5710622753, -64095.30360642715, -72799.36347000164, -68605.48330610793, 0.08600000000000001, 0.9560000000000001, -0.21, 192.0, 0.0, 0.0, 0.0, 0.0, 0.0, 0.0, 0.0, 0.0, 0.0, 1.741116412930078E9, 0.0, 2025-03-04 13:26:52.930
116.0, -66953.89055656083, -62323.81609962179, -57974.770125719326, -59499.15909757127, -67664.9218994286, -64092.174362203405, -72800.77162990233, -68601.41528861705, 0.08600000000000001, 0.9560000000000001, -0.21, 192.0, 0.0, 0.0, 0.0, 0.0, 0.0, 0.0, 0.0, 0.0, 0.0, 1.741116412930109E9, 0.0, 2025-03-04 13:26:52.930
117.0, -66962.4512746872, -62369.883044944174, -57978.36875657663, -59501.34956852789, -67664.29605058386, -64091.19088544737, -72808.72885092841, -68604.85745726318, 0.092, 0.9580000000000001, -0.20600000000000002, 192.0, 2.0, 224.0, 29.0, 240.0, 249.0, 144.0, 0.0, 0.0, 0.0, 1.741116412930146E9, 0.0, 2025-03-04 13:26:52.930
118.0, -66971.95076608071, -62335.461358483, -57983.777878734814, -59499.15909757127, -67671.60507102073, -64095.057737238145, -72816.10492659867, -68607.941997998, 0.092, 0.9580000000000001, -0.20600000000000002, 192.0, 0.0, 0.0, 0.0, 0.0, 0.0, 0.0, 0.0, 0.0, 0.0, 1.74111641293018E9, 0.0, 2025-03-04 13:26:52.930
119.0, -66967.03338230055, -62282.33126191274, -57985.00722467986, -59488.72083291064, -67673.72848674399, -64090.14035345797, -72813.86975215313, -68606.6455968196, 0.092, 0.9580000000000001, -0.20600000000000002, 192.0, 0.0, 0.0, 0.0, 0.0, 0.0, 0.0, 0.0, 0.0, 0.0, 1.741116412930211E9, 0.0, 2025-03-04 13:26:52.930
120.0, -66963.4571031877, -62310.98619830444, -57982.16855313403, -59477.94729208318, -67666.59828026274, -64072.48247533828, -72813.4897724974, -68594.93328272502, 0.092, 0.9580000000000001, -0.20600000000000002, 192.0, 0.0, 0.0, 0.0, 0.0, 0.0, 0.0, 0.0, 0.0, 0.0, 1.741116412930247E9, 0.0, 2025-03-04 13:26:52.930
121.0, -66945.41924541227, -62343.79855916483, -57971.417364051034, -59469.990071057095, -67661.05504763783, -64063.83235023408, -72806.91835962754, -68580.941090696, 0.092, 0.9580000000000001, -0.20600000000000002, 192.0, 0.0, 0.0, 0.0, 0.0, 0.0, 0.0, 0.0, 0.0, 0.0, 1.741116412930284E9, 0.0, 2025-03-04 13:26:52.930
122.0, -66952.05771351549, -62327.392378734636, -57979.82161996623, -59475.35448972637, -67674.24257686647, -64068.123885169494, -72815.34496728718, -68595.91675948104, 0.092, 0.9580000000000001, -0.20600000000000002, 192.0, 0.0, 0.0, 0.0, 0.0, 0.0, 0.0, 0.0, 0.0, 0.0, 1.741116412989167E9, 0.0, 2025-03-04 13:26:52.989
123.0, -66959.03145778555, -62277.90561651059, -57985.83423922471, -59481.47886770712, -67680.00932693593, -64075.87994049549, -72825.31384531425, -68599.02365196033, 0.092, 0.9580000000000001, -0.20600000000000002, 192.0, 0.0, 0.0, 0.0, 0.0, 0.0, 0.0, 0.0, 0.0, 0.0, 1.741116412989213E9, 0.0, 2025-03-04 13:26:52.989
124.0, -66971.54843468052, -62314.92010532858, -57997.5912568082, -59502.10952783937, -67682.31155661483, -64087.078164467595, -72814.5403044868, -68607.47261136444, 0.092, 0.9580000000000001, -0.20600000000000002, 192.0, 0.0, 0.0, 0.0, 0.0, 0.0, 0.0, 0.0, 0.0, 0.0, 1.741116412989245E9, 0.0, 2025-03-04 13:26:52.989
125.0, -66952.43769317123, -62366.262062342415, -57986.97417819192, -59506.80339417498, -67666.71003898502, -64073.085972438574, -72806.04664159377, -68602.91285549555, 0.092, 0.9580000000000001, -0.20600000000000002, 192.0, 0.0, 0.0, 0.0, 0.0, 0.0, 0.0, 0.0, 0.0, 0.0, 1.741116412989302E9, 0.0, 2025-03-04 13:26:52.989
126.0, -66958.36090545189, -62354.88502441467, -57989.36581484864, -59500.50020223859, -67673.43791406607, -64074.874111995, -72818.56361848876, -68599.87301824964, 0.092, 0.9580000000000001, -0.20600000000000002, 192.0, 0.0, 0.0, 0.0, 0.0, 0.0, 0.0, 0.0, 0.0, 0.0, 1.741116412989333E9, 0.0, 2025-03-04 13:26:52.989
127.0, -66974.07418180397, -62295.8540673082, -58002.463937099456, -59505.10466159638, -67685.9772427055, -64082.85368476554, -72837.9425809315, -68592.60870130167, 0.094, 0.96, -0.20800000000000002, 192.0, 2.0, 240.0, 30.0, 0.0, 249.0, 128.0, 0.0, 0.0, 0.0, 1.741116412989363E9, 0.0, 2025-03-04 13:26:52.989
128.0, -66960.97605955316, -62298.08924175373, -57997.345387619185, -59511.47490876614, -67673.05793441033, -64082.20548417634, -72814.42854576452, -68595.13444842512, 0.094, 0.96, -0.20800000000000002, 192.0, 0.0, 0.0, 0.0, 0.0, 0.0, 0.0, 0.0, 0.0, 0.0, 1.741116412989396E9, 0.0, 2025-03-04 13:26:52.989
129.0, -66965.40170495531, -62347.71011444451, -58001.055777198766, -59512.3466267999, -67678.40000133515, -64086.92170225641, -72817.33427254371, -68602.37641362863, 0.094, 0.96, -0.20800000000000002, 192.0, 0.0, 0.0, 0.0, 0.0, 0.0, 0.0, 0.0, 0.0, 0.0, 1.741116412989427E9, 0.0, 2025-03-04 13:26:52.989
130.0, -66955.79045483953, -62353.23099532497, -57999.4911550869, -59513.68773146722, -67681.88687347018, -64088.24045517927, -72833.4945837849, -68616.43566089102, 0.094, 0.96, -0.20800000000000002, 192.0, 0.0, 0.0, 0.0, 0.0, 0.0, 0.0, 0.0, 0.0, 0.0, 1.741116412989464E9, 0.0, 2025-03-04 13:26:52.989
131.0, -66964.61939389937, -62288.85797129369, -58003.80504176677, -59508.300961053494, -67688.05595493985, -64093.76133605973, -72833.51693552935, -68610.17717244354, 0.094, 0.96, -0.20800000000000002, 192.0, 0.0, 0.0, 0.0, 0.0, 0.0, 0.0, 0.0, 0.0, 0.0, 1.741116412989495E9, 0.0, 2025-03-04 13:26:52.989
132.0, -66952.86237631588, -62278.46441012197, -57996.56307656325, -59506.892801152804, -67676.1201234007, -64087.860475523536, -72815.188505076, -68588.25011113287, 0.094, 0.96, -0.20800000000000002, 192.0, 0.0, 0.0, 0.0, 0.0, 0.0, 0.0, 0.0, 0.0, 0.0, 1.741116412989531E9, 0.0, 2025-03-04 13:26:52.989
133.0, -66954.98579203914, -62332.37681774817, -57997.993588208396, -59520.460310037175, -67676.5224548009, -64089.738022057776, -72809.68997594, -68598.55426532678, 0.094, 0.96, -0.20800000000000002, 192.0, 0.0, 0.0, 0.0, 0.0, 0.0, 0.0, 0.0, 0.0, 0.0, 1.741116412989562E9, 0.0, 2025-03-04 13:26:52.989
134.0, -66954.38229493884, -62358.796579694346, -57990.639864282595, -59516.07936812394, -67670.10750414223, -64087.18992318987, -72808.93001662851, -68602.21995141744, 0.094, 0.96, -0.20800000000000002, 192.0, 0.0, 0.0, 0.0, 0.0, 0.0, 0.0, 0.0, 0.0, 0.0, 1.741116412989593E9, 0.0, 2025-03-04 13:26:52.989
135.0, -66971.10139979141, -62303.543067400824, -57998.4406230975, -59514.29122856751, -67685.35139386075, -64106.81475482164, -72843.4411100675, -68625.24224820641, 0.094, 0.96, -0.20800000000000002, 192.0, 0.0, 0.0, 0.0, 0.0, 0.0, 0.0, 0.0, 0.0, 0.0, 1.741116412989629E9, 0.0, 2025-03-04 13:26:52.989
136.0, -66959.09851301891, -62279.581997344736, -57988.56115204825, -59507.58570523092, -67676.20953037853, -64103.21612396433, -72827.92899941553, -68607.5396665978, 0.094, 0.96, -0.20800000000000002, 192.0, 0.0, 0.0, 0.0, 0.0, 0.0, 0.0, 0.0, 0.0, 0.0, 1.741116412989665E9, 0.0, 2025-03-04 13:26:52.989
137.0, -66935.74094006311, -62317.02116930737, -57968.064602382736, -59497.37095801484, -67654.68480046807, -64084.999452233256, -72802.80563864775, -68591.02172744533, 0.084, 0.962, -0.20800000000000002, 192.0, 2.0, 160.0, 30.0, 16.0, 249.0, 128.0, 0.0, 0.0, 0.0, 1.741116413048969E9, 0.0, 2025-03-04 13:26:53.048
138.0, -66938.49020463112, -62350.48173075697, -57963.75071570286, -59501.036644105516, -67653.65662022312, -64081.95961498733, -72811.85809515216, -68598.91189323807, 0.084, 0.962, -0.20800000000000002, 192.0, 0.0, 0.0, 0.0, 0.0, 0.0, 0.0, 0.0, 0.0, 0.0, 1.741116413049018E9, 0.0, 2025-03-04 13:26:53.049
139.0, -66958.07033277396, -62309.1086517702, -57972.110268129145, -59498.75676617107, -67666.10654188473, -64084.64182432197, -72823.01161563536, -68584.87499772012, 0.084, 0.962, -0.20800000000000002, 192.0, 0.0, 0.0, 0.0, 0.0, 0.0, 0.0, 0.0, 0.0, 0.0, 1.74111641304905E9, 0.0, 2025-03-04 13:26:53.049
140.0, -66959.83612058594, -62271.8482937632, -57974.59131176369, -59487.893818365796, -67666.26300409592, -64078.003356218745, -72829.27010408284, -68587.40074484357, 0.084, 0.962, -0.20800000000000002, 192.0, 0.0, 0.0, 0.0, 0.0, 0.0, 0.0, 0.0, 0.0, 0.0, 1.74111641304911E9, 0.0, 2025-03-04 13:26:53.049
141.0, -66957.64564962931, -62317.24468675193, -57982.459125811954, -59499.852001649386, -67669.39224831967, -64079.23270216378, -72837.60730476466, -68594.57565481373, 0.084, 0.962, -0.20800000000000002, 192.0, 0.0, 0.0, 0.0, 0.0, 0.0, 0.0, 0.0, 0.0, 0.0, 1.741116413049141E9, 0.0, 2025-03-04 13:26:53.049
142.0, -66955.85751007289, -62355.04148662585, -57977.25116935387, -59498.26502779306, -67662.21733834951, -64070.11319042602, -72807.43244975, -68583.06450641925, 0.084, 0.962, -0.20800000000000002, 192.0, 0.0, 0.0, 0.0, 0.0, 0.0, 0.0, 0.0, 0.0, 0.0, 1.741116413049172E9, 0.0, 2025-03-04 13:26:53.049
143.0, -66951.34245769292, -62318.719901885976, -57975.4853815419, -59494.8452108914, -67661.27856508238, -64063.49707406725, -72810.9863771184, -68577.6330325166, 0.084, 0.962, -0.20800000000000002, 192.0, 0.0, 0.0, 0.0, 0.0, 0.0, 0.0, 0.0, 0.0, 0.0, 1.741116413049203E9, 0.0, 2025-03-04 13:26:53.049
144.0, -66940.25599244308, -62262.52761632534, -57975.66419549754, -59475.645062404285, -67662.12793137168, -64057.90913795342, -72816.8872376546, -68578.21417787245, 0.084, 0.962, -0.20800000000000002, 192.0, 0.0, 0.0, 0.0, 0.0, 0.0, 0.0, 0.0, 0.0, 0.0, 1.741116413049234E9, 0.0, 2025-03-04 13:26:53.049
145.0, -66936.52325111906, -62293.1048027402, -57972.37848906261, -59478.036699061005, -67649.81212017681, -64052.99175417326, -72775.35769645665, -68580.69522150699, 0.084, 0.962, -0.20800000000000002, 192.0, 0.0, 0.0, 0.0, 0.0, 0.0, 0.0, 0.0, 0.0, 0.0, 1.741116413049271E9, 0.0, 2025-03-04 13:26:53.049
146.0, -66944.92750703424, -62348.04539061134, -57981.5874077782, -59508.725644198144, -67657.23289933597, -64071.141370670965, -72782.10792328214, -68586.08199192071, 0.084, 0.962, -0.20800000000000002, 192.0, 0.0, 0.0, 0.0, 0.0, 0.0, 0.0, 0.0, 0.0, 0.0, 1.741116413049302E9, 0.0, 2025-03-04 13:26:53.049
147.0, -66936.0538644855, -62321.804442620814, -57975.37362281962, -59495.225190547135, -67655.24359407945, -64067.520388069206, -72786.80178961776, -68571.66511674704, 0.08600000000000001, 0.962, -0.20600000000000002, 192.0, 2.0, 176.0, 30.0, 16.0, 249.0, 144.0, 0.0, 0.0, 0.0, 1.741116413049341E9, 0.0, 2025-03-04 13:26:53.049
148.0, -66935.49507087411, -62254.056305176775, -57979.62045426613, -59480.80831537346, -67667.35823957423, -64072.14719917145, -72798.5364554568, -68587.95953845496, 0.08600000000000001, 0.962, -0.20600000000000002, 192.0, 0.0, 0.0, 0.0, 0.0, 0.0, 0.0, 0.0, 0.0, 0.0, 1.741116413049375E9, 0.0, 2025-03-04 13:26:53.049
149.0, -66929.32598940445, -62278.1514856996, -57977.072355398224, -59490.66543467825, -67662.57496626079, -64069.84496949256, -72795.07193506623, -68581.85751221866, 0.08600000000000001, 0.962, -0.20600000000000002, 192.0, 0.0, 0.0, 0.0, 0.0, 0.0, 0.0, 0.0, 0.0, 0.0, 1.741116413049406E9, 0.0, 2025-03-04 13:26:53.049
150.0, -66937.93141101973, -62327.52648920137, -57980.46982055543, -59506.35635928588, -67672.65560301013, -64084.127734199494, -72812.41688876355, -68603.65046306259, 0.08600000000000001, 0.962, -0.20600000000000002, 192.0, 0.0, 0.0, 0.0, 0.0, 0.0, 0.0, 0.0, 0.0, 0.0, 1.741116413049442E9, 0.0, 2025-03-04 13:26:53.049
151.0, -66935.29390517401, -62326.140681045144, -57975.15010537507, -59509.61971397635, -67675.74014374497, -64093.11313547053, -72802.179789803, -68616.39095740211, 0.08600000000000001, 0.962, -0.20600000000000002, 192.0, 0.0, 0.0, 0.0, 0.0, 0.0, 0.0, 0.0, 0.0, 0.0, 1.741116413049478E9, 0.0, 2025-03-04 13:26:53.049
152.0, -66933.08108247294, -62256.582052300226, -57968.17636110501, -59491.447745734185, -67681.39513509216, -64086.519370856215, -72801.01749909134, -68592.98868095741, 0.08600000000000001, 0.962, -0.20600000000000002, 192.0, 0.0, 0.0, 0.0, 0.0, 0.0, 0.0, 0.0, 0.0, 0.0, 1.741116413109218E9, 0.0, 2025-03-04 13:26:53.109
153.0, -66932.0976057169, -62266.5956338162, -57967.03642213779, -59491.47009747865, -67679.83051298029, -64082.20548417634, -72801.62099619163, -68580.20348312896, 0.08600000000000001, 0.962, -0.20600000000000002, 192.0, 0.0, 0.0, 0.0, 0.0, 0.0, 0.0, 0.0, 0.0, 0.0, 1.741116413109264E9, 0.0, 2025-03-04 13:26:53.109
154.0, -66930.93531500522, -62321.603276920716, -57963.862474425136, -59506.0434348635, -67675.62838502269, -64082.898388254456, -72795.58602518869, -68569.92168067953, 0.08600000000000001, 0.962, -0.20600000000000002, 192.0, 0.0, 0.0, 0.0, 0.0, 0.0, 0.0, 0.0, 0.0, 0.0, 1.741116413109295E9, 0.0, 2025-03-04 13:26:53.109
155.0, -66931.87408827235, -62338.300030028826, -57961.09085811268, -59510.31261805447, -67676.99184143446, -64086.228798178294, -72797.59768218968, -68572.24626210288, 0.08600000000000001, 0.962, -0.20600000000000002, 192.0, 0.0, 0.0, 0.0, 0.0, 0.0, 0.0, 0.0, 0.0, 0.0, 1.741116413109354E9, 0.0, 2025-03-04 13:26:53.109
156.0, -66922.95574223468, -62267.04266870531, -57943.0753520817, -59476.136800782304, -67660.40684704862, -64071.208425904326, -72767.13225449709, -68561.45036953097, 0.08600000000000001, 0.962, -0.20600000000000002, 192.0, 0.0, 0.0, 0.0, 0.0, 0.0, 0.0, 0.0, 0.0, 0.0, 1.741116413109386E9, 0.0, 2025-03-04 13:26:53.109
157.0, -66920.83232651143, -62252.64814527609, -57939.49907296885, -59472.3370042249, -67654.79655919035, -64066.33574561307, -72765.1205974961, -68555.6836194615, 0.088, 0.9580000000000001, -0.198, 192.0, 2.0, 192.0, 29.0, 240.0, 249.0, 208.0, 0.0, 0.0, 0.0, 1.741116413109416E9, 0.0, 2025-03-04 13:26:53.109
158.0, -66927.11316670336, -62312.68493088305, -57944.81878814922, -59490.01723408905, -67657.61287899171, -64071.856626493536, -72773.39074294457, -68562.433846287, 0.088, 0.9580000000000001, -0.198, 192.0, 0.0, 0.0, 0.0, 0.0, 0.0, 0.0, 0.0, 0.0, 0.0, 1.74111641310945E9, 0.0, 2025-03-04 13:26:53.109
159.0, -66923.15690793478, -62341.40692250812, -57935.98984908937, -59483.24465551909, -67647.4204835201, -64066.15693165743, -72764.0253620178, -68557.36000029564, 0.088, 0.9580000000000001, -0.198, 192.0, 0.0, 0.0, 0.0, 0.0, 0.0, 0.0, 0.0, 0.0, 0.0, 1.741116413109481E9, 0.0, 2025-03-04 13:26:53.109
160.0, -66927.56020159247, -62287.8521427932, -57940.46019798043, -59481.72473689613, -67652.62843997819, -64074.225911405796, -72779.22454824741, -68569.16172136804, 0.088, 0.9580000000000001, -0.198, 192.0, 0.0, 0.0, 0.0, 0.0, 0.0, 0.0, 0.0, 0.0, 0.0, 1.741116413109518E9, 0.0, 2025-03-04 13:26:53.109
161.0, -66924.38625387983, -62264.24870064839, -57943.56709045972, -59475.39919321528, -67650.70618995502, -64070.023783448196, -72779.44806569196, -68563.95376490997, 0.088, 0.9580000000000001, -0.198, 192.0, 0.0, 0.0, 0.0, 0.0, 0.0, 0.0, 0.0, 0.0, 0.0, 1.74111641310955E9, 0.0, 2025-03-04 13:26:53.109
162.0, -66927.8507742704, -62312.014378549386, -57942.337744514676, -59472.29230073599, -67645.3641230302, -64053.662306506914, -72762.7736643283, -68554.45427351646, 0.088, 0.9580000000000001, -0.198, 192.0, 0.0, 0.0, 0.0, 0.0, 0.0, 0.0, 0.0, 0.0, 0.0, 1.741116413109581E9, 0.0, 2025-03-04 13:26:53.109
163.0, -66931.42705338325, -62349.94528889004, -57940.68371542499, -59474.28160599251, -67647.12991084218, -64049.594289016044, -72759.55501312674, -68541.80318615475, 0.088, 0.9580000000000001, -0.198, 192.0, 0.0, 0.0, 0.0, 0.0, 0.0, 0.0, 0.0, 0.0, 0.0, 1.741116413109618E9, 0.0, 2025-03-04 13:26:53.109
164.0, -66937.08204473043, -62302.24666622242, -57940.19197704697, -59467.129047766815, -67656.3164778133, -64051.427132061384, -72775.42475169, -68539.6797704315, 0.088, 0.9580000000000001, -0.198, 192.0, 0.0, 0.0, 0.0, 0.0, 0.0, 0.0, 0.0, 0.0, 0.0, 1.741116413109649E9, 0.0, 2025-03-04 13:26:53.109
165.0, -66929.41539638226, -62254.7939127438, -57937.10743631214, -59456.064934261434, -67656.85291968023, -64052.25414660623, -72782.19733025997, -68550.94504963697, 0.088, 0.9580000000000001, -0.198, 192.0, 0.0, 0.0, 0.0, 0.0, 0.0, 0.0, 0.0, 0.0, 0.0, 1.741116413109686E9, 0.0, 2025-03-04 13:26:53.109
166.0, -66907.89066647181, -62283.202979946494, -57924.18812801697, -59451.9298615372, -67640.37968401668, -64039.17837609987, -72765.4782254074, -68538.428072742, 0.088, 0.9580000000000001, -0.198, 192.0, 0.0, 0.0, 0.0, 0.0, 0.0, 0.0, 0.0, 0.0, 0.0, 1.741116413109717E9, 0.0, 2025-03-04 13:26:53.109
167.0, -66917.70308228768, -62327.79471013483, -57927.60794491863, -59467.24080648909, -67642.6595619511, -64047.806149459626, -72761.74548408335, -68543.50191873335, 0.084, 0.96, -0.194, 192.0, 2.0, 160.0, 30.0, 0.0, 249.0, 240.0, 0.0, 0.0, 0.0, 1.741116413169546E9, 0.0, 2025-03-04 13:26:53.169
168.0, -66927.2472771701, -62303.74423310092, -57933.28528801028, -59473.52164668103, -67646.72757944198, -64057.8197309756, -72768.4733591644, -68558.58934624068, 0.084, 0.96, -0.194, 192.0, 0.0, 0.0, 0.0, 0.0, 0.0, 0.0, 0.0, 0.0, 0.0, 1.741116413169595E9, 0.0, 2025-03-04 13:26:53.169
169.0, -66924.56506783546, -62256.6938110225, -57939.61083169113, -59476.78500137151, -67651.0638178663, -64059.674925765394, -72777.77168485781, -68562.72441896492, 0.084, 0.96, -0.194, 192.0, 0.0, 0.0, 0.0, 0.0, 0.0, 0.0, 0.0, 0.0, 0.0, 1.741116413169626E9, 0.0, 2025-03-04 13:26:53.169
170.0, -66928.65543707079, -62289.88615153863, -57946.60692770564, -59487.2903212655, -67653.94719290105, -64054.086989651565, -72775.55886215674, -68555.05777061675, 0.084, 0.96, -0.194, 192.0, 0.0, 0.0, 0.0, 0.0, 0.0, 0.0, 0.0, 0.0, 0.0, 1.741116413169687E9, 0.0, 2025-03-04 13:26:53.169
171.0, -66926.46496611416, -62343.53033823137, -57946.09283758317, -59497.14744057029, -67646.43700676406, -64047.62733550398, -72757.63276310358, -68546.6311629571, 0.084, 0.96, -0.194, 192.0, 0.0, 0.0, 0.0, 0.0, 0.0, 0.0, 0.0, 0.0, 0.0, 1.741116413169719E9, 0.0, 2025-03-04 13:26:53.169
172.0, -66940.63597209883, -62333.38264624866, -57962.76723894683, -59512.92777215574, -67666.26300409592, -64063.027687433685, -72785.30422273926, -68556.28711656178, 0.084, 0.96, -0.194, 192.0, 0.0, 0.0, 0.0, 0.0, 0.0, 0.0, 0.0, 0.0, 0.0, 1.741116413169751E9, 0.0, 2025-03-04 13:26:53.169
173.0, -66946.69329484622, -62276.34099439871, -57971.12679137311, -59506.8480976639, -67674.8684257112, -64068.7720857587, -72793.23909202089, -68570.12284637963, 0.084, 0.96, -0.194, 192.0, 0.0, 0.0, 0.0, 0.0, 0.0, 0.0, 0.0, 0.0, 0.0, 1.741116413169782E9, 0.0, 2025-03-04 13:26:53.169
174.0, -66946.33566693493, -62295.161163230085, -57972.9819861629, -59508.7479959426, -67672.00740242093, -64067.11805666901, -72766.59581263016, -68557.36000029564, 0.084, 0.96, -0.194, 192.0, 0.0, 0.0, 0.0, 0.0, 0.0, 0.0, 0.0, 0.0, 0.0, 1.741116413169812E9, 0.0, 2025-03-04 13:26:53.169
175.0, -66943.04996050001, -62345.45258825453, -57968.51163727184, -59516.19112684621, -67669.92869018659, -64068.79443750316, -72771.8261208327, -68557.51646250683, 0.084, 0.96, -0.194, 192.0, 0.0, 0.0, 0.0, 0.0, 0.0, 0.0, 0.0, 0.0, 0.0, 1.74111641316985E9, 0.0, 2025-03-04 13:26:53.169
176.0, -66940.68067558773, -62347.82187316679, -57973.40666930755, -59516.77227220205, -67684.88200722719, -64085.53589410018, -72798.55880720125, -68565.45133178847, 0.084, 0.96, -0.194, 192.0, 0.0, 0.0, 0.0, 0.0, 0.0, 0.0, 0.0, 0.0, 0.0, 1.741116413169881E9, 0.0, 2025-03-04 13:26:53.169
177.0, -66948.77200708057, -62285.61696834767, -57972.91493092954, -59510.13380409883, -67691.49812358596, -64095.16949596042, -72813.51212424185, -68574.32497433723, 0.092, 0.9580000000000001, -0.19, 192.0, 2.0, 224.0, 29.0, 240.0, 250.0, 16.0, 0.0, 0.0, 0.0, 1.741116413169912E9, 0.0, 2025-03-04 13:26:53.169
178.0, -66928.58838183741, -62278.7996862888, -57956.26288131034, -59496.87921963683, -67671.56036753183, -64085.200617933355, -72768.94274579796, -68561.80799744224, 0.092, 0.9580000000000001, -0.19, 192.0, 0.0, 0.0, 0.0, 0.0, 0.0, 0.0, 0.0, 0.0, 0.0, 1.741116413169957E9, 0.0, 2025-03-04 13:26:53.169
179.0, -66929.05776847099, -62326.18538453405, -57954.56414873173, -59501.48367899462, -67669.23578610847, -64087.74871680126, -72771.93787955497, -68557.20353808446, 0.092, 0.9580000000000001, -0.19, 192.0, 0.0, 0.0, 0.0, 0.0, 0.0, 0.0, 0.0, 0.0, 0.0, 1.741116413169988E9, 0.0, 2025-03-04 13:26:53.169
180.0, -66925.5485445915, -62342.23393705296, -57949.62441320711, -59502.15423132828, -67665.79361746236, -64089.29098716867, -72774.1283505116, -68566.99360215588, 0.092, 0.9580000000000001, -0.19, 192.0, 0.0, 0.0, 0.0, 0.0, 0.0, 0.0, 0.0, 0.0, 0.0, 1.741116413170028E9, 0.0, 2025-03-04 13:26:53.170
181.0, -66929.37069289335, -62277.3021194103, -57945.71285792743, -59488.810239888466, -67670.28631809787, -64090.40857439144, -72782.84553084917, -68578.95178543947, 0.092, 0.9580000000000001, -0.19, 192.0, 0.0, 0.0, 0.0, 0.0, 0.0, 0.0, 0.0, 0.0, 0.0, 1.741116413170059E9, 0.0, 2025-03-04 13:26:53.170
182.0, -66936.63500984132, -62273.703488552994, -57954.31827954272, -59496.566295214456, -67677.28241411239, -64096.71176632783, -72793.79788563227, -68573.25209060336, 0.092, 0.9580000000000001, -0.19, 192.0, 0.0, 0.0, 0.0, 0.0, 0.0, 0.0, 0.0, 0.0, 0.0, 1.741116413229793E9, 0.0, 2025-03-04 13:26:53.229
183.0, -66936.32208541896, -62329.560497946804, -57946.71868642792, -59490.71013816716, -67673.30380359934, -64091.66027208094, -72792.00974607584, -68568.64763124558, 0.092, 0.9580000000000001, -0.19, 192.0, 0.0, 0.0, 0.0, 0.0, 0.0, 0.0, 0.0, 0.0, 0.0, 1.741116413229838E9, 0.0, 2025-03-04 13:26:53.229
184.0, -66921.50287884509, -62350.79465517934, -57921.505918682335, -59465.85499833286, -67655.06478012381, -64069.21912064781, -72769.25567022034, -68544.41834025602, 0.092, 0.9580000000000001, -0.19, 192.0, 0.0, 0.0, 0.0, 0.0, 0.0, 0.0, 0.0, 0.0, 0.0, 1.74111641322987E9, 0.0, 2025-03-04 13:26:53.229
185.0, -66915.91494273127, -62286.53338987034, -57906.194973730446, -59448.53239638, -67647.19696607554, -64066.469856079806, -72757.78922531477, -68540.9761716099, 0.092, 0.9580000000000001, -0.19, 192.0, 0.0, 0.0, 0.0, 0.0, 0.0, 0.0, 0.0, 0.0, 0.0, 1.741116413229927E9, 0.0, 2025-03-04 13:26:53.229
186.0, -66923.96157073518, -62257.40906684507, -57910.08417726567, -59437.691800319175, -67656.53999525786, -64066.06752467961, -72774.06129527822, -68546.29588679026, 0.092, 0.9580000000000001, -0.19, 192.0, 0.0, 0.0, 0.0, 0.0, 0.0, 0.0, 0.0, 0.0, 0.0, 1.741116413229967E9, 0.0, 2025-03-04 13:26:53.229
187.0, -66920.9887887226, -62298.82684932076, -57906.37378768609, -59438.36235265283, -67655.19889059055, -64060.792512988155, -72769.680353365, -68541.15498556555, 0.082, 0.96, -0.196, 192.0, 2.0, 144.0, 30.0, 0.0, 249.0, 224.0, 0.0, 0.0, 0.0, 1.741116413229998E9, 0.0, 2025-03-04 13:26:53.229
188.0, -66914.88676248632, -62337.27184978389, -57903.803337073725, -59443.503253877556, -67650.23680332146, -64052.25414660623, -72755.86697529162, -68535.65645642954, 0.082, 0.96, -0.196, 192.0, 0.0, 0.0, 0.0, 0.0, 0.0, 0.0, 0.0, 0.0, 0.0, 1.741116413230031E9, 0.0, 2025-03-04 13:26:53.230
189.0, -66930.30946616047, -62290.46729689447, -57912.967552300404, -59440.485768376086, -67657.9258034141, -64058.11030365352, -72757.87863229259, -68539.43390124249, 0.082, 0.96, -0.196, 192.0, 0.0, 0.0, 0.0, 0.0, 0.0, 0.0, 0.0, 0.0, 0.0, 1.741116413230062E9, 0.0, 2025-03-04 13:26:53.230
190.0, -66928.58838183741, -62248.468369062946, -57922.93643032747, -59431.99210548307, -67660.16097785962, -64057.506806553225, -72763.33245793969, -68539.97034310941, 0.082, 0.96, -0.196, 192.0, 0.0, 0.0, 0.0, 0.0, 0.0, 0.0, 0.0, 0.0, 0.0, 1.7411164132301E9, 0.0, 2025-03-04 13:26:53.230
191.0, -66928.2978091595, -62288.0533084933, -57934.08995081067, -59440.485768376086, -67656.5176435134, -64053.01410591771, -72770.23914697637, -68542.6302006996, 0.082, 0.96, -0.196, 192.0, 0.0, 0.0, 0.0, 0.0, 0.0, 0.0, 0.0, 0.0, 0.0, 1.741116413230131E9, 0.0, 2025-03-04 13:26:53.230
192.0, -66913.45625084118, -62328.10763455721, -57928.770235630305, -59448.26417544654, -67641.00553286143, -64036.876146420975, -72766.3722951856, -68523.2735900013, 0.082, 0.96, -0.196, 192.0, 0.0, 0.0, 0.0, 0.0, 0.0, 0.0, 0.0, 0.0, 0.0, 1.741116413230163E9, 0.0, 2025-03-04 13:26:53.230
193.0, -66907.39892809378, -62293.23891320693, -57931.05011356475, -59447.30305043496, -67643.4195212626, -64037.524347010185, -72763.1759957285, -68526.44753771396, 0.082, 0.96, -0.196, 192.0, 0.0, 0.0, 0.0, 0.0, 0.0, 0.0, 0.0, 0.0, 0.0, 1.741116413230204E9, 0.0, 2025-03-04 13:26:53.230
194.0, -66923.71570154616, -62249.20597662997, -57945.35523001615, -59455.99787902807, -67654.46128302351, -64052.120036139495, -72754.34705666864, -68539.85858438714, 0.082, 0.96, -0.196, 192.0, 0.0, 0.0, 0.0, 0.0, 0.0, 0.0, 0.0, 0.0, 0.0, 1.741116413230236E9, 0.0, 2025-03-04 13:26:53.230
195.0, -66918.50774508808, -62284.052346235796, -57943.05300033725, -59465.25150123257, -67646.77228293089, -64046.755617470226, -72752.17893745648, -68532.88484011708, 0.082, 0.96, -0.196, 192.0, 0.0, 0.0, 0.0, 0.0, 0.0, 0.0, 0.0, 0.0, 0.0, 1.741116413230273E9, 0.0, 2025-03-04 13:26:53.230
196.0, -66924.07332945745, -62337.249498039426, -57952.686602197486, -59484.1387252973, -67657.99285864746, -64057.238585619765, -72765.90290855205, -68549.24631705837, 0.082, 0.96, -0.196, 192.0, 0.0, 0.0, 0.0, 0.0, 0.0, 0.0, 0.0, 0.0, 0.0, 1.741116413230305E9, 0.0, 2025-03-04 13:26:53.230
197.0, -66932.85756502837, -62329.13581480215, -57959.727401700904, -59489.86077187786, -67666.66533549612, -64066.738077013266, -72767.40047543055, -68557.09177936218, 0.088, 0.9580000000000001, -0.198, 192.0, 2.0, 192.0, 29.0, 240.0, 249.0, 208.0, 0.0, 0.0, 0.0, 1.741116413290101E9, 0.0, 2025-03-04 13:26:53.290
198.0, -66934.62335284035, -62262.03587794732, -57970.009204150345, -59486.59741718739, -67684.34556536026, -64081.04319346466, -72785.90771983954, -68574.6826022485, 0.088, 0.9580000000000001, -0.198, 192.0, 0.0, 0.0, 0.0, 0.0, 0.0, 0.0, 0.0, 0.0, 0.0, 1.741116413290149E9, 0.0, 2025-03-04 13:26:53.290
199.0, -66928.43191962624, -62283.337090413224, -57973.63018675211, -59491.15717305627, -67681.68570777008, -64079.90325449745, -72787.42763846251, -68567.66415448954, 0.088, 0.9580000000000001, -0.198, 192.0, 0.0, 0.0, 0.0, 0.0, 0.0, 0.0, 0.0, 0.0, 0.0, 1.741116413290181E9, 0.0, 2025-03-04 13:26:53.290
200.0, -66921.81580326745, -62335.39430324964, -57965.60591049265, -59498.086213837414, -67670.08515239778, -64074.002393961244, -72786.13123728409, -68560.13161660811, 0.088, 0.9580000000000001, -0.198, 192.0, 0.0, 0.0, 0.0, 0.0, 0.0, 0.0, 0.0, 0.0, 0.0, 1.741116413290235E9, 0.0, 2025-03-04 13:26:53.290
201.0, -66915.8925909868, -62326.18538453405, -57959.459180767444, -59491.98418760111, -67672.14151288767, -64077.422210862904, -72786.19829251747, -68564.55726201025, 0.088, 0.9580000000000001, -0.198, 192.0, 0.0, 0.0, 0.0, 0.0, 0.0, 0.0, 0.0, 0.0, 0.0, 1.741116413290275E9, 0.0, 2025-03-04 13:26:53.290
202.0, -66906.41545133776, -62253.20693888747, -57949.22208180691, -59466.30203322197, -67666.48652154047, -64066.939242713364, -72774.10599876715, -68553.3813897826, 0.088, 0.9580000000000001, -0.198, 192.0, 0.0, 0.0, 0.0, 0.0, 0.0, 0.0, 0.0, 0.0, 0.0, 1.741116413290317E9, 0.0, 2025-03-04 13:26:53.290
203.0, -66913.97034096364, -62256.000906944384, -57955.257052809844, -59475.33213798191, -67669.50400704193, -64068.79443750316, -72776.58704240168, -68538.98686635339, 0.088, 0.9580000000000001, -0.198, 192.0, 0.0, 0.0, 0.0, 0.0, 0.0, 0.0, 0.0, 0.0, 0.0, 1.74111641329034E9, 0.0, 2025-03-04 13:26:53.290
204.0, -66923.33572189043, -62313.04255879433, -57961.202616834955, -59495.33694926941, -67671.76153323193, -64075.544664328656, -72782.95728957144, -68546.72056993491, 0.088, 0.9580000000000001, -0.198, 192.0, 0.0, 0.0, 0.0, 0.0, 0.0, 0.0, 0.0, 0.0, 0.0, 1.741116413290362E9, 0.0, 2025-03-04 13:26:53.290
205.0, -66923.17925967924, -62335.371951505185, -57959.57093948972, -59495.76163241406, -67668.47582679699, -64077.73513528528, -72779.26925173632, -68555.0801223612, 0.088, 0.9580000000000001, -0.198, 192.0, 0.0, 0.0, 0.0, 0.0, 0.0, 0.0, 0.0, 0.0, 0.0, 1.741116413290402E9, 0.0, 2025-03-04 13:26:53.290
206.0, -66923.06750095695, -62274.64226182011, -57955.32410804321, -59482.931731096716, -67665.48069303998, -64073.48830383877, -72778.71045812493, -68555.79537818377, 0.088, 0.9580000000000001, -0.198, 192.0, 0.0, 0.0, 0.0, 0.0, 0.0, 0.0, 0.0, 0.0, 0.0, 1.741116413290423E9, 0.0, 2025-03-04 13:26:53.290
207.0, -66934.91392551827, -62266.640337305114, -57961.336727301685, -59482.03766131851, -67668.52053028591, -64073.44360034986, -72789.48399895239, -68558.14231135158, 0.082, 0.9580000000000001, -0.198, 192.0, 2.0, 144.0, 29.0, 240.0, 249.0, 208.0, 0.0, 0.0, 0.0, 1.741116413290445E9, 0.0, 2025-03-04 13:26:53.290
208.0, -66925.12386144685, -62313.91427682809, -57956.665212710526, -59486.59741718739, -67661.85971043822, -64066.22398689079, -72783.49373143837, -68554.81190142773, 0.082, 0.9580000000000001, -0.198, 192.0, 0.0, 0.0, 0.0, 0.0, 0.0, 0.0, 0.0, 0.0, 0.0, 1.741116413290478E9, 0.0, 2025-03-04 13:26:53.290
209.0, -66930.33181790494, -62344.804387665325, -57956.26288131034, -59497.460364992665, -67665.25717559543, -64074.2706148947, -72778.48694068038, -68558.81286368523, 0.082, 0.9580000000000001, -0.198, 192.0, 0.0, 0.0, 0.0, 0.0, 0.0, 0.0, 0.0, 0.0, 0.0, 1.7411164132905E9, 0.0, 2025-03-04 13:26:53.290
210.0, -66926.3979108808, -62285.728727069945, -57948.03743935078, -59479.13193453931, -67667.71586748552, -64075.85758875103, -72788.07583905171, -68563.32791606522, 0.082, 0.9580000000000001, -0.198, 192.0, 0.0, 0.0, 0.0, 0.0, 0.0, 0.0, 0.0, 0.0, 0.0, 1.741116413290525E9, 0.0, 2025-03-04 13:26:53.290
211.0, -66927.35903589238, -62259.48777907941, -57946.316355027724, -59478.796658372485, -67666.75474247393, -64069.956728214835, -72791.20508327545, -68562.2326805869, 0.082, 0.9580000000000001, -0.198, 192.0, 0.0, 0.0, 0.0, 0.0, 0.0, 0.0, 0.0, 0.0, 0.0, 1.741116413290547E9, 0.0, 2025-03-04 13:26:53.290
212.0, -66925.57089633595, -62304.459488923494, -57938.359134001636, -59478.39432697229, -67657.9258034141, -64062.20067288884, -72778.50929242483, -68552.21909907092, 0.082, 0.9580000000000001, -0.198, 192.0, 0.0, 0.0, 0.0, 0.0, 0.0, 0.0, 0.0, 0.0, 0.0, 1.741116413350182E9, 0.0, 2025-03-04 13:26:53.350
213.0, -66920.20647766668, -62341.89866088613, -57927.98792457437, -59474.14749552578, -67651.71201845551, -64055.78572223017, -72771.28967896577, -68550.60977347015, 0.082, 0.9580000000000001, -0.198, 192.0, 0.0, 0.0, 0.0, 0.0, 0.0, 0.0, 0.0, 0.0, 0.0, 1.741116413350208E9, 0.0, 2025-03-04 13:26:53.350
214.0, -66912.76334676307, -62293.01539576238, -57913.83927033416, -59457.92012905123, -67642.99483811794, -64047.515576781705, -72767.13225449709, -68544.06071234474, 0.082, 0.9580000000000001, -0.198, 192.0, 0.0, 0.0, 0.0, 0.0, 0.0, 0.0, 0.0, 0.0, 0.0, 1.74111641335023E9, 0.0, 2025-03-04 13:26:53.350
215.0, -66905.72254725963, -62238.387732313604, -57905.32325569669, -59442.8327015439, -67636.19990780353, -64041.30179182313, -72757.9233357815, -68537.7798721528, 0.082, 0.9580000000000001, -0.198, 192.0, 0.0, 0.0, 0.0, 0.0, 0.0, 0.0, 0.0, 0.0, 0.0, 1.741116413350253E9, 0.0, 2025-03-04 13:26:53.350
216.0, -66907.4436315827, -62274.396392631104, -57905.43501441897, -59443.212681199635, -67638.27862003788, -64044.58749825806, -72754.41411190202, -68540.88676463209, 0.082, 0.9580000000000001, -0.198, 192.0, 0.0, 0.0, 0.0, 0.0, 0.0, 0.0, 0.0, 0.0, 0.0, 1.741116413350286E9, 0.0, 2025-03-04 13:26:53.350
217.0, -66910.28230312852, -62325.715997900494, -57906.8655260641, -59457.07076276193, -67639.77618691638, -64053.8187687181, -72763.2206992174, -68554.67779096101, 0.088, 0.966, -0.198, 192.0, 2.0, 192.0, 30.0, 48.0, 249.0, 208.0, 0.0, 0.0, 0.0, 1.741116413350307E9, 0.0, 2025-03-04 13:26:53.350
218.0, -66916.56314332047, -62300.212657476986, -57908.83247957617, -59449.85114930286, -67648.02398062039, -64062.80416998913, -72768.11573125311, -68559.30460206326, 0.088, 0.966, -0.198, 192.0, 0.0, 0.0, 0.0, 0.0, 0.0, 0.0, 0.0, 0.0, 0.0, 1.741116413350331E9, 0.0, 2025-03-04 13:26:53.350
219.0, -66910.77404150653, -62239.192395114, -57903.378653929074, -59435.12134970682, -67645.09590209674, -64055.24928036324, -72760.76200732733, -68542.00435185485, 0.088, 0.966, -0.198, 192.0, 0.0, 0.0, 0.0, 0.0, 0.0, 0.0, 0.0, 0.0, 0.0, 1.741116413350354E9, 0.0, 2025-03-04 13:26:53.350
220.0, -66903.040337925, -62262.03587794732, -57901.90343879502, -59435.00959098454, -67638.45743399352, -64045.369809314, -72759.42090266, -68539.2774390313, 0.088, 0.966, -0.198, 192.0, 0.0, 0.0, 0.0, 0.0, 0.0, 0.0, 0.0, 0.0, 0.0, 1.741116413350378E9, 0.0, 2025-03-04 13:26:53.350
221.0, -66903.50972455856, -62309.37687270366, -57903.57981962917, -59445.04552424497, -67638.09980608223, -64044.83336744707, -72769.0768562647, -68538.58453495319, 0.088, 0.966, -0.198, 192.0, 0.0, 0.0, 0.0, 0.0, 0.0, 0.0, 0.0, 0.0, 0.0, 1.741116413350404E9, 0.0, 2025-03-04 13:26:53.350
222.0, -66909.96937870614, -62299.922084799065, -57911.93937205546, -59450.968736525625, -67646.1687858306, -64054.89165245195, -72774.30716446725, -68555.23658457238, 0.088, 0.966, -0.198, 192.0, 0.0, 0.0, 0.0, 0.0, 0.0, 0.0, 0.0, 0.0, 0.0, 1.741116413350426E9, 0.0, 2025-03-04 13:26:53.350
223.0, -66908.58357054992, -62240.46644454795, -57916.43207269098, -59442.8327015439, -67651.95788764452, -64056.72449549729, -72786.82414136222, -68568.42411380103, 0.088, 0.966, -0.198, 192.0, 0.0, 0.0, 0.0, 0.0, 0.0, 0.0, 0.0, 0.0, 0.0, 1.74111641335045E9, 0.0, 2025-03-04 13:26:53.350
224.0, -66900.82751522392, -62249.80947373027, -57908.60896213162, -59437.28946891898, -67640.44673925004, -64043.7157802243, -72766.59581263016, -68538.09279657518, 0.088, 0.966, -0.198, 192.0, 0.0, 0.0, 0.0, 0.0, 0.0, 0.0, 0.0, 0.0, 0.0, 1.741116413350471E9, 0.0, 2025-03-04 13:26:53.350
225.0, -66919.60298056639, -62311.388529704636, -57921.86354659362, -59461.474056419625, -67646.97344863099, -64051.13655938346, -72772.40726618854, -68545.89355539007, 0.088, 0.966, -0.198, 192.0, 0.0, 0.0, 0.0, 0.0, 0.0, 0.0, 0.0, 0.0, 0.0, 1.741116413350497E9, 0.0, 2025-03-04 13:26:53.350
226.0, -66908.18123914972, -62316.19415476253, -57919.829537848185, -59455.304974949955, -67646.54876548634, -64044.94512616935, -72774.64244063407, -68550.47566300341, 0.088, 0.966, -0.198, 192.0, 0.0, 0.0, 0.0, 0.0, 0.0, 0.0, 0.0, 0.0, 0.0, 1.741116413350518E9, 0.0, 2025-03-04 13:26:53.350
227.0, -66910.88580022882, -62254.77156099935, -57927.652648407544, -59450.6334603588, -67653.63426847867, -64054.6681350074, -72779.26925173632, -68551.05680835925, 0.084, 0.966, -0.20400000000000001, 192.0, 2.0, 160.0, 30.0, 48.0, 249.0, 160.0, 0.0, 0.0, 0.0, 1.741116413409152E9, 0.0, 2025-03-04 13:26:53.409
228.0, -66913.23273339662, -62257.051438933784, -57932.90530835454, -59457.540149395485, -67650.66148646611, -64057.68562050887, -72762.14781548355, -68542.45138674395, 0.084, 0.966, -0.20400000000000001, 192.0, 0.0, 0.0, 0.0, 0.0, 0.0, 0.0, 0.0, 0.0, 0.0, 1.741116413409188E9, 0.0, 2025-03-04 13:26:53.409
229.0, -66916.92077123174, -62314.33895997274, -57941.60013694765, -59472.56052166945, -67651.93553590006, -64064.34644035655, -72771.35673419914, -68554.61073572763, 0.084, 0.966, -0.20400000000000001, 192.0, 0.0, 0.0, 0.0, 0.0, 0.0, 0.0, 0.0, 0.0, 0.0, 1.741116413409209E9, 0.0, 2025-03-04 13:26:53.409
230.0, -66917.01017820957, -62335.14843406063, -57946.27165153881, -59481.657681662764, -67654.46128302351, -64065.03934443466, -72782.9796413159, -68555.46010201694, 0.084, 0.966, -0.20400000000000001, 192.0, 0.0, 0.0, 0.0, 0.0, 0.0, 0.0, 0.0, 0.0, 0.0, 1.74111641340923E9, 0.0, 2025-03-04 13:26:53.409
231.0, -66919.37946312183, -62278.97850024444, -57950.67494519651, -59481.43416421821, -67656.29412606885, -64070.40376310394, -72779.53747266978, -68561.24920383087, 0.084, 0.966, -0.20400000000000001, 192.0, 0.0, 0.0, 0.0, 0.0, 0.0, 0.0, 0.0, 0.0, 0.0, 1.74111641340926E9, 0.0, 2025-03-04 13:26:53.409
232.0, -66916.18316366473, -62257.833749989724, -57955.59232897667, -59470.57121641293, -67655.84709117975, -64066.11222816852, -72768.6745248645, -68565.04900038827, 0.084, 0.966, -0.20400000000000001, 192.0, 0.0, 0.0, 0.0, 0.0, 0.0, 0.0, 0.0, 0.0, 0.0, 1.741116413409281E9, 0.0, 2025-03-04 13:26:53.409
233.0, -66924.98975098011, -62309.42157619257, -57961.001451134856, -59482.41764097424, -67658.4175417921, -64064.569957801104, -72777.8834435801, -68556.19770958397, 0.084, 0.966, -0.20400000000000001, 192.0, 0.0, 0.0, 0.0, 0.0, 0.0, 0.0, 0.0, 0.0, 0.0, 1.741116413409301E9, 0.0, 2025-03-04 13:26:53.409
234.0, -66921.61463756736, -62338.657657940115, -57958.52040750032, -59488.1396875548, -67657.00938189142, -64063.16179790042, -72773.30133596675, -68539.63506694259, 0.084, 0.966, -0.20400000000000001, 192.0, 0.0, 0.0, 0.0, 0.0, 0.0, 0.0, 0.0, 0.0, 0.0, 1.741116413409324E9, 0.0, 2025-03-04 13:26:53.409
235.0, -66926.95670449219, -62287.13688697063, -57958.833331922695, -59480.42833571772, -67659.2222045925, -64062.55830080013, -72770.50736790984, -68544.66420944504, 0.084, 0.966, -0.20400000000000001, 192.0, 0.0, 0.0, 0.0, 0.0, 0.0, 0.0, 0.0, 0.0, 0.0, 1.741116413409345E9, 0.0, 2025-03-04 13:26:53.409
236.0, -66923.71570154616, -62252.581090042724, -57953.40185802006, -59470.615919901844, -67655.55651850182, -64060.1219606545, -72761.5219666388, -68543.32310477771, 0.084, 0.966, -0.20400000000000001, 192.0, 0.0, 0.0, 0.0, 0.0, 0.0, 0.0, 0.0, 0.0, 0.0, 1.741116413409373E9, 0.0, 2025-03-04 13:26:53.409
237.0, -66916.11610843135, -62294.17768647405, -57939.2755555243, -59471.86761759134, -67638.30097178233, -64045.548623269635, -72749.89905952204, -68530.53790694928, 0.084, 0.96, -0.20600000000000002, 192.0, 2.0, 160.0, 30.0, 0.0, 249.0, 144.0, 0.0, 0.0, 0.0, 1.741116413409394E9, 0.0, 2025-03-04 13:26:53.409
238.0, -66929.70596906019, -62340.84812889673, -57949.55735797374, -59487.02210033204, -67650.28150681037, -64058.78085598718, -72764.18182422899, -68552.91200314903, 0.084, 0.96, -0.20600000000000002, 192.0, 0.0, 0.0, 0.0, 0.0, 0.0, 0.0, 0.0, 0.0, 0.0, 1.74111641340942E9, 0.0, 2025-03-04 13:26:53.409
239.0, -66927.47079461465, -62309.153355259106, -57951.56901497472, -59487.24561777659, -67656.56234700231, -64071.208425904326, -72778.3304784692, -68579.7340964954, 0.084, 0.96, -0.20600000000000002, 192.0, 0.0, 0.0, 0.0, 0.0, 0.0, 0.0, 0.0, 0.0, 0.0, 1.741116413409442E9, 0.0, 2025-03-04 13:26:53.409
240.0, -66936.12091971886, -62266.9979652164, -57958.58746273369, -59484.89868460879, -67662.73142847198, -64078.80801901913, -72788.16524602953, -68578.191826128, 0.084, 0.96, -0.20600000000000002, 192.0, 0.0, 0.0, 0.0, 0.0, 0.0, 0.0, 0.0, 0.0, 0.0, 1.741116413409463E9, 0.0, 2025-03-04 13:26:53.409
241.0, -66921.83815501191, -62299.05036676531, -57947.23277655039, -59475.91328333775, -67645.20766081901, -64056.65744026392, -72761.34315268316, -68519.80906961072, 0.084, 0.96, -0.20600000000000002, 192.0, 0.0, 0.0, 0.0, 0.0, 0.0, 0.0, 0.0, 0.0, 0.0, 1.741116413409487E9, 0.0, 2025-03-04 13:26:53.409
242.0, -66913.21038165217, -62330.52162295838, -57937.152139801045, -59469.431277445714, -67637.27279153738, -64050.018972160695, -72751.95542001193, -68521.08311904468, 0.084, 0.96, -0.20600000000000002, 192.0, 0.0, 0.0, 0.0, 0.0, 0.0, 0.0, 0.0, 0.0, 0.0, 1.741116413469434E9, 0.0, 2025-03-04 13:26:53.469
243.0, -66929.41539638226, -62308.99689304792, -57943.00829684833, -59474.21455075915, -67647.8675184092, -64060.859568221524, -72766.28288820779, -68541.17733731, 0.084, 0.96, -0.20600000000000002, 192.0, 0.0, 0.0, 0.0, 0.0, 0.0, 0.0, 0.0, 0.0, 0.0, 1.741116413469484E9, 0.0, 2025-03-04 13:26:53.469
244.0, -66928.58838183741, -62252.55873829827, -57942.0248200923, -59460.91526280824, -67651.28733531086, -64060.70310601033, -72774.41892318951, -68547.34641877966, 0.084, 0.96, -0.20600000000000002, 192.0, 0.0, 0.0, 0.0, 0.0, 0.0, 0.0, 0.0, 0.0, 0.0, 1.741116413469506E9, 0.0, 2025-03-04 13:26:53.469
245.0, -66922.1957829232, -62277.7491542994, -57939.834349135686, -59460.15530349676, -67647.68870445355, -64058.33382109807, -72768.98744928688, -68547.9275641355, 0.084, 0.96, -0.20600000000000002, 192.0, 0.0, 0.0, 0.0, 0.0, 0.0, 0.0, 0.0, 0.0, 0.0, 1.741116413469528E9, 0.0, 2025-03-04 13:26:53.469
246.0, -66923.22396316814, -62326.92299210108, -57935.542814200264, -59469.364222212345, -67645.63234396366, -64062.91592871141, -72760.76200732733, -68549.04515135827, 0.084, 0.96, -0.20600000000000002, 192.0, 0.0, 0.0, 0.0, 0.0, 0.0, 0.0, 0.0, 0.0, 0.0, 1.741116413469557E9, 0.0, 2025-03-04 13:26:53.469
247.0, -66917.90424798778, -62318.69755014152, -57929.15021528605, -59465.184445999206, -67648.2698498094, -64069.956728214835, -72769.23331847589, -68562.433846287, 0.09, 0.962, -0.20600000000000002, 192.0, 2.0, 208.0, 30.0, 16.0, 249.0, 144.0, 0.0, 0.0, 0.0, 1.741116413469578E9, 0.0, 2025-03-04 13:26:53.469
248.0, -66920.58645732242, -62257.7443430119, -57930.64778216455, -59454.05327726046, -67656.4729400245, -64076.41638236242, -72784.99129831688, -68567.15006436707, 0.09, 0.962, -0.20600000000000002, 192.0, 0.0, 0.0, 0.0, 0.0, 0.0, 0.0, 0.0, 0.0, 0.0, 1.741116413469601E9, 0.0, 2025-03-04 13:26:53.469
249.0, -66904.82847748142, -62259.68894477951, -57919.337799470166, -59440.19519569817, -67645.07355035229, -64055.47279780779, -72788.29935649627, -68542.00435185485, 0.09, 0.962, -0.20600000000000002, 192.0, 0.0, 0.0, 0.0, 0.0, 0.0, 0.0, 0.0, 0.0, 0.0, 1.741116413469622E9, 0.0, 2025-03-04 13:26:53.469
250.0, -66899.15113438977, -62297.28457895334, -57909.681845865474, -59435.0766462179, -67638.6138962047, -64047.47087329279, -72780.27508023681, -68534.44946222895, 0.09, 0.962, -0.20600000000000002, 192.0, 0.0, 0.0, 0.0, 0.0, 0.0, 0.0, 0.0, 0.0, 0.0, 1.741116413469643E9, 0.0, 2025-03-04 13:26:53.469
251.0, -66914.35032061939, -62307.253456980405, -57917.32614246919, -59440.46341663163, -67649.90152715464, -64060.032553676676, -72777.14583601306, -68550.76623568132, 0.09, 0.962, -0.20600000000000002, 192.0, 0.0, 0.0, 0.0, 0.0, 0.0, 0.0, 0.0, 0.0, 0.0, 1.741116413469668E9, 0.0, 2025-03-04 13:26:53.469
252.0, -66917.12193693184, -62242.20988061546, -57916.02974129078, -59428.5275850925, -67653.7683789454, -64058.132655397974, -72776.85526333515, -68553.15787233805, 0.09, 0.962, -0.20600000000000002, 192.0, 0.0, 0.0, 0.0, 0.0, 0.0, 0.0, 0.0, 0.0, 0.0, 1.74111641346969E9, 0.0, 2025-03-04 13:26:53.469
253.0, -66917.63602705432, -62240.98053467042, -57924.568107672705, -59435.456625873645, -67659.84805343725, -64062.55830080013, -72793.06027806524, -68560.69041021948, 0.09, 0.962, -0.20600000000000002, 192.0, 0.0, 0.0, 0.0, 0.0, 0.0, 0.0, 0.0, 0.0, 0.0, 1.741116413469715E9, 0.0, 2025-03-04 13:26:53.469
254.0, -66911.01991069554, -62290.959035272484, -57917.19203200246, -59442.8327015439, -67644.35829452971, -64050.644821005444, -72792.52383619832, -68543.45721524445, 0.09, 0.962, -0.20600000000000002, 192.0, 0.0, 0.0, 0.0, 0.0, 0.0, 0.0, 0.0, 0.0, 0.0, 1.741116413469736E9, 0.0, 2025-03-04 13:26:53.469
255.0, -66917.1442886763, -62310.24859073742, -57920.54479367075, -59445.78313181199, -67641.72078868399, -64053.41643731791, -72765.14294924056, -68545.80414841225, 0.09, 0.962, -0.20600000000000002, 192.0, 0.0, 0.0, 0.0, 0.0, 0.0, 0.0, 0.0, 0.0, 0.0, 1.741116413469758E9, 0.0, 2025-03-04 13:26:53.469
0.0, -66923.31337014596, -62255.12918891063, -57924.23283150588, -59449.53822488049, -67641.22905030598, -64057.4173995754, -72765.45587366294, -68547.36877052412, 0.09, 0.962, -0.20600000000000002, 192.0, 0.0, 0.0, 0.0, 0.0, 0.0, 0.0, 0.0, 0.0, 0.0, 1.741116413469783E9, 0.0, 2025-03-04 13:26:53.469
1.0, -66918.48539334362, -62235.6384677456, -57923.76344487232, -59437.42357938571, -67636.42342524808, -64047.515576781705, -72780.56565291472, -68550.96740138142, 0.08600000000000001, 0.96, -0.20800000000000002, 192.0, 2.0, 176.0, 30.0, 0.0, 249.0, 128.0, 0.0, 0.0, 0.0, 1.741116413529735E9, 0.0, 2025-03-04 13:26:53.529
2.0, -66915.57966656443, -62292.21073296198, -57928.94904958595, -59456.9366522952, -67639.463262494, -64050.935393683365, -72790.80275187525, -68547.9275641355, 0.08600000000000001, 0.96, -0.20800000000000002, 192.0, 0.0, 0.0, 0.0, 0.0, 0.0, 0.0, 0.0, 0.0, 0.0, 1.74111641352977E9, 0.0, 2025-03-04 13:26:53.529
3.0, -66917.18899216522, -62327.37002699018, -57926.98209607388, -59463.50806516506, -67634.45647173602, -64047.96261167081, -72756.31401018072, -68542.49609023286, 0.08600000000000001, 0.96, -0.20800000000000002, 192.0, 0.0, 0.0, 0.0, 0.0, 0.0, 0.0, 0.0, 0.0, 0.0, 1.741116413529791E9, 0.0, 2025-03-04 13:26:53.529
4.0, -66927.42609112574, -62278.19618918851, -57937.35330550114, -59460.267062219034, -67649.722713199, -64061.619527533, -72782.80082736026, -68558.38818054058, 0.08600000000000001, 0.96, -0.20800000000000002, 192.0, 0.0, 0.0, 0.0, 0.0, 0.0, 0.0, 0.0, 0.0, 0.0, 1.741116413529813E9, 0.0, 2025-03-04 13:26:53.529
5.0, -66931.0023702386, -62251.28468886432, -57945.198767804955, -59463.03867853149, -67653.1201783562, -64067.94507121386, -72778.46458893592, -68563.90906142104, 0.08600000000000001, 0.96, -0.20800000000000002, 192.0, 0.0, 0.0, 0.0, 0.0, 0.0, 0.0, 0.0, 0.0, 0.0, 1.741116413529841E9, 0.0, 2025-03-04 13:26:53.529
6.0, -66925.01210272456, -62289.081488738244, -57938.068561323715, -59457.562501139946, -67641.22905030598, -64048.7672744712, -72764.45004516245, -68550.94504963697, 0.08600000000000001, 0.96, -0.20800000000000002, 192.0, 0.0, 0.0, 0.0, 0.0, 0.0, 0.0, 0.0, 0.0, 0.0, 1.741116413529863E9, 0.0, 2025-03-04 13:26:53.529
7.0, -66919.55827707748, -62325.82775662277, -57932.72649439889, -59452.175730726216, -67633.89767812463, -64035.132710353464, -72757.94568752595, -68528.63800867058, 0.08600000000000001, 0.96, -0.20800000000000002, 192.0, 0.0, 0.0, 0.0, 0.0, 0.0, 0.0, 0.0, 0.0, 0.0, 1.741116413529885E9, 0.0, 2025-03-04 13:26:53.529
8.0, -66931.0470737275, -62290.93668352803, -57934.87226186661, -59451.84045455939, -67638.94917237153, -64040.810053445115, -72768.8309870757, -68534.51651746233, 0.08600000000000001, 0.96, -0.20800000000000002, 192.0, 0.0, 0.0, 0.0, 0.0, 0.0, 0.0, 0.0, 0.0, 0.0, 1.741116413529906E9, 0.0, 2025-03-04 13:26:53.529
9.0, -66936.59030635242, -62249.34008709671, -57944.70702942694, -59456.66843136173, -67651.51085275541, -64052.879995450974, -72786.26534775083, -68546.20647981245, 0.08600000000000001, 0.96, -0.20800000000000002, 192.0, 0.0, 0.0, 0.0, 0.0, 0.0, 0.0, 0.0, 0.0, 0.0, 1.741116413529929E9, 0.0, 2025-03-04 13:26:53.529
10.0, -66928.07429171495, -62282.26420667937, -57936.23571827838, -59453.87446330482, -67637.94334387104, -64041.27944007867, -72768.36160044213, -68525.32995049118, 0.08600000000000001, 0.96, -0.20800000000000002, 192.0, 0.0, 0.0, 0.0, 0.0, 0.0, 0.0, 0.0, 0.0, 0.0, 1.741116413529953E9, 0.0, 2025-03-04 13:26:53.529
11.0, -66936.36678890786, -62332.39916949263, -57938.984982846385, -59463.66452737624, -67638.18921306005, -64043.9169459244, -72761.90194629454, -68531.76725289432, 0.084, 0.9580000000000001, -0.21, 192.0, 2.0, 160.0, 29.0, 240.0, 249.0, 112.0, 0.0, 0.0, 0.0, 1.741116413529974E9, 0.0, 2025-03-04 13:26:53.529
12.0, -66937.3502656639, -62312.39435820513, -57934.916965355515, -59461.65287037526, -67633.65180893563, -64041.03357088967, -72759.28679219328, -68532.43780522798, 0.084, 0.9580000000000001, -0.21, 192.0, 0.0, 0.0, 0.0, 0.0, 0.0, 0.0, 0.0, 0.0, 0.0, 1.741116413529997E9, 0.0, 2025-03-04 13:26:53.529
13.0, -66936.03151274103, -62254.682154021524, -57937.42036073451, -59453.71800109363, -67635.59641070323, -64045.72743722528, -72759.89028929357, -68546.13942457907, 0.084, 0.9580000000000001, -0.21, 192.0, 0.0, 0.0, 0.0, 0.0, 0.0, 0.0, 0.0, 0.0, 0.0, 1.741116413530023E9, 0.0, 2025-03-04 13:26:53.530
14.0, -66931.15883244977, -62279.09025896672, -57937.509767712334, -59448.51004463554, -67631.55074495682, -64038.2619545772, -72757.94568752595, -68534.6282761846, 0.084, 0.9580000000000001, -0.21, 192.0, 0.0, 0.0, 0.0, 0.0, 0.0, 0.0, 0.0, 0.0, 0.0, 1.741116413530045E9, 0.0, 2025-03-04 13:26:53.530
15.0, -66919.2453526551, -62325.224259522474, -57923.9199070835, -59441.268079432026, -67615.23397150445, -64023.01806485869, -72743.03707397426, -68516.36690096461, 0.084, 0.9580000000000001, -0.21, 192.0, 0.0, 0.0, 0.0, 0.0, 0.0, 0.0, 0.0, 0.0, 0.0, 1.741116413530069E9, 0.0, 2025-03-04 13:26:53.530
16.0, -66934.44453888471, -62322.631457165655, -57933.01706707681, -59444.50908237804, -67628.42150073308, -64039.17837609987, -72760.2255654604, -68539.70212217595, 0.084, 0.9580000000000001, -0.21, 192.0, 0.0, 0.0, 0.0, 0.0, 0.0, 0.0, 0.0, 0.0, 0.0, 1.741116413590081E9, 0.0, 2025-03-04 13:26:53.590
17.0, -66938.49020463112, -62263.488741336914, -57940.34843925815, -59442.318611421426, -67639.6644281941, -64050.175434371886, -72777.59287090217, -68556.04124737278, 0.084, 0.9580000000000001, -0.21, 192.0, 0.0, 0.0, 0.0, 0.0, 0.0, 0.0, 0.0, 0.0, 0.0, 1.741116413590121E9, 0.0, 2025-03-04 13:26:53.590
18.0, -66942.2005942107, -62275.42457287605, -57943.63414569308, -59444.77730331151, -67640.13381482767, -64048.409646559914, -72774.35186795615, -68542.2278692994, 0.084, 0.9580000000000001, -0.21, 192.0, 0.0, 0.0, 0.0, 0.0, 0.0, 0.0, 0.0, 0.0, 0.0, 1.741116413590143E9, 0.0, 2025-03-04 13:26:53.590
19.0, -66932.41053013927, -62328.934649102055, -57940.5272532138, -59451.57223362592, -67635.79757640333, -64044.16281511341, -72779.33630696968, -68544.30658153375, 0.084, 0.9580000000000001, -0.21, 192.0, 0.0, 0.0, 0.0, 0.0, 0.0, 0.0, 0.0, 0.0, 0.0, 1.741116413590164E9, 0.0, 2025-03-04 13:26:53.590
20.0, -66920.0947189444, -62324.57605893327, -57930.20074727545, -59435.81425378493, -67627.99681758843, -64037.85962317701, -72774.50833016734, -68551.57089848172, 0.084, 0.9580000000000001, -0.21, 192.0, 0.0, 0.0, 0.0, 0.0, 0.0, 0.0, 0.0, 0.0, 0.0, 1.741116413590192E9, 0.0, 2025-03-04 13:26:53.590
21.0, -66931.38234989434, -62258.03491568982, -57939.52142471331, -59427.074721702906, -67642.70426544003, -64043.7157802243, -72785.70655413944, -68543.85954664464, 0.084, 0.9580000000000001, -0.20400000000000001, 192.0, 2.0, 160.0, 29.0, 240.0, 249.0, 160.0, 0.0, 0.0, 0.0, 1.741116413590213E9, 0.0, 2025-03-04 13:26:53.590
22.0, -66931.82938478344, -62253.296345865296, -57943.05300033725, -59430.96392523813, -67640.58084971677, -64041.972344156784, -72774.10599876715, -68535.94702910745, 0.084, 0.9580000000000001, -0.20400000000000001, 192.0, 0.0, 0.0, 0.0, 0.0, 0.0, 0.0, 0.0, 0.0, 0.0, 1.741116413590237E9, 0.0, 2025-03-04 13:26:53.590
23.0, -66925.50384110259, -62299.09507025422, -57940.21432879142, -59441.3798381543, -67637.07162583728, -64042.53113776817, -72767.8251585752, -68545.24535480086, 0.084, 0.9580000000000001, -0.20400000000000001, 192.0, 0.0, 0.0, 0.0, 0.0, 0.0, 0.0, 0.0, 0.0, 0.0, 1.741116413590258E9, 0.0, 2025-03-04 13:26:53.590
24.0, -66914.70794853067, -62317.267038496386, -57933.77702638829, -59441.96098351014, -67636.73634967045, -64043.0675796351, -72770.7755888433, -68539.3221425202, 0.084, 0.9580000000000001, -0.20400000000000001, 192.0, 0.0, 0.0, 0.0, 0.0, 0.0, 0.0, 0.0, 0.0, 0.0, 1.741116413590279E9, 0.0, 2025-03-04 13:26:53.590
25.0, -66913.09862292989, -62254.548043554794, -57931.4747967094, -59430.628649071296, -67641.38551251715, -64047.00148665923, -72780.78917035928, -68545.1335960786, 0.084, 0.9580000000000001, -0.20400000000000001, 192.0, 0.0, 0.0, 0.0, 0.0, 0.0, 0.0, 0.0, 0.0, 0.0, 1.741116413590305E9, 0.0, 2025-03-04 13:26:53.590
26.0, -66915.55731481998, -62232.17394735503, -57932.07829380969, -59425.15247167975, -67642.27958229538, -64042.82171044609, -72786.93590008449, -68554.78954968328, 0.084, 0.9580000000000001, -0.20400000000000001, 192.0, 0.0, 0.0, 0.0, 0.0, 0.0, 0.0, 0.0, 0.0, 0.0, 1.741116413590326E9, 0.0, 2025-03-04 13:26:53.590
27.0, -66905.96841644865, -62281.50424736789, -57924.366941972614, -59433.288506661476, -67633.00360834642, -64034.015123130695, -72792.07680130922, -68546.49705249036, 0.084, 0.9580000000000001, -0.20400000000000001, 192.0, 0.0, 0.0, 0.0, 0.0, 0.0, 0.0, 0.0, 0.0, 0.0, 1.741116413590347E9, 0.0, 2025-03-04 13:26:53.590
28.0, -66908.51651531656, -62316.93176232956, -57919.42720644799, -59437.11065496334, -67627.95211409952, -64030.70706495131, -72782.21968200442, -68518.87029634361, 0.084, 0.9580000000000001, -0.20400000000000001, 192.0, 0.0, 0.0, 0.0, 0.0, 0.0, 0.0, 0.0, 0.0, 0.0, 1.741116413590372E9, 0.0, 2025-03-04 13:26:53.590
29.0, -66931.0470737275, -62278.82203803326, -57930.60307867564, -59443.74912306656, -67640.08911133875, -64050.376600071984, -72776.96702205742, -68543.8818983891, 0.084, 0.9580000000000001, -0.20400000000000001, 192.0, 0.0, 0.0, 0.0, 0.0, 0.0, 0.0, 0.0, 0.0, 0.0, 1.741116413590393E9, 0.0, 2025-03-04 13:26:53.590
30.0, -66916.78666076502, -62242.32163933774, -57930.35720948663, -59440.686934076184, -67635.39524500314, -64051.76240822821, -72768.74158009786, -68545.80414841225, 0.084, 0.9580000000000001, -0.20400000000000001, 192.0, 0.0, 0.0, 0.0, 0.0, 0.0, 0.0, 0.0, 0.0, 0.0, 1.741116413590418E9, 0.0, 2025-03-04 13:26:53.590
31.0, -66905.38727109281, -62272.22827341894, -57916.85675583563, -59430.51689034902, -67615.6139511602, -64032.539907996645, -72748.31208566572, -68527.96745633692, 0.082, 0.96, -0.20800000000000002, 192.0, 2.0, 144.0, 30.0, 0.0, 249.0, 128.0, 0.0, 0.0, 0.0, 1.741116413650333E9, 0.0, 2025-03-04 13:26:53.650
32.0, -66913.88093398583, -62315.791823362335, -57924.791625117265, -59443.6820678332, -67620.12900354016, -64040.13950111145, -72755.44229214697, -68535.79056689628, 0.082, 0.96, -0.20800000000000002, 192.0, 0.0, 0.0, 0.0, 0.0, 0.0, 0.0, 0.0, 0.0, 0.0, 1.741116413650372E9, 0.0, 2025-03-04 13:26:53.650
33.0, -66928.7448440486, -62288.7015090825, -57936.36982874511, -59449.96290802514, -67631.59544844573, -64046.889727936956, -72770.3732574431, -68536.75169190785, 0.082, 0.96, -0.20800000000000002, 192.0, 0.0, 0.0, 0.0, 0.0, 0.0, 0.0, 0.0, 0.0, 0.0, 1.741116413650393E9, 0.0, 2025-03-04 13:26:53.650
34.0, -66929.66126557127, -62246.791988228804, -57940.236680535876, -59445.89489053427, -67631.88602112366, -64041.52530926768, -72772.11669351062, -68533.06365407273, 0.082, 0.96, -0.20800000000000002, 192.0, 0.0, 0.0, 0.0, 0.0, 0.0, 0.0, 0.0, 0.0, 0.0, 1.741116413650415E9, 0.0, 2025-03-04 13:26:53.650
35.0, -66923.73805329061, -62277.23506417693, -57939.052038079746, -59444.50908237804, -67627.70624491051, -64034.75273069772, -72762.90777479504, -68530.94023834947, 0.082, 0.96, -0.20800000000000002, 192.0, 0.0, 0.0, 0.0, 0.0, 0.0, 0.0, 0.0, 0.0, 0.0, 1.741116413650439E9, 0.0, 2025-03-04 13:26:53.650
36.0, -66923.2910184015, -62325.715997900494, -57941.10839856964, -59451.21460571464, -67629.04734957783, -64032.696370207836, -72768.13808299758, -68533.28717151728, 0.082, 0.96, -0.20800000000000002, 192.0, 0.0, 0.0, 0.0, 0.0, 0.0, 0.0, 0.0, 0.0, 0.0, 1.741116413650463E9, 0.0, 2025-03-04 13:26:53.650
37.0, -66935.18214645173, -62313.17666926106, -57952.93247138649, -59457.271928462025, -67647.57694573129, -64045.66038199191, -72783.87371109411, -68545.67003794551, 0.082, 0.96, -0.20800000000000002, 192.0, 0.0, 0.0, 0.0, 0.0, 0.0, 0.0, 0.0, 0.0, 0.0, 1.741116413650485E9, 0.0, 2025-03-04 13:26:53.650
38.0, -66929.19187893771, -62256.06796217775, -57943.90236662655, -59443.39149515528, -67642.14547182864, -64041.078274378575, -72774.21775748942, -68541.89259313256, 0.082, 0.96, -0.20800000000000002, 192.0, 0.0, 0.0, 0.0, 0.0, 0.0, 0.0, 0.0, 0.0, 0.0, 1.741116413650507E9, 0.0, 2025-03-04 13:26:53.650
39.0, -66924.07332945745, -62275.91631125406, -57939.32025901321, -59442.586832354886, -67635.84227989224, -64038.06078887711, -72771.51319641032, -68539.85858438714, 0.082, 0.96, -0.20800000000000002, 192.0, 0.0, 0.0, 0.0, 0.0, 0.0, 0.0, 0.0, 0.0, 0.0, 1.741116413650528E9, 0.0, 2025-03-04 13:26:53.650
40.0, -66918.03835845452, -62320.44098620904, -57930.17839553099, -59441.603355598854, -67626.92393385457, -64032.74107369674, -72773.30133596675, -68534.6729796735, 0.082, 0.96, -0.20800000000000002, 192.0, 0.0, 0.0, 0.0, 0.0, 0.0, 0.0, 0.0, 0.0, 0.0, 1.741116413650552E9, 0.0, 2025-03-04 13:26:53.650
41.0, -66931.4494051277, -62320.820965864776, -57936.34747700066, -59446.83366380139, -67635.50700372542, -64042.97817265728, -72788.05348730726, -68548.24048855787, 0.08600000000000001, 0.9560000000000001, -0.202, 192.0, 2.0, 176.0, 29.0, 224.0, 249.0, 176.0, 0.0, 0.0, 0.0, 1.741116413650578E9, 0.0, 2025-03-04 13:26:53.650
42.0, -66931.11412896086, -62260.068924435254, -57935.408703733534, -59433.3779136393, -67633.87532638018, -64043.447559290835, -72780.09626628117, -68552.1296920931, 0.08600000000000001, 0.9560000000000001, -0.202, 192.0, 0.0, 0.0, 0.0, 0.0, 0.0, 0.0, 0.0, 0.0, 0.0, 1.741116413650601E9, 0.0, 2025-03-04 13:26:53.650
43.0, -66923.98392247963, -62262.102933180686, -57927.54088968526, -59421.5761925669, -67623.25824776391, -64029.92475389538, -72772.56372839972, -68545.93825887899, 0.08600000000000001, 0.9560000000000001, -0.202, 192.0, 0.0, 0.0, 0.0, 0.0, 0.0, 0.0, 0.0, 0.0, 0.0, 1.741116413650625E9, 0.0, 2025-03-04 13:26:53.650
44.0, -66921.9946172231, -62316.64118965164, -57930.17839553099, -59432.439140372175, -67624.6664076646, -64033.43397777486, -72770.08268476519, -68538.0257413418, 0.08600000000000001, 0.9560000000000001, -0.202, 192.0, 0.0, 0.0, 0.0, 0.0, 0.0, 0.0, 0.0, 0.0, 0.0, 1.741116413650647E9, 0.0, 2025-03-04 13:26:53.650
45.0, -66930.28711441602, -62335.39430324964, -57932.92766009899, -59437.46828287462, -67625.44871872052, -64039.24543133324, -72772.98841154437, -68537.64576168606, 0.08600000000000001, 0.9560000000000001, -0.202, 192.0, 0.0, 0.0, 0.0, 0.0, 0.0, 0.0, 0.0, 0.0, 0.0, 1.741116413650673E9, 0.0, 2025-03-04 13:26:53.650
46.0, -66945.50865239008, -62276.072773465254, -57937.3756572456, -59428.03584671448, -67630.45550947852, -64044.34162906905, -72777.81638834672, -68545.51357573434, 0.08600000000000001, 0.9560000000000001, -0.202, 192.0, 0.0, 0.0, 0.0, 0.0, 0.0, 0.0, 0.0, 0.0, 0.0, 1.741116413710561E9, 0.0, 2025-03-04 13:26:53.710
47.0, -66921.07819570044, -62262.39350585861, -57928.39025597457, -59419.56453556592, -67621.9618465855, -64035.423283031385, -72778.55399591375, -68542.89842163306, 0.08600000000000001, 0.9560000000000001, -0.202, 192.0, 0.0, 0.0, 0.0, 0.0, 0.0, 0.0, 0.0, 0.0, 0.0, 1.741116413710607E9, 0.0, 2025-03-04 13:26:53.710
48.0, -66909.70115777268, -62308.303988969805, -57917.88493608057, -59420.5256605775, -67610.42834644656, -64027.4660620053, -72769.45683592044, -68537.75752040834, 0.08600000000000001, 0.9560000000000001, -0.202, 192.0, 0.0, 0.0, 0.0, 0.0, 0.0, 0.0, 0.0, 0.0, 0.0, 1.741116413710628E9, 0.0, 2025-03-04 13:26:53.710
49.0, -66912.89745722979, -62334.00849509341, -57916.879107580084, -59426.918259491715, -67613.87051509268, -64027.600172472026, -72776.92231856851, -68527.63218017008, 0.08600000000000001, 0.9560000000000001, -0.202, 192.0, 0.0, 0.0, 0.0, 0.0, 0.0, 0.0, 0.0, 0.0, 0.0, 1.74111641371065E9, 0.0, 2025-03-04 13:26:53.710
50.0, -66929.86243127137, -62281.392488645615, -57931.18422403148, -59432.75206479455, -67633.92002986908, -64045.14629186944, -72776.54233891277, -68548.30754379125, 0.08600000000000001, 0.9560000000000001, -0.202, 192.0, 0.0, 0.0, 0.0, 0.0, 0.0, 0.0, 0.0, 0.0, 0.0, 1.741116413710672E9, 0.0, 2025-03-04 13:26:53.710
51.0, -66917.63602705432, -62244.0427236608, -57923.98696231687, -59413.082529673884, -67627.92976235507, -64034.015123130695, -72761.94664978345, -68546.72056993491, 0.084, 0.96, -0.2, 192.0, 2.0, 160.0, 30.0, 0.0, 249.0, 192.0, 0.0, 0.0, 0.0, 1.741116413710704E9, 0.0, 2025-03-04 13:26:53.710
52.0, -66924.18508817973, -62290.132020727644, -57933.01706707681, -59423.58784956788, -67637.11632932619, -64036.71968420979, -72778.30812672475, -68546.11707283462, 0.084, 0.96, -0.2, 192.0, 0.0, 0.0, 0.0, 0.0, 0.0, 0.0, 0.0, 0.0, 0.0, 1.741116413710728E9, 0.0, 2025-03-04 13:26:53.710
53.0, -66917.61367530987, -62324.79957637782, -57930.42426472, -59430.74040779357, -67636.62459094818, -64040.29596332264, -72782.91258608253, -68554.67779096101, 0.084, 0.96, -0.2, 192.0, 0.0, 0.0, 0.0, 0.0, 0.0, 0.0, 0.0, 0.0, 0.0, 1.74111641371075E9, 0.0, 2025-03-04 13:26:53.710
54.0, -66924.85564051339, -62283.627663091145, -57935.25224152234, -59430.360428137836, -67643.53127998488, -64046.35328607003, -72792.00974607584, -68567.97707891192, 0.084, 0.96, -0.2, 192.0, 0.0, 0.0, 0.0, 0.0, 0.0, 0.0, 0.0, 0.0, 0.0, 1.741116413710772E9, 0.0, 2025-03-04 13:26:53.710
55.0, -66920.83232651143, -62241.762845726356, -57935.00637233334, -59418.08932043187, -67643.59833521824, -64039.53600401116, -72800.21283629094, -68552.71083744895, 0.084, 0.96, -0.2, 192.0, 0.0, 0.0, 0.0, 0.0, 0.0, 0.0, 0.0, 0.0, 0.0, 1.741116413710798E9, 0.0, 2025-03-04 13:26:53.710
56.0, -66903.55442804747, -62279.53729385583, -57918.95781981442, -59412.70255001814, -67621.09012855175, -64021.45344274682, -72779.26925173632, -68528.63800867058, 0.084, 0.96, -0.2, 192.0, 0.0, 0.0, 0.0, 0.0, 0.0, 0.0, 0.0, 0.0, 0.0, 1.74111641371082E9, 0.0, 2025-03-04 13:26:53.710
57.0, -66918.23952415462, -62328.04057932384, -57929.73136064188, -59430.069855459915, -67631.68485542356, -64038.39606504394, -72773.23428073339, -68539.43390124249, 0.084, 0.96, -0.2, 192.0, 0.0, 0.0, 0.0, 0.0, 0.0, 0.0, 0.0, 0.0, 0.0, 1.741116413710841E9, 0.0, 2025-03-04 13:26:53.710
58.0, -66923.91686724625, -62305.174744746066, -57936.123959556106, -59434.94253575117, -67639.75383517193, -64048.9684401713, -72778.41988544702, -68552.30850604875, 0.084, 0.96, -0.2, 192.0, 0.0, 0.0, 0.0, 0.0, 0.0, 0.0, 0.0, 0.0, 0.0, 1.741116413710867E9, 0.0, 2025-03-04 13:26:53.710
59.0, -66920.3405881334, -62249.7424184969, -57934.40287523304, -59423.207869912134, -67637.78688165985, -64043.62637324648, -72777.63757439108, -68550.81093917025, 0.084, 0.96, -0.2, 192.0, 0.0, 0.0, 0.0, 0.0, 0.0, 0.0, 0.0, 0.0, 0.0, 1.741116413710888E9, 0.0, 2025-03-04 13:26:53.710
60.0, -66911.46694558466, -62278.28559616633, -57932.681790909985, -59421.48678558908, -67627.03569257686, -64032.85283241902, -72768.04867601975, -68539.85858438714, 0.084, 0.96, -0.2, 192.0, 0.0, 0.0, 0.0, 0.0, 0.0, 0.0, 0.0, 0.0, 0.0, 1.741116413710912E9, 0.0, 2025-03-04 13:26:53.710
61.0, -66901.76628849105, -62318.42932920806, -57927.80911061873, -59423.09611118986, -67621.3136459963, -64029.969457384286, -72764.78532132928, -68542.89842163306, 0.092, 0.96, -0.198, 192.0, 2.0, 224.0, 30.0, 0.0, 249.0, 208.0, 0.0, 0.0, 0.0, 1.741116413769436E9, 0.0, 2025-03-04 13:26:53.769
62.0, -66920.6982160447, -62307.409919191596, -57944.081180582194, -59433.73554155059, -67642.43604450655, -64048.65551574893, -72786.01947856182, -68554.6330874721, 0.092, 0.96, -0.198, 192.0, 0.0, 0.0, 0.0, 0.0, 0.0, 0.0, 0.0, 0.0, 0.0, 1.741116413769478E9, 0.0, 2025-03-04 13:26:53.769
63.0, -66925.90617250279, -62259.711296523965, -57949.62441320711, -59435.23310842909, -67646.95109688654, -64051.78475997267, -72788.09819079617, -68557.76233169583, 0.092, 0.96, -0.198, 192.0, 0.0, 0.0, 0.0, 0.0, 0.0, 0.0, 0.0, 0.0, 0.0, 1.741116413769503E9, 0.0, 2025-03-04 13:26:53.769
64.0, -66914.86441074187, -62276.22923567644, -57939.61083169113, -59430.76275953803, -67633.54005021334, -64035.15506209792, -72775.5812139012, -68539.29979077575, 0.092, 0.96, -0.198, 192.0, 0.0, 0.0, 0.0, 0.0, 0.0, 0.0, 0.0, 0.0, 0.0, 1.741116413769524E9, 0.0, 2025-03-04 13:26:53.769
65.0, -66901.47571581313, -62315.25538149541, -57927.026799562795, -59424.10193969035, -67622.3641779857, -64019.79941365712, -72768.8756905646, -68532.10252906114, 0.092, 0.96, -0.198, 192.0, 0.0, 0.0, 0.0, 0.0, 0.0, 0.0, 0.0, 0.0, 0.0, 1.741116413769546E9, 0.0, 2025-03-04 13:26:53.769
66.0, -66902.07921291342, -62308.97454130346, -57925.10454953963, -59420.19038441067, -67623.77233788637, -64016.44665198883, -72774.46362667842, -68536.34936050765, 0.092, 0.96, -0.198, 192.0, 0.0, 0.0, 0.0, 0.0, 0.0, 0.0, 0.0, 0.0, 0.0, 1.741116413769573E9, 0.0, 2025-03-04 13:26:53.769
67.0, -66909.65645428377, -62246.36730508415, -57930.06663680871, -59414.44598608566, -67631.39428274563, -64020.40291075742, -72790.44512396397, -68541.9820001104, 0.092, 0.96, -0.198, 192.0, 0.0, 0.0, 0.0, 0.0, 0.0, 0.0, 0.0, 0.0, 0.0, 1.741116413769594E9, 0.0, 2025-03-04 13:26:53.769
68.0, -66911.48929732911, -62257.36436335616, -57932.79354963226, -59422.20204141165, -67630.99195134544, -64027.041378860646, -72800.36929850213, -68547.34641877966, 0.092, 0.96, -0.198, 192.0, 0.0, 0.0, 0.0, 0.0, 0.0, 0.0, 0.0, 0.0, 0.0, 1.741116413769616E9, 0.0, 2025-03-04 13:26:53.769
69.0, -66911.10931767337, -62304.41478543458, -57927.429130962984, -59426.225355413604, -67627.05804432131, -64029.85769866201, -72791.40624897555, -68539.8809361316, 0.092, 0.96, -0.198, 192.0, 0.0, 0.0, 0.0, 0.0, 0.0, 0.0, 0.0, 0.0, 0.0, 1.741116413769639E9, 0.0, 2025-03-04 13:26:53.769
70.0, -66926.62142832535, -62327.97352409048, -57938.336782257174, -59440.64223058728, -67639.97735261648, -64048.05201864863, -72787.71821114043, -68566.65832598905, 0.092, 0.96, -0.198, 192.0, 0.0, 0.0, 0.0, 0.0, 0.0, 0.0, 0.0, 0.0, 0.0, 1.74111641376966E9, 0.0, 2025-03-04 13:26:53.769
71.0, -66934.26572492906, -62271.602424574194, -57943.0753520817, -59435.300163662454, -67645.29706779684, -64055.65161176344, -72798.35764150115, -68575.688430749, 0.088, 0.9540000000000001, -0.202, 192.0, 2.0, 192.0, 29.0, 208.0, 249.0, 176.0, 0.0, 0.0, 0.0, 1.741116413769684E9, 0.0, 2025-03-04 13:26:53.769
72.0, -66934.06455922897, -62261.92411922504, -57943.63414569308, -59438.250593930556, -67644.24653580744, -64055.271632107695, -72809.19823756197, -68570.79339871329, 0.088, 0.9540000000000001, -0.202, 192.0, 0.0, 0.0, 0.0, 0.0, 0.0, 0.0, 0.0, 0.0, 0.0, 1.741116413769708E9, 0.0, 2025-03-04 13:26:53.769
73.0, -66926.68848355871, -62308.08047152525, -57937.3756572456, -59443.212681199635, -67639.75383517193, -64051.851815206035, -72810.96402537395, -68553.89547990507, 0.088, 0.9540000000000001, -0.202, 192.0, 0.0, 0.0, 0.0, 0.0, 0.0, 0.0, 0.0, 0.0, 0.0, 1.741116413769732E9, 0.0, 2025-03-04 13:26:53.769
74.0, -66914.46207934167, -62326.76652988989, -57919.829537848185, -59431.85799501634, -67625.06873906478, -64037.233774332264, -72773.05546677775, -68531.94606684997, 0.088, 0.9540000000000001, -0.202, 192.0, 0.0, 0.0, 0.0, 0.0, 0.0, 0.0, 0.0, 0.0, 0.0, 1.741116413769754E9, 0.0, 2025-03-04 13:26:53.769
75.0, -66920.60880906688, -62263.622851803644, -57917.169680258005, -59416.18942215317, -67627.52743095487, -64040.22890808927, -72765.14294924056, -68537.53400296379, 0.088, 0.9540000000000001, -0.202, 192.0, 0.0, 0.0, 0.0, 0.0, 0.0, 0.0, 0.0, 0.0, 0.0, 1.741116413769775E9, 0.0, 2025-03-04 13:26:53.769
76.0, -66925.86146901386, -62242.96983992694, -57925.66334315102, -59411.74142500656, -67633.60710544672, -64043.469911035296, -72783.8290076052, -68549.87216590311, 0.088, 0.9540000000000001, -0.202, 192.0, 0.0, 0.0, 0.0, 0.0, 0.0, 0.0, 0.0, 0.0, 0.0, 1.741116413829661E9, 0.0, 2025-03-04 13:26:53.829
77.0, -66937.52907961955, -62296.010529519386, -57939.119093313115, -59429.10873044834, -67646.1687858306, -64056.813902475114, -72801.03985083579, -68560.93627940849, 0.088, 0.9540000000000001, -0.202, 192.0, 0.0, 0.0, 0.0, 0.0, 0.0, 0.0, 0.0, 0.0, 0.0, 1.741116413829698E9, 0.0, 2025-03-04 13:26:53.829
78.0, -66926.01793122505, -62333.539108459845, -57935.051075822244, -59434.09316946187, -67642.34663752874, -64053.595251273546, -72788.20994951844, -68550.76623568132, 0.088, 0.9540000000000001, -0.202, 192.0, 0.0, 0.0, 0.0, 0.0, 0.0, 0.0, 0.0, 0.0, 0.0, 1.741116413829723E9, 0.0, 2025-03-04 13:26:53.829
79.0, -66915.02087295304, -62280.11843921166, -57918.46608143641, -59403.60539002483, -67632.93655311306, -64039.468948777794, -72769.36742894261, -68543.74778792236, 0.088, 0.9540000000000001, -0.202, 192.0, 0.0, 0.0, 0.0, 0.0, 0.0, 0.0, 0.0, 0.0, 0.0, 1.741116413829745E9, 0.0, 2025-03-04 13:26:53.829
80.0, -66922.50870734558, -62240.86877594815, -57921.55062217124, -59404.834735969875, -67636.35637001472, -64044.60985000251, -72767.64634461956, -68548.3298955357, 0.088, 0.9540000000000001, -0.202, 192.0, 0.0, 0.0, 0.0, 0.0, 0.0, 0.0, 0.0, 0.0, 0.0, 1.741116413829767E9, 0.0, 2025-03-04 13:26:53.829
81.0, -66919.98296022213, -62280.61017758968, -57918.980171558884, -59416.27882913099, -67627.28156176586, -64034.75273069772, -72757.81157705923, -68533.48833721738, 0.088, 0.9580000000000001, -0.202, 192.0, 2.0, 192.0, 29.0, 240.0, 249.0, 176.0, 0.0, 0.0, 0.0, 1.741116413829794E9, 0.0, 2025-03-04 13:26:53.829
82.0, -66899.8440384679, -62315.81417510679, -57915.336837212664, -59421.71030303363, -67625.5604774428, -64035.982076642766, -72767.84751031965, -68540.64089544308, 0.088, 0.9580000000000001, -0.202, 192.0, 0.0, 0.0, 0.0, 0.0, 0.0, 0.0, 0.0, 0.0, 0.0, 1.741116413829822E9, 0.0, 2025-03-04 13:26:53.829
83.0, -66904.42614608123, -62284.78995380282, -57919.38250295907, -59421.196212911156, -67628.30974201081, -64041.19003310085, -72775.76002785683, -68549.49218624737, 0.088, 0.9580000000000001, -0.202, 192.0, 0.0, 0.0, 0.0, 0.0, 0.0, 0.0, 0.0, 0.0, 0.0, 1.741116413829844E9, 0.0, 2025-03-04 13:26:53.829
84.0, -66917.92659973224, -62234.74439796739, -57933.21823277691, -59415.76473900852, -67638.45743399352, -64047.20265235933, -72781.7279436264, -68562.54560500928, 0.088, 0.9580000000000001, -0.202, 192.0, 0.0, 0.0, 0.0, 0.0, 0.0, 0.0, 0.0, 0.0, 0.0, 1.741116413829866E9, 0.0, 2025-03-04 13:26:53.829
85.0, -66902.66035826926, -62261.27591863584, -57932.391218232064, -59419.0727971879, -67632.66833217959, -64037.27847782117, -72775.9835453014, -68551.77206418182, 0.088, 0.9580000000000001, -0.202, 192.0, 0.0, 0.0, 0.0, 0.0, 0.0, 0.0, 0.0, 0.0, 0.0, 1.741116413829887E9, 0.0, 2025-03-04 13:26:53.829
86.0, -66911.71281477367, -62317.31174198529, -57940.54960495825, -59439.83756778688, -67638.97152411599, -64043.9169459244, -72781.97381281541, -68548.03932285777, 0.088, 0.9580000000000001, -0.202, 192.0, 0.0, 0.0, 0.0, 0.0, 0.0, 0.0, 0.0, 0.0, 0.0, 1.741116413829912E9, 0.0, 2025-03-04 13:26:53.829
87.0, -66913.07627118543, -62307.8569540807, -57937.75563690134, -59439.435236386686, -67637.54101247084, -64035.31152430911, -72786.48886519538, -68529.62148542661, 0.088, 0.9580000000000001, -0.202, 192.0, 0.0, 0.0, 0.0, 0.0, 0.0, 0.0, 0.0, 0.0, 0.0, 1.741116413829936E9, 0.0, 2025-03-04 13:26:53.829
88.0, -66909.58939905041, -62239.97470616993, -57929.1725670305, -59411.18263139518, -67632.24364903494, -64023.308637536604, -72792.54618794277, -68531.14140404957, 0.088, 0.9580000000000001, -0.202, 192.0, 0.0, 0.0, 0.0, 0.0, 0.0, 0.0, 0.0, 0.0, 0.0, 1.741116413829961E9, 0.0, 2025-03-04 13:26:53.829
89.0, -66906.01311993756, -62255.37505809964, -57929.03845656377, -59409.75211975004, -67630.27669552287, -64021.4087392579, -72779.44806569196, -68516.41160445352, 0.088, 0.9580000000000001, -0.202, 192.0, 0.0, 0.0, 0.0, 0.0, 0.0, 0.0, 0.0, 0.0, 0.0, 1.741116413829983E9, 0.0, 2025-03-04 13:26:53.829
90.0, -66906.97424494913, -62311.09795702672, -57925.685694895474, -59425.48774784658, -67623.68293090856, -64024.26976254818, -72753.27417293479, -68527.25220051434, 0.088, 0.9580000000000001, -0.202, 192.0, 0.0, 0.0, 0.0, 0.0, 0.0, 0.0, 0.0, 0.0, 0.0, 1.741116413830005E9, 0.0, 2025-03-04 13:26:53.830
91.0, -66912.45042234068, -62315.38949196214, -57923.33876172767, -59429.26519265952, -67624.10761405321, -64028.40483527241, -72759.19738521545, -68534.4271104845, 0.082, 0.962, -0.20400000000000001, 192.0, 2.0, 144.0, 30.0, 16.0, 249.0, 160.0, 0.0, 0.0, 0.0, 1.741116413890839E9, 0.0, 2025-03-04 13:26:53.890
92.0, -66914.32796887493, -62249.11656965215, -57921.12593902659, -59420.637419299776, -67627.23685827696, -64029.365960284, -72766.01466727433, -68525.06172955772, 0.082, 0.962, -0.20400000000000001, 192.0, 0.0, 0.0, 0.0, 0.0, 0.0, 0.0, 0.0, 0.0, 0.0, 1.74111641389088E9, 0.0, 2025-03-04 13:26:53.890
93.0, -66915.06557644196, -62247.86487196266, -57923.674037894496, -59427.18648042518, -67629.47203272248, -64032.09287310754, -72773.59190864467, -68533.46598547293, 0.082, 0.962, -0.20400000000000001, 192.0, 0.0, 0.0, 0.0, 0.0, 0.0, 0.0, 0.0, 0.0, 0.0, 1.741116413890905E9, 0.0, 2025-03-04 13:26:53.890
94.0, -66923.42512886824, -62308.97454130346, -57929.93252634198, -59443.19032945518, -67632.71303566851, -64041.4135505454, -72792.90381585405, -68549.55924148075, 0.082, 0.962, -0.20400000000000001, 192.0, 0.0, 0.0, 0.0, 0.0, 0.0, 0.0, 0.0, 0.0, 0.0, 1.741116413890928E9, 0.0, 2025-03-04 13:26:53.890
95.0, -66905.49902981508, -62317.17763151856, -57911.51468891081, -59428.05819845894, -67617.29033199434, -64023.68861719235, -72789.57340593022, -68535.61175294063, 0.082, 0.962, -0.20400000000000001, 192.0, 0.0, 0.0, 0.0, 0.0, 0.0, 0.0, 0.0, 0.0, 0.0, 1.74111641389095E9, 0.0, 2025-03-04 13:26:53.890
96.0, -66901.25219836857, -62248.043685918296, -57912.09583426665, -59419.720997777105, -67624.80051813132, -64033.881012663966, -72769.59094638716, -68539.56801170921, 0.082, 0.962, -0.20400000000000001, 192.0, 0.0, 0.0, 0.0, 0.0, 0.0, 0.0, 0.0, 0.0, 0.0, 1.741116413890978E9, 0.0, 2025-03-04 13:26:53.890
97.0, -66902.12391640233, -62238.56654626925, -57912.408758689024, -59413.99895119655, -67621.78303262986, -64029.120091094985, -72769.14391149806, -68538.40572099754, 0.082, 0.962, -0.20400000000000001, 192.0, 0.0, 0.0, 0.0, 0.0, 0.0, 0.0, 0.0, 0.0, 0.0, 1.741116413890999E9, 0.0, 2025-03-04 13:26:53.890
98.0, -66904.47084957015, -62288.589750360225, -57913.50399416733, -59419.095148932356, -67621.15718378511, -64029.23184981726, -72766.61816437461, -68538.11514831963, 0.082, 0.962, -0.20400000000000001, 192.0, 0.0, 0.0, 0.0, 0.0, 0.0, 0.0, 0.0, 0.0, 0.0, 1.741116413891021E9, 0.0, 2025-03-04 13:26:53.891
99.0, -66908.15888740527, -62323.681989155055, -57916.83440409117, -59429.801634526455, -67622.78886113035, -64031.46702426279, -72768.54041439776, -68537.84692738616, 0.082, 0.962, -0.20400000000000001, 192.0, 0.0, 0.0, 0.0, 0.0, 0.0, 0.0, 0.0, 0.0, 0.0, 1.741116413891043E9, 0.0, 2025-03-04 13:26:53.891
100.0, -66908.98590195012, -62268.13790418362, -57917.66141863602, -59420.346846621855, -67625.40401523162, -64031.73524519626, -72781.21385350393, -68543.63602920009, 0.082, 0.962, -0.20400000000000001, 192.0, 0.0, 0.0, 0.0, 0.0, 0.0, 0.0, 0.0, 0.0, 0.0, 1.741116413891066E9, 0.0, 2025-03-04 13:26:53.891
101.0, -66909.20941939467, -62241.87460444863, -57924.07636929469, -59426.85120425835, -67627.34861699922, -64040.363018556, -72774.3295162117, -68552.71083744895, 0.082, 0.96, -0.2, 192.0, 2.0, 144.0, 30.0, 0.0, 249.0, 192.0, 0.0, 0.0, 0.0, 1.74111641389109E9, 0.0, 2025-03-04 13:26:53.891
102.0, -66902.43684082471, -62282.778296801844, -57917.50495642483, -59427.78997752548, -67615.0551575488, -64031.28821030715, -72745.16048969752, -68545.44652050096, 0.082, 0.96, -0.2, 192.0, 0.0, 0.0, 0.0, 0.0, 0.0, 0.0, 0.0, 0.0, 0.0, 1.741116413891115E9, 0.0, 2025-03-04 13:26:53.891
103.0, -66888.24348309559, -62308.48280292545, -57908.20663073142, -59415.384759352775, -67610.31658772429, -64017.36307351149, -72736.2644954043, -68529.64383717107, 0.082, 0.96, -0.2, 192.0, 0.0, 0.0, 0.0, 0.0, 0.0, 0.0, 0.0, 0.0, 0.0, 1.741116413891137E9, 0.0, 2025-03-04 13:26:53.891
104.0, -66892.11033488635, -62267.51205533887, -57910.35239819913, -59413.84248898536, -67616.97740757196, -64018.68182643436, -72747.08273972067, -68500.63127286808, 0.082, 0.96, -0.2, 192.0, 0.0, 0.0, 0.0, 0.0, 0.0, 0.0, 0.0, 0.0, 0.0, 1.741116413891162E9, 0.0, 2025-03-04 13:26:53.891
105.0, -66905.36491934836, -62233.939735167, -57921.148290771045, -59428.34877113686, -67626.67806466557, -64033.43397777486, -72752.06717873421, -68506.06274677071, 0.082, 0.96, -0.2, 192.0, 0.0, 0.0, 0.0, 0.0, 0.0, 0.0, 0.0, 0.0, 0.0, 1.741116413891184E9, 0.0, 2025-03-04 13:26:53.891
106.0, -66904.85082922588, -62271.445962363, -57922.824671605194, -59430.67335256021, -67629.1144048112, -64039.87128017799, -72740.35486463962, -68518.6244271546, 0.082, 0.96, -0.2, 192.0, 0.0, 0.0, 0.0, 0.0, 0.0, 0.0, 0.0, 0.0, 0.0, 1.741116413950153E9, 0.0, 2025-03-04 13:26:53.950
107.0, -66902.43684082471, -62317.401148963116, -57922.37763671609, -59438.65292533075, -67633.24947753543, -64042.70995172381, -72751.57544035619, -68523.92179059051, 0.082, 0.96, -0.2, 192.0, 0.0, 0.0, 0.0, 0.0, 0.0, 0.0, 0.0, 0.0, 0.0, 1.741116413950192E9, 0.0, 2025-03-04 13:26:53.950
108.0, -66898.36882333385, -62289.66263409408, -57917.21438374691, -59436.17188169622, -67637.87628863768, -64045.03453314716, -72752.82713804569, -68531.65549417204, 0.082, 0.96, -0.2, 192.0, 0.0, 0.0, 0.0, 0.0, 0.0, 0.0, 0.0, 0.0, 0.0, 1.741116413950225E9, 0.0, 2025-03-04 13:26:53.950
109.0, -66890.97039591914, -62229.715255464944, -57912.54286915575, -59420.637419299776, -67639.0609310938, -64037.4125882879, -72755.68816133597, -68524.79350862427, 0.082, 0.96, -0.2, 192.0, 0.0, 0.0, 0.0, 0.0, 0.0, 0.0, 0.0, 0.0, 0.0, 1.741116413950246E9, 0.0, 2025-03-04 13:26:53.950
110.0, -66881.73912545909, -62248.08838940721, -57901.590514372656, -59412.18845989567, -67628.53325945536, -64024.359169526004, -72747.68623682097, -68517.3280259762, 0.082, 0.96, -0.2, 192.0, 0.0, 0.0, 0.0, 0.0, 0.0, 0.0, 0.0, 0.0, 0.0, 1.741116413950268E9, 0.0, 2025-03-04 13:26:53.950
111.0, -66883.2366923376, -62297.262227208885, -57902.350473684135, -59424.57132632391, -67627.39332048813, -64026.79550967163, -72741.15952744002, -68519.18322076598, 0.082, 0.96, -0.2, 192.0, 2.0, 144.0, 30.0, 0.0, 249.0, 192.0, 0.0, 0.0, 0.0, 1.741116413950296E9, 0.0, 2025-03-04 13:26:53.950
112.0, -66886.5894540059, -62290.534352127834, -57905.88204930807, -59424.28075364599, -67634.00943684691, -64031.95876264081, -72750.59196360016, -68516.00927305332, 0.082, 0.96, -0.2, 192.0, 0.0, 0.0, 0.0, 0.0, 0.0, 0.0, 0.0, 0.0, 0.0, 1.74111641395032E9, 0.0, 2025-03-04 13:26:53.950
113.0, -66896.37951807732, -62236.711351479455, -57913.34753195615, -59427.968791481115, -67639.59737296074, -64039.04426563314, -72756.0234375028, -68520.47962194438, 0.082, 0.96, -0.2, 192.0, 0.0, 0.0, 0.0, 0.0, 0.0, 0.0, 0.0, 0.0, 0.0, 1.741116413950342E9, 0.0, 2025-03-04 13:26:53.950
114.0, -66894.27845409852, -62243.10395039368, -57901.90343879502, -59419.25161114355, -67626.92393385457, -64022.10164333602, -72740.53367859527, -68503.42524092499, 0.082, 0.96, -0.2, 192.0, 0.0, 0.0, 0.0, 0.0, 0.0, 0.0, 0.0, 0.0, 0.0, 1.741116413950363E9, 0.0, 2025-03-04 13:26:53.950
115.0, -66889.96456741865, -62294.468259151974, -57902.43988066196, -59430.203965926645, -67631.17076530108, -64032.62931497447, -72748.69206532146, -68519.54084867726, 0.082, 0.96, -0.2, 192.0, 0.0, 0.0, 0.0, 0.0, 0.0, 0.0, 0.0, 0.0, 0.0, 1.741116413950385E9, 0.0, 2025-03-04 13:26:53.950
116.0, -66886.90237842828, -62308.52750641436, -57897.589552115154, -59436.23893692958, -67627.77330014388, -64029.63418121746, -72744.0205507303, -68509.30374971674, 0.082, 0.96, -0.2, 192.0, 0.0, 0.0, 0.0, 0.0, 0.0, 0.0, 0.0, 0.0, 0.0, 1.741116413950413E9, 0.0, 2025-03-04 13:26:53.950
117.0, -66897.20653262216, -62246.41200857306, -57904.5185928963, -59433.66848631722, -67637.63041944867, -64043.7157802243, -72756.22460320289, -68524.34647373516, 0.082, 0.96, -0.2, 192.0, 0.0, 0.0, 0.0, 0.0, 0.0, 0.0, 0.0, 0.0, 0.0, 1.741116413950435E9, 0.0, 2025-03-04 13:26:53.950
118.0, -66894.85959945436, -62251.12822665313, -57904.719758596395, -59442.519777121524, -67630.36610250069, -64044.38633255796, -72751.06135023372, -68528.01215982583, 0.082, 0.96, -0.2, 192.0, 0.0, 0.0, 0.0, 0.0, 0.0, 0.0, 0.0, 0.0, 0.0, 1.741116413950457E9, 0.0, 2025-03-04 13:26:53.950
119.0, -66890.76923021904, -62302.00079703341, -57898.304807937726, -59442.720942821616, -67623.6158756752, -64038.53017551067, -72744.28877166376, -68515.94221781996, 0.082, 0.96, -0.2, 192.0, 0.0, 0.0, 0.0, 0.0, 0.0, 0.0, 0.0, 0.0, 0.0, 1.741116413950481E9, 0.0, 2025-03-04 13:26:53.950
120.0, -66891.2386168526, -62325.80540487831, -57896.471964892386, -59445.09022773388, -67621.89479135213, -64039.22307958879, -72743.46175711892, -68513.70704337442, 0.082, 0.96, -0.2, 192.0, 0.0, 0.0, 0.0, 0.0, 0.0, 0.0, 0.0, 0.0, 0.0, 1.741116413950503E9, 0.0, 2025-03-04 13:26:53.950
121.0, -66889.85280869638, -62263.55579657028, -57894.95204626943, -59434.31668690642, -67622.83356461926, -64043.2687453352, -72747.23920193186, -68526.00050282484, 0.084, 0.9560000000000001, -0.2, 192.0, 2.0, 160.0, 29.0, 224.0, 249.0, 192.0, 0.0, 0.0, 0.0, 1.741116414009879E9, 0.0, 2025-03-04 13:26:54.009
