%OpenBCI Raw EXG Data
%Number of channels = 16
%Sample Rate = 125 Hz
%Board = OpenBCI_GUI$BoardCytonSerialDaisy
Sample Index, EXG Channel 0, EXG Channel 1, EXG Channel 2, EXG Channel 3, EXG Channel 4, EXG Channel 5, EXG Channel 6, EXG Channel 7, EXG Channel 8, EXG Channel 9, EXG Channel 10, EXG Channel 11, EXG Channel 12, EXG Channel 13, EXG Channel 14, EXG Channel 15, Accel Channel 0, Accel Channel 1, Accel Channel 2, Not Used, Digital Channel 0 (D11), Digital Channel 1 (D12), Digital Channel 2 (D13), Digital Channel 3 (D17), Not Used, Digital Channel 4 (D18), Analog Channel 0, Analog Channel 1, Analog Channel 2, Timestamp, Marker Channel, Timestamp (Formatted)
0.0, 0.0, 3463.0451754385444, -14499.286055479772, -15826.957324380557, -17752.31424001625, 0.0, -24847.651999908925, -1440.5252266556295, 5761.251540333216, -3926.8215211417105, -11152.894634353475, 10444.92548047608, -17860.764904113403, -2559.4088505993905, 3565.9749586552334, 8913.540412609627, -0.122, 0.98, -0.11800000000000001, 192.0, 126.0, 24.0, 15.0, 80.0, 126.0, 40.0, 0.0, 0.0, 0.0, 1.741713888743068E9, 0.0, 2025-03-11 12:24:48.743
2.0, 0.0, 6907.739568679282, -29022.98021590474, -31675.014695526923, -35545.286303196706, 0.0, -49714.99588668298, -2904.340971033689, 11056.960947151298, -6225.005534291928, -21081.2265969785, 21074.141093986167, -34864.11689092122, -4561.633415416886, 13876.36528925482, 16896.10831691126, -0.122, 0.98, -0.11800000000000001, 192.0, 0.0, 0.0, 0.0, 0.0, 0.0, 0.0, 0.0, 0.0, 0.0, 1.741713888743114E9, 0.0, 2025-03-11 12:24:48.743
4.0, 0.0, 6920.390656040986, -29009.88209365393, -31657.35681740723, -35540.03364324971, 0.0, -49698.25443008595, -2888.471232470421, 11058.14558960743, -6211.259211451914, -21079.416105677617, 21074.498721897453, -34863.69220777657, -4568.629511431398, 13845.877509817781, 16900.19868614658, -0.122, 0.98, -0.11800000000000001, 192.0, 0.0, 0.0, 0.0, 0.0, 0.0, 0.0, 0.0, 0.0, 0.0, 1.741713888811208E9, 0.0, 2025-03-11 12:24:48.811
6.0, 0.0, 6893.1885830388765, -29044.03555918164, -31692.113780035234, -35542.87231479553, 0.0, -49731.335011879804, -2923.854043943172, 11046.8579586575, -6231.398133206146, -21092.581283161795, 21062.428779891587, -34873.37051312572, -4574.038633589582, 13866.88814960577, 16888.173447629626, -0.122, 0.98, -0.11800000000000001, 192.0, 0.0, 0.0, 0.0, 0.0, 0.0, 0.0, 0.0, 0.0, 0.0, 1.741713888811225E9, 0.0, 2025-03-11 12:24:48.811
8.0, 0.0, 6902.352798265553, -29035.251323610704, -31684.782407853894, -35543.76638457375, 0.0, -49718.616869284735, -2918.154349107069, 11025.08735955803, -6257.907302130139, -21112.630797938204, 21040.43466334756, -34893.0847517353, -4603.5876397594975, 13827.772596808982, 16866.62636597471, -0.112, 0.97, -0.136, 192.0, 126.0, 64.0, 15.0, 40.0, 125.5, 96.0, 0.0, 0.0, 0.0, 1.741713888811233E9, 0.0, 2025-03-11 12:24:48.811
10.0, 0.0, 6897.882449374491, -29034.26784685467, -31687.978707311002, -35531.65173907897, 0.0, -49723.713067020544, -2923.4517125429766, 11039.459531242792, -6233.119217529204, -21098.03510880889, 21062.31702116931, -34880.74658879597, -4588.053177363059, 13856.114608778313, 16870.180293343103, -0.112, 0.97, -0.136, 192.0, 0.0, 0.0, 0.0, 0.0, 0.0, 0.0, 0.0, 0.0, 0.0, 1.74171388881124E9, 0.0, 2025-03-11 12:24:48.811
12.0, 0.0, 6918.758978695748, -29016.45350652379, -31671.192547225066, -35531.450573378876, 0.0, -49713.81124422685, -2912.834633926706, 11042.275851044162, -6256.409735251634, -21096.336376230287, 21055.1197594547, -34876.56681258283, -4596.546840256076, 13836.020390512991, 16871.09671486577, -0.112, 0.97, -0.136, 192.0, 0.0, 0.0, 0.0, 0.0, 0.0, 0.0, 0.0, 0.0, 0.0, 1.741713888811248E9, 0.0, 2025-03-11 12:24:48.811
14.0, 0.0, 6914.914478649435, -29015.35827104548, -31665.090520988768, -35510.7305062688, 0.0, -49716.00171518347, -2926.7150672334515, 11051.775342437666, -6215.081359753771, -21085.786352847383, 21073.60465211924, -34872.4317398586, -4579.4030522588555, 13863.580091426384, 16876.259967834947, -0.112, 0.97, -0.136, 192.0, 0.0, 0.0, 0.0, 0.0, 0.0, 0.0, 0.0, 0.0, 0.0, 1.741713888811255E9, 0.0, 2025-03-11 12:24:48.811
16.0, 0.0, 6927.65497298896, -28990.257262022173, -31644.683378301073, -35519.29122439519, 0.0, -49700.579011509304, -2912.275840315323, 11065.43225829986, -6211.795653318841, -21068.441399150062, 21083.864102824224, -34861.65819903114, -4574.642130689876, 13857.411009956719, 16881.937310926594, -0.112, 0.97, -0.136, 192.0, 0.0, 0.0, 0.0, 0.0, 0.0, 0.0, 0.0, 0.0, 0.0, 1.741713888811262E9, 0.0, 2025-03-11 12:24:48.811
18.0, 0.0, 6946.050458675678, -28984.31169799706, -31640.83887825476, -35494.59254677207, 0.0, -49701.629543498704, -2920.344820063689, 11077.368089838994, -6195.4341763775565, -21055.745608299447, 21101.65609141065, -34856.13731815068, -4558.392412470867, 13877.773449155504, 16880.43974404809, -0.11, 0.962, -0.14400000000000002, 192.0, 126.0, 72.0, 15.0, 8.0, 125.5, 64.0, 0.0, 0.0, 0.0, 1.74171388886941E9, 0.0, 2025-03-11 12:24:48.869
20.0, 0.0, 6936.081580648611, -28988.178549787826, -31645.689206801562, -35537.597303104085, 0.0, -49706.949258679066, -2889.030026081804, 11077.703366005822, -6198.809289790308, -21052.683419309073, 21103.287768755887, -34862.17228915361, -4558.481819448688, 13875.158295054234, 16880.953834170563, -0.11, 0.962, -0.14400000000000002, 192.0, 0.0, 0.0, 0.0, 0.0, 0.0, 0.0, 0.0, 0.0, 0.0, 1.741713888869427E9, 0.0, 2025-03-11 12:24:48.869
22.0, 0.0, 6915.1379960939885, -29005.7470209297, -31663.302381432342, -35515.156151670955, 0.0, -49718.16983439563, -2904.8774129006165, 11071.020194413686, -6217.964734788506, -21059.612460090215, 21094.88351284069, -34865.2791816329, -4562.23691251718, 13873.79483864246, 16885.021851661426, -0.11, 0.962, -0.14400000000000002, 192.0, 0.0, 0.0, 0.0, 0.0, 0.0, 0.0, 0.0, 0.0, 0.0, 1.741713888869434E9, 0.0, 2025-03-11 12:24:48.869
24.0, 0.0, 6913.573373982117, -29001.746058672197, -31654.384035394676, -35531.60703559006, 0.0, -49705.69756098957, -2895.0426453402815, 11035.65973468539, -6211.572135874288, -21088.35680345974, 21071.727105584992, -34891.1848534566, -4588.3213982965235, 13854.751152366538, 16869.129761353703, -0.11, 0.962, -0.14400000000000002, 192.0, 0.0, 0.0, 0.0, 0.0, 0.0, 0.0, 0.0, 0.0, 0.0, 1.741713888869472E9, 0.0, 2025-03-11 12:24:48.869
26.0, 0.0, 6912.053455359156, -29007.132829085927, -31661.044855242355, -35499.755799741244, 0.0, -49710.90551744765, -2899.088311086692, 11047.75202843571, -6220.5575371453215, -21074.677535853094, 21082.522998156906, -34876.05272246036, -4568.897732364861, 13866.1728937832, 16894.72250875503, -0.11, 0.962, -0.14400000000000002, 192.0, 0.0, 0.0, 0.0, 0.0, 0.0, 0.0, 0.0, 0.0, 0.0, 1.741713888869479E9, 0.0, 2025-03-11 12:24:48.869
28.0, 0.0, 6922.89405141998, -28996.94043361431, -31649.757224292425, -35520.36410812904, 0.0, -49705.25052610046, -2892.673360428019, 11044.868653400976, -6224.603202891732, -21077.337393443275, 21077.493855654462, -34873.81754801483, -4577.413747002333, 13864.809437371427, 16892.4873343095, -0.1, 0.964, -0.148, 192.0, 126.0, 112.0, 15.0, 16.0, 125.5, 48.0, 0.0, 0.0, 0.0, 1.741713888869486E9, 0.0, 2025-03-11 12:24:48.869
30.0, 0.0, 6899.715292419826, -29022.64493973791, -31676.311096705333, -35511.132837669, 0.0, -49730.575052568325, -2916.9473549064824, 11036.7549701637, -6222.680952868575, -21085.764001102925, 21078.007945776935, -34882.64648707467, -4576.363215012934, 13851.778370353983, 16890.49802905298, -0.1, 0.964, -0.148, 192.0, 0.0, 0.0, 0.0, 0.0, 0.0, 0.0, 0.0, 0.0, 0.0, 1.741713888869494E9, 0.0, 2025-03-11 12:24:48.869
32.0, 0.0, 6920.815339185637, -28998.147427814893, -31655.63573308417, -35507.824779489616, 0.0, -49702.344799321276, -2892.1592703055467, 11028.194252037318, -6240.495293199456, -21091.59780640576, 21063.725181069993, -34887.787388299395, -4587.360273284945, 13851.97953605408, 16877.422258546623, -0.1, 0.964, -0.148, 192.0, 0.0, 0.0, 0.0, 0.0, 0.0, 0.0, 0.0, 0.0, 0.0, 1.7417138888695E9, 0.0, 2025-03-11 12:24:48.869
34.0, 0.0, 6930.650106745971, -29000.02497434914, -31657.915611018612, -35483.68489547788, 0.0, -49707.39629356817, -2897.3672267636334, 11058.14558960743, -6208.711112584008, -21058.450169378542, 21091.9777860615, -34855.26560011692, -4560.739345638674, 13856.204015756133, 16896.6894622671, -0.1, 0.964, -0.148, 192.0, 0.0, 0.0, 0.0, 0.0, 0.0, 0.0, 0.0, 0.0, 0.0, 1.741713888894418E9, 0.0, 2025-03-11 12:24:48.894
36.0, 0.0, 6912.70165594836, -29012.31843379956, -31670.32082919131, -35529.08128846661, 0.0, -49716.96284019505, -2910.510052503354, 11054.591662239036, -6232.873348340196, -21072.1741404741, 21072.73293408548, -34875.51628059343, -4577.257284791146, 13864.45180946014, 16874.315366067334, -0.1, 0.964, -0.148, 192.0, 0.0, 0.0, 0.0, 0.0, 0.0, 0.0, 0.0, 0.0, 0.0, 1.741713888972604E9, 0.0, 2025-03-11 12:24:48.972
38.0, 0.0, 6926.738551466293, -29000.919044127353, -31658.586163352273, -35510.037602190685, 0.0, -49711.64312501468, -2907.917250146538, 11060.559578008602, -6206.61004860521, -21064.462788637018, 21085.74164935847, -34869.77188226842, -4571.3787759994, 13843.396466183242, 16878.76336321394, -0.10400000000000001, 0.972, -0.14400000000000002, 192.0, 126.0, 96.0, 15.0, 48.0, 125.5, 64.0, 0.0, 0.0, 0.0, 1.74171388897262E9, 0.0, 2025-03-11 12:24:48.972
40.0, 0.0, 6928.102007878067, -28991.93364285632, -31656.44039588456, -35505.07551492161, 0.0, -49709.13972963569, -2917.953183406971, 11054.52460700567, -6220.4681301675, -21073.291727696866, 21077.426800421097, -34877.70675155005, -4578.933665625294, 13863.758905382027, 16861.15018858316, -0.10400000000000001, 0.972, -0.14400000000000002, 192.0, 0.0, 0.0, 0.0, 0.0, 0.0, 0.0, 0.0, 0.0, 0.0, 1.741713888972628E9, 0.0, 2025-03-11 12:24:48.972
42.0, 0.0, 6918.8930891624805, -28995.912253369363, -31658.429701141085, -35485.60714550104, 0.0, -49709.519709291424, -2901.3011337877674, 11067.108639134007, -6219.305839455824, -21056.46086412202, 21087.88741682618, -34860.80883274184, -4571.736403910685, 13852.82890234338, 16873.018964888928, -0.10400000000000001, 0.972, -0.14400000000000002, 192.0, 0.0, 0.0, 0.0, 0.0, 0.0, 0.0, 0.0, 0.0, 0.0, 1.741713888972635E9, 0.0, 2025-03-11 12:24:48.972
44.0, 0.0, 6925.6433159879825, -28982.568261929544, -31642.78348002237, -35491.06097114813, 0.0, -49695.68397947359, -2888.672398170519, 11054.055220372107, -6220.80340633433, -21067.189701460567, 21084.579358646795, -34863.89337347667, -4567.511924208632, 13875.784143898982, 16873.28718582239, -0.10400000000000001, 0.972, -0.14400000000000002, 192.0, 0.0, 0.0, 0.0, 0.0, 0.0, 0.0, 0.0, 0.0, 0.0, 1.741713888972642E9, 0.0, 2025-03-11 12:24:48.972
46.0, 0.0, 6913.148690837466, -28995.420514991347, -31650.248962670445, -35486.5235670237, 0.0, -49703.84236619978, -2899.758863420351, 11059.553749508113, -6196.931743256062, -21055.656201321628, 21099.376213476207, -34854.88562046118, -4552.938586823772, 13866.977556583592, 16889.380441830213, -0.10400000000000001, 0.972, -0.14400000000000002, 192.0, 0.0, 0.0, 0.0, 0.0, 0.0, 0.0, 0.0, 0.0, 0.0, 1.741713889026699E9, 0.0, 2025-03-11 12:24:49.026
48.0, 0.0, 6892.294513260665, -29007.82573316404, -31664.755244821936, -35501.18631138639, 0.0, -49707.84332845728, -2908.1631193355465, 11030.630592182946, -6233.253327995936, -21083.88645456868, 21070.296593939853, -34876.36564688273, -4568.2495317756575, 13872.498437464052, 16864.882929907195, -0.096, 0.966, -0.15, 192.0, 126.5, 0.0, 15.0, 24.0, 125.5, 40.0, 0.0, 0.0, 0.0, 1.741713889026725E9, 0.0, 2025-03-11 12:24:49.026
50.0, 0.0, 6909.080673346601, -28990.681945166823, -31641.978817221978, -35478.722808208804, 0.0, -49686.385653780184, -2900.2729535428234, 11029.513004960181, -6234.750894874442, -21084.199378991056, 21065.155692715132, -34864.45216708806, -4568.80832538704, 13844.446998172642, 16872.102543366258, -0.096, 0.966, -0.15, 192.0, 0.0, 0.0, 0.0, 0.0, 0.0, 0.0, 0.0, 0.0, 0.0, 1.741713889026734E9, 0.0, 2025-03-11 12:24:49.026
52.0, 0.0, 6881.073937544101, -29015.69354721231, -31662.609477354228, -35490.25630834774, 0.0, -49706.50222378996, -2915.6062502391637, 11029.244784026718, -6224.42438893609, -21075.906881798135, 21075.63866086467, -34870.55419332435, -4558.750040382152, 13876.298234021455, 16866.71577295253, -0.096, 0.966, -0.15, 192.0, 0.0, 0.0, 0.0, 0.0, 0.0, 0.0, 0.0, 0.0, 0.0, 1.741713889026741E9, 0.0, 2025-03-11 12:24:49.026
54.0, 0.0, 6906.689036689882, -28983.574090430033, -31629.79711649384, -35470.0726831046, 0.0, -49672.92990361809, -2869.271083983312, 11023.098054301508, -6219.9093365561175, -21077.672669610103, 21075.728067842494, -34869.97304796852, -4566.215523030224, 13840.69190510415, 16879.38921205869, -0.096, 0.966, -0.15, 192.0, 0.0, 0.0, 0.0, 0.0, 0.0, 0.0, 0.0, 0.0, 0.0, 1.741713889026747E9, 0.0, 2025-03-11 12:24:49.026
56.0, 0.0, 6874.2790072296875, -29008.585692475524, -31663.101215732244, -35479.39336054246, 0.0, -49701.71895047653, -2904.072750100225, 11023.7015514018, -6208.979333517473, -21073.11291374122, 21085.83105633629, -34864.362760110234, -4551.418668200811, 13880.165085812223, 16885.357127828258, -0.096, 0.966, -0.15, 192.0, 0.0, 0.0, 0.0, 0.0, 0.0, 0.0, 0.0, 0.0, 0.0, 1.741713889042742E9, 0.0, 2025-03-11 12:24:49.042
58.0, 0.0, 6868.132277504477, -28995.465218480258, -31652.439433627063, -35474.0736453621, 0.0, -49688.64317997017, -2887.5548109477536, 11003.786147092122, -6236.941365831061, -21086.099277269757, 21067.748495071948, -34874.37634162621, -4575.893828379372, 13851.97953605408, 16870.604976487753, -0.1, 0.964, -0.154, 192.0, 126.0, 112.0, 15.0, 16.0, 125.5, 24.0, 0.0, 0.0, 0.0, 1.741713889066774E9, 0.0, 2025-03-11 12:24:49.066
60.0, 0.0, 6851.189655207355, -29012.474896010746, -31668.130358234688, -35488.80344495815, 0.0, -49712.336029092796, -2911.3594187926556, 10996.834754566522, -6251.604110193743, -21089.675556382605, 21064.1722159591, -34879.62900157321, -4572.608121944442, 13874.197170042655, 16869.57679624281, -0.1, 0.964, -0.154, 192.0, 0.0, 0.0, 0.0, 0.0, 0.0, 0.0, 0.0, 0.0, 0.0, 1.74171388910177E9, 0.0, 2025-03-11 12:24:49.101
62.0, 0.0, 6867.55113214864, -28990.54783470009, -31647.83497426927, -35480.39918904295, 0.0, -49694.991075395475, -2890.2370202823904, 10991.693853341802, -6246.977299091494, -21086.233387736487, 21064.93217527058, -34877.39382712768, -4580.766508670629, 13855.041725044457, 16873.644813733677, -0.1, 0.964, -0.154, 192.0, 0.0, 0.0, 0.0, 0.0, 0.0, 0.0, 0.0, 0.0, 0.0, 1.741713889101788E9, 0.0, 2025-03-11 12:24:49.101
64.0, 0.0, 6846.853416783026, -29004.02593660664, -31658.720273819006, -35471.659656960925, 0.0, -49709.8326337138, -2917.707314217963, 10986.843524795, -6240.607051921732, -21087.060402281335, 21071.011849762424, -34881.68536206309, -4570.864685876928, 13879.025146845002, 16872.43781953309, -0.1, 0.964, -0.154, 192.0, 0.0, 0.0, 0.0, 0.0, 0.0, 0.0, 0.0, 0.0, 0.0, 1.741713889101799E9, 0.0, 2025-03-11 12:24:49.101
66.0, 0.0, 6854.698879086838, -28993.230044034728, -31647.432642869073, -35468.32924703709, 0.0, -49694.76755795092, -2885.8113748802393, 10992.811440564567, -6234.66148789662, -21079.773733588903, 21074.923405042104, -34875.76214978244, -4572.205790544247, 13865.971728083103, 16877.042278890884, -0.1, 0.964, -0.154, 192.0, 0.0, 0.0, 0.0, 0.0, 0.0, 0.0, 0.0, 0.0, 0.0, 1.741713889140999E9, 0.0, 2025-03-11 12:24:49.140
68.0, 0.0, 6820.97009670378, -29030.445698552812, -31686.347029965764, -35473.693665706356, 0.0, -49726.46233158855, -2919.2048810964684, 10968.179818174818, -6259.9413108755725, -21099.64443440967, 21054.382151887676, -34895.99047851449, -4582.107613337947, 13863.93771933767, 16863.497121750966, -0.092, 0.966, -0.152, 192.0, 126.5, 16.0, 15.0, 24.0, 125.5, 32.0, 0.0, 0.0, 0.0, 1.741713889141044E9, 0.0, 2025-03-11 12:24:49.141
70.0, 0.0, 6830.156663674911, -29025.32714907255, -31684.26831773142, -35516.36314587154, 0.0, -49722.84134898679, -2920.5012822748763, 10950.611347032947, -6271.8547906702515, -21125.103071344267, 21031.605724287718, -34915.14592351269, -4620.083227167514, 13829.896012532237, 16828.829566100787, -0.092, 0.966, -0.152, 192.0, 0.0, 0.0, 0.0, 0.0, 0.0, 0.0, 0.0, 0.0, 0.0, 1.741713889141056E9, 0.0, 2025-03-11 12:24:49.141
72.0, 0.0, 6844.998221993234, -29005.7470209297, -31666.74455007846, -35460.908467877925, 0.0, -49705.474043545015, -2905.5256134898204, 10984.7424608162, -6244.250386267947, -21095.59876866326, 21062.808759547326, -34884.009943486446, -4586.689720951285, 13852.426570943186, 16859.876139149208, -0.092, 0.966, -0.152, 192.0, 0.0, 0.0, 0.0, 0.0, 0.0, 0.0, 0.0, 0.0, 0.0, 1.741713889141067E9, 0.0, 2025-03-11 12:24:49.141
74.0, 0.0, 6857.694012843849, -29000.382602260426, -31661.000151753447, -35483.68489547788, 0.0, -49701.74130222098, -2908.118415846636, 10979.690966569302, -6272.145363348171, -21097.096335541766, 21053.331619898276, -34879.76311203994, -4590.131889597403, 13862.88718734827, 16857.216281559024, -0.092, 0.966, -0.152, 192.0, 0.0, 0.0, 0.0, 0.0, 0.0, 0.0, 0.0, 0.0, 0.0, 1.741713889225091E9, 0.0, 2025-03-11 12:24:49.225
76.0, 0.0, 6848.798018550637, -29016.945244901806, -31674.657067615637, -35466.02701735819, 0.0, -49715.264107616444, -2909.4371687694993, 10988.564609118059, -6207.437063150056, -21089.11676277122, 21075.88453005368, -34873.102292192256, -4580.274770292613, 13864.608271671328, 16860.72550543851, -0.095, 0.966, -0.152, 192.0, 126.0, 120.0, 15.0, 24.0, 125.5, 32.0, 0.0, 0.0, 0.0, 1.741713889225109E9, 0.0, 2025-03-11 12:24:49.225
78.0, 0.0, 6836.1916346778435, -29026.869419439965, -31681.429646185596, -35512.295128380676, 0.0, -49724.83065424331, -2928.480855045421, 10960.960204715753, -6250.508874715433, -21119.55983871935, 21040.367608114197, -34900.214958216544, -4605.420482804833, 13854.192358755156, 16833.590487669764, -0.095, 0.966, -0.152, 192.0, 0.0, 0.0, 0.0, 0.0, 0.0, 0.0, 0.0, 0.0, 0.0, 1.741713889225121E9, 0.0, 2025-03-11 12:24:49.225
80.0, 0.0, 6852.597815108039, -29008.920968642353, -31668.286820445875, -35457.265133531706, 0.0, -49707.77627322391, -2916.76854095084, 10974.550065344582, -6231.509891928422, -21096.80576286385, 21059.16542520111, -34878.846690517275, -4584.543953483576, 13854.862911088814, 16847.113293065227, -0.095, 0.966, -0.152, 192.0, 0.0, 0.0, 0.0, 0.0, 0.0, 0.0, 0.0, 0.0, 0.0, 1.741713889225132E9, 0.0, 2025-03-11 12:24:49.225
82.0, 0.0, 6857.6716610993935, -29005.99289011871, -31665.783425066882, -35482.52260476621, 0.0, -49701.428377798606, -2892.338084261189, 10975.690004311802, -6234.505025685433, -21095.844637852268, 21055.231518176977, -34879.07020796183, -4584.208677316747, 13880.455658490142, 16849.43787448858, -0.095, 0.966, -0.152, 192.0, 0.0, 0.0, 0.0, 0.0, 0.0, 0.0, 0.0, 0.0, 0.0, 1.741713889225142E9, 0.0, 2025-03-11 12:24:49.225
86.0, 0.0, 6831.855396253514, -29037.262980611682, -31689.99036431198, -35520.542922084685, 0.0, -49733.793703769894, -2953.87243674665, 10946.655088264357, -6272.346529048268, -21127.092376600787, 21027.716520752492, -34916.35291771328, -4615.478767809721, 13860.160274524722, 16813.943304293553, -0.0985, 0.966, -0.155, 192.0, 126.0, 104.0, 15.0, 24.0, 125.5, 8.0, 0.0, 0.0, 0.0, 1.741713889225154E9, 0.0, 2025-03-11 12:24:49.225
88.0, 0.0, 6866.433544925874, -29008.518637242156, -31661.40248315364, -35488.445817046864, 0.0, -49716.806377983856, -2917.6849624735073, 10964.894111739888, -6236.04729605285, -21107.1322688022, 21049.040084962857, -34896.32575468132, -4603.274715337124, 13849.185567997167, 16839.245479016958, -0.0985, 0.966, -0.155, 192.0, 0.0, 0.0, 0.0, 0.0, 0.0, 0.0, 0.0, 0.0, 0.0, 1.741713889241016E9, 0.0, 2025-03-11 12:24:49.241
88.0, 0.0, 6881.923303833402, -29005.523503485147, -31656.999189495946, -35486.36710481252, 0.0, -49712.44778781507, -2917.372038051133, 10964.894111739888, -6236.04729605285, -21107.1322688022, 21049.040084962857, -34896.32575468132, -4603.274715337124, 13849.185567997167, 16839.245479016958, -0.0985, 0.966, -0.155, 192.0, 0.0, 0.0, 0.0, 0.0, 0.0, 0.0, 0.0, 0.0, 0.0, 1.741713889269066E9, 0.0, 2025-03-11 12:24:49.269
114.0, 0.0, 6881.6774346443935, -28997.678041181334, -31655.680436573082, -35477.71697970831, 0.0, -49703.55179352186, -2914.667476972041, 10973.812457777556, -6245.658546168631, -21099.84560010977, 21058.181948445075, -34890.46959763403, -4590.601276230965, 13913.424481561718, 16844.922822108605, -0.09825, 0.967, -0.1565, 192.0, 126.0, 120.0, 15.0, 32.0, 125.5, 8.0, 0.0, 0.0, 0.0, 1.7417138892691E9, 0.0, 2025-03-11 12:24:49.269
114.0, 0.0, 6858.766896577704, -29013.12309659995, -31673.98651528198, -35500.58281428609, 0.0, -49721.902575719665, -2930.8501399576835, 10973.812457777556, -6245.658546168631, -21099.84560010977, 21058.181948445075, -34890.46959763403, -4590.601276230965, 13913.424481561718, 16844.922822108605, -0.09825, 0.967, -0.1565, 192.0, 63.0, 60.0, 7.5, 16.0, 62.75, 4.0, 0.0, 0.0, 0.0, 1.741713889269111E9, 0.0, 2025-03-11 12:24:49.269
112.0, 0.0, 6875.955388063835, -28998.72857317073, -31651.9700469935, -35477.15818609693, 0.0, -49708.916212191136, -2919.920136919038, 10985.7929928056, -6232.180444262081, -21086.993347047966, 21064.038105492367, -34876.387998627186, -4588.008473874149, 13902.338016311887, 16843.022923829903, -0.09825, 0.967, -0.1565, 192.0, 0.0, 0.0, 0.0, 0.0, 0.0, 0.0, 0.0, 0.0, 0.0, 1.741713889269122E9, 0.0, 2025-03-11 12:24:49.269
104.0, 0.0, 6905.772615167215, -28981.24950900668, -31631.83112523927, -35475.34769479605, 0.0, -49696.93567716309, -2893.8803546286053, 11004.769623848155, -6198.071682223283, -21064.999230503945, 21093.07302153981, -34860.4288530861, -4570.149430054358, 13904.170859357222, 16873.600110244766, -0.09825, 0.967, -0.1565, 192.0, 0.0, 0.0, 0.0, 0.0, 0.0, 0.0, 0.0, 0.0, 0.0, 1.74171388932917E9, 0.0, 2025-03-11 12:24:49.329
106.0, 0.0, 6877.788231109171, -29014.3971460339, -31666.69984658955, -35482.299087321655, 0.0, -49726.21646239954, -2925.4857212884094, 11005.08254827053, -6199.479842123967, -21067.077942738288, 21092.000137805957, -34859.49007981898, -4560.515828194121, 13926.880231723813, 16868.10158110876, -0.09825, 0.967, -0.1565, 192.0, 0.0, 0.0, 0.0, 0.0, 0.0, 0.0, 0.0, 0.0, 0.0, 1.741713889329186E9, 0.0, 2025-03-11 12:24:49.329
116.0, 0.0, 6906.1302430785, -28982.30004099608, -31634.49098282945, -35489.25047984725, 0.0, -49692.17475559411, -2901.0999680876694, 10988.475202140236, -6225.139644758659, -21083.953509802046, 21070.944794529056, -34880.858347518246, -4584.007511616649, 13910.451699549163, 16855.226976302503, -0.101125, 0.9655, -0.15725, 192.0, 126.0, 96.0, 15.0, 16.0, 125.5, 8.0, 0.0, 0.0, 0.0, 1.741713889329197E9, 0.0, 2025-03-11 12:24:49.329
120.0, 0.0, 6919.027199629212, -28970.297154223583, -31624.38799433565, -35477.44875877485, 0.0, -49678.763708920924, -2889.2311917819015, 10997.974693533743, -6200.686836324553, -21069.044896250358, 21088.69207962657, -34863.89337347667, -4572.518714966621, 13930.14358641429, 16867.788656686385, -0.101125, 0.9655, -0.15725, 192.0, 0.0, 0.0, 0.0, 0.0, 0.0, 0.0, 0.0, 0.0, 0.0, 1.741713889395944E9, 0.0, 2025-03-11 12:24:49.395
122.0, 0.0, 6878.928170076391, -29003.578901717534, -31657.110948218222, -35488.46816879132, 0.0, -49715.10764540525, -2928.2349858564125, 10989.257513196173, -6221.541013901355, -21077.985594032478, 21076.39862017615, -34872.14116718068, -4577.0561190910485, 13940.917127241746, 16853.438836746078, -0.101125, 0.9655, -0.15725, 192.0, 0.0, 0.0, 0.0, 0.0, 0.0, 0.0, 0.0, 0.0, 0.0, 1.741713889395959E9, 0.0, 2025-03-11 12:24:49.395
124.0, 0.0, 6901.883411631991, -28991.486607967214, -31642.671721300096, -35461.28844753366, 0.0, -49704.781139466904, -2916.3885612950994, 10973.231312421718, -6253.61576719472, -21092.804800606347, 21056.21499493301, -34884.926365009116, -4598.402035045867, 13928.131929413312, 16837.412635971625, -0.1025625, 0.96275, -0.154625, 192.0, 126.0, 96.0, 15.0, 0.0, 125.5, 32.0, 0.0, 0.0, 0.0, 1.74171388939597E9, 0.0, 2025-03-11 12:24:49.395
128.0, 0.0, 6924.346914809575, -28965.49152916569, -31618.375375077176, -35470.63147671598, 0.0, -49676.14855481965, -2890.371130749122, 10993.16906847585, -6200.485670624455, -21070.609518362227, 21086.591015647773, -34865.50269907746, -4572.04932833306, 13953.389400647808, 16861.932499639093, -0.1025625, 0.96275, -0.154625, 192.0, 0.0, 0.0, 0.0, 0.0, 0.0, 0.0, 0.0, 0.0, 0.0, 1.741713889395981E9, 0.0, 2025-03-11 12:24:49.395
130.0, 0.0, 6901.41402499843, -29000.919044127353, -31647.365587635708, -35491.19508161487, 0.0, -49712.961877937545, -2935.968689437949, 10999.584019134525, -6202.430272392067, -21063.412256647618, 21092.491876183973, -34854.41623382762, -4557.990081070671, 13957.18919720521, 16871.834322432795, -0.10028125, 0.964375, -0.15531250000000002, 192.0, 126.0, 120.0, 15.0, 24.0, 125.5, 16.0, 0.0, 0.0, 0.0, 1.741713889395991E9, 0.0, 2025-03-11 12:24:49.395
132.0, 0.0, 6913.2604495597425, -28993.610023690468, -31630.557075805318, -35468.172784825896, 0.0, -49697.69563647457, -2902.351665777167, 10980.897960769888, -6230.99580180595, -21081.472466167506, 21075.705716098037, -34873.81754801483, -4571.848162632962, 13960.34079317341, 16850.555461711345, -0.10028125, 0.964375, -0.15531250000000002, 192.0, 0.0, 0.0, 0.0, 0.0, 0.0, 0.0, 0.0, 0.0, 0.0, 1.741713889396001E9, 0.0, 2025-03-11 12:24:49.396
144.0, 0.0, 6924.793949698681, -28985.45163696428, -31622.219875123486, -35486.9258984239, 0.0, -49690.96776139352, -2894.305037773256, 10982.261417181662, -6217.8529760662295, -21083.79704759086, 21078.007945776935, -34873.12464393671, -4579.71597668123, 13981.127915516845, 16838.23965051647, -0.10114062500000001, 0.9641875, -0.15565625, 192.0, 126.0, 104.0, 15.0, 16.0, 125.5, 16.0, 0.0, 0.0, 0.0, 1.741713889417229E9, 0.0, 2025-03-11 12:24:49.417
142.0, 0.0, 6930.0466096456785, -28979.4390177058, -31619.291796599842, -35452.34774975154, 0.0, -49689.51489800393, -2895.0649970847367, 10962.234254149706, -6235.130874530181, -21102.773678633414, 21058.11489321171, -34891.09544647878, -4601.263058336146, 13934.837452749904, 16825.47680443249, -0.10114062500000001, 0.9641875, -0.15565625, 192.0, 0.0, 0.0, 0.0, 0.0, 0.0, 0.0, 0.0, 0.0, 0.0, 1.741713889417299E9, 0.0, 2025-03-11 12:24:49.417
148.0, 0.0, 6895.155536550944, -29011.51377099917, -31660.84368954226, -35499.80050323016, 0.0, -49724.003639698465, -2931.8336167137168, 10963.8882832394, -6262.981148121495, -21098.280977997896, 21058.941907756558, -34885.77573129842, -4591.741215198185, 13989.979206321146, 16823.487499175968, -0.10114062500000001, 0.9641875, -0.15565625, 192.0, 0.0, 0.0, 0.0, 0.0, 0.0, 0.0, 0.0, 0.0, 0.0, 1.741713889446246E9, 0.0, 2025-03-11 12:24:49.446
150.0, 0.0, 6917.864908917536, -28985.45163696428, -31629.30537811582, -35473.93953489537, 0.0, -49696.75686320745, -2902.798700666273, 10976.919350256843, -6217.763569088408, -21086.434553436586, 21073.671707352605, -34873.61638231473, -4588.924895396816, 13980.211493994177, 16845.414560486624, -0.10114062500000001, 0.9641875, -0.15565625, 192.0, 0.0, 0.0, 0.0, 0.0, 0.0, 0.0, 0.0, 0.0, 0.0, 1.741713889446288E9, 0.0, 2025-03-11 12:24:49.446
152.0, 0.0, 6901.145804064966, -29003.780067417632, -31645.17511667909, -35505.34373585507, 0.0, -49713.56537503784, -2922.937622420505, 10967.97865247472, -6221.809234834819, -21096.73870763048, 21067.748495071948, -34884.09935046427, -4580.140659825881, 14009.939314119734, 16844.207566286037, -0.10114062500000001, 0.9641875, -0.15565625, 192.0, 0.0, 0.0, 0.0, 0.0, 0.0, 0.0, 0.0, 0.0, 0.0, 1.741713889496363E9, 0.0, 2025-03-11 12:24:49.496
156.0, 0.0, 6918.691923462382, -28986.323354998036, -31627.852514726226, -35483.908412922436, 0.0, -49693.15823235014, -2903.8939361445828, 10989.7939550631, -6199.770414801886, -21073.045858507856, 21092.916559328623, -34849.70001574755, -4551.217502500714, 14041.96936392419, 16869.28622356489, -0.0985703125, 0.96609375, -0.15682812499999998, 192.0, 126.5, 0.0, 15.0, 32.0, 125.5, 8.0, 0.0, 0.0, 0.0, 1.741713889496403E9, 0.0, 2025-03-11 12:24:49.496
158.0, 0.0, 6924.257507831754, -28987.195073031795, -31631.920532217093, -35463.32245627909, 0.0, -49703.238869099485, -2906.084407101203, 10984.451888138281, -6208.6440573506425, -21075.79512307586, 21084.065268524322, -34853.879791960695, -4560.359365982934, 14026.30079106102, 16863.854749662252, -0.0985703125, 0.96609375, -0.15682812499999998, 192.0, 0.0, 0.0, 0.0, 0.0, 0.0, 0.0, 0.0, 0.0, 0.0, 1.741713889496411E9, 0.0, 2025-03-11 12:24:49.496
162.0, 0.0, 6926.4032752994635, -28991.464256222756, -31634.602741551727, -35482.12027336601, 0.0, -49699.72964522, -2909.213651324946, 10995.404242921382, -6208.845223050741, -21063.92634677009, 21091.195475005567, -34832.93620740607, -4547.775333854596, 14038.817767955992, 16874.114200367236, -0.0985703125, 0.96609375, -0.15682812499999998, 192.0, 0.0, 0.0, 0.0, 0.0, 0.0, 0.0, 0.0, 0.0, 0.0, 1.741713889496418E9, 0.0, 2025-03-11 12:24:49.496
164.0, 0.0, 6914.3109815491425, -29010.08325935403, -31656.976837751492, -35480.53329950968, 0.0, -49714.34768609377, -2943.3224133637445, 10970.996137976186, -6222.703304613031, -21089.474390682506, 21068.441399150062, -34858.059568173834, -4564.919121851816, 14031.173471352276, 16843.335848252278, -0.0985703125, 0.96609375, -0.15682812499999998, 192.0, 0.0, 0.0, 0.0, 0.0, 0.0, 0.0, 0.0, 0.0, 0.0, 1.741713889532372E9, 0.0, 2025-03-11 12:24:49.532
166.0, 0.0, 6952.130133167521, -28984.378753230427, -31634.289817129353, -35472.39726452795, 0.0, -49684.91043864613, -2878.2117817654353, 10985.144792216397, -6198.4293101345675, -21078.32087019931, 21084.51230341343, -34843.77680346689, -4562.303967750546, 14024.87027941588, 16852.634173945688, -0.09728515625, 0.966046875, -0.1574140625, 192.0, 126.5, 0.0, 15.0, 24.0, 125.5, 8.0, 0.0, 0.0, 0.0, 1.741713889532387E9, 0.0, 2025-03-11 12:24:49.532
168.0, 0.0, 6922.201147341865, -29015.425326278848, -31665.73872157797, -35471.63730521647, 0.0, -49714.6829622606, -2914.131035105114, 10989.279864940629, -6209.426368406578, -21077.94089054357, 21084.93698655808, -34839.5746755093, -4551.597482156454, 14040.87412844588, 16866.469903763522, -0.09728515625, 0.966046875, -0.1574140625, 192.0, 0.0, 0.0, 0.0, 0.0, 0.0, 0.0, 0.0, 0.0, 0.0, 1.741713889532395E9, 0.0, 2025-03-11 12:24:49.532
170.0, 0.0, 6935.254566103765, -29004.40591626238, -31656.418044140108, -35490.36806707002, 0.0, -49697.226249841005, -2903.5139564888427, 10978.84160028, -6224.4914441694555, -21089.74261161597, 21065.06628573731, -34846.86134420173, -4571.646996932865, 14024.378541037864, 16853.081208834792, -0.09728515625, 0.966046875, -0.1574140625, 192.0, 0.0, 0.0, 0.0, 0.0, 0.0, 0.0, 0.0, 0.0, 0.0, 1.741713889588248E9, 0.0, 2025-03-11 12:24:49.588
170.0, 0.0, 6933.354667825064, -29010.440887265315, -31659.703750575038, -35466.764624925214, 0.0, -49706.8822034457, -2912.5217095043313, 10978.84160028, -6224.4914441694555, -21089.74261161597, 21065.06628573731, -34846.86134420173, -4571.646996932865, 14024.378541037864, 16853.081208834792, -0.099642578125, 0.9650234375, -0.15570703125000002, 192.0, 126.0, 104.0, 15.0, 16.0, 125.5, 24.0, 0.0, 0.0, 0.0, 1.741713889588261E9, 0.0, 2025-03-11 12:24:49.588
170.0, 0.0, 6940.820150473136, -28996.672212680845, -31651.478308615486, -35458.4721277323, 0.0, -49689.93958114858, -2897.926020375016, 10978.84160028, -6224.4914441694555, -21089.74261161597, 21065.06628573731, -34846.86134420173, -4571.646996932865, 14024.378541037864, 16853.081208834792, -0.099642578125, 0.9650234375, -0.15570703125000002, 192.0, 63.0, 52.0, 7.5, 8.0, 62.75, 12.0, 0.0, 0.0, 0.0, 1.741713889588269E9, 0.0, 2025-03-11 12:24:49.588
174.0, 0.0, 6918.4237025289185, -29020.07448912555, -31673.338314692777, -35506.66248877794, 0.0, -49718.46040707355, -2920.635392741608, 10989.726899829735, -6224.558499402821, -21079.952547544544, 21069.156654972634, -34841.25105634345, -4557.945377581761, 14041.947012179735, 16862.893624650675, -0.099642578125, 0.9650234375, -0.15570703125000002, 192.0, 0.0, 0.0, 0.0, 0.0, 0.0, 0.0, 0.0, 0.0, 0.0, 1.741713889588276E9, 0.0, 2025-03-11 12:24:49.588
178.0, 0.0, 6950.833731989113, -28994.88407312442, -31638.98368346497, -35467.23401155877, 0.0, -49677.668473442616, -2885.8784301136056, 11004.970789548253, -6203.905487526118, -21065.423913648596, 21086.9262918146, -34830.85749517173, -4546.970671054205, 14046.707933748716, 16882.04906964887, -0.099642578125, 0.9650234375, -0.15570703125000002, 192.0, 0.0, 0.0, 0.0, 0.0, 0.0, 0.0, 0.0, 0.0, 0.0, 1.741713889588283E9, 0.0, 2025-03-11 12:24:49.588
178.0, 0.0, 6946.922176709435, -28990.637241677912, -31639.430718354073, -35423.7598685932, 0.0, -49667.63254018218, -2883.6209039236196, 11004.970789548253, -6203.905487526118, -21065.423913648596, 21086.9262918146, -34830.85749517173, -4546.970671054205, 14046.707933748716, 16882.04906964887, -0.099642578125, 0.9650234375, -0.15570703125000002, 192.0, 0.0, 0.0, 0.0, 0.0, 0.0, 0.0, 0.0, 0.0, 0.0, 1.741713889588289E9, 0.0, 2025-03-11 12:24:49.588
178.0, 0.0, 6936.349801582075, -28998.639166192912, -31644.906895745626, -35439.42844145637, 0.0, -49673.600455951746, -2897.9707238639267, 11004.970789548253, -6203.905487526118, -21065.423913648596, 21086.9262918146, -34830.85749517173, -4546.970671054205, 14046.707933748716, 16882.04906964887, -0.099642578125, 0.9650234375, -0.15570703125000002, 192.0, 0.0, 0.0, 0.0, 0.0, 0.0, 0.0, 0.0, 0.0, 0.0, 1.741713889588296E9, 0.0, 2025-03-11 12:24:49.588
182.0, 0.0, 6939.903728950469, -28999.063849337563, -31649.153727192133, -35458.11449982101, 0.0, -49676.86381064222, -2893.925058117516, 11001.595676135503, -6224.871423825196, -21075.79512307586, 21074.208149219532, -34838.635902242175, -4552.960938568227, 14059.336669365965, 16879.366860314236, -0.099642578125, 0.9650234375, -0.15570703125000002, 192.0, 0.0, 0.0, 0.0, 0.0, 0.0, 0.0, 0.0, 0.0, 0.0, 1.741713889588302E9, 0.0, 2025-03-11 12:24:49.588
186.0, 0.0, 6939.724914994827, -29005.389393018413, -31652.037102226866, -35453.80061314114, 0.0, -49683.12229908971, -2899.311828531245, 11024.528565946648, -6218.523528399888, -21060.730047312984, 21080.98072778949, -34826.90123640314, -4540.846293073451, 14060.1189804219, 16886.072383650826, -0.09682128906250001, 0.96451171875, -0.158853515625, 192.0, 126.5, 8.0, 15.0, 16.0, 125.0, 120.0, 0.0, 0.0, 0.0, 1.741713889588309E9, 0.0, 2025-03-11 12:24:49.588
188.0, 0.0, 6931.678286990916, -29017.45933502428, -31657.13329996268, -35438.19909551133, 0.0, -49693.4264532836, -2909.258354813857, 11025.534394447135, -6207.437063150056, -21063.188739203066, 21080.93602430058, -34832.24330332796, -4550.435191444778, 14025.29496256053, 16879.59037775879, -0.09682128906250001, 0.96451171875, -0.158853515625, 192.0, 0.0, 0.0, 0.0, 0.0, 0.0, 0.0, 0.0, 0.0, 0.0, 1.741713889588316E9, 0.0, 2025-03-11 12:24:49.588
190.0, 0.0, 6917.46257751734, -29030.132774130438, -31677.65220137265, -35472.03963661667, 0.0, -49716.69461926158, -2924.3234305767337, 11007.250667482695, -6237.880139098184, -21085.764001102925, 21053.912765254114, -34860.78648099738, -4567.847200375462, 14022.813918925993, 16850.75662741144, -0.09682128906250001, 0.96451171875, -0.158853515625, 192.0, 0.0, 0.0, 0.0, 0.0, 0.0, 0.0, 0.0, 0.0, 0.0, 1.741713889628545E9, 0.0, 2025-03-11 12:24:49.628
190.0, 0.0, 6954.164141912955, -28982.992945074195, -31639.006035209422, -35418.9095400464, 0.0, -49673.8239733963, -2879.955217832949, 11007.250667482695, -6237.880139098184, -21085.764001102925, 21053.912765254114, -34860.78648099738, -4567.847200375462, 14022.813918925993, 16850.75662741144, -0.09541064453125, 0.9662558593749999, -0.1594267578125, 192.0, 126.5, 8.0, 15.0, 32.0, 125.5, 0.0, 0.0, 0.0, 0.0, 1.741713889628577E9, 0.0, 2025-03-11 12:24:49.628
190.0, 0.0, 6946.475141820329, -29004.271805795648, -31655.725140061993, -35432.05236578612, 0.0, -49693.64997072816, -2907.403160024066, 11007.250667482695, -6237.880139098184, -21085.764001102925, 21053.912765254114, -34860.78648099738, -4567.847200375462, 14022.813918925993, 16850.75662741144, -0.09541064453125, 0.9662558593749999, -0.1594267578125, 192.0, 63.25, 4.0, 7.5, 16.0, 62.75, 0.0, 0.0, 0.0, 0.0, 1.741713889628585E9, 0.0, 2025-03-11 12:24:49.628
194.0, 0.0, 6937.132112638011, -29004.830599407032, -31661.40248315364, -35451.14075555095, 0.0, -49696.35453180725, -2897.3001715302676, 11038.431350997847, -6216.42246442109, -21058.36076240072, 21080.35487894474, -34836.0207481409, -4548.602348399442, 14032.939259164246, 16866.559310741344, -0.09541064453125, 0.9662558593749999, -0.1594267578125, 192.0, 0.0, 0.0, 0.0, 0.0, 0.0, 0.0, 0.0, 0.0, 0.0, 1.741713889628594E9, 0.0, 2025-03-11 12:24:49.628
198.0, 0.0, 6936.930946937913, -29004.271805795648, -31651.590067337762, -35444.904618847926, 0.0, -49684.03872061238, -2903.8715844001276, 11045.561557479092, -6200.217449690992, -21051.431721619574, 21088.13328601519, -34828.018823625905, -4549.675232133297, 14061.549492067039, 16888.01698541844, -0.09541064453125, 0.9662558593749999, -0.1594267578125, 192.0, 0.0, 0.0, 0.0, 0.0, 0.0, 0.0, 0.0, 0.0, 0.0, 1.741713889628603E9, 0.0, 2025-03-11 12:24:49.628
206.0, 0.0, 6915.853251916558, -29016.78878269062, -31668.040951256866, -35443.65292115843, 0.0, -49701.763653965434, -2911.158253092558, 11034.765664907178, -6205.715978826997, -21071.481236395986, 21073.31407944132, -34840.13346912068, -4562.4380782172775, 14041.20940461271, 16876.371726557223, -0.09541064453125, 0.9662558593749999, -0.1594267578125, 192.0, 0.0, 0.0, 0.0, 0.0, 0.0, 0.0, 0.0, 0.0, 0.0, 1.741713889692795E9, 0.0, 2025-03-11 12:24:49.692
204.0, 0.0, 6948.285633121209, -28992.78300914562, -31649.0196167254, -35429.59367389604, 0.0, -49674.76274666342, -2898.7083314309516, 11034.452740484803, -6210.834528307263, -21066.943832271558, 21076.242157964964, -34842.25688484393, -4565.813191630029, 14028.714779462192, 16888.329909840813, -0.09541064453125, 0.9662558593749999, -0.1594267578125, 192.0, 0.0, 0.0, 0.0, 0.0, 0.0, 0.0, 0.0, 0.0, 0.0, 1.74171388969281E9, 0.0, 2025-03-11 12:24:49.692
210.0, 0.0, 6920.70358046336, -29023.06962288256, -31677.31692520582, -35423.290481959644, 0.0, -49702.16598536563, -2908.7442646913846, 11037.961964364287, -6206.5876968607545, -21064.015753747914, 21074.006983519434, -34840.111117376226, -4563.354499739945, 14036.247317343632, 16869.66620322063, -0.09541064453125, 0.9662558593749999, -0.1594267578125, 192.0, 0.0, 0.0, 0.0, 0.0, 0.0, 0.0, 0.0, 0.0, 0.0, 1.741713889692817E9, 0.0, 2025-03-11 12:24:49.692
212.0, 0.0, 6938.160292882954, -29004.4953232402, -31653.84759352775, -35426.82205758358, 0.0, -49686.16213633563, -2898.9989041088706, 11036.240880041229, -6243.132799045182, -21064.418085148107, 21063.278146180888, -34842.23453309948, -4570.998796343661, 14010.565162964484, 16871.677860221607, -0.09541064453125, 0.9662558593749999, -0.1594267578125, 192.0, 0.0, 0.0, 0.0, 0.0, 0.0, 0.0, 0.0, 0.0, 0.0, 1.741713889692824E9, 0.0, 2025-03-11 12:24:49.692
214.0, 0.0, 6951.593691300594, -28994.235872535217, -31640.59300906575, -35393.987344978734, 0.0, -49679.054281598845, -2897.4566337414544, 11063.510008276702, -6188.169859429581, -21038.981799957968, 21099.51032394294, -34825.761297435914, -4540.958051795727, 14035.710875476703, 16885.468886550534, -0.09541064453125, 0.9662558593749999, -0.1594267578125, 192.0, 0.0, 0.0, 0.0, 0.0, 0.0, 0.0, 0.0, 0.0, 0.0, 1.741713889692831E9, 0.0, 2025-03-11 12:24:49.692
216.0, 0.0, 6942.071848162634, -29001.142561571905, -31649.26548591441, -35446.13396479296, 0.0, -49691.39244453817, -2904.720950689429, 11052.535301749147, -6191.455565864511, -21050.93998324156, 21088.31209997083, -34839.90995167613, -4550.23402574468, 14032.603982997416, 16872.39311604418, -0.093705322265625, 0.9641279296874999, -0.15671337890624998, 192.0, 126.5, 16.0, 15.0, 8.0, 125.5, 24.0, 0.0, 0.0, 0.0, 1.741713889752959E9, 0.0, 2025-03-11 12:24:49.752
218.0, 0.0, 6939.255528361265, -28989.430247477325, -31640.145974176645, -35407.37603990746, 0.0, -49686.519764246914, -2906.2408693123903, 11056.268043073183, -6187.275789651369, -21046.40257911713, 21091.754268616947, -34837.875942930696, -4539.214615728213, 14036.82846269947, 16868.883892164697, -0.093705322265625, 0.9641279296874999, -0.15671337890624998, 192.0, 0.0, 0.0, 0.0, 0.0, 0.0, 0.0, 0.0, 0.0, 0.0, 1.741713889752975E9, 0.0, 2025-03-11 12:24:49.752
220.0, 0.0, 6917.395522283974, -29001.902520883385, -31653.869945272203, -35432.20882799731, 0.0, -49696.44393878507, -2907.29140130179, 11049.651926714412, -6198.22814443447, -21052.728122797984, 21083.908806313135, -34841.005187154435, -4544.780200097585, 14039.644782500838, 16869.018002631426, -0.093705322265625, 0.9641279296874999, -0.15671337890624998, 192.0, 0.0, 0.0, 0.0, 0.0, 0.0, 0.0, 0.0, 0.0, 0.0, 1.741713889753005E9, 0.0, 2025-03-11 12:24:49.753
222.0, 0.0, 6900.0505685866565, -29013.726593700245, -31666.78925356737, -35426.352670950015, 0.0, -49706.59163076778, -2924.926927677027, 11030.09415031602, -6222.6138976352095, -21074.431666664084, 21059.768922301402, -34859.33361760779, -4561.946339839261, 14020.019950869078, 16857.417447259122, -0.093705322265625, 0.9641279296874999, -0.15671337890624998, 192.0, 0.0, 0.0, 0.0, 0.0, 0.0, 0.0, 0.0, 0.0, 0.0, 1.741713889753012E9, 0.0, 2025-03-11 12:24:49.753
224.0, 0.0, 6924.302211320664, -28999.443828993302, -31648.12554694719, -35432.05236578612, 0.0, -49687.34677879176, -2913.3040205602674, 11032.195214294818, -6204.620743348688, -21073.40348641914, 21065.446265393053, -34859.46772807452, -4561.4769532057, 14020.623447969372, 16860.211415316036, -0.093705322265625, 0.9641279296874999, -0.15671337890624998, 192.0, 0.0, 0.0, 0.0, 0.0, 0.0, 0.0, 0.0, 0.0, 0.0, 1.741713889753019E9, 0.0, 2025-03-11 12:24:49.753
226.0, 0.0, 6915.897955405469, -28999.801456904588, -31650.9195150041, -35403.66565032788, 0.0, -49695.68397947359, -2911.8064536817615, 11044.28750804514, -6197.7811095453635, -21064.619250848205, 21076.733896342983, -34845.2743703454, -4548.04355478806, 14021.316352047486, 16869.66620322063, -0.0948526611328125, 0.9640639648437499, -0.15635668945312498, 192.0, 126.5, 0.0, 15.0, 16.0, 125.5, 16.0, 0.0, 0.0, 0.0, 1.741713889753026E9, 0.0, 2025-03-11 12:24:49.753
228.0, 0.0, 6914.266278060231, -28998.21448304826, -31653.892297016657, -35432.25353148622, 0.0, -49693.381749794695, -2902.5528314772646, 11034.296278273616, -6209.225202706481, -21070.90009104015, 21066.98853576047, -34849.677664003095, -4555.3972787138555, 14031.173471352276, 16864.257081062446, -0.0948526611328125, 0.9640639648437499, -0.15635668945312498, 192.0, 0.0, 0.0, 0.0, 0.0, 0.0, 0.0, 0.0, 0.0, 0.0, 1.741713889774941E9, 0.0, 2025-03-11 12:24:49.774
230.0, 0.0, 6921.575298497117, -28999.15325631538, -31658.40734939663, -35398.03301072514, 0.0, -49696.7792149519, -2915.2262705834237, 11047.506159246703, -6195.009493232906, -21057.399637389142, 21078.0750010103, -34839.30645457583, -4557.721860137208, 14021.785738681048, 16870.247348576468, -0.0948526611328125, 0.9640639648437499, -0.15635668945312498, 192.0, 0.0, 0.0, 0.0, 0.0, 0.0, 0.0, 0.0, 0.0, 0.0, 1.741713889774955E9, 0.0, 2025-03-11 12:24:49.774
232.0, 0.0, 6910.5558884806505, -29009.21154132027, -31669.65027685765, -35443.18353452486, 0.0, -49702.50126153246, -2918.6460874850854, 11030.764702649678, -6207.9958567614385, -21074.431666664084, 21063.88164328118, -34854.25977161643, -4579.648921447864, 14026.524308505574, 16852.254194289948, -0.0948526611328125, 0.9640639648437499, -0.15635668945312498, 192.0, 0.0, 0.0, 0.0, 0.0, 0.0, 0.0, 0.0, 0.0, 0.0, 1.741713889828022E9, 0.0, 2025-03-11 12:24:49.828
234.0, 0.0, 6918.1331298509995, -29007.088125597016, -31666.9233640341, -35415.33326093355, 0.0, -49691.906534660644, -2912.477006015421, 11037.269060286173, -6208.375836417179, -21069.581338117285, 21068.061419494323, -34844.581466267286, -4579.33599702549, 14006.877125129358, 16865.06174386284, -0.0948526611328125, 0.9640639648437499, -0.15635668945312498, 192.0, 0.0, 0.0, 0.0, 0.0, 0.0, 0.0, 0.0, 0.0, 0.0, 1.74171388982804E9, 0.0, 2025-03-11 12:24:49.828
236.0, 0.0, 6919.98832464079, -29011.49141925471, -31671.70663734754, -35426.30796746111, 0.0, -49690.16309859313, -2932.4594655584656, 11034.497443973714, -6227.285412226369, -21076.800951576348, 21059.813625790313, -34850.437623314574, -4577.704319680252, 14034.079198131467, 16859.071476348814, -0.09842633056640626, 0.9670319824218749, -0.1561783447265625, 192.0, 126.0, 104.0, 15.0, 40.0, 125.5, 16.0, 0.0, 0.0, 0.0, 1.741713889879756E9, 0.0, 2025-03-11 12:24:49.879
242.0, 0.0, 6935.925118437424, -28992.35832600097, -31654.294628416854, -35405.0067549952, 0.0, -49672.10288907324, -2886.504278958354, 11035.905603874398, -6200.932705513562, -21065.513320626418, 21073.73876258597, -34837.40655629713, -4577.2349330466905, 14019.215288068688, 16873.398944544668, -0.09842633056640626, 0.9670319824218749, -0.1561783447265625, 192.0, 0.0, 0.0, 0.0, 0.0, 0.0, 0.0, 0.0, 0.0, 0.0, 1.741713889879775E9, 0.0, 2025-03-11 12:24:49.879
242.0, 0.0, 6929.309002078653, -28990.74900040019, -31650.606590581727, -35406.59372885153, 0.0, -49684.865735157226, -2903.379846022111, 11035.905603874398, -6200.932705513562, -21065.513320626418, 21073.73876258597, -34837.40655629713, -4577.2349330466905, 14019.215288068688, 16873.398944544668, -0.09921316528320313, 0.9665159912109375, -0.15708917236328124, 192.0, 126.0, 112.0, 15.0, 24.0, 125.5, 8.0, 0.0, 0.0, 0.0, 1.741713889879782E9, 0.0, 2025-03-11 12:24:49.879
242.0, 0.0, 6914.3109815491425, -29000.896692382896, -31666.297515189355, -35407.5101503742, 0.0, -49689.85017417076, -2914.600421738675, 11035.905603874398, -6200.932705513562, -21065.513320626418, 21073.73876258597, -34837.40655629713, -4577.2349330466905, 14019.215288068688, 16873.398944544668, -0.09921316528320313, 0.9665159912109375, -0.15708917236328124, 192.0, 63.0, 56.0, 7.5, 12.0, 62.75, 4.0, 0.0, 0.0, 0.0, 1.741713889879813E9, 0.0, 2025-03-11 12:24:49.879
244.0, 0.0, 6927.252641588765, -28992.335974256515, -31654.249924927943, -35406.75019106271, 0.0, -49680.5742002218, -2895.020293595826, 11034.94447886282, -6219.574060389288, -21066.9214805271, 21068.64256485016, -34841.13929762117, -4569.836505631984, 14037.96840166669, 16865.687592707585, -0.09921316528320313, 0.9665159912109375, -0.15708917236328124, 192.0, 0.0, 0.0, 0.0, 0.0, 0.0, 0.0, 0.0, 0.0, 0.0, 1.74171388987982E9, 0.0, 2025-03-11 12:24:49.879
248.0, 0.0, 6924.145749109477, -28991.441904478303, -31646.22564866849, -35405.4090863954, 0.0, -49683.21170606753, -2898.6412761975857, 11039.034848098141, -6196.685874067053, -21063.3228496698, 21077.225634721, -34844.581466267286, -4560.940511338772, 14040.225927856676, 16867.38632528619, -0.09921316528320313, 0.9665159912109375, -0.15708917236328124, 192.0, 0.0, 0.0, 0.0, 0.0, 0.0, 0.0, 0.0, 0.0, 0.0, 1.741713889879827E9, 0.0, 2025-03-11 12:24:49.879
248.0, 0.0, 6901.101100576056, -28998.661517937366, -31656.59685809575, -35397.071885713565, 0.0, -49690.47602301551, -2918.444921784988, 11039.034848098141, -6196.685874067053, -21063.3228496698, 21077.225634721, -34844.581466267286, -4560.940511338772, 14040.225927856676, 16867.38632528619, -0.09860658264160158, 0.9702579956054687, -0.15554458618164063, 192.0, 126.0, 120.0, 15.0, 56.0, 125.5, 24.0, 0.0, 0.0, 0.0, 1.741713889879834E9, 0.0, 2025-03-11 12:24:49.879
248.0, 0.0, 6910.801757669659, -28998.192131303804, -31652.93117200508, -35410.19235970883, 0.0, -49695.907496918146, -2913.795758938284, 11039.034848098141, -6196.685874067053, -21063.3228496698, 21077.225634721, -34844.581466267286, -4560.940511338772, 14040.225927856676, 16867.38632528619, -0.09860658264160158, 0.9702579956054687, -0.15554458618164063, 192.0, 63.0, 60.0, 7.5, 28.0, 62.75, 12.0, 0.0, 0.0, 0.0, 1.74171388987984E9, 0.0, 2025-03-11 12:24:49.879
252.0, 0.0, 6889.321731248108, -29016.36409954597, -31673.248907714955, -35416.60731036751, 0.0, -49715.062941916345, -2935.029916170826, 11017.621876909958, -6217.0930167547485, -21079.68432661108, 21060.238308934964, -34857.81369898483, -4571.557589955043, 14034.526233020573, 16856.724543181008, -0.09860658264160158, 0.9702579956054687, -0.15554458618164063, 192.0, 0.0, 0.0, 0.0, 0.0, 0.0, 0.0, 0.0, 0.0, 0.0, 1.741713889879847E9, 0.0, 2025-03-11 12:24:49.879
2.0, 0.0, 6896.1166615625225, -29002.88599763942, -31659.457881386028, -35409.43240039735, 0.0, -49691.50420326045, -2924.8151689547503, 11022.47220545676, -6216.668333610098, -21080.421934178106, 21049.420064618596, -34857.165498395625, -4571.490534721677, 14028.1112823619, 16855.09286583577, -0.09860658264160158, 0.9702579956054687, -0.15554458618164063, 192.0, 0.0, 0.0, 0.0, 0.0, 0.0, 0.0, 0.0, 0.0, 0.0, 1.741713889940658E9, 0.0, 2025-03-11 12:24:49.940
8.0, 0.0, 6902.93394362139, -29008.384526775426, -31653.199392938543, -35392.53448158914, 0.0, -49686.43035726909, -2904.408026267055, 11037.537281219636, -6184.817097761285, -21063.233442691977, 21071.190663718065, -34848.94005643607, -4556.023127558605, 14047.266727360098, 16866.00051712996, -0.09860658264160158, 0.9702579956054687, -0.15554458618164063, 192.0, 0.0, 0.0, 0.0, 0.0, 0.0, 0.0, 0.0, 0.0, 0.0, 1.741713889940683E9, 0.0, 2025-03-11 12:24:49.940
8.0, 0.0, 6907.851327401559, -28995.6440324359, -31651.83593652677, -35428.185513995355, 0.0, -49690.47602301551, -2920.2330613414124, 11037.537281219636, -6184.817097761285, -21063.233442691977, 21071.190663718065, -34848.94005643607, -4556.023127558605, 14047.266727360098, 16866.00051712996, -0.09860658264160158, 0.9702579956054687, -0.15554458618164063, 192.0, 0.0, 0.0, 0.0, 0.0, 0.0, 0.0, 0.0, 0.0, 0.0, 1.741713889940693E9, 0.0, 2025-03-11 12:24:49.940
8.0, 0.0, 6899.983513353291, -29003.13186682843, -31661.916573276114, -35382.65501053989, 0.0, -49692.30886606084, -2937.1309801496245, 11037.537281219636, -6184.817097761285, -21063.233442691977, 21071.190663718065, -34848.94005643607, -4556.023127558605, 14047.266727360098, 16866.00051712996, -0.09860658264160158, 0.9702579956054687, -0.15554458618164063, 192.0, 0.0, 0.0, 0.0, 0.0, 0.0, 0.0, 0.0, 0.0, 0.0, 1.741713889940702E9, 0.0, 2025-03-11 12:24:49.940
8.0, 0.0, 6915.182699582899, -28983.55173868558, -31644.571619578794, -35373.89312671341, 0.0, -49673.77926990739, -2906.7102559459518, 11037.537281219636, -6184.817097761285, -21063.233442691977, 21071.190663718065, -34848.94005643607, -4556.023127558605, 14047.266727360098, 16866.00051712996, -0.10130329132080079, 0.9731289978027343, -0.1507722930908203, 192.0, 126.0, 96.0, 15.0, 64.0, 125.5, 56.0, 0.0, 0.0, 0.0, 1.74171388994071E9, 0.0, 2025-03-11 12:24:49.940
22.0, 0.0, 6903.55979246614, -28999.42147724885, -31659.9719715085, -35413.88039754396, 0.0, -49687.570296236314, -2926.871529444639, 11019.342961233016, -6209.068740495293, -21071.727105584992, 21066.295631682355, -34849.29768434736, -4587.583790729498, 14050.574785539484, 16854.779941413395, -0.10130329132080079, 0.9731289978027343, -0.1507722930908203, 192.0, 0.0, 0.0, 0.0, 0.0, 0.0, 0.0, 0.0, 0.0, 0.0, 1.741713889940721E9, 0.0, 2025-03-11 12:24:49.940
26.0, 0.0, 6884.158478278933, -29012.02786112164, -31671.058436758332, -35416.27203420067, 0.0, -49701.45072954306, -2920.993020652893, 11002.825022080544, -6225.161996503115, -21079.84078882227, 21057.623154833695, -34863.82631824331, -4601.173651358325, 14042.058770902011, 16858.84795890426, -0.10130329132080079, 0.9731289978027343, -0.1507722930908203, 192.0, 0.0, 0.0, 0.0, 0.0, 0.0, 0.0, 0.0, 0.0, 0.0, 1.741713889940753E9, 0.0, 2025-03-11 12:24:49.940
28.0, 0.0, 6891.288684760176, -29012.6984134553, -31668.510337890428, -35394.076751956556, 0.0, -49698.32148531932, -2926.558605022264, 11002.243876724706, -6219.372894689191, -21077.762076587926, 21059.768922301402, -34858.640713529676, -4600.927782169317, 14022.500994503618, 16867.274566563912, -0.10130329132080079, 0.9731289978027343, -0.1507722930908203, 192.0, 0.0, 0.0, 0.0, 0.0, 0.0, 0.0, 0.0, 0.0, 0.0, 1.741713889991601E9, 0.0, 2025-03-11 12:24:49.991
30.0, 0.0, 6906.778443667704, -28993.118285312452, -31648.326712647286, -35404.067981728076, 0.0, -49673.57810420729, -2906.374979779122, 10993.70551034278, -6221.809234834819, -21088.11093427073, 21056.617326333206, -34871.001228213456, -4599.631380990909, 14039.39891331183, 16860.636098460687, -0.10365164566040039, 0.9715644989013672, -0.14938614654541016, 192.0, 126.0, 88.0, 15.0, 40.0, 125.5, 48.0, 0.0, 0.0, 0.0, 1.741713889991616E9, 0.0, 2025-03-11 12:24:49.991
32.0, 0.0, 6897.837745885581, -29000.673174938343, -31655.859250528727, -35385.38192336344, 0.0, -49682.474098500505, -2924.904575932572, 11021.891060100921, -6195.814156033297, -21053.97982048748, 21082.880626068192, -34834.74669870695, -4573.569246956021, 14042.841081957948, 16891.079174408816, -0.10365164566040039, 0.9715644989013672, -0.14938614654541016, 192.0, 0.0, 0.0, 0.0, 0.0, 0.0, 0.0, 0.0, 0.0, 0.0, 1.741713889991628E9, 0.0, 2025-03-11 12:24:49.991
34.0, 0.0, 6907.963086123835, -28986.524520698134, -31646.22564866849, -35385.09135068552, 0.0, -49669.97947334999, -2882.0339300672927, 11002.13211800243, -6230.213490750014, -21073.649355608148, 21060.864157779713, -34855.01973092792, -4583.71693893873, 14058.532006565572, 16871.6331567327, -0.10365164566040039, 0.9715644989013672, -0.14938614654541016, 192.0, 0.0, 0.0, 0.0, 0.0, 0.0, 0.0, 0.0, 0.0, 0.0, 1.741713889991638E9, 0.0, 2025-03-11 12:24:49.991
36.0, 0.0, 6896.988379596279, -28999.063849337563, -31660.41900639761, -35367.9475626883, 0.0, -49691.05716837134, -2917.8637764291498, 11019.298257744105, -6208.666409095098, -21055.432683877076, 21078.678498110592, -34835.46195452952, -4573.1222120669145, 14049.59130878345, 16875.634118990198, -0.10365164566040039, 0.9715644989013672, -0.14938614654541016, 192.0, 0.0, 0.0, 0.0, 0.0, 0.0, 0.0, 0.0, 0.0, 0.0, 1.741713889991648E9, 0.0, 2025-03-11 12:24:49.991
38.0, 0.0, 6869.540437405162, -29027.919951429365, -31686.74936136596, -35412.82986555456, 0.0, -49720.56147105235, -2960.5109048498757, 10979.288635169105, -6219.350542944735, -21095.710527385538, 21047.1178349397, -34874.66691430413, -4605.688703738297, 14043.981020925168, 16817.653693873133, -0.10365164566040039, 0.9715644989013672, -0.14938614654541016, 192.0, 0.0, 0.0, 0.0, 0.0, 0.0, 0.0, 0.0, 0.0, 0.0, 1.741713889991657E9, 0.0, 2025-03-11 12:24:49.991
40.0, 0.0, 6877.140030519967, -29020.879151925943, -31672.958335037034, -35405.76671430668, 0.0, -49720.293250118884, -2966.948207253004, 10971.040841465097, -6237.790732120363, -21102.57251293332, 21036.768977256892, -34884.836958031294, -4614.137663142403, 14006.58655245144, 16802.789783810353, -0.1008258228302002, 0.9717822494506836, -0.1496930732727051, 192.0, 126.0, 120.0, 15.0, 48.0, 125.5, 40.0, 0.0, 0.0, 0.0, 1.741713889991667E9, 0.0, 2025-03-11 12:24:49.991
42.0, 0.0, 6906.666684945427, -28999.287366782115, -31647.566753335806, -35394.702600801305, 0.0, -49700.40019755366, -2938.0697534167475, 10995.672463854846, -6205.626571849176, -21078.432628921586, 21066.519149126907, -34870.10715843525, -4580.855915648451, 14044.070427902989, 16826.95201956654, -0.1008258228302002, 0.9717822494506836, -0.1496930732727051, 192.0, 0.0, 0.0, 0.0, 0.0, 0.0, 0.0, 0.0, 0.0, 0.0, 1.741713890041904E9, 0.0, 2025-03-11 12:24:50.041
44.0, 0.0, 6921.262374074742, -28976.130959526417, -31624.45504956902, -35367.05349291009, 0.0, -49677.55671472034, -2915.5168432613427, 11018.113615287974, -6189.17568793007, -21051.1187971972, 21086.345146458763, -34847.50954479093, -4560.448772960755, 14042.036419157555, 16867.878063664208, -0.1008258228302002, 0.9717822494506836, -0.1496930732727051, 192.0, 0.0, 0.0, 0.0, 0.0, 0.0, 0.0, 0.0, 0.0, 0.0, 1.741713890041921E9, 0.0, 2025-03-11 12:24:50.041
46.0, 0.0, 6893.121527805511, -29002.26014879467, -31653.758186549927, -35377.33529535953, 0.0, -49706.30105808986, -2944.06002093077, 11009.552897161591, -6204.911316026606, -21057.13141645568, 21077.31504169882, -34850.5270302924, -4560.672290405309, 14072.88182650588, 16863.6312322177, -0.1008258228302002, 0.9717822494506836, -0.1496930732727051, 192.0, 0.0, 0.0, 0.0, 0.0, 0.0, 0.0, 0.0, 0.0, 0.0, 1.741713890041932E9, 0.0, 2025-03-11 12:24:50.041
48.0, 0.0, 6901.74930116526, -28990.413724233356, -31640.570657321296, -35381.8503477395, 0.0, -49685.893915402165, -2916.500320017376, 10992.386757419916, -6222.703304613031, -21070.78833231787, 21059.50070136794, -34861.009998441936, -4584.0969185944705, 14039.130692378367, 16856.657487947643, -0.1008258228302002, 0.9717822494506836, -0.1496930732727051, 192.0, 0.0, 0.0, 0.0, 0.0, 0.0, 0.0, 0.0, 0.0, 0.0, 1.741713890041966E9, 0.0, 2025-03-11 12:24:50.041
50.0, 0.0, 6899.5811819530945, -28999.26501503766, -31648.729044047483, -35378.60934479348, 0.0, -49688.26320031443, -2921.2388898419013, 10996.968865033254, -6214.522566142388, -21065.714486326517, 21076.242157964964, -34857.32196060681, -4564.539142196077, 14077.240416674664, 16869.018002631426, -0.0974129114151001, 0.9678911247253418, -0.14984653663635256, 192.0, 126.5, 8.0, 15.0, 16.0, 125.5, 40.0, 0.0, 0.0, 0.0, 1.741713890041977E9, 0.0, 2025-03-11 12:24:50.041
52.0, 0.0, 6917.149653094966, -28983.77525613013, -31639.184849165067, -35366.96408593227, 0.0, -49668.705423916035, -2913.6169449826416, 11001.595676135503, -6199.479842123967, -21063.434608392075, 21083.484123168484, -34851.26463785942, -4567.444868975266, 14066.712745036215, 16881.982014415506, -0.0974129114151001, 0.9678911247253418, -0.14984653663635256, 192.0, 0.0, 0.0, 0.0, 0.0, 0.0, 0.0, 0.0, 0.0, 0.0, 1.741713890041987E9, 0.0, 2025-03-11 12:24:50.041
54.0, 0.0, 6894.797908639659, -28993.118285312452, -31650.427776626086, -35348.210972334266, 0.0, -49676.483830986486, -2933.733514992418, 11001.170992990852, -6205.783034060363, -21062.607593847228, 21079.952547544544, -34848.87300120271, -4565.299101507557, 14090.159724969832, 16870.53792125439, -0.0974129114151001, 0.9678911247253418, -0.14984653663635256, 192.0, 0.0, 0.0, 0.0, 0.0, 0.0, 0.0, 0.0, 0.0, 0.0, 1.741713890041996E9, 0.0, 2025-03-11 12:24:50.041
56.0, 0.0, 6907.694865190371, -28984.35640148597, -31642.962293978013, -35385.71719953027, 0.0, -49667.00669133743, -2913.572241493731, 10995.761870832666, -6220.222260978492, -21067.279108438386, 21073.381134674684, -34850.14705063666, -4574.463316734233, 14073.082992205978, 16860.323174038313, -0.0974129114151001, 0.9678911247253418, -0.14984653663635256, 192.0, 0.0, 0.0, 0.0, 0.0, 0.0, 0.0, 0.0, 0.0, 0.0, 1.741713890042006E9, 0.0, 2025-03-11 12:24:50.042
58.0, 0.0, 6901.190507553877, -28991.061924822563, -31650.047796970346, -35377.40235059289, 0.0, -49677.10967983123, -2911.0464943702814, 10999.539315645614, -6210.700417840531, -21061.087675224266, 21079.192588233065, -34850.236457614476, -4569.814153887529, 14084.527085367095, 16864.81587467383, -0.0974129114151001, 0.9678911247253418, -0.14984653663635256, 192.0, 0.0, 0.0, 0.0, 0.0, 0.0, 0.0, 0.0, 0.0, 0.0, 1.74171389009206E9, 0.0, 2025-03-11 12:24:50.092
60.0, 0.0, 6923.028161886712, -28973.69461938079, -31634.44627934054, -35382.09621692851, 0.0, -49662.134011046175, -2905.704427445463, 11004.41199593687, -6203.480804381466, -21052.817529775803, 21084.780524346894, -34847.64365525766, -4575.893828379372, 14078.089782963967, 16862.267775805925, -0.09670645570755004, 0.9679455623626709, -0.14492326831817628, 192.0, 126.5, 0.0, 15.0, 32.0, 125.5, 80.0, 0.0, 0.0, 0.0, 1.741713890092076E9, 0.0, 2025-03-11 12:24:50.092
62.0, 0.0, 6941.267185362242, -28963.45752042026, -31618.88946519965, -35337.34802452898, 0.0, -49655.294377242855, -2895.2661627848343, 11026.89785085891, -6172.188362144037, -21030.15286089812, 21112.072004326823, -34824.733117190975, -4553.206807757236, 14096.619379117416, 16882.42904930461, -0.09670645570755004, 0.9679455623626709, -0.14492326831817628, 192.0, 0.0, 0.0, 0.0, 0.0, 0.0, 0.0, 0.0, 0.0, 0.0, 1.741713890092088E9, 0.0, 2025-03-11 12:24:50.092
64.0, 0.0, 6928.906670678458, -28971.370037957437, -31623.35981409071, -35382.96793496227, 0.0, -49659.54120868936, -2902.664590199541, 11016.191365264818, -6182.313702382291, -21040.814643003305, 21102.192533277575, -34830.47751551599, -4563.510961951132, 14096.775841328603, 16875.164732356636, -0.09670645570755004, 0.9679455623626709, -0.14492326831817628, 192.0, 0.0, 0.0, 0.0, 0.0, 0.0, 0.0, 0.0, 0.0, 0.0, 1.741713890092098E9, 0.0, 2025-03-11 12:24:50.092
66.0, 0.0, 6888.31590274762, -29012.609006477476, -31663.525898876895, -35388.24294665372, 0.0, -49705.36228482274, -2946.049326187292, 11015.453757697793, -6190.60619957521, -21041.239326147956, 21104.584169934293, -34825.56013173582, -4553.609139157431, 14094.227742460698, 16878.450438791566, -0.09670645570755004, 0.9679455623626709, -0.14492326831817628, 192.0, 0.0, 0.0, 0.0, 0.0, 0.0, 0.0, 0.0, 0.0, 0.0, 1.741713890092108E9, 0.0, 2025-03-11 12:24:50.092
68.0, 0.0, 6895.60257144005, -29002.416611005858, -31652.461785371517, -35405.07381022857, 0.0, -49694.20876433954, -2932.370058580644, 10951.684230766801, -6242.28343275588, -21101.11964954372, 21046.916669239603, -34884.211109186544, -4613.802386975573, 14054.955727452723, 16820.62647588569, -0.09670645570755004, 0.9679455623626709, -0.14492326831817628, 192.0, 0.0, 0.0, 0.0, 0.0, 0.0, 0.0, 0.0, 0.0, 0.0, 1.741713890092117E9, 0.0, 2025-03-11 12:24:50.092
70.0, 0.0, 6892.585085938584, -28996.11341906946, -31644.21399166751, -35360.169155617856, 0.0, -49682.764671178425, -2924.9716311659377, 10982.976673004232, -6203.8831357816625, -21068.866082294713, 21082.075963267802, -34845.78846046787, -4575.066813834526, 14072.188922427766, 16868.705078209052, -0.10335322785377501, 0.9679727811813355, -0.14446163415908814, 192.0, 126.0, 72.0, 15.0, 32.0, 125.5, 64.0, 0.0, 0.0, 0.0, 1.74171389009214E9, 0.0, 2025-03-11 12:24:50.092
72.0, 0.0, 6887.690053902871, -28996.73926791421, -31643.722253289492, -35397.47421711376, 0.0, -49677.713176931524, -2904.8774129006165, 10963.575358817025, -6218.702342355531, -21085.361669702732, 21066.340335171266, -34862.3287513648, -4578.866610391929, 14088.639806346871, 16868.23569157549, -0.10335322785377501, 0.9679727811813355, -0.14446163415908814, 192.0, 0.0, 0.0, 0.0, 0.0, 0.0, 0.0, 0.0, 0.0, 0.0, 1.741713890142591E9, 0.0, 2025-03-11 12:24:50.142
74.0, 0.0, 6863.1701902354, -29014.508904756178, -31664.665837844117, -35369.82510922255, 0.0, -49688.82199392581, -2935.1863783820127, 10960.043783193087, -6211.37097017419, -21085.115800513722, 21069.111951483723, -34854.148012894155, -4571.669348677319, 14083.767126055614, 16870.604976487753, -0.10335322785377501, 0.9679727811813355, -0.14446163415908814, 192.0, 0.0, 0.0, 0.0, 0.0, 0.0, 0.0, 0.0, 0.0, 0.0, 1.741713890142608E9, 0.0, 2025-03-11 12:24:50.142
76.0, 0.0, 6864.846571069547, -29005.612910462965, -31655.926305762092, -35388.84644375401, 0.0, -49677.40025250915, -2920.3001165747783, 10933.176986357807, -6240.025906565894, -21106.014681579432, 21045.82143376129, -34879.15961493964, -4589.506040752654, 14089.019786002611, 16840.38541798418, -0.10335322785377501, 0.9679727811813355, -0.14446163415908814, 192.0, 0.0, 0.0, 0.0, 0.0, 0.0, 0.0, 0.0, 0.0, 0.0, 1.741713890142619E9, 0.0, 2025-03-11 12:24:50.142
78.0, 0.0, 6847.9263005168805, -29017.526390257644, -31670.2761257024, -35384.17492916285, 0.0, -49688.754938692444, -2938.62854702813, 10940.843634705978, -6230.526415172389, -21092.424820950608, 21058.628983334183, -34861.72525426451, -4577.637264446887, 14085.64467258986, 16854.064685590827, -0.10335322785377501, 0.9679727811813355, -0.14446163415908814, 192.0, 0.0, 0.0, 0.0, 0.0, 0.0, 0.0, 0.0, 0.0, 0.0, 1.741713890142629E9, 0.0, 2025-03-11 12:24:50.142
80.0, 0.0, 6844.752352804227, -29015.872361167952, -31669.627925113193, -35409.54415911963, 0.0, -49697.650932985656, -2967.797573542306, 10913.35098902595, -6266.445668512067, -21117.257609040455, 21035.003189444924, -34883.49585336397, -4601.441872291788, 14092.21608545972, 16825.09682477675, -0.10267661392688751, 0.9699863905906677, -0.14623081707954405, 192.0, 126.0, 104.0, 15.0, 48.0, 125.5, 48.0, 0.0, 0.0, 0.0, 1.741713890142639E9, 0.0, 2025-03-11 12:24:50.142
82.0, 0.0, 6839.522044601685, -29016.45350652379, -31666.342218678263, -35387.5500425756, 0.0, -49700.109624875746, -2937.4662563164543, 10923.766901942123, -6239.467112954511, -21104.159486789642, 21047.855442506727, -34867.581411311796, -4595.563363500043, 14079.766163798115, 16826.28146723288, -0.10267661392688751, 0.9699863905906677, -0.14623081707954405, 192.0, 0.0, 0.0, 0.0, 0.0, 0.0, 0.0, 0.0, 0.0, 0.0, 1.74171389014265E9, 0.0, 2025-03-11 12:24:50.142
84.0, 0.0, 6835.1858061773555, -29017.83931468002, -31665.090520988768, -35419.222464468774, 0.0, -49695.9298486626, -2939.1426371506022, 10907.383073256384, -6245.412676979623, -21111.51321071544, 21042.714541282003, -34882.62413533022, -4592.09884310947, 14099.860382063436, 16829.075435289793, -0.10267661392688751, 0.9699863905906677, -0.14623081707954405, 192.0, 0.0, 0.0, 0.0, 0.0, 0.0, 0.0, 0.0, 0.0, 0.0, 1.741713890142659E9, 0.0, 2025-03-11 12:24:50.142
86.0, 0.0, 6820.9253932148695, -29033.954922432295, -31675.104102504745, -35411.44405739833, 0.0, -49708.9832674245, -2948.2174453994567, 10897.280084762584, -6249.704211915042, -21115.782393906404, 21040.30055288083, -34893.97882151351, -4596.703302467264, 14074.535855595572, 16827.71197887802, -0.10267661392688751, 0.9699863905906677, -0.14623081707954405, 192.0, 0.0, 0.0, 0.0, 0.0, 0.0, 0.0, 0.0, 0.0, 0.0, 1.741713890142669E9, 0.0, 2025-03-11 12:24:50.142
88.0, 0.0, 6822.221794393277, -29026.489439784225, -31671.438416414076, -35417.09904874552, 0.0, -49707.91038369064, -2948.8432942442055, 10880.829200843478, -6275.09579361627, -21131.428615025117, 21026.800099229826, -34906.3393361973, -4603.252363592668, 14094.607722116438, 16817.229010728483, -0.10267661392688751, 0.9699863905906677, -0.14623081707954405, 192.0, 0.0, 0.0, 0.0, 0.0, 0.0, 0.0, 0.0, 0.0, 0.0, 1.741713890192525E9, 0.0, 2025-03-11 12:24:50.192
90.0, 0.0, 6858.275158199687, -28991.039573078106, -31635.78738400786, -35392.26626065568, 0.0, -49681.73649093348, -2923.831692198717, 10907.897163378855, -6231.5322436728775, -21101.812553621836, 21062.02644849139, -34878.220841672526, -4588.634322718897, 14082.761297555126, 16851.226014045, -0.10133830696344376, 0.9719931952953338, -0.148115408539772, 192.0, 126.0, 112.0, 15.0, 56.0, 125.5, 40.0, 0.0, 0.0, 0.0, 1.741713890192541E9, 0.0, 2025-03-11 12:24:50.192
92.0, 0.0, 6836.1916346778435, -29007.110477341474, -31652.282971415876, -35396.82601652456, 0.0, -49688.844345670266, -2936.1027999046805, 10916.681398949791, -6228.09007502676, -21088.3791552042, 21072.576471874294, -34860.4288530861, -4563.265092762124, 14134.729103413714, 16874.605938745255, -0.10133830696344376, 0.9719931952953338, -0.148115408539772, 192.0, 0.0, 0.0, 0.0, 0.0, 0.0, 0.0, 0.0, 0.0, 0.0, 1.741713890192576E9, 0.0, 2025-03-11 12:24:50.192
94.0, 0.0, 6834.537605588152, -29009.03272736463, -31656.88743077367, -35401.475179371264, 0.0, -49687.21266832503, -2926.6480120000856, 10895.000206828143, -6243.6245374231985, -21110.75325140396, 21045.463805850006, -34876.70092304956, -4592.165898342836, 14104.330730954496, 16859.89849089366, -0.10133830696344376, 0.9719931952953338, -0.148115408539772, 192.0, 0.0, 0.0, 0.0, 0.0, 0.0, 0.0, 0.0, 0.0, 0.0, 1.741713890192587E9, 0.0, 2025-03-11 12:24:50.192
96.0, 0.0, 6826.043942695134, -29016.677023968343, -31670.0749600023, -35400.02231598167, 0.0, -49696.75686320745, -2948.5527215662864, 10889.568732925503, -6249.413639237123, -21116.69881542907, 21040.59112555875, -34880.18779518459, -4593.864630921439, 14128.56002194405, 16838.03848481637, -0.10133830696344376, 0.9719931952953338, -0.148115408539772, 192.0, 0.0, 0.0, 0.0, 0.0, 0.0, 0.0, 0.0, 0.0, 0.0, 1.741713890192596E9, 0.0, 2025-03-11 12:24:50.192
98.0, 0.0, 6852.888387785958, -29008.250416308692, -31668.46563440152, -35413.27690044366, 0.0, -49685.916267146626, -2939.053230172781, 10901.549267953547, -6249.257177025936, -21107.914579858134, 21045.039122705355, -34871.33650438029, -4592.881154165406, 14107.437623433785, 16835.736255137475, -0.10133830696344376, 0.9719931952953338, -0.148115408539772, 192.0, 0.0, 0.0, 0.0, 0.0, 0.0, 0.0, 0.0, 0.0, 0.0, 1.741713890192606E9, 0.0, 2025-03-11 12:24:50.192
100.0, 0.0, 6858.252806455232, -29004.294157540106, -31669.35970417973, -35385.33721987453, 0.0, -49684.284589801384, -2928.570262023242, 10907.293666278561, -6215.0366562648605, -21104.494762956474, 21057.377285644685, -34858.774823996406, -4579.6936249367745, 14127.174213787821, 16840.921859851107, -0.10166915348172188, 0.9719965976476669, -0.15205770426988602, 192.0, 126.0, 104.0, 15.0, 48.0, 125.5, 16.0, 0.0, 0.0, 0.0, 1.741713890192616E9, 0.0, 2025-03-11 12:24:50.192
102.0, 0.0, 6863.1925419798545, -29005.523503485147, -31674.590012382272, -35410.12530447546, 0.0, -49679.7248339325, -2921.7082764754628, 10919.095387350964, -6220.4681301675, -21093.36359421773, 21064.75336131494, -34842.1227743772, -4577.9948923581715, 14118.054702050054, 16852.43300824559, -0.10166915348172188, 0.9719965976476669, -0.15205770426988602, 192.0, 0.0, 0.0, 0.0, 0.0, 0.0, 0.0, 0.0, 0.0, 0.0, 1.741713890249454E9, 0.0, 2025-03-11 12:24:50.249
104.0, 0.0, 6848.619204594995, -29021.661462981876, -31687.106989277243, -35388.51116758718, 0.0, -49689.64900847066, -2929.8666632016498, 10892.183887026775, -6233.633307651676, -21121.303274786864, 21042.02163720389, -34862.48521357599, -4591.785918687096, 14122.681513152304, 16832.71876963601, -0.10166915348172188, 0.9719965976476669, -0.15205770426988602, 192.0, 0.0, 0.0, 0.0, 0.0, 0.0, 0.0, 0.0, 0.0, 0.0, 1.741713890249469E9, 0.0, 2025-03-11 12:24:50.249
106.0, 0.0, 6856.509370387718, -29015.537085001124, -31674.232384470986, -35416.11557198949, 0.0, -49677.087328086775, -2922.602346253675, 10896.095442306452, -6228.626516893687, -21115.93885611759, 21043.943887227048, -34856.0255594284, -4585.90740989535, 14118.79230961708, 16847.873252376707, -0.10166915348172188, 0.9719965976476669, -0.15205770426988602, 192.0, 0.0, 0.0, 0.0, 0.0, 0.0, 0.0, 0.0, 0.0, 0.0, 1.741713890249477E9, 0.0, 2025-03-11 12:24:50.249
108.0, 0.0, 6849.848550540037, -29024.9024659279, -31679.797968840357, -35395.99900197971, 0.0, -49679.09898508775, -2936.3933725825996, 10902.398634242849, -6238.036601309372, -21114.46364098354, 21045.26264014991, -34851.488155303974, -4574.485668478688, 14130.079940567011, 16851.87421463421, -0.10166915348172188, 0.9719965976476669, -0.15205770426988602, 192.0, 0.0, 0.0, 0.0, 0.0, 0.0, 0.0, 0.0, 0.0, 0.0, 1.741713890249485E9, 0.0, 2025-03-11 12:24:50.249
110.0, 0.0, 6857.626957610483, -29031.6526927534, -31682.100198519256, -35419.33422319105, 0.0, -49685.424528768606, -2906.7773111793176, 10895.15666903933, -6245.122104301704, -21123.69491144358, 21037.573640057282, -34860.80883274184, -4580.47593599271, 14121.809795118546, 16856.232804802992, -0.10383457674086094, 0.9729982988238335, -0.156028852134943, 192.0, 126.0, 88.0, 15.0, 56.0, 125.5, 0.0, 0.0, 0.0, 0.0, 1.741713890249492E9, 0.0, 2025-03-11 12:24:50.249
112.0, 0.0, 6844.30531791512, -29046.829527238555, -31699.26633826093, -35406.079638729054, 0.0, -49702.30009583236, -2937.935642950016, 10899.805831886033, -6230.213490750014, -21124.65603645516, 21041.93223022607, -34859.959466452536, -4577.033767346593, 14121.27335325162, 16857.328040281303, -0.10383457674086094, 0.9729982988238335, -0.156028852134943, 192.0, 0.0, 0.0, 0.0, 0.0, 0.0, 0.0, 0.0, 0.0, 0.0, 1.741713890249499E9, 0.0, 2025-03-11 12:24:50.249
114.0, 0.0, 6875.150725263444, -29021.12502111495, -31670.544346635863, -35422.664633114895, 0.0, -49678.09315658727, -2925.664535244052, 10906.511355222627, -6238.729505387486, -21116.475297984518, 21043.40744536012, -34852.47163206001, -4580.230066803702, 14124.26848700863, 16854.08703733528, -0.10383457674086094, 0.9729982988238335, -0.156028852134943, 192.0, 0.0, 0.0, 0.0, 0.0, 0.0, 0.0, 0.0, 0.0, 0.0, 1.741713890249506E9, 0.0, 2025-03-11 12:24:50.249
116.0, 0.0, 6868.087574015567, -29026.06475663957, -31675.685247860583, -35393.24973741171, 0.0, -49687.100909602756, -2915.0698083722364, 10918.335428039483, -6218.903508055629, -21108.920408358623, 21054.180986187577, -34846.70488199054, -4562.125153794904, 14133.008019090656, 16863.13949383968, -0.10383457674086094, 0.9729982988238335, -0.156028852134943, 192.0, 0.0, 0.0, 0.0, 0.0, 0.0, 0.0, 0.0, 0.0, 0.0, 1.741713890249537E9, 0.0, 2025-03-11 12:24:50.249
118.0, 0.0, 6879.442260198863, -29015.157105345384, -31668.108006490234, -35416.093220245035, 0.0, -49681.781194422394, -2926.022163155337, 10924.504509509148, -6223.910298813617, -21105.142963545677, 21052.34814314224, -34845.140259878666, -4568.003662586649, 14139.110045326954, 16857.01511585893, -0.10383457674086094, 0.9729982988238335, -0.156028852134943, 192.0, 0.0, 0.0, 0.0, 0.0, 0.0, 0.0, 0.0, 0.0, 0.0, 1.741713890303839E9, 0.0, 2025-03-11 12:24:50.303
120.0, 0.0, 6881.878600344491, -29023.874285682952, -31675.662896116126, -35398.23417642524, 0.0, -49691.88418291619, -2943.188302897013, 10938.474349793714, -6216.869499310195, -21093.36359421773, 21059.45599787903, -34842.10042263275, -4563.130982295392, 14130.638734178394, 16857.685668192586, -0.10391728837043047, 0.9704991494119167, -0.1560144260674715, 192.0, 126.0, 96.0, 15.0, 32.0, 125.5, 16.0, 0.0, 0.0, 0.0, 1.741713890303859E9, 0.0, 2025-03-11 12:24:50.303
122.0, 0.0, 6907.9183826349245, -29000.628471449432, -31652.93117200508, -35405.029106739654, 0.0, -49664.525647702896, -2910.666514714541, 10953.494722067682, -6210.5216038848885, -21084.489951668973, 21063.591070603263, -34841.09459413226, -4560.068793305015, 14146.821397164036, 16852.030676845396, -0.10391728837043047, 0.9704991494119167, -0.1560144260674715, 192.0, 0.0, 0.0, 0.0, 0.0, 0.0, 0.0, 0.0, 0.0, 0.0, 1.741713890303867E9, 0.0, 2025-03-11 12:24:50.303
124.0, 0.0, 6917.46257751734, -28982.12122704044, -31636.234418896966, -35349.70853921277, 0.0, -49652.768630119404, -2891.4663662274324, 10998.064100511563, -6188.549839085322, -21044.77090177189, 21094.682347140595, -34796.4134569661, -4516.952278250727, 14159.628946736926, 16898.05291867887, -0.10391728837043047, 0.9704991494119167, -0.1560144260674715, 192.0, 0.0, 0.0, 0.0, 0.0, 0.0, 0.0, 0.0, 0.0, 0.0, 1.741713890303875E9, 0.0, 2025-03-11 12:24:50.303
126.0, 0.0, 6900.497603475762, -29007.69162269731, -31661.60364885374, -35403.15156020541, 0.0, -49677.98139786499, -2915.181567094513, 10982.93196951532, -6224.42438893609, -21063.300497925342, 21066.630907849183, -34813.15491356312, -4528.932813278772, 14177.37623183444, 16880.77502021492, -0.10391728837043047, 0.9704991494119167, -0.1560144260674715, 192.0, 0.0, 0.0, 0.0, 0.0, 0.0, 0.0, 0.0, 0.0, 0.0, 1.741713890303881E9, 0.0, 2025-03-11 12:24:50.303
128.0, 0.0, 6905.817318656125, -29009.03272736463, -31662.520070376406, -35384.66666754087, 0.0, -49676.55088621985, -2919.406046796566, 10989.88336204092, -6168.545027797822, -21062.384076402675, 21080.623099878205, -34817.17822756508, -4536.912386049317, 14147.536652986606, 16877.19874110207, -0.10391728837043047, 0.9704991494119167, -0.1560144260674715, 192.0, 0.0, 0.0, 0.0, 0.0, 0.0, 0.0, 0.0, 0.0, 0.0, 1.741713890303889E9, 0.0, 2025-03-11 12:24:50.303
130.0, 0.0, 6919.98832464079, -28996.403991747382, -31644.839840512257, -35379.25754538269, 0.0, -49654.087383042264, -2903.5139564888427, 10988.7434230737, -6198.742234556942, -21071.034201506878, 21068.41904740561, -34829.494038759956, -4540.08633376197, 14161.03710663761, 16868.95094739806, -0.10195864418521525, 0.9722495747059583, -0.15900721303373577, 192.0, 126.0, 112.0, 15.0, 56.0, 125.0, 120.0, 0.0, 0.0, 0.0, 1.741713890303895E9, 0.0, 2025-03-11 12:24:50.303
132.0, 0.0, 6923.922231664924, -28995.241701035706, -31641.352968377232, -35360.504431784684, 0.0, -49649.72879287348, -2902.3963692660773, 11035.458568985292, -6156.989175914428, -21029.281142864365, 21109.590960692283, -34788.76916036238, -4502.021312954583, 14165.37334506194, 16916.24723866549, -0.10195864418521525, 0.9722495747059583, -0.15900721303373577, 192.0, 0.0, 0.0, 0.0, 0.0, 0.0, 0.0, 0.0, 0.0, 0.0, 1.741713890354948E9, 0.0, 2025-03-11 12:24:50.354
134.0, 0.0, 6895.490812717773, -29028.277579340647, -31675.37232343821, -35402.34689740502, 0.0, -49678.60724670974, -2934.3593638371667, 10994.331359187527, -6204.777205559874, -21077.89618705466, 21068.106122983234, -34835.216085340515, -4545.741325109163, 14165.261586339664, 16865.19585432957, -0.10195864418521525, 0.9722495747059583, -0.15900721303373577, 192.0, 0.0, 0.0, 0.0, 0.0, 0.0, 0.0, 0.0, 0.0, 0.0, 1.741713890354989E9, 0.0, 2025-03-11 12:24:50.354
136.0, 0.0, 6920.3012490631645, -28999.26501503766, -31645.130413190178, -35369.445129566804, 0.0, -49651.69574638555, -2898.596572708675, 11008.41295819437, -6192.41669087609, -21069.179006717088, 21075.41514342012, -34821.20154156703, -4544.5343309085765, 14130.370513244929, 16875.276491078912, -0.10195864418521525, 0.9722495747059583, -0.15900721303373577, 192.0, 0.0, 0.0, 0.0, 0.0, 0.0, 0.0, 0.0, 0.0, 0.0, 1.741713890354997E9, 0.0, 2025-03-11 12:24:50.354
138.0, 0.0, 6905.638504700483, -29018.040480380118, -31662.140090720666, -35391.618060066474, 0.0, -49669.264217527416, -2917.9755351514264, 11017.376007720948, -6200.910353769106, -21067.45792239403, 21075.59395737576, -34816.753544420426, -4528.843406300951, 14163.696964227793, 16874.561235256344, -0.10195864418521525, 0.9722495747059583, -0.15900721303373577, 192.0, 0.0, 0.0, 0.0, 0.0, 0.0, 0.0, 0.0, 0.0, 0.0, 1.74171389035502E9, 0.0, 2025-03-11 12:24:50.355
140.0, 0.0, 6901.481080231796, -29013.12309659995, -31664.71054133303, -35386.74537977522, 0.0, -49671.231171039486, -2911.560584492753, 11018.538298432624, -6178.044519191328, -21067.010887504923, 21073.336431185777, -34823.101439845734, -4544.824903586496, 14127.777710888115, 16876.818761446328, -0.10097932209260763, 0.9701247873529791, -0.1555036065168679, 192.0, 126.0, 112.0, 15.0, 32.0, 125.5, 32.0, 0.0, 0.0, 0.0, 1.741713890355027E9, 0.0, 2025-03-11 12:24:50.355
142.0, 0.0, 6928.549042767173, -28996.94043361431, -31652.77470979389, -35392.91446124488, 0.0, -49656.85899935472, -2900.898802387572, 11023.27686825715, -6182.671330293576, -21064.418085148107, 21074.431666664084, -34823.056736356826, -4539.99692678415, 14150.710600699258, 16868.10158110876, -0.10097932209260763, 0.9701247873529791, -0.1555036065168679, 192.0, 0.0, 0.0, 0.0, 0.0, 0.0, 0.0, 0.0, 0.0, 0.0, 1.741713890355035E9, 0.0, 2025-03-11 12:24:50.355
144.0, 0.0, 6929.5772230121165, -28989.385543988414, -31651.567715593308, -35365.824146965046, 0.0, -49655.36143247622, -2897.926020375016, 11040.532414976647, -6164.924045196062, -21045.73202678347, 21086.233387736487, -34801.84493086874, -4537.940566294261, 14140.451149994273, 16886.83234296231, -0.10097932209260763, 0.9701247873529791, -0.1555036065168679, 192.0, 0.0, 0.0, 0.0, 0.0, 0.0, 0.0, 0.0, 0.0, 0.0, 1.741713890355042E9, 0.0, 2025-03-11 12:24:50.355
146.0, 0.0, 6907.001961112257, -29009.03272736463, -31671.50547164744, -35371.0991586565, 0.0, -49670.11358381672, -2916.6120787396526, 11026.450815969803, -6182.514868082389, -21065.826245048793, 21066.228576448986, -34820.28512004437, -4547.596519898953, 14152.029353622122, 16870.470866021024, -0.10097932209260763, 0.9701247873529791, -0.1555036065168679, 192.0, 0.0, 0.0, 0.0, 0.0, 0.0, 0.0, 0.0, 0.0, 0.0, 1.741713890355049E9, 0.0, 2025-03-11 12:24:50.355
148.0, 0.0, 6926.5820892551055, -28989.45259922178, -31658.74262556346, -35375.03306568063, 0.0, -49652.50040918594, -2901.3234855322225, 11031.211737538784, -6187.275789651369, -21062.227614191488, 21064.440436892564, -34811.32207051779, -4552.290386234568, 14129.051760322067, 16877.15403761316, -0.10097932209260763, 0.9701247873529791, -0.1555036065168679, 192.0, 0.0, 0.0, 0.0, 0.0, 0.0, 0.0, 0.0, 0.0, 0.0, 1.741713890404858E9, 0.0, 2025-03-11 12:24:50.404
150.0, 0.0, 6919.854214174058, -29002.88599763942, -31665.626962855695, -35344.90291415488, 0.0, -49656.03198480988, -2909.9736106364267, 11043.66165920039, -6166.600426030211, -21052.191680931053, 21084.1770272466, -34800.23560526795, -4531.123284235392, 14156.164426346353, 16887.25702610696, -0.1034896610463038, 0.9680623936764896, -0.15675180325843396, 192.0, 126.0, 88.0, 15.0, 24.0, 125.5, 8.0, 0.0, 0.0, 0.0, 1.741713890404872E9, 0.0, 2025-03-11 12:24:50.404
152.0, 0.0, 6933.5111300362505, -28994.615852190957, -31651.9700469935, -35362.76195797467, 0.0, -49646.24192073845, -2898.3283517752116, 11025.13206304694, -6198.474013623478, -21068.731971827983, 21065.535672370872, -34818.80990491032, -4558.347708981956, 14120.93807708479, 16868.682726464598, -0.1034896610463038, 0.9680623936764896, -0.15675180325843396, 192.0, 0.0, 0.0, 0.0, 0.0, 0.0, 0.0, 0.0, 0.0, 0.0, 1.74171389040488E9, 0.0, 2025-03-11 12:24:50.404
154.0, 0.0, 6936.640374259994, -28996.6945644253, -31649.48900335896, -35342.891257153904, 0.0, -49649.86290334021, -2896.0484738407704, 11044.421618511871, -6149.12136186616, -21048.05660820682, 21095.062326796335, -34801.55435819082, -4528.239909200658, 14149.32479254303, 16891.4368023201, -0.1034896610463038, 0.9680623936764896, -0.15675180325843396, 192.0, 0.0, 0.0, 0.0, 0.0, 0.0, 0.0, 0.0, 0.0, 0.0, 1.741713890404888E9, 0.0, 2025-03-11 12:24:50.404
156.0, 0.0, 6905.03500760019, -29017.25816932418, -31667.482157645485, -35381.269202383664, 0.0, -49665.01738608091, -2914.9356979055046, 11034.005705595697, -6181.732557026453, -21058.807797289825, 21078.387925432675, -34814.36190776371, -4544.0649442750155, 14132.404521990362, 16881.713793482042, -0.1034896610463038, 0.9680623936764896, -0.15675180325843396, 192.0, 0.0, 0.0, 0.0, 0.0, 0.0, 0.0, 0.0, 0.0, 0.0, 1.741713890404894E9, 0.0, 2025-03-11 12:24:50.404
158.0, 0.0, 6915.383865282997, -29019.98508214773, -31673.092445503768, -35359.20803060628, 0.0, -49673.175772807095, -2927.1397503781022, 11014.783205364134, -6198.27284792338, -21080.31017545583, 21063.814588047815, -34839.619378998206, -4556.291348492068, 14115.305437482053, 16856.18810131408, -0.1034896610463038, 0.9680623936764896, -0.15675180325843396, 192.0, 0.0, 0.0, 0.0, 0.0, 0.0, 0.0, 0.0, 0.0, 0.0, 1.741713890404902E9, 0.0, 2025-03-11 12:24:50.404
160.0, 0.0, 6916.970839139323, -29013.614834977965, -31671.50547164744, -35377.55881280408, 0.0, -49670.091232072264, -2923.563471265253, 11025.75791189169, -6173.998853444917, -21072.017678262913, 21072.062381751824, -34833.45029752854, -4554.5702641690095, 14111.885620580391, 16856.43397050309, -0.1027448305231519, 0.9690311968382448, -0.154375901629217, 192.0, 126.0, 104.0, 15.0, 40.0, 125.5, 32.0, 0.0, 0.0, 0.0, 1.741713890404927E9, 0.0, 2025-03-11 12:24:50.404
162.0, 0.0, 6912.276972803709, -29014.017166378162, -31671.863099558726, -35350.8931816689, 0.0, -49671.58879895077, -2923.5858230097083, 11033.04458058412, -6189.689778052542, -21065.043933992856, 21075.54925388685, -34831.10336436074, -4547.864740832418, 14113.293780481075, 16858.44562750407, -0.1027448305231519, 0.9690311968382448, -0.154375901629217, 192.0, 0.0, 0.0, 0.0, 0.0, 0.0, 0.0, 0.0, 0.0, 0.0, 1.741713890454654E9, 0.0, 2025-03-11 12:24:50.454
164.0, 0.0, 6932.639412002494, -28986.792741631598, -31645.286875401365, -35375.36834184746, 0.0, -49652.03102255238, -2914.823939183228, 11029.04361832662, -6182.805440760308, -21067.279108438386, 21072.285899196377, -34835.52900976289, -4555.441982202767, 14109.918667068323, 16849.124950066205, -0.1027448305231519, 0.9690311968382448, -0.154375901629217, 192.0, 0.0, 0.0, 0.0, 0.0, 0.0, 0.0, 0.0, 0.0, 0.0, 1.741713890454669E9, 0.0, 2025-03-11 12:24:50.454
166.0, 0.0, 6903.60449595505, -29007.937491886318, -31667.079826245288, -35348.30037931209, 0.0, -49678.428432754095, -2917.2379275844014, 11044.198101067317, -6167.069812663772, -21052.236384419964, 21088.80383834885, -34821.00037586693, -4530.89976679084, 14122.79327187458, 16869.465037520535, -0.1027448305231519, 0.9690311968382448, -0.154375901629217, 192.0, 0.0, 0.0, 0.0, 0.0, 0.0, 0.0, 0.0, 0.0, 0.0, 1.741713890454676E9, 0.0, 2025-03-11 12:24:50.454
168.0, 0.0, 6918.8930891624805, -28990.7937038891, -31646.538573090864, -35364.81831846456, 0.0, -49658.915359844614, -2905.1009303451697, 11017.331304232039, -6191.254400164414, -21080.51134115593, 21063.278146180888, -34847.576600024295, -4556.045479303059, 14113.60670490345, 16850.778979155897, -0.1027448305231519, 0.9690311968382448, -0.154375901629217, 192.0, 0.0, 0.0, 0.0, 0.0, 0.0, 0.0, 0.0, 0.0, 0.0, 1.741713890454683E9, 0.0, 2025-03-11 12:24:50.454
170.0, 0.0, 6928.258470089254, -28975.147482770382, -31636.055604941324, -35327.69207092429, 0.0, -49645.705478871525, -2900.474119242921, 11054.591662239036, -6146.819132187264, -21038.937096469057, 21102.281940255398, -34805.82354138178, -4516.4158363838005, 14130.996362089678, 16889.693366252588, -0.10137241526157595, 0.9695155984191224, -0.1551879508146085, 192.0, 126.0, 112.0, 15.0, 40.0, 125.5, 16.0, 0.0, 0.0, 0.0, 1.741713890454691E9, 0.0, 2025-03-11 12:24:50.454
172.0, 0.0, 6910.399426269463, -28992.134808556417, -31648.371416136197, -35375.614211036474, 0.0, -49661.59756917925, -2921.1718346085354, 11028.66363867088, -6188.4604321075, -21061.98174500248, 21074.811646319824, -34829.270521315404, -4540.063982017516, 14134.84086213599, 16865.37466828521, -0.10137241526157595, 0.9695155984191224, -0.1551879508146085, 192.0, 0.0, 0.0, 0.0, 0.0, 0.0, 0.0, 0.0, 0.0, 0.0, 1.741713890454698E9, 0.0, 2025-03-11 12:24:50.454
174.0, 0.0, 6928.481987533807, -28988.893805610398, -31638.804869509328, -35337.862114651456, 0.0, -49660.21176102302, -2913.14755834908, 11040.890042887931, -6161.615987016677, -21046.916669239603, 21095.643472152173, -34816.485323486966, -4526.205900455225, 14119.954600328756, 16876.70700272405, -0.10137241526157595, 0.9695155984191224, -0.1551879508146085, 192.0, 0.0, 0.0, 0.0, 0.0, 0.0, 0.0, 0.0, 0.0, 0.0, 1.741713890454705E9, 0.0, 2025-03-11 12:24:50.454
176.0, 0.0, 6897.457766229841, -29013.12309659995, -31662.944753521057, -35381.0009814502, 0.0, -49681.06593859982, -2937.8462359721943, 11025.75791189169, -6180.704376781509, -21064.909823526123, 21077.985594032478, -34836.75835570793, -4538.700525605742, 14126.682475409803, 16856.836301903284, -0.10137241526157595, 0.9695155984191224, -0.1551879508146085, 192.0, 0.0, 0.0, 0.0, 0.0, 0.0, 0.0, 0.0, 0.0, 0.0, 1.741713890454712E9, 0.0, 2025-03-11 12:24:50.454
178.0, 0.0, 6910.7347024362925, -28998.683869681823, -31650.45012837054, -35357.55400151658, 0.0, -49661.865790112715, -2915.0698083722364, 11023.768606635167, -6190.8520687642185, -21064.820416548304, 21072.621175363205, -34834.05379462884, -4542.6567843743305, 14096.418213417319, 16854.131740824192, -0.10137241526157595, 0.9695155984191224, -0.1551879508146085, 192.0, 0.0, 0.0, 0.0, 0.0, 0.0, 0.0, 0.0, 0.0, 0.0, 1.741713890508887E9, 0.0, 2025-03-11 12:24:50.508
180.0, 0.0, 6924.279859576209, -28989.78787538861, -31642.627017811184, -35370.361551089474, 0.0, -49650.39934520714, -2904.5421367337867, 11030.742350905222, -6177.239856390936, -21058.49487286745, 21081.53952140087, -34828.287044559365, -4528.530481878577, 14123.083844552499, 16859.786732171386, -0.10368620763078798, 0.9687577992095612, -0.15659397540730424, 192.0, 126.0, 88.0, 15.0, 32.0, 125.5, 8.0, 0.0, 0.0, 0.0, 1.741713890508902E9, 0.0, 2025-03-11 12:24:50.508
182.0, 0.0, 6913.126339093011, -28998.572110959543, -31654.473442372495, -35335.89516113939, 0.0, -49661.46345871252, -2917.7743694513288, 11046.701496446312, -6165.12521089616, -21042.647486048638, 21095.643472152173, -34812.55141646283, -4519.925060263284, 14111.393882202374, 16878.986880658493, -0.10368620763078798, 0.9687577992095612, -0.15659397540730424, 192.0, 0.0, 0.0, 0.0, 0.0, 0.0, 0.0, 0.0, 0.0, 0.0, 1.741713890508932E9, 0.0, 2025-03-11 12:24:50.508
184.0, 0.0, 6913.5510222376615, -28996.73926791421, -31653.132337705178, -35345.260542066164, 0.0, -49655.16026677612, -2915.0474566277812, 11023.835661868532, -6179.117402925182, -21067.59203286076, 21073.895224797157, -34829.29287305986, -4537.560586638521, 14124.89433585338, 16854.08703733528, -0.10368620763078798, 0.9687577992095612, -0.15659397540730424, 192.0, 0.0, 0.0, 0.0, 0.0, 0.0, 0.0, 0.0, 0.0, 0.0, 1.741713890508939E9, 0.0, 2025-03-11 12:24:50.508
186.0, 0.0, 6939.411990572452, -28971.81707284654, -31625.2150088805, -35307.2849282366, 0.0, -49630.327478686275, -2898.1048343306584, 11054.904586661409, -6166.801591730308, -21035.40552084512, 21100.60555942125, -34798.38041047817, -4514.091254960448, 14119.909896839847, 16890.47567730852, -0.10368620763078798, 0.9687577992095612, -0.15659397540730424, 192.0, 0.0, 0.0, 0.0, 0.0, 0.0, 0.0, 0.0, 0.0, 0.0, 1.741713890508946E9, 0.0, 2025-03-11 12:24:50.508
188.0, 0.0, 6904.386807010986, -29002.08133483903, -31652.84176502726, -35348.36743454545, 0.0, -49662.64810116865, -2924.7034102324737, 11032.709304417289, -6166.22044637447, -21058.852500778736, 21085.94281505857, -34823.392012523655, -4525.17772021028, 14138.707713926759, 16864.659412462643, -0.10368620763078798, 0.9687577992095612, -0.15659397540730424, 192.0, 0.0, 0.0, 0.0, 0.0, 0.0, 0.0, 0.0, 0.0, 0.0, 1.741713890508953E9, 0.0, 2025-03-11 12:24:50.508
190.0, 0.0, 6904.342103522075, -29004.227102306737, -31653.55702084983, -35347.7415857007, 0.0, -49664.369185491705, -2912.4546542709654, 11031.27879277215, -6187.32049314028, -21057.869024022704, 21083.03708827938, -34819.30164328833, -4523.814263798507, 14110.41040544634, 16879.411563803144, -0.1, 0.962, -0.162, 192.0, 126.0, 112.0, 15.0, 8.0, 125.0, 120.0, 0.0, 0.0, 0.0, 1.74171389050896E9, 0.0, 2025-03-11 12:24:50.508
192.0, 0.0, 6901.704597676349, -29020.02978563664, -31667.75037857895, -35369.33337084453, 0.0, -49679.50131648795, -2943.188302897013, 10995.56070513257, -6217.18242373257, -21094.727050629503, 21056.706733311028, -34855.824393728304, -4547.70827862123, 14103.324902454007, 16841.57006044031, -0.1, 0.962, -0.162, 192.0, 0.0, 0.0, 0.0, 0.0, 0.0, 0.0, 0.0, 0.0, 0.0, 1.741713890524071E9, 0.0, 2025-03-11 12:24:50.524
194.0, 0.0, 6939.121417894533, -28983.015296818652, -31628.67952927107, -35337.303321040075, 0.0, -49642.64328988115, -2889.9464476044714, 11041.918223132876, -6161.83950446123, -21048.950677985034, 21101.36551873273, -34815.68066068657, -4515.6558770723195, 14097.98283552919, 16878.986880658493, -0.1, 0.962, -0.162, 192.0, 0.0, 0.0, 0.0, 0.0, 0.0, 0.0, 0.0, 0.0, 0.0, 1.741713890574509E9, 0.0, 2025-03-11 12:24:50.574
196.0, 0.0, 6900.117623820022, -29022.622587993457, -31670.186718724577, -35366.29353359861, 0.0, -49682.8764299007, -2943.3447651082, 11025.266173513672, -6181.687853537543, -21067.636736349672, 21086.523960414408, -34833.807925439825, -4520.662667830309, 14113.629056647904, 16858.959717626538, -0.1, 0.962, -0.162, 192.0, 0.0, 0.0, 0.0, 0.0, 0.0, 0.0, 0.0, 0.0, 0.0, 1.74171389057452E9, 0.0, 2025-03-11 12:24:50.574
198.0, 0.0, 6910.578240225106, -29006.21640756326, -31651.50066035994, -35360.012693406665, 0.0, -49665.151496547645, -2919.2272328409235, 11016.303123987094, -6200.932705513562, -21074.498721897453, 21072.665878852116, -34845.11790813421, -4537.202958727236, 14083.431849888784, 16849.102598321748, -0.1, 0.962, -0.162, 192.0, 0.0, 0.0, 0.0, 0.0, 0.0, 0.0, 0.0, 0.0, 0.0, 1.741713890574527E9, 0.0, 2025-03-11 12:24:50.574
200.0, 0.0, 6897.882449374491, -29014.732422200734, -31655.300456917343, -35345.93109439982, 0.0, -49679.680130443594, -2933.8452737146945, 11024.483862457737, -6196.4623566225, -21067.480274138485, 21080.444285922564, -34843.01684415541, -4523.903670776328, 14109.873963579414, 16853.595298957265, -0.094, 0.968, -0.162, 192.0, 126.5, 8.0, 15.0, 32.0, 125.0, 120.0, 0.0, 0.0, 0.0, 1.741713890574533E9, 0.0, 2025-03-11 12:24:50.574
202.0, 0.0, 6921.865871175036, -28991.59836668949, -31629.752413004928, -35339.65025420788, 0.0, -49659.272987755896, -2917.8861281736054, 11028.976563093252, -6181.866667493185, -21061.132378713177, 21089.005004048944, -34832.66798647261, -4527.189377211258, 14101.223838475209, 16856.746894925465, -0.094, 0.968, -0.162, 192.0, 0.0, 0.0, 0.0, 0.0, 0.0, 0.0, 0.0, 0.0, 0.0, 1.741713890574541E9, 0.0, 2025-03-11 12:24:50.574
204.0, 0.0, 6913.483967004296, -28996.403991747382, -31632.814601995302, -35329.94959711428, 0.0, -49663.676281413595, -2923.7422852208956, 11033.290449773127, -6174.311777867291, -21057.69021006706, 21096.157562274642, -34834.34436730675, -4512.392522381845, 14123.21795501923, 16859.22793856, -0.094, 0.968, -0.162, 192.0, 0.0, 0.0, 0.0, 0.0, 0.0, 0.0, 0.0, 0.0, 0.0, 1.741713890574562E9, 0.0, 2025-03-11 12:24:50.574
206.0, 0.0, 6933.824054458625, -28971.861776335452, -31606.640709238138, -35337.41507976235, 0.0, -49641.90568231412, -2900.4294157540103, 11045.136874334441, -6166.175742885559, -21044.79325351635, 21102.348995488763, -34826.409498025125, -4503.496528088633, 14124.89433585338, 16870.33675555429, -0.094, 0.968, -0.162, 192.0, 0.0, 0.0, 0.0, 0.0, 0.0, 0.0, 0.0, 0.0, 0.0, 1.741713890574569E9, 0.0, 2025-03-11 12:24:50.574
208.0, 0.0, 6900.2293825422985, -28995.86754988045, -31636.636750297163, -35331.55892271506, 0.0, -49670.91824661711, -2942.8753784746386, 11057.989127396242, -6156.363327069679, -21031.605724287718, 21114.173068305623, -34813.64665194114, -4484.095213901426, 14144.921498885335, 16884.172485372124, -0.094, 0.968, -0.162, 192.0, 0.0, 0.0, 0.0, 0.0, 0.0, 0.0, 0.0, 0.0, 0.0, 1.741713890611239E9, 0.0, 2025-03-11 12:24:50.611
210.0, 0.0, 6918.669571717927, -28980.35543922847, -31623.58333153526, -35352.5919142475, 0.0, -49649.95231031803, -2917.9755351514264, 11019.745292633212, -6192.260228664903, -21066.340335171266, 21074.074038752802, -34843.597989511254, -4525.825920799484, 14113.092614780977, 16844.028752330392, -0.092, 0.966, -0.16, 192.0, 126.5, 16.0, 15.0, 24.0, 125.5, 0.0, 0.0, 0.0, 0.0, 1.741713890611249E9, 0.0, 2025-03-11 12:24:50.611
212.0, 0.0, 6910.019446613723, -28989.07261956604, -31632.97106420649, -35338.33150128502, 0.0, -49658.17775227759, -2903.67041870003, 11051.32830754856, -6164.722879495965, -21034.69026502255, 21107.69106241358, -34809.198654794534, -4493.773519250574, 14132.717446412737, 16886.20649411756, -0.092, 0.966, -0.16, 192.0, 0.0, 0.0, 0.0, 0.0, 0.0, 0.0, 0.0, 0.0, 0.0, 1.741713890611256E9, 0.0, 2025-03-11 12:24:50.611
214.0, 0.0, 6911.449958258862, -28993.274747523636, -31640.25773289892, -35367.43347256583, 0.0, -49668.23603728248, -2924.7034102324737, 11026.719036903267, -6185.264132650392, -21061.668820580104, 21078.902015555148, -34837.65242548614, -4528.776351067585, 14116.043045049079, 16854.064685590827, -0.092, 0.966, -0.16, 192.0, 0.0, 0.0, 0.0, 0.0, 0.0, 0.0, 0.0, 0.0, 0.0, 1.741713890611263E9, 0.0, 2025-03-11 12:24:50.611
216.0, 0.0, 6927.5208625222285, -28980.288383995103, -31624.097421657734, -35299.953556055254, 0.0, -49650.24288299595, -2910.1077211031584, 11041.51589173268, -6165.348728340713, -21047.45311110653, 21098.23627450899, -34822.632053212175, -4518.9415835072505, 14113.919629325823, 16869.219168331525, -0.092, 0.966, -0.16, 192.0, 0.0, 0.0, 0.0, 0.0, 0.0, 0.0, 0.0, 0.0, 0.0, 1.741713890659358E9, 0.0, 2025-03-11 12:24:50.659
218.0, 0.0, 6921.821167686126, -28980.087218295008, -31623.58333153526, -35330.48603898121, 0.0, -49644.945519560046, -2906.5537937347644, 11048.154359835908, -6164.722879495965, -21040.25584939192, 21104.31594900083, -34812.350250762735, -4513.644220071343, 14137.120740070432, 16879.4339155476, -0.092, 0.966, -0.16, 192.0, 0.0, 0.0, 0.0, 0.0, 0.0, 0.0, 0.0, 0.0, 0.0, 1.741713890659391E9, 0.0, 2025-03-11 12:24:50.659
220.0, 0.0, 6902.2857430321865, -29006.529331985636, -31649.332541147774, -35315.71153589625, 0.0, -49668.213685538016, -2945.9152157205604, 11038.94544112032, -6164.231141117948, -21048.190718673555, 21098.616254164728, -34820.93332063357, -4522.651973086831, 14124.044969564078, 16873.398944544668, -0.098, 0.964, -0.16, 192.0, 126.0, 120.0, 15.0, 16.0, 125.5, 0.0, 0.0, 0.0, 0.0, 1.741713890659398E9, 0.0, 2025-03-11 12:24:50.659
222.0, 0.0, 6912.835766415092, -28995.800494647086, -31639.140145676156, -35339.9408268858, 0.0, -49660.100002300744, -2919.7860264523065, 11014.202060008296, -6184.303007638813, -21073.448189908053, 21077.136227743176, -34840.98283540998, -4547.596519898953, 14118.971123572723, 16848.744970410466, -0.098, 0.964, -0.16, 192.0, 0.0, 0.0, 0.0, 0.0, 0.0, 0.0, 0.0, 0.0, 0.0, 1.741713890659406E9, 0.0, 2025-03-11 12:24:50.659
224.0, 0.0, 6909.013618113234, -28995.50992196917, -31643.856363756226, -35317.05264056357, 0.0, -49666.15732504813, -2919.383695052111, 11030.116502060475, -6172.925969711062, -21055.320925154796, 21093.8776843402, -34823.72728869048, -4528.776351067585, 14116.110100282443, 16872.23665383299, -0.098, 0.964, -0.16, 192.0, 0.0, 0.0, 0.0, 0.0, 0.0, 0.0, 0.0, 0.0, 0.0, 1.741713890740621E9, 0.0, 2025-03-11 12:24:50.740
226.0, 0.0, 6920.927097907913, -28984.490511952703, -31639.765994520905, -35329.16728605834, 0.0, -49652.74627837494, -2911.4041222815663, 11033.46926372877, -6177.575132557766, -21054.0692274653, 21089.966129060525, -34822.29677704535, -4529.826883056985, 14139.17710056032, 16868.839188675785, -0.098, 0.964, -0.16, 192.0, 0.0, 0.0, 0.0, 0.0, 0.0, 0.0, 0.0, 0.0, 0.0, 1.741713890740635E9, 0.0, 2025-03-11 12:24:50.740
228.0, 0.0, 6914.288629804687, -28995.50992196917, -31651.88064001568, -35321.94767259928, 0.0, -49658.40126972214, -2923.0717328872365, 11018.292429243616, -6165.12521089616, -21067.45792239403, 21081.070134767313, -34836.06545162982, -4543.394391941356, 14117.942943327778, 16861.19489207207, -0.098, 0.964, -0.16, 192.0, 0.0, 0.0, 0.0, 0.0, 0.0, 0.0, 0.0, 0.0, 0.0, 1.741713890740656E9, 0.0, 2025-03-11 12:24:50.740
230.0, 0.0, 6915.160347838444, -28986.01043057566, -31644.437509112064, -35322.4394109773, 0.0, -49647.69478412805, -2914.2874973163007, 11018.024208310153, -6165.482838807445, -21065.155692715132, 21083.17119874611, -34827.19180908106, -4536.80062732704, 14144.22859480722, 16864.57000548482, -0.10400000000000001, 0.962, -0.158, 192.0, 126.0, 96.0, 15.0, 8.0, 125.5, 8.0, 0.0, 0.0, 0.0, 1.741713890740663E9, 0.0, 2025-03-11 12:24:50.740
232.0, 0.0, 6905.03500760019, -28985.78691313111, -31647.83497426927, -35315.95740508525, 0.0, -49658.49067669996, -2930.157235879569, 11027.009609581186, -6188.438080363046, -21056.12558795519, 21081.517169656418, -34818.60873921022, -4534.99013602616, 14120.088710795488, 16871.38728754369, -0.10400000000000001, 0.962, -0.158, 192.0, 0.0, 0.0, 0.0, 0.0, 0.0, 0.0, 0.0, 0.0, 0.0, 1.741713890740671E9, 0.0, 2025-03-11 12:24:50.740
234.0, 0.0, 6907.694865190371, -28988.02208757664, -31646.382110879676, -35330.62014944794, 0.0, -49656.747240632445, -2922.535291020309, 11026.070836314064, -6162.308891094791, -21057.712561811517, 21086.211035992033, -34819.905140388626, -4531.3244499354905, 14147.290783797596, 16863.81004617334, -0.10400000000000001, 0.962, -0.158, 192.0, 0.0, 0.0, 0.0, 0.0, 0.0, 0.0, 0.0, 0.0, 0.0, 1.741713890740678E9, 0.0, 2025-03-11 12:24:50.740
236.0, 0.0, 6887.041853313667, -29004.45061975129, -31659.36847440821, -35342.22070482024, 0.0, -49674.986264107974, -2939.857892973172, 11008.859993083477, -6185.599408817221, -21071.145960229154, 21070.006021261936, -34833.0703178728, -4543.394391941356, 14115.327789226509, 16857.775075170408, -0.10400000000000001, 0.962, -0.158, 192.0, 0.0, 0.0, 0.0, 0.0, 0.0, 0.0, 0.0, 0.0, 0.0, 1.741713890740685E9, 0.0, 2025-03-11 12:24:50.740
238.0, 0.0, 6884.4937544457625, -29008.07160235305, -31662.564773865317, -35334.37524251643, 0.0, -49682.65291245615, -2950.698489033996, 10988.966940518254, -6207.504118383422, -21087.619195892716, 21057.466692622507, -34854.79621348336, -4554.503208935644, 14124.60376317546, 16833.881060347685, -0.10400000000000001, 0.962, -0.158, 192.0, 0.0, 0.0, 0.0, 0.0, 0.0, 0.0, 0.0, 0.0, 0.0, 1.741713890740692E9, 0.0, 2025-03-11 12:24:50.740
240.0, 0.0, 6906.0408361006785, -28989.139674799404, -31641.285913143864, -35324.11579181144, 0.0, -49659.474153455994, -2934.8734539596385, 11003.786147092122, -6182.5819233157545, -21067.435570649573, 21079.68432661108, -34836.89246617466, -4546.769505354107, 14108.108175767444, 16849.81785414432, -0.098, 0.966, -0.154, 192.0, 126.0, 120.0, 15.0, 24.0, 125.5, 24.0, 0.0, 0.0, 0.0, 1.74171389079144E9, 0.0, 2025-03-11 12:24:50.791
242.0, 0.0, 6890.595780682062, -28999.60029120449, -31655.903954017635, -35322.86409412195, 0.0, -49679.747185676955, -2939.902596462083, 10995.091318499008, -6206.766510816397, -21073.157617230132, 21074.565777130818, -34846.92839943509, -4543.819075086007, 14132.046894079078, 16843.492310463465, -0.098, 0.966, -0.154, 192.0, 0.0, 0.0, 0.0, 0.0, 0.0, 0.0, 0.0, 0.0, 0.0, 1.741713890791457E9, 0.0, 2025-03-11 12:24:50.791
244.0, 0.0, 6885.276065501698, -29000.44965749379, -31658.809680796825, -35341.214876319755, 0.0, -49678.003749609445, -2944.6858697755183, 10993.07966149803, -6195.188307188548, -21072.822341063304, 21073.649355608148, -34839.7758412094, -4549.563473411021, 14107.862306578436, 16852.4777117345, -0.098, 0.966, -0.154, 192.0, 0.0, 0.0, 0.0, 0.0, 0.0, 0.0, 0.0, 0.0, 0.0, 1.741713890791464E9, 0.0, 2025-03-11 12:24:50.791
246.0, 0.0, 6890.55107719315, -28988.73734339921, -31647.343235891254, -35310.90591083836, 0.0, -49665.844400625756, -2939.924948206538, 10973.83480952201, -6220.825758078785, -21091.910730828135, 21053.085750709266, -34859.84770773026, -4559.554703182543, 14118.680550894804, 16831.601182413244, -0.098, 0.966, -0.154, 192.0, 0.0, 0.0, 0.0, 0.0, 0.0, 0.0, 0.0, 0.0, 0.0, 1.741713890791471E9, 0.0, 2025-03-11 12:24:50.791
248.0, 0.0, 6912.1428623369775, -28973.202881002773, -31628.634825782163, -35308.58132941501, 0.0, -49648.67826088408, -2939.276747617334, 11013.889135585921, -6165.460487062989, -21050.31413439681, 21092.380117461696, -34818.362870021214, -4522.316696920001, 14132.136301056898, 16873.555406755855, -0.098, 0.966, -0.154, 192.0, 0.0, 0.0, 0.0, 0.0, 0.0, 0.0, 0.0, 0.0, 0.0, 1.741713890791479E9, 0.0, 2025-03-11 12:24:50.791
250.0, 0.0, 6893.3003417611535, -28984.57991893052, -31638.78251776487, -35293.09157050748, 0.0, -49661.91049360162, -2914.443959527488, 10997.751176089188, -6195.523583355378, -21065.714486326517, 21073.962280030522, -34834.27731207339, -4526.742342322153, 14145.077961096522, 16860.881967649697, -0.094, 0.962, -0.15, 192.0, 126.5, 8.0, 15.0, 8.0, 125.5, 40.0, 0.0, 0.0, 0.0, 1.741713890791499E9, 0.0, 2025-03-11 12:24:50.791
252.0, 0.0, 6902.5763157101055, -28986.45746546477, -31636.860267741715, -35328.31791976904, 0.0, -49659.94354008955, -2929.374924823633, 10988.877533540432, -6185.353539628213, -21072.844692807757, 21067.726143327494, -34840.178172609594, -4535.951261037739, 14128.716484155237, 16853.975278613005, -0.094, 0.962, -0.15, 192.0, 0.0, 0.0, 0.0, 0.0, 0.0, 0.0, 0.0, 0.0, 0.0, 1.741713890791506E9, 0.0, 2025-03-11 12:24:50.791
254.0, 0.0, 6886.885391102481, -29009.859741909477, -31658.9214395191, -35319.31016675355, 0.0, -49681.132993833184, -2955.6382245586187, 10990.308045185571, -6188.661597807598, -21072.151788729643, 21071.570643373805, -34841.98866391047, -4530.162159223814, 14138.394789504384, 16850.980144855996, -0.094, 0.962, -0.15, 192.0, 0.0, 0.0, 0.0, 0.0, 0.0, 0.0, 0.0, 0.0, 0.0, 1.741713890841255E9, 0.0, 2025-03-11 12:24:50.841
0.0, 0.0, 6883.420870711908, -29009.591520976013, -31654.674608072593, -35333.034137849114, 0.0, -49679.344854276766, -2935.8792824601273, 10972.940739743799, -6222.792711590852, -21088.669727882116, 21047.16253842861, -34856.606704784244, -4553.765601368618, 14111.885620580391, 16831.66823764661, -0.094, 0.962, -0.15, 192.0, 0.0, 0.0, 0.0, 0.0, 0.0, 0.0, 0.0, 0.0, 0.0, 1.741713890841273E9, 0.0, 2025-03-11 12:24:50.841
2.0, 0.0, 6893.345045250064, -29006.64109070791, -31647.70086380254, -35297.874843820915, 0.0, -49668.280740771384, -2938.1144569056582, 10988.296388184595, -6183.878324494162, -21076.39862017615, 21069.84955905075, -34843.3744720667, -4538.789932583562, 14127.934173099302, 16845.23574653098, -0.094, 0.962, -0.15, 192.0, 0.0, 0.0, 0.0, 0.0, 0.0, 0.0, 0.0, 0.0, 0.0, 1.741713890841281E9, 0.0, 2025-03-11 12:24:50.841
4.0, 0.0, 6880.2692747437095, -29013.436021022324, -31656.909782518123, -35338.08563209601, 0.0, -49678.31667403182, -2948.3292041217333, 10974.259492666662, -6208.062911994804, -21084.154675502145, 21059.880681023682, -34851.04112041487, -4549.697583877753, 14124.715521897737, 16840.31836275081, -0.094, 0.96, -0.148, 192.0, 126.5, 8.0, 15.0, 0.0, 125.5, 48.0, 0.0, 0.0, 0.0, 1.741713890841288E9, 0.0, 2025-03-11 12:24:50.841
6.0, 0.0, 6895.379053995497, -29008.317471542057, -31650.830108026283, -35299.26065197714, 0.0, -49670.29239777236, -2941.0425354293034, 10968.69390829729, -6189.756833285908, -21090.12259127171, 21060.327715912787, -34857.031387928895, -4553.542083924065, 14110.276294979609, 16835.602144670742, -0.094, 0.96, -0.148, 192.0, 0.0, 0.0, 0.0, 0.0, 0.0, 0.0, 0.0, 0.0, 0.0, 1.741713890841295E9, 0.0, 2025-03-11 12:24:50.841
8.0, 0.0, 6929.80074045667, -28973.82872984752, -31619.224741366477, -35304.021573546124, 0.0, -49629.58987111925, -2903.402197766566, 10994.867801054455, -6168.947359198018, -21061.490006624463, 21085.473428425008, -34831.75156494994, -4529.916290034806, 14137.768940659636, 16868.816836931328, -0.094, 0.96, -0.148, 192.0, 0.0, 0.0, 0.0, 0.0, 0.0, 0.0, 0.0, 0.0, 0.0, 1.741713890841302E9, 0.0, 2025-03-11 12:24:50.841
10.0, 0.0, 6910.824109414114, -28984.17758753033, -31635.563866563305, -35274.49491912066, 0.0, -49646.57719690528, -2927.0503434002812, 11008.61412389447, -6163.895864951118, -21047.07313145079, 21099.778544876404, -34812.66317518511, -4516.102911961426, 14149.36949603194, 16885.91592143964, -0.094, 0.96, -0.148, 192.0, 0.0, 0.0, 0.0, 0.0, 0.0, 0.0, 0.0, 0.0, 0.0, 1.74171389084131E9, 0.0, 2025-03-11 12:24:50.841
12.0, 0.0, 6903.537440721684, -28992.179512045328, -31643.029349211378, -35317.65613766386, 0.0, -49658.69184240006, -2926.1339218776134, 10977.724013057234, -6189.756833285908, -21075.705716098037, 21071.3247741848, -34831.773916694394, -4539.125208750393, 14147.782522175614, 16861.999554872462, -0.094, 0.96, -0.148, 192.0, 0.0, 0.0, 0.0, 0.0, 0.0, 0.0, 0.0, 0.0, 0.0, 1.741713890841317E9, 0.0, 2025-03-11 12:24:50.841
14.0, 0.0, 6904.1632895664325, -28987.329183498525, -31639.810698009816, -35284.41909365882, 0.0, -49657.797772621845, -2927.922061434038, 10979.489800869203, -6180.927894226062, -21069.804855561837, 21078.36557368822, -34828.82348642629, -4536.890034304862, 14137.992458104189, 16873.06366837784, -0.10200000000000001, 0.966, -0.15, 192.0, 126.0, 104.0, 15.0, 24.0, 125.5, 40.0, 0.0, 0.0, 0.0, 1.741713890891088E9, 0.0, 2025-03-11 12:24:50.891
16.0, 0.0, 6893.725024905804, -28997.07454408104, -31649.2207824255, -35320.025422576124, 0.0, -49670.314749516816, -2942.9424337080045, 10973.097201954986, -6190.919123997584, -21076.04099226487, 21072.777637574392, -34836.110155118724, -4545.607214642431, 14156.767923446647, 16864.838226418284, -0.10200000000000001, 0.966, -0.15, 192.0, 0.0, 0.0, 0.0, 0.0, 0.0, 0.0, 0.0, 0.0, 0.0, 1.741713890891124E9, 0.0, 2025-03-11 12:24:50.891
18.0, 0.0, 6899.044740086168, -29001.366079016458, -31646.873849257692, -35291.21402397323, 0.0, -49665.8220488813, -2949.960881466971, 10961.608405304958, -6229.252365738436, -21085.182855747087, 21057.399637389142, -34840.26757958741, -4558.772392126607, 14133.589164446494, 16851.85186288975, -0.10200000000000001, 0.966, -0.15, 192.0, 0.0, 0.0, 0.0, 0.0, 0.0, 0.0, 0.0, 0.0, 0.0, 1.741713890891131E9, 0.0, 2025-03-11 12:24:50.891
20.0, 0.0, 6904.1632895664325, -28990.905462611376, -31625.952616447525, -35306.122637524924, 0.0, -49645.34785096024, -2913.929869405016, 10979.892132269399, -6169.796725487319, -21067.435570649573, 21084.8252278358, -34825.85070441374, -4527.502301633633, 14169.70958348627, 16871.946081155074, -0.10200000000000001, 0.966, -0.15, 192.0, 0.0, 0.0, 0.0, 0.0, 0.0, 0.0, 0.0, 0.0, 0.0, 1.741713890891138E9, 0.0, 2025-03-11 12:24:50.891
22.0, 0.0, 6918.4237025289185, -28981.9424130848, -31613.994433163934, -35268.75052079565, 0.0, -49642.8668073257, -2905.8832414011054, 10985.010681749663, -6185.465298350489, -21061.35589615773, 21086.300442969852, -34817.871131643195, -4522.249641686635, 14154.197472834287, 16881.57968301531, -0.10200000000000001, 0.966, -0.15, 192.0, 0.0, 0.0, 0.0, 0.0, 0.0, 0.0, 0.0, 0.0, 0.0, 1.741713890891145E9, 0.0, 2025-03-11 12:24:50.891
24.0, 0.0, 6893.680321416894, -29004.204750562283, -31637.441413097553, -35308.06723929253, 0.0, -49671.65585418414, -2929.5537387792756, 10971.107896698464, -6180.100879681216, -21069.558986372827, 21081.2265969785, -34832.757393450425, -4528.083446989471, 14172.011813165167, 16865.37466828521, -0.094, 0.97, -0.146, 192.0, 126.5, 8.0, 15.0, 40.0, 125.5, 56.0, 0.0, 0.0, 0.0, 1.741713890891152E9, 0.0, 2025-03-11 12:24:50.891
26.0, 0.0, 6889.455841714841, -29000.40495400488, -31636.949674719537, -35290.69993385076, 0.0, -49674.80745015234, -2943.0765441747362, 10957.696850025279, -6208.621705606188, -21077.426800421097, 21065.647431093148, -34838.16651560862, -4544.400220441845, 14135.153786558365, 16849.01319134393, -0.094, 0.97, -0.146, 192.0, 0.0, 0.0, 0.0, 0.0, 0.0, 0.0, 0.0, 0.0, 0.0, 1.741713890891159E9, 0.0, 2025-03-11 12:24:50.891
28.0, 0.0, 6896.921324362913, -28997.052192336585, -31635.1168316742, -35310.57063467153, 0.0, -49674.62863619669, -2946.8763407321385, 10963.329489628017, -6197.535240356355, -21068.083771238777, 21071.21301546252, -34839.28410283138, -4534.3195836925015, 14171.497723042694, 16850.354296011246, -0.094, 0.97, -0.146, 192.0, 0.0, 0.0, 0.0, 0.0, 0.0, 0.0, 0.0, 0.0, 0.0, 1.741713890940653E9, 0.0, 2025-03-11 12:24:50.940
30.0, 0.0, 6900.899934875958, -28993.744134157198, -31633.529857817874, -35305.832064847, 0.0, -49669.10775531623, -2943.858855230672, 10961.429591349315, -6197.13290895616, -21068.530806127885, 21072.68823059657, -34836.959521408025, -4545.160179753325, 14144.22859480722, 16851.71775242302, -0.094, 0.97, -0.146, 192.0, 0.0, 0.0, 0.0, 0.0, 0.0, 0.0, 0.0, 0.0, 0.0, 1.741713890940666E9, 0.0, 2025-03-11 12:24:50.940
32.0, 0.0, 6886.706577146838, -29009.725631442743, -31646.248000412943, -35322.350003999476, 0.0, -49686.29624680236, -2955.6382245586187, 10954.835826735, -6223.463263924511, -21075.705716098037, 21063.03227699188, -34841.027538898896, -4536.890034304862, 14180.483124313729, 16851.829511145297, -0.094, 0.97, -0.146, 192.0, 0.0, 0.0, 0.0, 0.0, 0.0, 0.0, 0.0, 0.0, 0.0, 1.741713890940673E9, 0.0, 2025-03-11 12:24:50.940
34.0, 0.0, 6890.618132426516, -29006.84225640801, -31644.661026556616, -35314.169265528835, 0.0, -49678.18256356509, -2948.44096284401, 10950.566643544036, -6209.5828306177655, -21079.483160910986, 21058.293707167355, -34840.871076687705, -4549.049383288549, 14152.007001877666, 16852.790636156875, -0.094, 0.964, -0.148, 192.0, 126.5, 8.0, 15.0, 16.0, 125.5, 48.0, 0.0, 0.0, 0.0, 1.741713890940679E9, 0.0, 2025-03-11 12:24:50.940
36.0, 0.0, 6887.578295180595, -29015.201808834292, -31651.54536384885, -35309.16247477084, 0.0, -49675.768575163915, -2951.279634389834, 10950.253719121662, -6202.363217158701, -21083.327660957297, 21060.081846723777, -34846.16844012361, -4545.763676853619, 14176.57156903405, 16843.4252552301, -0.094, 0.964, -0.148, 192.0, 0.0, 0.0, 0.0, 0.0, 0.0, 0.0, 0.0, 0.0, 0.0, 1.741713890940686E9, 0.0, 2025-03-11 12:24:50.940
38.0, 0.0, 6879.956350321335, -29023.36019556048, -31658.161480207622, -35319.667794664834, 0.0, -49679.188392065575, -2959.5721315827527, 10937.982611415699, -6212.42150216359, -21092.156600017144, 21049.911802996612, -34852.49398380447, -4563.890941606873, 14149.771827432136, 16826.14735676615, -0.094, 0.964, -0.148, 192.0, 0.0, 0.0, 0.0, 0.0, 0.0, 0.0, 0.0, 0.0, 0.0, 1.74171389094071E9, 0.0, 2025-03-11 12:24:50.940
40.0, 0.0, 6889.880524859492, -29016.565265246067, -31647.186773680067, -35294.36561994143, 0.0, -49674.852153641245, -2946.317547120756, 10937.40146605986, -6220.42342667859, -21090.0778877828, 21055.052704221333, -34849.92353319211, -4552.893883334861, 14170.402487564385, 16827.734330622476, -0.094, 0.964, -0.148, 192.0, 0.0, 0.0, 0.0, 0.0, 0.0, 0.0, 0.0, 0.0, 0.0, 1.741713890940717E9, 0.0, 2025-03-11 12:24:50.940
42.0, 0.0, 6890.349911493053, -29012.4972477552, -31637.575523564283, -35310.28006199361, 0.0, -49670.69472917256, -2941.891901718605, 10947.124474897919, -6204.285467181858, -21080.086658011278, 21066.206224704532, -34838.23357084198, -4548.825865843995, 14165.015717150656, 16848.52145296591, -0.094, 0.964, -0.148, 192.0, 0.0, 0.0, 0.0, 0.0, 0.0, 0.0, 0.0, 0.0, 0.0, 1.741713890940724E9, 0.0, 2025-03-11 12:24:50.940
44.0, 0.0, 6900.721120920315, -29013.525428000146, -31641.777651521883, -35298.79126534358, 0.0, -49681.289456044375, -2953.4030501130883, 10942.631774262401, -6204.464281137501, -21086.50160866995, 21064.73100957048, -34843.463879044524, -4546.61304314292, 14179.544351046605, 16847.225051787504, -0.096, 0.966, -0.152, 192.0, 126.5, 0.0, 15.0, 24.0, 125.5, 32.0, 0.0, 0.0, 0.0, 1.741713890955873E9, 0.0, 2025-03-11 12:24:50.955
46.0, 0.0, 6899.60353369755, -29005.322337785048, -31640.123622432187, -35316.337384741, 0.0, -49673.42164199611, -2943.210654641468, 10950.901919710866, -6202.027940991872, -21078.566739388316, 21073.872873052704, -34838.25592258643, -4554.190284513269, 14167.60851950747, 16852.09773207876, -0.096, 0.966, -0.152, 192.0, 0.0, 0.0, 0.0, 0.0, 0.0, 0.0, 0.0, 0.0, 0.0, 1.741713890977861E9, 0.0, 2025-03-11 12:24:50.977
48.0, 0.0, 6883.532629434184, -29020.02978563664, -31657.334465662774, -35312.09055329449, 0.0, -49687.994979380965, -2961.2038089279904, 10932.998172402165, -6208.197022461537, -21097.968053575525, 21061.042971735355, -34849.94588493656, -4560.001738071649, 14175.85631321148, 16841.033618573383, -0.096, 0.966, -0.152, 192.0, 0.0, 0.0, 0.0, 0.0, 0.0, 0.0, 0.0, 0.0, 0.0, 1.741713890993863E9, 0.0, 2025-03-11 12:24:50.993
50.0, 0.0, 6897.815394141126, -29000.06967783805, -31643.006997466924, -35315.555073685064, 0.0, -49670.381804750185, -2952.598387312697, 10928.214899088729, -6213.762606830908, -21101.209056521544, 21057.332582155774, -34850.39291982567, -4568.853028875951, 14174.872836455446, 16841.77122614041, -0.096, 0.966, -0.152, 192.0, 0.0, 0.0, 0.0, 0.0, 0.0, 0.0, 0.0, 0.0, 0.0, 1.741713891009898E9, 0.0, 2025-03-11 12:24:51.009
52.0, 0.0, 6905.616152956028, -28983.73055264122, -31634.155706662623, -35286.207233215246, 0.0, -49660.1223540452, -2953.7830297688283, 10953.07003892303, -6170.847257476718, -21073.11291374122, 21086.03222203639, -34818.22875955448, -4533.827845314485, 14208.199287438309, 16867.4310287751, -0.096, 0.966, -0.152, 192.0, 0.0, 0.0, 0.0, 0.0, 0.0, 0.0, 0.0, 0.0, 0.0, 1.74171389106397E9, 0.0, 2025-03-11 12:24:51.063
54.0, 0.0, 6902.755129665748, -28986.368058486947, -31639.006035209422, -35308.73779162619, 0.0, -49663.944502347054, -2938.606195283675, 10935.792140459078, -6204.7101503265085, -21091.687213383582, 21061.82528279129, -34834.67964347359, -4552.826828101495, 14202.85722051349, 16846.733313409488, -0.106, 0.974, -0.154, 192.0, 126.0, 88.0, 15.0, 56.0, 125.5, 24.0, 0.0, 0.0, 0.0, 1.741713891063981E9, 0.0, 2025-03-11 12:24:51.063
56.0, 0.0, 6901.279914531698, -28996.225177791737, -31646.091538201756, -35277.78062555559, 0.0, -49677.06497634232, -2933.2864801033115, 10950.92427145532, -6190.8520687642185, -21077.426800421097, 21074.58812887527, -34818.854608399226, -4537.068848260504, 14207.506383360194, 16855.56225246933, -0.106, 0.974, -0.154, 192.0, 0.0, 0.0, 0.0, 0.0, 0.0, 0.0, 0.0, 0.0, 0.0, 1.741713891096072E9, 0.0, 2025-03-11 12:24:51.096
58.0, 0.0, 6906.599629712061, -29000.6955266828, -31646.22564866849, -35319.4889807092, 0.0, -49678.18256356509, -2938.3603260946666, 10938.45199804926, -6204.196060204036, -21090.904902327646, 21062.004096746936, -34833.45029752854, -4552.357441467934, 14204.310083903085, 16839.491348205967, -0.106, 0.974, -0.154, 192.0, 0.0, 0.0, 0.0, 0.0, 0.0, 0.0, 0.0, 0.0, 0.0, 1.741713891154357E9, 0.0, 2025-03-11 12:24:51.154
60.0, 0.0, 6917.551984495161, -28996.158122558372, -31643.275218400388, -35285.02259075911, 0.0, -49669.823011138804, -2931.632451013619, 10950.700754010768, -6193.221353676481, -21077.382096932186, 21072.55412012984, -34812.99845135194, -4535.928909293283, 14197.157525677387, 16851.337772767278, -0.106, 0.974, -0.154, 192.0, 0.0, 0.0, 0.0, 0.0, 0.0, 0.0, 0.0, 0.0, 0.0, 1.741713891154407E9, 0.0, 2025-03-11 12:24:51.154
62.0, 0.0, 6934.18168236991, -28983.73055264122, -31626.332596103264, -35299.5288729106, 0.0, -49651.360470218715, -2911.3370670482004, 10961.630757049414, -6181.576094815266, -21065.245099692955, 21078.566739388316, -34804.28127101437, -4520.170929452292, 14217.095281731521, 16860.837264160786, -0.106, 0.974, -0.154, 192.0, 0.0, 0.0, 0.0, 0.0, 0.0, 0.0, 0.0, 0.0, 0.0, 1.741713891154418E9, 0.0, 2025-03-11 12:24:51.154
64.0, 0.0, 6926.51503402174, -28991.017221333652, -31635.206238652023, -35273.01970398661, 0.0, -49653.77445861989, -2921.6188694976413, 10970.593806575991, -6201.446795636034, -21055.946773999545, 21077.493855654462, -34793.10539878671, -4500.881373987362, 14212.535525862639, 16878.80806670285, -0.106, 0.976, -0.154, 192.0, 126.0, 88.0, 15.0, 64.0, 125.5, 24.0, 0.0, 0.0, 0.0, 1.741713891154428E9, 0.0, 2025-03-11 12:24:51.154
66.0, 0.0, 6914.4897955047845, -29006.998718619197, -31648.661988814118, -35320.584216187504, 0.0, -49672.50522047344, -2930.2913463463005, 10954.16527440134, -6183.766565771886, -21073.872873052704, 21064.93217527058, -34809.44452398354, -4515.052379972027, 14228.38291268145, 16867.118104352725, -0.106, 0.976, -0.154, 192.0, 0.0, 0.0, 0.0, 0.0, 0.0, 0.0, 0.0, 0.0, 0.0, 1.741713891154438E9, 0.0, 2025-03-11 12:24:51.154
68.0, 0.0, 6925.1739293544215, -29002.84129415051, -31640.145974176645, -35292.30925945154, 0.0, -49660.05529881183, -2920.5236340193314, 10969.856199008966, -6179.027995947361, -21062.942870014056, 21078.186759732576, -34797.75456163342, -4509.576202580476, 14205.785299037136, 16877.690479480087, -0.106, 0.976, -0.154, 192.0, 0.0, 0.0, 0.0, 0.0, 0.0, 0.0, 0.0, 0.0, 0.0, 1.741713891154448E9, 0.0, 2025-03-11 12:24:51.154
70.0, 0.0, 6930.001906156767, -28998.281538281626, -31641.26356139941, -35294.47737866371, 0.0, -49651.18165626308, -2922.289421831301, 10966.257568151661, -6192.573153087277, -21072.710582341027, 21071.1236084847, -34800.660288412604, -4512.437225870755, 14226.9076975474, 16866.894586908173, -0.106, 0.976, -0.154, 192.0, 0.0, 0.0, 0.0, 0.0, 0.0, 0.0, 0.0, 0.0, 0.0, 1.741713891154458E9, 0.0, 2025-03-11 12:24:51.154
72.0, 0.0, 6899.044740086168, -29020.052137381095, -31667.772730323402, -35282.27332619111, 0.0, -49668.92894136059, -2945.15525640908, 10978.774545046634, -6173.8870947226405, -21060.77475080189, 21082.254777223443, -34785.21523299399, -4503.65299029982, 14212.62493284046, 16871.05201137686, -0.106, 0.976, -0.154, 192.0, 0.0, 0.0, 0.0, 0.0, 0.0, 0.0, 0.0, 0.0, 0.0, 1.74171389117719E9, 0.0, 2025-03-11 12:24:51.177
74.0, 0.0, 6896.161365051433, -29028.054061896095, -31671.371361180707, -35301.89815782287, 0.0, -49669.37597624969, -2932.9735556809374, 10940.038971905586, -6231.353429717235, -21101.0302425659, 21039.02650344688, -34824.375489279686, -4532.218519713702, 14210.054482228099, 16842.352371496247, -0.1, 0.968, -0.15, 192.0, 126.0, 112.0, 15.0, 32.0, 125.5, 40.0, 0.0, 0.0, 0.0, 1.741713891177218E9, 0.0, 2025-03-11 12:24:51.177
76.0, 0.0, 6882.817373611614, -29035.94422768882, -31679.26152697343, -35306.70378288076, 0.0, -49681.66943570012, -2956.6887565480183, 10948.085599909497, -6205.537164871355, -21090.21199824953, 21046.849614006238, -34817.93818687656, -4534.878377303884, 14180.9972144362, 16841.86063311823, -0.1, 0.968, -0.15, 192.0, 0.0, 0.0, 0.0, 0.0, 0.0, 0.0, 0.0, 0.0, 0.0, 1.741713891216272E9, 0.0, 2025-03-11 12:24:51.216
78.0, 0.0, 6904.140937821978, -29015.872361167952, -31651.74652954895, -35289.068256505525, 0.0, -49659.11652554471, -2916.2768025728233, 10965.341146628994, -6204.553688115321, -21080.578396389294, 21053.935116998568, -34808.03636408286, -4521.713199819708, 14205.181801936842, 16850.600165200256, -0.1, 0.968, -0.15, 192.0, 0.0, 0.0, 0.0, 0.0, 0.0, 0.0, 0.0, 0.0, 0.0, 1.741713891216296E9, 0.0, 2025-03-11 12:24:51.216
