%OpenBCI Raw EXG Data
%Number of channels = 16
%Sample Rate = 125 Hz
%Board = OpenBCI_GUI$BoardCytonSerialDaisy
Sample Index, EXG Channel 0, EXG Channel 1, EXG Channel 2, EXG Channel 3, EXG Channel 4, EXG Channel 5, EXG Channel 6, EXG Channel 7, EXG Channel 8, EXG Channel 9, EXG Channel 10, EXG Channel 11, EXG Channel 12, EXG Channel 13, EXG Channel 14, EXG Channel 15, Accel Channel 0, Accel Channel 1, Accel Channel 2, Not Used, Digital Channel 0 (D11), Digital Channel 1 (D12), Digital Channel 2 (D13), Digital Channel 3 (D17), Not Used, Digital Channel 4 (D18), Analog Channel 0, Analog Channel 1, Analog Channel 2, Timestamp, Marker Channel, Timestamp (Formatted)
0.0, 20682.47147589582, -27402.210521961515, -44149.702089989434, -28065.83381483958, -27192.640565948557, 7173.099478852687, -38347.300988114, 14514.865221365122, 0.0, 0.0, 0.0, 0.0, 0.0, 0.0, 0.0, 0.0, 0.0, 0.0, 0.0, 192.0, 0.0, 0.0, 0.0, 0.0, 0.0, 0.0, 0.0, 0.0, 0.0, 1.741808477931727E9, 0.0, 2025-03-12 14:41:17.931
54.0, 20707.214857007846, -27389.13475145516, -44144.58354050917, -28059.50827115873, -27186.22561528988, 7161.677737436025, -38341.48953455562, 14512.45123296395, 3658.3770702334728, -11909.16590799879, -35380.48689132773, -7582.628140762823, -37230.96546303815, -21122.487917242994, -19156.249660998543, 9250.7835329513, 0.0, 0.0, 0.0, 192.0, 0.0, 0.0, 0.0, 0.0, 0.0, 0.0, 0.0, 0.0, 0.0, 1.741808477931792E9, 0.0, 2025-03-12 14:41:17.931
56.0, 20686.025403264215, -27394.990908502452, -44147.2210463549, -28053.607410622528, -27183.878682122075, 7184.364758058162, -38349.603217792894, 14517.34626499966, 3641.702668869814, -11923.471024450188, -35377.2011848928, -7561.483390508103, -37229.78082058201, -21117.011739851445, -19146.481948671575, 9243.943899147976, 0.0, 0.0, 0.0, 192.0, 0.0, 0.0, 0.0, 0.0, 0.0, 0.0, 0.0, 0.0, 0.0, 1.741808477931883E9, 0.0, 2025-03-12 14:41:17.931
58.0, 20695.94957780237, -27382.272765907383, -44144.00239515334, -28053.607410622528, -27169.528862181767, 7165.32107178224, -38322.73642095762, 14525.661113937034, 3648.7434683732354, -11905.4108149303, -35389.36053387648, -7584.505687297069, -37235.122887506834, -21105.880571112702, -19145.386713193264, 9259.612472011146, 0.0, 0.0, 0.0, 192.0, 0.0, 0.0, 0.0, 0.0, 0.0, 0.0, 0.0, 0.0, 0.0, 1.741808477931957E9, 0.0, 2025-03-12 14:41:17.931
60.0, 20689.42286842142, -27409.22896972048, -44145.99170040985, -28045.761948318715, -27163.00215280082, 7196.322941341751, -38306.48670273861, 14529.751483172357, 3636.829988578557, -11905.388463185844, -35380.17396690536, -7562.042184119486, -37218.71670707664, -21102.259588510944, -19122.11854721529, 9259.634823755601, 0.0, 0.0, 0.0, 192.0, 0.0, 0.0, 0.0, 0.0, 0.0, 0.0, 0.0, 0.0, 0.0, 1.741808477932023E9, 0.0, 2025-03-12 14:41:17.932
62.0, 20691.90391205596, -27418.70610936953, -44148.00335741083, -28066.504367173242, -27162.823338845177, 7174.552342242282, -38315.092124353905, 14525.68346568149, 3626.078799495554, -11926.488509951652, -35397.89890025841, -7584.818611719444, -37232.79830608348, -21109.590960692283, -19122.766747804493, 9257.109076632152, -0.124, 0.966, -0.14, 192.0, 126.0, 16.0, 15.0, 24.0, 125.5, 80.0, 0.0, 0.0, 0.0, 1.741808477932084E9, 0.0, 2025-03-12 14:41:17.932
64.0, 20715.999092578782, -27393.381582901668, -44142.61658699711, -28045.940762274357, -27149.300533449714, 7209.465767081472, -38304.028010848524, 14531.047884350764, 3623.7765698166577, -11927.159062285313, -35390.29930714361, -7561.8186666749325, -37229.35613743736, -21105.27707401241, -19104.103041184313, 9257.131428376608, -0.124, 0.966, -0.14, 192.0, 0.0, 0.0, 0.0, 0.0, 0.0, 0.0, 0.0, 0.0, 0.0, 1.741808477932151E9, 0.0, 2025-03-12 14:41:17.932
66.0, 20728.828993896128, -27365.061922676796, -44147.31045333272, -28074.372181221508, -27152.027446273263, 7170.640786962604, -38305.01148760456, 14542.156701345051, 3651.2245120077746, -11914.329160967965, -35397.92125200287, -7590.361844344359, -37223.522332134526, -21109.56860894783, -19093.083631167847, 9266.563864536747, -0.124, 0.966, -0.14, 192.0, 0.0, 0.0, 0.0, 0.0, 0.0, 0.0, 0.0, 0.0, 0.0, 1.741808477932228E9, 0.0, 2025-03-12 14:41:17.932
68.0, 20750.532537762232, -27411.57590288829, -44160.922665706, -28036.821250536592, -27164.47736793487, 7217.221822407463, -38310.6441272073, 14545.911794413543, 3641.948538058822, -11919.984152315159, -35385.270164641166, -7567.384251044304, -37220.63895709979, -21104.025376322912, -19079.672584494663, 9274.051698929274, -0.124, 0.966, -0.14, 192.0, 0.0, 0.0, 0.0, 0.0, 0.0, 0.0, 0.0, 0.0, 0.0, 1.74180847793229E9, 0.0, 2025-03-12 14:41:17.932
70.0, 20750.286668573222, -27399.908292282616, -44164.87892447459, -28078.149626034454, -27170.62409766008, 7166.572769471738, -38312.834598163914, 14550.516253771337, 3649.168151517886, -11921.369960471387, -35397.988307236235, -7586.897323953787, -37238.7885735975, -21105.0312048234, -19097.598683547818, 9284.378204867626, -0.124, 0.966, -0.14, 192.0, 0.0, 0.0, 0.0, 0.0, 0.0, 0.0, 0.0, 0.0, 0.0, 1.741808477932352E9, 0.0, 2025-03-12 14:41:17.932
0.0, 10514.819385387826, -13672.98676645598, -21956.073874959216, -14050.328916350474, -13466.031964544292, 3527.641716914382, -19129.651085096728, 7231.9069185146, 1825.3105074537407, -5956.516379894779, -17690.01992821931, -3782.98804557181, -18612.990512012304, -10544.99424040249, -9541.93735622613, 4652.493256627709, -0.124, 0.97, -0.133, 192.0, 126.0, 16.0, 15.0, 56.0, 126.0, 8.0, 0.0, 0.0, 0.0, 1.741808478014782E9, 0.0, 2025-03-12 14:41:18.014
2.0, 21083.819399335312, -27350.734454480942, -43918.62975581047, -28060.93878280387, -26938.38947276944, 7112.682713589992, -38264.91245805174, 14460.326964894173, 3932.2753467888056, -12170.1225245145, -35285.89430879287, -7056.021041395788, -37054.76666149696, -21161.603470039783, -18944.243364839956, 8721.181299827254, -0.124, 0.97, -0.133, 192.0, 0.0, 0.0, 0.0, 0.0, 0.0, 0.0, 0.0, 0.0, 0.0, 1.741808478073213E9, 0.0, 2025-03-12 14:41:18.073
4.0, 21005.208314085998, -27334.864715917676, -43920.52965408917, -28124.216571356843, -26942.681007704858, 7050.209587837409, -38266.09710050787, 14457.264775903795, 3938.3773730251046, -12171.687146626371, -35304.17803575731, -7078.126916662088, -37071.30695239388, -21168.46545558756, -18959.95664119204, 8718.655552703805, -0.124, 0.97, -0.133, 192.0, 0.0, 0.0, 0.0, 0.0, 0.0, 0.0, 0.0, 0.0, 0.0, 1.741808478073322E9, 0.0, 2025-03-12 14:41:18.073
6.0, 21095.218789007522, -27333.814183928276, -43914.42762785288, -28068.538375918673, -26933.561495967093, 7092.297922646752, -38258.98924577108, 14467.591281842148, 3942.6242044716128, -12160.377163931986, -35286.45310240425, -7062.905378688023, -37043.94841718059, -21160.396475839196, -18952.13353063268, 8727.328029552464, -0.124, 0.97, -0.133, 192.0, 0.0, 0.0, 0.0, 0.0, 0.0, 0.0, 0.0, 0.0, 0.0, 1.7418084780734E9, 0.0, 2025-03-12 14:41:18.073
8.0, 21020.608666015705, -27339.133899108638, -43921.535482589665, -28122.920170178437, -26942.8598216605, 7053.20472159442, -38260.352702182856, 14461.533959094759, 3941.193692826473, -12168.356736702532, -35296.42198043132, -7073.991843937856, -37058.43234758763, -21165.47032183055, -18952.46880679951, 8729.20557608671, -0.12, 0.972, -0.128, 192.0, 126.0, 32.0, 15.0, 48.0, 126.0, 0.0, 0.0, 0.0, 0.0, 1.741808478073473E9, 0.0, 2025-03-12 14:41:18.073
10.0, 21120.40920500865, -27339.513878764377, -43919.367363377496, -28064.26919272771, -26941.161089081896, 7100.031626228289, -38262.54317313948, 14467.188950441952, 3943.9653091389314, -12160.421867420897, -35292.80099782956, -7069.432088068973, -37050.45277481709, -21154.115635647257, -18944.243364839956, 8737.00633490161, -0.12, 0.972, -0.128, 192.0, 0.0, 0.0, 0.0, 0.0, 0.0, 0.0, 0.0, 0.0, 0.0, 1.741808478073538E9, 0.0, 2025-03-12 14:41:18.073
12.0, 21057.444340878053, -27338.776271197352, -43927.190473936855, -28115.56644625264, -26944.916182150388, 7057.406849552018, -38267.415853430735, 14459.321136393684, 3949.4414865304816, -12163.282890711176, -35300.17707349981, -7074.6176927826045, -37063.72971102354, -21159.94944095009, -18941.65056248314, 8741.655497748316, -0.12, 0.972, -0.128, 192.0, 0.0, 0.0, 0.0, 0.0, 0.0, 0.0, 0.0, 0.0, 0.0, 1.741808478073599E9, 0.0, 2025-03-12 14:41:18.073
14.0, 21149.645286756193, -27348.521631779866, -43929.69386931585, -28071.153530019943, -26943.195097827327, 7094.466041858917, -38271.90855406625, 14452.034467701253, 3936.2539573018503, -12174.257597238731, -35304.17803575731, -7084.787736509769, -37065.249629646496, -21165.559728808374, -18943.66221948412, 8736.447541290228, -0.12, 0.972, -0.128, 192.0, 0.0, 0.0, 0.0, 0.0, 0.0, 0.0, 0.0, 0.0, 0.0, 1.74180847807366E9, 0.0, 2025-03-12 14:41:18.073
16.0, 21094.347070973763, -27337.92690490805, -43923.25656691272, -28120.260312588252, -26931.41572849938, 7053.718811716893, -38258.586914370884, 14461.556310839214, 3933.9964311118642, -12177.900931584947, -35306.0332305471, -7086.374710366096, -37063.95322846809, -21162.654002029183, -18932.486347256465, 8741.454332048217, -0.12, 0.972, -0.128, 192.0, 0.0, 0.0, 0.0, 0.0, 0.0, 0.0, 0.0, 0.0, 0.0, 1.741808478134884E9, 0.0, 2025-03-12 14:41:18.134
18.0, 21173.494598090005, -27350.22036435847, -43922.78718027916, -28075.400361466454, -26930.409899998893, 7083.3125213757185, -38259.0786527489, 14471.882816777566, 3933.1470648225627, -12163.506408155728, -35294.63384087489, -7088.229905155887, -37050.96686493955, -21152.32749609083, -18922.13748957366, 8755.267710121598, -0.124, 0.964, -0.126, 192.0, 126.0, 16.0, 15.0, 16.0, 126.0, 8.0, 0.0, 0.0, 0.0, 1.74180847813497E9, 0.0, 2025-03-12 14:41:18.134
20.0, 21113.636626438692, -27353.93075393805, -43931.97374725029, -28116.2369985863, -26936.08724309054, 7070.3932130805515, -38264.48777490709, 14462.182159683964, 3912.58345992368, -12179.465553696818, -35305.60854740245, -7079.624483540593, -37059.90756272168, -21160.128254905732, -18928.105405343224, 8742.840140204447, -0.124, 0.964, -0.126, 192.0, 0.0, 0.0, 0.0, 0.0, 0.0, 0.0, 0.0, 0.0, 0.0, 1.74180847813504E9, 0.0, 2025-03-12 14:41:18.135
22.0, 21168.867786987757, -27376.729533282465, -43924.530616346674, -28090.241919784778, -26923.65967317339, 7083.468983586906, -38262.56552488393, 14467.144246953041, 3906.5261371762917, -12183.399460720953, -35309.69891663777, -7101.708007062436, -37048.64228351621, -21161.13408340622, -18927.83718440976, 8746.371715828385, -0.124, 0.964, -0.126, 192.0, 0.0, 0.0, 0.0, 0.0, 0.0, 0.0, 0.0, 0.0, 0.0, 1.741808478135142E9, 0.0, 2025-03-12 14:41:18.135
24.0, 21122.75613817646, -27399.461257393512, -43930.02914548268, -28120.08149863261, -26924.598446440512, 7060.133762375565, -38250.78615555599, 14466.227825430373, 3887.8624305561107, -12196.676396927405, -35304.49096017968, -7088.073442944699, -37048.91050444967, -21155.18851938111, -18911.07337606828, 8753.434867076263, -0.124, 0.964, -0.126, 192.0, 0.0, 0.0, 0.0, 0.0, 0.0, 0.0, 0.0, 0.0, 0.0, 1.741808478135211E9, 0.0, 2025-03-12 14:41:18.135
26.0, 21144.8396616983, -27443.67300792611, -43942.70258458884, -28106.201065325866, -26935.640208201436, 7061.005480409322, -38266.83470807489, 14460.259909660806, 3856.681747040957, -12217.284705315198, -35331.357757014965, -7126.049056774266, -37075.26321116248, -21173.38283936773, -18925.870230897694, 8740.292041336543, -0.124, 0.964, -0.126, 192.0, 0.0, 0.0, 0.0, 0.0, 0.0, 0.0, 0.0, 0.0, 0.0, 1.741808478135279E9, 0.0, 2025-03-12 14:41:18.135
28.0, 21099.331509987296, -27467.231746582, -43952.716166104816, -28120.819106199637, -26941.161089081896, 7070.907303203024, -38268.57814414241, 14457.130665437064, 3818.7061332113904, -12234.026161912223, -35333.48117273822, -7114.269687446319, -37071.93280123863, -21174.768647523957, -18931.41346352261, 8732.759503455103, -0.126, 0.976, -0.124, 192.0, 126.0, 8.0, 15.0, 64.0, 126.0, 16.0, 0.0, 0.0, 0.0, 1.74180847813536E9, 0.0, 2025-03-12 14:41:18.135
30.0, 21123.739614932492, -27477.67001124263, -43939.30511943163, -28114.69472821888, -26920.485725460738, 7050.701326215426, -38246.11464096483, 14476.15199996853, 3818.147339600008, -12233.020333411734, -35341.214876319755, -7141.807036615257, -37077.78895828593, -21169.47128408805, -18929.535916988363, 8748.361021084907, -0.126, 0.976, -0.124, 192.0, 0.0, 0.0, 0.0, 0.0, 0.0, 0.0, 0.0, 0.0, 0.0, 1.741808478135432E9, 0.0, 2025-03-12 14:41:18.135
32.0, 21110.12740255921, -27492.042182927395, -43947.01647126871, -28107.005728126256, -26935.550801223613, 7080.339739363163, -38259.10100449336, 14466.451342874927, 3797.337865512117, -12240.128188148521, -35333.101193082475, -7115.07435024671, -37069.18353667063, -21164.442141585605, -18919.678797683573, 8747.73517224016, -0.126, 0.976, -0.124, 192.0, 0.0, 0.0, 0.0, 0.0, 0.0, 0.0, 0.0, 0.0, 0.0, 1.741808478193768E9, 0.0, 2025-03-12 14:41:18.193
34.0, 21114.03895783889, -27484.599052023776, -43944.51307588972, -28115.61114974155, -26932.823888400068, 7049.092000614643, -38260.39740567176, 14472.978052255876, 3799.908316124477, -12238.51886254774, -35344.1429548434, -7143.7069348939585, -37075.84435651831, -21167.593737553805, -18931.391111778154, 8755.088896165955, -0.126, 0.976, -0.124, 192.0, 0.0, 0.0, 0.0, 0.0, 0.0, 0.0, 0.0, 0.0, 0.0, 1.74180847819385E9, 0.0, 2025-03-12 14:41:18.193
36.0, 21126.824155667324, -27480.53103453291, -43953.967863794314, -28099.98728036729, -26939.28354254765, 7085.9723789659, -38263.92898129571, 14468.977089998376, 3802.456414992382, -12241.46929281584, -35332.050661093075, -7111.632181600593, -37066.434272102626, -21164.218624141053, -18921.869268640196, 8749.925643196779, -0.126, 0.976, -0.124, 192.0, 0.0, 0.0, 0.0, 0.0, 0.0, 0.0, 0.0, 0.0, 0.0, 1.741808478193941E9, 0.0, 2025-03-12 14:41:18.193
38.0, 21097.096335541766, -27469.981011150005, -43958.19234349637, -28127.85990570306, -26946.257286817705, 7055.998689651334, -38272.10971976635, 14460.706944549913, 3813.207604075385, -12241.75986549376, -35349.93205665732, -7145.562129683749, -37093.03284800445, -21181.67533656065, -18940.085940371267, 8739.420323302786, -0.126, 0.97, -0.122, 192.0, 126.0, 8.0, 15.0, 40.0, 126.0, 24.0, 0.0, 0.0, 0.0, 1.741808478194012E9, 0.0, 2025-03-12 14:41:18.194
40.0, 21146.9407256771, -27428.205600763038, -43940.57916886559, -28098.42265825542, -26932.60037095551, 7091.40385286854, -38257.134050981294, 14467.747744053335, 3823.6011652471025, -12233.690885745393, -35326.686242423806, -7107.832385043191, -37070.25642040449, -21165.962060208567, -18927.88188789867, 8740.761427970103, -0.126, 0.97, -0.122, 192.0, 0.0, 0.0, 0.0, 0.0, 0.0, 0.0, 0.0, 0.0, 0.0, 1.741808478194144E9, 0.0, 2025-03-12 14:41:18.194
42.0, 21117.12349857372, -27416.493286668458, -43935.84059904106, -28127.90460919197, -26932.890943633432, 7047.7955994362355, -38258.98924577108, 14470.117028965597, 3859.0286802087644, -12209.41689126693, -35320.718326654234, -7117.331876436696, -37067.86478374777, -21157.714266504558, -18925.467899497497, 8755.133599654866, -0.126, 0.97, -0.122, 192.0, 0.0, 0.0, 0.0, 0.0, 0.0, 0.0, 0.0, 0.0, 0.0, 1.74180847819419E9, 0.0, 2025-03-12 14:41:18.194
44.0, 21166.67731603114, -27426.037481550873, -43941.115610732515, -28082.731733647794, -26942.748062938223, 7105.910135020034, -38271.2827052215, 14466.71956380839, 3866.270645412284, -12208.209897066343, -35305.51914042463, -7087.760518522325, -37055.325455108345, -21156.037885670412, -18920.08112908377, 8746.818750717492, -0.126, 0.97, -0.122, 192.0, 0.0, 0.0, 0.0, 0.0, 0.0, 0.0, 0.0, 0.0, 0.0, 1.741808478194264E9, 0.0, 2025-03-12 14:41:18.194
46.0, 21109.27803626991, -27400.623548105188, -43938.858084542524, -28136.264161618255, -26939.99879837022, 7049.606090737116, -38268.84636507587, 14463.456209117916, 3870.361014647605, -12210.914458145435, -35326.105097067964, -7115.4766816469055, -37081.09701646531, -21170.790037010913, -18944.89156542916, 8740.180282614265, -0.126, 0.97, -0.122, 192.0, 0.0, 0.0, 0.0, 0.0, 0.0, 0.0, 0.0, 0.0, 0.0, 1.741808478253937E9, 0.0, 2025-03-12 14:41:18.253
48.0, 21189.878426775747, -27396.108495725217, -43935.88530252997, -28082.50821620324, -26934.679083189858, 7103.116166963121, -38264.71129235164, 14466.71956380839, 3886.9236572889877, -12198.665702183927, -35301.160550255845, -7083.044300442255, -37063.57324881235, -21156.1943478816, -18925.624361708684, 8743.980079171668, -0.124, 0.978, -0.11800000000000001, 192.0, 126.0, 16.0, 15.0, 72.0, 126.0, 40.0, 0.0, 0.0, 0.0, 1.741808478253992E9, 0.0, 2025-03-12 14:41:18.253
50.0, 21118.308141029855, -27382.429228118566, -43940.17683746539, -28134.699539506382, -26939.551763481115, 7054.143494861543, -38258.251638204056, 14462.204511428417, 3891.9304480469764, -12200.878524885002, -35318.46080046425, -7101.7974140402575, -37079.95707749809, -21163.101036918288, -18932.79927167884, 8741.610794259404, -0.124, 0.978, -0.11800000000000001, 192.0, 0.0, 0.0, 0.0, 0.0, 0.0, 0.0, 0.0, 0.0, 0.0, 1.74180847825407E9, 0.0, 2025-03-12 14:41:18.254
52.0, 21200.67431934766, -27372.88503323615, -43933.471314128794, -28074.014553310222, -26932.980350611255, 7098.578762838693, -38260.822088816414, 14467.52422660878, 3897.7642533498115, -12191.244923024766, -35302.50165492316, -7083.513687075817, -37069.585868070826, -21158.384818838218, -18928.150108832135, 8745.611756516904, -0.124, 0.978, -0.11800000000000001, 192.0, 0.0, 0.0, 0.0, 0.0, 0.0, 0.0, 0.0, 0.0, 0.0, 1.741808478254115E9, 0.0, 2025-03-12 14:41:18.254
54.0, 21123.024359109924, -27354.60130627171, -43929.582110593576, -28119.723870721326, -26935.640208201436, 7046.007459879811, -38263.10196675086, 14465.065534718697, 3915.0645035582193, -12184.561751432628, -35300.55705315555, -7086.732338277381, -37057.51592606496, -21157.200176382088, -18930.07235885529, 8750.327974596974, -0.124, 0.978, -0.11800000000000001, 192.0, 0.0, 0.0, 0.0, 0.0, 0.0, 0.0, 0.0, 0.0, 0.0, 1.741808478254159E9, 0.0, 2025-03-12 14:41:18.254
56.0, 21197.790944312925, -27358.959896440494, -43929.04566872665, -28066.102035773045, -26930.119327320976, 7087.604056311137, -38265.381844685304, 14468.820627787189, 3919.333686749183, -12181.521914186707, -35289.09060824998, -7073.120125904099, -37063.28267613443, -21144.347923320285, -18922.428062251576, 8751.870244964392, -0.124, 0.978, -0.11800000000000001, 192.0, 0.0, 0.0, 0.0, 0.0, 0.0, 0.0, 0.0, 0.0, 0.0, 1.741808478254201E9, 0.0, 2025-03-12 14:41:18.254
58.0, 21128.388777779197, -27349.773329469364, -43929.20213093783, -28118.42746954292, -26936.780147168654, 7044.375782534574, -38265.33714119639, 14463.791485284744, 3927.1120938196295, -12179.018518807712, -35298.79126534358, -7077.903399217535, -37061.36042611128, -21152.171033879644, -18926.809004164817, 8749.724477496682, -0.12, 0.97, -0.11, 192.0, 126.0, 32.0, 15.0, 40.0, 126.0, 72.0, 0.0, 0.0, 0.0, 1.741808478254247E9, 0.0, 2025-03-12 14:41:18.254
60.0, 21198.081516990846, -27364.547832554323, -43935.28180542968, -28065.40913169493, -26934.72378667877, 7095.985960481878, -38263.839574317884, 14465.400810885527, 3922.39587573956, -12181.45485895334, -35295.05852401954, -7065.4087740670175, -37063.23797264552, -21151.746350734993, -18919.902315128125, 8753.926605454279, -0.12, 0.97, -0.11, 192.0, 0.0, 0.0, 0.0, 0.0, 0.0, 0.0, 0.0, 0.0, 0.0, 1.741808478254299E9, 0.0, 2025-03-12 14:41:18.254
62.0, 21125.12542308872, -27341.570239254266, -43928.48687511526, -28121.46730678884, -26929.33701626504, 7049.449628525928, -38259.14570798227, 14467.211302186406, 3927.6261839421018, -12175.777515861693, -35299.7300386107, -7064.224131610887, -37064.04263544591, -21151.880461201723, -18926.65254195363, 8747.355192584419, -0.12, 0.97, -0.11, 192.0, 0.0, 0.0, 0.0, 0.0, 0.0, 0.0, 0.0, 0.0, 0.0, 1.741808478314235E9, 0.0, 2025-03-12 14:41:18.314
64.0, 21202.171886226166, -27344.386559055634, -43927.07871521458, -28074.327477732597, -26933.85206864501, 7091.82853601319, -38265.873583063316, 14472.128685966574, 3926.8215211417105, -12171.195408248355, -35290.83404431749, -7061.318404831696, -37065.62960930224, -21153.176862380133, -18925.311437286313, 8746.103494894922, -0.12, 0.97, -0.11, 192.0, 0.0, 0.0, 0.0, 0.0, 0.0, 0.0, 0.0, 0.0, 0.0, 1.741808478314299E9, 0.0, 2025-03-12 14:41:18.314
66.0, 21125.773623677927, -27346.398216056612, -43933.895997273445, -28124.104812634567, -26946.123176350975, 7065.2299601113755, -38270.14276625428, 14462.472732361883, 3921.7923786392666, -12179.97964381929, -35293.71741935223, -7060.804314709225, -37069.83173725984, -21150.584060023317, -18931.257001311424, 8738.950936669224, -0.12, 0.97, -0.11, 192.0, 0.0, 0.0, 0.0, 0.0, 0.0, 0.0, 0.0, 0.0, 0.0, 1.741808478314345E9, 0.0, 2025-03-12 14:41:18.314
68.0, 21188.738487808525, -27345.12416662266, -43926.9669564923, -28089.88429187349, -26943.128042593962, 7089.660416801026, -38276.088330279395, 14454.739028780346, 3926.888576375077, -12179.286739741176, -35295.46085541974, -7076.070556172199, -37069.11648143727, -21157.580156037828, -18937.806062436826, 8732.066599376989, -0.122, 0.978, -0.114, 192.0, 126.0, 24.0, 15.0, 72.0, 126.0, 56.0, 0.0, 0.0, 0.0, 1.741808478314399E9, 0.0, 2025-03-12 14:41:18.314
70.0, 21133.261458070454, -27328.6509309591, -43917.64627905444, -28114.113582863043, -26934.254400045207, 7073.433050326473, -38271.81914708843, 14455.923671236476, 3932.096532833163, -12177.252730995742, -35285.8272535595, -7055.462247784406, -37064.17674591264, -21154.227394369533, -18929.357103032722, 8730.323163309475, -0.122, 0.978, -0.114, 192.0, 0.0, 0.0, 0.0, 0.0, 0.0, 0.0, 0.0, 0.0, 0.0, 1.741808478314444E9, 0.0, 2025-03-12 14:41:18.314
72.0, 21191.890083776725, -27333.143631594616, -43907.18566264935, -28078.08257080109, -26922.072699317065, 7076.942274205956, -38263.12431849531, 14465.020831229787, 3951.3413848091827, -12161.584158132573, -35281.06633199052, -7067.3980793235405, -37058.745272010005, -21146.001952409977, -18923.478594240976, 8744.15889312731, -0.122, 0.978, -0.114, 192.0, 0.0, 0.0, 0.0, 0.0, 0.0, 0.0, 0.0, 0.0, 0.0, 1.741808478314498E9, 0.0, 2025-03-12 14:41:18.314
74.0, 21154.048580413888, -27321.78894541132, -43909.42083709488, -28096.880387888003, -26928.398242997915, 7065.095849644644, -38270.18746974319, 14459.030563715765, 3945.775800439811, -12166.74741110175, -35276.484224377185, -7049.002593636822, -37051.72682425104, -21148.907679189168, -18921.154012817624, 8740.135579125355, -0.122, 0.978, -0.114, 192.0, 0.0, 0.0, 0.0, 0.0, 0.0, 0.0, 0.0, 0.0, 0.0, 1.741808478314546E9, 0.0, 2025-03-12 14:41:18.314
76.0, 21191.443048887617, -27334.17181183956, -43909.4655405838, -28077.769646378714, -26926.386585996937, 7057.697422229937, -38259.10100449336, 14460.885758505556, 3955.3423470666826, -12159.1701697314, -35275.88072727689, -7065.811105467214, -37048.686987005116, -21148.1924233666, -18921.355178517722, 8748.1151518959, -0.122, 0.978, -0.114, 192.0, 0.0, 0.0, 0.0, 0.0, 0.0, 0.0, 0.0, 0.0, 0.0, 1.741808478376409E9, 0.0, 2025-03-12 14:41:18.376
78.0, 21162.89987121819, -27336.49639326291, -43913.86883424149, -28092.32063201912, -26930.298141276617, 7069.745012491348, -38267.37114994182, 14456.169540425486, 3939.3832015255934, -12176.246902495253, -35278.76410231162, -7051.193064593443, -37046.56357128186, -21149.287658844907, -18923.523297729887, 8734.704105222716, -0.122, 0.986, -0.12, 192.0, 126.0, 24.0, 15.0, 104.0, 126.0, 32.0, 0.0, 0.0, 0.0, 1.741808478376459E9, 0.0, 2025-03-12 14:41:18.376
80.0, 21178.680202803636, -27334.93177115104, -43909.95727896181, -28094.779323909203, -26924.71020516279, 7052.467114027395, -38258.184582970694, 14465.423162629982, 3953.0177656433307, -12163.88638781147, -35282.474491891204, -7074.461230571417, -37052.173859140144, -21150.740522234504, -18926.45137625353, 8740.381448314363, -0.122, 0.986, -0.12, 192.0, 0.0, 0.0, 0.0, 0.0, 0.0, 0.0, 0.0, 0.0, 0.0, 1.741808478376521E9, 0.0, 2025-03-12 14:41:18.376
82.0, 21181.608281327284, -27330.461422259978, -43918.69681104384, -28090.197216295866, -26927.593580197525, 7083.379576609084, -38263.370187684326, 14463.903244007022, 3937.975041624909, -12171.821257093103, -35273.3773318979, -7049.471980270384, -37044.30604509188, -21154.629725769726, -18920.662274439608, 8730.34551505393, -0.122, 0.986, -0.12, 192.0, 0.0, 0.0, 0.0, 0.0, 0.0, 0.0, 0.0, 0.0, 0.0, 1.741808478376571E9, 0.0, 2025-03-12 14:41:18.376
84.0, 21168.241938143008, -27330.707291448987, -43913.82413075258, -28098.84734140007, -26923.74908015121, 7049.2037593369205, -38262.4314144172, 14464.752610296324, 3955.208236599951, -12166.948576801846, -35283.79324481407, -7074.885913716068, -37061.94157146711, -21145.28669658741, -18929.245344310446, 8744.15889312731, -0.122, 0.986, -0.12, 192.0, 0.0, 0.0, 0.0, 0.0, 0.0, 0.0, 0.0, 0.0, 0.0, 1.741808478376614E9, 0.0, 2025-03-12 14:41:18.376
86.0, 21177.0485254584, -27343.201916599504, -43925.73761054726, -28086.285661016187, -26935.193173312327, 7089.056919700733, -38269.852193576364, 14452.257985145807, 3933.772913667311, -12181.723079886804, -35273.44438713126, -7052.914148916501, -37048.97755968304, -21148.99708616699, -18929.781786177373, 8737.00633490161, -0.122, 0.986, -0.12, 192.0, 0.0, 0.0, 0.0, 0.0, 0.0, 0.0, 0.0, 0.0, 0.0, 1.741808478376659E9, 0.0, 2025-03-12 14:41:18.376
88.0, 21155.61320252576, -27325.58874196872, -43907.25271788272, -28110.202027583367, -26914.47310620226, 7031.031791094755, -38250.40617590024, 14469.982918498865, 3950.648480731068, -12169.697841369849, -35285.02259075911, -7084.743033020858, -37047.39058582671, -21152.595717024295, -18937.806062436826, 8743.130712882366, -0.126, 0.978, -0.12, 192.0, 126.0, 8.0, 15.0, 72.0, 126.0, 32.0, 0.0, 0.0, 0.0, 1.741808478376706E9, 0.0, 2025-03-12 14:41:18.376
90.0, 21188.38085989724, -27334.954122895495, -43923.413029123905, -28075.84739635556, -26926.319530763572, 7079.177448651487, -38270.45569067665, 14458.33765963765, 3946.848684173666, -12172.64827163795, -35268.28113416208, -7051.975375649378, -37041.33326307932, -21145.95724892107, -18925.289085541855, 8740.761427970103, -0.126, 0.978, -0.12, 192.0, 0.0, 0.0, 0.0, 0.0, 0.0, 0.0, 0.0, 0.0, 0.0, 1.741808478376757E9, 0.0, 2025-03-12 14:41:18.376
92.0, 21138.80469069537, -27338.37393979716, -43922.854235512525, -28111.811353184148, -26930.499306976715, 7039.212529565398, -38265.47125166312, 14453.599089813126, 3944.9711376394202, -12178.146800773955, -35291.54930014006, -7082.4855068308725, -37065.026112201944, -21156.95430719308, -18944.489234028966, 8729.58555574245, -0.126, 0.978, -0.12, 192.0, 0.0, 0.0, 0.0, 0.0, 0.0, 0.0, 0.0, 0.0, 0.0, 1.74180847843481E9, 0.0, 2025-03-12 14:41:18.434
94.0, 21196.315729178874, -27337.88220141914, -43925.0670582136, -28075.199195766356, -26939.261190803194, 7090.219210412409, -38281.13982452629, 14446.267717631785, 3942.4453905159703, -12178.973815318801, -35274.40551214284, -7052.1988930939315, -37052.41972832915, -21156.082589159323, -18937.76135894792, 8720.443692260229, -0.126, 0.978, -0.12, 192.0, 0.0, 0.0, 0.0, 0.0, 0.0, 0.0, 0.0, 0.0, 0.0, 1.741808478434881E9, 0.0, 2025-03-12 14:41:18.434
96.0, 21135.22841158252, -27313.384689496124, -43910.136092917455, -28119.61211199905, -26928.152373808905, 7030.428293994462, -38266.74530109707, 14450.693363033935, 3957.6445767455793, -12173.475286182796, -35278.138253466874, -7074.483582315873, -37059.795803999405, -21158.42952232713, -18946.299725329845, 8719.951953882213, -0.126, 0.978, -0.12, 192.0, 0.0, 0.0, 0.0, 0.0, 0.0, 0.0, 0.0, 0.0, 0.0, 1.741808478434927E9, 0.0, 2025-03-12 14:41:18.434
98.0, 21211.42550843066, -27317.676224431543, -43907.99032544975, -28058.815367080613, -26926.811269141588, 7079.1998003959425, -38267.46055691964, 14461.221034672384, 3973.2684461198387, -12153.470474895297, -35247.69517751875, -7033.557538218205, -37037.01937639945, -21131.31685630284, -18919.120004072192, 8738.593308757938, -0.122, 0.97, -0.124, 192.0, 126.0, 24.0, 15.0, 40.0, 126.0, 16.0, 0.0, 0.0, 0.0, 1.74180847843497E9, 0.0, 2025-03-12 14:41:18.434
100.0, 21123.22552481002, -27321.94540762251, -43918.65210755493, -28113.644196229485, -26937.316589035585, 7034.25044229632, -38275.52953666801, 14452.325040379172, 3953.5095040213473, -12173.944672816358, -35282.58625061348, -7064.537056033261, -37066.747196525, -21153.08745540231, -18946.165614863112, 8725.674000462772, -0.122, 0.97, -0.124, 192.0, 0.0, 0.0, 0.0, 0.0, 0.0, 0.0, 0.0, 0.0, 0.0, 1.741808478435015E9, 0.0, 2025-03-12 14:41:18.435
102.0, 21202.48481064854, -27326.12518383565, -43912.103046429525, -28057.675428113394, -26933.874420389468, 7091.40385286854, -38269.360455198344, 14456.214243914395, 3957.2422453453837, -12164.26636746721, -35266.001256227646, -7044.82281742368, -37034.02424264244, -21136.815385438847, -18938.521318259398, 8730.770198198581, -0.122, 0.97, -0.124, 192.0, 0.0, 0.0, 0.0, 0.0, 0.0, 0.0, 0.0, 0.0, 0.0, 1.741808478435063E9, 0.0, 2025-03-12 14:41:18.435
104.0, 21122.0855858428, -27313.205875540483, -43910.22549989528, -28112.370146795532, -26933.51679247818, 7036.709134186403, -38267.751129597564, 14456.683630547957, 3961.5561320252577, -12160.757143587727, -35275.88072727689, -7056.557483262716, -37054.11846090775, -21145.174937865133, -18942.03054213888, 8732.804206944014, -0.122, 0.97, -0.124, 192.0, 0.0, 0.0, 0.0, 0.0, 0.0, 0.0, 0.0, 0.0, 0.0, 1.741808478435109E9, 0.0, 2025-03-12 14:41:18.435
106.0, 21204.89879904971, -27326.348701280203, -43914.40527610842, -28057.429558924385, -26936.623684957467, 7097.796451782758, -38269.06988252042, 14460.125799194075, 3954.917663922032, -12163.841684322559, -35269.95751499623, -7044.532244745761, -37050.18455388362, -21140.436368040606, -18931.83814666726, 8736.291079079041, -0.122, 0.97, -0.124, 192.0, 0.0, 0.0, 0.0, 0.0, 0.0, 0.0, 0.0, 0.0, 0.0, 1.741808478493609E9, 0.0, 2025-03-12 14:41:18.493
108.0, 21120.297446286375, -27317.22918954244, -43913.73472377476, -28118.405117798462, -26934.209696556296, 7049.471980270384, -38269.11458600934, 14456.571871825681, 3955.1411813665845, -12162.791152333159, -35285.8272535595, -7053.53999776125, -37053.73848125202, -21149.086493144812, -18935.63794322466, 8736.268727334587, -0.13, 0.966, -0.126, 192.0, 125.5, 120.0, 15.0, 24.0, 126.0, 8.0, 0.0, 0.0, 0.0, 1.741808478493675E9, 0.0, 2025-03-12 14:41:18.493
110.0, 21197.0533367459, -27317.385651753626, -43901.35185734652, -28070.125349775, -26913.75785037969, 7078.976282951389, -38254.09421373537, 14468.753572553824, 3952.6601377320458, -12166.926225057392, -35280.01580000112, -7053.025907638777, -37050.743347495, -21148.57240302234, -18932.79927167884, 8735.039381389544, -0.13, 0.966, -0.126, 192.0, 0.0, 0.0, 0.0, 0.0, 0.0, 0.0, 0.0, 0.0, 0.0, 1.741808478493724E9, 0.0, 2025-03-12 14:41:18.493
112.0, 21113.636626438692, -27328.49446874791, -43916.19341566484, -28118.09219337609, -26931.505135477204, 7049.002593636822, -38262.520821395025, 14456.303650892218, 3949.6650039750343, -12173.072954782601, -35280.44048314577, -7048.5555587477165, -37044.75307998098, -21154.18269088062, -18930.94407688905, 8731.306640065508, -0.13, 0.966, -0.126, 192.0, 0.0, 0.0, 0.0, 0.0, 0.0, 0.0, 0.0, 0.0, 0.0, 1.741808478493779E9, 0.0, 2025-03-12 14:41:18.493
114.0, 21182.748220294503, -27329.7014629485, -43907.69975277183, -28070.393570708464, -26922.720899906268, 7075.757631749825, -38262.34200743938, 14466.943081252943, 3949.843817930677, -12166.210969234822, -35280.41813140132, -7054.67993672847, -37039.92510317863, -21145.867841943247, -18934.65446646863, 8732.424227288273, -0.13, 0.966, -0.126, 192.0, 0.0, 0.0, 0.0, 0.0, 0.0, 0.0, 0.0, 0.0, 0.0, 1.741808478493822E9, 0.0, 2025-03-12 14:41:18.493
116.0, 21119.157507319156, -27323.532381478835, -43911.92423247388, -28110.716117705837, -26930.43225174335, 7050.656622726515, -38266.81235633044, 14458.7623427823, 3947.9215679075205, -12173.788210605171, -35283.50267213615, -7044.018154623289, -37048.03878641591, -21148.527699533428, -18933.760396690417, 8725.495186507129, -0.13, 0.966, -0.126, 192.0, 0.0, 0.0, 0.0, 0.0, 0.0, 0.0, 0.0, 0.0, 0.0, 1.741808478493875E9, 0.0, 2025-03-12 14:41:18.493
118.0, 21178.724906292548, -27336.474041518457, -43912.2148051518, -28071.645268397962, -26924.7549086517, 7068.962701435412, -38262.96785628413, 14461.846883517133, 3958.0916116346853, -12166.613300635017, -35280.55224186805, -7051.953023904923, -37042.69671949109, -21144.392626809196, -18930.854669911227, 8732.1113028659, -0.134, 0.96, -0.132, 192.0, 125.5, 104.0, 15.0, 0.0, 125.5, 112.0, 0.0, 0.0, 0.0, 1.741808478493923E9, 0.0, 2025-03-12 14:41:18.493
120.0, 21113.636626438692, -27337.144593852117, -43913.82413075258, -28102.893007146482, -26926.61010344149, 7054.791695450747, -38264.64423711828, 14457.398886370527, 3935.069314845719, -12180.851361853047, -35288.66592510533, -7045.985108135356, -37052.75500449598, -21156.1943478816, -18930.18411757757, 8724.06467486199, -0.134, 0.96, -0.132, 192.0, 0.0, 0.0, 0.0, 0.0, 0.0, 0.0, 0.0, 0.0, 0.0, 1.741808478493966E9, 0.0, 2025-03-12 14:41:18.493
122.0, 21159.27888861643, -27344.855945689196, -43906.917441715894, -28070.17005326391, -26921.93858885033, 7068.806239224225, -38264.398367929265, 14466.071363219186, 3944.3676405391266, -12173.609396649528, -35286.92248903781, -7062.190122865453, -37044.820135214344, -21151.56753677935, -18933.156899590125, 8733.29594532203, -0.134, 0.96, -0.132, 192.0, 0.0, 0.0, 0.0, 0.0, 0.0, 0.0, 0.0, 0.0, 0.0, 1.741808478553944E9, 0.0, 2025-03-12 14:41:18.553
124.0, 21122.174992820623, -27332.204858327492, -43908.92909871687, -28086.352716249552, -26918.831696371046, 7063.598282766138, -38261.55969638344, 14457.488293348348, 3946.759277195845, -12175.576350161595, -35280.35107616795, -7042.185311577954, -37032.392565297196, -21145.621972754238, -18930.027655366383, 8727.305677808008, -0.134, 0.96, -0.132, 192.0, 0.0, 0.0, 0.0, 0.0, 0.0, 0.0, 0.0, 0.0, 0.0, 1.741808478554055E9, 0.0, 2025-03-12 14:41:18.554
126.0, 21151.03109491242, -27334.08240486174, -43901.97770619127, -28068.538375918673, -26913.489629446227, 7056.959814662911, -38255.05533874695, 14464.260871918306, 3962.3160913367383, -12162.254710466232, -35278.227660444696, -7056.758648962814, -37040.52860027893, -21145.33140007632, -18929.69237919955, 8740.49320703664, -0.13, 0.961, -0.129, 192.0, 126.0, 8.0, 15.0, 8.0, 126.0, 8.0, 0.0, 0.0, 0.0, 1.741808478554104E9, 0.0, 2025-03-12 14:41:18.554
128.0, 21123.426690510118, -27336.228172329447, -43912.706543529814, -28072.047599798156, -26926.341882508026, 7077.858695728624, -38265.20303072966, 14457.130665437064, 3944.8593789171437, -12173.65410013844, -35275.277230176594, -7026.337924759141, -37034.963015909554, -21142.00099015248, -18933.715693201506, 8732.558337755007, -0.13, 0.961, -0.129, 192.0, 0.0, 0.0, 0.0, 0.0, 0.0, 0.0, 0.0, 0.0, 0.0, 1.741808478554147E9, 0.0, 2025-03-12 14:41:18.554
130.0, 21131.3392080473, -27327.578047225245, -43903.74349400324, -28073.276945743197, -26919.636359171436, 7050.209587837409, -38258.85513530435, 14460.95281373892, 3955.945844166976, -12161.271233710198, -35282.31802968002, -7046.029811624267, -37040.774469467935, -21135.586039493806, -18940.242402582455, 8746.461122806206, -0.13, 0.961, -0.129, 192.0, 0.0, 0.0, 0.0, 0.0, 0.0, 0.0, 0.0, 0.0, 0.0, 1.741808478554197E9, 0.0, 2025-03-12 14:41:18.554
132.0, 21137.262420327952, -27321.833648900232, -43899.07197941208, -28066.37025670651, -26922.586789439534, 7073.321291604197, -38261.604399872354, 14454.627270058068, 3955.8564371891543, -12161.092419754556, -35267.34236089497, -7013.128043786054, -37032.593730997294, -21135.831908682812, -18929.08888209926, 8736.20167210122, -0.13, 0.961, -0.129, 192.0, 0.0, 0.0, 0.0, 0.0, 0.0, 0.0, 0.0, 0.0, 0.0, 1.741808478554239E9, 0.0, 2025-03-12 14:41:18.554
134.0, 21117.95051311857, -27329.388538526124, -43901.30715385761, -28084.341059248574, -26928.264132531185, 7043.2805470562635, -38265.448899918665, 14448.994630455332, 3964.8641902046434, -12165.115733756511, -35281.64747734636, -7045.7392389463475, -37050.45277481709, -21148.930030933625, -18943.215184595014, 8728.535023753051, -0.13, 0.961, -0.129, 192.0, 0.0, 0.0, 0.0, 0.0, 0.0, 0.0, 0.0, 0.0, 0.0, 1.741808478554288E9, 0.0, 2025-03-12 14:41:18.554
136.0, 21147.633629755215, -27324.627616957143, -43897.17208113338, -28062.525756660198, -26925.17959179635, 7076.4952393168505, -38260.71033009414, 14448.055857188208, 3961.9584634254534, -12167.462666924319, -35263.69902654875, -7015.385569976041, -37031.74436470799, -21142.17980410812, -18934.542707746354, 8723.86350916189, -0.126, 0.9615, -0.1245, 192.0, 126.0, 24.0, 15.0, 8.0, 126.0, 32.0, 0.0, 0.0, 0.0, 1.741808478615609E9, 0.0, 2025-03-12 14:41:18.615
138.0, 21104.22654202301, -27317.78798315382, -43893.97578167627, -28083.491692959273, -26923.972597595766, 7030.741218416837, -38251.85903928984, 14455.208415413907, 3972.866114719643, -12159.147817986945, -35269.26461091812, -7034.272794040775, -37044.23898985851, -21137.2400685835, -18932.687512956563, 8735.888747678846, -0.126, 0.9615, -0.1245, 192.0, 0.0, 0.0, 0.0, 0.0, 0.0, 0.0, 0.0, 0.0, 0.0, 1.741808478615685E9, 0.0, 2025-03-12 14:41:18.615
140.0, 21143.364446564254, -27322.325387278248, -43896.74739798873, -28045.717244829804, -26927.012434841687, 7076.897570717046, -38256.84347830337, 14456.326002636672, 3964.0818791487077, -12156.733829585772, -35259.005160213135, -7011.384607718541, -37031.38673679671, -21131.27215281393, -18932.03931236736, 8729.071465619978, -0.126, 0.9615, -0.1245, 192.0, 0.0, 0.0, 0.0, 0.0, 0.0, 0.0, 0.0, 0.0, 0.0, 1.741808478615732E9, 0.0, 2025-03-12 14:41:18.615
142.0, 21089.273224982408, -27322.057166344784, -43899.69782825683, -28090.64425118497, -26928.979388353753, 7034.496311485328, -38260.03977776048, 14452.593261312637, 3967.92637919502, -12164.60164363404, -35279.25584068964, -7044.576948234671, -37045.870667203744, -21144.683199487114, -18947.104388130236, 8730.613735987394, -0.126, 0.9615, -0.1245, 192.0, 0.0, 0.0, 0.0, 0.0, 0.0, 0.0, 0.0, 0.0, 0.0, 1.741808478615773E9, 0.0, 2025-03-12 14:41:18.615
144.0, 21145.577269265326, -27339.089195619727, -43906.93979346035, -28051.931029788382, -26931.79570815512, 7094.466041858917, -38260.10683299385, 14452.43679910145, 3956.0576028892524, -12173.02825129369, -35266.627105072395, -7023.543956702228, -37041.42267005714, -21143.587964008806, -18941.22587933849, 8725.428131273762, -0.126, 0.9615, -0.1245, 192.0, 0.0, 0.0, 0.0, 0.0, 0.0, 0.0, 0.0, 0.0, 0.0, 1.741808478615815E9, 0.0, 2025-03-12 14:41:18.615
146.0, 21079.25964346643, -27329.12031759266, -43899.228441623265, -28107.028079870714, -26929.51583022068, 7031.72469517287, -38255.34591142487, 14451.363915367594, 3958.06925989023, -12178.280911240687, -35287.43657916028, -7051.774209949281, -37059.32641736584, -21164.129217163234, -18953.340524833267, 8718.72260793717, -0.125, 0.96175, -0.12225, 192.0, 126.0, 16.0, 15.0, 8.0, 126.0, 32.0, 0.0, 0.0, 0.0, 1.741808478615862E9, 0.0, 2025-03-12 14:41:18.615
148.0, 21162.76576075146, -27314.457573229978, -43884.81156644959, -28047.013646008214, -26907.74523112121, 7074.975320693889, -38243.499486863555, 14470.094677221141, 3974.162515898051, -12165.093382012055, -35257.64170380136, -7020.5041194563055, -37021.26139655845, -21134.960190649057, -18935.168556591103, 8732.625392988371, -0.125, 0.96175, -0.12225, 192.0, 0.0, 0.0, 0.0, 0.0, 0.0, 0.0, 0.0, 0.0, 0.0, 1.74180847861591E9, 0.0, 2025-03-12 14:41:18.615
150.0, 21077.158579487634, -27325.007596612882, -43895.69686599933, -28095.293414031676, -26920.821001627566, 7028.327230015663, -38252.931923023694, 14461.489255605848, 3971.525010052325, -12163.126428499989, -35260.189802669265, -7037.782017920258, -37030.492667018494, -21135.22841158252, -18936.956696147525, 8738.861529691403, -0.125, 0.96175, -0.12225, 192.0, 0.0, 0.0, 0.0, 0.0, 0.0, 0.0, 0.0, 0.0, 0.0, 1.741808478615952E9, 0.0, 2025-03-12 14:41:18.615
152.0, 21144.146757620187, -27339.737396208933, -43898.58024103406, -28049.047654753645, -26919.61400742698, 7086.352358621641, -38250.92026602272, 14456.415409614494, 3954.7164982219338, -12179.107925785533, -35265.30835214953, -7033.132855073554, -37033.644262986694, -21146.31487683235, -18942.589335750265, 8724.757578940103, -0.125, 0.96175, -0.12225, 192.0, 0.0, 0.0, 0.0, 0.0, 0.0, 0.0, 0.0, 0.0, 0.0, 1.741808478674433E9, 0.0, 2025-03-12 14:41:18.674
154.0, 21055.320925154796, -27335.043529873317, -43903.20705213631, -28109.12914384951, -26924.777260396157, 7040.911262144001, -38254.51889688002, 14455.946022980932, 3951.296681320272, -12179.1749810189, -35279.36759941192, -7048.510855258805, -37042.2943880909, -21155.344981592298, -18950.23363235398, 8721.404817271807, -0.125, 0.96175, -0.12225, 192.0, 0.0, 0.0, 0.0, 0.0, 0.0, 0.0, 0.0, 0.0, 0.0, 1.741808478674484E9, 0.0, 2025-03-12 14:41:18.674
156.0, 21128.075853356822, -27356.6576667616, -43911.99128770725, -28058.03305602468, -26933.025054100162, 7094.063710458721, -38269.06988252042, 14449.464017088892, 3938.6008904696573, -12182.393632220464, -35278.89821277836, -7049.181407592465, -37038.56164676686, -21154.786187980913, -18948.154920119636, 8719.683732948748, -0.1255, 0.961875, -0.121125, 192.0, 126.0, 8.0, 15.0, 8.0, 126.0, 32.0, 0.0, 0.0, 0.0, 1.741808478674542E9, 0.0, 2025-03-12 14:41:18.674
158.0, 21046.60374481723, -27335.06588161777, -43902.40238933592, -28112.213684584345, -26924.866667373975, 7052.690631471948, -38263.54900163996, 14457.823569515178, 3935.2257770569063, -12189.79205963517, -35286.31899193752, -7061.340756576152, -37051.838582973316, -21165.22445264154, -18955.508644045432, 8714.38636951284, -0.1255, 0.961875, -0.121125, 192.0, 0.0, 0.0, 0.0, 0.0, 0.0, 0.0, 0.0, 0.0, 0.0, 1.741808478674595E9, 0.0, 2025-03-12 14:41:18.674
160.0, 21129.439309768597, -27336.07171011826, -43888.4101973069, -28043.616180851008, -26920.552780694103, 7096.522402348805, -38251.99314975657, 14463.43385737346, 3949.7320592084006, -12165.182788989878, -35267.878802761894, -7043.928747645467, -37037.488763033005, -21138.737635462003, -18932.106367600725, 8738.079218635467, -0.1255, 0.961875, -0.121125, 192.0, 0.0, 0.0, 0.0, 0.0, 0.0, 0.0, 0.0, 0.0, 0.0, 1.741808478674645E9, 0.0, 2025-03-12 14:41:18.674
162.0, 21046.089654694755, -27324.6499687016, -43891.87471769747, -28087.93969010588, -26925.157240051896, 7060.245521097841, -38258.47515564861, 14467.323060908684, 3956.549341267269, -12159.393687175952, -35265.822442272, -7031.72469517287, -37029.01745188444, -21122.46556549854, -18933.98391413497, 8743.376582071374, -0.1255, 0.961875, -0.121125, 192.0, 0.0, 0.0, 0.0, 0.0, 0.0, 0.0, 0.0, 0.0, 0.0, 1.74180847867469E9, 0.0, 2025-03-12 14:41:18.674
164.0, 21102.438402466585, -27356.434149317047, -43902.49179631374, -28048.041826253157, -26924.978426096255, 7096.589457582171, -38265.71712085213, 14455.744857280835, 3946.044021373275, -12170.971890803801, -35272.68442781978, -7047.6167854805935, -37032.07964087482, -21129.48401325751, -18935.235611824468, 8739.48737853615, -0.1255, 0.961875, -0.121125, 192.0, 0.0, 0.0, 0.0, 0.0, 0.0, 0.0, 0.0, 0.0, 0.0, 1.741808478674732E9, 0.0, 2025-03-12 14:41:18.674
166.0, 21029.39290158664, -27357.819957473275, -43908.25854638321, -28097.997975110768, -26928.800574398112, 7069.387384580063, -38260.062129504935, 14445.485406575848, 3919.758369893834, -12194.575332948605, -35295.43850367529, -7055.149323362032, -37047.43528931562, -21155.479092059028, -18947.03733289687, 8714.63223870185, -0.12575, 0.9629375, -0.12156249999999999, 192.0, 126.0, 8.0, 15.0, 16.0, 126.0, 24.0, 0.0, 0.0, 0.0, 1.741808478734792E9, 0.0, 2025-03-12 14:41:18.734
168.0, 21085.65224238065, -27352.857870204196, -43902.29063061364, -28064.98444855028, -26920.172801038363, 7079.289207373764, -38253.04368174597, 14461.66806956149, 3935.002259612353, -12181.812486864626, -35287.34717218246, -7057.9656431634, -37049.40224282769, -21149.533528033917, -18946.79146370786, 8723.707046950703, -0.12575, 0.9629375, -0.12156249999999999, 192.0, 0.0, 0.0, 0.0, 0.0, 0.0, 0.0, 0.0, 0.0, 0.0, 1.741808478734853E9, 0.0, 2025-03-12 14:41:18.734
170.0, 21032.365683599197, -27344.900649178107, -43902.53649980265, -28094.913434375936, -26920.03869057163, 7064.537056033261, -38244.01357698603, 14456.773037525778, 3928.0955705756633, -12185.299358999653, -35288.3306489385, -7039.77132317678, -37048.41876607165, -21164.24097588551, -18946.277373585388, 8719.34845678192, -0.12575, 0.9629375, -0.12156249999999999, 192.0, 0.0, 0.0, 0.0, 0.0, 0.0, 0.0, 0.0, 0.0, 0.0, 1.7418084787349E9, 0.0, 2025-03-12 14:41:18.734
172.0, 21077.47150391001, -27357.93171619555, -43901.10598815751, -28077.94846033436, -26925.559571452093, 7065.252311855831, -38251.45670788964, 14454.269642146784, 3939.204387569951, -12188.830934623593, -35284.732018081195, -7060.49139028685, -37054.76666149696, -21154.540318791907, -18947.104388130236, 8720.980134127156, -0.12575, 0.9629375, -0.12156249999999999, 192.0, 0.0, 0.0, 0.0, 0.0, 0.0, 0.0, 0.0, 0.0, 0.0, 1.741808478734943E9, 0.0, 2025-03-12 14:41:18.734
174.0, 21040.859346492212, -27342.30784682129, -43891.58414501955, -28093.460570986343, -26923.257341773195, 7054.791695450747, -38241.264312418025, 14454.470807846881, 3931.068352588219, -12188.875638112502, -35281.1780907128, -7043.995802878833, -37042.383795068716, -21156.216699626053, -18945.56211776282, 8712.218250300677, -0.12575, 0.9629375, -0.12156249999999999, 192.0, 0.0, 0.0, 0.0, 0.0, 0.0, 0.0, 0.0, 0.0, 0.0, 1.741808478734993E9, 0.0, 2025-03-12 14:41:18.734
176.0, 21063.859291536726, -27341.860811932187, -43883.716330971285, -28073.41105620993, -26914.80838236909, 7037.983183620356, -38240.1243734508, 14460.304613149718, 3955.588216255691, -12171.798905348649, -35270.15868069633, -7051.595395993638, -37033.19722809759, -21147.9912576665, -18938.18604209257, 8729.853776675913, -0.123875, 0.96446875, -0.12178125, 192.0, 126.0, 24.0, 15.0, 24.0, 126.0, 24.0, 0.0, 0.0, 0.0, 1.741808478735038E9, 0.0, 2025-03-12 14:41:18.735
178.0, 21048.436587862565, -27347.4040445571, -43896.94856368883, -28070.93001257539, -26927.10184181951, 7057.809180952214, -38252.55194336795, 14451.028639200764, 3943.7194399499226, -12175.97868156179, -35264.05665446004, -7021.420540978974, -37035.119478120745, -21145.979600665523, -18936.017922880405, 8723.483529506151, -0.123875, 0.96446875, -0.12178125, 192.0, 0.0, 0.0, 0.0, 0.0, 0.0, 0.0, 0.0, 0.0, 0.0, 1.741808478735092E9, 0.0, 2025-03-12 14:41:18.735
180.0, 21044.033294204866, -27346.062939889784, -43896.03214216616, -28078.864881857025, -26924.106708062496, 7041.671221455482, -38255.83764980288, 14454.157883424508, 3942.3336317936937, -12174.54816991665, -35286.609564615435, -7049.784904692759, -37057.18064989813, -21158.116597904755, -18950.188928865067, 8717.20268931421, -0.123875, 0.96446875, -0.12178125, 192.0, 0.0, 0.0, 0.0, 0.0, 0.0, 0.0, 0.0, 0.0, 0.0, 1.74180847873514E9, 0.0, 2025-03-12 14:41:18.735
182.0, 21059.880681023682, -27336.49639326291, -43891.047703152624, -28070.594736408562, -26921.13392604994, 7066.883989201068, -38248.729795066094, 14458.360011382105, 3943.49592250537, -12175.486943183774, -35268.59405858446, -7019.610049678094, -37033.510152519964, -21150.60641176777, -18937.56019324782, 8722.164776583288, -0.123875, 0.96446875, -0.12178125, 192.0, 0.0, 0.0, 0.0, 0.0, 0.0, 0.0, 0.0, 0.0, 0.0, 1.74180847879539E9, 0.0, 2025-03-12 14:41:18.795
184.0, 21041.216974403498, -27346.152346867606, -43897.57441253358, -28085.190425537876, -26930.096975576518, 7046.3874395355515, -38250.67439683371, 14456.482464847859, 3946.9827946403975, -12173.005899549235, -35282.72036108022, -7047.102695358121, -37043.25551310248, -21145.778434965425, -18941.784672949874, 8730.524329009573, -0.123875, 0.96446875, -0.12178125, 192.0, 0.0, 0.0, 0.0, 0.0, 0.0, 0.0, 0.0, 0.0, 0.0, 1.741808478795439E9, 0.0, 2025-03-12 14:41:18.795
186.0, 21065.960355515523, -27343.69365497752, -43895.652162510414, -28058.949477547347, -26928.28648427564, 7087.0229109553, -38253.53542012399, 14460.125799194075, 3937.930338135998, -12173.251768738242, -35276.28305867709, -7018.894793855524, -37033.912483920154, -21136.770681949936, -18938.767187448408, 8723.796453928526, -0.1219375, 0.965234375, -0.121890625, 192.0, 126.0, 32.0, 15.0, 24.0, 126.0, 24.0, 0.0, 0.0, 0.0, 1.74180847879548E9, 0.0, 2025-03-12 14:41:18.795
188.0, 21026.82245097428, -27347.448748046012, -43894.22165086528, -28091.024230840714, -26926.118365063474, 7053.3164803166965, -38250.04854798896, 14461.28808990575, 3947.720402207423, -12174.45876293883, -35287.61539311593, -7048.980241892367, -37053.291446362906, -21143.05152214188, -18951.88766144367, 8717.314448036486, -0.1219375, 0.965234375, -0.121890625, 192.0, 0.0, 0.0, 0.0, 0.0, 0.0, 0.0, 0.0, 0.0, 0.0, 1.741808478795525E9, 0.0, 2025-03-12 14:41:18.795
190.0, 21076.242157964964, -27357.5070330509, -43899.854290468014, -28060.782320592683, -26930.90163837691, 7110.849870544657, -38265.49360340758, 14451.05099094522, 3933.2364718003837, -12184.897027599458, -35275.299581921056, -7027.857843382102, -37044.95424568108, -21143.52090877544, -18944.69039972906, 8704.350436252409, -0.1219375, 0.965234375, -0.121890625, 192.0, 0.0, 0.0, 0.0, 0.0, 0.0, 0.0, 0.0, 0.0, 0.0, 1.741808478795579E9, 0.0, 2025-03-12 14:41:18.795
192.0, 21022.30739859431, -27344.185393355536, -43888.92428742937, -28104.45762925835, -26919.9045801049, 7056.088096629155, -38252.23901894558, 14457.063610203697, 3932.4094572555373, -12186.148725288955, -35293.113922251934, -7057.853884441124, -37063.48384183453, -21153.154510635675, -18956.112141145724, 8708.753729910104, -0.1219375, 0.965234375, -0.121890625, 192.0, 0.0, 0.0, 0.0, 0.0, 0.0, 0.0, 0.0, 0.0, 0.0, 1.741808478795626E9, 0.0, 2025-03-12 14:41:18.795
194.0, 21100.89613209917, -27343.49248927742, -43887.24790659522, -28058.345980447055, -26917.24472251472, 7097.707044804936, -38252.77546081251, 14461.15397943902, 3941.484265504392, -12174.36935596101, -35264.25782016013, -7023.856881124602, -37034.11364962025, -21139.654056984673, -18938.70013221504, 8720.175471326766, -0.1219375, 0.965234375, -0.121890625, 192.0, 0.0, 0.0, 0.0, 0.0, 0.0, 0.0, 0.0, 0.0, 0.0, 1.741808478795673E9, 0.0, 2025-03-12 14:41:18.795
196.0, 21032.544497554838, -27332.875410661152, -43881.77172920367, -28109.97851013881, -26908.7510596217, 7034.719828929881, -38241.59958858485, 14470.899340021533, 3943.54062599428, -12175.308129228131, -35278.920564522814, -7050.29899481523, -37042.2943880909, -21146.001952409977, -18945.852690440737, 8715.325142779964, -0.12296875, 0.9686171875, -0.11694531250000001, 192.0, 126.0, 16.0, 15.0, 48.0, 126.0, 64.0, 0.0, 0.0, 0.0, 1.741808478855392E9, 0.0, 2025-03-12 14:41:18.855
198.0, 21108.808649636347, -27352.70140799301, -43890.66772349688, -28057.675428113394, -26914.450754457805, 7087.447594099951, -38250.11560322232, 14466.250177174828, 3933.616451456124, -12180.806658364138, -35268.83992777347, -7033.266965540286, -37030.67148097414, -21142.358618063765, -18931.257001311424, 8714.989866613134, -0.12296875, 0.9686171875, -0.11694531250000001, 192.0, 0.0, 0.0, 0.0, 0.0, 0.0, 0.0, 0.0, 0.0, 0.0, 1.741808478855485E9, 0.0, 2025-03-12 14:41:18.855
200.0, 21035.561983056305, -27350.488585291932, -43902.62590678047, -28119.925036421424, -26929.784051154144, 7037.804369664714, -38261.13501323879, 14454.224938657873, 3926.642707186068, -12189.993225335267, -35290.319954195016, -7054.948157661934, -37054.63255103023, -21155.970830437047, -18944.422178795598, 8708.999599099112, -0.12296875, 0.9686171875, -0.11694531250000001, 192.0, 0.0, 0.0, 0.0, 0.0, 0.0, 0.0, 0.0, 0.0, 0.0, 1.741808478855541E9, 0.0, 2025-03-12 14:41:18.855
202.0, 21124.387815521695, -27338.79862294181, -43887.8067002066, -28060.201175236845, -26912.66261490138, 7081.92671321949, -38242.71717580762, 14468.664165576001, 3930.487207232381, -12180.560789175128, -35280.954573268245, -7039.033715609756, -37042.51790553545, -21145.398455309685, -18940.912954916115, 8713.358189267898, -0.12296875, 0.9686171875, -0.11694531250000001, 192.0, 0.0, 0.0, 0.0, 0.0, 0.0, 0.0, 0.0, 0.0, 0.0, 1.74180847885559E9, 0.0, 2025-03-12 14:41:18.855
204.0, 21067.144997971656, -27343.224268343958, -43902.98353469176, -28108.503295004764, -26925.291350518626, 7043.638174967548, -38259.72685333811, 14461.533959094759, 3945.0605446172412, -12170.390745447963, -35282.60860235794, -7046.454494768917, -37047.12236489324, -21136.41305403865, -18931.592277478252, 8724.15408183981, -0.12296875, 0.9686171875, -0.11694531250000001, 192.0, 0.0, 0.0, 0.0, 0.0, 0.0, 0.0, 0.0, 0.0, 0.0, 1.741808478855638E9, 0.0, 2025-03-12 14:41:18.855
206.0, 21163.36925785175, -27337.32340780776, -43892.07588339757, -28056.401378679442, -26907.32054797656, 7083.513687075817, -38249.08742297738, 14470.00527024332, 3940.7690096818224, -12181.991300820267, -35281.6251256019, -7043.325250545175, -37040.23802760101, -21148.28183034442, -18932.12871934518, 8719.035532359545, -0.12348437500000001, 0.96930859375, -0.11747265625, 192.0, 126.0, 16.0, 15.0, 40.0, 126.0, 40.0, 0.0, 0.0, 0.0, 1.741808478855679E9, 0.0, 2025-03-12 14:41:18.855
208.0, 21108.65218742516, -27327.93567513653, -43895.83097646606, -28102.244806557275, -26909.42161195536, 7033.758703918303, -38248.103946221345, 14467.390116142049, 3950.3132045642383, -12165.652175623438, -35273.533794109084, -7032.372895762074, -37045.13305963672, -21141.732769219016, -18920.03642559486, 8737.073390134978, -0.12348437500000001, 0.96930859375, -0.11747265625, 192.0, 0.0, 0.0, 0.0, 0.0, 0.0, 0.0, 0.0, 0.0, 0.0, 1.741808478855727E9, 0.0, 2025-03-12 14:41:18.855
210.0, 21203.825915315858, -27342.21843984347, -43905.84455798204, -28049.517041387207, -26914.69662364681, 7084.16188766502, -38260.26329520503, 14464.640851574046, 3942.266576560328, -12169.228454736287, -35274.47256737621, -7034.697477185426, -37043.59078926931, -21134.46845227104, -18922.338655273754, 8734.97232615618, -0.12348437500000001, 0.96930859375, -0.11747265625, 192.0, 0.0, 0.0, 0.0, 0.0, 0.0, 0.0, 0.0, 0.0, 0.0, 1.741808478855769E9, 0.0, 2025-03-12 14:41:18.855
212.0, 21141.55395526337, -27335.870544418165, -43911.678363284875, -28107.072783359625, -26916.7529841367, 7054.590529750649, -38262.05143476146, 14455.409581114005, 3944.904082406054, -12180.024347308201, -35281.714532579725, -7037.714962686892, -37057.404167342684, -21145.53256577642, -18923.277428540878, 8730.323163309475, -0.12348437500000001, 0.96930859375, -0.11747265625, 192.0, 0.0, 0.0, 0.0, 0.0, 0.0, 0.0, 0.0, 0.0, 0.0, 1.741808478914182E9, 0.0, 2025-03-12 14:41:18.914
214.0, 21221.327331224362, -27327.958026880984, -43901.620078279986, -28069.65596314144, -26900.637376384424, 7084.385405109573, -38253.04368174597, 14474.833247045666, 3950.9167016645315, -12173.162361760422, -35281.66982909082, -7042.408829022507, -37046.98825442651, -21139.207022095565, -18920.148184317135, 8734.502939522617, -0.12348437500000001, 0.96930859375, -0.11747265625, 192.0, 0.0, 0.0, 0.0, 0.0, 0.0, 0.0, 0.0, 0.0, 0.0, 1.741808478914236E9, 0.0, 2025-03-12 14:41:18.914
216.0, 21167.012592197967, -27320.425488999546, -43912.03599119616, -28102.893007146482, -26910.963882322776, 7071.935483447967, -38253.5801236129, 14466.049011474732, 3949.7320592084006, -12172.827085593592, -35280.48518663469, -7021.57700319016, -37046.47416430404, -21134.446100526584, -18912.570942946786, 8740.739076225647, -0.1227421875, 0.9676542968749999, -0.11373632812500001, 192.0, 126.0, 24.0, 15.0, 24.0, 126.0, 72.0, 0.0, 0.0, 0.0, 1.741808478914277E9, 0.0, 2025-03-12 14:41:18.914
218.0, 21241.600363445326, -27322.3477390227, -43907.967973705294, -28069.141873018965, -26902.17964675184, 7084.787736509769, -38255.0776904914, 14473.022755744787, 3955.3423470666826, -12171.664794881915, -35285.424922159305, -7036.418561508484, -37046.96590268206, -21137.75415870597, -18918.963541861005, 8742.795436715536, -0.1227421875, 0.9676542968749999, -0.11373632812500001, 192.0, 0.0, 0.0, 0.0, 0.0, 0.0, 0.0, 0.0, 0.0, 0.0, 1.741808478914332E9, 0.0, 2025-03-12 14:41:18.914
220.0, 21199.444973402617, -27326.70632919149, -43912.795950507636, -28096.0310215987, -26913.199056768306, 7068.135686890565, -38256.46349864763, 14468.328889409173, 3957.1528383675623, -12172.089478026566, -35274.852547031944, -7017.866613610579, -37054.65490277468, -21132.970885392533, -18910.693396412542, 8745.678811750271, -0.1227421875, 0.9676542968749999, -0.11373632812500001, 192.0, 0.0, 0.0, 0.0, 0.0, 0.0, 0.0, 0.0, 0.0, 0.0, 1.741808478914378E9, 0.0, 2025-03-12 14:41:18.914
222.0, 21243.433206490663, -27328.405061770092, -43904.79402599264, -28075.825044611105, -26905.621815397957, 7056.915111174001, -38251.613170100834, 14474.497970878838, 3958.1810186125067, -12165.965100045813, -35275.65720983234, -7040.330116788164, -37053.26909461845, -21132.27798131442, -18915.54372495934, 8748.092800151444, -0.1227421875, 0.9676542968749999, -0.11373632812500001, 192.0, 0.0, 0.0, 0.0, 0.0, 0.0, 0.0, 0.0, 0.0, 0.0, 1.741808478914426E9, 0.0, 2025-03-12 14:41:18.914
224.0, 21216.72287186657, -27319.911398877073, -43913.01946795219, -28085.190425537876, -26912.126173034452, 7062.68186124347, -38251.45670788964, 14473.827418545177, 3960.7961727137777, -12165.495713412252, -35266.24712541665, -7010.378779218052, -37047.16706838216, -21127.382949278708, -18907.94413184454, 8742.750733226625, -0.1227421875, 0.9676542968749999, -0.11373632812500001, 192.0, 0.0, 0.0, 0.0, 0.0, 0.0, 0.0, 0.0, 0.0, 0.0, 1.741808478966086E9, 0.0, 2025-03-12 14:41:18.966
226.0, 21236.34770349833, -27324.247637301403, -43908.0126771942, -28083.64815517046, -26905.71122237578, 7049.069648870189, -38246.69578632066, 14475.570854612692, 3963.5677890262355, -12166.322727957098, -35278.38412265589, -7033.691648684937, -37059.70639702158, -21128.589943479295, -18920.50581222842, 8742.929547182268, -0.11837109375, 0.9688271484375, -0.1128681640625, 192.0, 126.0, 56.0, 15.0, 40.0, 126.0, 64.0, 0.0, 0.0, 0.0, 1.741808478966145E9, 0.0, 2025-03-12 14:41:18.966
228.0, 21238.82874713287, -27325.02994835734, -43906.559813804604, -28083.424637725908, -26907.27584448765, 7066.794582223247, -38249.780327055494, 14471.256967932817, 3966.6970332499786, -12165.495713412252, -35260.86035500292, -7009.1717850174655, -37029.55389375137, -21117.525829973918, -18908.88290511166, 8745.947032683735, -0.11837109375, 0.9688271484375, -0.1128681640625, 192.0, 0.0, 0.0, 0.0, 0.0, 0.0, 0.0, 0.0, 0.0, 0.0, 1.741808478966189E9, 0.0, 2025-03-12 14:41:18.966
230.0, 21228.859869105803, -27330.37201528216, -43901.955354446814, -28093.237053541787, -26900.838542084522, 7044.174616834476, -38246.293454920466, 14474.967357512398, 3956.817562200733, -12176.2245507508, -35282.429788402296, -7050.097829115132, -37043.434327058116, -21135.094301115787, -18920.28229478387, 8739.420323302786, -0.11837109375, 0.9688271484375, -0.1128681640625, 192.0, 0.0, 0.0, 0.0, 0.0, 0.0, 0.0, 0.0, 0.0, 0.0, 1.741808478966232E9, 0.0, 2025-03-12 14:41:18.966
232.0, 21238.82874713287, -27336.451689774, -43909.867871983995, -28074.305125988143, -26907.27584448765, 7080.3173876187075, -38251.45670788964, 14474.699136578934, 3956.5940447561798, -12167.775591346694, -35264.92837249379, -7013.798596119714, -37036.1923618546, -21125.013664366445, -18904.25609400941, 8747.846930962436, -0.11837109375, 0.9688271484375, -0.1128681640625, 192.0, 0.0, 0.0, 0.0, 0.0, 0.0, 0.0, 0.0, 0.0, 0.0, 1.741808478966274E9, 0.0, 2025-03-12 14:41:18.966
234.0, 21217.304017222406, -27335.334102551235, -43909.0632091836, -28098.445009999876, -26905.241835742218, 7051.282471571264, -38244.59472234186, 14475.704965079423, 3949.977928397409, -12176.60453040654, -35286.766026826626, -7048.689669214448, -37059.08054817683, -21129.349902790775, -18922.69628318504, 8741.566090770495, -0.11837109375, 0.9688271484375, -0.1128681640625, 192.0, 0.0, 0.0, 0.0, 0.0, 0.0, 0.0, 0.0, 0.0, 0.0, 1.741808478966319E9, 0.0, 2025-03-12 14:41:18.966
236.0, 21252.64212520625, -27337.32340780776, -43910.069037684094, -28077.613184167527, -26902.89490257441, 7086.441765599462, -38248.595684599364, 14468.842979531644, 3946.424001029015, -12172.26829198221, -35266.492994605665, -7017.844261866125, -37040.97563516803, -21128.433481268108, -18905.88777135465, 8738.526253524573, -0.117185546875, 0.96741357421875, -0.11443408203125, 192.0, 126.0, 48.0, 15.0, 24.0, 126.0, 48.0, 0.0, 0.0, 0.0, 1.741808478966365E9, 0.0, 2025-03-12 14:41:18.966
238.0, 21211.313749708384, -27335.02117812886, -43908.28089812767, -28113.353623551564, -26903.744268863713, 7045.046334868233, -38249.579161355396, 14469.62529058758, 3956.906969178554, -12172.871789082503, -35281.289849435074, -7049.874311670579, -37032.99606239749, -21138.156490106165, -18914.716710414497, 8740.269689592087, -0.117185546875, 0.96741357421875, -0.11443408203125, 192.0, 0.0, 0.0, 0.0, 0.0, 0.0, 0.0, 0.0, 0.0, 0.0, 1.741808478966411E9, 0.0, 2025-03-12 14:41:18.966
240.0, 21257.939488642158, -27330.439070515524, -43907.85621498302, -28074.059256799133, -26907.27584448765, 7098.846983772157, -38255.21180095814, 14468.932386509465, 3941.327803293205, -12176.895103084458, -35268.325837651, -7023.074570068667, -37041.8920566907, -21134.714321460047, -18912.436832480053, 8728.1103406084, -0.117185546875, 0.96741357421875, -0.11443408203125, 192.0, 0.0, 0.0, 0.0, 0.0, 0.0, 0.0, 0.0, 0.0, 0.0, 1.741808479029095E9, 0.0, 2025-03-12 14:41:19.029
242.0, 21202.373051926264, -27325.007596612882, -43902.089464913544, -28114.3371003076, -26905.75592586469, 7055.574006506683, -38248.595684599364, 14470.72052606589, 3953.978890654909, -12165.585120390073, -35277.42299764431, -7040.330116788164, -37046.67533000414, -21128.880516157213, -18918.941190116548, 8733.787683700048, -0.117185546875, 0.96741357421875, -0.11443408203125, 192.0, 0.0, 0.0, 0.0, 0.0, 0.0, 0.0, 0.0, 0.0, 0.0, 1.741808479029156E9, 0.0, 2025-03-12 14:41:19.029
244.0, 21263.86270092281, -27329.053262359295, -43901.888299213446, -28066.638477639972, -26909.17574276635, 7111.945106022967, -38250.54028636697, 14465.490217863347, 3946.647518473568, -12175.755164117238, -35260.70389279174, -7014.759721131292, -37043.367271824754, -21132.546202247882, -18903.78670737585, 8730.323163309475, -0.117185546875, 0.96741357421875, -0.11443408203125, 192.0, 0.0, 0.0, 0.0, 0.0, 0.0, 0.0, 0.0, 0.0, 0.0, 1.741808479029202E9, 0.0, 2025-03-12 14:41:19.029
246.0, 21192.694746577115, -27324.851134401695, -43905.30811611511, -28116.214646841843, -26910.13686777793, 7059.597320508638, -38256.3293881809, 14460.8634067611, 3952.4366202874926, -12173.430582693885, -35272.50561386414, -7034.742180674337, -37054.274923118945, -21142.492728530495, -18911.118079557193, 8734.905270922813, -0.1205927734375, 0.968706787109375, -0.117217041015625, 192.0, 126.0, 16.0, 15.0, 40.0, 126.0, 32.0, 0.0, 0.0, 0.0, 1.741808479029251E9, 0.0, 2025-03-12 14:41:19.029
248.0, 21258.990020631554, -27331.243733315914, -43907.52093881618, -28065.297372972655, -26908.7510596217, 7111.78864381178, -38259.77155682702, 14468.217130686895, 3943.808846927744, -12169.899007069947, -35268.862279517925, -7024.013343335789, -37034.9406641651, -21133.149699348178, -18905.150163787624, 8733.139483110843, -0.1205927734375, 0.968706787109375, -0.117217041015625, 192.0, 0.0, 0.0, 0.0, 0.0, 0.0, 0.0, 0.0, 0.0, 0.0, 1.741808479029304E9, 0.0, 2025-03-12 14:41:19.029
250.0, 21176.28856614692, -27313.809372640775, -43902.06711316909, -28120.930864921913, -26905.688870631322, 7045.91805290199, -38244.79588804196, 14464.260871918306, 3945.2170068284286, -12176.69393738436, -35277.75827381114, -7039.748971432326, -37057.29240862041, -21136.591867994295, -18911.475707468475, 8730.367866798386, -0.1205927734375, 0.968706787109375, -0.117217041015625, 192.0, 0.0, 0.0, 0.0, 0.0, 0.0, 0.0, 0.0, 0.0, 0.0, 1.741808479029346E9, 0.0, 2025-03-12 14:41:19.029
252.0, 21263.795645689446, -27323.84530590121, -43898.35672358951, -28059.1729949919, -26902.38081245194, 7090.889762746068, -38243.23126593009, 14468.57475859818, 3964.5736175267243, -12162.21000697732, -35249.75153800864, -7016.078474054155, -37034.2924635759, -21121.571495720327, -18891.426192692066, 8737.140445368344, -0.1205927734375, 0.968706787109375, -0.117217041015625, 192.0, 0.0, 0.0, 0.0, 0.0, 0.0, 0.0, 0.0, 0.0, 0.0, 1.741808479029388E9, 0.0, 2025-03-12 14:41:19.029
254.0, 21180.021307470957, -27311.82006738425, -43899.653124767916, -28114.873542174526, -26906.001795053697, 7037.849073153624, -38248.01453924353, 14462.986822484354, 3961.198504113973, -12168.535550658173, -35269.622238829405, -7029.4224654939735, -37059.10289992129, -21131.160394091654, -18904.323149242777, 8727.059808619, -0.1205927734375, 0.968706787109375, -0.117217041015625, 192.0, 0.0, 0.0, 0.0, 0.0, 0.0, 0.0, 0.0, 0.0, 0.0, 1.741808479086536E9, 0.0, 2025-03-12 14:41:19.086
0.0, 21256.128997341275, -27326.371053024657, -43898.64729626743, -28049.78526232067, -26905.644167142415, 7090.532134834783, -38251.00967300054, 14470.362898154604, 3953.844780188177, -12160.868902310003, -35260.681541047285, -7017.15135778801, -37040.72976597903, -21122.80084166537, -18899.91985558508, 8733.944145911235, -0.12329638671875, 0.9693533935546874, -0.11760852050781251, 192.0, 126.0, 8.0, 15.0, 40.0, 126.0, 40.0, 0.0, 0.0, 0.0, 1.741808479086597E9, 0.0, 2025-03-12 14:41:19.086
2.0, 21168.75602826548, -27315.64221568611, -43894.02048516518, -28106.446934514875, -26905.219483997764, 7042.364125533596, -38247.4780973766, 14467.256005675317, 3952.5260272653136, -12166.590948890562, -35270.181032440785, -7020.928802600957, -37041.66853924615, -21130.176917335622, -18903.719652142485, 8733.698276722227, -0.12329638671875, 0.9693533935546874, -0.11760852050781251, 192.0, 0.0, 0.0, 0.0, 0.0, 0.0, 0.0, 0.0, 0.0, 0.0, 1.741808479086641E9, 0.0, 2025-03-12 14:41:19.086
4.0, 21242.516784967993, -27328.896800148108, -43889.997171163224, -28063.26336422722, -26897.03874552712, 7070.437916569462, -38248.05924273244, 14474.877950534577, 3952.548379009769, -12172.69297512686, -35265.084834704976, -7026.695552670426, -37042.249684601986, -21125.170126577632, -18902.333843986256, 8734.145311611332, -0.12329638671875, 0.9693533935546874, -0.11760852050781251, 192.0, 0.0, 0.0, 0.0, 0.0, 0.0, 0.0, 0.0, 0.0, 0.0, 1.741808479086682E9, 0.0, 2025-03-12 14:41:19.086
6.0, 21167.303164875888, -27334.01534962837, -43899.18373813436, -28105.731678692304, -26901.777315351646, 7044.845169168136, -38251.546114867466, 14468.083020220163, 3955.4988092778694, -12171.55303615964, -35265.35305563844, -7015.542032187228, -37042.450850302084, -21122.21969630953, -18896.947073572526, 8739.77795121407, -0.12329638671875, 0.9693533935546874, -0.11760852050781251, 192.0, 0.0, 0.0, 0.0, 0.0, 0.0, 0.0, 0.0, 0.0, 0.0, 1.741808479086731E9, 0.0, 2025-03-12 14:41:19.086
8.0, 21232.234982518552, -27344.095986377717, -43901.21774687979, -28064.60446889454, -26903.811324097078, 7081.367919608107, -38265.49360340758, 14464.640851574046, 3943.071239360719, -12175.1740187614, -35272.416206886315, -7031.523529472773, -37054.65490277468, -21132.166222592143, -18908.033538822358, 8731.530157510062, -0.12329638671875, 0.9693533935546874, -0.11760852050781251, 192.0, 0.0, 0.0, 0.0, 0.0, 0.0, 0.0, 0.0, 0.0, 0.0, 1.741808479086775E9, 0.0, 2025-03-12 14:41:19.086
10.0, 21171.840569000313, -27324.40409951259, -43899.07197941208, -28106.782210681704, -26898.581015894535, 7050.522512259783, -38248.886257277285, 14462.584491084159, 3944.4123440280373, -12179.398498463452, -35270.806881285534, -7016.726674643359, -37058.14177490971, -21136.27894357192, -18914.113213314202, 8723.103549850412, -0.125648193359375, 0.9706766967773437, -0.11780426025390625, 192.0, 126.0, 0.0, 15.0, 48.0, 126.0, 40.0, 0.0, 0.0, 0.0, 1.74180847908682E9, 0.0, 2025-03-12 14:41:19.086
12.0, 21231.45267146262, -27335.825840929254, -43900.23427012376, -28073.03107655419, -26903.207826996786, 7068.001576423833, -38256.016463758526, 14457.890624748545, 3954.291815077283, -12175.442239694863, -35270.382198140884, -7029.578927705161, -37028.52571350643, -21135.697798216082, -18915.32020751479, 8723.304715550508, -0.125648193359375, 0.9706766967773437, -0.11780426025390625, 192.0, 0.0, 0.0, 0.0, 0.0, 0.0, 0.0, 0.0, 0.0, 0.0, 1.741808479086871E9, 0.0, 2025-03-12 14:41:19.086
14.0, 21179.37310688175, -27323.97941636794, -43900.25662186821, -28093.527626219708, -26898.201036238795, 7057.138628618554, -38257.89401029277, 14460.14815093853, 3955.8564371891543, -12171.798905348649, -35262.11205269242, -7009.082378039644, -37027.11755360574, -21127.89703940118, -18910.64869292363, 8722.209480072199, -0.125648193359375, 0.9706766967773437, -0.11780426025390625, 192.0, 0.0, 0.0, 0.0, 0.0, 0.0, 0.0, 0.0, 0.0, 0.0, 1.74180847914687E9, 0.0, 2025-03-12 14:41:19.146
16.0, 21219.226267245565, -27337.144593852117, -43894.91455494339, -28073.634573654483, -26890.89201580191, 7050.209587837409, -38245.82406828691, 14466.406639386016, 3964.037175659797, -12171.441277437363, -35275.143119709865, -7030.852977139113, -37032.41491704165, -21123.672559699127, -18913.733233658462, 8729.160872597799, -0.125648193359375, 0.9706766967773437, -0.11780426025390625, 192.0, 0.0, 0.0, 0.0, 0.0, 0.0, 0.0, 0.0, 0.0, 0.0, 1.741808479146915E9, 0.0, 2025-03-12 14:41:19.146
18.0, 21194.01349949998, -27337.32340780776, -43906.44805508233, -28085.816274382625, -26900.257396728684, 7066.369899078596, -38258.16223122623, 14458.918804993487, 3947.362774296138, -12179.130277529988, -35273.73495980918, -7009.1717850174655, -37037.4440595441, -21128.85816441276, -18906.89359985514, 8721.561279482994, -0.125648193359375, 0.9706766967773437, -0.11780426025390625, 192.0, 0.0, 0.0, 0.0, 0.0, 0.0, 0.0, 0.0, 0.0, 0.0, 1.741808479146957E9, 0.0, 2025-03-12 14:41:19.146
20.0, 21209.61501712978, -27331.511954249378, -43894.5122235432, -28086.062143571635, -26892.18841698032, 7052.4894657718505, -38255.6811875917, 14466.473694619383, 3958.940977923987, -12175.017556550212, -35276.37246565491, -7030.294183527731, -37041.31091133486, -21132.70266445907, -18913.84499238074, 8726.836291174448, -0.1248240966796875, 0.9683383483886718, -0.11790213012695314, 192.0, 126.0, 16.0, 15.0, 24.0, 126.0, 40.0, 0.0, 0.0, 0.0, 1.741808479147E9, 0.0, 2025-03-12 14:41:19.147
22.0, 21190.57133085386, -27343.671303233066, -43912.48302608526, -28095.494579731774, -26908.304024732595, 7086.508820832828, -38264.08544350689, 14448.167615910485, 3940.321974792716, -12185.701690399848, -35274.98665749868, -7007.517755927773, -37034.963015909554, -21143.073873886333, -18911.296893512834, 8709.804261899502, -0.1248240966796875, 0.9683383483886718, -0.11790213012695314, 192.0, 0.0, 0.0, 0.0, 0.0, 0.0, 0.0, 0.0, 0.0, 0.0, 1.74180847914706E9, 0.0, 2025-03-12 14:41:19.147
24.0, 21190.683089576138, -27327.958026880984, -43898.08850265604, -28107.94450139338, -26894.781219337136, 7043.3923057785405, -38253.356606168345, 14456.281299147762, 3945.172303339518, -12180.449030452852, -35291.16932048432, -7040.620689466083, -37045.267170103456, -21138.916449417648, -18920.103480828224, 8714.095796834921, -0.1248240966796875, 0.9683383483886718, -0.11790213012695314, 192.0, 0.0, 0.0, 0.0, 0.0, 0.0, 0.0, 0.0, 0.0, 0.0, 1.741808479147103E9, 0.0, 2025-03-12 14:41:19.147
26.0, 21208.408022929198, -27317.45270698699, -43897.23913636674, -28085.2798325157, -26894.8482745705, 7062.63715775456, -38250.85321078935, 14462.137456195052, 3944.9711376394202, -12173.050603038146, -35271.90211676385, -7007.71892162787, -37029.71035596256, -21129.394606279686, -18906.535971943853, 8723.662343461794, -0.1248240966796875, 0.9683383483886718, -0.11790213012695314, 192.0, 0.0, 0.0, 0.0, 0.0, 0.0, 0.0, 0.0, 0.0, 0.0, 1.741808479147144E9, 0.0, 2025-03-12 14:41:19.147
28.0, 21187.710307563582, -27322.705366933988, -43894.86985145448, -28107.408059526453, -26893.887149558923, 7021.867575868079, -38245.91347526473, 14465.758438796813, 3963.768954726333, -12165.339251201065, -35273.399683642354, -7025.577965447661, -37042.2943880909, -21122.353806776264, -18907.74296614444, 8733.742980211136, -0.1248240966796875, 0.9683383483886718, -0.11790213012695314, 192.0, 0.0, 0.0, 0.0, 0.0, 0.0, 0.0, 0.0, 0.0, 0.0, 1.741808479207765E9, 0.0, 2025-03-12 14:41:19.207
30.0, 21219.11450852329, -27325.812259413276, -43904.36934284799, -28085.615108682527, -26897.731649605234, 7064.671166499993, -38257.201106214656, 14462.00334572832, 3938.913814892032, -12178.16915251841, -35270.56101209653, -7006.757796616292, -37052.37502484024, -21127.248838811975, -18908.435870222555, 8715.794529413526, -0.12441204833984375, 0.9681691741943359, -0.11795106506347658, 192.0, 126.0, 16.0, 15.0, 32.0, 126.0, 40.0, 0.0, 0.0, 0.0, 1.741808479207819E9, 0.0, 2025-03-12 14:41:19.207
32.0, 21177.115580691767, -27333.255390316892, -43910.203148150824, -28119.388594554497, -26906.962920065274, 7035.502139985817, -38255.41296665823, 14459.47759860487, 3942.3559835381493, -12174.279948983187, -35283.323858180505, -7038.072590598177, -37050.51983005045, -21140.79399595189, -18921.89162038465, 8722.656514961305, -0.12441204833984375, 0.9681691741943359, -0.11795106506347658, 192.0, 0.0, 0.0, 0.0, 0.0, 0.0, 0.0, 0.0, 0.0, 0.0, 1.741808479207869E9, 0.0, 2025-03-12 14:41:19.207
34.0, 21231.542078440438, -27332.83070717224, -43907.8115114941, -28077.657887656438, -26899.09510601701, 7088.855754000635, -38250.76380381153, 14463.09858120663, 3938.198559069462, -12184.673510154906, -35273.51144236463, -7016.81608162118, -37042.00381541298, -21128.098205101276, -18915.275504025878, 8718.275573048064, -0.12441204833984375, 0.9681691741943359, -0.11795106506347658, 192.0, 0.0, 0.0, 0.0, 0.0, 0.0, 0.0, 0.0, 0.0, 0.0, 1.741808479207928E9, 0.0, 2025-03-12 14:41:19.207
36.0, 21165.783246252926, -27335.535268251333, -43907.476235327274, -28124.685957990405, -26892.18841698032, 7035.077456841166, -38245.64525433126, 14462.428028872971, 3945.552282995258, -12189.054452068145, -35287.9283175383, -7044.956927890412, -37055.3478068528, -21132.099167358778, -18922.1151378292, 8721.896555649824, -0.12441204833984375, 0.9681691741943359, -0.11795106506347658, 192.0, 0.0, 0.0, 0.0, 0.0, 0.0, 0.0, 0.0, 0.0, 0.0, 1.741808479207973E9, 0.0, 2025-03-12 14:41:19.207
38.0, 21230.40213947322, -27333.009521127886, -43905.33046785957, -28070.594736408562, -26890.422629168348, 7090.219210412409, -38252.41783290122, 14461.57866258367, 3944.680564961501, -12180.046699052657, -35271.96917199721, -7014.3350379866415, -37034.47127753154, -21123.85137365477, -18908.011187077904, 8724.846985917924, -0.12441204833984375, 0.9681691741943359, -0.11795106506347658, 192.0, 0.0, 0.0, 0.0, 0.0, 0.0, 0.0, 0.0, 0.0, 0.0, 1.741808479208017E9, 0.0, 2025-03-12 14:41:19.208
40.0, 21154.272097858444, -27333.367149039168, -43903.96701144779, -28116.728736964316, -26896.79287633811, 7049.986070392856, -38249.936789266685, 14454.090828191142, 3941.573672482213, -12185.36641423302, -35284.93318378129, -7033.311669029197, -37051.90563820668, -21132.099167358778, -18921.0646058398, 8718.320276536975, -0.12420602416992188, 0.9690845870971679, -0.11697553253173829, 192.0, 126.0, 16.0, 15.0, 40.0, 126.0, 48.0, 0.0, 0.0, 0.0, 1.741808479208061E9, 0.0, 2025-03-12 14:41:19.208
42.0, 21233.151404041222, -27329.142669337118, -43888.11962462898, -28058.144814746956, -26885.9969837662, 7097.192954682464, -38239.83380077288, 14467.971261497887, 3950.670832475523, -12174.279948983187, -35261.8214800145, -7011.2281455073535, -37025.77644893843, -21119.157507319156, -18906.155992288113, 8726.076331862967, -0.12420602416992188, 0.9690845870971679, -0.11697553253173829, 192.0, 0.0, 0.0, 0.0, 0.0, 0.0, 0.0, 0.0, 0.0, 0.0, 1.741808479208108E9, 0.0, 2025-03-12 14:41:19.208
44.0, 21162.654002029183, -27326.08048034674, -43889.997171163224, -28119.90268467697, -26890.176759979342, 7045.426314523973, -38242.27014091851, 14462.316270150695, 3957.264597089839, -12176.69393738436, -35270.82923302999, -7023.3204392576745, -37034.87360893174, -21126.310065544854, -18911.431003979564, 8724.39995102882, -0.12420602416992188, 0.9690845870971679, -0.11697553253173829, 192.0, 0.0, 0.0, 0.0, 0.0, 0.0, 0.0, 0.0, 0.0, 0.0, 1.741808479267462E9, 0.0, 2025-03-12 14:41:19.267
46.0, 21241.041569833946, -27328.31565479227, -43890.06422639659, -28066.973753806804, -26889.059172756573, 7085.1900679099645, -38246.53932410948, 14463.746781795835, 3948.8826929190986, -12177.967986818312, -35257.99933171264, -7018.403055477507, -37020.859065158256, -21120.27509454192, -18902.043271308336, 8722.790625428037, -0.12420602416992188, 0.9690845870971679, -0.11697553253173829, 192.0, 0.0, 0.0, 0.0, 0.0, 0.0, 0.0, 0.0, 0.0, 0.0, 1.741808479267507E9, 0.0, 2025-03-12 14:41:19.267
48.0, 21160.508234561472, -27325.052300101794, -43897.39559857793, -28121.42260329993, -26897.999870538697, 7046.543901746739, -38253.11073697934, 14460.014040471799, 3947.787457440789, -12178.571483918606, -35266.6718085613, -7019.140663044533, -37034.359518809266, -21128.634646968207, -18914.02380633638, 8717.135634080843, -0.12420602416992188, 0.9690845870971679, -0.11697553253173829, 192.0, 0.0, 0.0, 0.0, 0.0, 0.0, 0.0, 0.0, 0.0, 0.0, 1.741808479267551E9, 0.0, 2025-03-12 14:41:19.267
50.0, 21248.797625159936, -27326.952198380495, -43886.77851996166, -28068.784245107683, -26890.154408234885, 7082.977245208889, -38248.41687064372, 14465.66903181899, 3959.5668267687356, -12175.531646672684, -35252.299636876545, -7009.596468162116, -37024.480047760015, -21119.22456255252, -18906.111288799202, 8720.935430638247, -0.12610301208496094, 0.9725422935485839, -0.11748776626586915, 192.0, 126.0, 0.0, 15.0, 64.0, 126.0, 40.0, 0.0, 0.0, 0.0, 1.741808479267605E9, 0.0, 2025-03-12 14:41:19.267
52.0, 21159.05537117188, -27323.532381478835, -43895.40629332141, -28120.2379608438, -26894.110667003475, 7047.3262128026745, -38250.89791427826, 14456.281299147762, 3959.9915099133864, -12171.97771930429, -35252.09847117645, -7008.7023983839035, -37035.410050798666, -21125.12542308872, -18908.145297544634, 8721.516575994085, -0.12610301208496094, 0.9725422935485839, -0.11748776626586915, 192.0, 0.0, 0.0, 0.0, 0.0, 0.0, 0.0, 0.0, 0.0, 0.0, 1.741808479267654E9, 0.0, 2025-03-12 14:41:19.267
54.0, 21226.20001151562, -27328.98620712593, -43891.71825548628, -28078.484902201286, -26888.65684135638, 7072.583684037171, -38250.67439683371, 14458.404714871016, 3951.1178673646295, -12178.862056596525, -35260.07804394699, -7018.2689450107755, -37036.21471359905, -21135.42957728262, -18912.772108646885, 8714.29696253502, -0.12610301208496094, 0.9725422935485839, -0.11748776626586915, 192.0, 0.0, 0.0, 0.0, 0.0, 0.0, 0.0, 0.0, 0.0, 0.0, 1.741808479267698E9, 0.0, 2025-03-12 14:41:19.267
56.0, 21148.460644300063, -27327.287474547324, -43898.51318580069, -28116.058184630656, -26898.670422872357, 7046.454494768917, -38256.75407132555, 14456.795389270233, 3945.8875591620877, -12179.756126374738, -35262.559087581525, -7011.876346096557, -37034.89596067619, -21135.94366740509, -18913.487364469453, 8716.174509069266, -0.12610301208496094, 0.9725422935485839, -0.11748776626586915, 192.0, 0.0, 0.0, 0.0, 0.0, 0.0, 0.0, 0.0, 0.0, 0.0, 1.74180847926775E9, 0.0, 2025-03-12 14:41:19.267
58.0, 21212.05135727541, -27327.376881525146, -43891.13711013045, -28076.249727755756, -26889.014469267666, 7063.419468810495, -38244.192390941666, 14461.66806956149, 3954.6270912441128, -12173.296472227154, -35260.99446546966, -7020.995857834323, -37028.70452746207, -21120.118632330734, -18910.805155134818, 8725.785759185048, -0.12610301208496094, 0.9725422935485839, -0.11748776626586915, 192.0, 0.0, 0.0, 0.0, 0.0, 0.0, 0.0, 0.0, 0.0, 0.0, 1.741808479327012E9, 0.0, 2025-03-12 14:41:19.327
60.0, 21151.56753677935, -27324.113526834673, -43887.67258973987, -28106.603396726063, -26894.490646659215, 7048.421448280985, -38246.44991713166, 14458.874101504578, 3954.7164982219338, -12173.922321071903, -35257.97697996819, -7006.511927427284, -37037.93579792211, -21130.735710947003, -18899.428117207066, 8724.39995102882, -0.12305150604248047, 0.9712711467742919, -0.11874388313293457, 192.0, 126.0, 32.0, 15.0, 40.0, 126.0, 32.0, 0.0, 0.0, 0.0, 1.741808479327061E9, 0.0, 2025-03-12 14:41:19.327
62.0, 21202.328348437353, -27330.573180982257, -43883.91749667138, -28071.533509675686, -26892.233120469227, 7060.334928075663, -38247.92513226571, 14464.126761451575, 3963.0536989037632, -12172.2235884933, -35257.105261934434, -7022.269907268275, -37031.36438505225, -21128.321722545832, -18905.64190216564, 8734.25707033361, -0.12305150604248047, 0.9712711467742919, -0.11874388313293457, 192.0, 0.0, 0.0, 0.0, 0.0, 0.0, 0.0, 0.0, 0.0, 0.0, 1.741808479327105E9, 0.0, 2025-03-12 14:41:19.327
64.0, 21157.066065915355, -27327.26512280287, -43885.660932738894, -28095.271062287222, -26898.69277461681, 7056.982166407367, -38248.260408432536, 14462.875063762078, 3953.4200970435263, -12178.571483918606, -35253.84190724396, -7002.801537847703, -37035.94649266559, -21123.359635276753, -18905.798364376828, 8729.652610975816, -0.12305150604248047, 0.9712711467742919, -0.11874388313293457, 192.0, 0.0, 0.0, 0.0, 0.0, 0.0, 0.0, 0.0, 0.0, 0.0, 1.741808479327158E9, 0.0, 2025-03-12 14:41:19.327
66.0, 21180.356583637786, -27332.60718972769, -43886.82322345057, -28074.707457388336, -26899.788010095122, 7059.977300164378, -38254.98828351358, 14460.170502682986, 3960.483248291403, -12176.135143772977, -35258.62518055739, -7025.712075914393, -37036.70645197707, -21128.79110917939, -18910.246361523434, 8727.126863852365, -0.12305150604248047, 0.9712711467742919, -0.11874388313293457, 192.0, 0.0, 0.0, 0.0, 0.0, 0.0, 0.0, 0.0, 0.0, 0.0, 1.741808479327203E9, 0.0, 2025-03-12 14:41:19.327
68.0, 21150.762873978958, -27334.730605450943, -43897.03797066665, -28088.140855805977, -26910.025109055652, 7070.147343891543, -38261.76086208354, 14449.776941511267, 3948.8826929190986, -12184.919379343914, -35249.93035196428, -7005.774319860258, -37037.8910944332, -21134.334341804308, -18912.45918422451, 8715.81688115798, -0.12305150604248047, 0.9712711467742919, -0.11874388313293457, 192.0, 0.0, 0.0, 0.0, 0.0, 0.0, 0.0, 0.0, 0.0, 0.0, 1.741808479327247E9, 0.0, 2025-03-12 14:41:19.327
70.0, 21164.129217163234, -27327.823916414254, -43876.6084762345, -28089.124332562013, -26890.243815212707, 7041.850035411124, -38245.01940548651, 14465.914901008, 3959.4103645575483, -12178.191504262866, -35257.105261934434, -7027.902546871012, -37031.543199007894, -21125.19247832209, -18918.02476859388, 8728.780892942059, -0.12152575302124023, 0.971635573387146, -0.12137194156646729, 192.0, 126.0, 32.0, 15.0, 48.0, 126.0, 16.0, 0.0, 0.0, 0.0, 1.741808479327293E9, 0.0, 2025-03-12 14:41:19.327
72.0, 21163.74923750749, -27327.712157691978, -43878.821298935574, -28077.344963234063, -26886.37696342194, 7060.290224586753, -38245.77936479799, 14466.808970786211, 3953.0848208766965, -12179.845533352558, -35244.45417457273, -6992.296217953708, -37020.56849248034, -21114.70951017255, -18904.63607366515, 8728.780892942059, -0.12152575302124023, 0.971635573387146, -0.12137194156646729, 192.0, 0.0, 0.0, 0.0, 0.0, 0.0, 0.0, 0.0, 0.0, 0.0, 1.741808479327345E9, 0.0, 2025-03-12 14:41:19.327
74.0, 21142.291562830396, -27344.31950382227, -43896.18860437735, -28090.42073374042, -26895.02708852614, 7044.286375556752, -38252.61899860132, 14453.57673806867, 3951.5425505092803, -12179.130277529988, -35262.24616315915, -7023.409846235496, -37035.32064382084, -21126.734748689505, -18913.71088191401, 8728.222099330676, -0.12152575302124023, 0.971635573387146, -0.12137194156646729, 192.0, 0.0, 0.0, 0.0, 0.0, 0.0, 0.0, 0.0, 0.0, 0.0, 1.741808479386402E9, 0.0, 2025-03-12 14:41:19.386
76.0, 21159.502406060983, -27343.17956485505, -43895.62981076596, -28077.32261148961, -26896.301137960094, 7077.881047473079, -38253.848344546364, 14452.056819445708, 3939.897291648065, -12190.17203929091, -35258.40166311284, -7006.24370649382, -37033.59955949779, -21137.173013350133, -18913.040329580348, 8714.34166602393, -0.12152575302124023, 0.971635573387146, -0.12137194156646729, 192.0, 0.0, 0.0, 0.0, 0.0, 0.0, 0.0, 0.0, 0.0, 0.0, 1.741808479386488E9, 0.0, 2025-03-12 14:41:19.386
78.0, 21136.636571483206, -27324.247637301403, -43878.68718846884, -28099.98728036729, -26883.962975020764, 7038.5196254872835, -38246.82989678739, 14466.71956380839, 3951.073163875719, -12187.690995656372, -35267.14119519487, -7029.444817238429, -37049.78222248342, -21133.306161559365, -18919.07530058328, 8719.974305626667, -0.12152575302124023, 0.971635573387146, -0.12137194156646729, 192.0, 0.0, 0.0, 0.0, 0.0, 0.0, 0.0, 0.0, 0.0, 0.0, 1.741808479386547E9, 0.0, 2025-03-12 14:41:19.386
80.0, 21182.77057203896, -27315.664567430566, -43876.8096419346, -28050.858146054525, -26888.589786123015, 7090.867411001613, -38243.58889384138, 14471.793409799744, 3961.1538006250626, -12162.344117444054, -35234.038261656555, -6978.393432902508, -37017.8862831457, -21098.41508846463, -18896.254169494412, 8735.44171278974, -0.12376287651062012, 0.970817786693573, -0.12068597078323365, 192.0, 126.0, 8.0, 15.0, 40.0, 126.0, 32.0, 0.0, 0.0, 0.0, 1.741808479386591E9, 0.0, 2025-03-12 14:41:19.386
82.0, 21131.406263280664, -27317.542113964813, -43876.384958789946, -28091.89594887447, -26895.250605970694, 7051.036602382255, -38250.070899733415, 14467.77009579779, 3967.099364650174, -12163.037021522168, -35255.227715400186, -7002.466261680873, -37028.972748395536, -21110.46267872604, -18913.286198769358, 8733.273593577576, -0.12376287651062012, 0.970817786693573, -0.12068597078323365, 192.0, 0.0, 0.0, 0.0, 0.0, 0.0, 0.0, 0.0, 0.0, 0.0, 1.741808479386636E9, 0.0, 2025-03-12 14:41:19.386
84.0, 21179.127237692745, -27329.679111204045, -43882.934019915345, -28055.97669553479, -26890.69085010181, 7095.203649425942, -38247.835725287885, 14460.371668383083, 3953.196579598973, -12170.949539059346, -35244.99061643966, -6985.009549261278, -37029.240969328996, -21115.871800884226, -18905.84306786574, 8725.517538251584, -0.12376287651062012, 0.970817786693573, -0.12068597078323365, 192.0, 0.0, 0.0, 0.0, 0.0, 0.0, 0.0, 0.0, 0.0, 0.0, 1.74180847938668E9, 0.0, 2025-03-12 14:41:19.386
86.0, 21107.55695194685, -27333.27774206135, -43881.92819141486, -28110.269082816732, -26894.244777470205, 7036.507968486306, -38247.09811772086, 14460.796351527733, 3952.101344120663, -12179.97964381929, -35260.14509918036, -7014.536203686739, -37038.00285315548, -21130.914524902648, -18912.4144807356, 8717.336799780942, -0.12376287651062012, 0.970817786693573, -0.12068597078323365, 192.0, 0.0, 0.0, 0.0, 0.0, 0.0, 0.0, 0.0, 0.0, 0.0, 1.741808479386724E9, 0.0, 2025-03-12 14:41:19.386
88.0, 21183.374069139252, -27326.862791402673, -43876.6084762345, -28056.088454257067, -26887.60630936698, 7081.099698674643, -38243.11950720781, 14466.026659730276, 3949.7991144417665, -12180.829010108591, -35240.38615708186, -6988.80934581868, -37032.03493738591, -21118.79987940787, -18903.540838186844, 8718.096759092423, -0.12376287651062012, 0.970817786693573, -0.12068597078323365, 192.0, 0.0, 0.0, 0.0, 0.0, 0.0, 0.0, 0.0, 0.0, 0.0, 1.74180847944729E9, 0.0, 2025-03-12 14:41:19.447
90.0, 21108.160449047144, -27322.50420123389, -43882.107005370504, -28107.206893826355, -26892.858969313977, 7031.434122494951, -38245.62290258681, 14453.66614504649, 3961.8243529587216, -12172.380050704485, -35250.48914557566, -7008.657694894993, -37035.16418160965, -21124.14194633269, -18909.911085356605, 8721.695389949726, -0.12288143825531006, 0.9684088933467865, -0.12034298539161682, 192.0, 126.0, 24.0, 15.0, 24.0, 126.0, 32.0, 0.0, 0.0, 0.0, 1.741808479447337E9, 0.0, 2025-03-12 14:41:19.447
92.0, 21186.503313362995, -27333.545962994813, -43886.107967628, -28056.80371007964, -26890.400277423894, 7087.246428399852, -38256.41879515872, 14456.10248519212, 3955.4317540445036, -12181.432507208885, -35244.56593329501, -7000.521659913262, -37034.42657404263, -21119.42572825262, -18908.99466383394, 8709.759558410593, -0.12288143825531006, 0.9684088933467865, -0.12034298539161682, 192.0, 0.0, 0.0, 0.0, 0.0, 0.0, 0.0, 0.0, 0.0, 0.0, 1.741808479447393E9, 0.0, 2025-03-12 14:41:19.447
94.0, 21098.258626253442, -27324.806430912788, -43885.526822272164, -28109.62088222753, -26893.37305943645, 7042.900567400524, -38247.03106248749, 14454.962546224899, 3953.330690065705, -12182.684204898384, -35258.33460787948, -7010.468186195873, -37042.80847821337, -21126.645341711683, -18920.774033161884, 8707.591439198428, -0.12288143825531006, 0.9684088933467865, -0.12034298539161682, 192.0, 0.0, 0.0, 0.0, 0.0, 0.0, 0.0, 0.0, 0.0, 0.0, 1.741808479447439E9, 0.0, 2025-03-12 14:41:19.447
96.0, 21171.170016666656, -27336.406986285092, -43891.539441530644, -28055.93199204588, -26897.32931820504, 7099.383425639085, -38256.9775887701, 14454.850787502623, 3943.741791694378, -12174.414059449919, -35245.90703796232, -6994.374930188052, -37037.37700431073, -21112.31787351583, -18914.806117392316, 8714.587535212939, -0.12288143825531006, 0.9684088933467865, -0.12034298539161682, 192.0, 0.0, 0.0, 0.0, 0.0, 0.0, 0.0, 0.0, 0.0, 0.0, 1.741808479447487E9, 0.0, 2025-03-12 14:41:19.447
98.0, 21077.762076587926, -27325.722852435454, -43885.72798797226, -28116.862847431046, -26895.004736781688, 7053.785866950258, -38250.29441717797, 14450.38043861156, 3939.941995136976, -12182.79596362066, -35260.21215441372, -7011.116386785077, -37046.40710907067, -21124.61133296625, -18931.011132122414, 8700.036549572535, -0.12288143825531006, 0.9684088933467865, -0.12034298539161682, 192.0, 0.0, 0.0, 0.0, 0.0, 0.0, 0.0, 0.0, 0.0, 0.0, 1.741808479447531E9, 0.0, 2025-03-12 14:41:19.447
100.0, 21167.191406153608, -27333.858887417187, -43873.59099073303, -28063.397474693953, -26883.47123664275, 7081.613788797115, -38243.924170008206, 14459.38819162705, 3952.682489476501, -12175.88927458397, -35243.09071816096, -7003.203869247898, -37032.61608274175, -21116.07296658432, -18915.5660767038, 8713.984038112645, -0.12144071912765503, 0.9682044466733932, -0.1201714926958084, 192.0, 126.0, 32.0, 15.0, 32.0, 126.0, 32.0, 0.0, 0.0, 0.0, 1.741808479447582E9, 0.0, 2025-03-12 14:41:19.447
102.0, 21082.99238479047, -27331.623712971654, -43881.77172920367, -28112.07957411761, -26891.920196046853, 7044.666355212493, -38244.70648106414, 14450.156921167008, 3945.753448695356, -12188.607417179039, -35249.438613586266, -7006.1766512604545, -37033.71131822006, -21116.49764972897, -18913.353254002723, 8707.703197920704, -0.12144071912765503, 0.9682044466733932, -0.1201714926958084, 192.0, 0.0, 0.0, 0.0, 0.0, 0.0, 0.0, 0.0, 0.0, 0.0, 1.74180847944763E9, 0.0, 2025-03-12 14:41:19.447
104.0, 21149.824100711838, -27350.13095738065, -43884.45393853831, -28065.766759606217, -26892.724858847247, 7079.0209864403, -38252.5295916235, 14456.52716833677, 3946.06637311773, -12183.578274676594, -35252.88078223238, -7008.948267572912, -37029.33037630682, -21117.726995674017, -18914.426137736576, 8709.67015143277, -0.12144071912765503, 0.9682044466733932, -0.1201714926958084, 192.0, 0.0, 0.0, 0.0, 0.0, 0.0, 0.0, 0.0, 0.0, 0.0, 1.7418084795079E9, 0.0, 2025-03-12 14:41:19.507
106.0, 21075.88453005368, -27347.158175368095, -43892.74643573123, -28112.45955377335, -26906.33707122053, 7059.8878931865565, -38255.01063525804, 14442.222051885374, 3924.385180996082, -12205.751205176259, -35267.945857995255, -7008.635343150538, -37055.3478068528, -21138.71528371755, -18921.869268640196, 8691.788755868525, -0.12144071912765503, 0.9682044466733932, -0.1201714926958084, 192.0, 0.0, 0.0, 0.0, 0.0, 0.0, 0.0, 0.0, 0.0, 0.0, 1.741808479507947E9, 0.0, 2025-03-12 14:41:19.507
108.0, 21138.871745928736, -27344.811242200285, -43888.83488045155, -28075.64623065546, -26903.073716530052, 7074.908265460524, -38259.033949259996, 14449.53107232226, 3939.0926288476744, -12188.070975312112, -35262.17910792579, -7016.77137813227, -37045.401280570186, -21129.595771979784, -18925.065568097303, 8696.326159992954, -0.12144071912765503, 0.9682044466733932, -0.1201714926958084, 192.0, 0.0, 0.0, 0.0, 0.0, 0.0, 0.0, 0.0, 0.0, 0.0, 1.741808479508003E9, 0.0, 2025-03-12 14:41:19.508
110.0, 21077.382096932186, -27332.473079260955, -43889.28191534065, -28112.32544330662, -26902.269053729662, 7057.9656431634, -38255.36826316932, 14445.798330998223, 3942.3783352826044, -12194.262408526232, -35265.39775912735, -7001.773357602759, -37048.99991142749, -21135.720149960536, -18927.79248092085, 8692.146383779811, -0.12372035956382751, 0.9661022233366966, -0.1210857463479042, 192.0, 126.0, 8.0, 15.0, 16.0, 126.0, 24.0, 0.0, 0.0, 0.0, 1.74180847950805E9, 0.0, 2025-03-12 14:41:19.508
112.0, 21125.818327166835, -27336.965779896473, -43883.47046178227, -28080.40715222444, -26899.877417072945, 7071.153172392032, -38257.402271914754, 14442.66908677448, 3946.803980684755, -12186.238132266777, -35263.49786084865, -7012.591601919127, -37045.96007418157, -21130.0875103578, -18927.345446031744, 8698.159003038289, -0.12372035956382751, 0.9661022233366966, -0.1210857463479042, 192.0, 0.0, 0.0, 0.0, 0.0, 0.0, 0.0, 0.0, 0.0, 0.0, 1.741808479508094E9, 0.0, 2025-03-12 14:41:19.508
114.0, 21096.35872797474, -27319.08438433223, -43880.02829313616, -28093.661736686438, -26900.816190340065, 7068.940349690956, -38255.4800218916, 14446.111255420597, 3956.3705273116266, -12185.187600277377, -35246.130555406875, -6983.511982382773, -37036.88526593272, -21117.32466427382, -18915.588428448253, 8702.249372273609, -0.12372035956382751, 0.9661022233366966, -0.1210857463479042, 192.0, 0.0, 0.0, 0.0, 0.0, 0.0, 0.0, 0.0, 0.0, 0.0, 1.74180847950814E9, 0.0, 2025-03-12 14:41:19.508
116.0, 21124.90190564417, -27326.281646046835, -43870.148822086914, -28076.45089345585, -26885.92992853283, 7051.975375649378, -38242.04662347396, 14459.209377671406, 3967.7699169838334, -12173.788210605171, -35243.67186351679, -6996.900677311502, -37032.30315831937, -21115.201248550566, -18913.93439935856, 8712.017084600579, -0.12372035956382751, 0.9661022233366966, -0.1210857463479042, 192.0, 0.0, 0.0, 0.0, 0.0, 0.0, 0.0, 0.0, 0.0, 0.0, 1.741808479508187E9, 0.0, 2025-03-12 14:41:19.508
118.0, 21101.834905366293, -27333.03187287234, -43882.35287455951, -28080.60831792454, -26899.74330660621, 7063.844151955146, -38254.74241432457, 14454.58256656916, 3953.0848208766965, -12184.964082832825, -35239.82736347048, -6975.2418369343095, -37031.833771685815, -21118.37519626322, -18909.620512678684, 8706.71972116467, -0.12372035956382751, 0.9661022233366966, -0.1210857463479042, 192.0, 0.0, 0.0, 0.0, 0.0, 0.0, 0.0, 0.0, 0.0, 0.0, 1.741808479566791E9, 0.0, 2025-03-12 14:41:19.566
120.0, 21114.061309583343, -27324.091175090216, -43871.95931338779, -28083.536396448184, -26886.823998311043, 7035.949174874923, -38240.973739740104, 14469.446476631938, 3962.740774481389, -12174.056431538635, -35252.701968276735, -7006.62368614956, -37041.132097379224, -21120.632722453203, -18918.60591394972, 8714.855756146402, -0.12386017978191376, 0.9670511116683482, -0.1205428731739521, 192.0, 126.0, 16.0, 15.0, 32.0, 126.0, 32.0, 0.0, 0.0, 0.0, 1.741808479566838E9, 0.0, 2025-03-12 14:41:19.566
122.0, 21124.924257388622, -27327.354529780692, -43879.17892684686, -28068.672486385407, -26894.669460614856, 7076.450535827939, -38246.85224853185, 14467.233653930862, 3955.1411813665845, -12182.907722342936, -35240.14028789286, -6982.930837026935, -37033.4878007755, -21111.915542115636, -18905.664253910098, 8717.20268931421, -0.12386017978191376, 0.9670511116683482, -0.1205428731739521, 192.0, 0.0, 0.0, 0.0, 0.0, 0.0, 0.0, 0.0, 0.0, 0.0, 1.741808479566905E9, 0.0, 2025-03-12 14:41:19.566
124.0, 21128.8358126683, -27332.048396116305, -43875.602647734006, -28089.057277328644, -26894.244777470205, 7046.789770935747, -38251.9260945232, 14463.38915388455, 3963.5677890262355, -12183.198295020855, -35251.11499442041, -7011.608125163094, -37042.83082995783, -21116.98938810699, -18916.907181371116, 8718.834366659446, -0.12386017978191376, 0.9670511116683482, -0.1205428731739521, 192.0, 0.0, 0.0, 0.0, 0.0, 0.0, 0.0, 0.0, 0.0, 0.0, 1.74180847956695E9, 0.0, 2025-03-12 14:41:19.566
126.0, 21172.354659122786, -27324.113526834673, -43874.57446748906, -28066.258497984232, -26887.539254133615, 7078.596303295649, -38254.94358002467, 14465.557273096714, 3965.937073938498, -12174.481114683285, -35230.39492731034, -6975.353595656586, -37025.2400070715, -21113.167239805134, -18903.69730039803, 8712.709988678693, -0.12386017978191376, 0.9670511116683482, -0.1205428731739521, 192.0, 0.0, 0.0, 0.0, 0.0, 0.0, 0.0, 0.0, 0.0, 0.0, 1.741808479566993E9, 0.0, 2025-03-12 14:41:19.566
128.0, 21151.23226061252, -27322.72771867844, -43876.89904891241, -28092.767666908225, -26884.901748287888, 7036.48561674185, -38248.81920204392, 14459.052915460219, 3970.519181551836, -12181.544265931161, -35246.93521820727, -7005.841375093624, -37042.607312513275, -21119.023396852423, -18910.35812024571, 8713.782872412548, -0.12386017978191376, 0.9670511116683482, -0.1205428731739521, 192.0, 0.0, 0.0, 0.0, 0.0, 0.0, 0.0, 0.0, 0.0, 0.0, 1.741808479567037E9, 0.0, 2025-03-12 14:41:19.567
130.0, 21213.459517176096, -27318.145611065105, -43873.61334247748, -28054.54618388965, -26882.353649419983, 7072.717794503903, -38245.26527467553, 14467.211302186406, 3970.0274431738194, -12172.737678615771, -35231.534866277565, -6976.493534623806, -37033.577207753326, -21105.545294945874, -18895.02482354937, 8717.560317225494, -0.12093008989095688, 0.9635255558341741, -0.11827143658697606, 192.0, 126.0, 40.0, 15.0, 0.0, 126.0, 48.0, 0.0, 0.0, 0.0, 1.741808479567084E9, 0.0, 2025-03-12 14:41:19.567
132.0, 21184.469304617563, -27314.144648807604, -43877.34608380152, -28091.538320963184, -26885.16996922135, 7029.690686427437, -38248.729795066094, 14470.38524989906, 3977.001187443875, -12169.004937291735, -35244.56593329501, -7007.249534994309, -37034.76185020946, -21108.339263002785, -18895.069527038282, 8730.993715643133, -0.12093008989095688, 0.9635255558341741, -0.11827143658697606, 192.0, 0.0, 0.0, 0.0, 0.0, 0.0, 0.0, 0.0, 0.0, 0.0, 1.741808479567133E9, 0.0, 2025-03-12 14:41:19.567
134.0, 21247.59063095935, -27318.972625609953, -43886.443243794834, -28051.618105366008, -26897.172855993853, 7092.186163924475, -38257.201106214656, 14462.115104450597, 3967.8146204727436, -12175.129315272488, -35232.227770355676, -6986.149488228499, -37029.26332107346, -21113.770736905426, -18886.97819554546, 8725.383427784853, -0.12093008989095688, 0.9635255558341741, -0.11827143658697606, 192.0, 0.0, 0.0, 0.0, 0.0, 0.0, 0.0, 0.0, 0.0, 0.0, 1.741808479627093E9, 0.0, 2025-03-12 14:41:19.627
136.0, 21198.77442106896, -27293.648099142087, -43876.027330878656, -28104.301167047164, -26888.053344256085, 7032.797578906725, -38243.25361767455, 14466.808970786211, 3978.096422922185, -12170.971890803801, -35251.40556709833, -7010.199965262409, -37051.19038238411, -21114.329530516807, -18901.283311996856, 8723.662343461794, -0.12093008989095688, 0.9635255558341741, -0.11827143658697606, 192.0, 0.0, 0.0, 0.0, 0.0, 0.0, 0.0, 0.0, 0.0, 0.0, 1.741808479627152E9, 0.0, 2025-03-12 14:41:19.627
138.0, 21288.49432331256, -27305.31570974776, -43876.58612449004, -28043.057387239623, -26887.069867500053, 7091.716777290914, -38245.95817875364, 14470.541712110247, 3991.194545172995, -12162.411172677419, -35220.336642305454, -6971.956130499379, -37024.72591694903, -21089.78731510488, -18877.277538451857, 8741.700201237227, -0.12093008989095688, 0.9635255558341741, -0.11827143658697606, 192.0, 0.0, 0.0, 0.0, 0.0, 0.0, 0.0, 0.0, 0.0, 0.0, 1.741808479627201E9, 0.0, 2025-03-12 14:41:19.627
140.0, 21215.270008476975, -27298.990166066906, -43881.23528733674, -28103.451800757863, -26892.836617569523, 7043.839340667647, -38253.647178846266, 14465.221996929884, 3984.6007805586796, -12171.240111737265, -35239.983825681666, -6995.894848811013, -37044.03782415841, -21111.17793454861, -18889.772163602374, 8726.322201051975, -0.12046504494547844, 0.9627627779170871, -0.11813571829348804, 192.0, 126.0, 32.0, 15.0, 8.0, 126.0, 40.0, 0.0, 0.0, 0.0, 1.74180847962725E9, 0.0, 2025-03-12 14:41:19.627
142.0, 21296.026861194, -27316.715099419966, -43885.14684261642, -28052.065140255112, -26893.641280369913, 7093.795489525258, -38255.21180095814, 14460.125799194075, 3978.8116787447548, -12174.302300727642, -35232.92067443379, -6982.327339926642, -37023.47421925953, -21109.27803626991, -18880.58559663124, 8720.398988771318, -0.12046504494547844, 0.9627627779170871, -0.11813571829348804, 192.0, 0.0, 0.0, 0.0, 0.0, 0.0, 0.0, 0.0, 0.0, 0.0, 1.741808479627295E9, 0.0, 2025-03-12 14:41:19.627
144.0, 21211.47021191957, -27309.60724468318, -43891.51708978618, -28112.057222373158, -26900.391507195414, 7044.241672067842, -38259.61509461583, 14456.326002636672, 3982.164440413051, -12177.990338562768, -35243.470697816694, -6997.839450578625, -37037.53346652192, -21119.80570790836, -18895.40480320511, 8720.734264938148, -0.12046504494547844, 0.9627627779170871, -0.11813571829348804, 192.0, 0.0, 0.0, 0.0, 0.0, 0.0, 0.0, 0.0, 0.0, 0.0, 1.741808479627347E9, 0.0, 2025-03-12 14:41:19.627
146.0, 21292.294119869963, -27323.867657645664, -43896.25565961071, -28060.31293395912, -26897.776353094145, 7104.770196052814, -38259.25746670455, 14457.443589859438, 3973.9613501979534, -12178.906760085436, -35239.31327334801, -6991.871534809057, -37042.20498111308, -21116.922332873623, -18893.68371888205, 8724.958744640202, -0.12046504494547844, 0.9627627779170871, -0.11813571829348804, 192.0, 0.0, 0.0, 0.0, 0.0, 0.0, 0.0, 0.0, 0.0, 0.0, 1.741808479627393E9, 0.0, 2025-03-12 14:41:19.627
148.0, 21206.441069417127, -27314.614035441165, -43899.18373813436, -28122.56254226715, -26901.307928718084, 7058.144457119043, -38261.112661494335, 14449.978107211366, 3966.2499983608723, -12185.388765977475, -35255.361825866916, -7005.886078582535, -37047.88232420472, -21126.55593473386, -18904.2113905205, 8715.548660224516, -0.12046504494547844, 0.9627627779170871, -0.11813571829348804, 192.0, 0.0, 0.0, 0.0, 0.0, 0.0, 0.0, 0.0, 0.0, 0.0, 1.741808479688848E9, 0.0, 2025-03-12 14:41:19.688
150.0, 21277.005526662535, -27331.489602504924, -43898.75905498971, -28071.533509675686, -26897.239911227218, 7096.857678515635, -38262.99020802858, 14448.011153699299, 3955.54351276678, -12193.234228281288, -35255.00419795563, -7008.031846050245, -37047.85997246027, -21131.607428980762, -18900.098669540726, 8705.557430452995, -0.12023252247273922, 0.9643813889585435, -0.12006785914674402, 192.0, 126.0, 32.0, 15.0, 24.0, 126.0, 24.0, 0.0, 0.0, 0.0, 1.741808479688931E9, 0.0, 2025-03-12 14:41:19.688
152.0, 21203.267121704474, -27328.293303047813, -43899.63077302346, -28119.85798118806, -26894.22242572575, 7055.037564639755, -38258.944542282174, 14451.252156645318, 3958.2704255903277, -12195.871734127013, -35260.01098871362, -7007.450700694407, -37044.57426602534, -21120.85623989776, -18898.131716028656, 8710.273648533064, -0.12023252247273922, 0.9643813889585435, -0.12006785914674402, 192.0, 0.0, 0.0, 0.0, 0.0, 0.0, 0.0, 0.0, 0.0, 0.0, 1.741808479688995E9, 0.0, 2025-03-12 14:41:19.688
154.0, 21283.35342208784, -27327.86861990316, -43886.085615883545, -28071.622916653505, -26879.98436450772, 7084.430108598484, -38250.00384450005, 14458.449418359927, 3957.801038956766, -12194.105946315045, -35260.390968369364, -7013.910354841991, -37044.216638114056, -21117.92816137411, -18889.727460113463, 8715.794529413526, -0.12023252247273922, 0.9643813889585435, -0.12006785914674402, 192.0, 0.0, 0.0, 0.0, 0.0, 0.0, 0.0, 0.0, 0.0, 0.0, 1.741808479689044E9, 0.0, 2025-03-12 14:41:19.689
156.0, 21223.406043458708, -27312.73648890692, -43882.19641234832, -28105.977547881314, -26879.492626129704, 7058.278567585775, -38242.024271729504, 14458.941156737943, 3963.321919837227, -12186.193428777866, -35249.95270370873, -6993.48086040984, -37032.34786180829, -21111.60261769326, -18881.479666409454, 8717.113282336388, -0.12023252247273922, 0.9643813889585435, -0.12006785914674402, 192.0, 0.0, 0.0, 0.0, 0.0, 0.0, 0.0, 0.0, 0.0, 0.0, 1.741808479689087E9, 0.0, 2025-03-12 14:41:19.689
158.0, 21286.05798316693, -27311.30597726178, -43872.33929304353, -28063.039846782667, -26871.043666725596, 7074.908265460524, -38238.29153040547, 14469.178255698474, 3973.514315308847, -12172.2235884933, -35239.22386637019, -7000.164032001977, -37024.055364615364, -21107.333434502296, -18872.628375605153, 8727.35038129692, -0.12023252247273922, 0.9643813889585435, -0.12006785914674402, 192.0, 0.0, 0.0, 0.0, 0.0, 0.0, 0.0, 0.0, 0.0, 0.0, 1.74180847968914E9, 0.0, 2025-03-12 14:41:19.689
160.0, 21222.131994024756, -27308.35554699368, -43882.174060603866, -28092.812370397136, -26882.554815120082, 7068.605073524127, -38242.65012057425, 14460.95281373892, 3965.2441698603834, -12185.79109737767, -35240.98965418216, -6990.821002819658, -37028.48101001752, -21103.824210622814, -18876.11524774018, 8721.717741694181, -0.12111626123636961, 0.9681906944792718, -0.120033929573372, 192.0, 126.0, 24.0, 15.0, 48.0, 126.0, 32.0, 0.0, 0.0, 0.0, 1.741808479689182E9, 0.0, 2025-03-12 14:41:19.689
162.0, 21263.08038986688, -27319.173791310048, -43881.883487925945, -28070.862957342026, -26879.157349962876, 7073.164829393009, -38244.61707408632, 14466.406639386016, 3969.4686495624364, -12180.024347308201, -35242.39781408284, -7009.328247228653, -37033.82307694234, -21099.957358832045, -18880.295023953324, 8728.15504409731, -0.12111626123636961, 0.9681906944792718, -0.120033929573372, 192.0, 0.0, 0.0, 0.0, 0.0, 0.0, 0.0, 0.0, 0.0, 0.0, 1.74180847968927E9, 0.0, 2025-03-12 14:41:19.689
164.0, 21222.444918447127, -27324.98524486843, -43892.657028753405, -28099.294376289177, -26887.27103320015, 7076.294073616752, -38246.94165550967, 14455.610746814102, 3951.7660679538335, -12190.574370691105, -35250.24327638665, -6992.877363309546, -37037.488763033005, -21107.199324035566, -18887.291119967835, 8710.743035166626, -0.12111626123636961, 0.9681906944792718, -0.120033929573372, 192.0, 0.0, 0.0, 0.0, 0.0, 0.0, 0.0, 0.0, 0.0, 0.0, 1.741808479747617E9, 0.0, 2025-03-12 14:41:19.747
166.0, 21246.92007862569, -27334.03770137283, -43897.485005555754, -28092.49944597476, -26888.36626867846, 7069.968529935901, -38253.33425442389, 14455.38722936955, 3949.553245252758, -12190.41790847992, -35257.75346252364, -7020.146491545021, -37046.60827477077, -21119.045748596876, -18896.053003794314, 8709.96072411069, -0.12111626123636961, 0.9681906944792718, -0.120033929573372, 192.0, 0.0, 0.0, 0.0, 0.0, 0.0, 0.0, 0.0, 0.0, 0.0, 1.741808479747677E9, 0.0, 2025-03-12 14:41:19.747
168.0, 21232.30203775192, -27327.98037862544, -43896.725046244275, -28094.444047742374, -26892.344879191507, 7084.966550465411, -38254.13891722428, 14450.693363033935, 3946.647518473568, -12201.45967024084, -35253.1713549103, -7000.231087235343, -37037.55581826637, -21118.151678818667, -18894.39897470462, 8698.740148394127, -0.12111626123636961, 0.9681906944792718, -0.120033929573372, 192.0, 0.0, 0.0, 0.0, 0.0, 0.0, 0.0, 0.0, 0.0, 0.0, 1.741808479747729E9, 0.0, 2025-03-12 14:41:19.747
170.0, 21242.29326752344, -27323.040643100816, -43886.13031937246, -28100.099039089568, -26885.92992853283, 7060.983128664867, -38248.260408432536, 14456.415409614494, 3956.5046377783583, -12196.519934716218, -35257.97697996819, -7025.466206725384, -37047.077661404335, -21122.689082943092, -18900.389242218644, 8705.19980254171, -0.1235581306181848, 0.9690953472396359, -0.121016964786686, 192.0, 126.0, 8.0, 15.0, 40.0, 126.0, 24.0, 0.0, 0.0, 0.0, 1.741808479747775E9, 0.0, 2025-03-12 14:41:19.747
172.0, 21244.57314545788, -27321.565427966765, -43886.33148507255, -28089.347850006565, -26886.22050121075, 7080.786774252269, -38249.62386484431, 14454.940194480443, 3966.5629227832464, -12188.31684450112, -35234.038261656555, -6989.703415596893, -37027.765754194945, -21114.41893749463, -18885.860608322695, 8710.273648533064, -0.1235581306181848, 0.9690953472396359, -0.121016964786686, 192.0, 0.0, 0.0, 0.0, 0.0, 0.0, 0.0, 0.0, 0.0, 0.0, 1.74180847974782E9, 0.0, 2025-03-12 14:41:19.747
174.0, 21226.132956282254, -27327.46628850297, -43883.69397922683, -28105.195236825377, -26878.08446622902, 7044.912224401502, -38242.24778917406, 14456.638927059046, 3974.4083850870593, -12188.763879390226, -35247.114032162914, -7016.883136854546, -37036.37117581024, -21111.960245604547, -18892.11909677018, 8714.0063898571, -0.1235581306181848, 0.9690953472396359, -0.121016964786686, 192.0, 0.0, 0.0, 0.0, 0.0, 0.0, 0.0, 0.0, 0.0, 0.0, 1.741808479747866E9, 0.0, 2025-03-12 14:41:19.747
176.0, 21238.78404364396, -27331.668416460565, -43890.53361303015, -28072.56168992063, -26887.740419833714, 7090.509783090328, -38246.47226887611, 14450.469845589381, 3959.3209575797273, -12195.894085871469, -35236.74282273565, -6985.076604494644, -37027.69869896158, -21107.26637926893, -18887.916968812584, 8713.760520668093, -0.1235581306181848, 0.9690953472396359, -0.121016964786686, 192.0, 0.0, 0.0, 0.0, 0.0, 0.0, 0.0, 0.0, 0.0, 0.0, 1.741808479747912E9, 0.0, 2025-03-12 14:41:19.747
178.0, 21204.25059846051, -27319.732584921432, -43877.279028568155, -28103.697669946872, -26878.75501856268, 7039.190177820943, -38242.09132696287, 14458.516473593292, 3966.3394053386937, -12191.647254424961, -35251.31616012051, -7012.211622263387, -37038.271074088945, -21109.94858860357, -18900.97038757448, 8711.055959589, -0.1235581306181848, 0.9690953472396359, -0.121016964786686, 192.0, 0.0, 0.0, 0.0, 0.0, 0.0, 0.0, 0.0, 0.0, 0.0, 1.741808479806554E9, 0.0, 2025-03-12 14:41:19.806
180.0, 21254.296154295942, -27329.612055970676, -43883.64927573792, -28064.80563459464, -26887.092219244507, 7091.694425546459, -38253.08838523488, 14447.966450210388, 3962.517257036836, -12188.2274375233, -35229.567912765495, -6977.85699103558, -37029.41978328464, -21105.74646064597, -18888.855742079704, 8709.044302588023, -0.1237790653090924, 0.968547673619818, -0.122508482393343, 192.0, 126.0, 16.0, 15.0, 32.0, 126.0, 16.0, 0.0, 0.0, 0.0, 1.741808479806651E9, 0.0, 2025-03-12 14:41:19.806
182.0, 21190.191351198122, -27324.31469253477, -43884.476290282764, -28104.189408324888, -26883.247719198196, 7045.716887201892, -38244.03592873048, 14444.948964708921, 3963.9477686819755, -12195.514106215729, -35252.50080257664, -7009.998799562311, -37029.732707707015, -21117.615236951737, -18903.22791376447, 8704.77511939706, -0.1237790653090924, 0.968547673619818, -0.122508482393343, 192.0, 0.0, 0.0, 0.0, 0.0, 0.0, 0.0, 0.0, 0.0, 0.0, 1.741808479806695E9, 0.0, 2025-03-12 14:41:19.806
184.0, 21254.296154295942, -27329.723814692952, -43871.691092454326, -28053.49565190025, -26869.769617291644, 7094.019006969811, -38236.302225148946, 14457.15301718152, 3958.7845157128, -12190.708481157837, -35238.799183225536, -6988.742290585315, -37023.787143681904, -21104.584169934293, -18887.53698915684, 8714.565183468483, -0.1237790653090924, 0.968547673619818, -0.122508482393343, 192.0, 0.0, 0.0, 0.0, 0.0, 0.0, 0.0, 0.0, 0.0, 0.0, 1.741808479806744E9, 0.0, 2025-03-12 14:41:19.806
186.0, 21184.402249384195, -27331.579009482746, -43878.01663613518, -28099.27202454472, -26874.396428393895, 7042.811160422702, -38239.69969030615, 14457.085961948153, 3971.1450303965844, -12188.272141012209, -35242.93425594977, -7006.914258827479, -37021.194341325085, -21097.69983264206, -18885.905311811606, 8727.328029552464, -0.1237790653090924, 0.968547673619818, -0.122508482393343, 192.0, 0.0, 0.0, 0.0, 0.0, 0.0, 0.0, 0.0, 0.0, 0.0, 1.741808479806793E9, 0.0, 2025-03-12 14:41:19.806
188.0, 21253.089160095355, -27333.07657636125, -43877.07786286806, -28051.349884432544, -26872.02714348163, 7091.694425546459, -38245.64525433126, 14454.068476446686, 3965.870018705132, -12186.394594477964, -35231.84779069994, -6989.591656874616, -37024.077716359825, -21098.996233820468, -18884.206579233003, 8718.789663170537, -0.1237790653090924, 0.968547673619818, -0.122508482393343, 192.0, 0.0, 0.0, 0.0, 0.0, 0.0, 0.0, 0.0, 0.0, 0.0, 1.741808479806846E9, 0.0, 2025-03-12 14:41:19.806
190.0, 21178.99312722601, -27321.990111111416, -43879.58125824705, -28107.586873482094, -26870.641335325403, 7035.837416152646, -38233.575312325396, 14458.024735215276, 3968.865152462143, -12188.540361945674, -35243.71656700571, -7009.708226884392, -37042.584960768814, -21106.79699263537, -18894.77895436036, 8715.705122435704, -0.1208895326545462, 0.969273836809909, -0.1222542411966715, 192.0, 126.0, 40.0, 15.0, 40.0, 126.0, 24.0, 0.0, 0.0, 0.0, 1.741808479806887E9, 0.0, 2025-03-12 14:41:19.806
192.0, 21272.669288238205, -27327.64510245861, -43876.653179723406, -28050.567573376607, -26868.98730623571, 7090.263913901319, -38235.94459723766, 14462.428028872971, 3970.250960618372, -12185.0758415551, -35230.95372092172, -6990.418671419463, -37021.73078319202, -21092.827152350805, -18885.368869944676, 8729.004410386611, -0.1208895326545462, 0.969273836809909, -0.1222542411966715, 192.0, 0.0, 0.0, 0.0, 0.0, 0.0, 0.0, 0.0, 0.0, 0.0, 1.741808479806932E9, 0.0, 2025-03-12 14:41:19.806
194.0, 21194.661700089182, -27332.249561816403, -43884.56569726059, -28116.214646841843, -26879.13499821842, 7040.710096443903, -38244.125335708304, 14448.61465079959, 3968.4628210619476, -12187.154553789444, -35244.09654666144, -7010.24466875132, -37033.08546937531, -21108.98746359199, -18896.678852639063, 8720.734264938148, -0.1208895326545462, 0.969273836809909, -0.1222542411966715, 192.0, 0.0, 0.0, 0.0, 0.0, 0.0, 0.0, 0.0, 0.0, 0.0, 1.741808479869752E9, 0.0, 2025-03-12 14:41:19.869
196.0, 21265.628488734783, -27336.183468840536, -43878.86600242448, -28065.453835183842, -26875.625774338936, 7086.8888004885675, -38248.77449855501, 14450.7604182673, 3965.1100593936517, -12195.447050982362, -35235.513476790606, -7006.601334405105, -37025.61998672724, -21110.730899659506, -18898.06466079529, 8713.313485778986, -0.1208895326545462, 0.969273836809909, -0.1222542411966715, 192.0, 0.0, 0.0, 0.0, 0.0, 0.0, 0.0, 0.0, 0.0, 0.0, 1.741808479869807E9, 0.0, 2025-03-12 14:41:19.869
198.0, 21184.826932528846, -27325.968721624464, -43884.409235049396, -28112.07957411761, -26876.9445272618, 7043.660526712004, -38242.180733940695, 14452.61561305709, 3973.782536242311, -12189.769707890715, -35240.85554371543, -7005.081415782144, -37026.80462918337, -21113.726033416515, -18893.37079445968, 8720.890727149335, -0.1208895326545462, 0.969273836809909, -0.1222542411966715, 192.0, 0.0, 0.0, 0.0, 0.0, 0.0, 0.0, 0.0, 0.0, 0.0, 1.741808479869854E9, 0.0, 2025-03-12 14:41:19.869
200.0, 21258.1183025978, -27342.84428868822, -43890.60066826352, -28062.3245909601, -26880.85608254148, 7084.631274298582, -38248.79685029946, 14450.201624655918, 3963.746602981878, -12192.586027692083, -35242.442517571755, -7010.512889684784, -37027.40812628366, -21120.140984075188, -18892.275558981368, 8710.117186321877, -0.1184447663272731, 0.9726369184049545, -0.12112712059833575, 192.0, 126.0, 48.0, 15.0, 64.0, 126.0, 32.0, 0.0, 0.0, 0.0, 1.741808479869895E9, 0.0, 2025-03-12 14:41:19.869
202.0, 21177.18263592513, -27337.234000829936, -43897.32854334456, -28117.13106836451, -26886.17579772184, 7052.422410538485, -38251.613170100834, 14444.14430190853, 3949.3744312971157, -12206.600571465562, -35254.91479097781, -7012.569250174672, -37049.91633295016, -21130.400434780175, -18905.708957399005, 8694.985055325635, -0.1184447663272731, 0.9726369184049545, -0.12112712059833575, 192.0, 0.0, 0.0, 0.0, 0.0, 0.0, 0.0, 0.0, 0.0, 0.0, 1.741808479869946E9, 0.0, 2025-03-12 14:41:19.869
204.0, 21247.992962359545, -27349.773329469364, -43896.63563926645, -28073.41105620993, -26884.56647212106, 7084.474812087395, -38261.470289405624, 14449.933403722454, 3957.5998732566686, -12194.463574226329, -35246.0187966846, -7015.609087420594, -37036.05825138787, -21119.38102476371, -18903.83141086476, 8711.748863667115, -0.1184447663272731, 0.9726369184049545, -0.12112712059833575, 192.0, 0.0, 0.0, 0.0, 0.0, 0.0, 0.0, 0.0, 0.0, 0.0, 1.741808479869987E9, 0.0, 2025-03-12 14:41:19.869
206.0, 21180.04365921541, -27335.244695573416, -43888.63371475145, -28116.37110905303, -26874.79875979409, 7056.468076284895, -38240.19142868417, 14446.781807754256, 3936.4774747464035, -12214.669551213927, -35264.660151560325, -7015.497328698317, -37048.66463526066, -21129.21579232404, -18912.45918422451, 8693.733357636138, -0.1184447663272731, 0.9726369184049545, -0.12112712059833575, 192.0, 0.0, 0.0, 0.0, 0.0, 0.0, 0.0, 0.0, 0.0, 0.0, 1.741808479870036E9, 0.0, 2025-03-12 14:41:19.870
208.0, 21251.748055428037, -27328.36035828118, -43869.67943545335, -28066.03498053968, -26857.722027030235, 7068.202742123931, -38222.98058545358, 14470.34054641015, 3970.496829807381, -12176.671585639906, -35238.59801752544, -7001.125157013555, -37021.99900412548, -21098.862123353734, -18881.144390242625, 8728.602078986416, -0.1184447663272731, 0.9726369184049545, -0.12112712059833575, 192.0, 0.0, 0.0, 0.0, 0.0, 0.0, 0.0, 0.0, 0.0, 0.0, 1.741808479928547E9, 0.0, 2025-03-12 14:41:19.928
210.0, 21201.501333892505, -27332.920114150063, -43883.291647826634, -28088.61024243954, -26872.965916748755, 7067.845114212646, -38235.13993443727, 14459.589357327148, 3960.0809168912074, -12185.701690399848, -35236.02756691308, -6981.075642237144, -37026.04466987189, -21098.012757064433, -18879.17743673056, 8723.125901594865, -0.11822238316363656, 0.9713184592024773, -0.12156356029916787, 192.0, 126.0, 40.0, 15.0, 40.0, 126.0, 24.0, 0.0, 0.0, 0.0, 1.741808479928608E9, 0.0, 2025-03-12 14:41:19.928
212.0, 21230.312732495397, -27333.054224616793, -43875.177964589355, -28071.3770474645, -26862.41589336585, 7065.833457211668, -38221.348908108346, 14463.635023073557, 3957.868094190132, -12187.065146811623, -35247.2704943741, -7004.5896774041275, -37024.27888205992, -21102.617216422226, -18890.26390198039, 8719.72843643766, -0.11822238316363656, 0.9713184592024773, -0.12156356029916787, 192.0, 0.0, 0.0, 0.0, 0.0, 0.0, 0.0, 0.0, 0.0, 0.0, 1.741808479928652E9, 0.0, 2025-03-12 14:41:19.928
214.0, 21202.86479030428, -27323.152401823092, -43878.64248497993, -28086.84445462757, -26868.294402157593, 7067.420431067995, -38229.39553611226, 14456.482464847859, 3950.9167016645315, -12187.914513100925, -35244.677692017285, -6983.020244004756, -37032.750193208485, -21110.84265838178, -18886.329994956257, 8711.882974133847, -0.11822238316363656, 0.9713184592024773, -0.12156356029916787, 192.0, 0.0, 0.0, 0.0, 0.0, 0.0, 0.0, 0.0, 0.0, 0.0, 1.741808479928693E9, 0.0, 2025-03-12 14:41:19.928
216.0, 21227.183488271654, -27344.431262544545, -43883.04577863762, -28082.88819585898, -26872.921213259844, 7061.2960530872415, -38235.63167281529, 14452.369743868083, 3958.158666868051, -12183.019481065212, -35244.78945073956, -7003.226220992354, -37032.34786180829, -21101.27611175491, -18893.16962875958, 8722.455349261207, -0.11822238316363656, 0.9713184592024773, -0.12156356029916787, 192.0, 0.0, 0.0, 0.0, 0.0, 0.0, 0.0, 0.0, 0.0, 0.0, 1.741808479928736E9, 0.0, 2025-03-12 14:41:19.928
218.0, 21203.378880426753, -27350.488585291932, -43899.18373813436, -28091.583024452095, -26888.589786123015, 7089.615713312115, -38256.9775887701, 14436.254136115807, 3931.9624223664314, -12204.566562720129, -35249.97505545319, -6994.4419854214175, -37033.08546937531, -21109.8815333702, -18906.625378921675, 8700.237715272631, -0.11822238316363656, 0.9713184592024773, -0.12156356029916787, 192.0, 0.0, 0.0, 0.0, 0.0, 0.0, 0.0, 0.0, 0.0, 0.0, 1.74180847992878E9, 0.0, 2025-03-12 14:41:19.928
220.0, 21194.929921022645, -27341.927867165552, -43891.964124675294, -28102.289510046186, -26881.124303474942, 7062.547750776738, -38244.75118455305, 14438.779883239256, 3932.6329747000905, -12201.482021985295, -35269.331666151484, -7023.007514835301, -37060.24283888851, -21118.0846235853, -18918.069472082792, 8695.700311148204, -0.11811119158181829, 0.9696592296012386, -0.12078178014958393, 192.0, 126.0, 40.0, 15.0, 32.0, 126.0, 32.0, 0.0, 0.0, 0.0, 1.741808479928826E9, 0.0, 2025-03-12 14:41:19.928
222.0, 21207.558656639892, -27335.825840929254, -43891.67355199737, -28088.36437325053, -26882.13013197543, 7083.826611498191, -38246.11464096483, 14440.724485006867, 3935.449294501459, -12195.894085871469, -35248.589247296964, -6995.805441833191, -37023.96595763755, -21108.51807695843, -18901.663291652596, 8694.783889625536, -0.11811119158181829, 0.9696592296012386, -0.12078178014958393, 192.0, 0.0, 0.0, 0.0, 0.0, 0.0, 0.0, 0.0, 0.0, 0.0, 1.741808479928871E9, 0.0, 2025-03-12 14:41:19.928
