%OpenBCI Raw EXG Data
%Number of channels = 16
%Sample Rate = 125 Hz
%Board = OpenBCI_GUI$BoardCytonSerialDaisy
Sample Index, EXG Channel 0, EXG Channel 1, EXG Channel 2, EXG Channel 3, EXG Channel 4, EXG Channel 5, EXG Channel 6, EXG Channel 7, EXG Channel 8, EXG Channel 9, EXG Channel 10, EXG Channel 11, EXG Channel 12, EXG Channel 13, EXG Channel 14, EXG Channel 15, Accel Channel 0, Accel Channel 1, Accel Channel 2, Not Used, Digital Channel 0 (D11), Digital Channel 1 (D12), Digital Channel 2 (D13), Digital Channel 3 (D17), Not Used, Digital Channel 4 (D18), Analog Channel 0, Analog Channel 1, Analog Channel 2, Timestamp, Marker Channel, Timestamp (Formatted)
0.0, 9069.399126696484, 11928.678980908273, 3789.3359409971167, 15649.082142005223, 5788.744186013244, 44629.83991263389, -9243.899195659065, 17843.688171349546, 0.0, 0.0, 0.0, 0.0, 0.0, 0.0, 0.0, 0.0, 0.0, 0.0, 0.0, 192.0, 0.0, 0.0, 0.0, 0.0, 0.0, 0.0, 0.0, 0.0, 0.0, 1.741806567724578E9, 0.0, 2025-03-12 14:09:27.724
28.0, 9078.384527967517, 11934.669248422295, 3816.8956419105107, 15694.076203593757, 5797.126090183984, 44667.055567151976, -9241.485207257892, 17856.272203477885, 10829.66605778528, 13823.056378728912, -3484.1675739488096, 13511.316598810745, -1810.3348386686848, -2070.710309828557, 5453.490370928093, 40525.478485283675, 0.0, 0.0, 0.0, 192.0, 0.0, 0.0, 0.0, 0.0, 0.0, 0.0, 0.0, 0.0, 0.0, 1.741806567724633E9, 0.0, 2025-03-12 14:09:27.724
30.0, 9061.598367881581, 11932.41172223231, 3798.6789701794355, 15656.949956053491, 5789.057110435619, 44646.58136923092, -9252.30345157426, 17842.14590098213, 10830.560127563493, 13823.458710129109, -3478.7137483017145, 13513.529421511821, -1807.5855741006822, -2071.425565651127, 5450.942272060189, 40536.78846797806, 0.0, 0.0, 0.0, 192.0, 0.0, 0.0, 0.0, 0.0, 0.0, 0.0, 0.0, 0.0, 0.0, 1.741806567724685E9, 0.0, 2025-03-12 14:09:27.724
32.0, 9090.052138573186, 11932.814053632505, 3806.435025505427, 15686.431906990041, 5797.506069839725, 44655.45501177967, -9244.815617181734, 17846.795063828835, 10833.219985153673, 13826.140919463745, -3484.1899256932647, 13507.695616208985, -1808.457292134439, -2061.0096527349538, 5439.140550987787, 40526.372555061884, 0.054, 0.97, -0.158, 192.0, 0.5, 88.0, 15.0, 40.0, 125.5, 8.0, 0.0, 0.0, 0.0, 1.741806567724726E9, 0.0, 2025-03-12 14:09:27.724
34.0, 9075.009414554765, 11929.617754175397, 3796.667313178458, 15661.688525878017, 5793.10277618203, 44642.46864825114, -9246.35788754915, 17851.980668542466, 10839.500825345616, 13823.369303151287, -3478.512582601617, 13515.205802345969, -1801.3270856531963, -2077.058205253864, 5448.46122842565, 40525.277319583576, 0.054, 0.97, -0.158, 192.0, 0.0, 0.0, 0.0, 0.0, 0.0, 0.0, 0.0, 0.0, 0.0, 1.741806567724769E9, 0.0, 2025-03-12 14:09:27.724
36.0, 9061.039574270199, 11932.657591421317, 3807.5079092392816, 15688.376508757652, 5799.294209396149, 44657.91370366976, -9247.341364305183, 17850.326639452775, 10832.594136308926, 13823.92809676267, -3488.704978073237, 13510.891915666094, -1806.199765944453, -2061.613149835247, 5445.331984201906, 40523.35506956042, 0.054, 0.97, -0.158, 192.0, 0.0, 0.0, 0.0, 0.0, 0.0, 0.0, 0.0, 0.0, 0.0, 1.741806567724808E9, 0.0, 2025-03-12 14:09:27.724
38.0, 9084.866533859557, 11931.875280365382, 3800.4447579914045, 15661.554415411285, 5793.438052348859, 44641.41811626174, -9248.794227694778, 17841.430645159562, 10835.633973554848, 13826.49854737503, -3473.863419754913, 13520.614924504152, -1804.3892746435733, -2057.746298044479, 5444.281452212507, 40521.25400558162, 0.054, 0.97, -0.158, 192.0, 0.0, 0.0, 0.0, 0.0, 0.0, 0.0, 0.0, 0.0, 0.0, 1.74180656772484E9, 0.0, 2025-03-12 14:09:27.724
40.0, 9090.208600784374, 11936.03270483407, 3806.6138394610693, 15679.234645275432, 5793.885087237965, 44650.40351753277, -9253.957480663954, 17850.43839817505, 10835.723380532669, 13818.317808904387, -3477.439698867762, 13507.941485397994, -1808.434940389984, -2069.391556905694, 5432.949117773666, 40511.39688627683, 0.052000000000000005, 0.972, -0.156, 192.0, 0.5, 72.0, 15.0, 56.0, 125.5, 24.0, 0.0, 0.0, 0.0, 1.741806567724873E9, 0.0, 2025-03-12 14:09:27.724
42.0, 9079.233894256819, 11941.17360605879, 3803.6634091929686, 15663.275499734344, 5793.795680260144, 44646.26844480854, -9238.02068686732, 17852.539462153847, 10836.9080229888, 13828.219631698088, -3467.0461376960443, 13525.599363517686, -1802.4670246204169, -2079.740414588501, 5436.905376542256, 40516.671897968285, 0.052000000000000005, 0.972, -0.156, 192.0, 0.0, 0.0, 0.0, 0.0, 0.0, 0.0, 0.0, 0.0, 0.0, 1.741806567724908E9, 0.0, 2025-03-12 14:09:27.724
0.0, 4555.151409524848, 5872.049137598174, 1901.9993426798992, 7825.032809380628, 2882.927999845505, 22324.609437538318, -4679.561219163086, 8810.476518926205, 5416.677047810203, 6913.819243171125, -1745.9618146374005, 6754.33954648251, -905.0668364842936, -1038.305585182379, 2720.2073002108696, 20256.134302155293, 0.032, 0.97, -0.158, 192.0, 0.5, 0.0, 15.0, 40.0, 125.5, 8.0, 0.0, 0.0, 0.0, 1.741806567866785E9, 0.0, 2025-03-12 14:09:27.866
2.0, 9118.170633097963, 11747.696906053652, 3807.6420197060133, 15658.626336887639, 5771.0416044046415, 44648.45891576516, -9357.446057492025, 17614.336921493643, 10780.581626961426, 13810.181773922655, -3522.120836033921, 13159.254271895203, -1761.272759589286, -2068.4304318941154, 5412.139643685776, 40356.87927685729, 0.032, 0.97, -0.158, 192.0, 0.0, 0.0, 0.0, 0.0, 0.0, 0.0, 0.0, 0.0, 0.0, 1.741806567866836E9, 0.0, 2025-03-12 14:09:27.866
4.0, 9110.32517079415, 11743.695943796152, 3795.885002122522, 15653.217214729455, 5768.38174681446, 44639.33940402739, -9359.033031348352, 17617.421462228474, 10780.201647305686, 13812.394596623732, -3503.904164302846, 13168.910225499896, -1754.5225327637831, -2082.064996011853, 5416.744103043568, 40336.80741033643, 0.032, 0.97, -0.158, 192.0, 0.0, 0.0, 0.0, 0.0, 0.0, 0.0, 0.0, 0.0, 0.0, 1.741806567866869E9, 0.0, 2025-03-12 14:09:27.866
6.0, 9125.502005279304, 11747.316926397913, 3802.948153370399, 15652.792531584804, 5763.576121756569, 44643.139200584796, -9369.515999497891, 17618.427290728963, 10782.101545584386, 13808.527744832963, -3527.418199469829, 13150.827664235552, -1764.849038702135, -2086.9823797920203, 5404.0036087040435, 40333.02996552348, 0.032, 0.97, -0.158, 192.0, 0.0, 0.0, 0.0, 0.0, 0.0, 0.0, 0.0, 0.0, 0.0, 1.741806567866938E9, 0.0, 2025-03-12 14:09:27.866
8.0, 9125.166729112474, 11752.949566000649, 3812.291182552717, 15673.065563805767, 5770.5722177710795, 44663.3898810613, -9353.7580196569, 17634.38643627005, 10787.823592164945, 13819.59185833834, -3493.868231042413, 13172.575911590566, -1754.9025124195234, -2066.3293679153167, 5419.918050756222, 40359.20385828064, 0.028, 0.97, -0.16, 192.0, 0.0, 112.0, 15.0, 40.0, 125.5, 0.0, 0.0, 0.0, 0.0, 1.74180656786698E9, 0.0, 2025-03-12 14:09:27.866
10.0, 9124.540880267725, 11750.893205510762, 3805.3844935160273, 15661.040325288812, 5767.465325291792, 44647.3860320313, -9363.883359895153, 17619.790747140738, 10783.777926418536, 13818.586029837852, -3515.6835336307927, 13155.476827082257, -1757.7411839653473, -2091.4974321719924, 5414.575983831404, 40353.83943961137, 0.028, 0.97, -0.16, 192.0, 0.0, 0.0, 0.0, 0.0, 0.0, 0.0, 0.0, 0.0, 0.0, 1.741806567867026E9, 0.0, 2025-03-12 14:09:27.867
12.0, 9122.66333373348, 11749.239176421068, 3802.0317318477314, 15678.742906897416, 5769.186409614851, 44657.42196529174, -9362.497551738925, 17619.567229696182, 10787.08598459792, 13816.999055981525, -3495.9245915323013, 13172.195931934826, -1756.7577072093138, -2080.0086355219646, 5415.984143732088, 40349.1232215313, 0.028, 0.97, -0.16, 192.0, 0.0, 0.0, 0.0, 0.0, 0.0, 0.0, 0.0, 0.0, 0.0, 1.741806567867067E9, 0.0, 2025-03-12 14:09:27.867
14.0, 9115.533127252236, 11743.383019373778, 3793.8956968659995, 15650.780874583827, 5761.8103339446, 44637.43950574869, -9373.986348388953, 17613.040520315233, 10779.195818805198, 13805.06322444239, -3521.897318589368, 13153.822797992563, -1768.693538748448, -2088.8152228373556, 5401.1202336693095, 40334.52753240198, 0.028, 0.97, -0.16, 192.0, 0.0, 0.0, 0.0, 0.0, 0.0, 0.0, 0.0, 0.0, 0.0, 1.7418065678671E9, 0.0, 2025-03-12 14:09:27.867
16.0, 9121.210470343885, 11745.75230428604, 3805.853880149589, 15684.57671220025, 5768.895836936932, 44665.60270376238, -9362.385793016649, 17638.186232827455, 10786.37072877535, 13816.149689692224, -3500.5290508900944, 13174.431106380356, -1759.462268288406, -2080.7015396000793, 5411.491443096572, 40354.04060531147, 0.028, 0.97, -0.16, 192.0, 0.0, 0.0, 0.0, 0.0, 0.0, 0.0, 0.0, 0.0, 0.0, 1.741806567927075E9, 0.0, 2025-03-12 14:09:27.927
18.0, 9129.592374514625, 11756.235272435579, 3801.294124280706, 15654.804188585782, 5763.374956056471, 44649.040061121, -9366.654976207612, 17616.080357561154, 10788.784717176524, 13814.696826302628, -3514.185966752287, 13161.042411451628, -1760.0657653886994, -2061.5907980907914, 5411.40203611875, 40350.26316049852, 0.022, 0.97, -0.166, 192.0, 0.0, 88.0, 15.0, 40.0, 125.0, 104.0, 0.0, 0.0, 0.0, 1.741806567927132E9, 0.0, 2025-03-12 14:09:27.927
20.0, 9135.314421095183, 11761.264414938023, 3816.940345399421, 15682.877979621648, 5772.695633494334, 44661.95936941617, -9367.280825052361, 17620.260133774296, 10794.640874223815, 13815.233268169555, -3497.9809520221893, 13170.31838540058, -1760.043413644244, -2071.6937865845903, 5420.521547856516, 40354.5770471784, 0.022, 0.97, -0.166, 192.0, 0.0, 0.0, 0.0, 0.0, 0.0, 0.0, 0.0, 0.0, 0.0, 1.741806567927168E9, 0.0, 2025-03-12 14:09:27.927
22.0, 9113.879098162544, 11755.631775335285, 3800.1318335690303, 15648.255127460377, 5762.056203133608, 44640.79226741699, -9369.113668097696, 17621.087148319144, 10792.13747884482, 13811.746396034527, -3509.536803905583, 13163.769324275176, -1762.3009398342301, -2094.492565929004, 5421.639135079281, 40347.916227330716, 0.022, 0.97, -0.166, 192.0, 0.0, 0.0, 0.0, 0.0, 0.0, 0.0, 0.0, 0.0, 0.0, 1.741806567927201E9, 0.0, 2025-03-12 14:09:27.927
24.0, 9136.588470529136, 11754.290670667968, 3809.720731940357, 15675.613662673673, 5768.582912514557, 44659.791250204, -9363.928063384064, 17632.039503102245, 10790.058766610477, 13815.12150944728, -3501.7136933462257, 13164.775152775665, -1756.8918176760458, -2065.3905946481937, 5420.767417045524, 40341.5236284165, 0.022, 0.97, -0.166, 192.0, 0.0, 0.0, 0.0, 0.0, 0.0, 0.0, 0.0, 0.0, 0.0, 1.741806567927234E9, 0.0, 2025-03-12 14:09:27.927
26.0, 9119.914069165477, 11751.608461333331, 3791.9734468428433, 15639.448540144986, 5755.261272819194, 44639.65232844977, -9371.639415221145, 17617.06383431719, 10788.158868331775, 13810.539401833941, -3507.703960860248, 13157.153207916404, -1760.8033729557244, -2092.3020949723837, 5413.078416952899, 40343.40117495074, 0.022, 0.97, -0.166, 192.0, 0.0, 0.0, 0.0, 0.0, 0.0, 0.0, 0.0, 0.0, 0.0, 1.741806567927267E9, 0.0, 2025-03-12 14:09:27.927
28.0, 9133.61568851658, 11742.84657750685, 3806.055045849687, 15662.135560767123, 5762.458534533803, 44647.9895291316, -9368.621929719679, 17615.543915694227, 10782.459173495672, 13804.035044197446, -3514.4988911746614, 13152.325231114059, -1758.6799572324703, -2089.575182148836, 5410.686780296181, 40337.38855569226, 0.016, 0.974, -0.168, 192.0, 0.0, 64.0, 15.0, 56.0, 125.0, 96.0, 0.0, 0.0, 0.0, 1.741806567927331E9, 0.0, 2025-03-12 14:09:27.927
30.0, 9121.61280174408, 11737.929193726683, 3795.5720777001475, 15639.135615722611, 5754.18838908534, 44635.42784874771, -9368.599577975223, 17616.43798547244, 10776.491257726104, 13800.816392995883, -3512.9789725517003, 13149.955946201795, -1758.3446810656408, -2095.0737112848415, 5404.316533126418, 40322.92697702968, 0.016, 0.974, -0.168, 192.0, 0.0, 0.0, 0.0, 0.0, 0.0, 0.0, 0.0, 0.0, 0.0, 1.741806567987361E9, 0.0, 2025-03-12 14:09:27.987
32.0, 9131.514624537782, 11742.064266450914, 3808.3796272730387, 15671.992680071913, 5766.034813646653, 44669.0448724085, -9343.6550311631, 17640.95784913991, 10771.305653012474, 13808.550096577419, -3519.215109254731, 13151.766437502676, -1756.333024064663, -2070.732661573012, 5407.334018627885, 40350.73254713208, 0.016, 0.974, -0.168, 192.0, 0.0, 0.0, 0.0, 0.0, 0.0, 0.0, 0.0, 0.0, 0.0, 1.741806567987452E9, 0.0, 2025-03-12 14:09:27.987
34.0, 9125.479653534849, 11745.439379863667, 3795.2591532777733, 15643.13657798011, 5756.289453064139, 44646.64842446428, -9348.505359709903, 17624.752834409814, 10770.61274893436, 13810.382939622754, -3517.918708076323, 13154.69451602632, -1751.0580123732107, -2079.0251587659313, 5415.000666976055, 40351.91718958822, 0.016, 0.974, -0.168, 192.0, 0.0, 0.0, 0.0, 0.0, 0.0, 0.0, 0.0, 0.0, 0.0, 1.741806567987486E9, 0.0, 2025-03-12 14:09:27.987
36.0, 9145.506816566804, 11751.809627033428, 3809.787787173723, 15673.132619039134, 5765.498371779725, 44666.36266307386, -9344.28088000785, 17630.810157157204, 10772.199722790685, 13816.842593770338, -3522.5231674341167, 13159.768362017676, -1748.3087478052078, -2057.5004288554705, 5415.782978031991, 40369.61977119682, 0.016, 0.974, -0.168, 192.0, 0.0, 0.0, 0.0, 0.0, 0.0, 0.0, 0.0, 0.0, 0.0, 1.741806567987526E9, 0.0, 2025-03-12 14:09:27.987
38.0, 9139.404790330505, 11759.23040619259, 3805.8985836384995, 15654.893595563603, 5757.585854242547, 44650.15764834376, -9339.028220060853, 17631.145433324033, 10778.435859493717, 13815.233268169555, -3512.8672138294237, 13170.407792378403, -1739.882140145557, -2084.5683913908474, 5414.64303906477, 40367.13872756228, 0.01, 0.98, -0.17200000000000001, 192.0, 0.0, 40.0, 15.0, 80.0, 125.0, 80.0, 0.0, 0.0, 0.0, 1.741806567987568E9, 0.0, 2025-03-12 14:09:27.987
40.0, 9147.496121823326, 11763.723106828107, 3817.789711688723, 15675.412496973575, 5769.722851481778, 44665.93797992921, -9334.177891514051, 17628.86555538959, 10788.628254965337, 13820.485928116552, -3519.3045162325525, 13167.278548154658, -1736.8870063885458, -2081.6179611227467, 5420.767417045524, 40386.31652430493, 0.01, 0.98, -0.17200000000000001, 192.0, 0.0, 0.0, 0.0, 0.0, 0.0, 0.0, 0.0, 0.0, 0.0, 1.741806567987603E9, 0.0, 2025-03-12 14:09:27.987
42.0, 9136.230842617852, 11758.649260836752, 3808.759606928779, 15658.268708976355, 5768.717022981289, 44656.72906121362, -9324.812510587277, 17628.0608925892, 10789.969359632654, 13819.144823449235, -3507.3016294600525, 13169.17844643336, -1725.398209738518, -2061.0096527349538, 5436.547748630971, 40393.960820908644, 0.01, 0.98, -0.17200000000000001, 192.0, 0.0, 0.0, 0.0, 0.0, 0.0, 0.0, 0.0, 0.0, 0.0, 1.741806567987636E9, 0.0, 2025-03-12 14:09:27.987
44.0, 9146.892624723032, 11765.578301617898, 3817.7673599442674, 15671.590348671718, 5772.673281749879, 44669.08957589741, -9322.018542530364, 17626.943305366436, 10789.477621254639, 13814.048625713423, -3522.500815689661, 13153.755742759198, -1723.945346348923, -2066.6646440821464, 5442.225091722619, 40408.51180654905, 0.01, 0.98, -0.17200000000000001, 192.0, 0.0, 0.0, 0.0, 0.0, 0.0, 0.0, 0.0, 0.0, 0.0, 1.741806567987669E9, 0.0, 2025-03-12 14:09:27.987
46.0, 9144.791560744234, 11767.634662107786, 3809.7654354292677, 15659.788627599315, 5767.979415414264, 44659.41127054826, -9320.766844840866, 17627.993837355833, 10800.005292893087, 13825.73858806355, -3502.1383764908765, 13171.6594900679, -1716.1669392784763, -2061.8366672798, 5447.164827247242, 40413.272728118034, 0.01, 0.98, -0.17200000000000001, 192.0, 0.0, 0.0, 0.0, 0.0, 0.0, 0.0, 0.0, 0.0, 0.0, 1.741806568046724E9, 0.0, 2025-03-12 14:09:28.046
48.0, 9146.803217745211, 11771.143885987269, 3812.0900168526196, 15667.634089903127, 5765.945406668831, 44664.68628223971, -9325.460711176482, 17632.263020546798, 10794.104432356886, 13820.083596716357, -3527.9769930812113, 13150.112408412982, -1724.6382504270377, -2083.674321612635, 5433.150283473764, 40411.64105077279, 0.004, 0.972, -0.17, 192.0, 0.0, 16.0, 15.0, 48.0, 125.0, 88.0, 0.0, 0.0, 0.0, 1.74180656804678E9, 0.0, 2025-03-12 14:09:28.046
50.0, 9147.943156712432, 11767.969938274615, 3799.617743446558, 15659.676868877039, 5757.764668198189, 44659.433622292716, -9325.572469898758, 17630.787805412747, 10804.229772595141, 13832.421759655686, -3502.4065974243404, 13163.501103341712, -1713.9988200663115, -2070.3750336617272, 5435.854844552857, 40413.987983940606, 0.004, 0.972, -0.17, 192.0, 0.0, 0.0, 0.0, 0.0, 0.0, 0.0, 0.0, 0.0, 0.0, 1.741806568046816E9, 0.0, 2025-03-12 14:09:28.046
52.0, 9144.970374699877, 11766.785295818485, 3800.556516713681, 15650.132673994623, 5759.910435665898, 44651.47640126663, -9327.6511821331, 17607.452584201408, 10795.020853879554, 13822.877564773271, -3528.9828215817, 13140.590565275023, -1724.9958783383227, -2072.7219668295347, 5424.0754752249095, 40403.10268439087, 0.004, 0.972, -0.17, 192.0, 0.0, 0.0, 0.0, 0.0, 0.0, 0.0, 0.0, 0.0, 0.0, 1.741806568046878E9, 0.0, 2025-03-12 14:09:28.046
54.0, 9145.86444447809, 11766.695888840663, 3808.8937173955105, 15654.491264163407, 5763.598473501024, 44657.75724145857, -9327.6511821331, 17623.210564042398, 10797.61365623637, 13824.97862875207, -3506.474614915206, 13152.705210769798, -1717.4856922013394, -2052.3818793752052, 5430.602184605859, 40392.798530196975, 0.004, 0.972, -0.17, 192.0, 0.0, 0.0, 0.0, 0.0, 0.0, 0.0, 0.0, 0.0, 0.0, 1.741806568046919E9, 0.0, 2025-03-12 14:09:28.046
56.0, 9150.200682902418, 11759.923310270706, 3804.691589437913, 15649.104493749679, 5761.09507812203, 44658.092517625395, -9329.774597856354, 17631.123081579575, 10791.176353833242, 13816.68613155915, -3530.1227605489207, 13135.539071028123, -1720.9949160808226, -2088.8375745818107, 5427.0706089819205, 40401.91804193474, 0.004, 0.972, -0.17, 192.0, 0.0, 0.0, 0.0, 0.0, 0.0, 0.0, 0.0, 0.0, 0.0, 1.741806568046958E9, 0.0, 2025-03-12 14:09:28.046
58.0, 9154.358107371105, 11763.097257983358, 3807.8655371505665, 15657.95578455398, 5761.698575222323, 44667.77082297455, -9326.287725721328, 17617.57792443966, 10797.479545769638, 13825.179794452168, -3511.1684812508206, 13151.297050869114, -1716.7480846343142, -2054.505295098459, 5428.031733993499, 40416.066696174945, 0.008, 0.972, -0.168, 192.0, 0.0, 32.0, 15.0, 48.0, 125.0, 96.0, 0.0, 0.0, 0.0, 1.741806568046998E9, 0.0, 2025-03-12 14:09:28.046
60.0, 9145.819740989178, 11759.073943981402, 3797.94136261241, 15639.493243633897, 5763.039679889641, 44649.040061121, -9331.518033923869, 17617.28735176174, 10792.629217222837, 13813.735701291049, -3537.2306152857086, 13133.50506228269, -1724.3923812380292, -2072.74431857399, 5419.716885056125, 40394.385504053294, 0.008, 0.972, -0.168, 192.0, 0.0, 0.0, 0.0, 0.0, 0.0, 0.0, 0.0, 0.0, 0.0, 1.741806568106493E9, 0.0, 2025-03-12 14:09:28.106
62.0, 9154.536921326748, 11756.391734646766, 3807.4855574948265, 15658.76044735437, 5769.879313692965, 44664.28395083952, -9326.645353632612, 17623.702302420414, 10800.340569059917, 13821.648218828228, -3515.996458053167, 13151.162940402382, -1712.9929915658226, -2082.6237896232356, 5430.713943328135, 40411.529292050516, 0.008, 0.972, -0.168, 192.0, 0.0, 0.0, 0.0, 0.0, 0.0, 0.0, 0.0, 0.0, 0.0, 1.741806568106552E9, 0.0, 2025-03-12 14:09:28.106
64.0, 9144.880967722054, 11754.648298579252, 3808.6031447175915, 15650.512653650363, 5766.258331091205, 44669.38014857533, -9323.739626853423, 17630.07254959018, 10790.103470099386, 13812.97574197957, -3536.738876907692, 13136.455492550791, -1721.017267825278, -2080.455670411071, 5428.277603182507, 40414.63618452981, 0.008, 0.972, -0.168, 192.0, 0.0, 0.0, 0.0, 0.0, 0.0, 0.0, 0.0, 0.0, 0.0, 1.741806568106586E9, 0.0, 2025-03-12 14:09:28.106
66.0, 9155.408639360505, 11764.639528350775, 3811.665333707969, 15675.278386506843, 5771.801563716122, 44675.504526556084, -9326.175966999052, 17622.87528787557, 10793.433880023227, 13823.525765362474, -3511.8837370733904, 13152.45934158079, -1712.1212735320657, -2069.3692051612384, 5442.31449870044, 40425.38737361281, 0.008, 0.972, -0.168, 192.0, 0.0, 0.0, 0.0, 0.0, 0.0, 0.0, 0.0, 0.0, 0.0, 1.741806568106619E9, 0.0, 2025-03-12 14:09:28.106
68.0, 9145.104485166608, 11767.880531296794, 3805.3844935160273, 15649.260955960866, 5772.717985238789, 44657.8913519253, -9326.13126351014, 17621.511831463795, 10797.032510880532, 13821.02236998348, -3523.5289959346055, 13144.211547876783, -1713.7753026217583, -2076.253542453473, 5434.781960819002, 40409.87526296083, 0.008, 0.968, -0.16, 192.0, 0.0, 32.0, 15.0, 32.0, 125.5, 0.0, 0.0, 0.0, 0.0, 1.741806568106651E9, 0.0, 2025-03-12 14:09:28.106
70.0, 9161.24244466334, 11766.271205696012, 3814.3698947870607, 15673.333784739232, 5775.511953295702, 44671.77178523204, -9325.192490243016, 17622.42825298646, 10804.18506910623, 13822.899916517725, -3510.6543911283484, 13152.816969492074, -1712.724770632359, -2062.864847524744, 5436.659507353247, 40413.630356029316, 0.008, 0.968, -0.16, 192.0, 0.0, 0.0, 0.0, 0.0, 0.0, 0.0, 0.0, 0.0, 0.0, 1.741806568106685E9, 0.0, 2025-03-12 14:09:28.106
72.0, 9146.959679956399, 11760.325641670901, 3803.775167915245, 15640.297906434287, 5767.7558979697105, 44651.31993905544, -9323.113778008674, 17624.86459313209, 10799.670016726259, 13818.45191937112, -3523.1937197677757, 13137.12604488445, -1717.2174712678757, -2052.4265828641155, 5432.569138117926, 40405.82959721442, 0.008, 0.968, -0.16, 192.0, 0.0, 0.0, 0.0, 0.0, 0.0, 0.0, 0.0, 0.0, 0.0, 1.741806568106718E9, 0.0, 2025-03-12 14:09:28.106
74.0, 9154.827494004667, 11761.018545749015, 3812.715865697368, 15664.370735212653, 5772.405060816415, 44662.60757000537, -9324.007847786886, 17616.750909894814, 10801.055824882487, 13825.49271887454, -3513.1354347628876, 13143.675106009854, -1713.2612124992863, -2080.0756907553305, 5436.324231186418, 40397.93943142169, 0.008, 0.968, -0.16, 192.0, 0.0, 0.0, 0.0, 0.0, 0.0, 0.0, 0.0, 0.0, 0.0, 1.741806568106775E9, 0.0, 2025-03-12 14:09:28.106
76.0, 9136.52141529577, 11752.636641578274, 3799.260115535273, 15635.604040098673, 5763.754935712211, 44644.41325001875, -9330.176929256551, 17616.996779083824, 10792.048071866999, 13818.608381582306, -3525.2053767687535, 13137.774245473653, -1717.6868579014372, -2088.971685048543, 5433.194986962675, 40389.713989462136, 0.008, 0.968, -0.16, 192.0, 0.0, 0.0, 0.0, 0.0, 0.0, 0.0, 0.0, 0.0, 0.0, 1.741806568166944E9, 0.0, 2025-03-12 14:09:28.166
78.0, 9150.357145113605, 11752.70369681164, 3814.302839553695, 15668.706973636983, 5775.556656784614, 44664.08278513942, -9332.255641490894, 17616.01330232779, 10787.935350887223, 13817.043759470434, -3521.1373592778873, 13136.857823950986, -1715.2281660113533, -2064.809449292356, 5435.608975363848, 40392.55266100796, 0.004, 0.97, -0.162, 192.0, 0.0, 16.0, 15.0, 40.0, 125.0, 120.0, 0.0, 0.0, 0.0, 1.741806568167025E9, 0.0, 2025-03-12 14:09:28.167
80.0, 9138.510720552293, 11750.4238188772, 3800.46710973586, 15639.113263978155, 5765.85599969101, 44642.647462206776, -9334.289650236327, 17607.340825479132, 10790.684615455224, 13817.423739126176, -3519.9080133328457, 13139.808254219086, -1713.7529508773032, -2088.0105600369648, 5434.826664307912, 40392.2844400745, 0.004, 0.97, -0.162, 192.0, 0.0, 0.0, 0.0, 0.0, 0.0, 0.0, 0.0, 0.0, 0.0, 1.741806568167069E9, 0.0, 2025-03-12 14:09:28.167
82.0, 9158.694345795435, 11755.117685212814, 3813.4758250088485, 15664.035459045823, 5771.913322438398, 44659.143049614795, -9339.162330527584, 17624.81988964318, 10791.399871277794, 13818.027236226468, -3522.79138836758, 13137.46132105128, -1720.3020120027081, -2084.389577435205, 5429.752818316558, 40380.840346913385, 0.004, 0.97, -0.162, 192.0, 0.0, 0.0, 0.0, 0.0, 0.0, 0.0, 0.0, 0.0, 0.0, 1.74180656816711E9, 0.0, 2025-03-12 14:09:28.167
84.0, 9134.822682717167, 11745.70760079713, 3795.303856766684, 15643.605964613673, 5764.850171190521, 44653.57746524543, -9349.287670765838, 17602.62460739906, 10790.32698754394, 13819.59185833834, -3514.2977254745633, 13144.546824043611, -1717.6198026680713, -2067.514010371448, 5434.089056740887, 40398.65468724426, 0.004, 0.97, -0.162, 192.0, 0.0, 0.0, 0.0, 0.0, 0.0, 0.0, 0.0, 0.0, 0.0, 1.741806568167143E9, 0.0, 2025-03-12 14:09:28.167
86.0, 9147.920804967976, 11750.379115388288, 3807.820833661656, 15665.197749757499, 5773.053261405619, 44666.85440145188, -9334.691981636523, 17618.561401195693, 10782.906208384778, 13814.763881535993, -3534.1013710619654, 13134.35442857199, -1727.3875149950404, -2073.996016263487, 5425.260117681041, 40387.545870249975, 0.007, 0.969, -0.164, 192.0, 0.0, 40.0, 15.0, 32.0, 125.0, 104.0, 0.0, 0.0, 0.0, 1.741806568167176E9, 0.0, 2025-03-12 14:09:28.167
88.0, 9135.42617981746, 11747.56279558692, 3801.294124280706, 15653.306621707276, 5768.359395070004, 44664.8427444509, -9340.905766595099, 17623.29997102022, 10791.42222302225, 13822.20701243961, -3516.4658446867284, 13150.470036324268, -1720.8161021251801, -2073.7948505633894, 5436.681859097703, 40395.63720174279, 0.007, 0.969, -0.164, 192.0, 0.0, 0.0, 0.0, 0.0, 0.0, 0.0, 0.0, 0.0, 0.0, 1.741806568167211E9, 0.0, 2025-03-12 14:09:28.167
90.0, 9140.388267086539, 11749.574452587898, 3808.8713656510554, 15669.176360270545, 5774.819049217588, 44677.873811468344, -9326.555946654791, 17635.481671748363, 10790.997539877599, 13822.139957206246, -3528.356972736952, 13144.300954854603, -1723.8559393711018, -2044.6258240492136, 5428.232899693597, 40399.12407387782, 0.007, 0.969, -0.164, 192.0, 0.0, 0.0, 0.0, 0.0, 0.0, 0.0, 0.0, 0.0, 0.0, 1.741806568227218E9, 0.0, 2025-03-12 14:09:28.227
92.0, 9135.783807728745, 11743.22655716259, 3799.885964380022, 15650.110322250168, 5769.007595659208, 44663.25577059457, -9333.03795254683, 17625.177517554464, 10788.740013687613, 13818.20605018211, -3511.1908329952757, 13151.207643891294, -1720.950212591912, -2070.397385406183, 5432.278565440008, 40397.51474827704, 0.007, 0.969, -0.164, 192.0, 0.0, 0.0, 0.0, 0.0, 0.0, 0.0, 0.0, 0.0, 0.0, 1.741806568227278E9, 0.0, 2025-03-12 14:09:28.227
94.0, 9136.677877506958, 11744.478254852087, 3802.232897547829, 15659.72157236595, 5774.796697473133, 44671.70472999868, -9331.294516479316, 17631.570116468683, 10785.208438063675, 13814.719178047084, -3534.0790193175103, 13137.528376284645, -1727.2981080172192, -2071.671434840135, 5425.528338614505, 40389.3340098064, 0.007, 0.969, -0.164, 192.0, 0.0, 0.0, 0.0, 0.0, 0.0, 0.0, 0.0, 0.0, 0.0, 1.741806568227313E9, 0.0, 2025-03-12 14:09:28.227
96.0, 9131.626383260058, 11741.192548417157, 3797.5390312122145, 15646.489339648408, 5771.399232315926, 44659.299511825986, -9330.46750193447, 17622.45060473092, 10790.237580566118, 13822.430529884165, -3512.1072545179436, 13151.520568313666, -1719.1397212910322, -2083.137879745708, 5435.631327108304, 40389.84809992887, 0.0075, 0.9684999999999999, -0.166, 192.0, 0.0, 32.0, 15.0, 32.0, 125.0, 96.0, 0.0, 0.0, 0.0, 1.741806568227376E9, 0.0, 2025-03-12 14:09:28.227
98.0, 9129.301801836706, 11745.551138585943, 3799.0813015796307, 15657.307583964775, 5772.986206172252, 44665.35683457337, -9328.232327488939, 17625.132814065553, 10778.793487405, 13818.742492049038, -3537.6329466859042, 13131.158129114883, -1728.013363839789, -2082.824955323333, 5425.573042103415, 40380.348608535365, 0.0075, 0.9684999999999999, -0.166, 192.0, 0.0, 0.0, 0.0, 0.0, 0.0, 0.0, 0.0, 0.0, 0.0, 1.741806568227411E9, 0.0, 2025-03-12 14:09:28.227
100.0, 9132.766322227279, 11740.969030972605, 3793.1580892989746, 15653.261918218366, 5767.442973547337, 44656.97493040263, -9333.932022325042, 17612.59348542613, 10783.08502234042, 13820.217707183088, -3517.471673187217, 13147.519606056167, -1720.6372881695377, -2075.448879653082, 5436.45834165315, 40381.44384401367, 0.0075, 0.9684999999999999, -0.166, 192.0, 0.0, 0.0, 0.0, 0.0, 0.0, 0.0, 0.0, 0.0, 0.0, 1.741806568227459E9, 0.0, 2025-03-12 14:09:28.227
102.0, 9127.33484832464, 11737.437455348667, 3792.4428334764048, 15645.729380336927, 5767.219456102784, 44648.1906948317, -9334.356705469692, 17605.99972081181, 10776.13362981482, 13812.953390235114, -3547.4900659906943, 13125.5478412566, -1726.8957766170236, -2086.93767630311, 5426.400056648262, 40370.67030318622, 0.0075, 0.9684999999999999, -0.166, 192.0, 0.0, 0.0, 0.0, 0.0, 0.0, 0.0, 0.0, 0.0, 0.0, 1.741806568227493E9, 0.0, 2025-03-12 14:09:28.227
104.0, 9140.455322319904, 11744.455903107633, 3803.3281330261393, 15660.459179932974, 5771.600398016024, 44663.56869501695, -9336.815397359776, 17617.935552350948, 10782.123897328842, 13816.820242025882, -3521.0703040445214, 13141.775207731154, -1722.693648659426, -2079.4945453994924, 5429.752818316558, 40372.033759597995, 0.0075, 0.9684999999999999, -0.166, 192.0, 0.0, 0.0, 0.0, 0.0, 0.0, 0.0, 0.0, 0.0, 0.0, 1.741806568227533E9, 0.0, 2025-03-12 14:09:28.227
106.0, 9141.438799075937, 11748.188644431668, 3799.908316124477, 15656.078238019734, 5770.192238115339, 44664.820392706446, -9334.870795592165, 17617.622627928573, 10786.013100864066, 13820.932963005658, -3532.536748950094, 13134.488539038723, -1723.5430149487277, -2072.1855249626074, 5430.780998561501, 40407.90830944876, 0.00675, 0.9662499999999999, -0.167, 192.0, 0.0, 24.0, 15.0, 16.0, 125.0, 96.0, 0.0, 0.0, 0.0, 1.741806568286815E9, 0.0, 2025-03-12 14:09:28.286
108.0, 9146.646755534024, 11754.313022412423, 3816.426255276949, 15676.194808029511, 5775.109621895507, 44674.677512011236, -9330.020467045364, 17629.267886789785, 10791.13165034433, 13823.034026984458, -3511.7496266066587, 13148.391324089924, -1718.759741635292, -2058.729774800512, 5435.631327108304, 40396.73243722111, 0.00675, 0.9662499999999999, -0.167, 192.0, 0.0, 0.0, 0.0, 0.0, 0.0, 0.0, 0.0, 0.0, 0.0, 1.741806568286864E9, 0.0, 2025-03-12 14:09:28.286
110.0, 9143.651621777013, 11755.721182313107, 3810.033656362731, 15657.598156642694, 5773.187371872351, 44670.14010788681, -9331.853310090699, 17621.668293674982, 10795.490240513116, 13822.721102562084, -3521.9196703338234, 13141.663449008876, -1720.1008463026103, -2060.674376568124, 5444.817894079434, 40407.72949549311, 0.00675, 0.9662499999999999, -0.167, 192.0, 0.0, 0.0, 0.0, 0.0, 0.0, 0.0, 0.0, 0.0, 0.0, 1.741806568286898E9, 0.0, 2025-03-12 14:09:28.286
112.0, 9151.18415965845, 11757.79989454745, 3815.822758176656, 15673.445543461508, 5778.149459141428, 44674.99043643361, -9331.540385668324, 17617.823793628668, 10801.011121393576, 13829.49368113204, -3500.1267194898987, 13156.013268949184, -1712.3447909766187, -2068.251617938473, 5449.310594714952, 40406.924832692726, 0.00675, 0.9662499999999999, -0.167, 192.0, 0.0, 0.0, 0.0, 0.0, 0.0, 0.0, 0.0, 0.0, 0.0, 1.74180656828693E9, 0.0, 2025-03-12 14:09:28.286
114.0, 9142.735200254345, 11749.239176421068, 3805.205679560385, 15649.95386003898, 5771.689804993845, 44659.97006415964, -9333.529690924846, 17621.891811119534, 10799.021816137054, 13824.106910718312, -3521.1373592778873, 13139.428274563346, -1716.8374916121354, -2080.254504710973, 5442.538016144993, 40394.117283119835, 0.00675, 0.9662499999999999, -0.167, 192.0, 0.0, 0.0, 0.0, 0.0, 0.0, 0.0, 0.0, 0.0, 0.0, 1.741806568286963E9, 0.0, 2025-03-12 14:09:28.286
116.0, 9138.935403696943, 11743.338315884866, 3808.4690342508597, 15669.15400852609, 5775.981339929264, 44671.391805576306, -9334.04378104732, 17616.86266861709, 10792.316292800462, 13822.274067672977, -3510.0732457725103, 13151.811140991585, -1715.786959622736, -2075.873562797733, 5440.83928356639, 40394.22904184211, 0.007375, 0.9681249999999999, -0.1635, 192.0, 0.0, 32.0, 15.0, 40.0, 125.5, 0.0, 0.0, 0.0, 0.0, 1.741806568286996E9, 0.0, 2025-03-12 14:09:28.286
118.0, 9137.549595540715, 11743.114798440314, 3793.202792787885, 15641.750769823882, 5769.365223570493, 44658.07016588094, -9341.956298584497, 17614.940418593935, 10783.934388629723, 13812.68516930165, -3533.4308187283063, 13133.102730882494, -1722.2689655147751, -2078.7345860880123, 5434.692553841181, 40388.55169875046, 0.007375, 0.9681249999999999, -0.1635, 192.0, 0.0, 0.0, 0.0, 0.0, 0.0, 0.0, 0.0, 0.0, 0.0, 1.74180656828706E9, 0.0, 2025-03-12 14:09:28.287
120.0, 9152.94994747042, 11749.194472932157, 3812.8276244196445, 15664.393086957109, 5777.456555063314, 44662.160535116265, -9333.306173480294, 17613.599313926617, 10788.427089265238, 13819.413044382698, -3516.1976237532645, 13144.278603110148, -1722.7160004038813, -2080.7909465779003, 5434.044353251977, 40385.71302720464, 0.007375, 0.9681249999999999, -0.1635, 192.0, 0.0, 0.0, 0.0, 0.0, 0.0, 0.0, 0.0, 0.0, 0.0, 1.741806568347067E9, 0.0, 2025-03-12 14:09:28.347
122.0, 9136.208490873396, 11737.929193726683, 3798.880135879533, 15635.313467420754, 5769.14170612594, 44643.07214535143, -9336.882452593143, 17610.268904002776, 10786.348377030896, 13813.556887335408, -3520.1091790329433, 13136.701361739799, -1723.788884137736, -2086.4906414140037, 5433.507911385049, 40372.74901542056, 0.007375, 0.9681249999999999, -0.1635, 192.0, 0.0, 0.0, 0.0, 0.0, 0.0, 0.0, 0.0, 0.0, 0.0, 1.741806568347158E9, 0.0, 2025-03-12 14:09:28.347
124.0, 9147.38436310105, 11743.13715018477, 3807.1502813279967, 15664.393086957109, 5774.640235261945, 44665.781517718024, -9340.034048561341, 17610.358310980595, 10784.873161896845, 13813.176907679666, -3516.1305685198986, 13136.924879184351, -1723.6994771599147, -2075.0465482528866, 5431.384495661795, 40371.07263458641, 0.007375, 0.9681249999999999, -0.1635, 192.0, 0.0, 0.0, 0.0, 0.0, 0.0, 0.0, 0.0, 0.0, 0.0, 1.741806568347201E9, 0.0, 2025-03-12 14:09:28.347
126.0, 9138.24249961883, 11739.963202472116, 3795.527374211237, 15634.754673809372, 5767.398270058426, 44650.40351753277, -9344.906728852598, 17597.662520129983, 10791.936313144723, 13816.507317603508, -3515.951754564256, 13136.32138208406, -1723.207738781898, -2085.1718884911406, 5437.352411431362, 40386.070655115924, 0.0066875, 0.9680624999999999, -0.16175, 192.0, 0.0, 24.0, 15.0, 32.0, 125.5, 0.0, 0.0, 0.0, 0.0, 1.741806568347242E9, 0.0, 2025-03-12 14:09:28.347
128.0, 9145.462113077892, 11741.013734461516, 3805.1833278159297, 15662.58259565623, 5772.852095705521, 44662.160535116265, -9340.503435194902, 17603.786898110735, 10791.310464299973, 13813.176907679666, -3513.9400975632784, 13129.615858747466, -1719.9443840914232, -2087.2729524699394, 5433.530263129504, 40376.504108489054, 0.0066875, 0.9680624999999999, -0.16175, 192.0, 0.0, 0.0, 0.0, 0.0, 0.0, 0.0, 0.0, 0.0, 0.0, 1.741806568347283E9, 0.0, 2025-03-12 14:09:28.347
130.0, 9135.359124584094, 11732.98945820206, 3795.080339322131, 15634.911136020559, 5767.152400869418, 44649.19652333218, -9337.910632838088, 17608.212543512887, 10790.371691032851, 13815.322675147376, -3507.45809167124, 13133.616821004965, -1723.8559393711018, -2060.227341679018, 5441.867463811334, 40377.46523350063, 0.0066875, 0.9680624999999999, -0.16175, 192.0, 0.0, 0.0, 0.0, 0.0, 0.0, 0.0, 0.0, 0.0, 0.0, 1.741806568347317E9, 0.0, 2025-03-12 14:09:28.347
132.0, 9129.726484981356, 11738.331525126878, 3802.0540835921865, 15664.840121846215, 5773.030909661164, 44669.20133461968, -9336.234252003938, 17615.119232549576, 10784.292016541007, 13811.791099523438, -3526.367667480429, 13123.4467772778, -1728.3933434955293, -2091.4080251941714, 5436.212472464142, 40384.14840509277, 0.0066875, 0.9680624999999999, -0.16175, 192.0, 0.0, 0.0, 0.0, 0.0, 0.0, 0.0, 0.0, 0.0, 0.0, 1.741806568347351E9, 0.0, 2025-03-12 14:09:28.347
134.0, 9126.798406457712, 11734.867004736305, 3790.65469391998, 15638.66622908905, 5767.1076973805075, 44654.87386642383, -9344.191473030029, 17605.038595800233, 10785.007272363577, 13818.340160648842, -3521.852615100457, 13131.448701792802, -1728.1921777954315, -2069.6374260947023, 5439.609937621348, 40386.003599882555, 0.0066875, 0.9680624999999999, -0.16175, 192.0, 0.0, 0.0, 0.0, 0.0, 0.0, 0.0, 0.0, 0.0, 0.0, 1.741806568347384E9, 0.0, 2025-03-12 14:09:28.347
136.0, 9137.884871707543, 11743.874757751795, 3797.1590515564744, 15660.593290399705, 5769.678147992868, 44665.37918631783, -9341.486911950937, 17609.374834224564, 10785.811935163967, 13810.606457067306, -3526.41237096934, 13124.363198800469, -1732.2601952862974, -2095.4313391961264, 5428.1211409713205, 40380.88505040229, 0.00834375, 0.9680312499999999, -0.162875, 192.0, 0.0, 40.0, 15.0, 32.0, 125.0, 112.0, 0.0, 0.0, 0.0, 1.741806568407376E9, 0.0, 2025-03-12 14:09:28.407
138.0, 9114.259077818284, 11728.362647099812, 3784.3515019835836, 15635.693447076494, 5759.508104265703, 44650.2917588105, -9349.265319021382, 17601.752889365303, 10787.510667742572, 13816.082634458857, -3511.8390335844797, 13135.561422772578, -1731.72375341937, -2072.833725551811, 5426.757684559547, 40372.90547763175, 0.00834375, 0.9680312499999999, -0.162875, 192.0, 0.0, 0.0, 0.0, 0.0, 0.0, 0.0, 0.0, 0.0, 0.0, 1.741806568407426E9, 0.0, 2025-03-12 14:09:28.407
140.0, 9133.973316427866, 11735.045818691948, 3793.2921997657063, 15646.802264070782, 5764.805467701611, 44652.996319889586, -9350.695830666522, 17594.645034628516, 10775.999519348088, 13806.359625620798, -3536.314193763041, 13120.6975127098, -1744.2854338032525, -2099.0076183089755, 5412.07258845241, 40356.11931754581, 0.00834375, 0.9680312499999999, -0.162875, 192.0, 0.0, 0.0, 0.0, 0.0, 0.0, 0.0, 0.0, 0.0, 0.0, 1.741806568407459E9, 0.0, 2025-03-12 14:09:28.407
142.0, 9127.513662280282, 11739.359705371822, 3791.392301487005, 15638.934450022514, 5762.816162445088, 44654.89621816829, -9347.432475976047, 17615.700377905414, 10784.157906074275, 13811.12054718978, -3511.794330095569, 13135.472015794758, -1735.2329772988533, -2085.9541995470763, 5419.336905400384, 40361.260218770534, 0.00834375, 0.9680312499999999, -0.162875, 192.0, 0.0, 0.0, 0.0, 0.0, 0.0, 0.0, 0.0, 0.0, 0.0, 1.741806568407517E9, 0.0, 2025-03-12 14:09:28.407
144.0, 9129.95000242591, 11735.984591959072, 3801.271772536251, 15655.430037430531, 5766.012461902197, 44666.02738690703, -9343.073885807264, 17611.118270292078, 10781.587455461915, 13812.081672201357, -3526.926461091812, 13125.301972067593, -1740.396230268029, -2087.7870425924116, 5421.527376357005, 40373.86660264333, 0.00834375, 0.9680312499999999, -0.162875, 192.0, 0.0, 0.0, 0.0, 0.0, 0.0, 0.0, 0.0, 0.0, 0.0, 1.741806568407558E9, 0.0, 2025-03-12 14:09:28.407
146.0, 9120.8528424326, 11726.46274882111, 3792.822813132145, 15643.695371591493, 5762.436182789348, 44644.01091861855, -9346.605461431202, 17596.366118951573, 10780.872199639345, 13809.86884950028, -3510.8555568284464, 13133.594469260512, -1735.7694191657806, -2083.2496384679844, 5428.791693304979, 40362.51191646003, 0.008171875, 0.9690156249999999, -0.16543750000000002, 192.0, 0.0, 32.0, 15.0, 40.0, 125.0, 96.0, 0.0, 0.0, 0.0, 1.741806568407598E9, 0.0, 2025-03-12 14:09:28.407
148.0, 9135.38147632855, 11744.165330429714, 3803.775167915245, 15658.916909565558, 5767.7558979697105, 44657.198447847186, -9345.84550211972, 17613.688720904436, 10780.156943816775, 13810.226477411567, -3534.1684262953313, 13118.819966175553, -1742.9443291359341, -2088.926981559632, 5424.053123480454, 40352.9230180887, 0.008171875, 0.9690156249999999, -0.16543750000000002, 192.0, 0.0, 0.0, 0.0, 0.0, 0.0, 0.0, 0.0, 0.0, 0.0, 1.741806568407639E9, 0.0, 2025-03-12 14:09:28.407
150.0, 9134.42035131697, 11746.154635686236, 3803.775167915245, 15669.355174226186, 5763.7102322233, 44673.31405559946, -9348.348897498716, 17616.23681977234, 10789.119993343353, 13821.961143250603, -3501.5572311350384, 13142.669277509365, -1735.2329772988533, -2072.5431528738923, 5435.74308583058, 40375.76650092203, 0.008171875, 0.9690156249999999, -0.16543750000000002, 192.0, 0.0, 0.0, 0.0, 0.0, 0.0, 0.0, 0.0, 0.0, 0.0, 1.741806568467642E9, 0.0, 2025-03-12 14:09:28.467
152.0, 9129.100636136609, 11741.952507728638, 3798.924839368444, 15662.493188678407, 5763.66552873439, 44668.28491309701, -9338.648240405111, 17614.44868021592, 10782.61563570686, 13817.893125759736, -3519.192757510276, 13125.994876145707, -1744.4195442699845, -2065.636463837202, 5431.675068339714, 40383.12022484782, 0.008171875, 0.9690156249999999, -0.16543750000000002, 192.0, 0.0, 0.0, 0.0, 0.0, 0.0, 0.0, 0.0, 0.0, 0.0, 1.741806568467706E9, 0.0, 2025-03-12 14:09:28.467
154.0, 9129.346505325617, 11725.725141254085, 3801.6517521919914, 15661.040325288812, 5766.57125551358, 44667.45789855217, -9336.524824681857, 17611.118270292078, 10785.588417719415, 13819.725968805073, -3498.5620973780274, 13139.003591418696, -1736.2388057993421, -2077.281722698417, 5441.375725433317, 40380.03568411299, 0.008171875, 0.9690156249999999, -0.16543750000000002, 192.0, 0.0, 0.0, 0.0, 0.0, 0.0, 0.0, 0.0, 0.0, 0.0, 1.74180656846774E9, 0.0, 2025-03-12 14:09:28.467
156.0, 9118.885888920533, 11715.89037369375, 3794.0298073327313, 15641.035514001313, 5763.307900823105, 44650.80584893296, -9347.633641676146, 17604.703319633405, 10765.024812820533, 13794.1555731482, -3535.576586196016, 13106.951189869786, -1744.9112826480011, -2107.8142056243664, 5432.971469518122, 40361.10375655934, 0.0060859375, 0.9695078125, -0.16471875000000002, 192.0, 0.0, 16.0, 15.0, 40.0, 125.0, 112.0, 0.0, 0.0, 0.0, 1.741806568467773E9, 0.0, 2025-03-12 14:09:28.467
158.0, 9122.350409311106, 11725.814548231907, 3803.0152086037647, 15669.131656781634, 5769.700499737322, 44675.07984341143, -9332.009772301886, 17620.684816918947, 10771.238597779107, 13811.344064634332, -3514.1636150078316, 13126.307800568082, -1739.077477345166, -2076.4994116424814, 5440.8839870553, 40370.558544463944, 0.0060859375, 0.9695078125, -0.16471875000000002, 192.0, 0.0, 0.0, 0.0, 0.0, 0.0, 0.0, 0.0, 0.0, 0.0, 1.741806568467808E9, 0.0, 2025-03-12 14:09:28.467
160.0, 9120.584621499136, 11730.17313840069, 3792.5992956875916, 15651.205557728477, 5765.073688635074, 44660.93118917122, -9338.961164827486, 17608.39135746853, 10766.65649016577, 13807.901895988214, -3534.838978628991, 13116.02599811864, -1749.8957216615347, -2084.4342809241152, 5435.966603275133, 40372.279628787, 0.0060859375, 0.9695078125, -0.16471875000000002, 192.0, 0.0, 0.0, 0.0, 0.0, 0.0, 0.0, 0.0, 0.0, 0.0, 1.741806568467841E9, 0.0, 2025-03-12 14:09:28.467
162.0, 9135.023848417264, 11734.285859380469, 3791.012321831265, 15658.76044735437, 5767.5770840140685, 44646.71547969765, -9350.271147521871, 17583.111534489577, 10782.950911873688, 13820.418872883187, -3503.83710906948, 13141.015248419673, -1739.2786430452638, -2088.323484459339, 5430.736295072591, 40349.167925020214, 0.0060859375, 0.9695078125, -0.16471875000000002, 192.0, 0.0, 0.0, 0.0, 0.0, 0.0, 0.0, 0.0, 0.0, 0.0, 1.741806568467875E9, 0.0, 2025-03-12 14:09:28.467
164.0, 9122.529223266749, 11736.386923359267, 3794.8121183886674, 15653.641897874106, 5766.57125551358, 44663.479288039125, -9343.56562418528, 17622.87528787557, 10778.257045538074, 13813.914515246692, -3522.6796296453035, 13128.632381991432, -1749.2922245612413, -2088.5917053928024, 5423.8966612692675, 40359.67324491421, 0.0060859375, 0.9695078125, -0.16471875000000002, 192.0, 0.0, 0.0, 0.0, 0.0, 0.0, 0.0, 0.0, 0.0, 0.0, 1.74180656846794E9, 0.0, 2025-03-12 14:09:28.467
166.0, 9135.42617981746, 11739.985554216571, 3796.1532230559856, 15666.628261402639, 5765.923054924376, 44663.16636361675, -9353.489798723436, 17590.845238071113, 10783.174429318242, 13822.810509539904, -3505.6252486259045, 13143.585699032034, -1744.7771721812694, -2076.0523767533755, 5423.471978124617, 40370.84911714186, 0.00704296875, 0.9727539062499999, -0.16635937500000003, 192.0, 0.0, 32.0, 15.0, 64.0, 125.0, 96.0, 0.0, 0.0, 0.0, 1.741806568527906E9, 0.0, 2025-03-12 14:09:28.527
168.0, 9135.023848417264, 11742.51130134002, 3789.850031119589, 15640.454368645474, 5761.609168244501, 44649.26357856555, -9338.424722960559, 17604.412746955484, 10785.230789808129, 13816.64142807024, -3513.671876629815, 13133.438007049324, -1747.2582158158084, -2084.0766530128303, 5419.694533311669, 40360.18733503668, 0.00704296875, 0.9727539062499999, -0.16635937500000003, 192.0, 0.0, 0.0, 0.0, 0.0, 0.0, 0.0, 0.0, 0.0, 0.0, 1.741806568527983E9, 0.0, 2025-03-12 14:09:28.527
170.0, 9143.316345610183, 11747.987478731571, 3810.9947813743097, 15671.791514371815, 5770.840438704543, 44671.34710208739, -9340.503435194902, 17618.270828517776, 10796.27255156905, 13821.78232929496, -3495.701074087748, 13147.139626400427, -1740.0833058456549, -2072.699615085079, 5421.862652523834, 40361.14846004826, 0.00704296875, 0.9727539062499999, -0.16635937500000003, 192.0, 0.0, 0.0, 0.0, 0.0, 0.0, 0.0, 0.0, 0.0, 0.0, 1.741806568528028E9, 0.0, 2025-03-12 14:09:28.528
172.0, 9128.631249503047, 11743.986516474071, 3802.724635925846, 15650.579708883728, 5766.23597934675, 44655.67852922422, -9344.213824774484, 17592.09693576061, 10794.842039923911, 13821.245887428033, -3502.4960044021614, 13147.139626400427, -1741.558520979705, -2074.5548098748695, 5425.505986870049, 40381.399140524765, 0.00704296875, 0.9727539062499999, -0.16635937500000003, 192.0, 0.0, 0.0, 0.0, 0.0, 0.0, 0.0, 0.0, 0.0, 0.0, 1.741806568528062E9, 0.0, 2025-03-12 14:09:28.528
174.0, 9143.71867701038, 11743.60653681833, 3814.235784320329, 15678.407630730586, 5771.131011382462, 44669.067224152954, -9344.7055631525, 17611.319435992176, 10793.500935256594, 13819.189526938144, -3501.7807485795915, 13145.038562421629, -1739.6139192120934, -2067.804583049367, 5422.555556601948, 40370.40208225275, 0.00704296875, 0.9727539062499999, -0.16635937500000003, 192.0, 0.0, 0.0, 0.0, 0.0, 0.0, 0.0, 0.0, 0.0, 0.0, 1.741806568528105E9, 0.0, 2025-03-12 14:09:28.528
176.0, 9124.496176778815, 11742.556004828932, 3800.46710973586, 15643.941240780503, 5760.42452578837, 44645.307319796964, -9354.8085516463, 17589.81705782617, 10799.938237659722, 13818.340160648842, -3499.769091578614, 13146.379667088946, -1744.3748407810738, -2089.351664704283, 5419.336905400384, 40368.0775008294, 0.009521484375, 0.975376953125, -0.1661796875, 192.0, 0.0, 48.0, 15.0, 72.0, 125.0, 104.0, 0.0, 0.0, 0.0, 1.741806568528138E9, 0.0, 2025-03-12 14:09:28.528
178.0, 9147.138493912042, 11753.128379956292, 3814.459301764882, 15676.552435940795, 5767.621787502979, 44661.13235487132, -9351.27697602236, 17603.16104926599, 10796.831345180433, 13812.506355346008, -3502.920687546812, 13142.088132153527, -1744.4865995033504, -2098.359417719772, 5412.184347174686, 40346.75393661904, 0.009521484375, 0.975376953125, -0.1661796875, 192.0, 0.0, 0.0, 0.0, 0.0, 0.0, 0.0, 0.0, 0.0, 0.0, 1.741806568528174E9, 0.0, 2025-03-12 14:09:28.528
180.0, 9131.224051859863, 11741.840749006362, 3807.37379877255, 15656.547624653296, 5761.497409522225, 44653.44335477869, -9351.679307422555, 17603.898656833015, 10798.41831903676, 13819.681265316161, -3492.795347308558, 13151.31940261357, -1740.6420994570376, -2080.902705300177, 5429.730466572102, 40367.496355473566, 0.009521484375, 0.975376953125, -0.1661796875, 192.0, 0.0, 0.0, 0.0, 0.0, 0.0, 0.0, 0.0, 0.0, 0.0, 1.74180656858741E9, 0.0, 2025-03-12 14:09:28.587
182.0, 9137.013153673786, 11739.94085072766, 3819.2202233338626, 15681.447467976508, 5771.063956149096, 44664.75333747308, -9342.872720107165, 17606.737328378837, 10787.644778209304, 13813.422776868676, -3505.468786414717, 13139.160053629883, -1743.592529725138, -2082.3779204342272, 5426.400056648262, 40361.394329237264, 0.009521484375, 0.975376953125, -0.1661796875, 192.0, 0.0, 0.0, 0.0, 0.0, 0.0, 0.0, 0.0, 0.0, 0.0, 1.741806568587467E9, 0.0, 2025-03-12 14:09:28.587
184.0, 9121.702208721901, 11738.018600704503, 3800.556516713681, 15650.266784461355, 5760.469229277281, 44645.575540730424, -9354.607385946201, 17599.093031775123, 10783.75557467408, 13818.317808904387, -3500.5290508900944, 13143.384533331935, -1740.5526924792164, -2074.9794930195208, 5432.479731140105, 40359.13680304728, 0.009521484375, 0.975376953125, -0.1661796875, 192.0, 0.0, 0.0, 0.0, 0.0, 0.0, 0.0, 0.0, 0.0, 0.0, 1.741806568587501E9, 0.0, 2025-03-12 14:09:28.587
186.0, 9132.654563505002, 11737.45980709312, 3819.0637611226753, 15670.003374815391, 5769.14170612594, 44654.98562514611, -9344.504397452403, 17604.01041555529, 10776.491257726104, 13814.249791413522, -3513.738931863181, 13134.153262871894, -1744.9336343924565, -2082.1767547341296, 5427.651754337759, 40351.693672143665, 0.0077607421875, 0.9746884765624999, -0.16508984375000002, 192.0, 0.0, 24.0, 15.0, 56.0, 125.0, 112.0, 0.0, 0.0, 0.0, 1.741806568587565E9, 0.0, 2025-03-12 14:09:28.587
188.0, 9129.078284392153, 11726.060417420915, 3809.4972144958037, 15660.10155202169, 5765.14074386844, 44659.85830543737, -9348.818284132276, 17620.662465174493, 10777.966472860155, 13822.698750817628, -3497.6009723664492, 13145.083265910538, -1742.0055558688111, -2050.772553774423, 5439.006440521055, 40359.293265258464, 0.0077607421875, 0.9746884765624999, -0.16508984375000002, 192.0, 0.0, 0.0, 0.0, 0.0, 0.0, 0.0, 0.0, 0.0, 0.0, 1.741806568587601E9, 0.0, 2025-03-12 14:09:28.587
190.0, 9139.04716241922, 11739.717333283108, 3824.5175867697703, 15690.522276225362, 5771.354528827015, 44696.403407621794, -9339.587013672235, 17617.622627928573, 10770.165714045253, 13823.279896173466, -3521.383228466896, 13131.962791915274, -1744.10661984761, -2084.456632668571, 5433.59731836287, 40388.50699526155, 0.0077607421875, 0.9746884765624999, -0.16508984375000002, 192.0, 0.0, 0.0, 0.0, 0.0, 0.0, 0.0, 0.0, 0.0, 0.0, 1.741806568587648E9, 0.0, 2025-03-12 14:09:28.587
192.0, 9138.175444385462, 11736.498682081543, 3817.3873802885273, 15670.271595748854, 5765.319557824083, 44679.52784055804, -9345.689039908533, 17608.413709212986, 10781.676862439735, 13828.510204376007, -3494.181155464787, 13152.54874855861, -1734.5400732207386, -2060.4732108680264, 5455.882007584812, 40405.650783258774, 0.0077607421875, 0.9746884765624999, -0.16508984375000002, 192.0, 0.0, 0.0, 0.0, 0.0, 0.0, 0.0, 0.0, 0.0, 0.0, 1.741806568587682E9, 0.0, 2025-03-12 14:09:28.587
194.0, 9138.175444385462, 11745.148807185748, 3819.689609967424, 15676.015994073869, 5765.2301508462615, 44678.11968065735, -9353.80272314581, 17605.351520222608, 10776.245388537096, 13824.442186885142, -3518.3880947098846, 13134.98027741674, -1740.9103203905013, -2068.4304318941154, 5439.051144009965, 40380.058035857444, 0.0077607421875, 0.9746884765624999, -0.16508984375000002, 192.0, 0.0, 0.0, 0.0, 0.0, 0.0, 0.0, 0.0, 0.0, 0.0, 1.741806568587722E9, 0.0, 2025-03-12 14:09:28.587
196.0, 9133.727447238856, 11732.676533779686, 3806.390322016516, 15661.085028777723, 5758.703441465312, 44658.852476936874, -9361.782295916355, 17590.95699679339, 10778.480562982628, 13827.616134597796, -3502.3618939354296, 13144.435065321335, -1739.435105256451, -2076.0970802422858, 5437.464170153638, 40372.50314623155, 0.0048803710937500005, 0.9713442382812499, -0.16554492187500003, 192.0, 0.0, 8.0, 15.0, 32.0, 125.0, 104.0, 0.0, 0.0, 0.0, 1.741806568647128E9, 0.0, 2025-03-12 14:09:28.647
198.0, 9122.037484888731, 11727.155652899224, 3806.2785632942396, 15656.81584558676, 5762.167961855885, 44657.35491005837, -9353.400391745614, 17603.004587054802, 10766.164751787754, 13816.015579225492, -3527.1276267919097, 13120.742216198709, -1747.1688088379872, -2090.379844949227, 5425.729504314602, 40357.974512335604, 0.0048803710937500005, 0.9713442382812499, -0.16554492187500003, 192.0, 0.0, 0.0, 0.0, 0.0, 0.0, 0.0, 0.0, 0.0, 0.0, 1.741806568647179E9, 0.0, 2025-03-12 14:09:28.647
200.0, 9132.766322227279, 11732.363609357311, 3800.3553510135835, 15660.414476444064, 5762.056203133608, 44661.2888170825, -9349.690002166033, 17602.043462043224, 10772.624405935336, 13817.356683892809, -3506.3405044484743, 13134.309725083082, -1742.4302390134621, -2073.8842575412104, 5426.489463626082, 40358.64506466926, 0.0048803710937500005, 0.9713442382812499, -0.16554492187500003, 192.0, 0.0, 0.0, 0.0, 0.0, 0.0, 0.0, 0.0, 0.0, 0.0, 1.741806568647213E9, 0.0, 2025-03-12 14:09:28.647
202.0, 9122.149243611007, 11737.057475692925, 3795.0579875776757, 15650.467950161452, 5762.257368833705, 44653.86803792334, -9353.221577789973, 17594.779145095246, 10772.0432605795, 13817.960180993103, -3530.2345192711973, 13119.758739442676, -1749.5380937502498, -2078.0640337543527, 5417.9287454997, 40353.23594251108, 0.0048803710937500005, 0.9713442382812499, -0.16554492187500003, 192.0, 0.0, 0.0, 0.0, 0.0, 0.0, 0.0, 0.0, 0.0, 0.0, 1.741806568647245E9, 0.0, 2025-03-12 14:09:28.647
204.0, 9136.119083895575, 11737.66097279322, 3801.56234521417, 15662.157912511579, 5765.09604037953, 44660.50650602657, -9350.069981821774, 17603.943360321922, 10779.866371138856, 13823.101082217823, -3512.7778068516027, 13138.17657687385, -1746.4759047598727, -2066.0164434929425, 5417.660524566237, 40347.98328256408, 0.0048803710937500005, 0.9713442382812499, -0.16554492187500003, 192.0, 0.0, 0.0, 0.0, 0.0, 0.0, 0.0, 0.0, 0.0, 0.0, 1.741806568647278E9, 0.0, 2025-03-12 14:09:28.647
206.0, 9133.99566817232, 11728.094426166348, 3805.697417938402, 15655.653554875084, 5766.057165391107, 44657.08668912491, -9340.726952639456, 17607.609046412595, 10773.764344902558, 13812.282837901455, -3526.635888413893, 13123.782053444631, -1753.0249658852777, -2085.1718884911406, 5413.436044864184, 40342.529456916986, 0.004440185546875, 0.971672119140625, -0.16477246093750003, 192.0, 0.0, 16.0, 15.0, 48.0, 125.0, 112.0, 0.0, 0.0, 0.0, 1.741806568647311E9, 0.0, 2025-03-12 14:09:28.647
208.0, 9130.441740803926, 11735.51520532551, 3811.017133118765, 15674.473723706453, 5771.958025927309, 44665.75916597357, -9336.949507826508, 17603.205752754897, 10780.201647305686, 13819.390692638242, -3497.4892136441727, 13141.84226296452, -1746.431201270962, -2060.6296730792133, 5432.792655562479, 40359.78500363648, 0.004440185546875, 0.971672119140625, -0.16477246093750003, 192.0, 0.0, 0.0, 0.0, 0.0, 0.0, 0.0, 0.0, 0.0, 0.0, 1.741806568647345E9, 0.0, 2025-03-12 14:09:28.647
210.0, 9126.753702968801, 11729.144958155746, 3805.697417938402, 15658.425171187542, 5768.940540425842, 44668.6425410083, -9343.297403251816, 17613.57696218216, 10776.312443770463, 13814.450957113619, -3517.2928592315748, 13124.45260577829, -1754.9248641639788, -2091.989170550009, 5432.390324162284, 40361.61784668182, 0.004440185546875, 0.971672119140625, -0.16477246093750003, 192.0, 0.0, 0.0, 0.0, 0.0, 0.0, 0.0, 0.0, 0.0, 0.0, 1.741806568707328E9, 0.0, 2025-03-12 14:09:28.707
212.0, 9131.156996626496, 11725.702789509629, 3814.168729086963, 15680.285177264832, 5775.757822484711, 44690.882526741334, -9339.475254949959, 17610.827697614157, 10778.972301360644, 13817.826070526371, -3498.897373544857, 13138.489501296222, -1744.0395646142442, -2070.777365061923, 5439.252309710063, 40388.12701560581, 0.004440185546875, 0.971672119140625, -0.16477246093750003, 192.0, 0.0, 0.0, 0.0, 0.0, 0.0, 0.0, 0.0, 0.0, 0.0, 1.74180656870741E9, 0.0, 2025-03-12 14:09:28.707
214.0, 9117.164804597474, 11720.69599875164, 3805.0045138602873, 15654.737133352415, 5768.38174681446, 44672.66585501026, -9347.812455631787, 17598.668348630472, 10770.523341956537, 13809.824146011371, -3515.951754564256, 13123.156204599883, -1750.1862943394535, -2070.7550133174677, 5438.447646909672, 40387.836442927895, 0.004440185546875, 0.971672119140625, -0.16477246093750003, 192.0, 0.0, 0.0, 0.0, 0.0, 0.0, 0.0, 0.0, 0.0, 0.0, 1.741806568707453E9, 0.0, 2025-03-12 14:09:28.707
216.0, 9128.452435547404, 11727.379170343778, 3816.13568259903, 15678.72055515296, 5778.328273097071, 44678.11968065735, -9334.736685125434, 17611.453546458906, 10769.584568689415, 13812.998093724025, -3507.703960860248, 13125.860765678975, -1749.7169077058923, -2064.7200423145346, 5437.195949220175, 40371.58672470888, 0.005220092773437501, 0.9688360595703125, -0.16638623046875, 192.0, 0.0, 24.0, 15.0, 24.0, 125.0, 96.0, 0.0, 0.0, 0.0, 1.741806568707493E9, 0.0, 2025-03-12 14:09:28.707
218.0, 9120.159938354485, 11718.639638261753, 3801.6741039364465, 15655.966479297458, 5770.080479393063, 44662.45110779418, -9339.005868316397, 17607.29612199022, 10772.356185001872, 13818.11664320429, -3520.60091741096, 13123.089149366517, -1749.627500728071, -2087.2729524699394, 5440.79458007748, 40365.55175370595, 0.005220092773437501, 0.9688360595703125, -0.16638623046875, 192.0, 0.0, 0.0, 0.0, 0.0, 0.0, 0.0, 0.0, 0.0, 0.0, 1.741806568707535E9, 0.0, 2025-03-12 14:09:28.707
220.0, 9131.559328026691, 11723.735835997562, 3811.1512435854966, 15679.905197609092, 5774.081441650563, 44678.45495682418, -9339.6540689056, 17613.77812788226, 10770.925673356733, 13817.133166448257, -3509.469748672217, 13131.024018648151, -1750.655680973015, -2079.606304121769, 5436.860673053346, 40366.53523046199, 0.005220092773437501, 0.9688360595703125, -0.16638623046875, 192.0, 0.0, 0.0, 0.0, 0.0, 0.0, 0.0, 0.0, 0.0, 0.0, 1.741806568707568E9, 0.0, 2025-03-12 14:09:28.707
222.0, 9111.733330694835, 11706.03325438896, 3789.6712171639465, 15637.749807566383, 5761.340947311038, 44652.92926465622, -9351.209920788995, 17595.47204917336, 10761.202664518674, 13811.142898934235, -3525.026562813111, 13117.009474874672, -1758.590550254649, -2084.2778187129284, 5423.337867657884, 40356.164021034725, 0.005220092773437501, 0.9688360595703125, -0.16638623046875, 192.0, 0.0, 0.0, 0.0, 0.0, 0.0, 0.0, 0.0, 0.0, 0.0, 1.741806568707601E9, 0.0, 2025-03-12 14:09:28.707
224.0, 9125.479653534849, 11706.145013111236, 3801.3611795140723, 15670.472761448951, 5769.812258459599, 44675.929209700735, -9341.911595095587, 17614.359273238097, 10761.64969940778, 13807.231343654556, -3527.440551214284, 13117.858841163976, -1756.4447827869396, -2085.5742198913363, 5418.889870511279, 40343.35647146183, 0.005220092773437501, 0.9688360595703125, -0.16638623046875, 192.0, 0.0, 0.0, 0.0, 0.0, 0.0, 0.0, 0.0, 0.0, 0.0, 1.741806568707633E9, 0.0, 2025-03-12 14:09:28.707
226.0, 9115.42136852996, 11709.676588735174, 3789.5818101861255, 15633.413569142052, 5765.721889224278, 44646.491962253094, -9348.483007965448, 17589.39237468152, 10756.687612138703, 13807.991302966037, -3532.246176272175, 13120.004608631685, -1761.9656636674003, -2086.4682896695485, 5419.2027949336525, 40340.271930727, 0.00461004638671875, 0.9694180297851562, -0.16719311523437502, 192.0, 0.0, 16.0, 15.0, 40.0, 125.0, 96.0, 0.0, 0.0, 0.0, 1.741806568767621E9, 0.0, 2025-03-12 14:09:28.767
228.0, 9128.430083802949, 11724.719312753596, 3803.3281330261393, 15674.183151028534, 5771.399232315926, 44682.85825048188, -9344.303231752305, 17622.45060473092, 10758.27458599503, 13810.807622767405, -3525.764170380136, 13121.12219585445, -1756.6459484870375, -2077.4605366540595, 5421.415617634728, 40342.41769819471, 0.00461004638671875, 0.9694180297851562, -0.16719311523437502, 192.0, 0.0, 0.0, 0.0, 0.0, 0.0, 0.0, 0.0, 0.0, 0.0, 1.741806568767669E9, 0.0, 2025-03-12 14:09:28.767
230.0, 9121.635153488536, 11718.572583028386, 3792.331074754128, 15643.829482058227, 5762.391479300437, 44664.26159909506, -9343.56562418528, 17598.735403863837, 10768.355222744372, 13816.2614484145, -3517.024638298111, 13128.878251180442, -1758.0541083877217, -2060.7861352904006, 5426.377704903806, 40365.7752711505, 0.00461004638671875, 0.9694180297851562, -0.16719311523437502, 192.0, 0.0, 0.0, 0.0, 0.0, 0.0, 0.0, 0.0, 0.0, 0.0, 1.741806568767703E9, 0.0, 2025-03-12 14:09:28.767
232.0, 9123.602107000603, 11716.98560917206, 3797.8296038901335, 15666.0471160468, 5766.526552024669, 44672.576448032436, -9350.449961477514, 17609.218372013376, 10762.096734296887, 13815.456785614108, -3529.1392837928875, 13115.154280084882, -1759.7751927107804, -2082.802603578878, 5420.1415682007755, 40337.83559058137, 0.00461004638671875, 0.9694180297851562, -0.16719311523437502, 192.0, 0.0, 0.0, 0.0, 0.0, 0.0, 0.0, 0.0, 0.0, 0.0, 1.741806568767766E9, 0.0, 2025-03-12 14:09:28.767
234.0, 9107.978237626343, 11702.099347364825, 3783.613894416558, 15643.717723335949, 5759.552807754613, 44668.88841019731, -9349.734705654944, 17603.09399403262, 10756.374687716328, 13813.35572163531, -3521.897318589368, 13122.93268715533, -1760.3563380666183, -2074.0407197523978, 5417.906393755245, 40346.77628836349, 0.00461004638671875, 0.9694180297851562, -0.16719311523437502, 192.0, 0.0, 0.0, 0.0, 0.0, 0.0, 0.0, 0.0, 0.0, 0.0, 1.741806568767807E9, 0.0, 2025-03-12 14:09:28.767
236.0, 9116.360141797084, 11705.541516010942, 3789.715920652857, 15657.396990942598, 5766.660662491401, 44677.31501785696, -9353.199226045517, 17597.461354429885, 10747.612803889848, 13802.738643019038, -3541.723315921225, 13103.084338079017, -1765.0725561466882, -2075.359472675261, 5417.258193166041, 40346.239846496566, 0.005305023193359375, 0.9707090148925781, -0.1675965576171875, 192.0, 0.0, 24.0, 15.0, 48.0, 125.0, 96.0, 0.0, 0.0, 0.0, 1.741806568767847E9, 0.0, 2025-03-12 14:09:28.767
238.0, 9108.93936263792, 11699.819469430384, 3776.2154670018517, 15637.213365699456, 5757.921130409376, 44657.84664843639, -9347.99126958743, 17596.679043373948, 10746.271699222529, 13801.77751800746, -3533.1402460503873, 13109.253419548682, -1760.4457450444395, -2094.894897329199, 5417.615821077326, 40344.29524472896, 0.005305023193359375, 0.9707090148925781, -0.1675965576171875, 192.0, 0.0, 0.0, 0.0, 0.0, 0.0, 0.0, 0.0, 0.0, 0.0, 1.741806568767889E9, 0.0, 2025-03-12 14:09:28.767
240.0, 9129.055932647698, 11712.068225391893, 3791.5040602092818, 15663.878996834637, 5766.6383107469455, 44682.902953970784, -9324.700751865, 17621.467127974884, 10745.377629444318, 13802.671587785673, -3553.1674090823426, 13097.362291498459, -1759.2163990993977, -2090.156327504674, 5409.859765751335, 40351.02311981, 0.005305023193359375, 0.9707090148925781, -0.1675965576171875, 192.0, 0.0, 0.0, 0.0, 0.0, 0.0, 0.0, 0.0, 0.0, 0.0, 1.741806568827933E9, 0.0, 2025-03-12 14:09:28.827
242.0, 9117.701246464401, 11708.290780578945, 3782.630417660525, 15644.81295881426, 5761.653871733412, 44666.921456685246, -9325.259545476383, 17604.300988233208, 10749.043315534987, 13812.484003601552, -3535.2636617736416, 13113.768471928654, -1750.499218761828, -2077.6840540986127, 5427.919975271222, 40361.93077110419, 0.005305023193359375, 0.9707090148925781, -0.1675965576171875, 192.0, 0.0, 0.0, 0.0, 0.0, 0.0, 0.0, 0.0, 0.0, 0.0, 1.741806568827989E9, 0.0, 2025-03-12 14:09:28.827
244.0, 9130.866423948577, 11717.343237083345, 3787.1231182960414, 15643.650668102584, 5760.7598019552, 44664.55217177298, -9322.08559776373, 17607.0055493123, 10743.053048020965, 13799.676454028662, -3555.693156205792, 13093.093108307494, -1755.0589746307105, -2081.170926233641, 5410.329152384896, 40347.96093081962, 0.005305023193359375, 0.9707090148925781, -0.1675965576171875, 192.0, 0.0, 0.0, 0.0, 0.0, 0.0, 0.0, 0.0, 0.0, 0.0, 1.741806568828036E9, 0.0, 2025-03-12 14:09:28.828
246.0, 9127.357200069095, 11714.057530648415, 3782.65276940498, 15635.134653465111, 5755.32832805256, 44657.332558313916, -9321.593859385714, 17598.422479441462, 10752.50783592556, 13809.332407633354, -3529.7204291487255, 13107.107652080973, -1742.0726111021772, -2066.4411266375932, 5415.134777442787, 40353.10183204435, 0.005652511596679687, 0.976354507446289, -0.16679827880859377, 192.0, 0.0, 24.0, 15.0, 88.0, 125.0, 104.0, 0.0, 0.0, 0.0, 1.74180656882807E9, 0.0, 2025-03-12 14:09:28.828
248.0, 9124.943211667922, 11712.627019003276, 3791.884039865022, 15645.90819429257, 5761.653871733412, 44665.17802061773, -9313.055493003785, 17612.280561003754, 10748.596280645881, 13803.610361052795, -3553.5250369936275, 13094.769489141643, -1743.793695425236, -2093.50908917297, 5410.30680064044, 40355.8287448679, 0.005652511596679687, 0.976354507446289, -0.16679827880859377, 192.0, 0.0, 0.0, 0.0, 0.0, 0.0, 0.0, 0.0, 0.0, 0.0, 1.741806568828138E9, 0.0, 2025-03-12 14:09:28.828
250.0, 9137.326078096161, 11722.730007497074, 3791.9510950983877, 15653.150159496088, 5760.446877532826, 44663.41223280576, -9312.720216836955, 17602.781069610246, 10757.447571450182, 13811.656989056706, -3529.832187871002, 13119.512870253668, -1731.72375341937, -2075.962969775554, 5420.856824023345, 40373.911306132235, 0.005652511596679687, 0.976354507446289, -0.16679827880859377, 192.0, 0.0, 0.0, 0.0, 0.0, 0.0, 0.0, 0.0, 0.0, 0.0, 1.741806568828164E9, 0.0, 2025-03-12 14:09:28.828
252.0, 9126.396075057517, 11722.171213885691, 3791.2134875313627, 15646.735208837415, 5760.04454613263, 44659.94771241519, -9311.22264995845, 17608.324302235163, 10757.179350516719, 13810.517050089486, -3552.2062840707645, 13102.391434000903, -1731.142608063532, -2083.9425425460986, 5419.985105989588, 40376.302942788956, 0.005652511596679687, 0.976354507446289, -0.16679827880859377, 192.0, 0.0, 0.0, 0.0, 0.0, 0.0, 0.0, 0.0, 0.0, 0.0, 1.741806568828188E9, 0.0, 2025-03-12 14:09:28.828
254.0, 9150.826531747167, 11732.788292501962, 3794.700359666391, 15663.364906712164, 5762.145610111429, 44674.677512011236, -9304.450071388492, 17610.760642380792, 10762.70023139718, 13821.938791506147, -3533.1402460503873, 13120.205774331782, -1721.240785269831, -2067.9386935160987, 5426.936498515189, 40393.71495171964, 0.005652511596679687, 0.976354507446289, -0.16679827880859377, 192.0, 0.0, 0.0, 0.0, 0.0, 0.0, 0.0, 0.0, 0.0, 0.0, 1.741806568828233E9, 0.0, 2025-03-12 14:09:28.828
0.0, 9147.071438678675, 11743.293612395957, 3792.8004613876897, 15644.835310558716, 5757.451743775814, 44655.298549568484, -9315.93886803852, 17597.684871874437, 10768.46698146665, 13818.720140304584, -3550.574606725527, 13103.933704368319, -1725.7111341608925, -2069.860943539255, 5419.716885056125, 40383.61196322584, 0.004826255798339844, 0.9811772537231445, -0.1663991394042969, 192.0, 0.0, 16.0, 15.0, 104.0, 125.0, 104.0, 0.0, 0.0, 0.0, 1.74180656888809E9, 0.0, 2025-03-12 14:09:28.888
2.0, 9156.034488205254, 11755.609423590831, 3807.664371450469, 15668.52815968134, 5762.011499644697, 44675.19160213371, -9308.249867945895, 17599.45065968641, 10783.710871185169, 13829.761902065506, -3522.187891267287, 13125.659599978877, -1716.2116427673868, -2052.7842107754004, 5429.55165261646, 40404.64495475828, 0.004826255798339844, 0.9811772537231445, -0.1663991394042969, 192.0, 0.0, 0.0, 0.0, 0.0, 0.0, 0.0, 0.0, 0.0, 0.0, 1.741806568888132E9, 0.0, 2025-03-12 14:09:28.888
4.0, 9147.026735189764, 11747.652202564741, 3795.1250428110416, 15640.364961667654, 5756.177694341862, 44655.87969492432, -9312.876679048142, 17603.67513938846, 10780.291054283507, 13822.788157795449, -3547.534769479605, 13109.722806182242, -1721.0619713141884, -2084.2778187129284, 5423.8966612692675, 40392.35149530786, 0.004826255798339844, 0.9811772537231445, -0.1663991394042969, 192.0, 0.0, 0.0, 0.0, 0.0, 0.0, 0.0, 0.0, 0.0, 0.0, 1.741806568888155E9, 0.0, 2025-03-12 14:09:28.888
6.0, 9150.535959069248, 11745.595842074854, 3797.4719759788486, 15658.715743865461, 5754.434258274348, 44670.76595673156, -9320.297458207306, 17600.143563764523, 10782.727394429136, 13826.051512485923, -3530.703905904759, 13120.138719098417, -1714.5799654221494, -2067.6928243270904, 5421.750893801558, 40391.97151565213, 0.004826255798339844, 0.9811772537231445, -0.1663991394042969, 192.0, 0.0, 0.0, 0.0, 0.0, 0.0, 0.0, 0.0, 0.0, 0.0, 1.741806568888181E9, 0.0, 2025-03-12 14:09:28.888
8.0, 9145.86444447809, 11745.417028119211, 3789.827679375134, 15632.497147619386, 5754.0766303630635, 44658.18192460322, -9313.010789514874, 17600.881171331548, 10780.693385683702, 13824.419835140687, -3547.3559555239626, 13105.744195669198, -1722.7383521483366, -2072.2749319404284, 5414.7995012759575, 40387.30000106097, 0.004826255798339844, 0.9811772537231445, -0.1663991394042969, 192.0, 0.0, 0.0, 0.0, 0.0, 0.0, 0.0, 0.0, 0.0, 0.0, 1.741806568888207E9, 0.0, 2025-03-12 14:09:28.888
10.0, 9155.945081227432, 11738.935022227171, 3796.1979265448963, 15658.380467698631, 5763.509066523203, 44669.96129393116, -9316.98940002792, 17601.775241109757, 10781.073365339442, 13827.526727619974, -3531.597975682971, 13110.84039340501, -1717.4409887124289, -2076.1194319867413, 5427.383533404295, 40386.20476558265, 0.006413127899169922, 0.9805886268615722, -0.16819956970214844, 192.0, 0.0, 32.0, 15.0, 80.0, 125.0, 88.0, 0.0, 0.0, 0.0, 1.741806568888231E9, 0.0, 2025-03-12 14:09:28.888
12.0, 9141.014115931286, 11732.207147146124, 3786.0278828177316, 15627.80328128377, 5756.110639108496, 44652.303415811475, -9316.698827350001, 17584.072659501155, 10772.423240235239, 13815.032102469457, -3548.6747084468257, 13095.574151942033, -1723.431256226451, -2081.796775078389, 5419.761588545035, 40384.86366091534, 0.006413127899169922, 0.9805886268615722, -0.16819956970214844, 192.0, 0.0, 0.0, 0.0, 0.0, 0.0, 0.0, 0.0, 0.0, 0.0, 1.741806568888255E9, 0.0, 2025-03-12 14:09:28.888
14.0, 9147.138493912042, 11733.74941751354, 3796.332037011628, 15659.967441554958, 5763.844342690032, 44670.251866609084, -9311.647333103101, 17597.684871874437, 10770.411583234261, 13821.804681039415, -3544.2043595557643, 13104.045463090595, -1718.2232997683645, -2055.8911032546885, 5425.9530217591555, 40380.0803876019, 0.006413127899169922, 0.9805886268615722, -0.16819956970214844, 192.0, 0.0, 0.0, 0.0, 0.0, 0.0, 0.0, 0.0, 0.0, 0.0, 1.741806568947438E9, 0.0, 2025-03-12 14:09:28.947
16.0, 9135.448531561915, 11729.03319943347, 3783.613894416558, 15628.09385396169, 5752.780229184656, 44651.11877335534, -9325.37130419866, 17589.750002592802, 10762.588472674905, 13820.329465905364, -3554.8437899164906, 13095.842372875497, -1722.492482959328, -2082.3332169453165, 5418.375780388807, 40375.386521266286, 0.006413127899169922, 0.9805886268615722, -0.16819956970214844, 192.0, 0.0, 0.0, 0.0, 0.0, 0.0, 0.0, 0.0, 0.0, 0.0, 1.741806568947467E9, 0.0, 2025-03-12 14:09:28.947
18.0, 9146.266775878285, 11737.325696626389, 3800.824737647145, 15666.38239221363, 5765.4089648019035, 44681.22657313664, -9311.379112169638, 17605.19505801142, 10761.627347663325, 13819.815375782893, -3551.2451590591863, 13098.390471743402, -1719.9220323469679, -2077.281722698417, 5427.271774682018, 40392.865585430336, 0.006413127899169922, 0.9805886268615722, -0.16819956970214844, 192.0, 0.0, 0.0, 0.0, 0.0, 0.0, 0.0, 0.0, 0.0, 0.0, 1.741806568947491E9, 0.0, 2025-03-12 14:09:28.947
20.0, 9151.921767225476, 11732.408312846223, 3786.296103751195, 15629.636124329107, 5756.512970508692, 44650.470572766135, -9317.347027939204, 17590.286444459733, 10776.088926325909, 13824.956277007614, -3540.091638575988, 13104.313684024059, -1715.272869500264, -2072.1855249626074, 5434.871367796823, 40397.35828606586, 0.00920656394958496, 0.9782943134307861, -0.16409978485107424, 192.0, 0.0, 48.0, 15.0, 64.0, 125.5, 0.0, 0.0, 0.0, 0.0, 1.741806568947525E9, 0.0, 2025-03-12 14:09:28.947
22.0, 9151.139456169542, 11736.833958248373, 3795.9297056114324, 15651.004392028379, 5760.37982229946, 44657.57842750292, -9323.516109408869, 17590.77818283775, 10777.318272270952, 13813.556887335408, -3544.964318867245, 13093.316625752048, -1720.5702329361718, -2082.4002721786824, 5418.778111789002, 40359.60618968084, 0.00920656394958496, 0.9782943134307861, -0.16409978485107424, 192.0, 0.0, 0.0, 0.0, 0.0, 0.0, 0.0, 0.0, 0.0, 0.0, 1.741806568947548E9, 0.0, 2025-03-12 14:09:28.947
24.0, 9149.127799168564, 11742.600708317841, 3790.8335078756227, 15638.442711644497, 5756.80354318661, 44662.9428461722, -9319.090464006718, 17592.409860182986, 10782.995615362599, 13819.2118786826, -3538.348202508474, 13100.960922355764, -1716.591622423127, -2060.1602864456518, 5423.4272746357055, 40385.109530104346, 0.00920656394958496, 0.9782943134307861, -0.16409978485107424, 192.0, 0.0, 0.0, 0.0, 0.0, 0.0, 0.0, 0.0, 0.0, 0.0, 1.741806568947575E9, 0.0, 2025-03-12 14:09:28.947
26.0, 9170.876046523577, 11755.296499168457, 3808.8266621621447, 15672.90910159458, 5765.990110157742, 44683.5958580489, -9313.323713937249, 17600.121212020065, 10790.774022433046, 13828.957239265113, -3534.526054206616, 13108.471108492746, -1715.1611107779875, -2073.8619057967553, 5438.469998654127, 40413.80916998496, 0.00920656394958496, 0.9782943134307861, -0.16409978485107424, 192.0, 0.0, 0.0, 0.0, 0.0, 0.0, 0.0, 0.0, 0.0, 0.0, 1.741806568947601E9, 0.0, 2025-03-12 14:09:28.947
28.0, 9156.056839949708, 11751.18377818868, 3791.235839275818, 15635.872261032137, 5760.558636255102, 44659.925360670735, -9318.442263417515, 17588.587711881126, 10798.105394614387, 13831.728855577572, -3518.253984243153, 13116.942419641307, -1712.143625276521, -2078.9134000436547, 5438.157074231753, 40401.314544834444, 0.00920656394958496, 0.9782943134307861, -0.16409978485107424, 192.0, 0.0, 0.0, 0.0, 0.0, 0.0, 0.0, 0.0, 0.0, 0.0, 1.741806568947628E9, 0.0, 2025-03-12 14:09:28.947
30.0, 9162.583549330659, 11747.51809209801, 3800.1541853134854, 15651.76435133986, 5766.392441557938, 44664.61922700635, -9316.251792460895, 17595.360290451084, 10789.499972999094, 13821.335294405853, -3532.1120658054433, 13097.027015331629, -1714.8705381000684, -2085.9094960581656, 5429.395190405273, 40382.11439634734, 0.01060328197479248, 0.9771471567153931, -0.16104989242553713, 192.0, 0.0, 48.0, 15.0, 64.0, 125.5, 8.0, 0.0, 0.0, 0.0, 1.74180656900717E9, 0.0, 2025-03-12 14:09:29.007
32.0, 9150.223034646873, 11743.159501929225, 3791.5934671871028, 15633.950011008981, 5757.965833898286, 44653.778630945526, -9323.493757664413, 17586.10666824659, 10791.8469061669, 13821.871736272782, -3521.115007533432, 13101.922047367341, -1710.8248723536578, -2079.874525055233, 5434.893719541278, 40385.40010278227, 0.01060328197479248, 0.9771471567153931, -0.16104989242553713, 192.0, 0.0, 0.0, 0.0, 0.0, 0.0, 0.0, 0.0, 0.0, 0.0, 1.741806569007198E9, 0.0, 2025-03-12 14:09:29.007
34.0, 9153.106409681608, 11743.204205418135, 3799.014246346265, 15647.204595470977, 5761.922092666876, 44660.618264748846, -9326.84651933271, 17582.865665300567, 10785.946045630699, 13816.306151903409, -3542.8856066329013, 13088.712166394254, -1719.497349202317, -2079.583952377314, 5418.778111789002, 40369.508012474544, 0.01060328197479248, 0.9771471567153931, -0.16104989242553713, 192.0, 0.0, 0.0, 0.0, 0.0, 0.0, 0.0, 0.0, 0.0, 0.0, 1.741806569007221E9, 0.0, 2025-03-12 14:09:29.007
36.0, 9146.736162511845, 11736.543385570454, 3795.5720777001475, 15638.688580833505, 5762.726755467267, 44654.91856991274, -9321.057417518785, 17579.647014099006, 10786.773060175547, 13823.235192684555, -3522.456112200751, 13105.744195669198, -1713.8423578551244, -2058.9532922450653, 5431.853882295356, 40380.16979457972, 0.01060328197479248, 0.9771471567153931, -0.16104989242553713, 192.0, 0.0, 0.0, 0.0, 0.0, 0.0, 0.0, 0.0, 0.0, 0.0, 1.741806569007243E9, 0.0, 2025-03-12 14:09:29.007
38.0, 9130.642906504025, 11729.70375176713, 3791.2581910202734, 15647.092836748701, 5762.167961855885, 44659.075994381434, -9325.192490243016, 17594.48857241733, 10771.03743207901, 13815.277971658466, -3552.474505004228, 13084.39827971438, -1723.72182890437, -2096.481871185526, 5428.7693415605245, 40365.395291494766, 0.01060328197479248, 0.9771471567153931, -0.16104989242553713, 192.0, 0.0, 0.0, 0.0, 0.0, 0.0, 0.0, 0.0, 0.0, 0.0, 1.741806569007265E9, 0.0, 2025-03-12 14:09:29.007
40.0, 9130.799368715212, 11726.865080221305, 3782.2504380047844, 15638.53211862232, 5759.642214732435, 44648.74948844308, -9334.647278147611, 17565.69952555889, 10770.858618123368, 13817.73666354855, -3535.3977722403733, 13095.507096708669, -1726.2252242833645, -2080.9474087890876, 5428.165844460231, 40365.261181028036, 0.01030164098739624, 0.9775735783576965, -0.15752494621276858, 192.0, 0.0, 40.0, 15.0, 72.0, 125.5, 24.0, 0.0, 0.0, 0.0, 1.741806569007288E9, 0.0, 2025-03-12 14:09:29.007
42.0, 9134.7556274838, 11723.422911575188, 3787.6819119074244, 15643.67301984704, 5759.485752521247, 44653.10807861186, -9333.79791185831, 17593.68390961694, 10764.734240142614, 13810.91938148968, -3556.564874239549, 13075.725802865722, -1733.5789482091604, -2089.4410716821044, 5415.157129187242, 40348.09504128636, 0.01030164098739624, 0.9775735783576965, -0.15752494621276858, 192.0, 0.0, 0.0, 0.0, 0.0, 0.0, 0.0, 0.0, 0.0, 0.0, 1.741806569007312E9, 0.0, 2025-03-12 14:09:29.007
44.0, 9130.061761148187, 11727.423873832688, 3789.0900718081084, 15651.205557728477, 5761.720926966778, 44665.781517718024, -9325.281897220839, 17597.662520129983, 10771.216246034652, 13818.384864137754, -3525.540652935583, 13098.792803143599, -1721.9336893479456, -2059.1544579451634, 5428.076437482409, 40369.79858515246, 0.01030164098739624, 0.9775735783576965, -0.15752494621276858, 192.0, 0.0, 0.0, 0.0, 0.0, 0.0, 0.0, 0.0, 0.0, 0.0, 1.741806569067541E9, 0.0, 2025-03-12 14:09:29.067
46.0, 9132.207528615896, 11728.519109310999, 3794.007455588276, 15648.679810605028, 5762.078554878063, 44670.02834916453, -9324.119606509163, 17600.791764353726, 10765.024812820533, 13813.914515246692, -3551.021641614633, 13084.666500647843, -1727.7004394174148, -2082.422623923138, 5427.472940382117, 40377.487585245086, 0.01030164098739624, 0.9775735783576965, -0.15752494621276858, 192.0, 0.0, 0.0, 0.0, 0.0, 0.0, 0.0, 0.0, 0.0, 0.0, 1.74180656906758E9, 0.0, 2025-03-12 14:09:29.067
48.0, 9128.877118692055, 11732.408312846223, 3798.209583545874, 15658.805150843282, 5766.370089813482, 44674.92338120024, -9315.961219782976, 17599.741232364326, 10774.524304214037, 13823.682227573661, -3524.400713968362, 13103.978407857228, -1718.759741635292, -2078.3993099211825, 5441.465132411138, 40389.222251084124, 0.01030164098739624, 0.9775735783576965, -0.15752494621276858, 192.0, 0.0, 0.0, 0.0, 0.0, 0.0, 0.0, 0.0, 0.0, 0.0, 1.741806569067607E9, 0.0, 2025-03-12 14:09:29.067
50.0, 9146.155017156008, 11730.396655845245, 3797.7849004012232, 15644.611793114162, 5763.598473501024, 44666.56382877396, -9318.665780862068, 17590.688775859926, 10770.545693700993, 13821.134128705757, -3542.952661866267, 13089.025090816629, -1724.9958783383227, -2080.6568361111686, 5436.681859097703, 40384.953067893155, 0.00715082049369812, 0.9777867891788483, -0.1567624731063843, 192.0, 0.0, 16.0, 15.0, 72.0, 125.5, 16.0, 0.0, 0.0, 0.0, 1.741806569067632E9, 0.0, 2025-03-12 14:09:29.067
52.0, 9148.792523001734, 11723.489966808555, 3802.858746392578, 15659.274537476844, 5764.023156645675, 44666.206200862674, -9318.755187839888, 17587.403069424996, 10777.117106570853, 13815.59089608084, -3514.2083184967423, 13104.35838751297, -1714.9599450778896, -2076.342949431294, 5442.001574278066, 40377.57699222291, 0.00715082049369812, 0.9777867891788483, -0.1567624731063843, 192.0, 0.0, 0.0, 0.0, 0.0, 0.0, 0.0, 0.0, 0.0, 0.0, 1.741806569067662E9, 0.0, 2025-03-12 14:09:29.067
54.0, 9139.494197308326, 11725.009885431515, 3798.7013219238906, 15637.123958721633, 5763.0620316340965, 44654.69505246819, -9316.56471688327, 17594.04153752822, 10771.909150112766, 13811.813451267893, -3540.382211253907, 13087.885151849408, -1721.2631370142863, -2088.8375745818107, 5433.083228240398, 40366.87050662882, 0.00715082049369812, 0.9777867891788483, -0.1567624731063843, 192.0, 0.0, 0.0, 0.0, 0.0, 0.0, 0.0, 0.0, 0.0, 0.0, 1.741806569067684E9, 0.0, 2025-03-12 14:09:29.067
56.0, 9141.729371753856, 11730.17313840069, 3801.0035516027874, 15659.229833987933, 5766.794772958133, 44665.22272410664, -9318.777539584344, 17586.57605488015, 10775.239560036607, 13819.010712982503, -3526.4570744582506, 13099.575114199533, -1714.8034828667026, -2079.0698622548416, 5439.900510299267, 40370.29032353048, 0.00715082049369812, 0.9777867891788483, -0.1567624731063843, 192.0, 0.0, 0.0, 0.0, 0.0, 0.0, 0.0, 0.0, 0.0, 0.0, 1.741806569067707E9, 0.0, 2025-03-12 14:09:29.067
58.0, 9131.067589648675, 11715.4656905491, 3776.5507431686815, 15613.52051657683, 5749.47217100527, 44629.437581233695, -9335.6531066481, 17565.565415092162, 10770.9927285901, 13810.07001520038, -3546.953624123767, 13080.464372690247, -1722.850110870613, -2079.896876799688, 5423.449626380161, 40352.05130005495, 0.00715082049369812, 0.9777867891788483, -0.1567624731063843, 192.0, 0.0, 0.0, 0.0, 0.0, 0.0, 0.0, 0.0, 0.0, 0.0, 1.74180656906773E9, 0.0, 2025-03-12 14:09:29.067
60.0, 9154.581624815659, 11732.765940757507, 3800.936496369421, 15648.411589671565, 5764.4701915347805, 44645.59789247488, -9320.789196585321, 17559.75396153378, 10776.714775170658, 13811.768747778982, -3533.184949539298, 13084.420631458835, -1720.2796602582528, -2086.960028047565, 5417.459358866138, 40341.14364876076, 0.00757541024684906, 0.9788933945894241, -0.15638123655319214, 192.0, 0.0, 32.0, 15.0, 80.0, 125.5, 16.0, 0.0, 0.0, 0.0, 1.741806569127862E9, 0.0, 2025-03-12 14:09:29.127
62.0, 9132.56515652718, 11732.60947854632, 3791.816984631656, 15636.185185454511, 5766.034813646653, 44655.991453646595, -9314.977743026942, 17588.230083969844, 10777.050051337488, 13820.620038583284, -3541.1421705653875, 13084.957073325762, -1717.7092096458925, -2093.3749787062384, 5435.8771962973115, 40349.63731165377, 0.00757541024684906, 0.9788933945894241, -0.15638123655319214, 192.0, 0.0, 0.0, 0.0, 0.0, 0.0, 0.0, 0.0, 0.0, 0.0, 1.741806569127892E9, 0.0, 2025-03-12 14:09:29.127
64.0, 9161.443610363438, 11746.333449641877, 3808.0890545951197, 15672.752639383394, 5775.579008529068, 44686.814509250464, -9310.127414480141, 17617.53322095075, 10789.052938109988, 13829.337218920855, -3523.2607750011416, 13098.435175232313, -1709.5731746641607, -2055.8911032546885, 5453.624481394825, 40391.815053440936, 0.00757541024684906, 0.9788933945894241, -0.15638123655319214, 192.0, 0.0, 0.0, 0.0, 0.0, 0.0, 0.0, 0.0, 0.0, 0.0, 1.741806569127915E9, 0.0, 2025-03-12 14:09:29.127
66.0, 9145.283299122251, 11755.698830568652, 3797.4496242343935, 15643.449502402485, 5764.224322345773, 44667.74847123009, -9323.761978597877, 17580.76460132177, 10794.618522479359, 13828.107872975812, -3527.306440747552, 13096.311759509059, -1715.2505177558087, -2083.6072663792693, 5438.358239931851, 40389.60223073986, 0.00757541024684906, 0.9788933945894241, -0.15638123655319214, 192.0, 0.0, 0.0, 0.0, 0.0, 0.0, 0.0, 0.0, 0.0, 0.0, 1.741806569127949E9, 0.0, 2025-03-12 14:09:29.127
68.0, 9160.594244074136, 11764.885397539783, 3814.302839553695, 15675.747773140405, 5776.853057963021, 44684.13229991583, -9309.099234235196, 17591.76165959378, 10804.118013872865, 13838.792006825448, -3515.616478397427, 13109.633399204422, -1708.3661804635742, -2070.3750336617272, 5447.544806902982, 40395.27957383151, 0.00757541024684906, 0.9788933945894241, -0.15638123655319214, 192.0, 0.0, 0.0, 0.0, 0.0, 0.0, 0.0, 0.0, 0.0, 0.0, 1.741806569127978E9, 0.0, 2025-03-12 14:09:29.127
70.0, 9143.115179910086, 11751.921385755704, 3801.18236555843, 15650.892633306103, 5767.197104358328, 44668.91076194176, -9315.894164549609, 17592.29810146071, 10806.934333674233, 13844.514053406008, -3509.737969605681, 13112.941457383808, -1709.14849151951, -2058.282739911406, 5454.809123850957, 40392.597364496876, 0.00778770512342453, 0.9784466972947121, -0.15819061827659608, 192.0, 0.0, 32.0, 15.0, 72.0, 125.5, 0.0, 0.0, 0.0, 0.0, 1.741806569128004E9, 0.0, 2025-03-12 14:09:29.128
72.0, 9155.319232382684, 11764.61717660632, 3818.2143948333737, 15678.407630730586, 5773.880275950465, 44678.566715546454, -9312.98843777042, 17594.53327590624, 10802.084005127432, 13840.826015570881, -3518.6786673878037, 13104.179573557327, -1712.5236049322612, -2069.45861213906, 5443.633251623303, 40377.71110268964, 0.00778770512342453, 0.9784466972947121, -0.15819061827659608, 192.0, 0.0, 0.0, 0.0, 0.0, 0.0, 0.0, 0.0, 0.0, 0.0, 1.741806569128033E9, 0.0, 2025-03-12 14:09:29.128
74.0, 9148.367839857083, 11761.666746338218, 3806.099749338597, 15654.044229274301, 5764.224322345773, 44666.340311329404, -9322.331466952737, 17590.733479348837, 10804.945028417711, 13849.45378893063, -3510.40852193934, 13112.78499517262, -1713.7529508773032, -2055.9581584880543, 5440.973394033122, 40372.65960844274, 0.00778770512342453, 0.9784466972947121, -0.15819061827659608, 192.0, 0.0, 0.0, 0.0, 0.0, 0.0, 0.0, 0.0, 0.0, 0.0, 1.741806569188182E9, 0.0, 2025-03-12 14:09:29.188
76.0, 9162.941177241943, 11760.415048648721, 3816.0239238767535, 15681.179247043045, 5774.99786317323, 44681.07011092545, -9308.003998756885, 17592.745136349815, 10809.594191264414, 13849.36438195281, -3513.358952207441, 13112.02503586114, -1712.7918258657248, -2057.3663183887384, 5439.654641110259, 40377.73345443409, 0.00778770512342453, 0.9784466972947121, -0.15819061827659608, 192.0, 0.0, 0.0, 0.0, 0.0, 0.0, 0.0, 0.0, 0.0, 0.0, 1.741806569188241E9, 0.0, 2025-03-12 14:09:29.188
78.0, 9144.299822366218, 11758.403391647744, 3813.520528497759, 15655.519444408352, 5768.605264259013, 44661.668796738246, -9324.700751865, 17591.694604360415, 10807.80605170799, 13849.36438195281, -3504.284143958586, 13116.942419641307, -1711.3389624761298, -2058.8862370116994, 5445.868426068834, 40360.45555597014, 0.00778770512342453, 0.9784466972947121, -0.15819061827659608, 192.0, 0.0, 0.0, 0.0, 0.0, 0.0, 0.0, 0.0, 0.0, 0.0, 1.741806569188265E9, 0.0, 2025-03-12 14:09:29.188
80.0, 9158.783752773255, 11761.42087714921, 3822.66239197998, 15680.95572959849, 5777.925941696875, 44682.18769814822, -9311.13324298063, 17591.82871482715, 10808.566011019471, 13845.78810283996, -3522.701981389759, 13104.559553213066, -1708.0756077856552, -2050.236111907496, 5443.230920223108, 40380.46036725764, 0.006893852561712265, 0.977223348647356, -0.15709530913829806, 192.0, 0.0, 24.0, 15.0, 64.0, 125.5, 16.0, 0.0, 0.0, 0.0, 1.741806569188288E9, 0.0, 2025-03-12 14:09:29.188
82.0, 9145.95385145591, 11757.866949780817, 3812.939383141921, 15668.930491081535, 5771.801563716122, 44672.93407594372, -9322.733798352934, 17592.09693576061, 10809.705949986692, 13838.993172525546, -3507.480443415695, 13108.672274192844, -1709.1261397750545, -2046.2127979055404, 5455.74789711808, 40377.10760558934, 0.006893852561712265, 0.977223348647356, -0.15709530913829806, 192.0, 0.0, 0.0, 0.0, 0.0, 0.0, 0.0, 0.0, 0.0, 0.0, 1.741806569188312E9, 0.0, 2025-03-12 14:09:29.188
84.0, 9153.57579631517, 11758.76101955903, 3818.013229133276, 15671.456238204986, 5778.752956241722, 44671.168288131754, -9320.498623907402, 17588.230083969844, 10808.141327874819, 13835.372189923786, -3516.7117138757367, 13097.11642230945, -1711.3389624761298, -2067.536362115903, 5454.853827339867, 40382.159099836244, 0.006893852561712265, 0.977223348647356, -0.15709530913829806, 192.0, 0.0, 0.0, 0.0, 0.0, 0.0, 0.0, 0.0, 0.0, 0.0, 1.741806569188334E9, 0.0, 2025-03-12 14:09:29.188
86.0, 9148.658412535002, 11756.034106735482, 3803.3057812816837, 15647.942203038003, 5773.187371872351, 44649.040061121, -9324.209013486983, 17571.376868650543, 10811.203516865196, 13837.093274246845, -3502.920687546812, 13109.253419548682, -1711.271907242764, -2075.381824419716, 5444.460266168149, 40346.1727912632, 0.006893852561712265, 0.977223348647356, -0.15709530913829806, 192.0, 0.0, 0.0, 0.0, 0.0, 0.0, 0.0, 0.0, 0.0, 0.0, 1.741806569188357E9, 0.0, 2025-03-12 14:09:29.188
88.0, 9155.498046338325, 11756.61525209132, 3811.03948486322, 15659.76627585486, 5776.070746907085, 44662.11583162735, -9329.215804244972, 17591.96282529388, 10809.750653475601, 13831.728855577572, -3517.7622458651363, 13094.635378674911, -1714.1999857664093, -2084.6577983686684, 5437.888853298289, 40334.39342193525, 0.006893852561712265, 0.977223348647356, -0.15709530913829806, 192.0, 0.0, 0.0, 0.0, 0.0, 0.0, 0.0, 0.0, 0.0, 0.0, 1.741806569188384E9, 0.0, 2025-03-12 14:09:29.188
90.0, 9143.495159565826, 11750.982612488582, 3805.742121427312, 15661.353249711186, 5769.655796248412, 44659.61243624836, -9328.209975744483, 17576.115438475066, 10815.159775633785, 13839.350800436832, -3489.1743647067983, 13116.741253941209, -1710.7131136313812, -2070.106812728264, 5441.1522079887645, 40361.751957148546, 0.006446926280856132, 0.974611674323678, -0.15554765456914904, 192.0, 0.0, 24.0, 15.0, 48.0, 125.5, 24.0, 0.0, 0.0, 0.0, 1.74180656924835E9, 0.0, 2025-03-12 14:09:29.248
92.0, 9149.15015091302, 11750.177949688192, 3808.8937173955105, 15667.0976480362, 5773.209723616806, 44655.14208735729, -9320.74449309641, 17580.071697243657, 10809.482432542138, 13835.461596901609, -3512.9119173183344, 13099.418651988346, -1718.2232997683645, -2077.6840540986127, 5439.2746614545185, 40355.85109661235, 0.006446926280856132, 0.974611674323678, -0.15554765456914904, 192.0, 0.0, 0.0, 0.0, 0.0, 0.0, 0.0, 0.0, 0.0, 0.0, 1.741806569248387E9, 0.0, 2025-03-12 14:09:29.248
94.0, 9142.444627576426, 11746.042876963958, 3809.921897640455, 15681.268654020865, 5772.740336983245, 44668.75429973058, -9319.023408773352, 17591.649900871504, 10806.174374362752, 13842.345934193843, -3493.085919986477, 13117.232992319226, -1715.5857939226382, -2065.0329667369087, 5447.701269114169, 40368.63629444078, 0.006446926280856132, 0.974611674323678, -0.15554765456914904, 192.0, 0.0, 0.0, 0.0, 0.0, 0.0, 0.0, 0.0, 0.0, 0.0, 1.741806569248413E9, 0.0, 2025-03-12 14:09:29.248
96.0, 9141.595261287124, 11741.3713623728, 3805.652714449491, 15666.449447446998, 5772.874447449976, 44661.4899827826, -9318.062283761774, 17590.53231364874, 10792.964493389665, 13834.008733512013, -3526.635888413893, 13096.870553120441, -1726.0017068388113, -2071.9843592625093, 5439.587585876892, 40380.03568411299, 0.006446926280856132, 0.974611674323678, -0.15554765456914904, 192.0, 0.0, 0.0, 0.0, 0.0, 0.0, 0.0, 0.0, 0.0, 0.0, 1.741806569248439E9, 0.0, 2025-03-12 14:09:29.248
98.0, 9139.874176964066, 11742.556004828932, 3803.9539818708877, 15664.571900912752, 5772.226246860772, 44649.37533728783, -9324.298420464806, 17576.20484545289, 10796.831345180433, 13838.389675425253, -3507.413388182329, 13112.807346917076, -1720.212605024887, -2067.089327226797, 5441.688649855691, 40367.45165198465, 0.006446926280856132, 0.974611674323678, -0.15554765456914904, 192.0, 0.0, 0.0, 0.0, 0.0, 0.0, 0.0, 0.0, 0.0, 0.0, 1.741806569248464E9, 0.0, 2025-03-12 14:09:29.248
100.0, 9141.125874653564, 11749.08271420988, 3801.517641725259, 15655.608851386172, 5776.070746907085, 44653.488058267605, -9321.929135552542, 17586.844275813615, 10792.8974381563, 13831.393579410742, -3531.0168303271334, 13093.137811796405, -1728.013363839789, -2078.3993099211825, 5430.333963672396, 40333.432296923675, 0.007223463140428066, 0.971305837161839, -0.1557738272845745, 192.0, 0.0, 32.0, 15.0, 32.0, 125.5, 16.0, 0.0, 0.0, 0.0, 1.741806569248487E9, 0.0, 2025-03-12 14:09:29.248
102.0, 9144.18806364394, 11736.386923359267, 3803.5069469817818, 15668.19288351451, 5778.060052163608, 44668.08374739692, -9328.880528078143, 17580.96576702187, 10803.670978983759, 13842.07771326038, -3500.5514026345495, 13116.629495218933, -1715.3175729891746, -2057.3663183887384, 5443.990879534588, 40358.823878624906, 0.007223463140428066, 0.971305837161839, -0.1557738272845745, 192.0, 0.0, 0.0, 0.0, 0.0, 0.0, 0.0, 0.0, 0.0, 0.0, 1.74180656924851E9, 0.0, 2025-03-12 14:09:29.248
104.0, 9144.299822366218, 11737.638621048764, 3800.7129789248684, 15640.56612736775, 5777.903589952421, 44652.079898366916, -9316.810586072277, 17578.372964665054, 10788.695310198702, 13826.632657841761, -3528.8040076260577, 13088.01926231614, -1731.0308493412554, -2079.4051384216714, 5428.255251438052, 40326.27973869798, 0.007223463140428066, 0.971305837161839, -0.1557738272845745, 192.0, 0.0, 0.0, 0.0, 0.0, 0.0, 0.0, 0.0, 0.0, 0.0, 1.741806569307803E9, 0.0, 2025-03-12 14:09:29.307
106.0, 9150.625366047068, 11748.255699665035, 3807.37379877255, 15672.037383560824, 5781.681034765367, 44675.638637022814, -9318.218745972961, 17586.844275813615, 10799.714720215168, 13834.813396312404, -3507.212222482231, 13104.470146235246, -1714.6470206555155, -2077.6617023541576, 5453.847998839378, 40351.71602388812, 0.007223463140428066, 0.971305837161839, -0.1557738272845745, 192.0, 0.0, 0.0, 0.0, 0.0, 0.0, 0.0, 0.0, 0.0, 0.0, 1.741806569307832E9, 0.0, 2025-03-12 14:09:29.307
108.0, 9143.47280782137, 11751.407295633233, 3801.3164760251616, 15646.33287743722, 5772.650930005423, 44662.3393490719, -9324.410179187082, 17575.71310707487, 10804.341531317417, 13833.204070711623, -3518.2986877320636, 13097.921085109841, -1723.2524422708086, -2078.3099029433615, 5447.3212894584285, 40351.403099465744, 0.007223463140428066, 0.971305837161839, -0.1557738272845745, 192.0, 0.0, 0.0, 0.0, 0.0, 0.0, 0.0, 0.0, 0.0, 0.0, 1.741806569307856E9, 0.0, 2025-03-12 14:09:29.307
110.0, 9160.013098718298, 11754.04480147896, 3810.2571738072843, 15680.799267387303, 5776.7636509852, 44680.958352203175, -9320.543327396314, 17594.73444160634, 10813.170470377263, 13843.105893505322, -3498.606800866938, 13109.722806182242, -1718.3350584906411, -2066.5975888487806, 5450.450533682172, 40356.275779757, 0.006611731570214033, 0.9716529185809195, -0.15788691364228724, 192.0, 0.0, 24.0, 15.0, 48.0, 125.5, 0.0, 0.0, 0.0, 0.0, 1.741806569307879E9, 0.0, 2025-03-12 14:09:29.307
112.0, 9150.446552091427, 11759.18570270368, 3804.9374586269214, 15657.933432809525, 5766.683014235856, 44670.810660220464, -9324.901917565097, 17586.307833946685, 10815.249182611607, 13843.843501072348, -3503.1442049913653, 13106.884134636419, -1725.4876167163393, -2045.2293211495069, 5439.386420176795, 40359.2262100251, 0.006611731570214033, 0.9716529185809195, -0.15788691364228724, 192.0, 0.0, 0.0, 0.0, 0.0, 0.0, 0.0, 0.0, 0.0, 0.0, 1.741806569307917E9, 0.0, 2025-03-12 14:09:29.307
114.0, 9153.844017248633, 11761.08560098238, 3812.3805895305386, 15676.686546407527, 5772.874447449976, 44667.5920090189, -9339.028220060853, 17566.057153470178, 10818.579592535449, 13851.063114531413, -3494.2035072092426, 13113.455547506279, -1721.9336893479456, -2058.8862370116994, 5441.3310219444065, 40356.81222162393, 0.006611731570214033, 0.9716529185809195, -0.15788691364228724, 192.0, 0.0, 0.0, 0.0, 0.0, 0.0, 0.0, 0.0, 0.0, 0.0, 1.741806569307943E9, 0.0, 2025-03-12 14:09:29.307
116.0, 9147.876101479067, 11765.064211495426, 3813.6993424534016, 15662.314374722764, 5777.277741107672, 44665.33448282892, -9319.828071573744, 17589.548836892707, 10817.32789484595, 13850.97370755359, -3502.8089288245355, 13108.78403291512, -1723.207738781898, -2079.807469821867, 5438.469998654127, 40351.31369248792, 0.006611731570214033, 0.9716529185809195, -0.15788691364228724, 192.0, 0.0, 0.0, 0.0, 0.0, 0.0, 0.0, 0.0, 0.0, 0.0, 1.74180656930797E9, 0.0, 2025-03-12 14:09:29.307
118.0, 9152.480560836859, 11763.767810317018, 3818.460264022382, 15683.973215099957, 5780.965778942797, 44665.46859329565, -9320.520975651858, 17576.33895591962, 10818.333723346439, 13851.912480820714, -3494.516431631617, 13119.065835364561, -1719.2514800133085, -2060.093231212286, 5450.830513337912, 40352.096003543855, 0.006611731570214033, 0.9716529185809195, -0.15788691364228724, 192.0, 0.0, 0.0, 0.0, 0.0, 0.0, 0.0, 0.0, 0.0, 0.0, 1.741806569307996E9, 0.0, 2025-03-12 14:09:29.307
120.0, 9159.923691740476, 11765.243025451067, 3807.977295872843, 15666.33768872472, 5773.14266838344, 44666.0944421404, -9322.353818697193, 17586.263130457777, 10819.071330913464, 13853.432399443675, -3493.823527553502, 13121.703341210288, -1720.1679015359762, -2051.3089956413505, 5446.0248882800215, 40342.35064296134, 0.008305865785107017, 0.9708264592904597, -0.15794345682114364, 192.0, 0.0, 40.0, 15.0, 40.0, 125.5, 8.0, 0.0, 0.0, 0.0, 1.741806569367478E9, 0.0, 2025-03-12 14:09:29.367
122.0, 9162.71765979739, 11762.650223094251, 3824.584642003136, 15693.62916870465, 5779.3788050864705, 44681.874773725845, -9318.41991167306, 17583.089182745123, 10822.625258281858, 13856.829864600883, -3489.1073094734325, 13121.301009810091, -1719.8102736246913, -2062.0378329798978, 5444.348507445873, 40360.075576314404, 0.008305865785107017, 0.9708264592904597, -0.15794345682114364, 192.0, 0.0, 0.0, 0.0, 0.0, 0.0, 0.0, 0.0, 0.0, 0.0, 1.741806569367508E9, 0.0, 2025-03-12 14:09:29.367
124.0, 9150.781828258256, 11767.99229001907, 3809.385455773527, 15672.596177172207, 5772.963854427798, 44681.27127662555, -9313.03314125933, 17594.04153752822, 10818.847813468912, 13857.835693101371, -3491.2307251966868, 13119.222297575749, -1724.2135672823867, -2056.74046954399, 5442.001574278066, 40364.09889031636, 0.008305865785107017, 0.9708264592904597, -0.15794345682114364, 192.0, 0.0, 0.0, 0.0, 0.0, 0.0, 0.0, 0.0, 0.0, 0.0, 1.741806569367536E9, 0.0, 2025-03-12 14:09:29.367
126.0, 9157.129723683563, 11761.130304471291, 3817.4767872663488, 15697.227799561955, 5778.23886611925, 44692.31303838647, -9318.106987250685, 17588.252435714297, 10812.812842465979, 13854.818207599905, -3509.0003620386556, 13115.243687062704, -1726.046410327722, -2055.9358067435987, 5442.225091722619, 40372.65960844274, 0.008305865785107017, 0.9708264592904597, -0.15794345682114364, 192.0, 0.0, 0.0, 0.0, 0.0, 0.0, 0.0, 0.0, 0.0, 0.0, 1.741806569367559E9, 0.0, 2025-03-12 14:09:29.367
128.0, 9152.90524398151, 11763.968976017115, 3802.299952781195, 15677.29004350782, 5769.85696194851, 44679.03610218002, -9322.979667541942, 17594.10859276159, 10815.271534356063, 13855.779332611482, -3498.2938764445635, 13124.139681355917, -1725.0629335716885, -2049.7667252739343, 5441.129856244309, 40363.54009670497, 0.008305865785107017, 0.9708264592904597, -0.15794345682114364, 192.0, 0.0, 0.0, 0.0, 0.0, 0.0, 0.0, 0.0, 0.0, 0.0, 1.741806569367582E9, 0.0, 2025-03-12 14:09:29.367
130.0, 9158.135552184052, 11770.026298764504, 3812.7605691862786, 15699.306511796298, 5776.338967840549, 44687.77563426204, -9314.284838948828, 17586.62075836906, 10815.47270005616, 13857.656879145728, -3508.0168852826223, 13117.434158019323, -1731.9249191194679, -2053.611225320247, 5436.726562586613, 40363.763614149524, 0.008152932892553508, 0.9714132296452298, -0.15597172841057183, 192.0, 0.0, 32.0, 15.0, 48.0, 125.5, 24.0, 0.0, 0.0, 0.0, 1.741806569367605E9, 0.0, 2025-03-12 14:09:29.367
132.0, 9156.794447516733, 11763.343127172368, 3811.620630219058, 15681.91685461007, 5771.5109910382025, 44673.31405559946, -9322.219708230461, 17583.647976356504, 10818.892516957821, 13862.93189083718, -3485.5533821050385, 13126.911297668374, -1726.3593347500962, -2043.552940315359, 5445.2649289685405, 40363.67420717171, 0.008152932892553508, 0.9714132296452298, -0.15597172841057183, 192.0, 0.0, 0.0, 0.0, 0.0, 0.0, 0.0, 0.0, 0.0, 0.0, 1.741806569367628E9, 0.0, 2025-03-12 14:09:29.367
134.0, 9159.566063829192, 11764.99715626206, 3818.750836700301, 15689.650558191606, 5775.958988184809, 44675.75039574509, -9320.230402973939, 17582.664499600472, 10817.506708801593, 13855.131132022278, -3500.1714229788095, 13111.443890505301, -1730.3155935186855, -2041.0495449363643, 5437.844149809379, 40348.76559362002, 0.008152932892553508, 0.9714132296452298, -0.15597172841057183, 192.0, 0.0, 0.0, 0.0, 0.0, 0.0, 0.0, 0.0, 0.0, 0.0, 1.741806569427779E9, 0.0, 2025-03-12 14:09:29.427
136.0, 9150.357145113605, 11770.696851098162, 3816.13568259903, 15685.515485467373, 5774.148496883929, 44675.37041608935, -9321.929135552542, 17588.364194436574, 10821.23945012563, 13858.908576835225, -3482.8935245148573, 13127.179518601837, -1723.5653666931828, -2042.8823879816996, 5442.31449870044, 40356.789869879474, 0.008152932892553508, 0.9714132296452298, -0.15597172841057183, 192.0, 0.0, 0.0, 0.0, 0.0, 0.0, 0.0, 0.0, 0.0, 0.0, 1.741806569427819E9, 0.0, 2025-03-12 14:09:29.427
138.0, 9154.179293415464, 11770.428630164699, 3820.2260518343514, 15690.142296569622, 5775.757822484711, 44676.130375400826, -9314.910687793576, 17585.19024672392, 10815.09272040042, 13858.238024501567, -3506.7204841042144, 13117.143585341406, -1731.3214220191744, -2066.5975888487806, 5436.748914331069, 40349.100869786846, 0.008152932892553508, 0.9714132296452298, -0.15597172841057183, 192.0, 0.0, 0.0, 0.0, 0.0, 0.0, 0.0, 0.0, 0.0, 0.0, 1.741806569427845E9, 0.0, 2025-03-12 14:09:29.427
140.0, 9150.066572435686, 11770.830961564894, 3819.2202233338626, 15692.91391288208, 5772.919150938887, 44682.25475338158, -9323.60551638669, 17587.11249674708, 10819.026627424553, 13863.915367593214, -3481.9771029921894, 13134.935573927829, -1725.0182300827778, -2046.6598327946465, 5444.952004546167, 40353.03477681098, 0.006076466446276754, 0.9717066148226149, -0.15698586420528593, 192.0, 0.0, 16.0, 15.0, 48.0, 125.5, 8.0, 0.0, 0.0, 0.0, 1.741806569427871E9, 0.0, 2025-03-12 14:09:29.427
142.0, 9162.829418519666, 11769.892188297772, 3821.2542320792954, 15687.147162812611, 5770.23694160425, 44681.96418070367, -9323.672571620056, 17591.80636308269, 10811.80701396549, 13861.07669604739, -3507.8157195825247, 13117.814137675065, -1736.0599918436997, -2049.4314491071045, 5430.490425883583, 40350.55373317644, 0.006076466446276754, 0.9717066148226149, -0.15698586420528593, 192.0, 0.0, 0.0, 0.0, 0.0, 0.0, 0.0, 0.0, 0.0, 0.0, 1.741806569427895E9, 0.0, 2025-03-12 14:09:29.427
144.0, 9162.851770264122, 11776.731822101096, 3820.784845445734, 15696.1549158281, 5769.588741015046, 44696.58222157744, -9330.355743212192, 17592.834543327637, 10825.463929827683, 13869.235082773577, -3481.64182682536, 13130.152300614394, -1725.2864510162415, -2039.6860885245908, 5436.056010252954, 40357.28160825749, 0.006076466446276754, 0.9717066148226149, -0.15698586420528593, 192.0, 0.0, 0.0, 0.0, 0.0, 0.0, 0.0, 0.0, 0.0, 0.0, 1.741806569427921E9, 0.0, 2025-03-12 14:09:29.427
146.0, 9162.158866186008, 11777.938816301683, 3821.723618712857, 15687.683604679538, 5774.081441650563, 44694.235288409625, -9319.381036684637, 17585.927854290945, 10824.323990860461, 13870.21855952961, -3502.987742780178, 13117.344751041503, -1728.0357155842444, -2035.6851262670907, 5450.69640287118, 40379.76746317953, 0.006076466446276754, 0.9717066148226149, -0.15698586420528593, 192.0, 0.0, 0.0, 0.0, 0.0, 0.0, 0.0, 0.0, 0.0, 0.0, 1.741806569427944E9, 0.0, 2025-03-12 14:09:29.427
148.0, 9159.297842895729, 11777.536484901488, 3820.8742524235554, 15695.86434315018, 5773.3885375724485, 44695.017599465566, -9329.618135645167, 17584.229121712342, 10830.984810708143, 13877.684042177683, -3481.2394954251645, 13131.560460515078, -1721.173730036465, -2035.2157396335292, 5460.12883903132, 40371.47496598661, 0.006076466446276754, 0.9717066148226149, -0.15698586420528593, 192.0, 0.0, 0.0, 0.0, 0.0, 0.0, 0.0, 0.0, 0.0, 0.0, 1.741806569427967E9, 0.0, 2025-03-12 14:09:29.427
150.0, 9149.507778824303, 11769.087525497382, 3806.6138394610693, 15673.646709161605, 5768.359395070004, 44679.08080566893, -9332.859138591188, 17576.897749531003, 10818.490185557626, 13869.548007195952, -3507.7263126047033, 13107.264114292158, -1735.1659220654872, -2049.9455392295768, 5444.773190590524, 40360.99199783707, 0.005038233223138377, 0.9698533074113074, -0.15849293210264298, 192.0, 0.0, 16.0, 15.0, 32.0, 125.5, 0.0, 0.0, 0.0, 0.0, 1.741806569488024E9, 0.0, 2025-03-12 14:09:29.488
152.0, 9151.787656758745, 11758.872778281306, 3811.7100371968795, 15681.983909843435, 5772.42741256087, 44676.59976203439, -9328.455844933493, 17575.75781056378, 10815.025665167053, 13861.277861747487, -3494.538783376072, 13113.142623083904, -1733.4224859979734, -2042.5247600704147, 5440.995745777577, 40348.9220558312, 0.005038233223138377, 0.9698533074113074, -0.15849293210264298, 192.0, 0.0, 0.0, 0.0, 0.0, 0.0, 0.0, 0.0, 0.0, 0.0, 1.741806569488053E9, 0.0, 2025-03-12 14:09:29.488
154.0, 9138.018982174275, 11754.313022412423, 3805.9879906163205, 15665.108342779678, 5771.7121567383, 44669.491907297604, -9323.337295453226, 17575.064906485666, 10806.554354018494, 13848.202091241134, -3517.628135398404, 13093.428384474324, -1740.9326721349564, -2062.5072196134593, 5436.078361997409, 40346.55277091894, 0.005038233223138377, 0.9698533074113074, -0.15849293210264298, 192.0, 0.0, 0.0, 0.0, 0.0, 0.0, 0.0, 0.0, 0.0, 0.0, 1.741806569488075E9, 0.0, 2025-03-12 14:09:29.488
156.0, 9147.987860201343, 11758.582205603387, 3816.6944762104126, 15689.62820644715, 5780.406985331415, 44686.79215750601, -9313.658990104079, 17589.258264214786, 10810.778833720546, 13852.963012810114, -3499.545574134061, 13109.767509671154, -1731.567291208183, -2031.2594808649399, 5446.69544061368, 40352.65479715524, 0.005038233223138377, 0.9698533074113074, -0.15849293210264298, 192.0, 0.0, 0.0, 0.0, 0.0, 0.0, 0.0, 0.0, 0.0, 0.0, 1.741806569488108E9, 0.0, 2025-03-12 14:09:29.488
158.0, 9131.291107093228, 11754.000097990049, 3803.842223148611, 15663.76723811236, 5771.622749760479, 44669.73777648661, -9317.928173295042, 17583.491514145317, 10804.60975225088, 13852.82890234338, -3517.3375627204855, 13100.893867122397, -1737.5352069777498, -2074.1077749857636, 5440.973394033122, 40349.36909072031, 0.005038233223138377, 0.9698533074113074, -0.15849293210264298, 192.0, 0.0, 0.0, 0.0, 0.0, 0.0, 0.0, 0.0, 0.0, 0.0, 1.741806569488132E9, 0.0, 2025-03-12 14:09:29.488
160.0, 9146.28912762274, 11751.295536910957, 3813.587583731125, 15692.556284970795, 5774.684938750856, 44685.428701094235, -9326.310077465783, 17579.222330954355, 10803.246295839108, 13853.186530254667, -3505.9381730482787, 13108.001721859184, -1741.6032244686157, -2059.6014928342693, 5436.771266075524, 40352.0736517994, 0.0035191166115691886, 0.9699266537056537, -0.15924646605132148, 192.0, 0.0, 8.0, 15.0, 40.0, 125.5, 0.0, 0.0, 0.0, 0.0, 1.741806569488161E9, 0.0, 2025-03-12 14:09:29.488
162.0, 9132.945136182921, 11749.105065954336, 3793.694531165902, 15643.024819257835, 5765.85599969101, 44640.54639822798, -9324.946621054009, 17557.67524929944, 10804.162717361774, 13844.849329572837, -3513.381303951896, 13099.843335132997, -1745.3583175371073, -2072.006711006965, 5425.461283381139, 40325.76564857551, 0.0035191166115691886, 0.9699266537056537, -0.15924646605132148, 192.0, 0.0, 0.0, 0.0, 0.0, 0.0, 0.0, 0.0, 0.0, 0.0, 1.741806569488185E9, 0.0, 2025-03-12 14:09:29.488
164.0, 9143.025772932264, 11747.763961287017, 3805.4739004938488, 15678.161761541578, 5773.455592805814, 44666.56382877396, -9325.684228621034, 17578.082391987133, 10797.32308355845, 13843.754094094527, -3515.616478397427, 13099.910390366364, -1744.5760064811716, -2076.2088389645623, 5420.432140878695, 40312.44400888014, 0.0035191166115691886, 0.9699266537056537, -0.15924646605132148, 192.0, 0.0, 0.0, 0.0, 0.0, 0.0, 0.0, 0.0, 0.0, 0.0, 1.741806569548421E9, 0.0, 2025-03-12 14:09:29.548
166.0, 9131.42521755996, 11738.622097804797, 3802.210545803374, 15662.76140961187, 5771.354528827015, 44674.677512011236, -9317.79406282831, 17587.783049080736, 10792.875086411845, 13848.157387752222, -3517.2034522537533, 13104.06781483505, -1746.431201270962, -2054.6170538207357, 5436.190120719686, 40351.78307912148, 0.0035191166115691886, 0.9699266537056537, -0.15924646605132148, 192.0, 0.0, 0.0, 0.0, 0.0, 0.0, 0.0, 0.0, 0.0, 0.0, 1.741806569548462E9, 0.0, 2025-03-12 14:09:29.548
168.0, 9139.784769986245, 11749.105065954336, 3811.017133118765, 15693.942093127025, 5779.937598697853, 44694.101177942895, -9324.007847786886, 17589.124153748056, 10794.819688179456, 13846.25748947352, -3513.9177458188233, 13103.352559012481, -1744.2630820587972, -2055.8240480213226, 5438.425295165217, 40361.528439703994, 0.0035191166115691886, 0.9699266537056537, -0.15924646605132148, 192.0, 0.0, 0.0, 0.0, 0.0, 0.0, 0.0, 0.0, 0.0, 0.0, 1.741806569548489E9, 0.0, 2025-03-12 14:09:29.548
170.0, 9137.169615884974, 11753.307193911935, 3802.143490570008, 15665.465970690962, 5774.774345728677, 44674.31988409995, -9320.36451344067, 17573.72380181835, 10803.425109794749, 13849.766713353005, -3504.887641058879, 13108.560515470566, -1743.2349018138532, -2061.277873668417, 5434.357277674351, 40367.2281345401, 0.006759558305784594, 0.9689633268528268, -0.15962323302566073, 192.0, 0.0, 40.0, 15.0, 32.0, 125.5, 0.0, 0.0, 0.0, 0.0, 1.741806569548512E9, 0.0, 2025-03-12 14:09:29.548
172.0, 9142.556386298704, 11750.826150277395, 3809.4972144958037, 15689.24822679141, 5778.462383563803, 44684.22170689365, -9324.209013486983, 17573.81320879617, 10805.906153429289, 13850.906652320225, -3505.446434670262, 13109.16401257086, -1744.0842681031547, -2060.02617597892, 5440.526359144015, 40351.827782610395, 0.006759558305784594, 0.9689633268528268, -0.15962323302566073, 192.0, 0.0, 0.0, 0.0, 0.0, 0.0, 0.0, 0.0, 0.0, 0.0, 1.741806569548536E9, 0.0, 2025-03-12 14:09:29.548
174.0, 9130.978182670855, 11743.003039718038, 3798.1201765680526, 15661.465008433463, 5770.974549171276, 44672.59879977689, -9322.08559776373, 17575.556644863682, 10807.068444140965, 13850.705486620127, -3501.7136933462257, 13110.572172471544, -1747.6828989604592, -2051.4654578525374, 5436.368934675328, 40347.08921278587, 0.006759558305784594, 0.9689633268528268, -0.15962323302566073, 192.0, 0.0, 0.0, 0.0, 0.0, 0.0, 0.0, 0.0, 0.0, 0.0, 1.741806569548559E9, 0.0, 2025-03-12 14:09:29.548
176.0, 9143.226938632362, 11755.363554401822, 3809.3184005401613, 15688.980005857946, 5778.685901008356, 44690.61430580787, -9316.542365138814, 17583.62562461205, 10804.877973184344, 13850.280803475476, -3514.7447603636697, 13101.765585156154, -1748.8004861832246, -2028.6219750192138, 5436.525396886515, 40349.525552931496, 0.006759558305784594, 0.9689633268528268, -0.15962323302566073, 192.0, 0.0, 0.0, 0.0, 0.0, 0.0, 0.0, 0.0, 0.0, 0.0, 1.741806569548582E9, 0.0, 2025-03-12 14:09:29.548
178.0, 9135.649697262013, 11755.117685212814, 3800.7576824137786, 15665.421267202053, 5771.198066615828, 44676.04096842301, -9320.498623907402, 17578.462371642872, 10811.203516865196, 13853.588861654862, -3498.0256555111, 13114.84135566251, -1747.7946576827358, -2066.418774893138, 5440.615766121837, 40351.17958202119, 0.006759558305784594, 0.9689633268528268, -0.15962323302566073, 192.0, 0.0, 0.0, 0.0, 0.0, 0.0, 0.0, 0.0, 0.0, 0.0, 1.74180656954861E9, 0.0, 2025-03-12 14:09:29.548
180.0, 9140.723543253367, 11751.362592144322, 3808.9607726288764, 15686.275444778854, 5776.3836713294595, 44681.74066325911, -9316.251792460895, 17584.989081023825, 10803.916848172767, 13844.40229468373, -3512.800158596058, 13104.40309100188, -1751.1474193510319, -2065.547056859381, 5433.8208358074235, 40344.898741829245, 0.009379779152892297, 0.9704816634264134, -0.15881161651283038, 192.0, 0.0, 48.0, 15.0, 48.0, 125.5, 8.0, 0.0, 0.0, 0.0, 1.741806569608639E9, 0.0, 2025-03-12 14:09:29.608
182.0, 9125.9043366795, 11747.383981631277, 3803.3504847705944, 15674.607834173185, 5771.488639293747, 44674.945732944696, -9325.125435009651, 17575.71310707487, 10802.911019672278, 13846.950393551637, -3495.790481065569, 13119.73638769822, -1745.8053524262134, -2046.9280537281102, 5437.263004453541, 40344.02702379549, 0.009379779152892297, 0.9704816634264134, -0.15881161651283038, 192.0, 0.0, 0.0, 0.0, 0.0, 0.0, 0.0, 0.0, 0.0, 0.0, 1.741806569608676E9, 0.0, 2025-03-12 14:09:29.608
184.0, 9149.016040446288, 11752.144903200258, 3811.017133118765, 15681.648633676605, 5777.300092852127, 44676.4432998232, -9321.660914619079, 17571.063944228168, 10800.072348126454, 13846.324544706888, -3519.550385421561, 13102.816117145554, -1749.6722042169815, -2065.167077203641, 5427.160015959742, 40334.79575333545, 0.009379779152892297, 0.9704816634264134, -0.15881161651283038, 192.0, 0.0, 0.0, 0.0, 0.0, 0.0, 0.0, 0.0, 0.0, 0.0, 1.741806569608701E9, 0.0, 2025-03-12 14:09:29.608
186.0, 9133.347467583117, 11745.215862419112, 3807.3514470280943, 15669.198712014999, 5771.958025927309, 44670.29657009799, -9321.549155896802, 17567.420609881952, 10802.531040016538, 13850.325506964387, -3493.063568242022, 13119.244649320204, -1741.9608523799006, -2056.9192834996325, 5436.570100375427, 40336.427430680684, 0.009379779152892297, 0.9704816634264134, -0.15881161651283038, 192.0, 0.0, 0.0, 0.0, 0.0, 0.0, 0.0, 0.0, 0.0, 0.0, 1.741806569608727E9, 0.0, 2025-03-12 14:09:29.608
188.0, 9139.203624630407, 11741.930155984182, 3805.9879906163205, 15666.807075358282, 5767.219456102784, 44668.12845088583, -9332.032124046342, 17571.823903539647, 10791.109298599875, 13839.775483581483, -3517.985763309689, 13100.849163633486, -1751.1474193510319, -2065.211780692551, 5418.465187366627, 40319.037773494456, 0.009379779152892297, 0.9704816634264134, -0.15881161651283038, 192.0, 0.0, 0.0, 0.0, 0.0, 0.0, 0.0, 0.0, 0.0, 0.0, 1.741806569608754E9, 0.0, 2025-03-12 14:09:29.608
190.0, 9141.61761303158, 11747.607499075832, 3811.75474068579, 15677.848837119203, 5772.472116049781, 44684.48992782711, -9310.08271099123, 17581.792781566714, 10797.792470192013, 13848.894995319248, -3495.1646322208207, 13122.26213482167, -1743.9054541475123, -2050.0125944629426, 5424.321344413918, 40335.60041613584, 0.009689889576446148, 0.9742408317132067, -0.1574058082564152, 192.0, 0.0, 40.0, 15.0, 72.0, 125.5, 16.0, 0.0, 0.0, 0.0, 1.741806569608777E9, 0.0, 2025-03-12 14:09:29.608
192.0, 9150.603014302613, 11757.665784080718, 3809.273697051251, 15678.00529933039, 5775.176677128873, 44692.357741875385, -9311.267353447362, 17583.044479256212, 10797.32308355845, 13849.654954630729, -3512.8448620849686, 13110.438062004812, -1748.0628786161994, -2062.3060539133617, 5440.258138210552, 40356.02991056799, 0.009689889576446148, 0.9742408317132067, -0.1574058082564152, 192.0, 0.0, 0.0, 0.0, 0.0, 0.0, 0.0, 0.0, 0.0, 0.0, 1.7418065696088E9, 0.0, 2025-03-12 14:09:29.608
194.0, 9157.66616555049, 11762.873740538806, 3816.0015721322984, 15692.53393322634, 5776.249560862728, 44707.26635542707, -9300.113832964164, 17590.599368882104, 10808.18603136373, 13862.998946070546, -3484.4357948822735, 13134.533242527634, -1733.243672042331, -2044.5587688158475, 5445.063763268443, 40374.55950672144, 0.009689889576446148, 0.9742408317132067, -0.1574058082564152, 192.0, 0.0, 0.0, 0.0, 0.0, 0.0, 0.0, 0.0, 0.0, 0.0, 1.741806569668055E9, 0.0, 2025-03-12 14:09:29.668
196.0, 9150.535959069248, 11753.240138678568, 3809.4078075179827, 15674.317261495265, 5771.376880571471, 44694.25764015409, -9296.090518962208, 17587.581883380637, 10795.490240513116, 13854.88526283327, -3515.3706092084185, 13113.522602739646, -1742.363183780096, -2052.3371758862945, 5429.685763083192, 40363.83066938289, 0.009689889576446148, 0.9742408317132067, -0.1574058082564152, 192.0, 0.0, 0.0, 0.0, 0.0, 0.0, 0.0, 0.0, 0.0, 0.0, 1.741806569668084E9, 0.0, 2025-03-12 14:09:29.668
198.0, 9146.155017156008, 11760.169179459714, 3812.5146999972703, 15683.950863355501, 5772.695633494334, 44698.5491750895, -9289.340292136705, 17584.47499090135, 10798.843002181411, 13856.226367500589, -3495.9022397878457, 13126.151338356894, -1729.108599318099, -2032.4441233210712, 5438.26883295403, 40373.017236354026, 0.009689889576446148, 0.9742408317132067, -0.1574058082564152, 192.0, 0.0, 0.0, 0.0, 0.0, 0.0, 0.0, 0.0, 0.0, 0.0, 1.741806569668106E9, 0.0, 2025-03-12 14:09:29.668
200.0, 9165.19870343193, 11762.024374249504, 3811.307705796684, 15667.857607347682, 5770.2816450931605, 44682.67943652623, -9288.066242702753, 17582.95507227839, 10796.049034124499, 13852.40421919873, -3522.41140871184, 13106.168878813849, -1737.0434685997332, -2063.0436614803866, 5430.333963672396, 40365.84232638387, 0.008844944788223074, 0.9761204158566034, -0.1587029041282076, 192.0, 0.0, 32.0, 15.0, 72.0, 125.5, 0.0, 0.0, 0.0, 0.0, 1.741806569668129E9, 0.0, 2025-03-12 14:09:29.668
202.0, 9168.350299400128, 11771.90384529875, 3816.9626971438765, 15684.733174411438, 5773.746165483733, 44684.51227957157, -9280.511353076858, 17583.2009414674, 10810.063577897976, 13863.915367593214, -3490.806042052036, 13127.827719191042, -1719.7879218802361, -2047.3080333838504, 5437.263004453541, 40365.1270705613, 0.008844944788223074, 0.9761204158566034, -0.1587029041282076, 192.0, 0.0, 0.0, 0.0, 0.0, 0.0, 0.0, 0.0, 0.0, 0.0, 1.741806569668164E9, 0.0, 2025-03-12 14:09:29.668
204.0, 9162.918825497487, 11771.009775520537, 3812.581755230636, 15673.557302183784, 5766.727717724767, 44683.01471269306, -9281.07014668824, 17584.117362990066, 10810.04122615352, 13862.59661467035, -3510.5649841505274, 13113.902582395385, -1722.0677998146773, -2039.6637367801354, 5429.842225294379, 40365.261181028036, 0.008844944788223074, 0.9761204158566034, -0.1587029041282076, 192.0, 0.0, 0.0, 0.0, 0.0, 0.0, 0.0, 0.0, 0.0, 0.0, 1.74180656966819E9, 0.0, 2025-03-12 14:09:29.668
206.0, 9177.425107648982, 11791.014586808036, 3828.3844385605385, 15703.82156417627, 5774.394366072937, 44703.17598619175, -9275.951597207975, 17579.155275720987, 10827.721456017669, 13873.683079920183, -3488.5261641175944, 13136.142568128416, -1707.7403316188256, -2026.3420970847724, 5443.253271967563, 40403.639126257796, 0.008844944788223074, 0.9761204158566034, -0.1587029041282076, 192.0, 0.0, 0.0, 0.0, 0.0, 0.0, 0.0, 0.0, 0.0, 0.0, 1.741806569668215E9, 0.0, 2025-03-12 14:09:29.668
208.0, 9168.23854067785, 11791.57338041942, 3820.762493701279, 15671.679755649538, 5768.717022981289, 44675.61628527836, -9272.8894082176, 17575.57899660814, 10826.447406583717, 13875.247702032055, -3502.5183561466165, 13126.017227890163, -1707.7179798743703, -2054.8182195208337, 5444.16969349023, 40398.20765235516, 0.008844944788223074, 0.9761204158566034, -0.1587029041282076, 192.0, 0.0, 0.0, 0.0, 0.0, 0.0, 0.0, 0.0, 0.0, 0.0, 1.741806569668242E9, 0.0, 2025-03-12 14:09:29.668
210.0, 9180.241427450352, 11793.607389164852, 3834.1958921189184, 15708.850706678715, 5773.723813739278, 44700.538480346026, -9268.530818048814, 17575.467237885863, 10828.928450218255, 13876.432344488187, -3494.963466520723, 13130.93461167033, -1700.5877733931272, -2042.413001348138, 5444.7955423349795, 40400.01814365604, 0.006422472394111537, 0.9770602079283017, -0.16335145206410379, 192.0, 0.0, 16.0, 15.0, 72.0, 125.0, 96.0, 0.0, 0.0, 0.0, 1.741806569727799E9, 0.0, 2025-03-12 14:09:29.727
212.0, 9161.778886530266, 11783.414993693232, 3818.3038018111947, 15674.585482428729, 5766.079517135563, 44678.63377077982, -9284.534667078813, 17570.214577938867, 10824.927487960755, 13872.721954908606, -3510.6543911283484, 13120.16107084287, -1704.0522937837, -2048.1797514176073, 5447.41069643625, 40399.61581225584, 0.006422472394111537, 0.9770602079283017, -0.16335145206410379, 192.0, 0.0, 0.0, 0.0, 0.0, 0.0, 0.0, 0.0, 0.0, 0.0, 1.741806569727828E9, 0.0, 2025-03-12 14:09:29.727
214.0, 9188.779793832278, 11805.766738148539, 3838.554482287703, 15716.316189326786, 5778.28356960816, 44714.19539620822, -9270.341309349693, 17587.24660721381, 10828.548470562515, 13879.248664289555, -3505.2005654812538, 13126.039579634617, -1700.1854419929318, -2035.2157396335292, 5450.763458104546, 40421.81109449996, 0.006422472394111537, 0.9770602079283017, -0.16335145206410379, 192.0, 0.0, 0.0, 0.0, 0.0, 0.0, 0.0, 0.0, 0.0, 0.0, 1.741806569727851E9, 0.0, 2025-03-12 14:09:29.727
216.0, 9180.822572806188, 11806.392586993288, 3832.7653804737784, 15688.711784924482, 5772.785040472155, 44697.07395995545, -9270.363661094148, 17578.395316409507, 10840.529005590559, 13886.98236787109, -3492.415367652818, 13132.901565182396, -1690.887116299524, -2028.5102162969372, 5465.403850722772, 40436.45148711819, 0.006422472394111537, 0.9770602079283017, -0.16335145206410379, 192.0, 0.0, 0.0, 0.0, 0.0, 0.0, 0.0, 0.0, 0.0, 0.0, 1.741806569727873E9, 0.0, 2025-03-12 14:09:29.727
218.0, 9192.177258989484, 11805.610275937352, 3841.7731334892674, 15708.29191306733, 5775.936636440353, 44698.61623032287, -9270.274254116328, 17581.256339699787, 10838.62910731186, 13884.121344580812, -3494.158803720332, 13127.738312213221, -1692.6082006225827, -2033.964041944032, 5456.373745962828, 40416.60313804187, 0.006422472394111537, 0.9770602079283017, -0.16335145206410379, 192.0, 0.0, 0.0, 0.0, 0.0, 0.0, 0.0, 0.0, 0.0, 0.0, 1.741806569727896E9, 0.0, 2025-03-12 14:09:29.727
220.0, 9179.257950694317, 11802.972770091626, 3831.1560548729963, 15674.496075450907, 5768.493505536736, 44679.81841323595, -9282.478306588926, 17565.632470325527, 10839.612584067892, 13879.606292200839, -3488.995550751156, 13125.704303467788, -1690.730654088337, -2021.9611551715323, 5453.22214999463, 40397.15712036576, 0.006422472394111537, 0.9770602079283017, -0.16335145206410379, 192.0, 0.0, 0.0, 15.0, 48.0, 125.0, 104.0, 0.0, 0.0, 0.0, 1.741806569727919E9, 0.0, 2025-03-12 14:09:29.727
222.0, 9199.732148615378, 11805.81144163745, 3843.2483486233177, 15708.090747367234, 5777.009520174208, 44708.920384516765, -9273.515257062347, 17581.14458097751, 10843.837063769945, 13885.440097503675, -3491.5883531079717, 13126.307800568082, -1689.2330872098312, -2048.269158395429, 5450.405830193261, 40406.65661175926, 0.006422472394111537, 0.9770602079283017, -0.16335145206410379, 192.0, 0.0, 0.0, 0.0, 0.0, 0.0, 0.0, 0.0, 0.0, 0.0, 1.741806569727943E9, 0.0, 2025-03-12 14:09:29.727
224.0, 9183.8177065632, 11796.177839777212, 3820.650734979002, 15675.032517317835, 5768.091174136541, 44687.038026695016, -9287.909780491565, 17561.028010967733, 10840.99839222412, 13879.628643945294, -3483.362911148419, 13126.441911034814, -1689.791880821214, -2036.1992163895627, 5457.290167485496, 40407.46127455965, 0.006422472394111537, 0.9770602079283017, -0.16335145206410379, 192.0, 0.0, 0.0, 0.0, 0.0, 0.0, 0.0, 0.0, 0.0, 0.0, 1.741806569788013E9, 0.0, 2025-03-12 14:09:29.788
226.0, 9202.637875394568, 11807.979560849615, 3837.749819487312, 15700.133526341144, 5780.965778942797, 44699.64441056781, -9272.732946006412, 17578.28355768723, 10845.021706226076, 13875.940606110169, -3495.4999083876505, 13114.21550681776, -1693.5469738897054, -2049.923187485121, 5450.919920315733, 40394.1843383532, 0.006422472394111537, 0.9770602079283017, -0.16335145206410379, 192.0, 0.0, 0.0, 0.0, 0.0, 0.0, 0.0, 0.0, 0.0, 0.0, 1.741806569788054E9, 0.0, 2025-03-12 14:09:29.788
