%OpenBCI Raw EXG Data
%Number of channels = 16
%Sample Rate = 125 Hz
%Board = OpenBCI_GUI$BoardCytonSerialDaisy
Sample Index, EXG Channel 0, EXG Channel 1, EXG Channel 2, EXG Channel 3, EXG Channel 4, EXG Channel 5, EXG Channel 6, EXG Channel 7, EXG Channel 8, EXG Channel 9, EXG Channel 10, EXG Channel 11, EXG Channel 12, EXG Channel 13, EXG Channel 14, EXG Channel 15, Accel Channel 0, Accel Channel 1, Accel Channel 2, Not Used, Digital Channel 0 (D11), Digital Channel 1 (D12), Digital Channel 2 (D13), Digital Channel 3 (D17), Not Used, Digital Channel 4 (D18), Analog Channel 0, Analog Channel 1, Analog Channel 2, Timestamp, Marker Channel, Timestamp (Formatted)
254.0, 8043.051724797693, 16988.488076745045, 4049.376135990159, 16236.485986290692, -152.26008322955173, 35888.69850500805, -12537.04876149282, 19796.358918709626, 12688.995920299998, 9088.778089139234, -5156.569797583795, 16739.04260862382, -3743.3136991636397, -4223.563280530368, 2861.7832495907846, 38457.83036444549, 0.0, 0.0, 0.0, 192.0, 0.0, 0.0, 0.0, 0.0, 0.0, 0.0, 0.0, 0.0, 0.0, 1.741806002967433E9, 0.0, 2025-03-12 14:00:02.967
0.0, 8038.402561950989, 16972.484227715042, 4046.8503888667096, 16200.030291084087, -149.33200470590648, 35869.99009489895, -12542.949622029022, 19785.63008137108, 12680.03287077342, 9064.302928960673, -5156.1674661836, 16727.06207359577, -3739.3797921395058, -4250.988870977029, 2862.0738222687037, 38449.0237771301, 0.0, 0.0, 0.0, 192.0, 0.0, 0.0, 0.0, 0.0, 0.0, 0.0, 0.0, 0.0, 0.0, 1.741806002967461E9, 0.0, 2025-03-12 14:00:02.967
2.0, 8035.608593894076, 16970.74079164753, 4050.739592401933, 16217.755224437145, -159.61380715534773, 35877.05324614683, -12546.43649416405, 19782.590244125156, 12675.048431759888, 9071.857818586566, -5163.677652320583, 16720.26714328136, -3752.992004512788, -4324.906089890729, 2856.485886154877, 38438.29493979156, 0.014, 0.976, -0.168, 192.0, 0.0, 56.0, 15.0, 64.0, 125.0, 96.0, 0.0, 0.0, 0.0, 1.741806002967478E9, 0.0, 2025-03-12 14:00:02.967
4.0, 8037.195567750403, 16978.005108595506, 4043.22940626495, 16208.076919087998, -165.91699909174432, 35866.99496114194, -12547.285860453352, 19780.399773168538, 12679.496428906492, 9066.403992939471, -5158.290881906853, 16729.230192807936, -3757.3505946815726, -4290.082072029361, 2852.931958786483, 38435.99271011266, 0.014, 0.976, -0.168, 192.0, 0.0, 0.0, 0.0, 0.0, 0.0, 0.0, 0.0, 0.0, 0.0, 1.741806002967495E9, 0.0, 2025-03-12 14:00:02.967
6.0, 8038.559024162177, 16985.582349965855, 4054.584092448246, 16232.887355433388, -155.3669757088394, 35885.09987415074, -12545.877700552666, 19792.179142496487, 12679.27291146194, 9063.878245816022, -5165.443440132552, 16727.777329418343, -3753.1261149795196, -4275.441679411135, 2849.5344936292763, 38440.82068691501, 0.014, 0.976, -0.168, 192.0, 0.0, 0.0, 0.0, 0.0, 0.0, 0.0, 0.0, 0.0, 0.0, 1.741806002967511E9, 0.0, 2025-03-12 14:00:02.967
8.0, 8035.116855516059, 16994.970082637083, 4048.0797348117517, 16209.976817366698, -164.17356302423036, 35864.268048318394, -12553.67845936757, 19774.990651010354, 12684.07853651983, 9093.159031052475, -5150.7136405365045, 16747.26805058337, -3754.2884056911953, -4277.028653267462, 2849.981528518382, 38431.43295424378, 0.014, 0.976, -0.168, 192.0, 0.0, 0.0, 0.0, 0.0, 0.0, 0.0, 0.0, 0.0, 0.0, 1.741806002967526E9, 0.0, 2025-03-12 14:00:02.967
10.0, 8053.69115515842, 16999.6639489727, 4070.967921133986, 16238.475291547215, -153.31061521895114, 35881.94827818254, -12540.759151072401, 19793.922578563997, 12691.342853467806, 9103.664350946468, -5145.460980589507, 16749.5032250289, -3768.4594116758603, -4280.046138768928, 2850.093287240659, 38439.390175269866, 0.014, 0.976, -0.168, 192.0, 0.0, 0.0, 0.0, 0.0, 0.0, 0.0, 0.0, 0.0, 0.0, 1.741806002967542E9, 0.0, 2025-03-12 14:00:02.967
12.0, 8021.281125698224, 16992.623149469277, 4035.2721852388604, 16218.381073281895, -159.09971703287567, 35872.09115887775, -12557.880587325168, 19773.783656809766, 12685.531399909425, 9098.858725888578, -5140.454189831518, 16759.673268756065, -3725.678172788402, -4253.939301245129, 2856.798810577251, 38441.04420435956, 0.016, 0.974, -0.17200000000000001, 192.0, 0.0, 64.0, 15.0, 56.0, 125.0, 80.0, 0.0, 0.0, 0.0, 1.741806002967558E9, 0.0, 2025-03-12 14:00:02.967
14.0, 8039.855425340585, 16997.071146615883, 4034.6239846496564, 16229.44518678727, -165.4923159470935, 35882.64118226065, -12550.325697699272, 19786.613558127112, 12676.881274805222, 9090.99091184031, -5167.745669811448, 16734.63931496612, -3764.9948912852874, -4228.771236988454, 2833.6871068104633, 38432.7740589111, 0.016, 0.974, -0.17200000000000001, 192.0, 0.0, 0.0, 0.0, 0.0, 0.0, 0.0, 0.0, 0.0, 0.0, 1.741806002967574E9, 0.0, 2025-03-12 14:00:02.967
0.0, 4098.706436003022, 8144.081609735681, 2038.2108733905404, 8140.572385856198, -25.548043912415974, 18030.884031162743, -6200.530374113367, 9677.210113669647, 6347.627204373742, 4550.144618766859, -2569.422432115368, 8378.618464305218, -1888.23066809543, -2111.748112648501, 1428.097656738479, 19225.09303392089, 0.006, 0.968, -0.17200000000000001, 192.0, 0.0, 24.0, 15.0, 32.0, 125.0, 80.0, 0.0, 0.0, 0.0, 1.74180600307823E9, 0.0, 2025-03-12 14:00:03.078
2.0, 8184.426508477511, 16290.979539272732, 4067.7269181879665, 16260.424704602327, -50.403183746717424, 36058.258838446, -12387.202666664441, 19360.343439619952, 12410.31437043123, 9317.168213983561, -5162.336547653264, 16537.31811491467, -3589.466642077761, -4274.212333466093, 2999.917030324582, 38695.407056260956, 0.006, 0.968, -0.17200000000000001, 192.0, 0.0, 0.0, 0.0, 0.0, 0.0, 0.0, 0.0, 0.0, 0.0, 1.741806003137855E9, 0.0, 2025-03-12 14:00:03.137
4.0, 8148.261385948824, 16257.340163867495, 4039.004926562897, 16252.914518465344, -70.07271886738764, 36043.84196327233, -12419.389178680085, 19332.806090451013, 12393.081175456187, 9304.472423132947, -5183.078966507789, 16518.207373405385, -3565.572627255038, -4248.12784768675, 2992.608009887697, 38692.948364370866, 0.006, 0.968, -0.17200000000000001, 192.0, 0.0, 0.0, 0.0, 0.0, 0.0, 0.0, 0.0, 0.0, 0.0, 1.741806003137887E9, 0.0, 2025-03-12 14:00:03.137
6.0, 8191.914342870038, 16286.777411315134, 4048.683231912045, 16257.11664642294, -36.56745392888235, 36057.789451812445, -12390.130745188088, 19353.92848896128, 12378.239617137864, 9291.955446237975, -5195.662998636127, 16507.769108744753, -3558.867103918446, -4257.560283846889, 2978.012320758381, 38675.51400369573, 0.006, 0.968, -0.17200000000000001, 192.0, 0.0, 0.0, 0.0, 0.0, 0.0, 0.0, 0.0, 0.0, 0.0, 1.741806003137941E9, 0.0, 2025-03-12 14:00:03.137
8.0, 8197.882258639605, 16288.789068316111, 4064.7317844309555, 16287.447963648792, -33.16998877167568, 36074.53090840947, -12389.795469021257, 19362.869186743403, 12404.301751172752, 9314.240135459917, -5168.684443078571, 16530.500832855803, -3572.8145924585574, -4229.441789322113, 3000.140547769135, 38699.07274235162, -0.002, 0.972, -0.176, 192.0, 127.5, 120.0, 15.0, 48.0, 125.0, 64.0, 0.0, 0.0, 0.0, 1.741806003137957E9, 0.0, 2025-03-12 14:00:03.137
10.0, 8173.116525783125, 16270.594748329491, 4048.191493534028, 16257.094294678485, -51.40901224720624, 36053.386158154746, -12398.780870292292, 19347.379427835873, 12393.483506856384, 9308.786309812822, -5169.35499541223, 16527.5504025877, -3607.7503690422022, -4206.441844277602, 2987.377701685155, 38692.523681226216, -0.002, 0.972, -0.176, 192.0, 0.0, 0.0, 0.0, 0.0, 0.0, 0.0, 0.0, 0.0, 0.0, 1.741806003137974E9, 0.0, 2025-03-12 14:00:03.137
12.0, 8165.1816565014915, 16257.630736545414, 4036.389772461626, 16255.395562099882, -72.57611424638203, 36046.725338307064, -12417.757501334847, 19333.990732907147, 12377.25614038183, 9300.024425986341, -5195.662998636127, 16504.595161032103, -3584.28103736413, -4194.9306958831185, 2975.5759806127526, 38683.47122472182, -0.002, 0.972, -0.176, 192.0, 0.0, 0.0, 0.0, 0.0, 0.0, 0.0, 0.0, 0.0, 0.0, 1.74180600313799E9, 0.0, 2025-03-12 14:00:03.137
14.0, 8191.936694614494, 16279.893074022899, 4044.9728423324636, 16268.359573883961, -52.99598610353305, 36061.09750999183, -12400.144326704065, 19350.754541248625, 12386.867390497613, 9296.60460908468, -5180.128536239688, 16518.565001316667, -3585.7562524981804, -4223.853853208287, 2976.1347742241355, 38686.51106196774, -0.002, 0.972, -0.176, 192.0, 0.0, 0.0, 0.0, 0.0, 0.0, 0.0, 0.0, 0.0, 0.0, 1.741806003138006E9, 0.0, 2025-03-12 14:00:03.138
16.0, 8192.3837295036, 16282.441172890804, 4048.124438300662, 16271.131190196418, -59.030957106465955, 36050.68159707566, -12404.279399428297, 19338.461081798207, 12389.817820765713, 9308.048702245796, -5189.136289255177, 16519.07909143914, -3576.636740760415, -4296.049987798928, 2974.413689901077, 38683.024189832715, -0.002, 0.972, -0.176, 192.0, 0.0, 0.0, 0.0, 0.0, 0.0, 0.0, 0.0, 0.0, 0.0, 1.741806003198014E9, 0.0, 2025-03-12 14:00:03.198
18.0, 8161.381859944089, 16252.735704509701, 4018.798949575299, 16242.856233460456, -67.43521302166141, 36031.12382067726, -12430.095664274177, 19317.24927631012, 12389.124916687599, 9311.669684847557, -5173.7806408143815, 16530.277315411247, -3555.1120108499545, -4274.681720099655, 2977.8782102916493, 38676.720997896315, -0.002, 0.972, -0.176, 192.0, 0.0, 0.0, 15.0, 56.0, 125.0, 88.0, 0.0, 0.0, 0.0, 1.741806003198061E9, 0.0, 2025-03-12 14:00:03.198
20.0, 8183.2642177658345, 16263.55394882607, 4039.876644596654, 16254.54619581058, -50.89492212473418, 36046.50182086251, -12412.415434410028, 19329.945067160734, 12369.969471689401, 9287.283931646816, -5212.1138825552325, 16498.090803395608, -3605.9398777413226, -4160.464305933036, 2962.5002101063983, 38673.0776635501, -0.002, 0.972, -0.176, 192.0, 0.0, 0.0, 0.0, 0.0, 0.0, 0.0, 0.0, 0.0, 0.0, 1.741806003198079E9, 0.0, 2025-03-12 14:00:03.198
22.0, 8181.274912509312, 16263.911576737355, 4048.3032522563044, 16256.893128978389, -60.14854432923131, 36047.306483662906, -12419.053902513255, 19338.10345388692, 12383.179352662488, 9303.824222543744, -5177.69219609406, 16525.248172908803, -3606.833947519535, -4247.367888375269, 2972.8937712781158, 38674.68698915088, -0.002, 0.972, -0.176, 192.0, 0.0, 0.0, 0.0, 0.0, 0.0, 0.0, 0.0, 0.0, 0.0, 1.741806003198095E9, 0.0, 2025-03-12 14:00:03.198
24.0, 8190.863810880639, 16266.660841305358, 4059.0097378503965, 16255.104989421963, -57.712204183602836, 36054.2578761885, -12411.431957653995, 19347.245317369143, 12370.125933900588, 9288.848553758688, -5207.017684819422, 16504.30458835418, -3618.52390986966, -4284.427080682169, 2962.2096374284793, 38678.263268263734, -0.002, 0.972, -0.176, 192.0, 0.0, 0.0, 0.0, 0.0, 0.0, 0.0, 0.0, 0.0, 0.0, 1.741806003198141E9, 0.0, 2025-03-12 14:00:03.198
26.0, 8190.52853471381, 16274.573358842536, 4058.9650343614862, 16260.357649368962, -51.118439569287254, 36052.31327442089, -12412.88482104359, 19341.791491722048, 12399.540829603771, 9312.407292414582, -5153.038221959856, 16538.99449574882, -3586.337397854018, -4229.106513155283, 2984.8743063061606, 38692.0319428482, -0.003, 0.974, -0.175, 192.0, 127.5, 112.0, 15.0, 64.0, 125.0, 72.0, 0.0, 0.0, 0.0, 1.741806003198157E9, 0.0, 2025-03-12 14:00:03.198
28.0, 8166.701575124452, 16263.844521503988, 4031.2935747258157, 16242.275088104618, -57.22046580558608, 36033.448402100614, -12421.713760103436, 19336.337666074953, 12383.31346312922, 9299.867963775154, -5190.723263111504, 16514.049948936696, -3553.927368393823, -4287.444566183635, 2972.44673638901, 38670.909544337934, -0.003, 0.974, -0.175, 192.0, 0.0, 0.0, 0.0, 0.0, 0.0, 0.0, 0.0, 0.0, 0.0, 1.741806003198183E9, 0.0, 2025-03-12 14:00:03.198
30.0, 8175.843438606673, 16270.08065820702, 4050.5384267018353, 16263.084562192507, -66.25057056553014, 36042.187934182635, -12418.808033324247, 19332.40375905082, 12383.604035807139, 9301.521992864848, -5177.558085627328, 16526.94690548741, -3621.921375026867, -4284.516487659989, 2974.436041645532, 38669.23316350379, -0.003, 0.974, -0.175, 192.0, 0.0, 0.0, 0.0, 0.0, 0.0, 0.0, 0.0, 0.0, 0.0, 1.741806003198199E9, 0.0, 2025-03-12 14:00:03.198
32.0, 8173.9882438168825, 16272.338184397006, 4054.0923540702292, 16254.74736151068, -54.538256470949236, 36046.881800518255, -12412.057806498744, 19339.0645788985, 12390.06368995472, 9296.425795129036, -5181.894324051657, 16518.810870505677, -3611.930145255345, -4140.05716324534, 2982.817945816272, 38679.47026246432, -0.003, 0.974, -0.175, 192.0, 0.0, 0.0, 0.0, 0.0, 0.0, 0.0, 0.0, 0.0, 0.0, 1.741806003257592E9, 0.0, 2025-03-12 14:00:03.257
34.0, 8188.114546312636, 16280.02718448963, 4044.9281388435534, 16267.8901872504, -50.53729421344927, 36044.624274328264, -12422.674885115015, 19329.72154971618, 12392.902361500546, 9298.146879452095, -5167.432745389074, 16525.628152564546, -3555.335528294507, -4268.266769440981, 2987.824736574261, 38672.27300074971, -0.003, 0.974, -0.175, 192.0, 0.0, 0.0, 0.0, 0.0, 0.0, 0.0, 0.0, 0.0, 0.0, 1.741806003257624E9, 0.0, 2025-03-12 14:00:03.257
36.0, 8162.164171000025, 16271.444114618793, 4026.0856182677294, 16237.558870024548, -58.76273617300227, 36027.39107935323, -12432.375542208618, 19319.842078666938, 12390.846001010657, 9305.835879544722, -5174.518248381406, 16518.87792573904, -3543.89143513339, -4315.630115941777, 2978.504059136398, 38656.939704053366, -0.0085, 0.974, -0.1745, 192.0, 127.5, 72.0, 15.0, 56.0, 125.0, 72.0, 0.0, 0.0, 0.0, 1.74180600325764E9, 0.0, 2025-03-12 14:00:03.257
38.0, 8177.586874674186, 16281.323585668039, 4064.642377453134, 16276.003870487675, -56.3263960273738, 36056.42599540067, -12427.771082850824, 19336.73999747515, 12394.556390590238, 9319.246926217906, -5161.107201708222, 16539.41917889347, -3638.349907201518, -4240.952937716596, 2980.6498266041076, 38668.09322453657, -0.0085, 0.974, -0.1745, 192.0, 0.0, 0.0, 0.0, 0.0, 0.0, 0.0, 0.0, 0.0, 0.0, 1.741806003257657E9, 0.0, 2025-03-12 14:00:03.257
40.0, 8134.179786941981, 16249.248832374673, 4024.4092374335814, 16220.415082027326, -93.60910577882598, 36011.431933812135, -12457.811827398757, 19301.513648213586, 12370.394154834052, 9278.611454798158, -5186.923466554102, 16504.952788943385, -3657.080669055065, -4244.216292407071, 2946.183436654024, 38633.33626190857, -0.0085, 0.974, -0.1745, 192.0, 0.0, 0.0, 0.0, 0.0, 0.0, 0.0, 0.0, 0.0, 0.0, 1.741806003257673E9, 0.0, 2025-03-12 14:00:03.257
42.0, 8160.465438421422, 16280.004832745175, 4055.7463831599216, 16271.17589368533, -44.055288321410224, 36052.894419776734, -12418.137480990586, 19335.64476199684, 12382.665262540015, 9299.577391097235, -5167.365690155708, 16527.773920032254, -3610.790206288124, -4237.17549290365, 2968.8034020427945, 38652.44700341785, -0.0085, 0.974, -0.1745, 192.0, 0.0, 0.0, 0.0, 0.0, 0.0, 0.0, 0.0, 0.0, 0.0, 1.741806003257689E9, 0.0, 2025-03-12 14:00:03.257
44.0, 8168.534418169787, 16264.9397569823, 4036.635641650634, 16235.457806045748, -67.07758511037649, 36027.74870726451, -12429.961553807445, 19314.075328597468, 12384.073422440699, 9294.011806727864, -5169.265588434409, 16518.810870505677, -3594.2722671356523, -4219.562318272868, 2964.623625829652, 38648.28957894917, -0.0085, 0.974, -0.1745, 192.0, 0.0, 0.0, 0.0, 0.0, 0.0, 0.0, 0.0, 0.0, 0.0, 1.741806003257704E9, 0.0, 2025-03-12 14:00:03.257
46.0, 8186.5499242007645, 16269.208940173263, 4042.9611853314864, 16262.771637770134, -58.40510826171735, 36054.213172699594, -12434.566013165238, 19334.191898607245, 12378.68665202697, 9286.680434546523, -5171.657225091127, 16515.07812918164, -3574.222752359242, -4198.104643595772, 2955.951148980993, 38646.92612253739, -0.01025, 0.973, -0.17525, 192.0, 127.5, 80.0, 15.0, 48.0, 125.0, 64.0, 0.0, 0.0, 0.0, 1.741806003317355E9, 0.0, 2025-03-12 14:00:03.317
48.0, 8144.640403347064, 16267.621966316936, 4014.3509524286933, 16235.92719267931, -67.54697174393795, 36026.13938166373, -12431.50382417486, 19314.321197786474, 12384.654567796537, 9310.865022047165, -5176.440498404562, 16521.76130077378, -3567.450173789284, -4309.192813538649, 2967.596407842208, 38659.30898896563, -0.01025, 0.973, -0.17525, 192.0, 0.0, 0.0, 0.0, 0.0, 0.0, 0.0, 0.0, 0.0, 0.0, 1.741806003317395E9, 0.0, 2025-03-12 14:00:03.317
50.0, 8162.119467511114, 16254.322678366028, 4010.707618082478, 16244.398503827872, -79.79572770544621, 36022.36193685078, -12451.41922848454, 19304.933465115246, 12366.706116998927, 9279.12554492063, -5200.9603620720345, 16498.157858628972, -3587.4102815878728, -4308.969296094096, 2947.3010238767893, 38638.49951487774, -0.01025, 0.973, -0.17525, 192.0, 0.0, 0.0, 0.0, 0.0, 0.0, 0.0, 0.0, 0.0, 0.0, 1.741806003317439E9, 0.0, 2025-03-12 14:00:03.317
52.0, 8184.76178464434, 16289.817248561056, 4069.7162234444886, 16263.755114526168, -45.19522728863088, 36055.3084081779, -12407.185126207487, 19347.11120690241, 12390.130745188088, 9301.052606231286, -5164.9740534989905, 16520.487251339826, -3586.7620809986693, -4222.579803774333, 2975.1289457236467, 38669.32257048161, -0.01025, 0.973, -0.17525, 192.0, 0.0, 0.0, 0.0, 0.0, 0.0, 0.0, 0.0, 0.0, 0.0, 1.741806003317455E9, 0.0, 2025-03-12 14:00:03.317
54.0, 8176.8045636182505, 16277.590844344002, 4047.6550516671005, 16268.091352950498, -40.65782316420355, 36054.4590418886, -12423.770120593324, 19332.58257300646, 12392.142402189065, 9303.801870799289, -5168.930312267579, 16519.481422839337, -3571.2946738355968, -4231.542853300912, 2977.8335068027386, 38674.88815485098, -0.01025, 0.973, -0.17525, 192.0, 0.0, 0.0, 0.0, 0.0, 0.0, 0.0, 0.0, 0.0, 0.0, 1.741806003317471E9, 0.0, 2025-03-12 14:00:03.317
56.0, 8169.428487947999, 16278.127286210929, 4046.0233743218632, 16244.510262550148, -56.795782660935245, 36033.96249222309, -12424.060693271244, 19321.563162989994, 12390.443669610462, 9312.072016247752, -5164.661129076616, 16526.477518853848, -3601.625991061448, -4240.662365038677, 2970.189210199024, 38665.50042217975, -0.011125, 0.9715, -0.173625, 192.0, 127.5, 80.0, 15.0, 40.0, 125.0, 80.0, 0.0, 0.0, 0.0, 1.741806003317487E9, 0.0, 2025-03-12 14:00:03.317
58.0, 8189.992092846882, 16284.609292102969, 4058.786220405844, 16263.375134870426, -58.58392221735981, 36043.48433536105, -12420.685579858493, 19329.565087504994, 12392.410623122529, 9310.105062735685, -5166.40456514413, 16520.599010062102, -3611.4160551328728, -4296.653484899221, 2966.3894136416216, 38655.10686100803, -0.011125, 0.9715, -0.173625, 192.0, 0.0, 0.0, 0.0, 0.0, 0.0, 0.0, 0.0, 0.0, 0.0, 1.741806003317504E9, 0.0, 2025-03-12 14:00:03.317
60.0, 8161.963005299927, 16266.772600027634, 4024.4092374335814, 16227.634695486391, -83.5508207739378, 36020.3502798498, -12451.709801162458, 19301.245427280122, 12391.874181255602, 9304.114795221663, -5156.97212898399, 16525.583449075635, -3595.993351458711, -4282.214257981093, 2967.797573542306, 38655.73270985278, -0.011125, 0.9715, -0.173625, 192.0, 0.0, 0.0, 0.0, 0.0, 0.0, 0.0, 0.0, 0.0, 0.0, 1.741806003317519E9, 0.0, 2025-03-12 14:00:03.317
62.0, 8171.4624966934325, 16286.017452003653, 4038.915519585076, 16260.804684258066, -47.966843601088954, 36052.49208837654, -12424.17245199352, 19330.10152937192, 12380.184218905475, 9285.898123490588, -5181.514344395918, 16502.181172630928, -3557.503647506672, -4256.934435002141, 2955.7723350253505, 38645.339148681065, -0.011125, 0.9715, -0.173625, 192.0, 0.0, 0.0, 0.0, 0.0, 0.0, 0.0, 0.0, 0.0, 0.0, 1.741806003377684E9, 0.0, 2025-03-12 14:00:03.377
64.0, 8171.797772860262, 16274.282786164616, 4037.7755806178548, 16237.760035724645, -69.11159385580943, 36030.386213110236, -12437.851719600169, 19309.984959362147, 12395.137535946076, 9302.281952176327, -5157.575626084284, 16529.60676307759, -3598.9437817268113, -4223.987963675018, 2979.1746114700572, 38663.019378545214, -0.011125, 0.9715, -0.173625, 192.0, 0.0, 0.0, 0.0, 0.0, 0.0, 0.0, 0.0, 0.0, 0.0, 1.741806003377714E9, 0.0, 2025-03-12 14:00:03.377
66.0, 8173.47415369441, 16281.591806601502, 4049.8455226237206, 16253.540367310092, -60.819096662890516, 36044.154887694705, -12430.542699163283, 19319.462099011194, 12390.220152165908, 9298.683321319024, -5169.5561611123285, 16510.428966334937, -3650.8445323520345, -4219.0482281503955, 2961.092050205714, 38655.5762476416, -0.0095625, 0.96975, -0.1718125, 192.0, 127.5, 96.0, 15.0, 32.0, 125.0, 88.0, 0.0, 0.0, 0.0, 1.741806003377731E9, 0.0, 2025-03-12 14:00:03.377
68.0, 8169.383784459089, 16285.346899669994, 4039.7425341299218, 16251.484006820203, -60.014433862499466, 36035.99650096852, -12441.383295224106, 19312.68952044124, 12393.416451623018, 9315.51418489387, -5154.356974882719, 16532.065454967673, -3611.1254824549537, -4225.262013108971, 2970.725652065951, 38659.62191338801, -0.0095625, 0.96975, -0.1718125, 192.0, 0.0, 0.0, 0.0, 0.0, 0.0, 0.0, 0.0, 0.0, 0.0, 1.741806003377772E9, 0.0, 2025-03-12 14:00:03.377
70.0, 8158.90081630955, 16273.187550686307, 4012.249888449894, 16251.819282987033, -63.47895425307206, 36037.31525389138, -12437.181167266508, 19325.899401414325, 12379.871294483102, 9298.862135274665, -5184.353015941741, 16511.546553557702, -3597.3568078704848, -4293.434833697657, 2953.2018844129902, 38648.55779988263, -0.0095625, 0.96975, -0.1718125, 192.0, 0.0, 0.0, 0.0, 0.0, 0.0, 0.0, 0.0, 0.0, 0.0, 1.741806003377788E9, 0.0, 2025-03-12 14:00:03.377
72.0, 8127.742484538852, 16261.251719147172, 4023.60457463319, 16251.014620186643, -57.30987278340731, 36031.213227655084, -12439.371638223129, 19315.48348849815, 12390.130745188088, 9310.46269064697, -5155.966300483501, 16536.98283874784, -3549.9711096252336, -4241.6011383058, 2978.63816960313, 38667.66854139192, -0.0095625, 0.96975, -0.1718125, 192.0, 0.0, 0.0, 0.0, 0.0, 0.0, 0.0, 0.0, 0.0, 0.0, 1.741806003377804E9, 0.0, 2025-03-12 14:00:03.377
74.0, 8164.466400678922, 16280.094239722997, 4052.5053802139023, 16264.425666859826, -58.15923907270898, 36051.41920464268, -12424.686542115993, 19340.62920101037, 12350.814026691203, 9273.35879485116, -5218.953516358557, 16491.273521336738, -3643.9378433153447, -4252.061754710884, 2944.2835383753227, 38635.28086367618, -0.0095625, 0.96975, -0.1718125, 192.0, 0.0, 0.0, 0.0, 0.0, 0.0, 0.0, 0.0, 0.0, 0.0, 1.741806003377827E9, 0.0, 2025-03-12 14:00:03.377
76.0, 8151.457685405932, 16282.284710679616, 4047.5432929448243, 16278.08258272202, -50.93962561364479, 36060.04697800243, -12425.22298398292, 19337.142328875343, 12407.11807097412, 9341.598670673213, -5131.714657749493, 16565.90599607301, -3575.273284348641, -4243.79160926242, 3003.3591989706993, 38692.47897773731, -0.00778125, 0.967875, -0.17090625, 192.0, 127.5, 104.0, 15.0, 24.0, 125.0, 88.0, 0.0, 0.0, 0.0, 1.741806003437803E9, 0.0, 2025-03-12 14:00:03.437
78.0, 8184.672377666519, 16290.778373572633, 4054.0923540702292, 16268.40427737287, -52.571302958882214, 36054.771966310975, -12424.284210715798, 19335.2647823411, 12388.566123076216, 9306.618190600657, -5165.8010680438365, 16529.472652610857, -3611.348999899507, -4215.650762993188, 2972.2232189444567, 38667.60148615855, -0.00778125, 0.967875, -0.17090625, 192.0, 0.0, 0.0, 0.0, 0.0, 0.0, 0.0, 0.0, 0.0, 0.0, 1.741806003437849E9, 0.0, 2025-03-12 14:00:03.437
80.0, 8149.513083638321, 16283.290539180105, 4021.8164350767656, 16276.607367587969, -55.11940182678722, 36055.77779481147, -12433.381370709107, 19332.53786951755, 12388.87904749859, 9315.22361221595, -5154.491085349451, 16543.733065573342, -3615.1264447124536, -4246.138542430227, 2979.0628527477807, 38671.28952399368, -0.00778125, 0.967875, -0.17090625, 192.0, 0.0, 0.0, 0.0, 0.0, 0.0, 0.0, 0.0, 0.0, 0.0, 1.741806003437866E9, 0.0, 2025-03-12 14:00:03.437
82.0, 8162.790019844773, 16277.054402477075, 4046.0457260663184, 16256.624908044925, -70.16212584520888, 36034.87891374575, -12443.484359202905, 19317.003407121112, 12376.183256647975, 9317.190565728017, -5183.347187441253, 16528.13154794354, -3604.8446422630122, -4293.4795371865675, 2961.069698461258, 38655.688006363875, -0.00778125, 0.967875, -0.17090625, 192.0, 0.0, 0.0, 0.0, 0.0, 0.0, 0.0, 0.0, 0.0, 0.0, 1.741806003437881E9, 0.0, 2025-03-12 14:00:03.437
84.0, 8174.256464750346, 16274.841579775999, 4043.542330687324, 16269.320698895539, -60.081489095865386, 36052.22386744307, -12448.737019149903, 19325.698235714226, 12391.047166710756, 9309.03217900183, -5150.624233558683, 16536.75932130329, -3600.4413486053168, -4155.636329130689, 2973.20669570049, 38665.679236135395, -0.00778125, 0.967875, -0.17090625, 192.0, 0.0, 0.0, 0.0, 0.0, 0.0, 0.0, 0.0, 0.0, 0.0, 1.741806003437896E9, 0.0, 2025-03-12 14:00:03.437
86.0, 8159.0796302651925, 16283.156428713373, 4036.970917817464, 16255.17204465533, -59.54504722893802, 36039.34926263682, -12443.953745836467, 19323.664226968795, 12378.932521215978, 9305.388844655616, -5177.759251327426, 16521.336617629127, -3596.3286276255403, -4318.088807831861, 2945.53523606482, 38640.84644804555, -0.004890625, 0.9679375, -0.17345312499999999, 192.0, 127.5, 120.0, 15.0, 32.0, 125.0, 64.0, 0.0, 0.0, 0.0, 1.741806003437912E9, 0.0, 2025-03-12 14:00:03.437
88.0, 8159.973700043404, 16280.451867634281, 4037.619118406668, 16278.328451911028, -47.810381389901806, 36056.04601574493, -12436.421207955029, 19326.279381070064, 12385.660396297026, 9314.262487204373, -5162.895341264647, 16540.916745771974, -3582.6270082744372, -4233.1968823906045, 2968.5798845982417, 38656.0232825307, -0.004890625, 0.9679375, -0.17345312499999999, 192.0, 0.0, 0.0, 0.0, 0.0, 0.0, 0.0, 0.0, 0.0, 0.0, 1.741806003437928E9, 0.0, 2025-03-12 14:00:03.437
90.0, 8122.758045525318, 16265.587957571503, 4015.7591123293773, 16243.437378816294, -59.500343740027404, 36032.129649177754, -12442.746751635881, 19317.226924565664, 12376.40677409253, 9305.388844655616, -5188.018702032412, 16526.45516710939, -3572.7251854807364, -4232.436923079124, 2963.5060386068867, 38649.541276638665, -0.004890625, 0.9679375, -0.17345312499999999, 192.0, 0.0, 0.0, 0.0, 0.0, 0.0, 0.0, 0.0, 0.0, 0.0, 1.741806003437944E9, 0.0, 2025-03-12 14:00:03.437
92.0, 8170.90370308205, 16270.214768673752, 4029.2372142359277, 16271.287652407605, -38.75792488550245, 36050.05574823091, -12431.50382417486, 19333.20842185121, 12375.490352569861, 9307.422853401047, -5178.921542039102, 16529.070321210664, -3546.4171822568396, -4280.359063191302, 2975.978312012948, 38657.0738145201, -0.004890625, 0.9679375, -0.17345312499999999, 192.0, 0.0, 0.0, 0.0, 0.0, 0.0, 0.0, 0.0, 0.0, 0.0, 1.741806003498203E9, 0.0, 2025-03-12 14:00:03.498
94.0, 8157.649118620053, 16266.07969594952, 4025.571528145257, 16246.253698617662, -76.89000092625629, 36041.919713249175, -12449.519330205838, 19324.379482791363, 12362.30282334123, 9286.501620590881, -5187.50461190994, 16509.333730856626, -3673.3750907629837, -4290.126775518272, 2950.653785545085, 38641.78522131267, -0.004890625, 0.9679375, -0.17345312499999999, 192.0, 0.0, 0.0, 0.0, 0.0, 0.0, 0.0, 0.0, 0.0, 0.0, 1.741806003498235E9, 0.0, 2025-03-12 14:00:03.498
96.0, 8158.051450020248, 16269.924195995833, 4029.5948421472126, 16273.925158253332, -67.30110255492957, 36061.142213480736, -12448.535853449805, 19332.426110795273, 12376.607939792626, 9301.11966146465, -5170.0702512348, 16524.04117870822, -3629.2303954637523, -4237.421362092658, 2962.075526961747, 38660.225410488296, -0.004890625, 0.9679375, -0.17345312499999999, 192.0, 0.0, 0.0, 15.0, 32.0, 125.0, 64.0, 0.0, 0.0, 0.0, 1.741806003498274E9, 0.0, 2025-03-12 14:00:03.498
98.0, 8160.286624465779, 16281.435344390315, 4028.454903179992, 16256.35668711146, -50.514942468993965, 36057.87885879027, -12428.12871076211, 19338.237564353654, 12384.274588140797, 9310.41798715806, -5172.752460569437, 16532.691303812422, -3591.9923892012107, -4247.010260463984, 2970.815059043772, 38665.94745706886, -0.004890625, 0.9679375, -0.17345312499999999, 192.0, 0.0, 0.0, 0.0, 0.0, 0.0, 0.0, 0.0, 0.0, 0.0, 1.741806003498291E9, 0.0, 2025-03-12 14:00:03.498
100.0, 8164.645214634564, 16280.518922867648, 4027.0467432793075, 16270.8406175185, -50.44788723562804, 36057.8118035569, -12440.22100451243, 19333.20842185121, 12373.92573045799, 9293.65417881658, -5178.876838550191, 16521.493079840315, -3595.702778780792, -4222.199824118594, 2964.4895153629204, 38652.2234859733, -0.004890625, 0.9679375, -0.17345312499999999, 192.0, 0.0, 0.0, 0.0, 0.0, 0.0, 0.0, 0.0, 0.0, 0.0, 1.741806003498307E9, 0.0, 2025-03-12 14:00:03.498
102.0, 8131.050542718237, 16263.93392848181, 4025.8173973342655, 16235.726026979213, -69.11159385580943, 36023.099544417804, -12454.727286663925, 19310.364939017887, 12376.11620141461, 9303.913629521565, -5170.78550705737, 16531.327847400647, -3581.37531058494, -4282.348368447825, 2962.63432057313, 38639.5723986116, -0.004890625, 0.9679375, -0.17345312499999999, 192.0, 0.0, 0.0, 0.0, 0.0, 0.0, 0.0, 0.0, 0.0, 0.0, 1.741806003498322E9, 0.0, 2025-03-12 14:00:03.498
104.0, 8158.319670953712, 16282.59763510199, 4046.5374644443355, 16269.432457617815, -42.133038298253815, 36049.42989938616, -12442.590289424694, 19327.151099103823, 12368.0695734107, 9301.186716698017, -5174.227675703487, 16524.868193253064, -3585.622142031448, -4291.356121463314, 2958.2757304043453, 38634.09622122005, -0.004890625, 0.9679375, -0.17345312499999999, 192.0, 0.0, 0.0, 0.0, 0.0, 0.0, 0.0, 0.0, 0.0, 0.0, 1.741806003498338E9, 0.0, 2025-03-12 14:00:03.498
106.0, 8146.674412092497, 16263.375134870426, 4030.198339247506, 16236.463634546237, -76.9347044151669, 36028.151038664706, -12475.201484584986, 19304.68759592624, 12365.230901864876, 9297.342216651705, -5169.0867744787665, 16529.919687499965, -3627.5540146296044, -4279.576752135366, 2951.0337652008257, 38625.53550309366, -0.0044453125, 0.9669687499999999, -0.1767265625, 192.0, 127.5, 112.0, 15.0, 24.0, 125.0, 48.0, 0.0, 0.0, 0.0, 1.741806003558397E9, 0.0, 2025-03-12 14:00:03.558
108.0, 8148.864883049117, 16280.273053678638, 4044.9728423324636, 16271.421762874337, -51.09608782483195, 36054.70491107761, -12444.713705147948, 19326.860526425902, 12370.572968789695, 9297.342216651705, -5169.667919834605, 16524.55526883069, -3601.1566044278866, -4227.608946276778, 2954.1406576801132, 38635.973767754294, -0.0044453125, 0.9669687499999999, -0.1767265625, 192.0, 0.0, 0.0, 0.0, 0.0, 0.0, 0.0, 0.0, 0.0, 0.0, 1.741806003558439E9, 0.0, 2025-03-12 14:00:03.558
110.0, 8162.611205889131, 16282.88820777991, 4049.1749702900615, 16270.706507051767, -49.15148605722023, 36053.76613781049, -12438.410513211551, 19324.982979891658, 12378.574893304694, 9304.025388243841, -5149.573701569284, 16543.42014115097, -3583.1634501413646, -4228.458312566079, 2974.7713178123618, 38646.92612253739, -0.0044453125, 0.9669687499999999, -0.1767265625, 192.0, 0.0, 0.0, 0.0, 0.0, 0.0, 0.0, 0.0, 0.0, 0.0, 1.741806003558456E9, 0.0, 2025-03-12 14:00:03.558
112.0, 8147.523778381798, 16272.762867541656, 4042.000060319908, 16264.850350004477, -64.82005892039048, 36048.22290518557, -12453.006202340866, 19315.215267564687, 12370.237692622864, 9299.644446330602, -5165.778716299381, 16525.650504309, -3606.0292847191436, -4243.992774962518, 2960.06386996077, 38636.957244510326, -0.0044453125, 0.9669687499999999, -0.1767265625, 192.0, 0.0, 0.0, 0.0, 0.0, 0.0, 0.0, 0.0, 0.0, 0.0, 1.741806003558472E9, 0.0, 2025-03-12 14:00:03.558
114.0, 8143.388705657567, 16272.65110881938, 4030.354801458693, 16250.634640530901, -52.41484074769506, 36038.72341379207, -12445.9877545819, 19308.465040739185, 12366.214378620909, 9305.210030699973, -5165.30932966582, 16534.993533491317, -3593.177031657342, -4257.023841979962, 2960.466201360965, 38622.5180175922, -0.0044453125, 0.9669687499999999, -0.1767265625, 192.0, 0.0, 0.0, 0.0, 0.0, 0.0, 0.0, 0.0, 0.0, 0.0, 1.741806003558516E9, 0.0, 2025-03-12 14:00:03.558
116.0, 8163.415868689522, 16280.094239722997, 4027.538481657324, 16267.59961457248, -59.098012339831875, 36057.007140756505, -12449.966365094944, 19320.579686233963, 12368.002518177334, 9298.236286429918, -5170.919617524102, 16521.649542051502, -3609.42674987635, -4275.46403115559, 2952.017241956859, 38622.85329375903, -0.00722265625, 0.964484375, -0.17636328125, 192.0, 127.5, 88.0, 15.0, 8.0, 125.0, 64.0, 0.0, 0.0, 0.0, 1.741806003558532E9, 0.0, 2025-03-12 14:00:03.558
118.0, 8146.361487670123, 16269.678326806823, 4037.03797305083, 16249.651163774868, -61.33318678536258, 36035.214189912585, -12456.448370986984, 19296.216284777678, 12372.986957190868, 9290.502582848381, -5154.960471983012, 16528.422120621457, -3590.6289327894374, -4242.495208084012, 2957.8063437707838, 38627.1671804389, -0.00722265625, 0.964484375, -0.17636328125, 192.0, 0.0, 0.0, 0.0, 0.0, 0.0, 0.0, 0.0, 0.0, 0.0, 1.741806003558557E9, 0.0, 2025-03-12 14:00:03.558
120.0, 8149.222510960402, 16271.26530066315, 4035.5404061723243, 16252.892166720889, -64.9094658982117, 36041.003291726505, -12454.503769219371, 19320.26676181159, 12367.086096654666, 9304.383016155127, -5175.792297815358, 16518.117966427562, -3596.6192003034594, -4297.65931339971, 2953.1124774351692, 38620.88634024696, -0.00722265625, 0.964484375, -0.17636328125, 192.0, 0.0, 0.0, 0.0, 0.0, 0.0, 0.0, 0.0, 0.0, 0.0, 1.741806003558572E9, 0.0, 2025-03-12 14:00:03.558
122.0, 8133.889214264062, 16250.254660875162, 4020.31886819826, 16238.050608402564, -83.97550391858863, 36031.772021266464, -12474.46387701796, 19305.156982559798, 12354.770285459792, 9284.31114963426, -5169.533809367873, 16512.485326824826, -3638.8639973239897, -4275.03934801094, 2932.705334747474, 38618.80762801262, -0.00722265625, 0.964484375, -0.17636328125, 192.0, 0.0, 0.0, 0.0, 0.0, 0.0, 0.0, 0.0, 0.0, 0.0, 1.741806003618267E9, 0.0, 2025-03-12 14:00:03.618
124.0, 8148.149627226548, 16273.075791964031, 4031.8523683371986, 16252.422780087327, -49.665576179692295, 36045.540695850934, -12441.338591735195, 19318.568029232985, 12357.765419216803, 9284.333501378716, -5183.436594419074, 16504.30458835418, -3612.757159800191, -4282.169554492182, 2942.1377709076132, 38621.51218909171, -0.00722265625, 0.964484375, -0.17636328125, 192.0, 0.0, 0.0, 0.0, 0.0, 0.0, 0.0, 0.0, 0.0, 0.0, 1.741806003618297E9, 0.0, 2025-03-12 14:00:03.618
126.0, 8149.311917938223, 16272.181722185818, 4038.1555602735953, 16267.286690150106, -49.17383780167554, 36062.93035303716, -12435.214213754442, 19328.91688691579, 12374.819800236202, 9305.433548144525, -5148.098486435233, 16538.636867837533, -3624.111845983487, -4234.247414380004, 2963.662500818074, 38646.389680670465, -0.0076113281250000005, 0.9642421875, -0.17518164062500002, 192.0, 127.5, 96.0, 15.0, 16.0, 125.0, 72.0, 0.0, 0.0, 0.0, 1.741806003618314E9, 0.0, 2025-03-12 14:00:03.618
128.0, 8121.796920513741, 16265.140922682396, 4029.2372142359277, 16249.07001841903, -59.38858501775086, 36051.88859127624, -12442.836158613702, 19324.53594500255, 12359.44180005095, 9301.41023414257, -5176.529905382384, 16521.73894902932, -3625.7435233287247, -4240.774123760953, 2950.922006478549, 38637.4713346328, -0.0076113281250000005, 0.9642421875, -0.17518164062500002, 192.0, 0.0, 0.0, 0.0, 0.0, 0.0, 0.0, 0.0, 0.0, 0.0, 1.741806003618331E9, 0.0, 2025-03-12 14:00:03.618
130.0, 8120.008780957316, 16246.45486431776, 4016.675533852045, 16252.378076598416, -59.1874193176531, 36049.00521624151, -12458.996469854888, 19312.15307857431, 12355.463189537906, 9295.487021861914, -5168.304463422831, 16527.170422931962, -3596.350979369996, -4215.226079848538, 2955.3253001362446, 38640.0194335007, -0.0076113281250000005, 0.9642421875, -0.17518164062500002, 192.0, 0.0, 0.0, 0.0, 0.0, 0.0, 0.0, 0.0, 0.0, 0.0, 1.741806003618347E9, 0.0, 2025-03-12 14:00:03.618
132.0, 8122.51217633631, 16258.055419690065, 4008.606554103679, 16235.033122901097, -69.15629734472004, 36027.18991365313, -12459.108228577164, 19294.741069643627, 12339.593450974638, 9278.991434453897, -5198.367559715219, 16503.41051857597, -3602.900040495401, -4297.346388977336, 2934.8287504707278, 38623.099162948034, -0.0076113281250000005, 0.9642421875, -0.17518164062500002, 192.0, 0.0, 0.0, 0.0, 0.0, 0.0, 0.0, 0.0, 0.0, 0.0, 1.741806003618362E9, 0.0, 2025-03-12 14:00:03.618
134.0, 8169.339080970179, 16288.140867726908, 4056.4392872380363, 16284.02814674713, -50.06790757988782, 36066.99837052803, -12441.405646968562, 19319.663264711293, 12364.537997786761, 9309.210992957473, -5160.168428441099, 16537.161652703482, -3634.5948141330264, -4287.221048739082, 2946.6081197986746, 38633.40331714193, -0.0076113281250000005, 0.9642421875, -0.17518164062500002, 192.0, 0.0, 0.0, 0.0, 0.0, 0.0, 0.0, 0.0, 0.0, 0.0, 1.741806003618378E9, 0.0, 2025-03-12 14:00:03.618
136.0, 8130.983487484871, 16274.26043442016, 4013.1216064836512, 16247.21482362924, -74.74423345854682, 36041.18210568215, -12472.385164783618, 19292.34943298691, 12375.155076403033, 9319.023408773352, -5159.386117385164, 16542.011981250285, -3597.7144357817697, -4226.513710798467, 2956.755811781384, 38650.88238130598, -0.0058056640625, 0.96712109375, -0.1725908203125, 192.0, 127.5, 112.0, 15.0, 40.0, 125.0, 88.0, 0.0, 0.0, 0.0, 1.741806003618423E9, 0.0, 2025-03-12 14:00:03.618
138.0, 8134.582118342176, 16258.658916790357, 4025.526824656347, 16249.964088197243, -77.5158497710049, 36039.975111481566, -12472.51927525035, 19289.421354463262, 12341.672163208981, 9279.505524576369, -5191.617332889716, 16511.70301576889, -3656.5218754436823, -4242.852835995297, 2917.126168862125, 38605.01660168369, -0.0058056640625, 0.96712109375, -0.1725908203125, 192.0, 0.0, 0.0, 0.0, 0.0, 0.0, 0.0, 0.0, 0.0, 0.0, 1.741806003680009E9, 0.0, 2025-03-12 14:00:03.680
140.0, 8136.3032026652345, 16290.197228216795, 4042.7153161424776, 16254.859120232955, -54.49355298203862, 36042.4561551161, -12443.32789699172, 19301.066613324478, 12377.747878759847, 9308.786309812822, -5156.815666772803, 16535.9546585029, -3612.8018632891017, -4211.3592280577695, 2967.507000864387, 38642.79104981316, -0.0058056640625, 0.96712109375, -0.1725908203125, 192.0, 0.0, 0.0, 0.0, 0.0, 0.0, 0.0, 0.0, 0.0, 0.0, 1.741806003680043E9, 0.0, 2025-03-12 14:00:03.680
142.0, 8152.865845306617, 16282.195303701796, 4046.783333633344, 16270.281823907117, -62.51782924149386, 36049.966341253086, -12451.888615118101, 19305.20168604871, 12371.534093801272, 9307.579315612234, -5149.931329480569, 16536.8040247922, -3633.2313577212526, -4236.571995803356, 2960.600311827697, 38639.952378267335, -0.0058056640625, 0.96712109375, -0.1725908203125, 192.0, 0.0, 0.0, 0.0, 0.0, 0.0, 0.0, 0.0, 0.0, 0.0, 1.741806003680087E9, 0.0, 2025-03-12 14:00:03.680
144.0, 8128.413036872511, 16271.26530066315, 4027.158502001584, 16241.828053215511, -71.88321016826751, 36030.92265497716, -12461.142237322598, 19297.378575489354, 12372.986957190868, 9293.162440438562, -5151.987689970457, 16525.292876397714, -3622.1672442158756, -4296.742891877043, 2954.990023969415, 38628.485933361764, -0.0058056640625, 0.96712109375, -0.1725908203125, 192.0, 0.0, 0.0, 0.0, 0.0, 0.0, 0.0, 0.0, 0.0, 0.0, 1.741806003680103E9, 0.0, 2025-03-12 14:00:03.680
146.0, 8150.764781327818, 16290.554856128081, 4048.5044179564024, 16277.881417021921, -55.63349194925928, 36055.08489073335, -12446.591251682194, 19313.717700686182, 12367.600186777137, 9294.011806727864, -5158.715565051504, 16523.661199052476, -3629.7668373306797, -4273.161801476694, 2952.620739057152, 38628.66474731741, -0.00490283203125, 0.9675605468749999, -0.17029541015625, 192.0, 127.5, 112.0, 15.0, 32.0, 125.0, 96.0, 0.0, 0.0, 0.0, 1.741806003680119E9, 0.0, 2025-03-12 14:00:03.680
148.0, 8134.202138686435, 16290.59955961699, 4042.4694469534693, 16253.607422543459, -62.83075366386815, 36051.73212906506, -12449.407571483562, 19319.86443041139, 12380.564198561216, 9304.762995810866, -5143.069343932789, 16530.99257123382, -3641.300337469618, -4203.73728319851, 2960.2650356608674, 38637.94072126636, -0.00490283203125, 0.9675605468749999, -0.17029541015625, 192.0, 0.0, 0.0, 0.0, 0.0, 0.0, 0.0, 0.0, 0.0, 0.0, 1.741806003680136E9, 0.0, 2025-03-12 14:00:03.680
150.0, 8138.024286988293, 16269.45480936227, 4039.384906218637, 16259.687097035301, -75.39243404775073, 36041.69619580462, -12462.796266412292, 19300.373709246363, 12367.935462943968, 9305.411196400071, -5156.21216967251, 16528.667989810467, -3617.7415988137245, -4259.46018212559, 2953.559512324275, 38632.062212474615, -0.00490283203125, 0.9675605468749999, -0.17029541015625, 192.0, 0.0, 0.0, 0.0, 0.0, 0.0, 0.0, 0.0, 0.0, 0.0, 1.741806003680152E9, 0.0, 2025-03-12 14:00:03.680
152.0, 8146.562653370221, 16288.386736915916, 4048.057383067296, 16264.783294771112, -50.55964595790458, 36051.30744592041, -12439.952783578967, 19316.91400014329, 12368.941291444457, 9298.258638174371, -5150.557178325317, 16529.13737644403, -3618.9485930143114, -4288.360987706303, 2958.2980821488004, 38634.09622122005, -0.00490283203125, 0.9675605468749999, -0.17029541015625, 192.0, 0.0, 0.0, 0.0, 0.0, 0.0, 0.0, 0.0, 0.0, 0.0, 1.741806003738807E9, 0.0, 2025-03-12 14:00:03.738
154.0, 8145.869749292106, 16288.967882271754, 4050.5384267018353, 16288.99023401621, -46.33516625585154, 36066.104300749816, -12443.864338858646, 19321.429052523265, 12378.127858415588, 9320.65508611859, -5148.92550098008, 16541.09555972762, -3600.731921283236, -4257.359118146792, 2967.1270212086465, 38642.344014924056, -0.00490283203125, 0.9675605468749999, -0.17029541015625, 192.0, 0.0, 0.0, 0.0, 0.0, 0.0, 0.0, 0.0, 0.0, 0.0, 1.741806003738844E9, 0.0, 2025-03-12 14:00:03.738
156.0, 8116.70072277793, 16279.31192866706, 4047.118609800173, 16266.16910292734, -53.91240762620063, 36057.34241692334, -12447.41826622704, 19311.68369194075, 12372.674032768493, 9311.93790578102, -5142.041163687845, 16544.336562673638, -3626.6822965958477, -4202.597344231289, 2967.909332264582, 38638.29834917765, -0.007451416015625, 0.9727802734375, -0.170147705078125, 192.0, 127.5, 88.0, 15.0, 72.0, 125.0, 88.0, 0.0, 0.0, 0.0, 1.741806003738861E9, 0.0, 2025-03-12 14:00:03.738
158.0, 8114.733769265863, 16251.59576554248, 4022.1740629880505, 16255.060285933054, -82.41088180671714, 36033.26958814497, -12476.60964448567, 19287.96849107367, 12348.735314456859, 9297.141050951606, -5175.680539093082, 16521.873059496054, -3638.439314179339, -4270.211371208593, 2948.038631443814, 38618.22648265678, -0.007451416015625, 0.9727802734375, -0.170147705078125, 192.0, 0.0, 0.0, 0.0, 0.0, 0.0, 0.0, 0.0, 0.0, 0.0, 1.741806003738909E9, 0.0, 2025-03-12 14:00:03.738
160.0, 8126.334324638167, 16270.348879140483, 4038.4237812070587, 16257.340163867495, -56.23698904955257, 36052.335626165346, -12445.56307143725, 19320.333817044953, 12336.218337561886, 9280.6901670325, -5172.797164058347, 16515.59221930411, -3650.889235840945, -4276.067528255883, 2935.4545993154766, 38608.88345347446, -0.007451416015625, 0.9727802734375, -0.170147705078125, 192.0, 0.0, 0.0, 0.0, 0.0, 0.0, 0.0, 0.0, 0.0, 0.0, 1.741806003738925E9, 0.0, 2025-03-12 14:00:03.738
162.0, 8123.249783903335, 16260.022373202131, 4033.260528237883, 16261.877567991922, -60.79674491843521, 36048.60288484131, -12462.32687977873, 19302.29595926952, 12358.793599461747, 9308.451033645992, -5159.095544707245, 16535.9546585029, -3626.0340960066437, -4240.1259231717495, 2970.9491695105044, 38646.16616322591, -0.007451416015625, 0.9727802734375, -0.170147705078125, 192.0, 0.0, 0.0, 0.0, 0.0, 0.0, 0.0, 0.0, 0.0, 0.0, 1.74180600373894E9, 0.0, 2025-03-12 14:00:03.738
164.0, 8146.763819070318, 16285.816286303556, 4048.973804589964, 16274.12632395343, -46.26811102248562, 36062.30450419241, -12439.818673112235, 19327.531078759563, 12344.734352199359, 9294.7941177838, -5162.090678464256, 16526.969257231864, -3647.2682532391855, -4271.954807276107, 2944.2611866308675, 38614.80666575512, -0.007451416015625, 0.9727802734375, -0.170147705078125, 192.0, 0.0, 0.0, 0.0, 0.0, 0.0, 0.0, 0.0, 0.0, 0.0, 1.741806003738964E9, 0.0, 2025-03-12 14:00:03.738
166.0, 8147.255557448335, 16283.961091513765, 4058.428592494559, 16283.22348394674, -51.96780585858892, 36068.74180659554, -12438.052885300265, 19322.90426765731, 12364.605053020126, 9322.040894274818, -5149.596053313739, 16540.670876582968, -3636.852340323012, -4246.853798252797, 2979.4875358924314, 38646.18851497037, -0.0077257080078125, 0.97239013671875, -0.16807385253906248, 192.0, 127.5, 96.0, 15.0, 48.0, 125.0, 104.0, 0.0, 0.0, 0.0, 1.741806003738979E9, 0.0, 2025-03-12 14:00:03.738
168.0, 8138.4713218773995, 16268.046649461587, 4040.815417863777, 16266.034992460609, -66.47408801008321, 36050.234562186546, -12449.809902883757, 19300.641930179827, 12363.912148942012, 9316.832937816733, -5140.051858431323, 16546.348219674615, -3614.634706334437, -4197.747015684487, 2978.1017277362025, 38640.4217649009, -0.0077257080078125, 0.97239013671875, -0.16807385253906248, 192.0, 0.0, 0.0, 0.0, 0.0, 0.0, 0.0, 0.0, 0.0, 0.0, 1.741806003799151E9, 0.0, 2025-03-12 14:00:03.799
170.0, 8144.215720202414, 16278.216693188751, 4057.288653527338, 16269.857140762466, -48.25741627900795, 36059.9128675357, -12441.025667312822, 19316.444613509728, 12345.449608021929, 9293.967103238952, -5169.399698901141, 16512.910009969477, -3617.629840091448, -4210.331047812825, 2956.465239103465, 38615.72308727778, -0.0077257080078125, 0.97239013671875, -0.16807385253906248, 192.0, 0.0, 0.0, 0.0, 0.0, 0.0, 0.0, 0.0, 0.0, 0.0, 1.741806003799181E9, 0.0, 2025-03-12 14:00:03.799
172.0, 8153.581101129187, 16277.36732689945, 4047.7221069004668, 16275.780353043123, -43.3623842432957, 36063.578553626365, -12431.056789285754, 19320.06559611149, 12363.710983241914, 9304.494774877403, -5142.44349508804, 16532.914821256974, -3601.7377497837247, -4199.825727918831, 2984.6731406060626, 38637.873666032996, -0.0077257080078125, 0.97239013671875, -0.16807385253906248, 192.0, 0.0, 0.0, 0.0, 0.0, 0.0, 0.0, 0.0, 0.0, 0.0, 1.741806003799198E9, 0.0, 2025-03-12 14:00:03.799
174.0, 8150.004822016338, 16274.729821053723, 4055.7240314154665, 16266.303213394072, -52.88422738125651, 36059.97992276906, -12438.321106233729, 19311.415471007287, 12359.106523884122, 9311.51322263637, -5154.78165802737, 16527.25982990978, -3653.8396661090455, -4296.094691287839, 2967.2611316753787, 38631.95045375234, -0.0077257080078125, 0.97239013671875, -0.16807385253906248, 192.0, 0.0, 0.0, 0.0, 0.0, 0.0, 0.0, 0.0, 0.0, 0.0, 1.741806003799214E9, 0.0, 2025-03-12 14:00:03.799
176.0, 8125.686124048963, 16255.820245244533, 4041.4636184529804, 16259.932966224309, -74.11838461379821, 36038.075213202865, -12463.667984446049, 19285.91213058378, 12357.385439561063, 9308.02635050134, -5142.108218921211, 16539.910917271485, -3606.1633951858757, -4266.746850818021, 2974.3019311788003, 38634.78912529816, -0.00786285400390625, 0.973195068359375, -0.17103692626953126, 192.0, 127.5, 96.0, 15.0, 56.0, 125.0, 72.0, 0.0, 0.0, 0.0, 1.741806003799229E9, 0.0, 2025-03-12 14:00:03.799
178.0, 8146.383839414578, 16280.809495545567, 4057.3333570162486, 16266.303213394072, -56.03582334945481, 36055.129594222264, -12428.978077051412, 19315.52819198706, 12330.25042179232, 9284.31114963426, -5185.984693286979, 16503.611684276068, -3645.547168916127, -4303.359008235813, 2930.112532390658, 38602.893185960434, -0.00786285400390625, 0.973195068359375, -0.17103692626953126, 192.0, 0.0, 0.0, 0.0, 0.0, 0.0, 0.0, 0.0, 0.0, 0.0, 1.741806003799246E9, 0.0, 2025-03-12 14:00:03.799
180.0, 8166.56746465772, 16282.687042079813, 4055.768734904377, 16284.430478147326, -45.79872438892417, 36076.766082855, -12424.932411305, 19328.715721215693, 12378.083154926677, 9323.98549604243, -5130.172387382077, 16561.346240204126, -3584.1916303863086, -4177.406928230158, 2982.2591522048897, 38662.818212845115, -0.00786285400390625, 0.973195068359375, -0.17103692626953126, 192.0, 0.0, 0.0, 0.0, 0.0, 0.0, 0.0, 0.0, 0.0, 0.0, 1.741806003799262E9, 0.0, 2025-03-12 14:00:03.799
182.0, 8162.1865227444805, 16281.502399623681, 4044.257586509894, 16257.630736545414, -61.80257341892403, 36058.57176286838, -12423.36778919313, 19319.35034028892, 12364.023907664288, 9305.187678955517, -5161.397774386141, 16535.731141058342, -3620.490863381727, -4232.302812612393, 2958.2533786598897, 38647.03788125967, -0.00786285400390625, 0.973195068359375, -0.17103692626953126, 192.0, 0.0, 0.0, 0.0, 0.0, 0.0, 0.0, 0.0, 0.0, 0.0, 1.741806003860816E9, 0.0, 2025-03-12 14:00:03.860
184.0, 8132.70457180793, 16262.011678458653, 4001.3198854112493, 16265.140922682396, -68.91042815571167, 36045.09366096183, -12438.432864956007, 19293.77994463205, 12347.774189445281, 9285.249922901383, -5169.31029192332, 16526.566925831667, -3625.363543672984, -4243.970423218063, 2946.339898865211, 38634.923235764894, -0.00786285400390625, 0.973195068359375, -0.17103692626953126, 192.0, 0.0, 0.0, 0.0, 0.0, 0.0, 0.0, 0.0, 0.0, 0.0, 1.741806003860848E9, 0.0, 2025-03-12 14:00:03.860
186.0, 8202.151441830569, 16297.349786442493, 4071.2361420674497, 16272.494646608193, -47.296291267429744, 36055.956608767105, -12403.45238488345, 19317.741014688138, 12362.772209974792, 9301.723158564944, -5166.650434333138, 16534.188870690927, -3618.412151147384, -4253.179341933649, 2953.760678024373, 38648.624855115995, -0.006931427001953125, 0.9745975341796875, -0.17251846313476565, 192.0, 127.5, 104.0, 15.0, 64.0, 125.0, 72.0, 0.0, 0.0, 0.0, 1.741806003860893E9, 0.0, 2025-03-12 14:00:03.860
188.0, 8177.206895018447, 16277.613196088458, 4041.8212463642653, 16280.02718448963, -46.625738933770535, 36058.63881810175, -12411.297847187263, 19318.29980829952, 12370.036526922766, 9322.242059974917, -5152.278262648376, 16549.052780753707, -3589.7125112667695, -4243.836312751331, 2970.3233206657555, 38665.09809077955, -0.006931427001953125, 0.9745975341796875, -0.17251846313476565, 192.0, 0.0, 0.0, 0.0, 0.0, 0.0, 0.0, 0.0, 0.0, 0.0, 1.741806003860911E9, 0.0, 2025-03-12 14:00:03.860
190.0, 8199.580991218209, 16284.36342291396, 4055.7016796710113, 16264.738591282201, -59.38858501775086, 36059.7117018356, -12396.16571619102, 19320.66909321178, 12370.371803089596, 9322.756150097388, -5167.522152366895, 16539.016847493273, -3617.339267413529, -4244.573920318356, 2977.4758788914537, 38680.54314619817, -0.006931427001953125, 0.9745975341796875, -0.17251846313476565, 192.0, 0.0, 0.0, 0.0, 0.0, 0.0, 0.0, 0.0, 0.0, 0.0, 1.741806003860927E9, 0.0, 2025-03-12 14:00:03.860
192.0, 8198.239886550891, 16284.609292102969, 4063.547141974824, 16289.325510183038, -49.62087269078168, 36076.162585754704, -12394.087003956676, 19320.803203678515, 12377.412602593018, 9328.746417611412, -5154.111105693711, 16545.096521985117, -3629.655078608403, -4232.101646912294, 2981.3874341711326, 38688.74623641327, -0.006931427001953125, 0.9745975341796875, -0.17251846313476565, 192.0, 0.0, 0.0, 0.0, 0.0, 0.0, 0.0, 0.0, 0.0, 0.0, 1.741806003860943E9, 0.0, 2025-03-12 14:00:03.860
194.0, 8191.355549258656, 16273.500475108682, 4052.572435447268, 16261.922271480833, -60.23795130705253, 36059.15290822422, -12395.472812112906, 19319.64091296684, 12372.249349623842, 9315.8494610607, -5171.1431349686545, 16529.27148691076, -3585.8233077315463, -4220.322277584348, 2980.940399282026, 38683.67239042192, -0.006931427001953125, 0.9745975341796875, -0.17251846313476565, 192.0, 0.0, 0.0, 0.0, 0.0, 0.0, 0.0, 0.0, 0.0, 0.0, 1.741806003860959E9, 0.0, 2025-03-12 14:00:03.860
196.0, 8185.342930000178, 16250.075846919519, 4039.876644596654, 16274.97569024273, -64.93181764266701, 36060.13638498025, -12410.31437043123, 19307.97330236117, 12375.758573503324, 9317.950525039498, -5170.047899490345, 16526.477518853848, -3579.6095227729706, -4199.848079663287, 2986.3495214402105, 38697.2846027952, -0.004465713500976562, 0.9722987670898438, -0.16925923156738282, 192.0, 127.5, 120.0, 15.0, 40.0, 125.0, 104.0, 0.0, 0.0, 0.0, 1.741806003860974E9, 0.0, 2025-03-12 14:00:03.860
198.0, 8199.312770284745, 16266.213806416252, 4040.5919004192237, 16258.010716201154, -57.980425117066524, 36046.725338307064, -12402.245390682863, 19305.604017448906, 12351.775151702781, 9300.918495764554, -5197.831117848292, 16499.96834992985, -3584.7727757421467, -4249.021917464962, 2961.181457183535, 38669.36727397052, -0.004465713500976562, 0.9722987670898438, -0.16925923156738282, 192.0, 0.0, 0.0, 0.0, 0.0, 0.0, 0.0, 0.0, 0.0, 0.0, 1.741806003918639E9, 0.0, 2025-03-12 14:00:03.918
200.0, 8199.379825518112, 16268.471332606237, 4048.7279354009556, 16289.124344482942, -49.39735524622861, 36064.40556817121, -12402.044224982767, 19309.023834350566, 12375.758573503324, 9323.426702431048, -5175.5464286263505, 16519.392015861515, -3548.9876328692003, -4235.946146958608, 2984.9413615395265, 38697.01638186174, -0.004465713500976562, 0.9722987670898438, -0.16925923156738282, 192.0, 0.0, 0.0, 0.0, 0.0, 0.0, 0.0, 0.0, 0.0, 0.0, 1.741806003918668E9, 0.0, 2025-03-12 14:00:03.918
202.0, 8199.513935984844, 16272.539350097102, 4061.289615784838, 16272.539350097102, -61.020262362988284, 36060.82928905836, -12410.292018686774, 19310.543752973528, 12392.678844055992, 9333.32852522475, -5153.64171906015, 16532.490138112324, -3534.436647228795, -4205.97245764404, 2994.150280255113, 38706.11354185505, -0.004465713500976562, 0.9722987670898438, -0.16925923156738282, 192.0, 0.0, 0.0, 0.0, 0.0, 0.0, 0.0, 0.0, 0.0, 0.0, 1.741806003918685E9, 0.0, 2025-03-12 14:00:03.918
204.0, 8207.046473866281, 16270.773562285134, 4057.9592058609974, 16285.771582814645, -55.208808804608445, 36066.21605947209, -12406.268704684819, 19313.650645452817, 12382.620559051104, 9320.632734374134, -5177.111050738222, 16513.871134981055, -3591.768871756658, -4194.528364482923, 2978.1017277362025, 38701.44202726389, -0.004465713500976562, 0.9722987670898438, -0.16925923156738282, 192.0, 0.0, 0.0, 0.0, 0.0, 0.0, 0.0, 0.0, 0.0, 0.0, 1.741806003918724E9, 0.0, 2025-03-12 14:00:03.918
206.0, 8194.305979526756, 16273.612233830958, 4053.5335604588463, 16272.516998352648, -60.19324781814192, 36055.17429771117, -12412.54954487676, 19302.430069736252, 12382.419393351007, 9324.007847786886, -5167.8574285337245, 16524.21999266386, -3607.795072531113, -4248.396068620214, 2979.01814925887, 38700.25738480775, -0.004232856750488281, 0.9701493835449219, -0.1686296157836914, 192.0, 127.5, 112.0, 15.0, 32.0, 125.0, 96.0, 0.0, 0.0, 0.0, 1.74180600391874E9, 0.0, 2025-03-12 14:00:03.918
208.0, 8193.210744048447, 16262.637527303403, 4057.1098395716954, 16278.417858888848, -72.64316947974795, 36045.406585384204, -12429.55922240725, 19288.460229451684, 12381.704137528437, 9321.169176241061, -5169.824382045792, 16516.64275129351, -3607.415092875373, -4270.591350864333, 2965.897675263605, 38688.813291646635, -0.004232856750488281, 0.9701493835449219, -0.1686296157836914, 192.0, 0.0, 0.0, 0.0, 0.0, 0.0, 0.0, 0.0, 0.0, 0.0, 1.741806003918765E9, 0.0, 2025-03-12 14:00:03.918
210.0, 8188.919209113027, 16261.40818135836, 4042.424743464559, 16265.878530249422, -55.63349194925928, 36047.46294587409, -12421.669056614526, 19304.978168604157, 12371.39998333454, 9306.752301067389, -5175.792297815358, 16514.36287335907, -3586.7620809986693, -4234.940318458119, 2959.3933176271103, 38677.279791507695, -0.004232856750488281, 0.9701493835449219, -0.1686296157836914, 192.0, 0.0, 0.0, 0.0, 0.0, 0.0, 0.0, 0.0, 0.0, 0.0, 1.741806003918781E9, 0.0, 2025-03-12 14:00:03.918
212.0, 8212.47794776892, 16272.293480908094, 4071.0573281118072, 16288.27497819364, -53.688890181647565, 36071.1110915078, -12409.30854193074, 19310.543752973528, 12400.725472059903, 9335.161368270084, -5157.106239450722, 16536.334638158638, -3564.7456127101914, -4209.369922801247, 2990.1269662531577, 38707.02996337771, -0.004232856750488281, 0.9701493835449219, -0.1686296157836914, 192.0, 0.0, 0.0, 0.0, 0.0, 0.0, 0.0, 0.0, 0.0, 0.0, 1.741806003978559E9, 0.0, 2025-03-12 14:00:03.978
214.0, 8203.179622075513, 16270.035954718109, 4059.814400650788, 16271.108838451963, -65.512962998505, 36052.06740523189, -12411.968399520923, 19309.71673842868, 12383.514628829316, 9317.190565728017, -5153.976995226979, 16531.12668170055, -3620.6920290818252, -4211.806262946876, 2974.9277800235486, 38689.52854746921, -0.004232856750488281, 0.9701493835449219, -0.1686296157836914, 192.0, 0.0, 0.0, 0.0, 0.0, 0.0, 0.0, 0.0, 0.0, 0.0, 1.741806003978601E9, 0.0, 2025-03-12 14:00:03.978
216.0, 8191.400252747567, 16266.660841305358, 4041.0612870527852, 16275.154504198374, -59.8132681624017, 36057.431823901155, -12423.479547915405, 19307.30275002751, 12374.573931047194, 9310.239173202417, -5178.0051205164345, 16518.6991117834, -3582.3587873409733, -4258.052022224906, 2966.5235241083533, 38687.31572476813, -0.0031164283752441405, 0.9710746917724609, -0.16931480789184572, 192.0, 127.5, 120.0, 15.0, 48.0, 125.0, 88.0, 0.0, 0.0, 0.0, 1.741806003978618E9, 0.0, 2025-03-12 14:00:03.978
218.0, 8204.476023253921, 16265.476198849226, 4047.051554566807, 16274.215730931252, -55.0523465934213, 36059.62229485778, -12412.482489643395, 19307.52626747206, 12385.88391374158, 9333.440283947026, -5154.78165802737, 16545.096521985117, -3548.160618324354, -4196.271800550438, 2984.11434699468, 38701.978469130816, -0.0031164283752441405, 0.9710746917724609, -0.16931480789184572, 192.0, 0.0, 0.0, 0.0, 0.0, 0.0, 0.0, 0.0, 0.0, 0.0, 1.741806003978636E9, 0.0, 2025-03-12 14:00:03.978
220.0, 8196.697616183474, 16259.687097035301, 4070.6549967116116, 16267.644318061391, -60.684986196158675, 36053.18499245465, -12406.492222129373, 19310.052014595512, 12372.808143235225, 9304.405367899582, -5172.7301088249815, 16513.89348672551, -3593.445252590806, -4229.352382344292, 2968.4234223870544, 38685.9299166119, -0.0031164283752441405, 0.9710746917724609, -0.16931480789184572, 192.0, 0.0, 0.0, 0.0, 0.0, 0.0, 0.0, 0.0, 0.0, 0.0, 1.741806003978651E9, 0.0, 2025-03-12 14:00:03.978
222.0, 8213.416721036045, 16278.306100166572, 4066.3634617761927, 16292.141829984408, -33.505264938505285, 36074.016818287, -12395.629274324094, 19325.698235714226, 12391.293035899764, 9334.669629892067, -5145.930367223068, 16544.448321395914, -3552.6533189598704, -4238.024859192951, 3001.8392803477386, 38716.0377163932, -0.0031164283752441405, 0.9710746917724609, -0.16931480789184572, 192.0, 0.0, 0.0, 0.0, 0.0, 0.0, 0.0, 0.0, 0.0, 0.0, 1.741806003978667E9, 0.0, 2025-03-12 14:00:03.978
224.0, 8168.959101314438, 16239.12349213642, 4031.450036937003, 16253.249794632173, -73.78310844696861, 36044.19959118361, -12425.513556660839, 19291.00832831959, 12363.912148942012, 9314.240135459917, -5195.6182951472165, 16512.150050657994, -3543.645565944382, -4252.2182169220705, 2978.3252451807557, 38698.692762695886, -0.0031164283752441405, 0.9710746917724609, -0.16931480789184572, 192.0, 0.0, 0.0, 0.0, 0.0, 0.0, 0.0, 0.0, 0.0, 0.0, 1.741806003978682E9, 0.0, 2025-03-12 14:00:03.978
226.0, 8201.279723796812, 16258.03306794561, 4062.161333818595, 16276.182684443318, -67.47991651057202, 36055.04018724444, -12421.490242658883, 19296.283340011043, 12384.878085241091, 9309.7474348244, -5148.366707368697, 16519.794347261708, -3618.233337191741, -4212.856794936275, 2975.01718700137, 38700.65971620795, -0.0025582141876220703, 0.9735373458862304, -0.16765740394592288, 192.0, 127.5, 120.0, 15.0, 64.0, 125.0, 104.0, 0.0, 0.0, 0.0, 1.741806003978734E9, 0.0, 2025-03-12 14:00:03.978
228.0, 8217.551793760276, 16278.015527488653, 4059.9708628619746, 16279.200169944785, -34.39933471671757, 36067.40070192822, -12406.045187240266, 19318.232753066153, 12388.968454476411, 9329.282859478339, -5162.001271486434, 16518.185021660927, -3605.7834155301352, -4183.397195744181, 2973.5419718673197, 38697.68693419539, -0.0025582141876220703, 0.9735373458862304, -0.16765740394592288, 192.0, 0.0, 0.0, 0.0, 0.0, 0.0, 0.0, 0.0, 0.0, 0.0, 1.741806004038783E9, 0.0, 2025-03-12 14:00:04.038
230.0, 8200.00567436286, 16265.207977915763, 4048.973804589964, 16283.51405662466, -53.30891052590734, 36061.768062325486, -12422.65253337056, 19303.949988359214, 12389.504896343338, 9327.94175481102, -5155.698079550038, 16531.5513648452, -3550.6193102144375, -4253.894597756219, 2981.633303360141, 38692.121349826026, -0.0025582141876220703, 0.9735373458862304, -0.16765740394592288, 192.0, 0.0, 0.0, 0.0, 0.0, 0.0, 0.0, 0.0, 0.0, 0.0, 1.741806004038811E9, 0.0, 2025-03-12 14:00:04.038
232.0, 8192.584895203698, 16264.895053493388, 4041.0389353083297, 16262.950451725776, -54.13592507075371, 36043.596094083325, -12435.773007365824, 19293.690537654227, 12392.88000975609, 9340.928118339554, -5151.965338226001, 16528.869155510565, -3548.451191002273, -4240.640013294222, 2984.0696435057694, 38682.957134599346, -0.0025582141876220703, 0.9735373458862304, -0.16765740394592288, 192.0, 0.0, 0.0, 0.0, 0.0, 0.0, 0.0, 0.0, 0.0, 0.0, 1.741806004038852E9, 0.0, 2025-03-12 14:00:04.038
234.0, 8202.307904041756, 16261.139960424896, 4061.1108018291957, 16276.205036187774, -65.08827985385416, 36046.32300690687, -12439.729266134415, 19286.001537561602, 12384.878085241091, 9336.681286893045, -5151.719469036993, 16527.88567875453, -3615.1934999458194, -4272.51360088749, 2962.2096374284793, 38663.91344832342, -0.0025582141876220703, 0.9735373458862304, -0.16765740394592288, 192.0, 0.0, 0.0, 0.0, 0.0, 0.0, 0.0, 0.0, 0.0, 0.0, 1.741806004038868E9, 0.0, 2025-03-12 14:00:04.038
236.0, 8174.770554872818, 16237.625925257913, 4043.6987928985113, 16243.191509627284, -74.14073635825353, 36036.242370157524, -12448.200577282976, 19281.262967737075, 12364.739163486858, 9301.209068442473, -5173.177143714088, 16498.180210373426, -3639.1992734908195, -4219.584670017322, 2955.6158728141636, 38651.21765747281, -0.002279107093811035, 0.9747686729431152, -0.16982870197296146, 192.0, 127.5, 120.0, 15.0, 64.0, 125.0, 80.0, 0.0, 0.0, 0.0, 1.741806004038884E9, 0.0, 2025-03-12 14:00:04.038
238.0, 8191.310845769745, 16257.451922589771, 4057.8921506276315, 16278.931949011321, -49.0397273349437, 36054.6602075887, -12428.463986928939, 19297.557389444995, 12385.660396297026, 9317.816414572766, -5149.216073657999, 16516.55334431569, -3570.020624401644, -4109.457625086025, 2980.403957415099, 38669.90371583745, -0.002279107093811035, 0.9747686729431152, -0.16982870197296146, 192.0, 0.0, 0.0, 0.0, 0.0, 0.0, 0.0, 0.0, 0.0, 0.0, 1.741806004038901E9, 0.0, 2025-03-12 14:00:04.038
240.0, 8187.354587001156, 16256.669611533835, 4049.353784245704, 16253.652126032368, -69.80449793392395, 36023.99361419602, -12428.620449140126, 19282.358203215386, 12369.768305989302, 9338.715295638478, -5170.897265779647, 16529.070321210664, -3596.9768282147443, -4327.655354458732, 2968.82575378725, 38657.67731162039, -0.002279107093811035, 0.9747686729431152, -0.16982870197296146, 192.0, 0.0, 0.0, 0.0, 0.0, 0.0, 0.0, 0.0, 0.0, 0.0, 1.741806004038917E9, 0.0, 2025-03-12 14:00:04.038
242.0, 8206.420625021532, 16266.012640716153, 4071.7278804454663, 16293.505286396181, -49.196189546130846, 36062.125690236775, -12406.626332596104, 19313.82945940846, 12382.933483473478, 9338.46942644947, -5145.528035822873, 16535.015885235774, -3576.882609949423, -4273.094746243328, 2979.241666703423, 38662.03590178918, -0.002279107093811035, 0.9747686729431152, -0.16982870197296146, 192.0, 0.0, 0.0, 0.0, 0.0, 0.0, 0.0, 0.0, 0.0, 0.0, 1.741806004099118E9, 0.0, 2025-03-12 14:00:04.099
244.0, 8183.465383465932, 16268.337222139506, 4037.5073596843913, 16268.091352950498, -48.63739593474817, 36054.52609712197, -12420.573821136215, 19300.574874946462, 12369.701250755938, 9331.920365324064, -5160.97309124149, 16527.304533398692, -3555.0673073610437, -4252.262920410982, 2975.464221890476, 38669.456680948344, -0.002279107093811035, 0.9747686729431152, -0.16982870197296146, 192.0, 0.0, 0.0, 0.0, 0.0, 0.0, 0.0, 0.0, 0.0, 0.0, 1.741806004099151E9, 0.0, 2025-03-12 14:00:04.099
246.0, 8191.467307980933, 16256.557852811558, 4061.8707611406758, 16283.245835691196, -53.28655878145204, 36071.13344325226, -12422.049036270266, 19296.81978187797, 12382.665262540015, 9340.011696816886, -5157.106239450722, 16536.111120714086, -3537.0741530745213, -4143.499331891458, 2986.058948762292, 38692.098998081565, -0.0031395535469055176, 0.9743843364715576, -0.17191435098648072, 192.0, 127.5, 112.0, 15.0, 56.0, 125.0, 72.0, 0.0, 0.0, 0.0, 1.741806004099168E9, 0.0, 2025-03-12 14:00:04.099
248.0, 8177.586874674186, 16251.908689964856, 4046.2692435108715, 16262.279899392117, -69.33511130036251, 36045.272474917474, -12413.756539077347, 19294.226979521154, 12365.186198375965, 9323.247888475405, -5162.247140675443, 16519.593181561613, -3624.044790750121, -4201.569163986345, 2973.1619922115797, 38680.163166542436, -0.0031395535469055176, 0.9743843364715576, -0.17191435098648072, 192.0, 0.0, 0.0, 0.0, 0.0, 0.0, 0.0, 0.0, 0.0, 0.0, 1.741806004099215E9, 0.0, 2025-03-12 14:00:04.099
250.0, 8188.516877712832, 16264.157445926363, 4061.647243696123, 16299.093222510008, -50.73845991354703, 36068.38417868426, -12404.949951761957, 19308.688558183738, 12364.716811742403, 9331.160406012585, -5170.092602979255, 16523.147108930007, -3617.607488346993, -4284.89646731573, 2972.11146022218, 38682.93478285489, -0.0031395535469055176, 0.9743843364715576, -0.17191435098648072, 192.0, 0.0, 0.0, 0.0, 0.0, 0.0, 0.0, 0.0, 0.0, 0.0, 1.741806004099231E9, 0.0, 2025-03-12 14:00:04.099
252.0, 8201.235020307902, 16269.812437273556, 4066.1846478205503, 16279.870722278443, -56.0134716049995, 36056.94008552314, -12406.581629107193, 19301.11131681339, 12391.49420159986, 9352.551025456312, -5137.570814796783, 16546.974068519365, -3570.8252872020353, -4253.782839033943, 2996.0054750449035, 38704.45951276535, -0.0031395535469055176, 0.9743843364715576, -0.17191435098648072, 192.0, 0.0, 0.0, 0.0, 0.0, 0.0, 0.0, 0.0, 0.0, 0.0, 1.741806004099246E9, 0.0, 2025-03-12 14:00:04.099
254.0, 8189.723871913418, 16264.984460471209, 4060.350842517715, 16291.694795095302, -55.54408497143805, 36065.07612050488, -12405.195820950965, 19301.558351702493, 12370.036526922766, 9332.859138591188, -5165.443440132552, 16520.017864706264, -3600.1060724384874, -4252.754658788998, 2968.758698553884, 38679.91729735342, -0.0031395535469055176, 0.9743843364715576, -0.17191435098648072, 192.0, 0.0, 0.0, 0.0, 0.0, 0.0, 0.0, 0.0, 0.0, 0.0, 1.74180600409927E9, 0.0, 2025-03-12 14:00:04.099
0.0, 8189.925037613516, 16263.285727892606, 4045.6880981550335, 16271.712335552256, -57.779259416968756, 36059.48818439105, -12404.391158150573, 19292.461191709186, 12384.095774185154, 9336.167196770573, -5148.746687024437, 16536.73696955883, -3559.89528416339, -4205.503071010479, 2991.6468848761183, 38698.536300484695, -0.0035697767734527586, 0.9721921682357788, -0.17095717549324035, 192.0, 127.5, 112.0, 15.0, 40.0, 125.0, 88.0, 0.0, 0.0, 0.0, 1.741806004099285E9, 0.0, 2025-03-12 14:00:04.099
2.0, 8163.862903578628, 16258.211881901252, 4032.0088305483855, 16273.902806508877, -62.6519397082257, 36057.498879134524, -12414.784719322291, 19283.207569504688, 12363.465114052906, 9340.481083450448, -5185.247085719953, 16512.12769891354, -3585.935066453823, -4154.362279696737, 2972.178515455546, 38680.58784968709, -0.0035697767734527586, 0.9721921682357788, -0.17095717549324035, 192.0, 0.0, 0.0, 0.0, 0.0, 0.0, 0.0, 0.0, 0.0, 0.0, 1.741806004159381E9, 0.0, 2025-03-12 14:00:04.159
4.0, 8199.580991218209, 16257.250756889673, 4024.968031044964, 16264.962108726753, -67.85989616631224, 36044.13253595025, -12426.65349562806, 19272.031697277034, 12377.077326426188, 9343.878548607654, -5158.447344118041, 16526.83514676513, -3572.1440401248983, -4229.508844555479, 2979.3534254256997, 38686.444006734375, -0.0035697767734527586, 0.9721921682357788, -0.17095717549324035, 192.0, 0.0, 0.0, 0.0, 0.0, 0.0, 0.0, 0.0, 0.0, 0.0, 1.74180600415941E9, 0.0, 2025-03-12 14:00:04.159
6.0, 8209.86279366765, 16273.522826853137, 4063.904769886109, 16283.044669991097, -59.030957106465955, 36060.40460591371, -12414.02476001081, 19293.019985320567, 12369.857712967125, 9339.6540689056, -5179.815611817314, 16510.294855868204, -3582.4928978077055, -4268.713804330087, 2955.1688379250572, 38666.75211986925, -0.0035697767734527586, 0.9721921682357788, -0.17095717549324035, 192.0, 0.0, 0.0, 0.0, 0.0, 0.0, 0.0, 0.0, 0.0, 0.0, 1.741806004159427E9, 0.0, 2025-03-12 14:00:04.159
8.0, 8207.24763956638, 16269.275995406628, 4061.2449122959274, 16273.500475108682, -62.339015285851396, 36057.45417564562, -12413.823594310714, 19286.225055006154, 12389.683710298981, 9349.310022510293, -5142.979936954968, 16535.93230675844, -3586.1585838983756, -4223.1609491301715, 2979.912219037082, 38686.46635847883, -0.0035697767734527586, 0.9721921682357788, -0.17095717549324035, 192.0, 0.0, 0.0, 0.0, 0.0, 0.0, 0.0, 0.0, 0.0, 0.0, 1.741806004159442E9, 0.0, 2025-03-12 14:00:04.159
10.0, 8192.271970781323, 16263.911576737355, 4047.2080167779945, 16271.51116985216, -64.50713449801619, 36053.095585476825, -12414.963533277934, 19288.549636429507, 12378.373727604596, 9338.692943894022, -5167.2092279445205, 16513.021768691753, -3573.440441303306, -4223.40681831918, 2971.4185561440654, 38681.63838167649, -0.0037848883867263794, 0.9690960841178894, -0.17247858774662017, 192.0, 127.5, 112.0, 15.0, 24.0, 125.0, 72.0, 0.0, 0.0, 0.0, 1.741806004159458E9, 0.0, 2025-03-12 14:00:04.159
12.0, 8172.1106972826365, 16238.028256658108, 4018.3072111972824, 16252.914518465344, -76.30885557041832, 36046.121841206776, -12428.106359017655, 19277.95490955769, 12365.320308842696, 9329.484025178435, -5167.87978027818, 16513.89348672551, -3580.145964639898, -4174.054166561862, 2962.8801897621383, 38675.379893229, -0.0037848883867263794, 0.9690960841178894, -0.17247858774662017, 192.0, 0.0, 0.0, 0.0, 0.0, 0.0, 0.0, 0.0, 0.0, 0.0, 1.741806004159475E9, 0.0, 2025-03-12 14:00:04.159
14.0, 8208.76755818934, 16281.994138001697, 4057.288653527338, 16282.17295195734, -37.37211672927341, 36075.02264678748, -12390.220152165908, 19310.320235528976, 12373.59045429116, 9332.725028124456, -5180.173239728599, 16505.98096918833, -3570.646473246393, -4232.12399865675, 2969.0939747207135, 38680.856070620546, -0.0037848883867263794, 0.9690960841178894, -0.17247858774662017, 192.0, 0.0, 0.0, 0.0, 0.0, 0.0, 0.0, 0.0, 0.0, 0.0, 1.74180600415949E9, 0.0, 2025-03-12 14:00:04.159
16.0, 8185.544095700276, 16256.98253595621, 4039.675478896556, 16273.656937319869, -54.80647740441292, 36062.952704781615, -12407.162774463031, 19293.3552614874, 12383.469925340405, 9353.333336512249, -5151.0042132144235, 16536.08876896963, -3582.6493600188924, -4252.397030877713, 2985.0307685173475, 38695.92114638342, -0.0037848883867263794, 0.9690960841178894, -0.17247858774662017, 192.0, 0.0, 0.0, 0.0, 0.0, 0.0, 0.0, 0.0, 0.0, 0.0, 1.741806004219627E9, 0.0, 2025-03-12 14:00:04.219
18.0, 8185.119412555625, 16261.966974969742, 4028.745475857911, 16263.241024403695, -54.02416634847717, 36056.26953318948, -12405.374634906608, 19290.762459130583, 12375.132724658577, 9342.04570556232, -5174.942931526057, 16514.40757684798, -3603.637648062426, -4262.879999027253, 2972.849067789205, 38680.27492526471, -0.0037848883867263794, 0.9690960841178894, -0.17247858774662017, 192.0, 0.0, 0.0, 0.0, 0.0, 0.0, 0.0, 0.0, 0.0, 0.0, 1.74180600421966E9, 0.0, 2025-03-12 14:00:04.219
20.0, 8192.51783997033, 16255.574376055525, 4048.9514528455084, 16275.6909460653, -61.37789027427319, 36061.36573092529, -12422.496071159372, 19284.839246849926, 12373.299881613242, 9335.004906058897, -5158.02266097339, 16520.017864706264, -3607.482148108739, -4196.696483695088, 2970.0103962433814, 38677.346846741064, -0.0038924441933631897, 0.9685480420589447, -0.1722392938733101, 192.0, 127.5, 112.0, 15.0, 32.0, 125.0, 80.0, 0.0, 0.0, 0.0, 1.741806004219702E9, 0.0, 2025-03-12 14:00:04.219
22.0, 8153.156417984536, 16239.83874795899, 4009.03123724833, 16242.096274148975, -80.48863178356073, 36033.29193988942, -12438.298754489275, 19263.180406472733, 12364.537997786761, 9327.047685032807, -5180.93319904008, 16501.60002727509, -3626.8164070625794, -4235.230891136038, 2954.2971198913006, 38663.62287564551, -0.0038924441933631897, 0.9685480420589447, -0.1722392938733101, 192.0, 0.0, 0.0, 0.0, 0.0, 0.0, 0.0, 0.0, 0.0, 0.0, 1.74180600421972E9, 0.0, 2025-03-12 14:00:04.219
24.0, 8198.99984586237, 16272.852274519477, 4067.3916420211367, 16299.607312632479, -43.80941913240184, 36077.86131833331, -12408.749748319358, 19310.074366339966, 12371.534093801272, 9333.350876969203, -5164.124687209688, 16520.844879251108, -3587.4549850767835, -4252.106458199794, 2965.0036054853927, 38665.76864311322, -0.0038924441933631897, 0.9685480420589447, -0.1722392938733101, 192.0, 0.0, 0.0, 0.0, 0.0, 0.0, 0.0, 0.0, 0.0, 0.0, 1.741806004219736E9, 0.0, 2025-03-12 14:00:04.219
26.0, 8181.721947398419, 16271.377059385428, 4048.638528423134, 16279.446039133793, -48.61504419029286, 36066.95366703912, -12409.487355886384, 19299.47963946815, 12385.123954430099, 9351.813417889289, -5155.45221036103, 16531.394902634012, -3563.091583620499, -4223.6303357637335, 2984.3825679281435, 38681.50427120975, -0.0038924441933631897, 0.9685480420589447, -0.1722392938733101, 192.0, 0.0, 0.0, 0.0, 0.0, 0.0, 0.0, 0.0, 0.0, 0.0, 1.741806004219751E9, 0.0, 2025-03-12 14:00:04.219
28.0, 8160.353679699145, 16256.915480722844, 4043.0282405648522, 16293.527638140637, -58.8744948952788, 36070.03820777395, -12428.374579951118, 19290.963624830678, 12376.853808981636, 9349.891167866132, -5158.000309228934, 16531.819585778667, -3583.2081536302753, -4190.192126058594, 2983.220277216468, 38676.92216359641, -0.0038924441933631897, 0.9685480420589447, -0.1722392938733101, 192.0, 0.0, 0.0, 0.0, 0.0, 0.0, 0.0, 0.0, 0.0, 0.0, 1.741806004219767E9, 0.0, 2025-03-12 14:00:04.219
30.0, 8156.799752330751, 16240.084617147997, 4017.480196652436, 16258.435399345804, -66.4293845211726, 36041.96441673808, -12439.684562645503, 19275.563272900974, 12356.178445360476, 9318.062283761774, -5174.562951870317, 16511.07716692414, -3635.399476933417, -4264.154048461205, 2965.249474674401, 38659.48780292128, -0.002946222096681595, 0.9702740210294724, -0.17111964693665505, 192.0, 127.5, 120.0, 15.0, 48.0, 125.0, 88.0, 0.0, 0.0, 0.0, 1.741806004219782E9, 0.0, 2025-03-12 14:00:04.219
32.0, 8193.635427193098, 16265.900881993877, 4062.384851263148, 16308.168030758863, -41.57424468687114, 36083.918641080694, -12401.373672649106, 19310.63315995135, 12362.906320441523, 9330.802778101299, -5160.660166819116, 16525.672856053454, -3596.4850898367276, -4237.466065581568, 2970.6138933436746, 38661.43240468889, -0.002946222096681595, 0.9702740210294724, -0.17111964693665505, 192.0, 0.0, 0.0, 0.0, 0.0, 0.0, 0.0, 0.0, 0.0, 0.0, 1.741806004278964E9, 0.0, 2025-03-12 14:00:04.278
34.0, 8158.587891887176, 16246.03018117311, 4045.062249310285, 16267.152579683374, -71.36912004579546, 36059.3093704354, -12426.27351597232, 19290.270720752564, 12367.287262354763, 9333.686153136034, -5155.7651347834035, 16529.6514665665, -3627.5093111406936, -4268.155010718705, 2980.3816056706437, 38666.61800940252, -0.002946222096681595, 0.9702740210294724, -0.17111964693665505, 192.0, 0.0, 0.0, 0.0, 0.0, 0.0, 0.0, 0.0, 0.0, 0.0, 1.741806004278998E9, 0.0, 2025-03-12 14:00:04.278
36.0, 8186.19229628948, 16267.778428528123, 4053.3994499921146, 16308.32449297005, -44.09999181032084, 36088.65721090522, -12407.74391981887, 19308.465040739185, 12368.673070510993, 9336.413065959581, -5154.804009771826, 16534.390036391025, -3573.239275603208, -4221.350457829292, 2976.5147538798756, 38669.590791415074, -0.002946222096681595, 0.9702740210294724, -0.17111964693665505, 192.0, 0.0, 0.0, 0.0, 0.0, 0.0, 0.0, 0.0, 0.0, 0.0, 1.741806004279015E9, 0.0, 2025-03-12 14:00:04.279
38.0, 8155.525702896799, 16253.763884754646, 4032.2099962484835, 16267.800780272579, -75.0124543920105, 36051.150983709216, -12431.906155575056, 19286.739145128628, 12369.947119944945, 9344.794970130322, -5148.277300390876, 16537.899260270508, -3567.3607668114623, -4190.281533036415, 2975.1736492125574, 38665.120442524014, -0.002946222096681595, 0.9702740210294724, -0.17111964693665505, 192.0, 0.0, 0.0, 0.0, 0.0, 0.0, 0.0, 0.0, 0.0, 0.0, 1.741806004279067E9, 0.0, 2025-03-12 14:00:04.279
40.0, 8165.718098368418, 16254.434437088305, 4048.3032522563044, 16295.762812586167, -46.93866335614483, 36078.8671468338, -12408.950914019457, 19299.166715045776, 12357.810122705714, 9318.308152950782, -5164.616425587706, 16520.241382150816, -3578.7154529947584, -4193.5895912158, 2962.6790240620408, 38648.11076499352, -0.004473111048340798, 0.9731370105147361, -0.17255982346832754, 192.0, 127.5, 104.0, 15.0, 64.0, 125.0, 72.0, 0.0, 0.0, 0.0, 1.741806004279084E9, 0.0, 2025-03-12 14:00:04.279
42.0, 8144.349830669145, 16250.433474830805, 4034.5122259273803, 16261.162312169352, -71.25736132351892, 36046.30065516241, -12422.160794992542, 19277.10554326839, 12351.059895880211, 9301.83491728722, -5173.31125418082, 16509.78076574573, -3640.8533025805123, -4159.458477432547, 2963.3495763957, 38651.150602239446, -0.004473111048340798, 0.9731370105147361, -0.17255982346832754, 192.0, 0.0, 0.0, 0.0, 0.0, 0.0, 0.0, 0.0, 0.0, 0.0, 1.741806004279108E9, 0.0, 2025-03-12 14:00:04.279
44.0, 8183.979473588404, 16275.422725131837, 4064.1729908195725, 16303.429460934338, -45.441096477639256, 36087.360809726815, -12400.54665810426, 19312.935389630245, 12372.361108346118, 9351.567548700279, -5147.137361423655, 16541.676705083457, -3611.8854417664343, -4281.0966707583275, 2973.92195152306, 38669.03199780369, -0.004473111048340798, 0.9731370105147361, -0.17255982346832754, 192.0, 0.0, 0.0, 0.0, 0.0, 0.0, 0.0, 0.0, 0.0, 0.0, 1.741806004279125E9, 0.0, 2025-03-12 14:00:04.279
46.0, 8155.391592430066, 16247.93007945181, 4020.5423856428133, 16260.469408091238, -80.3768730612842, 36047.03826272944, -12437.717609133437, 19272.299918210498, 12369.857712967125, 9340.346972983716, -5145.706849778516, 16535.70878931389, -3596.373331114451, -4227.608946276778, 2969.988044498926, 38666.528602424696, -0.004473111048340798, 0.9731370105147361, -0.17255982346832754, 192.0, 0.0, 0.0, 0.0, 0.0, 0.0, 0.0, 0.0, 0.0, 0.0, 1.741806004338855E9, 0.0, 2025-03-12 14:00:04.338
48.0, 8157.269138964312, 16252.087503920497, 4039.027278307352, 16283.55876011357, -60.05913735141008, 36063.735015837556, -12417.533983890295, 19285.10746778339, 12351.73044821387, 9319.805719829288, -5167.455097133529, 16514.206411147883, -3638.059334523599, -4267.864438040786, 2948.999756455393, 38647.730785337786, -0.004473111048340798, 0.9731370105147361, -0.17255982346832754, 192.0, 0.0, 0.0, 0.0, 0.0, 0.0, 0.0, 0.0, 0.0, 0.0, 1.741806004338901E9, 0.0, 2025-03-12 14:00:04.338
50.0, 8161.80654308874, 16268.806608773068, 4048.772638889866, 16282.12824846843, -52.07956458086546, 36069.68057986267, -12411.54371637627, 19295.478677210653, 12369.254215866831, 9338.983516571941, -5148.478466090974, 16536.424045136457, -3600.307238138585, -4239.857702238286, 2978.1911347140235, 38668.4285007034, -0.0012365555241703988, 0.973568505257368, -0.1722799117341638, 192.0, 0.0, 8.0, 15.0, 56.0, 125.0, 80.0, 0.0, 0.0, 0.0, 1.741806004338918E9, 0.0, 2025-03-12 14:00:04.338
52.0, 8172.1106972826365, 16249.49470156368, 4048.638528423134, 16290.666614850357, -55.49938148252744, 36067.04307401694, -12418.003370523855, 19290.04720330801, 12367.35431758813, 9339.318792738772, -5147.919672479591, 16529.629114822044, -3603.6599998068814, -4230.0899899113165, 2976.6488643466073, 38669.724901881804, -0.0012365555241703988, 0.973568505257368, -0.1722799117341638, 192.0, 0.0, 0.0, 0.0, 0.0, 0.0, 0.0, 0.0, 0.0, 0.0, 1.741806004338935E9, 0.0, 2025-03-12 14:00:04.338
54.0, 8183.018348576827, 16257.988364456698, 4039.4743131964583, 16282.351765912983, -57.24281755004139, 36064.31616119339, -12421.289076958785, 19286.269758495066, 12367.533131543772, 9329.215804244972, -5139.671878775583, 16532.624248579057, -3566.5561040110715, -4205.16779484365, 2971.239742188423, 38661.342997711065, -0.0012365555241703988, 0.973568505257368, -0.1722799117341638, 192.0, 0.0, 0.0, 0.0, 0.0, 0.0, 0.0, 0.0, 0.0, 0.0, 1.741806004338951E9, 0.0, 2025-03-12 14:00:04.338
56.0, 8142.829912046184, 16238.363532824938, 4034.445170694014, 16267.823132017033, -74.72188171409151, 36045.36188189529, -12439.371638223129, 19268.43306641973, 12359.173579117487, 9320.02923727384, -5157.754440039926, 16514.74285301481, -3615.7522935572024, -4238.5389493154225, 2956.82286701475, 38646.43438415937, -0.0012365555241703988, 0.973568505257368, -0.1722799117341638, 192.0, 0.0, 0.0, 0.0, 0.0, 0.0, 0.0, 0.0, 0.0, 0.0, 1.741806004338966E9, 0.0, 2025-03-12 14:00:04.338
58.0, 8167.349775713656, 16255.55202431107, 4056.171066304573, 16279.714260067256, -54.98529136005538, 36057.27536168997, -12412.25897219884, 19285.442743950218, 12359.374744817585, 9337.016563059875, -5146.690326534549, 16530.65729506699, -3591.4559473342833, -4240.841178994319, 2969.9656927544706, 38653.54223889616, -0.0012365555241703988, 0.973568505257368, -0.1722799117341638, 192.0, 0.0, 0.0, 0.0, 0.0, 0.0, 0.0, 0.0, 0.0, 0.0, 1.741806004338982E9, 0.0, 2025-03-12 14:00:04.338
60.0, 8179.129145041603, 16243.258564860651, 4038.960223073986, 16282.17295195734, -49.196189546130846, 36058.14707972373, -12419.635047869093, 19281.665299137272, 12352.311593569708, 9319.023408773352, -5164.079983720778, 16512.865306480566, -3594.540488069116, -4263.170571705171, 2969.116326465169, 38647.52961963769, -0.0016182777620851994, 0.971784252628684, -0.17213995586708192, 192.0, 127.5, 120.0, 15.0, 40.0, 125.0, 80.0, 0.0, 0.0, 0.0, 1.741806004339028E9, 0.0, 2025-03-12 14:00:04.339
62.0, 8165.516932668321, 16245.426684072816, 4050.985461590941, 16282.642338590902, -48.54798895692694, 36061.99157977004, -12414.225925710909, 19282.738182871126, 12362.63809950806, 9317.79406282831, -5133.726314750471, 16529.025617721752, -3562.443383031295, -4201.92679189763, 2985.5448586398197, 38658.683140120884, -0.0016182777620851994, 0.971784252628684, -0.17213995586708192, 192.0, 0.0, 0.0, 0.0, 0.0, 0.0, 0.0, 0.0, 0.0, 0.0, 1.741806004399056E9, 0.0, 2025-03-12 14:00:04.399
64.0, 8153.648156362553, 16245.896070706378, 4056.3051767713046, 16284.184608958318, -50.917273869189486, 36059.28701869095, -12416.394044923074, 19284.1016392829, 12346.410733033506, 9316.832937816733, -5165.935178510568, 16507.187963388915, -3608.2421074202193, -4230.000582933496, 2973.340806167222, 38642.321663179595, -0.0016182777620851994, 0.971784252628684, -0.17213995586708192, 192.0, 0.0, 0.0, 0.0, 0.0, 0.0, 0.0, 0.0, 0.0, 0.0, 1.741806004399085E9, 0.0, 2025-03-12 14:00:04.399
66.0, 8164.645214634564, 16255.104989421963, 4066.4081652651034, 16304.927027812842, -46.73749765604707, 36085.19269051465, -12406.22400119591, 19304.48643022614, 12361.788733218758, 9332.099179279707, -5129.367724581686, 16532.02075147876, -3620.2896976816296, -4218.31062058337, 2983.4214429165654, 38658.16904999841, -0.0016182777620851994, 0.971784252628684, -0.17213995586708192, 192.0, 0.0, 0.0, 0.0, 0.0, 0.0, 0.0, 0.0, 0.0, 0.0, 1.741806004399133E9, 0.0, 2025-03-12 14:00:04.399
68.0, 8156.285662208279, 16247.415989329338, 4049.2196737789723, 16281.927082768332, -69.04453862244351, 36066.37252168328, -12423.613658382137, 19283.67695613825, 12353.250366836832, 9317.838766317222, -5151.272434147887, 16517.000379204797, -3626.369372173473, -4241.690545283621, 2970.211561943479, 38659.398395943455, -0.0016182777620851994, 0.971784252628684, -0.17213995586708192, 192.0, 0.0, 0.0, 0.0, 0.0, 0.0, 0.0, 0.0, 0.0, 0.0, 1.741806004399149E9, 0.0, 2025-03-12 14:00:04.399
70.0, 8152.910548795528, 16260.044724946587, 4054.8523133817093, 16307.698644125301, -48.1009540678208, 36084.14215852525, -12411.387254165085, 19294.852828365903, 12364.470942553395, 9342.179816029051, -5130.77588448237, 16542.481367883847, -3607.57155508656, -4217.8188822053535, 2984.0025882724035, 38667.847355347556, -0.0018091388810425996, 0.970892126314342, -0.17106997793354095, 192.0, 127.5, 120.0, 15.0, 40.0, 125.0, 88.0, 0.0, 0.0, 0.0, 1.741806004399165E9, 0.0, 2025-03-12 14:00:04.399
72.0, 8152.016479017316, 16250.075846919519, 4036.8591590951874, 16285.860989792465, -49.08443082385431, 36069.725283351574, -12421.93727754799, 19285.1521712723, 12342.074494609178, 9324.566641398269, -5165.398736643641, 16516.240419893315, -3604.9340492408337, -4263.751717061009, 2963.640149073619, 38649.60833187203, -0.0018091388810425996, 0.970892126314342, -0.17106997793354095, 192.0, 0.0, 0.0, 0.0, 0.0, 0.0, 0.0, 0.0, 0.0, 0.0, 1.741806004399182E9, 0.0, 2025-03-12 14:00:04.399
74.0, 8154.653984863042, 16264.40331511537, 4074.6336072246563, 16313.063062794576, -53.59948320382634, 36093.73105689658, -12409.755576819847, 19299.457287723697, 12357.072515138689, 9337.173025271062, -5133.838073472747, 16540.737931816333, -3587.4326333323284, -4189.409815002658, 2991.02103603137, 38669.32257048161, -0.0018091388810425996, 0.970892126314342, -0.17106997793354095, 192.0, 0.0, 0.0, 0.0, 0.0, 0.0, 0.0, 0.0, 0.0, 0.0, 1.741806004399197E9, 0.0, 2025-03-12 14:00:04.399
76.0, 8138.605432344131, 16259.351820868473, 4038.4908364404246, 16281.614158345958, -71.61498923480383, 36063.176222226175, -12440.824501612724, 19267.695458852704, 12360.313518084708, 9347.477179464959, -5143.181102655066, 16539.866213782574, -3630.3926861754285, -4233.621565535255, 2978.63816960313, 38659.1748784989, -0.0018091388810425996, 0.970892126314342, -0.17106997793354095, 192.0, 0.0, 0.0, 0.0, 0.0, 0.0, 0.0, 0.0, 0.0, 0.0, 1.741806004459416E9, 0.0, 2025-03-12 14:00:04.459
78.0, 8178.123316541114, 16274.573358842536, 4062.742479174433, 16315.030016306642, -56.10287858282073, 36084.74565562554, -12421.624353125615, 19281.24061599262, 12354.278547081774, 9326.175966999052, -5141.728239265471, 16535.820548036165, -3650.442200951839, -4199.73632094101, 2967.909332264582, 38646.50143939274, -0.0018091388810425996, 0.970892126314342, -0.17106997793354095, 192.0, 0.0, 0.0, 0.0, 0.0, 0.0, 0.0, 0.0, 0.0, 0.0, 1.741806004459458E9, 0.0, 2025-03-12 14:00:04.459
80.0, 8141.779380056785, 16242.990343927187, 4046.3362987442374, 16268.9407192398, -69.35746304481782, 36039.93040799265, -12441.89738534658, 19250.886947022314, 12362.146361130042, 9344.079714307753, -5138.710753764004, 16537.094597470117, -3611.2595929216855, -4238.829521993342, 2978.1464312251132, 38642.50047713524, -0.0019045694405212998, 0.970446063157171, -0.1695349889667705, 192.0, 127.5, 120.0, 15.0, 40.0, 125.0, 96.0, 0.0, 0.0, 0.0, 1.741806004459475E9, 0.0, 2025-03-12 14:00:04.459
82.0, 8126.714304293908, 16234.139053122886, 4036.300365483805, 16285.950396770288, -73.58194274687085, 36059.84581230233, -12441.629164413114, 19266.62257511885, 12330.518642725783, 9315.022446515852, -5162.940044753557, 16516.620399549058, -3618.3003924251075, -4264.243455439027, 2956.2864251478227, 38628.26241591721, -0.0019045694405212998, 0.970446063157171, -0.1695349889667705, 192.0, 0.0, 0.0, 0.0, 0.0, 0.0, 0.0, 0.0, 0.0, 0.0, 1.741806004459492E9, 0.0, 2025-03-12 14:00:04.459
84.0, 8140.974717256394, 16237.290649091085, 4032.768789859866, 16269.521864595637, -56.50520998301626, 36064.71849259359, -12412.616600110126, 19284.01223230508, 12328.685799680448, 9298.750376552389, -5174.317082681308, 16505.13160289903, -3594.0711014355543, -4151.948291295564, 2961.2038089279904, 38648.624855115995, -0.0019045694405212998, 0.970446063157171, -0.1695349889667705, 192.0, 0.0, 0.0, 0.0, 0.0, 0.0, 0.0, 0.0, 0.0, 0.0, 1.741806004459534E9, 0.0, 2025-03-12 14:00:04.459
86.0, 8146.585005114675, 16245.158463139353, 4047.99032783393, 16310.336149971028, -52.12426806977607, 36084.90211783673, -12415.857603056145, 19289.1531335298, 12336.01717186179, 9316.65412386109, -5162.470658119995, 16525.94107698692, -3619.9544215148, -4286.014054538495, 2976.7829748133395, 38660.60539014404, -0.0019045694405212998, 0.970446063157171, -0.1695349889667705, 192.0, 0.0, 0.0, 0.0, 0.0, 0.0, 0.0, 0.0, 0.0, 0.0, 1.74180600445955E9, 0.0, 2025-03-12 14:00:04.459
88.0, 8166.500409424354, 16256.222576644728, 4057.9145023720866, 16291.672443350846, -55.25351229351906, 36078.44246368915, -12407.78862330778, 19290.114258541376, 12347.036581878256, 9318.464615161969, -5144.097524177733, 16533.22774567935, -3641.076820025065, -4228.12303639925, 2978.861687047683, 38665.254552990744, -0.0019045694405212998, 0.970446063157171, -0.1695349889667705, 192.0, 0.0, 0.0, 0.0, 0.0, 0.0, 0.0, 0.0, 0.0, 0.0, 1.741806004459574E9, 0.0, 2025-03-12 14:00:04.459
90.0, 8152.172941228502, 16237.938849680288, 4048.2809005118493, 16311.051405793598, -51.36430875829563, 36090.288888250456, -12410.917867531523, 19295.43397372174, 12348.0647621232, 9323.091426264218, -5146.35505036772, 16535.12764395805, -3605.828119019046, -4215.561356015367, 2976.9394370245263, 38670.84248910457, -0.00195228472026065, 0.9702230315785855, -0.16876749448338524, 192.0, 127.5, 120.0, 15.0, 40.0, 125.0, 96.0, 0.0, 0.0, 0.0, 1.74180600445959E9, 0.0, 2025-03-12 14:00:04.459
92.0, 8148.306089437734, 16243.660896260846, 4041.865949853176, 16276.69677456579, -63.88128565326758, 36057.38712041225, -12417.064597256733, 19273.484560666628, 12334.452549749918, 9306.618190600657, -5160.146076696644, 16519.794347261708, -3620.803787804102, -4213.281478080926, 2967.954035753493, 38657.90082906495, -0.00195228472026065, 0.9702230315785855, -0.16876749448338524, 192.0, 0.0, 0.0, 0.0, 0.0, 0.0, 0.0, 0.0, 0.0, 0.0, 1.74180600452116E9, 0.0, 2025-03-12 14:00:04.521
94.0, 8172.445973449466, 16268.001945972675, 4076.868781670187, 16324.395397233415, -37.75209638501363, 36095.83212087538, -12394.377576634595, 19305.782831404547, 12363.107486141622, 9351.813417889289, -5138.442532830541, 16545.632963852044, -3609.9408399988224, -4265.428097895157, 2985.164878984079, 38676.47512870731, -0.00195228472026065, 0.9702230315785855, -0.16876749448338524, 192.0, 0.0, 0.0, 0.0, 0.0, 0.0, 0.0, 0.0, 0.0, 0.0, 1.741806004521191E9, 0.0, 2025-03-12 14:00:04.521
96.0, 8143.679278335486, 16249.561756797048, 4044.9951940769192, 16293.438231162816, -36.14277078423152, 36073.23450723106, -12404.257047683841, 19286.985014317634, 12359.44180005095, 9340.011696816886, -5130.753532737915, 16547.64462085302, -3570.333548824018, -4199.02106511844, 2991.110443009191, 38673.90467809495, -0.00195228472026065, 0.9702230315785855, -0.16876749448338524, 192.0, 0.0, 0.0, 0.0, 0.0, 0.0, 0.0, 0.0, 0.0, 0.0, 1.741806004521208E9, 0.0, 2025-03-12 14:00:04.521
98.0, 8156.285662208279, 16239.458768303248, 4042.804723120299, 16288.632606104924, -68.37398628878431, 36065.72432109408, -12422.31725720373, 19278.58075840244, 12333.625535205072, 9304.092443477208, -5163.87881802068, 16506.4950593108, -3632.918433298878, -4213.303829825381, 2965.182419441035, 38648.80366907164, -0.00195228472026065, 0.9702230315785855, -0.16876749448338524, 192.0, 0.0, 0.0, 0.0, 0.0, 0.0, 0.0, 0.0, 0.0, 0.0, 1.741806004521224E9, 0.0, 2025-03-12 14:00:04.521
100.0, 8163.438220433977, 16252.422780087327, 4057.445115738525, 16284.542236869604, -54.49355298203862, 36070.507594407514, -12412.750710576858, 19284.883950338837, 12357.608957005616, 9339.296440994316, -5132.720486249982, 16535.395864891514, -3625.4753023952608, -4244.193940662616, 2980.3816056706437, 38658.75019535425, -0.00195228472026065, 0.9702230315785855, -0.16876749448338524, 192.0, 0.0, 0.0, 15.0, 24.0, 125.0, 104.0, 0.0, 0.0, 0.0, 1.741806004521239E9, 0.0, 2025-03-12 14:00:04.521
102.0, 8145.735638825374, 16241.582184026503, 4044.257586509894, 16286.643300848402, -50.49259072453865, 36073.435672931155, -12416.237582711887, 19284.213398005177, 12343.125026598576, 9323.963144297975, -5154.40167837163, 16513.289989625217, -3602.408302117384, -4206.531251255423, 2971.0609282327805, 38646.47908764829, -0.00195228472026065, 0.9702230315785855, -0.16876749448338524, 192.0, 0.0, 0.0, 0.0, 0.0, 0.0, 0.0, 0.0, 0.0, 0.0, 1.741806004521256E9, 0.0, 2025-03-12 14:00:04.521
104.0, 8125.484958348866, 16227.232364086196, 4016.4073129185813, 16258.167178412341, -73.85016368033453, 36044.53486735045, -12434.633068398603, 19254.86555753536, 12335.0113433613, 9317.615248872668, -5158.849675518236, 16516.93332397143, -3610.2537644211966, -4237.242548137016, 2966.903503764094, 38636.2196369433, -0.00195228472026065, 0.9702230315785855, -0.16876749448338524, 192.0, 0.0, 0.0, 0.0, 0.0, 0.0, 0.0, 0.0, 0.0, 0.0, 1.741806004521271E9, 0.0, 2025-03-12 14:00:04.521
106.0, 8163.795848345262, 16251.372248097927, 4054.226464536961, 16292.521809640148, -56.84048614984586, 36080.07414103438, -12420.104434502655, 19291.410659719786, 12336.464206750896, 9314.553059882292, -5162.962396498013, 16506.897390710998, -3682.963989134311, -4255.101591956805, 2946.5187128208536, 38628.68709906186, -0.00195228472026065, 0.9702230315785855, -0.16876749448338524, 192.0, 0.0, 0.0, 0.0, 0.0, 0.0, 0.0, 0.0, 0.0, 0.0, 1.74180600457994E9, 0.0, 2025-03-12 14:00:04.579
108.0, 8140.840606789662, 16247.594803284981, 4043.5870341762347, 16289.906655538876, -54.426497748672695, 36070.798167085435, -12420.640876369582, 19275.697383367704, 12350.59050924665, 9337.307135737794, -5135.916785707091, 16536.55815560319, -3613.338305156029, -4215.404893804181, 2976.4476986465097, 38651.88820980647, -0.00195228472026065, 0.9702230315785855, -0.16876749448338524, 192.0, 0.0, 0.0, 0.0, 0.0, 0.0, 0.0, 0.0, 0.0, 0.0, 1.741806004579979E9, 0.0, 2025-03-12 14:00:04.579
110.0, 8123.60741181462, 16239.391713069883, 4032.031182292841, 16278.306100166572, -55.879361138267654, 36060.20344021362, -12427.033475283799, 19276.546749657005, 12328.931668869456, 9314.597763371201, -5175.345262926253, 16509.42313783445, -3601.4471771058056, -4263.394089149724, 2953.4030501130883, 38623.21092167031, -0.00195228472026065, 0.9702230315785855, -0.16876749448338524, 192.0, 0.0, 0.0, 15.0, 24.0, 125.0, 80.0, 0.0, 0.0, 0.0, 1.741806004580017E9, 0.0, 2025-03-12 14:00:04.580
112.0, 8154.430467418489, 16248.399466085371, 4054.4052784926034, 16295.427536419338, -59.835619906857005, 36082.24226024655, -12438.656382400559, 19292.48354345364, 12340.286355052753, 9317.838766317222, -5148.567873068795, 16525.248172908803, -3605.179918429842, -4188.82866964682, 2968.3787188981437, 38638.54421836665, -0.00195228472026065, 0.9702230315785855, -0.16876749448338524, 192.0, 0.0, 0.0, 0.0, 0.0, 0.0, 0.0, 0.0, 0.0, 0.0, 1.741806004580038E9, 0.0, 2025-03-12 14:00:04.580
114.0, 8115.784301255263, 16231.479195532704, 4019.089522253218, 16272.382887885917, -57.37692801677323, 36068.89826880673, -12432.621411397626, 19275.85384557889, 12340.35341028612, 9317.03410351683, -5162.671823820094, 16518.095614683105, -3582.1352698964206, -4195.0424546053955, 2965.8753235191493, 38647.32845393759, -0.00195228472026065, 0.9702230315785855, -0.16876749448338524, 192.0, 0.0, 0.0, 0.0, 0.0, 0.0, 0.0, 0.0, 0.0, 0.0, 1.741806004580054E9, 0.0, 2025-03-12 14:00:04.580
116.0, 8153.223473217902, 16254.702658021768, 4038.6249469071568, 16290.197228216795, -47.609215689804046, 36079.247126489536, -12409.487355886384, 19292.23767426463, 12327.076474079666, 9313.614286615168, -5173.467716392007, 16512.910009969477, -3635.377125188962, -4278.190943979138, 2960.8461810167055, 38624.90965424891, -0.00195228472026065, 0.9702230315785855, -0.16876749448338524, 192.0, 0.0, 0.0, 0.0, 0.0, 0.0, 0.0, 0.0, 0.0, 0.0, 1.741806004580069E9, 0.0, 2025-03-12 14:00:04.580
118.0, 8144.305127180234, 16240.844576459478, 4043.810551620788, 16273.45577161977, -65.93764614315583, 36068.80886182891, -12420.819690325225, 19284.302804983, 12341.91803239799, 9327.070036777262, -5164.482315120973, 16519.302608883692, -3636.5170641561826, -4203.491414009502, 2969.3845473986325, 38642.29931143514, -0.00195228472026065, 0.9702230315785855, -0.16876749448338524, 192.0, 0.0, 0.0, 0.0, 0.0, 0.0, 0.0, 0.0, 0.0, 0.0, 1.741806004580085E9, 0.0, 2025-03-12 14:00:04.580
120.0, 8154.2069499739355, 16244.68907650579, 4056.506342471402, 16292.70062359579, -68.61985547779268, 36066.886611805756, -12416.282286200796, 19282.335851470933, 12332.776168915769, 9290.703748548478, -5153.217035915499, 16511.859477980077, -3664.5908551920484, -4289.478574929068, 2959.2592071603785, 38628.79885778414, -0.001976142360130325, 0.9681115157892928, -0.17438374724169262, 192.0, 127.5, 120.0, 15.0, 24.0, 125.0, 48.0, 0.0, 0.0, 0.0, 1.7418060045801E9, 0.0, 2025-03-12 14:00:04.580
122.0, 8163.4829239228875, 16267.621966316936, 4043.0729440537625, 16294.958149785776, -54.78412565995761, 36082.97986781357, -12400.032567981789, 19302.363014502887, 12356.938404671957, 9351.61225218919, -5143.695192777538, 16538.815681793178, -3615.0817412235433, -4219.562318272868, 2983.7120155944845, 38657.69966336485, -0.001976142360130325, 0.9681115157892928, -0.17438374724169262, 192.0, 0.0, 0.0, 0.0, 0.0, 0.0, 0.0, 0.0, 0.0, 0.0, 1.741806004640403E9, 0.0, 2025-03-12 14:00:04.640
124.0, 8142.874615535095, 16252.020448687132, 4056.931025616053, 16300.769603344155, -61.0649658518989, 36087.83019636037, -12397.149192947054, 19298.42910747875, 12347.751837700825, 9332.680324635545, -5146.735030023459, 16531.97604798985, -3592.0147409456663, -4184.559486455856, 2975.8665532906716, 38652.71522435132, -0.001976142360130325, 0.9681115157892928, -0.17438374724169262, 192.0, 0.0, 0.0, 0.0, 0.0, 0.0, 0.0, 0.0, 0.0, 0.0, 1.741806004640433E9, 0.0, 2025-03-12 14:00:04.640
126.0, 8175.351700228656, 16249.114721907941, 4043.6987928985113, 16271.242948918696, -55.63349194925928, 36066.439576916644, -12395.83044002419, 19289.130781785345, 12346.321326055686, 9325.594821643213, -5154.960471983012, 16517.98385596083, -3586.896191465401, -4163.057108289851, 2972.089108477725, 38657.05146277565, -0.001976142360130325, 0.9681115157892928, -0.17438374724169262, 192.0, 0.0, 0.0, 0.0, 0.0, 0.0, 0.0, 0.0, 0.0, 0.0, 1.74180600464045E9, 0.0, 2025-03-12 14:00:04.640
128.0, 8175.888142095583, 16264.269204648639, 4056.6181011936787, 16305.485821424225, -56.14758207173134, 36083.650420147234, -12386.465059097418, 19295.21045627719, 12344.600241732627, 9336.413065959581, -5151.205378914521, 16528.667989810467, -3571.406432557873, -4248.306661642392, 2971.463259632976, 38655.822116830605, -0.001976142360130325, 0.9681115157892928, -0.17438374724169262, 192.0, 0.0, 0.0, 0.0, 0.0, 0.0, 0.0, 0.0, 0.0, 0.0, 1.741806004640495E9, 0.0, 2025-03-12 14:00:04.640
130.0, 8189.925037613516, 16266.616137816447, 4059.099144828218, 16289.012585760664, -54.04651809293248, 36072.07221651939, -12379.848942738647, 19287.879084095846, 12352.177483102976, 9344.504397452403, -5155.899245250135, 16532.959524745886, -3583.9457611973003, -4280.694339358132, 2976.7829748133395, 38668.69672163686, -0.0029880711800651626, 0.9690557578946464, -0.17619187362084632, 192.0, 127.5, 112.0, 15.0, 40.0, 125.0, 56.0, 0.0, 0.0, 0.0, 1.741806004640511E9, 0.0, 2025-03-12 14:00:04.640
132.0, 8185.074709066715, 16244.957297439254, 4041.933005086542, 16287.55972237107, -68.6645589667033, 36066.037245516454, -12398.937332503478, 19272.702249610695, 12360.648794251538, 9352.7074876675, -5141.750591009926, 16540.93909751643, -3583.610485030471, -4207.760597200465, 2981.879172549149, 38676.69864615186, -0.0029880711800651626, 0.9690557578946464, -0.17619187362084632, 192.0, 0.0, 0.0, 0.0, 0.0, 0.0, 0.0, 0.0, 0.0, 0.0, 1.741806004640528E9, 0.0, 2025-03-12 14:00:04.640
134.0, 8182.683072409996, 16249.829977730511, 4048.7949906343215, 16273.276957664128, -61.44494550763911, 36062.8632978038, -12384.386346863073, 19277.57492990195, 12329.669276436482, 9315.268315704861, -5184.017739774912, 16500.773012730242, -3638.14874150142, -4216.321315326848, 2945.1329046646247, 38652.37994818448, -0.0029880711800651626, 0.9690557578946464, -0.17619187362084632, 192.0, 0.0, 0.0, 0.0, 0.0, 0.0, 0.0, 0.0, 0.0, 0.0, 1.741806004640551E9, 0.0, 2025-03-12 14:00:04.640
136.0, 8208.812261678251, 16273.03108847512, 4079.349825304726, 16319.053330308598, -47.40804998970628, 36079.805920100924, -12376.429125836985, 19281.82176134846, 12369.1201054001, 9369.851275664721, -5142.935233466057, 16551.042086010228, -3566.734917966714, -4232.280460867937, 2989.367006941677, 38689.55089921366, -0.0029880711800651626, 0.9690557578946464, -0.17619187362084632, 192.0, 0.0, 0.0, 0.0, 0.0, 0.0, 0.0, 0.0, 0.0, 0.0, 1.741806004700073E9, 0.0, 2025-03-12 14:00:04.700
138.0, 8206.152404088069, 16264.626832559925, 4050.940758102031, 16286.710356081769, -58.67332919518104, 36060.27049544698, -12381.368861361607, 19278.737220613628, 12367.8684077106, 9369.89597915363, -5154.245216160442, 16546.41527490798, -3570.1994383572865, -4235.879091725242, 2984.6731406060626, 38677.88328860799, -0.0029880711800651626, 0.9690557578946464, -0.17619187362084632, 192.0, 0.0, 0.0, 0.0, 0.0, 0.0, 0.0, 0.0, 0.0, 0.0, 1.741806004700106E9, 0.0, 2025-03-12 14:00:04.700
140.0, 8193.255447537356, 16252.087503920497, 4053.1759325475614, 16299.741423099213, -75.57124800339318, 36077.05665553292, -12406.425166896006, 19274.62449963385, 12365.54382628725, 9357.960147614498, -5154.200512671532, 16534.27827766875, -3564.455040032273, -4197.478794751024, 2977.8335068027386, 38692.41192250394, -0.0024940355900325813, 0.9715278789473232, -0.17409593681042318, 192.0, 127.5, 120.0, 15.0, 56.0, 125.0, 80.0, 0.0, 0.0, 0.0, 1.741806004700123E9, 0.0, 2025-03-12 14:00:04.700
142.0, 8206.420625021532, 16280.697736823291, 4064.1729908195725, 16296.187495730817, -36.187474273142136, 36079.448292189634, -12363.174541374987, 19291.72358414216, 12362.682802996971, 9347.030144575852, -5162.425954631085, 16528.042140965717, -3516.1752720088093, -4192.44965224858, 2980.605123115197, 38689.57325095812, -0.0024940355900325813, 0.9715278789473232, -0.17409593681042318, 192.0, 0.0, 0.0, 0.0, 0.0, 0.0, 0.0, 0.0, 0.0, 0.0, 1.741806004700141E9, 0.0, 2025-03-12 14:00:04.700
144.0, 8219.630505994619, 16271.779390785623, 4076.868781670187, 16309.464431937271, -42.7141836540918, 36081.348190468336, -12375.915035714512, 19285.3533369724, 12389.63900681007, 9368.130191341663, -5147.986727712957, 16542.637830095035, -3551.8486561594796, -4188.962780113552, 2999.917030324582, 38713.37785880302, -0.0024940355900325813, 0.9715278789473232, -0.17409593681042318, 192.0, 0.0, 0.0, 0.0, 0.0, 0.0, 0.0, 0.0, 0.0, 0.0, 1.741806004700156E9, 0.0, 2025-03-12 14:00:04.700
146.0, 8204.967761631939, 16251.729876009213, 4066.609330965201, 16279.580149600524, -74.76658520300212, 36065.254934460514, -12385.25806489683, 19276.323232212453, 12380.251274138842, 9346.024316075363, -5142.8458264882365, 16528.26565841027, -3632.1361222429423, -4202.709102953566, 2977.609989358186, 38697.53047198421, -0.0024940355900325813, 0.9715278789473232, -0.17409593681042318, 192.0, 0.0, 0.0, 0.0, 0.0, 0.0, 0.0, 0.0, 0.0, 0.0, 1.741806004700172E9, 0.0, 2025-03-12 14:00:04.700
148.0, 8219.406988550067, 16261.586995314003, 4051.4771999689583, 16299.294388210106, -56.48285823856095, 36077.637800888755, -12380.631253794581, 19281.642947392815, 12381.92765497299, 9320.297458207306, -5152.010041714912, 16510.22780063484, -3589.3995868443953, -4123.718038048511, 2981.0298062598476, 38707.67816396691, -0.0024940355900325813, 0.9715278789473232, -0.17409593681042318, 192.0, 0.0, 0.0, 0.0, 0.0, 0.0, 0.0, 0.0, 0.0, 0.0, 1.741806004700188E9, 0.0, 2025-03-12 14:00:04.700
150.0, 8173.652967650052, 16239.078788647508, 4032.2323479929387, 16268.203111672774, -75.0124543920105, 36039.9080562482, -12403.675902328003, 19248.607069087873, 12366.862579210112, 9350.204092288506, -5160.011966229912, 16521.76130077378, -3575.51915353765, -4286.0811097718615, 2963.438983373521, 38682.9794863438, -2.4701779501629063E-4, 0.9707639394736616, -0.17304796840521158, 192.0, 0.0, 8.0, 15.0, 40.0, 125.0, 80.0, 0.0, 0.0, 0.0, 1.74180600470026E9, 0.0, 2025-03-12 14:00:04.700
152.0, 8230.001715421882, 16260.60351855797, 4074.991235135941, 16296.500420153192, -49.598520946326374, 36071.200498485625, -12384.699271285448, 19277.619633390863, 12381.190047405964, 9340.861063106187, -5159.631986574172, 16518.609704805578, -3524.445417457273, -4219.651725250688, 2989.7693383418728, 38697.95515512886, -2.4701779501629063E-4, 0.9707639394736616, -0.17304796840521158, 192.0, 0.0, 0.0, 0.0, 0.0, 0.0, 0.0, 0.0, 0.0, 0.0, 1.741806004759333E9, 0.0, 2025-03-12 14:00:04.759
154.0, 8225.777235719828, 16275.132152453918, 4087.9328951755638, 16302.736556856224, -49.55381745741576, 36075.44732993213, -12378.954872960434, 19282.82758984895, 12395.31634990172, 9360.172970315572, -5123.980954167957, 16543.666010339977, -3596.66390379237, -4255.302757656903, 2997.950076812515, 38709.71217271235, -2.4701779501629063E-4, 0.9707639394736616, -0.17304796840521158, 192.0, 0.0, 0.0, 0.0, 0.0, 0.0, 0.0, 0.0, 0.0, 0.0, 1.74180600475936E9, 0.0, 2025-03-12 14:00:04.759
156.0, 8207.404101777567, 16250.92521320882, 4065.290578042338, 16300.166106243863, -58.71803268409165, 36069.725283351574, -12393.662320812025, 19269.215377475666, 12383.715794529415, 9358.384830759149, -5147.472637590485, 16536.55815560319, -3579.3636535839623, -4231.095818411805, 2992.362140698688, 38708.125198856025, -2.4701779501629063E-4, 0.9707639394736616, -0.17304796840521158, 192.0, 0.0, 0.0, 0.0, 0.0, 0.0, 0.0, 0.0, 0.0, 0.0, 1.741806004759405E9, 0.0, 2025-03-12 14:00:04.759
158.0, 8193.85894463765, 16229.624000742913, 4047.2303685224497, 16279.915425767354, -68.79866943343514, 36062.818594314886, -12403.966475005922, 19264.38740067332, 12354.367954059597, 9323.113778008674, -5169.645568090149, 16515.36870185956, -3549.9934613696887, -4197.232925562015, 2974.63720734563, 38685.41582648943, -2.4701779501629063E-4, 0.9707639394736616, -0.17304796840521158, 192.0, 0.0, 0.0, 0.0, 0.0, 0.0, 0.0, 0.0, 0.0, 0.0, 1.741806004759422E9, 0.0, 2025-03-12 14:00:04.759
160.0, 8205.05716860976, 16241.626887515413, 4065.894075142631, 16292.722975340246, -60.28265479596315, 36068.94297229564, -12404.771137806314, 19267.896624552803, 12344.130855099065, 9309.70273133549, -5178.608617616727, 16497.6437685065, -3582.9175809523563, -4156.977433798008, 2961.2485124169007, 38680.431387475895, -0.0011235088975081453, 0.9713819697368308, -0.17352398420260579, 192.0, 127.5, 120.0, 15.0, 48.0, 125.0, 72.0, 0.0, 0.0, 0.0, 1.741806004759437E9, 0.0, 2025-03-12 14:00:04.759
162.0, 8210.846270423683, 16263.59865231498, 4079.0816043712625, 16323.166051288374, -33.34880272731814, 36091.00414407303, -12379.245445638353, 19300.28430226854, 12380.139515416566, 9355.52380746887, -5130.664125760094, 16557.837016324644, -3553.927368393823, -4207.224155333538, 3006.9354780835483, 38722.743239729796, -0.0011235088975081453, 0.9713819697368308, -0.17352398420260579, 192.0, 0.0, 0.0, 0.0, 0.0, 0.0, 0.0, 0.0, 0.0, 0.0, 1.741806004759455E9, 0.0, 2025-03-12 14:00:04.759
164.0, 8202.084386597204, 16246.968954440232, 4066.005833864908, 16303.317702212062, -45.709317411102944, 36077.90602182222, -12393.55056208975, 19281.754706115094, 12364.515646042306, 9353.243929534428, -5159.184951685065, 16536.960487003387, -3564.0750603765323, -4229.799417233398, 2990.439890675532, 38710.96387040184, -0.0011235088975081453, 0.9713819697368308, -0.17352398420260579, 192.0, 0.0, 0.0, 0.0, 0.0, 0.0, 0.0, 0.0, 0.0, 0.0, 1.741806004759471E9, 0.0, 2025-03-12 14:00:04.759
166.0, 8187.555752701253, 16213.128413334896, 4037.641470151123, 16282.754097313178, -74.40895729171721, 36066.50663215001, -12425.357094449651, 19270.221205976155, 12339.101712596621, 9319.381036684637, -5169.980844256979, 16519.235553650327, -3591.3888921009175, -4246.026783707951, 2972.2679224333674, 38688.92505036891, -0.0011235088975081453, 0.9713819697368308, -0.17352398420260579, 192.0, 0.0, 0.0, 0.0, 0.0, 0.0, 0.0, 0.0, 0.0, 0.0, 1.741806004819637E9, 0.0, 2025-03-12 14:00:04.819
168.0, 8217.52944201582, 16253.49566382118, 4076.041767125341, 16300.27786496614, -26.956203813100316, 36090.847681861844, -12376.473829325894, 19295.21045627719, 12348.958831901411, 9326.734760610434, -5170.807858801825, 16513.69232102541, -3590.0030839446886, -4187.219344046038, 2987.1318324961467, 38703.65484996496, -0.0011235088975081453, 0.9713819697368308, -0.17352398420260579, 192.0, 0.0, 0.0, 0.0, 0.0, 0.0, 0.0, 0.0, 0.0, 0.0, 1.741806004819667E9, 0.0, 2025-03-12 14:00:04.819
170.0, 8199.759805173851, 16236.217765357229, 4074.3653862911924, 16295.025205019141, -65.87059090978991, 36073.77094909799, -12411.36490242063, 19272.881063566336, 12362.235768107865, 9349.13120855465, -5145.036297444856, 16539.37447540456, -3552.1392288373986, -4208.9005361676855, 3006.533146683353, 38713.19904484738, -0.0015617544487540728, 0.9756909848684154, -0.1757619921013029, 192.0, 127.5, 120.0, 15.0, 80.0, 125.0, 56.0, 0.0, 0.0, 0.0, 1.741806004819684E9, 0.0, 2025-03-12 14:00:04.819
172.0, 8223.787930463306, 16254.300326621573, 4081.897924172631, 16294.913446296865, -40.99309933103315, 36090.19948127264, -12390.331910888186, 19293.377613231853, 12352.266890080797, 9326.958278054986, -5163.029451731379, 16511.524201813245, -3575.0721186485434, -4213.527347269935, 2985.0978237507134, 38690.31085852514, -0.0015617544487540728, 0.9756909848684154, -0.1757619921013029, 192.0, 0.0, 0.0, 0.0, 0.0, 0.0, 0.0, 0.0, 0.0, 0.0, 1.741806004819701E9, 0.0, 2025-03-12 14:00:04.819
174.0, 8173.898836839061, 16240.889279948387, 4064.955301875508, 16302.066004522563, -50.76081165800234, 36081.079969534876, -12415.0305885113, 19271.986993788123, 12378.30667237123, 9355.970842357974, -5130.485311804451, 16541.810815550187, -3522.8807953454016, -4177.697500908077, 3019.1395305561464, 38718.451704794374, -0.0015617544487540728, 0.9756909848684154, -0.1757619921013029, 192.0, 0.0, 0.0, 0.0, 0.0, 0.0, 0.0, 0.0, 0.0, 0.0, 1.741806004819745E9, 0.0, 2025-03-12 14:00:04.819
176.0, 8181.543133442776, 16236.396579312872, 4037.4403044510254, 16270.393582629393, -63.255436808518986, 36053.96730351059, -12428.821614840224, 19241.76743528455, 12336.53126198426, 9327.852347833199, -5191.639684634171, 16499.96834992985, -3609.5161568541716, -4251.45825761059, 2964.2659979183672, 38663.64522738996, -0.0015617544487540728, 0.9756909848684154, -0.1757619921013029, 192.0, 0.0, 0.0, 0.0, 0.0, 0.0, 0.0, 0.0, 0.0, 0.0, 1.741806004819761E9, 0.0, 2025-03-12 14:00:04.819
178.0, 8205.638313965597, 16260.625870302425, 4063.100107085718, 16312.70543488329, -42.53536969844934, 36085.10328353683, -12406.268704684819, 19274.780961845037, 12371.377631590085, 9352.171045800573, -5142.711716021504, 16530.500832855803, -3559.962339396756, -4218.221213605549, 2988.8752685636605, 38676.63159091849, -0.0015617544487540728, 0.9756909848684154, -0.1757619921013029, 192.0, 0.0, 0.0, 0.0, 0.0, 0.0, 0.0, 0.0, 0.0, 0.0, 1.741806004819784E9, 0.0, 2025-03-12 14:00:04.819
180.0, 8196.898781883572, 16254.725009766224, 4045.2410632659276, 16288.69966133829, -44.74819239952474, 36076.90019332173, -12403.273570927808, 19269.885929809327, 12382.486448584372, 9354.18270280155, -5143.15875091061, 16528.13154794354, -3550.574606725527, -4162.29714897837, 2998.598277401719, 38686.51106196774, -0.0027808772243770362, 0.9748454924342077, -0.17288099605065144, 192.0, 127.5, 112.0, 15.0, 56.0, 125.0, 88.0, 0.0, 0.0, 0.0, 1.7418060048198E9, 0.0, 2025-03-12 14:00:04.819
182.0, 8187.801621890262, 16253.227442887717, 4059.166200061584, 16297.908580053876, -53.375965759273264, 36065.65726586071, -12417.019893767821, 19255.826682546936, 12382.039413695265, 9355.300290024315, -5150.40071611413, 16530.679646811444, -3585.0409966756106, -4232.459274823579, 2997.480690178954, 38673.41293971693, -0.0027808772243770362, 0.9748454924342077, -0.17288099605065144, 192.0, 0.0, 0.0, 0.0, 0.0, 0.0, 0.0, 0.0, 0.0, 0.0, 1.741806004879885E9, 0.0, 2025-03-12 14:00:04.879
184.0, 8184.650025922064, 16244.26439336114, 4056.863970382687, 16270.97472798523, -69.11159385580943, 36058.012969257, -12419.098606002166, 19250.32815341093, 12357.854826194623, 9331.786254857332, -5165.555198854828, 16504.326940098636, -3650.5539596741155, -4232.191053890116, 2963.4613351179764, 38645.56266612562, -0.0027808772243770362, 0.9748454924342077, -0.17288099605065144, 192.0, 0.0, 0.0, 0.0, 0.0, 0.0, 0.0, 0.0, 0.0, 0.0, 1.741806004879912E9, 0.0, 2025-03-12 14:00:04.879
186.0, 8169.540246670276, 16247.572451540525, 4062.6307204521563, 16308.972693559253, -46.2010557891197, 36082.24226024655, -12400.010216237333, 19272.43402867723, 12381.435916594974, 9360.32943252676, -5137.950794452524, 16535.70878931389, -3603.637648062426, -4241.22115865006, 2991.9374575540373, 38684.45470147785, -0.0027808772243770362, 0.9748454924342077, -0.17288099605065144, 192.0, 0.0, 0.0, 0.0, 0.0, 0.0, 0.0, 0.0, 0.0, 0.0, 1.741806004879929E9, 0.0, 2025-03-12 14:00:04.879
188.0, 8212.835575680207, 16253.674477776824, 4058.2944820278267, 16280.429515889826, -56.84048614984586, 36068.272419961984, -12415.8799548006, 19261.10169423839, 12373.54575080225, 9338.581185171746, -5151.808876014814, 16520.017864706264, -3579.3189500950516, -4160.754878610955, 2984.919009795071, 38678.24091651928, -0.0027808772243770362, 0.9748454924342077, -0.17288099605065144, 192.0, 0.0, 0.0, 0.0, 0.0, 0.0, 0.0, 0.0, 0.0, 0.0, 1.741806004879945E9, 0.0, 2025-03-12 14:00:04.879
190.0, 8187.913380612538, 16241.023390415121, 4048.4597144674917, 16297.014510275665, -64.70830019811395, 36069.47941416257, -12413.778890821803, 19254.32911566843, 12368.360146088618, 9342.22451951796, -5155.698079550038, 16516.910972226975, -3567.4278220448286, -4279.755566091009, 2969.2280851874457, 38668.78612861468, -0.003390438612188518, 0.9714227462171039, -0.17044049802532574, 192.0, 127.5, 112.0, 15.0, 32.0, 125.0, 96.0, 0.0, 0.0, 0.0, 1.741806004879961E9, 0.0, 2025-03-12 14:00:04.879
192.0, 8185.991130589382, 16237.916497935832, 4041.0612870527852, 16281.681213579324, -60.886151896256436, 36074.776777598476, -12398.736166803381, 19269.86357806487, 12369.388326333563, 9343.498568951914, -5150.333660880764, 16523.504736841292, -3536.671821674326, -4160.218436744027, 2987.668274363074, 38682.7783206437, -0.003390438612188518, 0.9714227462171039, -0.17044049802532574, 192.0, 0.0, 0.0, 0.0, 0.0, 0.0, 0.0, 0.0, 0.0, 0.0, 1.741806004879979E9, 0.0, 2025-03-12 14:00:04.879
194.0, 8190.215610291435, 16243.392675327383, 4040.4354382080364, 16314.985312817731, -35.271052750474546, 36090.288888250456, -12389.59430332116, 19276.122066512355, 12356.513721527306, 9335.809568859288, -5168.259759933921, 16511.770071002255, -3560.27526381913, -4249.446600609613, 2986.014245273381, 38687.65100093496, -0.003390438612188518, 0.9714227462171039, -0.17044049802532574, 192.0, 0.0, 0.0, 0.0, 0.0, 0.0, 0.0, 0.0, 0.0, 0.0, 1.741806004879994E9, 0.0, 2025-03-12 14:00:04.879
196.0, 8186.2593515228455, 16235.92719267931, 4040.7483626304106, 16285.860989792465, -54.672366937681076, 36078.59892590033, -12397.037434224778, 19265.974374529647, 12361.364050074108, 9348.818284132276, -5157.441515617552, 16524.532917086235, -3570.8476389464904, -4240.327088871848, 2989.8363935752386, 38699.385666774, -0.003390438612188518, 0.9714227462171039, -0.17044049802532574, 192.0, 0.0, 0.0, 0.0, 0.0, 0.0, 0.0, 0.0, 0.0, 0.0, 1.741806004940211E9, 0.0, 2025-03-12 14:00:04.940
198.0, 8191.28849402529, 16232.97676241121, 4066.229351309461, 16299.607312632479, -59.14271582874249, 36087.83019636037, -12399.719643559414, 19272.746953099606, 12360.313518084708, 9339.072923549762, -5155.988652227957, 16516.374530360048, -3646.3518317165176, -4225.820806720353, 2985.5895621287304, 38694.73650392729, -0.003390438612188518, 0.9714227462171039, -0.17044049802532574, 192.0, 0.0, 0.0, 0.0, 0.0, 0.0, 0.0, 0.0, 0.0, 0.0, 1.74180600494024E9, 0.0, 2025-03-12 14:00:04.940
200.0, 8191.020273091826, 16232.149747866362, 4057.713336671989, 16282.955263013277, -52.39248900323975, 36088.03136206047, -12395.11518420162, 19273.931595555736, 12352.49040752535, 9317.212917472472, -5152.166503926099, 16508.55141980069, -3600.642514305415, -4112.966848965508, 2984.8743063061606, 38689.6850096804, -0.003390438612188518, 0.9714227462171039, -0.17044049802532574, 192.0, 0.0, 0.0, 15.0, 40.0, 125.0, 80.0, 0.0, 0.0, 0.0, 1.741806004940284E9, 0.0, 2025-03-12 14:00:04.940
202.0, 8188.561581201742, 16235.077826390008, 4057.4674674829803, 16292.387699173416, -50.783163402457646, 36083.024571302485, -12399.563181348227, 19272.76930484406, 12363.286300097263, 9336.122493281662, -5153.395849871141, 16513.848783236597, -3561.6610719753594, -4224.2114811195715, 2993.0997482657135, 38693.03777134869, -0.003390438612188518, 0.9714227462171039, -0.17044049802532574, 192.0, 0.0, 0.0, 0.0, 0.0, 0.0, 0.0, 0.0, 0.0, 0.0, 1.741806004940301E9, 0.0, 2025-03-12 14:00:04.940
204.0, 8168.42265944751, 16222.627904728402, 4033.104066026696, 16263.17396917033, -68.53044849997146, 36055.80014655592, -12423.859527571145, 19246.885984764813, 12351.149302858032, 9332.032124046342, -5154.088753949256, 16518.609704805578, -3571.7864122136134, -4236.594347547812, 2982.5497248828087, 38672.384759471985, -0.003390438612188518, 0.9714227462171039, -0.17044049802532574, 192.0, 0.0, 0.0, 0.0, 0.0, 0.0, 0.0, 0.0, 0.0, 0.0, 1.741806004940316E9, 0.0, 2025-03-12 14:00:04.940
206.0, 8184.2029910329575, 16234.228460100707, 4056.9980808494192, 16281.614158345958, -47.92214011217834, 36070.4628909186, -12407.341588418674, 19261.459322149673, 12345.047276621734, 9322.554984397291, -5173.6688820921045, 16496.906160939474, -3589.6901595223144, -4261.851818782308, 2968.982215998437, 38656.89500056446, -0.003390438612188518, 0.9714227462171039, -0.17044049802532574, 192.0, 0.0, 0.0, 0.0, 0.0, 0.0, 0.0, 0.0, 0.0, 0.0, 1.741806004940332E9, 0.0, 2025-03-12 14:00:04.940
208.0, 8177.47511595191, 16233.35674206695, 4058.18272330555, 16281.837675790512, -53.91240762620063, 36074.083873520365, -12406.112242473631, 19262.398095416796, 12358.815951206203, 9333.127359524651, -5145.7292015229705, 16524.354103130594, -3577.6649210053592, -4231.36403934527, 2984.49432665042, 38667.8250036031, -0.003390438612188518, 0.9714227462171039, -0.17044049802532574, 192.0, 0.0, 0.0, 0.0, 0.0, 0.0, 0.0, 0.0, 0.0, 0.0, 1.741806004940347E9, 0.0, 2025-03-12 14:00:04.940
210.0, 8166.813333846729, 16215.900029647355, 4040.3683829746706, 16266.526730838625, -59.92502688467823, 36065.389044927244, -12414.717664088925, 19260.945232027203, 12350.38934354655, 9311.51322263637, -5162.448306375541, 16501.01888191925, -3599.010836960177, -4159.972567555019, 2984.203753972501, 38669.18846001488, -0.004, 0.966, -0.17200000000000001, 192.0, 127.5, 112.0, 15.0, 24.0, 125.0, 80.0, 0.0, 0.0, 0.0, 1.741806004940363E9, 0.0, 2025-03-12 14:00:04.940
212.0, 8190.148555058069, 16239.659934003346, 4053.4218017365697, 16282.17295195734, -46.06694532238786, 36077.45898693311, -12409.733225075392, 19268.209548975177, 12356.021983149289, 9330.400446701104, -5152.21120741501, 16516.106309426585, -3596.9768282147443, -4247.1667226751715, 2984.6060853726967, 38660.24776223276, -0.004, 0.966, -0.17200000000000001, 192.0, 0.0, 0.0, 0.0, 0.0, 0.0, 0.0, 0.0, 0.0, 0.0, 1.741806005001365E9, 0.0, 2025-03-12 14:00:05.001
214.0, 8169.428487947999, 16228.238192586685, 4035.965089316975, 16267.6890215503, -59.67915769566986, 36066.238411216546, -12424.664190371537, 19258.486540137117, 12344.309669054708, 9326.891222821621, -5178.988597272468, 16494.22395160484, -3622.122540726965, -4221.149292129194, 2962.567265339764, 38645.13798298097, -0.004, 0.966, -0.17200000000000001, 192.0, 0.0, 0.0, 0.0, 0.0, 0.0, 0.0, 0.0, 0.0, 0.0, 1.741806005001396E9, 0.0, 2025-03-12 14:00:05.001
216.0, 8181.587836931687, 16233.714369978235, 4050.6278336796563, 16286.375079914938, -44.14469529923145, 36074.28503922046, -12416.79637632327, 19270.62353737635, 12368.471904810895, 9339.855234605699, -5138.77780899737, 16525.51639384227, -3573.529848281127, -4276.8721910562745, 2987.6012191297077, 38665.9251053244, -0.004, 0.966, -0.17200000000000001, 192.0, 0.0, 0.0, 0.0, 0.0, 0.0, 0.0, 0.0, 0.0, 0.0, 1.741806005001412E9, 0.0, 2025-03-12 14:00:05.001
218.0, 8156.71034535293, 16215.028311613598, 4025.325658956249, 16251.662820775846, -64.84241066484579, 36054.39198665524, -12425.871184572123, 19258.75476107058, 12334.117273583088, 9314.955391282487, -5188.935123555079, 16486.78082070122, -3582.984636185722, -4277.520391645478, 2959.370965882655, 38639.326529422586, -0.004, 0.966, -0.17200000000000001, 192.0, 0.0, 0.0, 0.0, 0.0, 0.0, 0.0, 0.0, 0.0, 0.0, 1.741806005001454E9, 0.0, 2025-03-12 14:00:05.001
220.0, 8173.205932760947, 16222.78436693959, 4061.155505318106, 16280.429515889826, -60.72968968506929, 36073.99446654254, -12420.752635091858, 19269.371839686853, 12355.820817449192, 9329.79694960081, -5145.818608500792, 16512.26180938027, -3617.0710464800654, -4207.559431500367, 2975.7771463128506, 38653.49753540725, -0.002, 0.97, -0.178, 192.0, 127.5, 120.0, 15.0, 40.0, 125.0, 56.0, 0.0, 0.0, 0.0, 1.74180600500147E9, 0.0, 2025-03-12 14:00:05.001
222.0, 8141.868787034606, 16211.54143947857, 4030.108932269685, 16257.653088289868, -58.382756517262045, 36061.32102743638, -12429.201594495964, 19262.129874483333, 12343.259137065308, 9317.972876783953, -5168.483277378474, 16493.463992293357, -3608.2868109091296, -4221.328106084837, 2968.9375125095266, 38645.54031438116, -0.002, 0.97, -0.178, 192.0, 0.0, 0.0, 0.0, 0.0, 0.0, 0.0, 0.0, 0.0, 0.0, 1.741806005001487E9, 0.0, 2025-03-12 14:00:05.001
