%OpenBCI Raw EXG Data
%Number of channels = 16
%Sample Rate = 125 Hz
%Board = OpenBCI_GUI$BoardCytonSerialDaisy
Sample Index, EXG Channel 0, EXG Channel 1, EXG Channel 2, EXG Channel 3, EXG Channel 4, EXG Channel 5, EXG Channel 6, EXG Channel 7, EXG Channel 8, EXG Channel 9, EXG Channel 10, EXG Channel 11, EXG Channel 12, EXG Channel 13, EXG Channel 14, EXG Channel 15, Accel Channel 0, Accel Channel 1, Accel Channel 2, Not Used, Digital Channel 0 (D11), Digital Channel 1 (D12), Digital Channel 2 (D13), Digital Channel 3 (D17), Not Used, Digital Channel 4 (D18), Analog Channel 0, Analog Channel 1, Analog Channel 2, Timestamp, Marker Channel, Timestamp (Formatted)
0.0, 34480.04686594568, -5545.892482506333, -26785.950575584244, -17253.155082840334, 4672.4980679152095, -19701.76633617477, -10522.664847691638, 24340.06623507336, 0.0, 0.0, 0.0, 0.0, 0.0, 0.0, 0.0, 0.0, 0.0, 0.0, 0.0, 192.0, 0.0, 0.0, 0.0, 0.0, 0.0, 0.0, 0.0, 0.0, 0.0, 1.741891556069672E9, 0.0, 2025-03-13 13:45:56.069
44.0, 34465.808804727654, -5560.9575582692105, -26784.318898239006, -17261.872263177906, 4668.16182949088, -19715.28914157023, -10535.94178389809, 24327.81747911185, -4964.657719690528, 7593.334626356916, -20035.500232636958, 52484.42172818443, -18610.86709628905, -25422.94119869962, 8552.425629189685, 19157.724876132594, 0.0, 0.0, 0.0, 192.0, 0.0, 0.0, 0.0, 0.0, 0.0, 0.0, 0.0, 0.0, 0.0, 1.741891556070002E9, 0.0, 2025-03-13 13:45:56.070
46.0, 34472.447272830876, -5550.094610463931, -26779.82619760349, -17250.115245594414, 4679.002425551704, -19705.901408899, -10518.552126711862, 24338.747482150495, -4970.916208138015, 7590.808879233466, -20035.6790465926, 52477.85031531457, -18612.521125378746, -25424.662283022677, 8554.034954790468, 19157.3225447324, -0.004, 0.9540000000000001, -0.232, 192.0, 127.5, 112.0, 14.5, 104.0, 124.0, 96.0, 0.0, 0.0, 0.0, 1.741891556070415E9, 0.0, 2025-03-13 13:45:56.070
48.0, 34465.69704600538, -5563.81858155949, -26775.266441734606, -17259.771199199105, 4676.655492383897, -19713.56805724717, -10531.784359429403, 24328.353920978778, -4961.908455122525, 7580.504725039569, -20031.745139568466, 52470.09425998858, -18609.838916044107, -25429.825535991855, 8558.617062403806, 19154.75209412004, -0.004, 0.9540000000000001, -0.232, 192.0, 0.0, 0.0, 0.0, 0.0, 0.0, 0.0, 0.0, 0.0, 0.0, 1.741891556070842E9, 0.0, 2025-03-13 13:45:56.070
50.0, 34465.65234251646, -5557.425982645272, -26778.596851658447, -17254.2726700631, 4688.680730900852, -19699.531161729235, -10513.053597575856, 24343.1954792971, -4966.803487158238, 7586.450289064681, -20035.857860548243, 52472.64235885649, -18609.01190149926, -25425.824573734353, 8562.282748494477, 19158.283669743978, -0.004, 0.9540000000000001, -0.232, 192.0, 0.0, 0.0, 0.0, 0.0, 0.0, 0.0, 0.0, 0.0, 0.0, 1.741891556071269E9, 0.0, 2025-03-13 13:45:56.071
52.0, 34470.52502280772, -5558.118886723386, -26767.82331083099, -17250.964611883715, 4697.509669960698, -19694.233798293328, -10509.454966718551, 24344.96126710907, -4963.450725489942, 7591.434728078214, -20033.28740993588, 52466.42857389791, -18602.664006073956, -25415.07338465135, 8576.140830056767, 19167.783161137482, -0.004, 0.9540000000000001, -0.232, 192.0, 0.0, 0.0, 0.0, 0.0, 0.0, 0.0, 0.0, 0.0, 0.0, 1.741891556071654E9, 0.0, 2025-03-13 13:45:56.071
54.0, 34468.312200106644, -5557.537741367548, -26777.59102315796, -17249.623507216395, 4697.017931582682, -19689.00349009079, -10499.731957880493, 24351.91265963467, -4956.007594586325, 7594.251047879583, -20031.119290723716, 52477.604446125566, -18597.16547693795, -25407.764364214465, 8584.567437716418, 19175.852140885847, -0.004, 0.9540000000000001, -0.232, 192.0, 0.0, 0.0, 0.0, 0.0, 0.0, 0.0, 0.0, 0.0, 0.0, 1.741891556072039E9, 0.0, 2025-03-13 13:45:56.072
56.0, 34459.2820953467, -5567.439564161249, -26779.937956325764, -17258.251280576143, 4689.552448934609, -19693.786763404223, -10509.36555974073, 24350.236278800523, -4967.854019147637, 7585.131536141817, -20045.737331597487, 52459.09720171657, -18605.033290986215, -25413.17348637265, 8577.884266124282, 19175.002774596545, -0.002, 0.9540000000000001, -0.23600000000000002, 192.0, 127.5, 120.0, 14.5, 104.0, 124.0, 80.0, 0.0, 0.0, 0.0, 1.741891556072427E9, 0.0, 2025-03-13 13:45:56.072
58.0, 34454.2306010998, -5568.981834528665, -26796.277081522596, -17265.873225435404, 4670.709928358785, -19703.24155130882, -10523.111882580744, 24339.06040657287, -4973.6207692171065, 7580.25885585056, -20045.916145553132, 52470.40718441096, -18614.130450979526, -25419.879009709242, 8566.149600285245, 19166.151483792244, -0.002, 0.9540000000000001, -0.23600000000000002, 192.0, 0.0, 0.0, 0.0, 0.0, 0.0, 0.0, 0.0, 0.0, 0.0, 1.741891556072831E9, 0.0, 2025-03-13 13:45:56.072
0.0, 17045.686190806173, -2975.8665532906716, -13404.519963803288, -8630.410865594253, 2373.4199849867805, -9811.924077501784, -5237.0584293673555, 12167.93205355788, -2479.099032771472, 3800.46710973586, -10013.939143888849, 26239.629237607627, -9301.36553065366, -12702.675187906647, 4283.823583581875, 9588.697205626631, -0.004, 0.9520000000000001, -0.232, 192.0, 127.5, 112.0, 14.5, 96.0, 124.0, 96.0, 0.0, 0.0, 0.0, 1.741891556245264E9, 0.0, 2025-03-13 13:45:56.245
2.0, 34098.32377413795, -5943.12768496605, -26808.88346539539, -17260.84408293296, 4755.490095077765, -19617.880239234, -10463.969166752002, 24345.721226420552, -5417.302896654952, 7459.894711958732, -20119.36397783327, 52347.15966548439, -18584.87201748753, -25313.35059563525, 8725.025799873567, 19168.006678582035, -0.004, 0.9520000000000001, -0.232, 192.0, 0.0, 0.0, 0.0, 0.0, 0.0, 0.0, 0.0, 0.0, 0.0, 1.741891556245645E9, 0.0, 2025-03-13 13:45:56.245
4.0, 34100.62600381685, -5940.870158776064, -26813.19735207526, -17263.682754478785, 4759.334595124077, -19613.946332209867, -10456.391925381653, 24355.131310836234, -5411.647905307759, 7461.325223603872, -20120.50391680049, 52327.33366815253, -18580.379316852013, -25314.222313669005, 8728.982058642157, 19169.951280349647, -0.004, 0.9520000000000001, -0.232, 192.0, 0.0, 0.0, 0.0, 0.0, 0.0, 0.0, 0.0, 0.0, 0.0, 1.741891556245891E9, 0.0, 2025-03-13 13:45:56.245
6.0, 34101.14009393932, -5943.172388454961, -26828.77651796061, -17267.23668184718, 4752.852589232039, -19616.494431077772, -10462.561006851318, 24345.788281653917, -5390.927838197689, 7465.952034706121, -20118.134631888228, 52352.725249853764, -18580.96046220785, -25309.05906069983, 8729.764369698092, 19169.347783249355, -0.004, 0.9520000000000001, -0.232, 192.0, 0.0, 0.0, 0.0, 0.0, 0.0, 0.0, 0.0, 0.0, 0.0, 1.741891556246151E9, 0.0, 2025-03-13 13:45:56.246
8.0, 34104.40344862979, -5935.79631278471, -26831.570486017525, -17262.36400155592, 4751.220911886801, -19615.7791752552, -10468.461867387517, 24343.553107208387, -5391.419576575706, 7452.764505477489, -20124.348416846802, 52323.46681636177, -18585.162590165448, -25309.43904035557, 8717.157985825299, 19160.74236163406, -0.012, 0.9500000000000001, -0.222, 192.0, 127.5, 80.0, 14.5, 88.0, 124.5, 8.0, 0.0, 0.0, 0.0, 1.741891556246428E9, 0.0, 2025-03-13 13:45:56.246
10.0, 34105.565739341466, -5931.683591804933, -26829.804698205557, -17260.46410327722, 4747.577577540586, -19619.444861345874, -10473.625120356694, 24336.311142004866, -5394.124137654798, 7476.837334255855, -20127.298847114904, 52351.78647658664, -18588.5377035782, -25308.63437755518, 8712.687636934237, 19156.763751121016, -0.012, 0.9500000000000001, -0.222, 192.0, 0.0, 0.0, 0.0, 0.0, 0.0, 0.0, 0.0, 0.0, 0.0, 1.741891556246711E9, 0.0, 2025-03-13 13:45:56.246
12.0, 34110.90780626629, -5921.871175989053, -26825.624921992414, -17251.36694328391, 4747.13054265148, -19618.371977612016, -10473.893341290157, 24336.065272815857, -5389.0279399189885, 7480.48066860207, -20118.447556310603, 52340.96823227027, -18586.950729721873, -25305.10280193124, 8710.966552611178, 19156.584937165375, -0.012, 0.9500000000000001, -0.222, 192.0, 0.0, 0.0, 0.0, 0.0, 0.0, 0.0, 0.0, 0.0, 0.0, 1.741891556246994E9, 0.0, 2025-03-13 13:45:56.246
14.0, 34123.15656222779, -5912.103463662084, -26807.140029327875, -17242.64976294634, 4751.51148456472, -19618.55079156766, -10471.948739522546, 24330.991426824505, -5360.261244805008, 7495.38928215376, -20101.415527035657, 52367.56680817209, -18579.038212184692, -25294.843351226253, 8718.63320095935, 19160.69765814515, -0.012, 0.9500000000000001, -0.222, 192.0, 0.0, 0.0, 0.0, 0.0, 0.0, 0.0, 0.0, 0.0, 0.0, 1.741891556247258E9, 0.0, 2025-03-13 13:45:56.247
16.0, 34115.73578306863, -5915.6126875415675, -26811.74448868567, -17246.89659439285, 4740.402667570433, -19620.897724735467, -10484.756289095438, 24329.82913611283, -5362.563474483904, 7491.455375129626, -20104.008329392473, 52347.94197654033, -18579.351136607067, -25297.458505327526, 8717.359151525397, 19159.55771917793, -0.012, 0.9500000000000001, -0.222, 192.0, 0.0, 0.0, 0.0, 0.0, 0.0, 0.0, 0.0, 0.0, 0.0, 1.741891556305706E9, 0.0, 2025-03-13 13:45:56.305
18.0, 34111.712469066675, -5919.568946310156, -26808.88346539539, -17250.2717078056, 4746.504693806732, -19622.104718936054, -10477.35786168073, 24330.231467513022, -5366.653843719226, 7502.988875268564, -20113.485469041523, 52361.956520313805, -18582.435677341902, -25297.48085707198, 8716.666247447283, 19159.244794755556, -0.01, 0.96, -0.224, 192.0, 127.5, 88.0, 15.0, 0.0, 124.5, 0.0, 0.0, 0.0, 0.0, 1.741891556306006E9, 0.0, 2025-03-13 13:45:56.306
20.0, 34105.163407941276, -5920.977106210841, -26818.74058470018, -17250.40581827233, 4749.4551240748315, -19613.34283510957, -10465.869065030702, 24341.854374629784, -5367.279692563974, 7499.412596155715, -20121.55444878989, 52338.062505491085, -18580.803999996664, -25301.168894907107, 8724.377599284364, 19162.03876281247, -0.01, 0.96, -0.224, 192.0, 0.0, 0.0, 0.0, 0.0, 0.0, 0.0, 0.0, 0.0, 0.0, 1.741891556306282E9, 0.0, 2025-03-13 13:45:56.306
22.0, 34110.57253009946, -5921.468844588858, -26808.190561317275, -17246.002524614636, 4752.494961320754, -19611.375881597505, -10465.31027141932, 24343.374293252742, -5372.040614132955, 7504.7099595916225, -20120.861544711774, 52350.24420621923, -18581.11692441904, -25295.44684832655, 8732.021895888078, 19166.12913204779, -0.01, 0.96, -0.224, 192.0, 0.0, 0.0, 0.0, 0.0, 0.0, 0.0, 0.0, 0.0, 0.0, 1.741891556306564E9, 0.0, 2025-03-13 13:45:56.306
24.0, 34116.49574238012, -5908.258963615771, -26817.645349221868, -17245.13080658088, 4746.348231595544, -19610.481811819292, -10474.049803501344, 24342.748444407993, -5358.517808737494, 7507.258058459528, -20113.17254461915, 52338.42013340237, -18577.33947960609, -25295.737421004465, 8731.261936576599, 19165.592690180863, -0.01, 0.96, -0.224, 192.0, 0.0, 0.0, 0.0, 0.0, 0.0, 0.0, 0.0, 0.0, 0.0, 1.741891556306804E9, 0.0, 2025-03-13 13:45:56.306
26.0, 34125.23527446214, -5900.726425734333, -26810.202218318253, -17234.98311459817, 4748.695164763351, -19600.512933792226, -10478.49780064795, 24346.25766828748, -5345.754962653514, 7515.170575996706, -20119.386329577726, 52352.83700857604, -18577.227720883813, -25290.57416803529, 8722.63416321685, 19166.30794600343, -0.01, 0.96, -0.224, 192.0, 0.0, 0.0, 0.0, 0.0, 0.0, 0.0, 0.0, 0.0, 0.0, 1.74189155630706E9, 0.0, 2025-03-13 13:45:56.307
28.0, 34129.28094020855, -5895.205544853872, -26812.437392763783, -17230.378655240376, 4756.22770264479, -19597.11546863502, -10467.344280164752, 24348.67165668865, -5350.985270856056, 7523.977163312097, -20098.8450764233, 52358.961386556795, -18566.811807967642, -25270.055266625317, 8729.764369698092, 19178.26612928702, -0.006, 0.9560000000000001, -0.224, 192.0, 127.5, 104.0, 14.5, 112.0, 124.5, 0.0, 0.0, 0.0, 0.0, 1.741891556307313E9, 0.0, 2025-03-13 13:45:56.307
30.0, 34131.44905942072, -5890.914009918453, -26803.250825792653, -17228.389349983856, 4755.288929377667, -19602.368128582017, -10477.31315819182, 24342.457871730076, -5340.815227128891, 7534.370724483815, -20096.654605466676, 52360.81658134658, -18570.656308013953, -25274.972650405485, 8724.712875451192, 19173.1252280623, -0.006, 0.9560000000000001, -0.224, 192.0, 0.0, 0.0, 0.0, 0.0, 0.0, 0.0, 0.0, 0.0, 0.0, 1.74189155636586E9, 0.0, 2025-03-13 13:45:56.365
32.0, 34113.56766385647, -5903.83331821362, -26821.422794034817, -17241.956858868227, 4744.314222850111, -19614.661588032435, -10483.035204772379, 24333.53952569241, -5347.811323143402, 7526.793483113466, -20107.40579454968, 52354.915720810386, -18580.133447663004, -25285.5673772773, 8716.219212558177, 19163.335163990876, -0.006, 0.9560000000000001, -0.224, 192.0, 0.0, 0.0, 0.0, 0.0, 0.0, 0.0, 0.0, 0.0, 0.0, 1.741891556366163E9, 0.0, 2025-03-13 13:45:56.366
34.0, 34126.688137851736, -5896.278428587727, -26799.696898424256, -17229.46223371771, 4761.569769569608, -19604.06686116062, -10471.50170463344, 24342.59198219681, -5334.109703792299, 7530.01213431503, -20100.856733424276, 52356.63680513344, -18572.802075481664, -25282.192263864552, 8726.053980118511, 19168.56547219342, -0.006, 0.9560000000000001, -0.224, 192.0, 0.0, 0.0, 0.0, 0.0, 0.0, 0.0, 0.0, 0.0, 0.0, 1.741891556366461E9, 0.0, 2025-03-13 13:45:56.366
36.0, 34111.84657953341, -5908.482481060324, -26815.723099198713, -17245.08610309197, 4745.610624028519, -19615.108622921543, -10484.868047817714, 24333.941857092603, -5336.38958172674, 7520.87027083281, -20109.082175383828, 52353.17228474287, -18575.126656905017, -25289.925967446088, 8721.158948082799, 19162.284632001476, -0.006, 0.9560000000000001, -0.224, 192.0, 0.0, 0.0, 0.0, 0.0, 0.0, 0.0, 0.0, 0.0, 0.0, 1.74189155636672E9, 0.0, 2025-03-13 13:45:56.366
38.0, 34112.494780122615, -5913.064588673662, -26800.725078669202, -17245.823710658995, 4748.091667663058, -19618.282570634197, -10486.522076907406, 24331.48316520252, -5332.925061336167, 7523.463073189626, -20106.4446695381, 52347.629052117954, -18572.511502803743, -25290.77533373539, 8724.221137073177, 19165.972669836603, -0.004, 0.96, -0.228, 192.0, 127.5, 112.0, 15.0, 0.0, 124.0, 112.0, 0.0, 0.0, 0.0, 1.74189155636698E9, 0.0, 2025-03-13 13:45:56.366
40.0, 34115.55696911299, -5906.6943415038995, -26807.050622350052, -17241.487472234665, 4748.762219996717, -19614.706291521346, -10482.856390816736, 24336.467604216054, -5342.335145751852, 7510.253192216539, -20111.898495185196, 52343.65044160491, -18581.16162790795, -25299.96190070652, 8714.051093346012, 19157.50135868804, -0.004, 0.96, -0.228, 192.0, 0.0, 0.0, 0.0, 0.0, 0.0, 0.0, 0.0, 0.0, 0.0, 1.741891556367261E9, 0.0, 2025-03-13 13:45:56.367
42.0, 34123.78241107254, -5898.670065244444, -26787.35873548493, -17234.446672731243, 4760.385127113477, -19614.16984965442, -10478.31898669231, 24336.691121660606, -5328.342953722829, 7527.106407535841, -20094.55354148788, 52340.63295610344, -18566.34242133408, -25284.561548776812, 8731.552509254518, 19170.97946059459, -0.004, 0.96, -0.228, 192.0, 0.0, 0.0, 0.0, 0.0, 0.0, 0.0, 0.0, 0.0, 0.0, 1.741891556367506E9, 0.0, 2025-03-13 13:45:56.367
44.0, 34117.74744006961, -5904.5262222917345, -26795.58417744448, -17236.480681476674, 4753.545493310153, -19613.36518685403, -10482.878742561192, 24335.037092570914, -5335.383753226251, 7525.921765079709, -20100.36499504626, 52353.84283707653, -18570.745714991775, -25287.310813344815, 8729.25027957562, 19166.598518681352, -0.004, 0.96, -0.228, 192.0, 0.0, 0.0, 0.0, 0.0, 0.0, 0.0, 0.0, 0.0, 0.0, 1.741891556367776E9, 0.0, 2025-03-13 13:45:56.367
46.0, 34120.96609127118, -5905.241478114304, -26792.410229731828, -17236.570088454497, 4755.266577633211, -19615.82387874411, -10484.823344328803, 24330.00795006847, -5332.2098055135975, 7524.826529601399, -20098.487448512013, 52341.549377626114, -18567.080028901106, -25285.969708677498, 8734.190015100243, 19164.251585513543, -0.004, 0.96, -0.228, 192.0, 0.0, 0.0, 0.0, 0.0, 0.0, 0.0, 0.0, 0.0, 0.0, 1.741891556425225E9, 0.0, 2025-03-13 13:45:56.425
48.0, 34112.494780122615, -5905.934382192419, -26812.83972416398, -17240.1687193118, 4740.492074548254, -19620.048358446165, -10492.512344421428, 24322.475412187032, -5341.642241673737, 7524.379494712293, -20108.970416661552, 52355.519217910674, -18582.72625001982, -25290.73063024648, 8725.249317318121, 19154.88620458677, -0.004, 0.96, -0.228, 192.0, 0.0, 0.0, 15.0, 8.0, 124.0, 120.0, 0.0, 0.0, 0.0, 1.74189155642552E9, 0.0, 2025-03-13 13:45:56.425
50.0, 34132.16431524328, -5891.137527363006, -26798.44520073476, -17225.12599529338, 4756.808848000628, -19602.323425093105, -10475.972053524501, 24341.72026416305, -5339.809398628402, 7535.533015195491, -20103.31542531436, 52336.96727001277, -18573.53968304869, -25278.548929518336, 8730.97136389868, 19164.519806447006, -0.004, 0.96, -0.228, 192.0, 0.0, 0.0, 0.0, 0.0, 0.0, 0.0, 0.0, 0.0, 0.0, 1.741891556425786E9, 0.0, 2025-03-13 13:45:56.425
52.0, 34127.157524485294, -5893.395053552992, -26809.844590406967, -17231.719759907694, 4749.969214197304, -19606.056166417144, -10479.369518681708, 24336.087624560314, -5313.166119237676, 7545.63600368929, -20093.12302984274, 52364.43756394835, -18571.416267325436, -25274.95029866103, 8729.563203997994, 19163.201053524142, -0.004, 0.96, -0.228, 192.0, 0.0, 0.0, 0.0, 0.0, 0.0, 0.0, 0.0, 0.0, 0.0, 1.741891556426052E9, 0.0, 2025-03-13 13:45:56.426
54.0, 34124.27414945056, -5893.395053552992, -26809.06227935103, -17232.278553519078, 4745.230644372778, -19606.9278844509, -10484.935103051079, 24332.153717536177, -5321.637430386238, 7547.915881623731, -20099.783849690422, 52345.684450350345, -18573.025592926217, -25275.218519594495, 8724.176433584265, 19161.18939652317, -0.004, 0.96, -0.228, 192.0, 0.0, 0.0, 0.0, 0.0, 0.0, 0.0, 0.0, 0.0, 0.0, 1.741891556426314E9, 0.0, 2025-03-13 13:45:56.426
56.0, 34121.83780930493, -5897.530126277224, -26815.11960209842, -17234.98311459817, 4746.504693806732, -19609.78890774118, -10484.063385017322, 24329.739729135006, -5325.548985665916, 7540.942137353675, -20107.294035827403, 52364.75048837072, -18577.898273217474, -25281.09702838624, 8717.515613736585, 19155.55675692043, -0.004, 0.96, -0.228, 192.0, 0.0, 0.0, 0.0, 0.0, 0.0, 0.0, 0.0, 0.0, 0.0, 1.741891556426603E9, 0.0, 2025-03-13 13:45:56.426
58.0, 34130.175009986764, -5890.914009918453, -26798.892235623865, -17227.472928461186, 4750.41624908641, -19606.16792513942, -10481.336472193774, 24332.086662302812, -5315.490700661028, 7547.5582537124465, -20097.83924792281, 52347.04790676211, -18570.34338359158, -25278.638336496155, 8721.62833471636, 19159.960050578124, -0.006, 0.964, -0.218, 192.0, 127.5, 104.0, 15.0, 16.0, 124.5, 24.0, 0.0, 0.0, 0.0, 1.74189155642686E9, 0.0, 2025-03-13 13:45:56.426
60.0, 34118.59680635891, -5905.554402536679, -26800.54626471356, -17235.251335531633, 4744.5824437835745, -19613.11931766502, -10488.757251352938, 24326.699891889086, -5310.260392458486, 7546.753590912055, -20094.195913576594, 52360.97304355777, -18566.275366100715, -25275.263223083406, 8727.126863852365, 19163.066943057413, -0.006, 0.964, -0.218, 192.0, 0.0, 0.0, 0.0, 0.0, 0.0, 0.0, 0.0, 0.0, 0.0, 1.74189155648511E9, 0.0, 2025-03-13 13:45:56.485
62.0, 34114.68525107923, -5910.851765972587, -26795.852398377945, -17240.235774545166, 4749.902158963938, -19615.957989210845, -10482.78933558337, 24326.67754014463, -5317.792930339924, 7525.027695301497, -20106.08704162682, 52324.58440358453, -18575.841912727585, -25293.234025625472, 8719.840195159935, 19150.84053884036, -0.006, 0.964, -0.218, 192.0, 0.0, 0.0, 0.0, 0.0, 0.0, 0.0, 0.0, 0.0, 0.0, 1.741891556485424E9, 0.0, 2025-03-13 13:45:56.485
64.0, 34113.388849900824, -5911.79053923971, -26795.472418722205, -17251.925736895293, 4742.682545504874, -19627.35737888305, -10494.054614788845, 24318.27328422943, -5316.921212306168, 7531.085018048885, -20103.203666592082, 52347.27142420667, -18571.416267325436, -25297.68202277208, 8730.859605176402, 19155.64616389825, -0.006, 0.964, -0.218, 192.0, 0.0, 0.0, 0.0, 0.0, 0.0, 0.0, 0.0, 0.0, 0.0, 1.741891556485676E9, 0.0, 2025-03-13 13:45:56.485
66.0, 34144.07779503796, -5885.393129037992, -26780.988488315164, -17231.630352929875, 4748.851626974539, -19609.475983318804, -10488.466678675019, 24330.700854146584, -5295.128261462243, 7541.478579220603, -20090.21730306355, 52328.183034441834, -18571.952709192363, -25297.503208816437, 8725.495186507129, 19152.0698847854, -0.006, 0.964, -0.218, 192.0, 0.0, 0.0, 0.0, 0.0, 0.0, 0.0, 0.0, 0.0, 0.0, 1.741891556485944E9, 0.0, 2025-03-13 13:45:56.485
68.0, 34160.48397546816, -5869.992777108286, -26758.748502582133, -17217.280532989567, 4755.333632866577, -19600.06589890312, -10488.89136181967, 24332.243124514, -5257.510275543961, 7570.35703305686, -20060.891814338185, 52366.426869204864, -18547.946935647364, -25268.04360962434, 8749.568015285495, 19170.867701872314, -0.006, 0.964, -0.218, 192.0, 127.5, 104.0, 15.0, 16.0, 124.5, 24.0, 0.0, 0.0, 0.0, 1.741891556486197E9, 0.0, 2025-03-13 13:45:56.486
70.0, 34142.334358970445, -5879.849896413076, -26777.836892346968, -17221.97439932518, 4746.728211251284, -19605.74324199477, -10494.009911299934, 24327.437499456108, -5267.389746593207, 7567.563064999947, -20071.240672020995, 52353.440505676335, -18557.804054952154, -25270.345839303238, 8741.454332048217, 19162.59755642385, -0.006, 0.964, -0.218, 192.0, 0.0, 0.0, 0.0, 0.0, 0.0, 0.0, 0.0, 0.0, 0.0, 1.74189155648647E9, 0.0, 2025-03-13 13:45:56.486
72.0, 34144.25660899361, -5875.245437055282, -26778.775665614092, -17218.755748123618, 4756.920606722904, -19604.223323371807, -10481.470582660508, 24331.393758224698, -5273.223551896042, 7565.082021365407, -20079.55552095837, 52362.04592729163, -18560.82154045362, -25270.36819104769, 8742.817788459992, 19162.262280257022, -0.006, 0.964, -0.218, 192.0, 0.0, 0.0, 0.0, 0.0, 0.0, 0.0, 0.0, 0.0, 0.0, 1.741891556486709E9, 0.0, 2025-03-13 13:45:56.486
74.0, 34143.54135317104, -5873.233780054305, -26786.799941873545, -17220.923867335783, 4760.832162002584, -19602.658701259938, -10472.351070922741, 24337.071101316345, -5264.7075372585705, 7584.237466363606, -20074.77224764493, 52361.956520313805, -18550.539738004176, -25263.908536900108, 8748.182207129264, 19170.822998383403, -0.006, 0.964, -0.218, 192.0, 0.0, 0.0, 0.0, 0.0, 0.0, 0.0, 0.0, 0.0, 0.0, 1.741891556486978E9, 0.0, 2025-03-13 13:45:56.486
76.0, 34124.52001863957, -5895.116137876051, -26798.78047690159, -17244.192033313757, 4745.565920539609, -19619.042529945677, -10491.662978132126, 24316.686310373105, -5278.990301965511, 7562.600977730868, -20094.17356183214, 52356.301528966615, -18567.34824983457, -25283.08633364276, 8730.658439476305, 19153.098065030346, -0.006, 0.964, -0.218, 192.0, 0.0, 0.0, 0.0, 0.0, 0.0, 0.0, 0.0, 0.0, 0.0, 1.741891556545397E9, 0.0, 2025-03-13 13:45:56.545
78.0, 34118.17212321426, -5897.798347210687, -26818.40530853335, -17251.23283281718, 4737.809865213617, -19622.104718936054, -10497.921466579613, 24316.753365606473, -5285.1370316907205, 7561.550445741469, -20106.6458352382, 52337.39195315742, -18569.315203346636, -25287.37786857818, 8719.259049804097, 19149.27591672849, -0.006, 0.966, -0.22, 192.0, 127.5, 104.0, 15.0, 24.0, 124.5, 16.0, 0.0, 0.0, 0.0, 1.741891556545744E9, 0.0, 2025-03-13 13:45:56.545
80.0, 34114.61819584587, -5902.827489713131, -26805.59775896046, -17252.484530506674, 4747.823446729594, -19620.763614268733, -10488.623140886206, 24321.514287175454, -5298.123395219254, 7549.882835135799, -20118.73812898852, 52331.15581645439, -18586.079011688114, -25301.01243269592, 8707.569087453972, 19137.07186425589, -0.006, 0.966, -0.22, 192.0, 0.0, 0.0, 0.0, 0.0, 0.0, 0.0, 0.0, 0.0, 0.0, 1.741891556546032E9, 0.0, 2025-03-13 13:45:56.546
82.0, 34119.24500694812, -5890.489326773802, -26806.290663038573, -17236.011294843112, 4756.965310211815, -19603.150439637953, -10475.100335490744, 24338.322799005844, -5272.374185606741, 7569.887646423298, -20103.561294503368, 52336.07320023456, -18566.454180056357, -25283.734534231968, 8725.11520685139, 19156.40612320973, -0.006, 0.966, -0.22, 192.0, 0.0, 0.0, 0.0, 0.0, 0.0, 0.0, 0.0, 0.0, 0.0, 1.741891556546289E9, 0.0, 2025-03-13 13:45:56.546
84.0, 34122.30719593849, -5893.439757041902, -26791.8737878649, -17233.574954697484, 4756.719441022807, -19607.30786410664, -10479.749498337449, 24336.2440867715, -5282.298360144897, 7574.268588336538, -20095.78288743292, 52337.86133979099, -18566.990621923283, -25279.890034185653, 8730.546680754029, 19165.771504136505, -0.006, 0.966, -0.22, 192.0, 0.0, 0.0, 0.0, 0.0, 0.0, 0.0, 0.0, 0.0, 0.0, 1.741891556546543E9, 0.0, 2025-03-13 13:45:56.546
86.0, 34115.020527246066, -5896.032559398718, -26804.79309616007, -17238.89466987785, 4752.785533998673, -19612.649931031458, -10477.581379125284, 24342.793147896904, -5281.739566533514, 7558.957643384653, -20093.97239613204, 52339.6047758585, -18569.918700446928, -25286.640261011158, 8730.211404587199, 19160.854120356336, -0.006, 0.966, -0.22, 192.0, 0.0, 0.0, 0.0, 0.0, 0.0, 0.0, 0.0, 0.0, 0.0, 1.741891556546792E9, 0.0, 2025-03-13 13:45:56.546
88.0, 34108.13618995383, -5907.3425420931035, -26797.573482701002, -17250.65168746134, 4750.729173508785, -19630.64308531798, -10492.311178721331, 24325.872877344238, -5280.532572332928, 7583.745727985589, -20098.241579323003, 52327.87011001946, -18570.29868010267, -25289.970670934996, 8732.044247632533, 19151.68990512966, -0.006, 0.966, -0.222, 192.0, 127.5, 104.0, 15.0, 24.0, 124.5, 8.0, 0.0, 0.0, 0.0, 1.741891556547051E9, 0.0, 2025-03-13 13:45:56.547
90.0, 34118.46269589218, -5899.631190256023, -26792.767857643114, -17240.07931233398, 4763.201446914845, -19621.635332302492, -10477.000233769446, 24336.57936293833, -5274.385842607719, 7561.461038763648, -20101.37082354675, 52327.64659257491, -18572.24328187028, -25305.52748507589, 8734.68175347826, 19143.06213176991, -0.006, 0.966, -0.222, 192.0, 0.0, 0.0, 0.0, 0.0, 0.0, 0.0, 0.0, 0.0, 0.0, 1.741891556605742E9, 0.0, 2025-03-13 13:45:56.605
92.0, 34116.71925982467, -5898.401844310981, -26780.49674993715, -17241.4204170013, 4770.04108071817, -19625.166907926432, -10477.60373086974, 24331.930200091625, -5258.314938344352, 7578.560123271957, -20089.7926199189, 52327.62424083045, -18557.357020063046, -25295.44684832655, 8752.518445553595, 19151.354628962832, -0.006, 0.966, -0.222, 192.0, 0.0, 0.0, 0.0, 0.0, 0.0, 0.0, 0.0, 0.0, 0.0, 1.741891556606045E9, 0.0, 2025-03-13 13:45:56.606
94.0, 34118.84267554792, -5892.635094241512, -26789.996241330653, -17237.821786143995, 4767.269464405712, -19616.606189800048, -10477.804896569836, 24332.936028592114, -5266.607435537271, 7586.696158253689, -20096.475791511035, 52343.0022410157, -18567.169435878925, -25294.888054715164, 8747.288137351054, 19145.386713193264, -0.006, 0.966, -0.222, 192.0, 0.0, 0.0, 0.0, 0.0, 0.0, 0.0, 0.0, 0.0, 0.0, 1.741891556606304E9, 0.0, 2025-03-13 13:45:56.606
96.0, 34111.82422778895, -5904.8167949696535, -26797.282910023085, -17250.2717078056, 4750.326842108589, -19632.990018485787, -10495.440422945074, 24317.2898074734, -5265.623958781238, 7579.633007005812, -20097.191047333607, 52325.00908672918, -18571.036287669693, -25302.398240852148, 8731.530157510062, 19136.87069855579, -0.006, 0.966, -0.222, 192.0, 0.0, 0.0, 0.0, 0.0, 0.0, 0.0, 0.0, 0.0, 0.0, 1.741891556606577E9, 0.0, 2025-03-13 13:45:56.606
98.0, 34110.17019869926, -5905.867326959054, -26809.30814854004, -17252.12690259539, 4742.704897249329, -19627.580896327603, -10497.65324564615, 24322.67657788713, -5273.715290274059, 7574.335643569904, -20106.93640791612, 52332.809845544085, -18580.692241274388, -25306.19803740955, 8721.695389949726, 19128.846422296338, -0.004, 0.964, -0.226, 192.0, 127.5, 112.0, 15.0, 16.0, 124.0, 120.0, 0.0, 0.0, 0.0, 1.741891556606826E9, 0.0, 2025-03-13 13:45:56.606
100.0, 34116.674556335754, -5895.004379153774, -26800.658023435837, -17240.1687193118, 4752.897292720949, -19614.862753732534, -10485.762117595927, 24335.662941415663, -5266.249807625986, 7583.633969263312, -20109.618617250755, 52312.805034256584, -18576.44540982788, -25297.81613323881, 8722.812977172493, 19141.519861402496, -0.004, 0.964, -0.226, 192.0, 0.0, 0.0, 0.0, 0.0, 0.0, 0.0, 0.0, 0.0, 0.0, 1.741891556607134E9, 0.0, 2025-03-13 13:45:56.607
102.0, 34106.41510563077, -5902.514565290758, -26809.64342470687, -17247.94712638225, 4749.075144419092, -19618.908419478943, -10484.59982688425, 24338.211040283568, -5271.368357106252, 7587.970207687642, -20106.01998639345, 52335.51440662318, -18577.5853487951, -25297.212636138516, 8724.377599284364, 19148.001867294537, -0.004, 0.964, -0.226, 192.0, 0.0, 0.0, 0.0, 0.0, 0.0, 0.0, 0.0, 0.0, 0.0, 1.741891556607421E9, 0.0, 2025-03-13 13:45:56.607
104.0, 34113.99234700112, -5897.328960577126, -26804.033136848586, -17244.192033313757, 4752.584368298575, -19615.890933977476, -10481.582341382784, 24344.38012175323, -5279.526743832439, 7585.0644809084515, -20108.568085261355, 52308.424092343346, -18576.62422378352, -25300.475990828993, 8722.589459727938, 19149.49943417304, -0.004, 0.964, -0.226, 192.0, 0.0, 0.0, 0.0, 0.0, 0.0, 0.0, 0.0, 0.0, 0.0, 1.741891556607684E9, 0.0, 2025-03-13 13:45:56.607
106.0, 34113.21003594519, -5900.726425734333, -26808.25761655064, -17247.477739748687, 4750.46095257532, -19620.048358446165, -10480.64356811566, 24342.659037430174, -5273.737642018515, 7587.232600120617, -20103.11425961426, 52327.87011001946, -18577.562997050645, -25300.096011173253, 8724.355247539908, 19148.203032994632, -0.004, 0.964, -0.226, 192.0, 0.0, 0.0, 0.0, 0.0, 0.0, 0.0, 0.0, 0.0, 0.0, 1.741891556665948E9, 0.0, 2025-03-13 13:45:56.665
108.0, 34128.006890774595, -5890.645788984989, -26795.628880933393, -17243.186204813268, 4758.75344976824, -19617.477907833803, -10478.229579714487, 24345.229488042532, -5279.035005454422, 7591.211210633661, -20100.990843891006, 52311.73215052273, -18574.72432550482, -25297.190284394062, 8729.786721442548, 19149.342971961854, -0.004, 0.962, -0.234, 192.0, 127.5, 112.0, 15.0, 8.0, 124.0, 88.0, 0.0, 0.0, 0.0, 1.741891556666229E9, 0.0, 2025-03-13 13:45:56.666
110.0, 34127.22457971866, -5890.645788984989, -26794.578348943993, -17246.606021714928, 4760.519237580209, -19615.913285721934, -10479.50362914844, 24344.268363030955, -5267.523857059939, 7584.192762874694, -20099.001538634486, 52325.88080476294, -18573.763200493242, -25298.91136871712, 8729.429093531262, 19143.173890492188, -0.004, 0.962, -0.234, 192.0, 0.0, 0.0, 0.0, 0.0, 0.0, 0.0, 0.0, 0.0, 0.0, 1.741891556666526E9, 0.0, 2025-03-13 13:45:56.666
112.0, 34131.09143150943, -5883.381472037015, -26790.175055286298, -17240.79456815655, 4773.527952853197, -19608.380747840496, -10466.830190042281, 24353.454930002088, -5268.239112882508, 7619.575574347446, -20093.659471709667, 52315.01785695766, -18563.81667421063, -25283.734534231968, 8742.326050081974, 19161.07763780089, -0.004, 0.962, -0.234, 192.0, 0.0, 0.0, 0.0, 0.0, 0.0, 0.0, 0.0, 0.0, 0.0, 1.741891556666823E9, 0.0, 2025-03-13 13:45:56.666
114.0, 34133.01368153258, -5887.494193016791, -26792.052601820542, -17241.88980363486, 4773.505601108743, -19610.50416356375, -10467.21016969802, 24353.25376430199, -5268.105002415777, 7601.291847383005, -20094.21826532105, 52331.51344436568, -18565.515406789233, -25290.082429657275, 8741.767256470592, 19161.61407966782, -0.004, 0.962, -0.234, 192.0, 0.0, 0.0, 0.0, 0.0, 0.0, 0.0, 0.0, 0.0, 0.0, 1.741891556667069E9, 0.0, 2025-03-13 13:45:56.667
116.0, 34131.292597209525, -5890.802251196176, -26800.07687808, -17244.728475180684, 4768.968196984315, -19609.341872852074, -10468.506570876429, 24355.31012479188, -5269.42375533864, 7584.081004152418, -20095.02292812144, 52316.00133371369, -18565.649517255966, -25293.166970392107, 8734.68175347826, 19163.04459131296, -0.004, 0.962, -0.234, 192.0, 0.0, 0.0, 0.0, 0.0, 0.0, 0.0, 0.0, 0.0, 0.0, 1.741891556667326E9, 0.0, 2025-03-13 13:45:56.667
118.0, 34147.25174275062, -5878.039405112196, -26782.97779357169, -17232.211498285713, 4780.412290145432, -19595.43908780087, -10456.235463170466, 24369.525834265452, -5258.650214511182, 7595.256876380072, -20082.6400616932, 52337.3025461796, -18555.01008689524, -25280.962917919507, 8741.990773915146, 19178.26612928702, -0.006, 0.966, -0.232, 192.0, 127.5, 104.0, 15.0, 24.0, 124.0, 96.0, 0.0, 0.0, 0.0, 1.741891556667591E9, 0.0, 2025-03-13 13:45:56.667
120.0, 34150.40333871882, -5877.279445800716, -26792.365526242917, -17236.748902410138, 4771.89627550796, -19599.752974480747, -10461.175198695088, 24367.15654935319, -5257.219702866042, 7593.155812401273, -20079.510817469458, 52328.339496653025, -18555.56888050662, -25277.699563229035, 8736.425189545775, 19177.305004275444, -0.006, 0.966, -0.232, 192.0, 0.0, 0.0, 0.0, 0.0, 0.0, 0.0, 0.0, 0.0, 0.0, 1.741891556726204E9, 0.0, 2025-03-13 13:45:56.726
122.0, 34149.64337940733, -5884.610817982057, -26786.464665706717, -17239.78873965606, 4771.225723174301, -19600.870561703512, -10467.16546620911, 24360.87570916125, -5253.866941197746, 7585.131536141817, -20073.34173599979, 52333.34628741101, -18553.847796183563, -25279.890034185653, 8735.285250578554, 19175.2262920411, -0.006, 0.966, -0.232, 192.0, 0.0, 0.0, 0.0, 0.0, 0.0, 0.0, 0.0, 0.0, 0.0, 1.741891556726536E9, 0.0, 2025-03-13 13:45:56.726
124.0, 34127.82807681896, -5912.751664251288, -26812.817372419522, -17265.113266123924, 4747.935205451871, -19622.41764335843, -10488.332568208287, 24337.965171094558, -5272.038909439911, 7557.1248003393175, -20092.608939720267, 52312.6485720454, -18567.95174693486, -25295.893883215653, 8720.309581793497, 19158.70835288863, -0.006, 0.966, -0.232, 192.0, 0.0, 0.0, 0.0, 0.0, 0.0, 0.0, 0.0, 0.0, 0.0, 1.741891556726791E9, 0.0, 2025-03-13 13:45:56.726
126.0, 34141.350882214414, -5907.610763026567, -26795.628880933393, -17257.088989864467, 4759.13342942398, -19614.862753732534, -10480.017719270912, 24344.96126710907, -5271.010729194967, 7551.313346780938, -20095.671128710645, 52309.92165922185, -18567.750581234763, -25300.58774955127, 8715.123977079866, 19147.487777172064, -0.006, 0.966, -0.232, 192.0, 0.0, 0.0, 0.0, 0.0, 0.0, 0.0, 0.0, 0.0, 0.0, 1.741891556727051E9, 0.0, 2025-03-13 13:45:56.727
128.0, 34140.79208860303, -5905.688513003411, -26804.9272066268, -17261.358173055432, 4753.903121221438, -19622.84232650308, -10485.180972240089, 24335.797051882393, -5275.257560641475, 7555.515474738536, -20093.011271120464, 52310.90513597788, -18567.169435878925, -25299.268996628405, 8719.460215504196, 19146.21372773811, -0.012, 0.9540000000000001, -0.232, 192.0, 127.5, 80.0, 14.5, 104.0, 124.0, 96.0, 0.0, 0.0, 0.0, 1.741891556727313E9, 0.0, 2025-03-13 13:45:56.727
130.0, 34158.22644927817, -5894.914972175953, -26784.96709882821, -17244.572012969496, 4764.900179493449, -19616.114451422032, -10470.585283110773, 24346.883517132228, -5265.132220403221, 7560.008175374052, -20083.40002100468, 52317.141272680914, -18569.62812776901, -25297.793781494354, 8723.729398695159, 19142.88331781427, -0.012, 0.9540000000000001, -0.232, 192.0, 0.0, 0.0, 0.0, 0.0, 0.0, 0.0, 0.0, 0.0, 0.0, 1.741891556727585E9, 0.0, 2025-03-13 13:45:56.727
132.0, 34156.125385299376, -5893.819736697643, -26788.34221224096, -17235.944239609747, 4767.537685339175, -19612.001730442254, -10460.437591128062, 24354.639572458218, -5250.335365573807, 7569.462963278647, -20066.97148883003, 52328.54066235312, -18554.898328172963, -25285.43326681057, 8746.751695484125, 19161.882300601283, -0.012, 0.9540000000000001, -0.232, 192.0, 0.0, 0.0, 0.0, 0.0, 0.0, 0.0, 0.0, 0.0, 0.0, 1.741891556727853E9, 0.0, 2025-03-13 13:45:56.727
134.0, 34150.69391139673, -5896.837222199109, -26778.999183058644, -17231.675056418786, 4764.006109715237, -19609.297169363163, -10470.831152299781, 24349.14104332221, -5257.4879237995065, 7562.556274241958, -20073.051163321874, 52322.86331926147, -18561.603851509553, -25282.95222317603, 8745.790570472547, 19164.184530280178, -0.012, 0.9540000000000001, -0.232, 192.0, 0.0, 0.0, 0.0, 0.0, 0.0, 0.0, 0.0, 0.0, 0.0, 1.741891556728098E9, 0.0, 2025-03-13 13:45:56.728
136.0, 34149.397510218325, -5887.471841272336, -26789.906834352834, -17227.1153005499, 4765.1236969380025, -19603.01632917122, -10463.946815007546, 24356.226546314545, -5266.383918092718, 7551.7827334144995, -20080.40488724767, 52324.986734984726, -18568.979927179807, -25291.982327935973, 8732.066599376989, 19157.65782089923, -0.012, 0.9540000000000001, -0.232, 192.0, 0.0, 0.0, 0.0, 0.0, 0.0, 0.0, 0.0, 0.0, 0.0, 1.741891556785781E9, 0.0, 2025-03-13 13:45:56.785
138.0, 34147.54231542854, -5891.092823874095, -26778.932127825276, -17227.629390672373, 4772.857400519539, -19599.507105291737, -10459.699983561039, 24361.546261494907, -5248.167246361643, 7567.83128593341, -20067.306764996858, 52325.45612161829, -18547.276383313703, -25268.33418230226, 8750.283271108065, 19182.870588644815, -0.004, 0.9580000000000001, -0.224, 192.0, 127.5, 112.0, 14.5, 120.0, 124.5, 0.0, 0.0, 0.0, 0.0, 1.741891556786108E9, 0.0, 2025-03-13 13:45:56.786
140.0, 34143.96603631569, -5893.037425641707, -26795.606529188935, -17231.87622211888, 4767.560037083631, -19599.17182912491, -10462.605710340227, 24359.57930798284, -5261.175961634632, 7540.830378631399, -20087.266872795448, 52319.532909337635, -18565.425999811414, -25287.19905462254, 8733.385352299852, 19168.833693126882, -0.004, 0.9580000000000001, -0.224, 192.0, 0.0, 0.0, 0.0, 0.0, 0.0, 0.0, 0.0, 0.0, 0.0, 1.741891556786399E9, 0.0, 2025-03-13 13:45:56.786
142.0, 34136.58996064543, -5904.839146714109, -26797.417020489815, -17243.096797835446, 4755.199522399846, -19615.39919559946, -10483.50459140594, 24341.76496765196, -5246.915548672146, 7543.6243466883125, -20091.670166453143, 52313.27442089015, -18560.978002664808, -25280.828807452777, 8735.39700930083, 19174.421629240707, -0.004, 0.9580000000000001, -0.224, 192.0, 0.0, 0.0, 0.0, 0.0, 0.0, 0.0, 0.0, 0.0, 0.0, 1.741891556786653E9, 0.0, 2025-03-13 13:45:56.786
144.0, 34146.80470786151, -5886.980102894318, -26799.0263460906, -17228.478756961675, 4764.676662048896, -19600.60234077005, -10469.110067976722, 24353.097302090802, -5266.629787281727, 7551.7827334144995, -20086.26104429496, 52326.81957803006, -18569.426962068912, -25282.326374331282, 8727.14921559682, 19169.41483848272, -0.004, 0.9580000000000001, -0.224, 192.0, 0.0, 0.0, 0.0, 0.0, 0.0, 0.0, 0.0, 0.0, 0.0, 1.741891556786956E9, 0.0, 2025-03-13 13:45:56.786
146.0, 34150.55980093, -5885.571942993634, -26780.362639470415, -17230.043379073548, 4772.767993541717, -19600.959968681334, -10463.946815007546, 24358.551127737897, -5236.745504944981, 7562.377460286315, -20075.19693078958, 52316.247202902705, -18554.451293283855, -25272.87158642669, 8739.308564580508, 19179.383716509787, -0.004, 0.9580000000000001, -0.224, 192.0, 0.0, 0.0, 0.0, 0.0, 0.0, 0.0, 0.0, 0.0, 0.0, 1.741891556787209E9, 0.0, 2025-03-13 13:45:56.787
148.0, 34131.583169887446, -5900.637018756512, -26801.149761813853, -17250.517576994607, 4756.428868344888, -19619.444861345874, -10479.436573915074, 24338.76983389495, -5237.840740423291, 7556.253082305561, -20084.294090782892, 52332.69808682181, -18562.028534654204, -25281.27584234188, 8734.927622667268, 19169.861873371825, -0.004, 0.9580000000000001, -0.224, 192.0, 0.0, 0.0, 15.0, 0.0, 124.0, 112.0, 0.0, 0.0, 0.0, 1.741891556787495E9, 0.0, 2025-03-13 13:45:56.787
150.0, 34145.77652761657, -5889.461146528858, -26784.83298836148, -17239.408760000322, 4769.795211529161, -19609.431279829896, -10473.423954656597, 24345.542412464907, -5237.438409023096, 7553.459114248648, -20091.290186797403, 52304.75840625267, -18562.453217798855, -25284.38273482117, 8731.261936576599, 19161.859948856825, -0.004, 0.9580000000000001, -0.224, 192.0, 0.0, 0.0, 0.0, 0.0, 0.0, 0.0, 0.0, 0.0, 0.0, 1.741891556846066E9, 0.0, 2025-03-13 13:45:56.846
152.0, 34134.310082710996, -5904.101539147084, -26799.898064124354, -17248.595326971452, 4761.927397480893, -19619.221343901318, -10477.022585513902, 24334.5453541929, -5234.51033049945, 7553.0120793595415, -20091.916035642153, 52330.10528446499, -18563.168473621427, -25283.91334818761, 8734.190015100243, 19156.60728890983, -0.004, 0.9580000000000001, -0.224, 192.0, 0.0, 0.0, 0.0, 0.0, 0.0, 0.0, 0.0, 0.0, 0.0, 1.741891556846393E9, 0.0, 2025-03-13 13:45:56.846
154.0, 34131.87374256537, -5907.096672904096, -26800.121581568907, -17244.750826925138, 4761.010975958226, -19615.957989210845, -10476.55319888034, 24334.835926870815, -5239.293603812886, 7549.525207224514, -20096.07346011084, 52297.87406896044, -18567.504712045757, -25282.86281619821, 8731.194881343232, 19153.99213480856, -0.004, 0.9580000000000001, -0.224, 192.0, 0.0, 0.0, 0.0, 0.0, 0.0, 0.0, 0.0, 0.0, 0.0, 1.74189155684666E9, 0.0, 2025-03-13 13:45:56.846
156.0, 34132.834867576945, -5905.420292069947, -26802.803790903545, -17244.728475180684, 4756.965310211815, -19617.053224689153, -10479.637739615171, 24333.785394881415, -5238.8242171793245, 7529.4756924481035, -20097.5933787338, 52313.83321450153, -18569.717534746833, -25283.376906320682, 8726.63512547435, 19153.656858641727, -0.004, 0.9580000000000001, -0.224, 192.0, 0.0, 0.0, 0.0, 0.0, 0.0, 0.0, 0.0, 0.0, 0.0, 1.741891556846921E9, 0.0, 2025-03-13 13:45:56.846
158.0, 34140.79208860303, -5893.864440186553, -26797.908758867834, -17230.89274536285, 4756.406516600432, -19609.386576340985, -10478.83307681478, 24339.90977286217, -5234.532682243906, 7564.6349864763015, -20093.97239613204, 52305.42895858634, -18571.43861906989, -25281.23113885297, 8723.125901594865, 19155.668515642705, -0.004, 0.9580000000000001, -0.224, 192.0, 0.0, 0.0, 15.0, 0.0, 124.0, 96.0, 0.0, 0.0, 0.0, 1.741891556847163E9, 0.0, 2025-03-13 13:45:56.847
160.0, 34146.22356250567, -5893.640922742, -26787.828122118488, -17223.3155039925, 4766.308339394133, -19598.993015169264, -10466.047878986345, 24353.656095702183, -5233.638612465694, 7564.1655998427395, -20084.584663460813, 52331.04405773211, -18567.14708413447, -25274.123284116184, 8734.905270922813, 19164.89978610275, -0.004, 0.9580000000000001, -0.224, 192.0, 0.0, 0.0, 0.0, 0.0, 0.0, 0.0, 0.0, 0.0, 0.0, 1.741891556847431E9, 0.0, 2025-03-13 13:45:56.847
162.0, 34148.212867762195, -5894.959675664863, -26776.20521500173, -17210.93263756426, 4776.701900565851, -19583.838532428566, -10455.408448625618, 24365.658982474684, -5219.132330314199, 7566.199608588173, -20072.470017966036, 52318.772950026156, -18552.238470582783, -25261.785121176854, 8748.87511120738, 19179.69664093216, -0.004, 0.9580000000000001, -0.224, 192.0, 0.0, 0.0, 0.0, 0.0, 0.0, 0.0, 0.0, 0.0, 0.0, 1.741891556847697E9, 0.0, 2025-03-13 13:45:56.847
164.0, 34106.057477719485, -5931.3483156381035, -26787.8728256074, -17231.1162628074, 4763.335557381578, -19601.965797181823, -10469.44534414355, 24352.80672941288, -5235.1808828331095, 7553.6602799487455, -20077.029773834918, 52339.62712760295, -18557.401723551957, -25268.33418230226, 8748.249262362631, 19176.70150717515, -0.004, 0.9580000000000001, -0.224, 192.0, 0.0, 0.0, 0.0, 0.0, 0.0, 0.0, 0.0, 0.0, 0.0, 1.741891556847959E9, 0.0, 2025-03-13 13:45:56.847
166.0, 34076.03908491601, -5964.6300631320555, -26790.59973843095, -17236.63714368786, 4767.336519639078, -19599.21653261382, -10458.604748082727, 24359.422845771653, -5258.963138933556, 7535.957698340142, -20099.06859386785, 52297.60584802698, -18562.497921287766, -25281.208787108517, 8738.414494802297, 19165.056248313937, -0.004, 0.9580000000000001, -0.224, 192.0, 0.0, 0.0, 0.0, 0.0, 0.0, 0.0, 0.0, 0.0, 0.0, 1.741891556906422E9, 0.0, 2025-03-13 13:45:56.906
168.0, 34036.32003501893, -6002.695083939444, -26790.376220986396, -17246.829539159484, 4765.034289960181, -19612.627579287004, -10465.623195841694, 24350.59390671181, -5267.8814849712235, 7510.208488727629, -20107.428146294136, 52298.11993814945, -18565.515406789233, -25296.29621461585, 8740.582614014462, 19161.54702443445, -0.004, 0.962, -0.23600000000000002, 192.0, 127.5, 112.0, 15.0, 8.0, 124.0, 80.0, 0.0, 0.0, 0.0, 1.741891556906759E9, 0.0, 2025-03-13 13:45:56.906
170.0, 34014.281214986, -6019.995334147851, -26805.307186282538, -17249.2211758162, 4763.760240526229, -19612.06878567562, -10468.283053431876, 24350.280982289434, -5281.605456066783, 7501.379549667782, -20118.715777244066, 52266.58162672301, -18568.3317265906, -25301.794743751856, 8737.699238979727, 19157.3225447324, -0.004, 0.962, -0.23600000000000002, 192.0, 0.0, 0.0, 0.0, 0.0, 0.0, 0.0, 0.0, 0.0, 0.0, 1.741891556907043E9, 0.0, 2025-03-13 13:45:56.907
172.0, 33997.897386300254, -6037.0050116783395, -26807.40825026134, -17259.167702098814, 4757.948786967849, -19623.624637559013, -10476.732012835982, 24339.30627576188, -5304.2701249444635, 7490.695415818145, -20129.31050411588, 52266.82749591202, -18579.172322651426, -25307.76265952142, 8732.312468565997, 19151.600498151838, -0.004, 0.962, -0.23600000000000002, 192.0, 0.0, 0.0, 0.0, 0.0, 0.0, 0.0, 0.0, 0.0, 0.0, 1.741891556907303E9, 0.0, 2025-03-13 13:45:56.907
174.0, 33998.478531656096, -6034.971002932907, -26816.438355021284, -17255.457312519233, 4757.501752078742, -19617.656721789448, -10472.30636743383, 24342.56963045235, -5301.744377821014, 7465.661462028202, -20134.6525710407, 52245.548635190564, -18583.620319798032, -25316.502191603446, 8719.393160270829, 19142.950373047635, -0.004, 0.962, -0.23600000000000002, 192.0, 0.0, 0.0, 0.0, 0.0, 0.0, 0.0, 0.0, 0.0, 0.0, 1.74189155690755E9, 0.0, 2025-03-13 13:45:56.907
176.0, 33992.6223746088, -6039.039020423773, -26809.889293895878, -17249.914079894315, 4760.340423624566, -19612.94050370938, -10469.557102865829, 24348.828118899837, -5300.112700475776, 7504.642904358257, -20128.41643433767, 52264.45821099976, -18576.221892383324, -25299.447810584046, 8730.703142965216, 19159.64712615575, -0.004, 0.962, -0.23600000000000002, 192.0, 0.0, 0.0, 0.0, 0.0, 0.0, 0.0, 0.0, 0.0, 0.0, 1.741891556907839E9, 0.0, 2025-03-13 13:45:56.907
178.0, 33992.95765077563, -6037.42969482299, -26821.176924845808, -17251.188129328268, 4746.884673462471, -19612.135840908988, -10480.777678582392, 24343.91073511967, -5312.584973881838, 7493.3776251527825, -20135.83721349683, 52259.1831993083, -18584.58144480961, -25306.175685665094, 8721.404817271807, 19151.332277218375, -0.008, 0.966, -0.23600000000000002, 192.0, 127.5, 96.0, 15.0, 24.0, 124.0, 80.0, 0.0, 0.0, 0.0, 1.741891556908089E9, 0.0, 2025-03-13 13:45:56.908
180.0, 34000.06550551242, -6030.701819741943, -26798.22168329021, -17238.201765799735, 4758.887560234972, -19595.573198267604, -10469.69121333256, 24364.608450485284, -5307.667590101671, 7498.607933355324, -20124.79545173591, 52263.09475458798, -18580.49107557429, -25299.96190070652, 8731.083122620956, 19163.625736668797, -0.008, 0.966, -0.23600000000000002, 192.0, 0.0, 0.0, 0.0, 0.0, 0.0, 0.0, 0.0, 0.0, 0.0, 1.74189155696587E9, 0.0, 2025-03-13 13:45:56.965
182.0, 33996.019839766006, -6032.400552320547, -26802.133238569884, -17243.096797835446, 4767.627092316997, -19597.897779690957, -10456.973070737491, 24364.519043507462, -5302.839613299324, 7507.794500326455, -20113.329006830336, 52270.180257580316, -18573.91966270443, -25291.15531339113, 8745.052962905522, 19174.734553663082, -0.008, 0.966, -0.23600000000000002, 192.0, 0.0, 0.0, 0.0, 0.0, 0.0, 0.0, 0.0, 0.0, 0.0, 1.741891556966305E9, 0.0, 2025-03-13 13:45:56.966
184.0, 33994.276403698495, -6035.216872121915, -26793.125485554396, -17248.438864760265, 4766.151877182946, -19602.323425093105, -10463.902111518635, 24358.081741104335, -5306.013561011978, 7510.230840472083, -20113.708986486075, 52262.96064412125, -18575.35017434957, -25297.234987882974, 8744.024782660577, 19166.039725069968, -0.008, 0.966, -0.23600000000000002, 192.0, 0.0, 0.0, 0.0, 0.0, 0.0, 0.0, 0.0, 0.0, 0.0, 1.741891556966718E9, 0.0, 2025-03-13 13:45:56.966
186.0, 33988.86728154031, -6045.901005971552, -26807.63176770589, -17259.122998609902, 4759.51340907972, -19606.078518161597, -10469.959434266024, 24355.95832538108, -5308.628715113248, 7500.798404311944, -20116.5476580319, 52269.77792618012, -18574.321994104623, -25305.259264142427, 8740.940241925746, 19155.4226464537, -0.008, 0.966, -0.23600000000000002, 192.0, 0.0, 0.0, 0.0, 0.0, 0.0, 0.0, 0.0, 0.0, 0.0, 1.741891556967105E9, 0.0, 2025-03-13 13:45:56.967
188.0, 33977.95963024612, -6058.038003210784, -26809.598721217957, -17270.388277815375, 4755.803019500139, -19620.249524146264, -10478.49780064795, 24339.507441461974, -5318.217613484575, 7487.7449855500445, -20125.84598372531, 52247.69440265828, -18583.374450609022, -25316.166915436617, 8729.160872597799, 19138.681189856674, -0.018000000000000002, 0.964, -0.234, 192.0, 127.5, 56.0, 15.0, 16.0, 124.0, 88.0, 0.0, 0.0, 0.0, 1.741891556967546E9, 0.0, 2025-03-13 13:45:56.967
190.0, 33964.10154868383, -6071.650215584066, -26831.615189506436, -17282.435868076787, 4748.851626974539, -19632.31946615213, -10477.335509936274, 24337.227563527533, -5325.683096132648, 7482.961712236609, -20134.78668150743, 52244.67691715681, -18585.274348887724, -25327.275732430906, 8723.572936483972, 19128.30998042941, -0.018000000000000002, 0.964, -0.234, 192.0, 0.0, 0.0, 0.0, 0.0, 0.0, 0.0, 0.0, 0.0, 0.0, 1.741891556967966E9, 0.0, 2025-03-13 13:45:56.967
192.0, 33972.77402553249, -6060.34023288968, -26810.55984622954, -17264.93445216828, 4767.627092316997, -19614.460422332337, -10460.370535894697, 24349.901002633695, -5322.91147982019, 7481.285331402461, -20136.64187629722, 52226.10261751445, -18581.11692441904, -25330.896715032664, 8728.713837708692, 19128.131166473766, -0.018000000000000002, 0.964, -0.234, 192.0, 0.0, 0.0, 0.0, 0.0, 0.0, 0.0, 0.0, 0.0, 0.0, 1.741891556968352E9, 0.0, 2025-03-13 13:45:56.968
194.0, 33968.48249059707, -6063.514180602334, -26825.17788710331, -17273.361059827934, 4752.2714438762005, -19626.75388178276, -10474.988576768468, 24337.026397827434, -5328.320601978374, 7484.48163085957, -20130.763367505475, 52248.230844525206, -18581.76512500824, -25325.73346206349, 8732.424227288273, 19130.947486275138, -0.018000000000000002, 0.964, -0.234, 192.0, 0.0, 0.0, 0.0, 0.0, 0.0, 0.0, 0.0, 0.0, 0.0, 1.741891556968733E9, 0.0, 2025-03-13 13:45:56.968
196.0, 33968.616601063804, -6061.927206746007, -26814.27023580912, -17263.906271923337, 4758.462877090321, -19622.41764335843, -10469.937082521568, 24340.893249618202, -5329.706410134603, 7480.793593024444, -20134.093777429316, 52233.85867284044, -18586.39193611049, -25330.494383632467, 8724.131730095354, 19126.007750750512, -0.018000000000000002, 0.964, -0.234, 192.0, 0.0, 0.0, 0.0, 0.0, 0.0, 0.0, 0.0, 0.0, 0.0, 1.741891557025606E9, 0.0, 2025-03-13 13:45:57.025
198.0, 33966.20261266263, -6065.905817259052, -26826.45193653726, -17271.79643771606, 4748.739868252262, -19626.910343993946, -10474.921521535101, 24335.886458860215, -5329.080561289855, 7477.686700545157, -20135.904268730195, 52246.77798113561, -18589.990566967794, -25331.81313655533, 8723.215308572688, 19125.694826328137, -0.022, 0.964, -0.228, 192.0, 127.5, 40.0, 15.0, 16.0, 124.0, 112.0, 0.0, 0.0, 0.0, 1.741891557026073E9, 0.0, 2025-03-13 13:45:57.026
200.0, 33968.01310396351, -6056.4957328433675, -26806.35771827194, -17253.26684156261, 4765.146048682457, -19608.760727496236, -10457.55421609333, 24354.48311024703, -5318.150558251209, 7483.073470958886, -20125.30954185838, 52234.08219028499, -18572.86913071503, -25316.904523003643, 8737.743942468636, 19142.27982071398, -0.022, 0.964, -0.228, 192.0, 0.0, 0.0, 0.0, 0.0, 0.0, 0.0, 0.0, 0.0, 0.0, 1.74189155702649E9, 0.0, 2025-03-13 13:45:57.026
202.0, 33956.01021719101, -6079.003939509862, -26818.517067255627, -17267.88488243638, 4757.389993356466, -19621.300056135664, -10465.220864441499, 24348.850470644295, -5341.709296907103, 7482.6934913031455, -20141.380446121748, 52254.17640855032, -18587.554226822165, -25325.152316707652, 8736.91692792379, 19141.36339919131, -0.022, 0.964, -0.228, 192.0, 0.0, 0.0, 0.0, 0.0, 0.0, 0.0, 0.0, 0.0, 0.0, 1.741891557026869E9, 0.0, 2025-03-13 13:45:57.026
204.0, 33958.93829571465, -6070.666738828032, -26810.515142740627, -17262.811036445026, 4764.631958559985, -19613.633407787493, -10457.420105626596, 24355.176014325145, -5317.792930339924, 7477.887866245254, -20132.104472172796, 52234.663335640835, -18579.217026140337, -25323.45358412905, 8740.895538436835, 19150.058227784422, -0.022, 0.964, -0.228, 192.0, 0.0, 0.0, 0.0, 0.0, 0.0, 0.0, 0.0, 0.0, 0.0, 1.741891557027266E9, 0.0, 2025-03-13 13:45:57.027
206.0, 33945.549600785926, -6086.894105302586, -26828.26242783814, -17279.1278098974, 4745.230644372778, -19629.637256817492, -10479.1236494927, 24333.96420883706, -5332.232157258053, 7469.327148118872, -20144.666152556678, 52246.28624275759, -18588.805924511664, -25330.114403976728, 8728.82559643097, 19138.1670997342, -0.022, 0.964, -0.228, 192.0, 0.0, 0.0, 0.0, 0.0, 0.0, 0.0, 0.0, 0.0, 0.0, 1.741891557027553E9, 0.0, 2025-03-13 13:45:57.027
208.0, 33943.71675774059, -6086.245904713382, -26824.820259192024, -17269.673021992807, 4755.713612522318, -19618.12610842301, -10466.293748175352, 24348.314028777368, -5336.099009048821, 7473.104592931819, -20147.84010026933, 52223.263945968625, -18593.030404213718, -25327.275732430906, 8723.260012061597, 19134.50141364353, -0.022, 0.9540000000000001, -0.226, 192.0, 127.5, 40.0, 14.5, 104.0, 124.0, 120.0, 0.0, 0.0, 0.0, 1.741891557027805E9, 0.0, 2025-03-13 13:45:57.027
210.0, 33938.17352511567, -6092.079710016216, -26819.41113703384, -17264.12978936789, 4763.737888781773, -19613.208724642842, -10458.381230638175, 24352.58321196833, -5331.226328757564, 7473.149296420729, -20145.850795012808, 52241.10063804396, -18589.565883823143, -25323.83356378479, 8732.804206944014, 19142.01159978051, -0.022, 0.9540000000000001, -0.226, 192.0, 0.0, 0.0, 0.0, 0.0, 0.0, 0.0, 0.0, 0.0, 0.0, 1.741891557085854E9, 0.0, 2025-03-13 13:45:57.085
212.0, 33928.38346104425, -6100.707483375965, -26829.22355284972, -17273.718687739216, 4743.487208305265, -19622.59645731407, -10480.59886462675, 24336.914639105158, -5342.335145751852, 7463.806267238411, -20159.08302773035, 52211.596335362956, -18595.35498563707, -25334.07066274532, 8721.404817271807, 19133.987323521058, -0.022, 0.9540000000000001, -0.226, 192.0, 0.0, 0.0, 0.0, 0.0, 0.0, 0.0, 0.0, 0.0, 0.0, 1.74189155708614E9, 0.0, 2025-03-13 13:45:57.086
214.0, 33942.42035656218, -6085.709462846454, -26811.386860774383, -17258.541853254064, 4750.148028152947, -19607.55373329565, -10475.815591313314, 24346.72705492104, -5331.539253179938, 7481.419441869193, -20147.862452013786, 52232.696382128765, -18590.30349139017, -25317.508020103935, 8728.87029991988, 19142.570393391896, -0.022, 0.9540000000000001, -0.226, 192.0, 0.0, 0.0, 0.0, 0.0, 0.0, 0.0, 0.0, 0.0, 0.0, 1.741891557086406E9, 0.0, 2025-03-13 13:45:57.086
216.0, 33952.76921424499, -6074.332424918703, -26808.391727017373, -17239.766387911604, 4760.876865491494, -19590.700517976347, -10460.728163805981, 24362.01564812847, -5322.285630975442, 7496.6633315877125, -20140.061693198884, 52231.04235303907, -18587.397764610978, -25305.05809844233, 8738.526253524573, 19151.488739429562, -0.022, 0.9540000000000001, -0.226, 192.0, 0.0, 0.0, 0.0, 0.0, 0.0, 0.0, 0.0, 0.0, 0.0, 1.741891557086667E9, 0.0, 2025-03-13 13:45:57.086
218.0, 33956.85958348031, -6064.72117480292, -26798.758125157136, -17230.44571047374, 4763.603778315041, -19586.520741763205, -10459.342355649753, 24366.262479574976, -5310.886241303235, 7513.427139929193, -20125.55541104739, 52260.658414442354, -18577.42888658391, -25285.20974936602, 8751.73613449766, 19167.73845764857, -0.016, 0.9480000000000001, -0.228, 192.0, 127.5, 64.0, 14.5, 80.0, 124.0, 112.0, 0.0, 0.0, 0.0, 1.74189155708692E9, 0.0, 2025-03-13 13:45:57.086
220.0, 33940.922789683675, -6082.982550022906, -26808.45878225074, -17243.879108891382, 4763.871999248505, -19601.049375659153, -10458.269471915899, 24359.221680071554, -5321.212747241587, 7514.052988773941, -20130.338684360824, 52248.40965848084, -18579.86522672954, -25295.62566228219, 8751.132637397366, 19166.33029774789, -0.016, 0.9480000000000001, -0.228, 192.0, 0.0, 0.0, 0.0, 0.0, 0.0, 0.0, 0.0, 0.0, 0.0, 1.741891557087212E9, 0.0, 2025-03-13 13:45:57.087
222.0, 33929.16577210018, -6100.327503720225, -26810.895122396367, -17258.02776313159, 4759.021670701703, -19613.722814765315, -10467.16546620911, 24349.185746811123, -5320.519843163472, 7493.712901319612, -20136.798338508408, 52244.788675879085, -18584.067354687137, -25316.01045322543, 8749.098628651933, 19157.65782089923, -0.016, 0.9480000000000001, -0.228, 192.0, 0.0, 0.0, 0.0, 0.0, 0.0, 0.0, 0.0, 0.0, 0.0, 1.741891557087454E9, 0.0, 2025-03-13 13:45:57.087
224.0, 33926.01417613199, -6099.947524064484, -26820.77459344561, -17255.971402641702, 4761.279196891689, -19612.649931031458, -10463.052745229334, 24347.68817993262, -5332.522729935972, 7476.993796467042, -20150.723475304065, 52222.19106223477, -18593.20921816936, -25323.25241842895, 8735.709933723205, 19145.945506804648, -0.016, 0.9480000000000001, -0.228, 192.0, 0.0, 0.0, 0.0, 0.0, 0.0, 0.0, 0.0, 0.0, 0.0, 1.741891557087697E9, 0.0, 2025-03-13 13:45:57.087
226.0, 33918.43693476164, -6107.368303223647, -26818.204142833252, -17259.592385243464, 4755.110115422024, -19618.953122967854, -10467.813666798314, 24344.089549075314, -5325.213709499087, 7503.748834580045, -20145.023780467964, 52234.61863215192, -18585.475514587823, -25320.279636416395, 8740.336744825452, 19150.572317906895, -0.016, 0.9480000000000001, -0.228, 192.0, 0.0, 0.0, 0.0, 0.0, 0.0, 0.0, 0.0, 0.0, 0.0, 1.741891557146046E9, 0.0, 2025-03-13 13:45:57.146
228.0, 33913.005460859, -6110.005809069373, -26829.26825633863, -17265.60500450194, 4753.433734587877, -19619.1319369235, -10468.908902276624, 24343.44134848611, -5346.291404520441, 7488.728462306079, -20159.060675985897, 52216.15609123184, -18600.317072906146, -25333.042482500376, 8732.714799966192, 19139.754073590528, -0.012, 0.9540000000000001, -0.23600000000000002, 192.0, 127.5, 80.0, 14.5, 104.0, 124.0, 80.0, 0.0, 0.0, 0.0, 1.741891557146378E9, 0.0, 2025-03-13 13:45:57.146
230.0, 33914.97241437106, -6113.179756782027, -26820.64048297888, -17269.69537373726, 4755.311281122123, -19621.702387535857, -10471.635815100171, 24342.81549964136, -5324.0067152985, 7503.033578757475, -20149.42707412566, 52212.69157084126, -18592.784535024708, -25324.660578329633, 8731.708971465703, 19140.15640499072, -0.012, 0.9540000000000001, -0.23600000000000002, 192.0, 0.0, 0.0, 0.0, 0.0, 0.0, 0.0, 0.0, 0.0, 0.0, 1.741891557146657E9, 0.0, 2025-03-13 13:45:57.146
232.0, 33927.1094116103, -6094.404291439569, -26825.11083186994, -17258.966536398715, 4761.145086424957, -19611.06295717513, -10455.274338158886, 24356.58417422583, -5323.202052498109, 7502.318322934905, -20152.645725327224, 52209.89760278435, -18595.019709470238, -25330.114403976728, 8727.015105130089, 19138.278858456477, -0.012, 0.9540000000000001, -0.23600000000000002, 192.0, 0.0, 0.0, 0.0, 0.0, 0.0, 0.0, 0.0, 0.0, 0.0, 1.741891557146936E9, 0.0, 2025-03-13 13:45:57.146
234.0, 33914.03364110394, -6106.764806123353, -26819.36643354493, -17262.028725389093, 4753.232568887779, -19622.46234684734, -10467.254873186932, 24343.48605197502, -5321.928003064157, 7516.645791130757, -20146.70016130211, 52219.26298371112, -18594.773840281232, -25323.25241842895, 8730.367866798386, 19146.012562038013, -0.012, 0.9540000000000001, -0.23600000000000002, 192.0, 0.0, 0.0, 0.0, 0.0, 0.0, 0.0, 0.0, 0.0, 0.0, 1.741891557147187E9, 0.0, 2025-03-13 13:45:57.147
236.0, 33918.92867313966, -6100.7521868648755, -26826.876619681912, -17261.89461492236, 4754.886597977472, -19622.998788714267, -10464.617367341205, 24341.988485096514, -5326.644221144226, 7508.308590448927, -20157.786626551944, 52219.62061162241, -18605.21210494186, -25332.930723778096, 8724.288192306542, 19135.88722179976, -0.012, 0.9540000000000001, -0.23600000000000002, 192.0, 0.0, 0.0, 0.0, 0.0, 0.0, 0.0, 0.0, 0.0, 0.0, 1.741891557147442E9, 0.0, 2025-03-13 13:45:57.147
238.0, 33929.411641289196, -6096.058320529261, -26813.39851777536, -17263.302774823045, 4759.938092224371, -19623.60228581456, -10471.054669744333, 24334.187726281612, -5309.992171525022, 7515.192927741162, -20149.85175727031, 52207.64007659437, -18589.185904167403, -25329.622665598712, 8733.72062846668, 19138.256506712023, -0.01, 0.9540000000000001, -0.23, 192.0, 127.5, 88.0, 14.5, 104.0, 124.0, 104.0, 0.0, 0.0, 0.0, 1.741891557147699E9, 0.0, 2025-03-13 13:45:57.147
240.0, 33919.42041151767, -6099.388730453102, -26835.8843726974, -17266.342612068966, 4754.551321810642, -19619.51191657924, -10471.859332544725, 24342.39081649671, -5312.048532014911, 7524.960640068131, -20160.357077164303, 52214.14443423086, -18595.712613548352, -25332.841316800277, 8723.327067294964, 19134.948448532636, -0.01, 0.9540000000000001, -0.23, 192.0, 0.0, 0.0, 0.0, 0.0, 0.0, 0.0, 0.0, 0.0, 0.0, 1.741891557206342E9, 0.0, 2025-03-13 13:45:57.206
242.0, 33931.44565003463, -6093.130242005616, -26819.299378311563, -17257.759542198128, 4760.2510166467455, -19612.31465486463, -10468.014832498411, 24347.934049121624, -5305.655933100693, 7535.220090773117, -20156.04319048443, 52200.24164917966, -18592.91864549144, -25323.00654923994, 8726.165738840788, 19144.44793992614, -0.01, 0.9540000000000001, -0.23, 192.0, 0.0, 0.0, 0.0, 0.0, 0.0, 0.0, 0.0, 0.0, 0.0, 1.741891557206635E9, 0.0, 2025-03-13 13:45:57.206
244.0, 33930.305711067405, -6090.895067560085, -26826.898971426366, -17263.727457967696, 4752.114981665013, -19620.69655903537, -10469.490047632462, 24343.01666534146, -5308.896936046713, 7524.088922034374, -20155.350286406316, 52209.94230627326, -18598.998319983282, -25326.560476608334, 8727.663305719294, 19143.777387592483, -0.01, 0.9540000000000001, -0.23, 192.0, 0.0, 0.0, 0.0, 0.0, 0.0, 0.0, 0.0, 0.0, 0.0, 1.741891557206876E9, 0.0, 2025-03-13 13:45:57.206
246.0, 33947.13657464225, -6072.097250473172, -26810.582197973992, -17251.27753630609, 4767.023595216703, -19609.475983318804, -10457.442457371051, 24354.86308990277, -5295.709406818081, 7552.050954347963, -20149.762350292487, 52195.07839621048, -18597.97013973834, -25324.370005651715, 8734.324125566975, 19147.130149260778, -0.01, 0.9540000000000001, -0.23, 192.0, 0.0, 0.0, 0.0, 0.0, 0.0, 0.0, 0.0, 0.0, 0.0, 1.741891557207126E9, 0.0, 2025-03-13 13:45:57.207
248.0, 33951.87514446678, -6065.905817259052, -26817.824163177513, -17251.188129328268, 4764.006109715237, -19610.63827403048, -10462.337489406764, 24348.224621799545, -5285.0476247129, 7565.327890554416, -20142.162757177684, 52223.95685004674, -18592.58336932461, -25313.238836912973, 8739.979116914168, 19149.342971961854, -0.006, 0.9560000000000001, -0.246, 192.0, 127.5, 104.0, 14.5, 112.0, 124.0, 40.0, 0.0, 0.0, 0.0, 1.741891557207373E9, 0.0, 2025-03-13 13:45:57.207
250.0, 33952.94802820063, -6064.363546891635, -26818.718232955725, -17249.444693260753, 4759.915740479915, -19610.861791475036, -10470.853504044237, 24348.068159588358, -5288.020406725455, 7567.6301202333125, -20146.230774668547, 52210.59050686246, -18598.4395263719, -25314.78110728039, 8735.307602323008, 19148.44890218364, -0.006, 0.9560000000000001, -0.246, 192.0, 0.0, 0.0, 0.0, 0.0, 0.0, 0.0, 0.0, 0.0, 0.0, 1.741891557207663E9, 0.0, 2025-03-13 13:45:57.207
252.0, 33957.61954279179, -6055.936939231985, -26817.824163177513, -17249.891728149858, 4757.6135108010185, -19611.420585086416, -10472.596940111749, 24349.364560766764, -5285.114679946266, 7572.368690057838, -20145.09083570133, 52233.07636178451, -18597.813677527152, -25316.725709048, 8738.235680846654, 19148.538309161464, -0.006, 0.9560000000000001, -0.246, 192.0, 0.0, 0.0, 0.0, 0.0, 0.0, 0.0, 0.0, 0.0, 0.0, 1.741891557207914E9, 0.0, 2025-03-13 13:45:57.207
254.0, 33969.68948479766, -6047.376221105603, -26812.236227063684, -17251.098722350445, 4774.980816242793, -19605.96675943932, -10464.729126063481, 24351.756197423485, -5281.158421177676, 7578.940102927698, -20141.98394322204, 52206.969524260705, -18591.06345070165, -25313.216485168516, 8739.040343647044, 19150.70642837363, -0.006, 0.9560000000000001, -0.246, 192.0, 0.0, 0.0, 0.0, 0.0, 0.0, 0.0, 0.0, 0.0, 0.0, 1.741891557208194E9, 0.0, 2025-03-13 13:45:57.208
0.0, 33978.183147690674, -6047.778552505798, -26822.160401601843, -17258.2736323206, 4769.616397573519, -19609.677149018902, -10469.44534414355, 24353.030246857437, -5274.363490863263, 7584.17041113024, -20141.8051292664, 52225.61087913643, -18588.850628000575, -25317.39626138166, 8729.853776675913, 19145.096140515347, -0.006, 0.9560000000000001, -0.246, 192.0, 0.0, 0.0, 0.0, 0.0, 0.0, 0.0, 0.0, 0.0, 0.0, 1.741891557266717E9, 0.0, 2025-03-13 13:45:57.266
2.0, 33988.755522818035, -6034.032229665784, -26814.806677676046, -17250.584632227976, 4781.6192843460185, -19598.009538413233, -10445.0148874539, 24371.73865696653, -5259.454877311573, 7587.277303609527, -20134.18318440714, 52208.46709113921, -18580.44637208538, -25313.551761335348, 8731.39604704333, 19154.305059230934, -0.006, 0.9540000000000001, -0.24, 192.0, 127.5, 104.0, 14.5, 104.0, 124.0, 64.0, 0.0, 0.0, 0.0, 1.741891557267047E9, 0.0, 2025-03-13 13:45:57.267
4.0, 33990.34249667436, -6034.635726766077, -26816.036023621087, -17254.809111930026, 4775.539609854175, -19606.21262862833, -10453.575605580283, 24367.849453431303, -5263.925226202635, 7586.852620464876, -20134.585515807335, 52231.48938792818, -18583.799133753673, -25314.75875553593, 8734.882919178357, 19155.757922620527, -0.006, 0.9540000000000001, -0.24, 192.0, 0.0, 0.0, 0.0, 0.0, 0.0, 0.0, 0.0, 0.0, 0.0, 1.741891557267333E9, 0.0, 2025-03-13 13:45:57.267
6.0, 34005.07229627041, -6019.928278914485, -26805.195427560262, -17243.946164124747, 4784.547362869664, -19597.897779690957, -10445.976012465479, 24373.504444778497, -5254.649252253682, 7589.557181543968, -20125.264838369472, 52214.41265516432, -18579.90993021845, -25308.410860110627, 8741.789608215047, 19161.569376178908, -0.006, 0.9540000000000001, -0.24, 192.0, 0.0, 0.0, 0.0, 0.0, 0.0, 0.0, 0.0, 0.0, 0.0, 1.741891557267607E9, 0.0, 2025-03-13 13:45:57.267
8.0, 34010.95080506215, -6018.922450413997, -26798.311090268027, -17248.058885104525, 4783.452127391354, -19606.100869906055, -10453.486198602463, 24365.077837118846, -5255.811542965358, 7575.609693003857, -20122.73909124602, 52228.74012336018, -18577.607700539553, -25314.043499713363, 8745.499997794628, 19163.35751573533, -0.006, 0.9540000000000001, -0.24, 192.0, 0.0, 0.0, 0.0, 0.0, 0.0, 0.0, 0.0, 0.0, 0.0, 1.741891557267888E9, 0.0, 2025-03-13 13:45:57.267
10.0, 34019.511523188536, -6016.7543312018315, -26800.00982284663, -17243.16385306881, 4779.428813389399, -19602.345776837563, -10457.68832656006, 24363.96024989608, -5238.064257867844, 7574.290940080994, -20109.618617250755, 52217.83247206599, -18566.67769750091, -25309.796668266856, 8746.036439661555, 19171.98528909508, -0.006, 0.9540000000000001, -0.24, 192.0, 0.0, 0.0, 0.0, 0.0, 0.0, 0.0, 0.0, 0.0, 0.0, 1.741891557268128E9, 0.0, 2025-03-13 13:45:57.268
12.0, 34021.00909006704, -6017.2237178353935, -26802.91554962582, -17247.835367659973, 4775.539609854175, -19609.11835540752, -10465.779658052881, 24355.846566658805, -5247.429638794618, 7574.536809270002, -20113.440765552612, 52228.360143704434, -18574.52315980472, -25311.584807823278, 8739.554433769517, 19169.772466394006, -0.008, 0.962, -0.244, 192.0, 127.5, 96.0, 15.0, 8.0, 124.0, 48.0, 0.0, 0.0, 0.0, 1.741891557268379E9, 0.0, 2025-03-13 13:45:57.268
14.0, 34025.59119768038, -6010.205270076427, -26813.890256153376, -17244.50495773613, 4779.13824071148, -19601.317596592617, -10454.670841058594, 24365.256651074487, -5238.533644501405, 7571.362861557349, -20120.235695867028, 52220.894661056365, -18577.920624961927, -25311.853028756745, 8734.167663355787, 19164.184530280178, -0.008, 0.962, -0.244, 192.0, 0.0, 0.0, 0.0, 0.0, 0.0, 0.0, 0.0, 0.0, 0.0, 1.741891557325967E9, 0.0, 2025-03-13 13:45:57.325
16.0, 34043.04791009997, -5993.262647779304, -26796.098267566955, -17234.13374830887, 4786.737833826284, -19589.001785397744, -10445.819550254291, 24378.086552391836, -5236.544339244883, 7591.613542033857, -20109.909189928676, 52241.301803744056, -18576.311299361147, -25294.6198337817, 8745.365887327896, 19179.003736854047, -0.008, 0.962, -0.244, 192.0, 0.0, 0.0, 0.0, 0.0, 0.0, 0.0, 0.0, 0.0, 0.0, 1.741891557326256E9, 0.0, 2025-03-13 13:45:57.326
18.0, 34054.670817216735, -5982.444403462935, -26796.16532280032, -17229.730454651173, 4787.9001245379595, -19584.30791906213, -10441.505663574419, 24380.880520448747, -5218.8641093807355, 7591.948818200686, -20099.292111312403, 52243.00053632266, -18563.4813980438, -25290.95414769103, 8751.40085833083, 19183.049402600456, -0.008, 0.962, -0.244, 192.0, 0.0, 0.0, 0.0, 0.0, 0.0, 0.0, 0.0, 0.0, 0.0, 1.741891557326509E9, 0.0, 2025-03-13 13:45:57.326
20.0, 34046.75829967955, -5990.4016244890245, -26793.63957567687, -17237.93354486627, 4789.196525716367, -19598.34481458006, -10444.701963031526, 24367.603584242297, -5216.874804124213, 7596.754443258577, -20095.671128710645, 52254.62344343942, -18560.95565092035, -25290.32829884628, 8756.273538622087, 19183.27292004501, -0.009000000000000001, 0.962, -0.242, 192.0, 127.5, 88.0, 15.0, 8.0, 124.0, 64.0, 0.0, 0.0, 0.0, 1.741891557326803E9, 0.0, 2025-03-13 13:45:57.326
22.0, 34047.22768631312, -5984.56781918619, -26795.315956511018, -17237.0171233436, 4789.71061583884, -19593.740355222268, -10443.807893253314, 24372.20804360009, -5224.161472816643, 7579.968283172641, -20108.29986432789, 52244.229882267704, -18565.67186900042, -25304.38754610867, 8749.25509086312, 19165.995021581057, -0.009000000000000001, 0.962, -0.242, 192.0, 0.0, 0.0, 0.0, 0.0, 0.0, 0.0, 0.0, 0.0, 0.0, 1.741891557327078E9, 0.0, 2025-03-13 13:45:57.327
24.0, 34059.47644227462, -5975.872990593075, -26771.10901726592, -17224.32133249299, 4802.160537500446, -19581.31278530512, -10433.146111148133, 24384.702668750608, -5214.46081572304, 7593.736957757111, -20097.056936866873, 52259.1831993083, -18557.11115087404, -25285.500322043936, 8766.64474804935, 19181.95416712215, -0.009000000000000001, 0.962, -0.242, 192.0, 0.0, 0.0, 0.0, 0.0, 0.0, 0.0, 0.0, 0.0, 0.0, 1.74189155732733E9, 0.0, 2025-03-13 13:45:57.327
26.0, 34066.763110967055, -5973.034319047251, -26783.62599416089, -17228.299943006034, 4793.063377507136, -19584.620843484503, -10442.578547308272, 24378.39947681421, -5206.369484230218, 7582.829306462921, -20092.810105420365, 52264.03352785511, -18554.495996772766, -25283.890996443155, 8766.264768393608, 19183.898768889758, -0.009000000000000001, 0.962, -0.242, 192.0, 0.0, 0.0, 0.0, 0.0, 0.0, 0.0, 0.0, 0.0, 0.0, 1.741891557327584E9, 0.0, 2025-03-13 13:45:57.327
28.0, 34072.41810231425, -5965.837057332642, -26776.764008613114, -17228.3669982394, 4795.007979274747, -19581.402192282938, -10439.941041462545, 24383.942709439125, -5211.309219754841, 7590.6971205111895, -20095.98405313302, 52252.969414349725, -18555.926508417906, -25289.501284301437, 8755.982965944168, 19181.03774559948, -0.009000000000000001, 0.962, -0.242, 192.0, 0.0, 0.0, 0.0, 0.0, 0.0, 0.0, 0.0, 0.0, 0.0, 1.74189155732784E9, 0.0, 2025-03-13 13:45:57.327
30.0, 34067.07603538943, -5967.558141655701, -26799.20516004624, -17238.849966388938, 4783.6756448359065, -19588.286529575173, -10446.288936887853, 24373.97383141206, -5204.156661529143, 7597.067367680952, -20095.98405313302, 52266.91690288984, -18557.66994448542, -25285.835598210764, 8755.0665444215, 19181.060097343936, -0.0105, 0.963, -0.241, 192.0, 127.5, 80.0, 15.0, 16.0, 124.0, 64.0, 0.0, 0.0, 0.0, 1.741891557385842E9, 0.0, 2025-03-13 13:45:57.385
32.0, 34070.22763135763, -5970.642682390533, -26786.531720940082, -17235.117225064903, 4787.497793137764, -19591.125201120998, -10446.177178165577, 24370.263441832478, -5206.704760397049, 7584.036300663508, -20100.968492146552, 52247.42618172481, -18562.00618290975, -25294.977461692986, 8749.612718774404, 19172.566434450917, -0.0105, 0.963, -0.241, 192.0, 0.0, 0.0, 0.0, 0.0, 0.0, 0.0, 0.0, 0.0, 0.0, 1.741891557386147E9, 0.0, 2025-03-13 13:45:57.386
34.0, 34070.831128457925, -5964.94298755443, -26794.131314054885, -17234.290210520056, 4781.686339579384, -19597.651910501947, -10449.552291578328, 24368.609412742786, -5207.084740052788, 7589.668940266245, -20097.995710133997, 52266.44751625628, -18564.308412588645, -25293.234025625472, 8751.557320542017, 19173.058172828936, -0.0105, 0.963, -0.241, 192.0, 0.0, 0.0, 0.0, 0.0, 0.0, 0.0, 0.0, 0.0, 0.0, 1.741891557386397E9, 0.0, 2025-03-13 13:45:57.386
36.0, 34093.38403861332, -5945.161693711483, -26771.31018296602, -17217.057015545015, 4797.891354309482, -19585.604320240538, -10434.576622793273, 24380.098209392814, -5198.7922428598695, 7594.273399624039, -20088.5409222294, 52254.26581552814, -18555.25595608425, -25289.568339534802, 8755.357117099418, 19177.282652530987, -0.0105, 0.963, -0.241, 192.0, 0.0, 0.0, 0.0, 0.0, 0.0, 0.0, 0.0, 0.0, 0.0, 1.74189155738665E9, 0.0, 2025-03-13 13:45:57.386
38.0, 34082.3422768524, -5953.588301371134, -26785.660002906323, -17233.440844230754, 4780.166420956423, -19602.524590793204, -10452.815646268804, 24363.53556675143, -5189.940952055568, 7597.1567746587725, -20078.12500931323, 52277.73514720621, -18551.702028715852, -25284.472141798993, 8761.235625891164, 19180.255434543542, -0.0105, 0.963, -0.241, 192.0, 0.0, 0.0, 0.0, 0.0, 0.0, 0.0, 0.0, 0.0, 0.0, 1.74189155738692E9, 0.0, 2025-03-13 13:45:57.386
40.0, 34095.50745433658, -5938.433818630436, -26768.985601542667, -17220.677998146773, 4791.141127483979, -19591.751049965747, -10446.870082243691, 24370.643421488217, -5191.6843881230825, 7599.369597359848, -20080.78486690341, 52256.56804520703, -18557.826406696608, -25290.73063024648, 8752.786666487058, 19169.526597204997, -0.01025, 0.9624999999999999, -0.2405, 192.0, 127.5, 88.0, 15.0, 8.0, 124.0, 64.0, 0.0, 0.0, 0.0, 1.74189155738717E9, 0.0, 2025-03-13 13:45:57.387
42.0, 34092.10998917937, -5942.099504721106, -26775.713476623714, -17220.767405124596, 4782.982740757792, -19588.599453997547, -10455.654317814628, 24369.145854609713, -5181.983731029479, 7603.951704973186, -20071.665355165645, 52285.424147298836, -18549.131578103494, -25281.65582199762, 8763.001413703134, 19180.65776594374, -0.01025, 0.9624999999999999, -0.2405, 192.0, 0.0, 0.0, 0.0, 0.0, 0.0, 0.0, 0.0, 0.0, 0.0, 1.741891557387477E9, 0.0, 2025-03-13 13:45:57.387
44.0, 34097.675573548746, -5937.249176174304, -26771.0196102881, -17217.951085323224, 4784.23443844729, -19584.196160339852, -10456.906015504124, 24368.609412742786, -5185.001216530945, 7605.605734062879, -20073.520549955436, 52271.700176203274, -18553.356057805548, -25280.560586519314, 8756.318242110998, 19183.295271789466, -0.01025, 0.9624999999999999, -0.2405, 192.0, 0.0, 0.0, 0.0, 0.0, 0.0, 0.0, 0.0, 0.0, 0.0, 1.741891557446003E9, 0.0, 2025-03-13 13:45:57.446
46.0, 34092.55702406848, -5941.630118087544, -26778.127465024885, -17216.967608567193, 4782.647464590963, -19581.11161960502, -10457.956547493524, 24374.44321804562, -5182.698986852049, 7606.052768951985, -20072.671183666134, 52297.27057186015, -18553.557223505642, -25277.58780450676, 8755.513579310606, 19186.80449566895, -0.01025, 0.9624999999999999, -0.2405, 192.0, 0.0, 0.0, 0.0, 0.0, 0.0, 0.0, 0.0, 0.0, 0.0, 1.7418915574463E9, 0.0, 2025-03-13 13:45:57.446
48.0, 34091.28297463453, -5940.534882609235, -26782.35194472694, -17214.195992254736, 4781.060490734636, -19582.698593461348, -10463.1198004627, 24366.86597667527, -5191.594981145261, 7598.497879326092, -20081.433067492613, 52268.12389709042, -18562.855549199052, -25281.27584234188, 8744.471817549684, 19177.729687420095, -0.01025, 0.9624999999999999, -0.2405, 192.0, 0.0, 0.0, 0.0, 0.0, 0.0, 0.0, 0.0, 0.0, 0.0, 1.741891557446559E9, 0.0, 2025-03-13 13:45:57.446
50.0, 34095.61921305886, -5935.12576045105, -26772.11484576641, -17210.865582330895, 4789.218877460823, -19581.402192282938, -10454.0673439583, 24366.06131387488, -5181.69315835156, 7604.555202073479, -20073.520549955436, 52289.91684793435, -18548.170453091916, -25272.42455153758, 8753.121942653888, 19181.08244908839, -0.007125, 0.96025, -0.23925000000000002, 192.0, 127.5, 112.0, 14.5, 120.0, 124.0, 72.0, 0.0, 0.0, 0.0, 1.741891557446813E9, 0.0, 2025-03-13 13:45:57.446
52.0, 34097.07207644845, -5934.119931950561, -26771.73486611067, -17213.860716087904, 4788.905953038448, -19583.838532428566, -10455.296689903342, 24361.63566847273, -5175.680539093082, 7610.299600398494, -20069.45253246457, 52274.337682049, -18546.58347923559, -25270.748170703435, 8754.910082210312, 19178.51199847603, -0.007125, 0.96025, -0.23925000000000002, 192.0, 0.0, 0.0, 0.0, 0.0, 0.0, 0.0, 0.0, 0.0, 0.0, 1.741891557447099E9, 0.0, 2025-03-13 13:45:57.447
54.0, 34091.97587871264, -5941.294841920715, -26769.030305031578, -17223.963704581703, 4789.37533967201, -19595.573198267604, -10456.906015504124, 24353.320819535355, -5176.865181549213, 7603.549373572991, -20077.387401746204, 52284.4406705428, -18550.71855195982, -25282.549891775834, 8753.88190196537, 19168.721934404606, -0.007125, 0.96025, -0.23925000000000002, 192.0, 0.0, 0.0, 0.0, 0.0, 0.0, 0.0, 0.0, 0.0, 0.0, 1.741891557447352E9, 0.0, 2025-03-13 13:45:57.447
56.0, 34090.61242230087, -5939.439647130925, -26774.215909745206, -17222.93552433676, 4784.4356041473875, -19597.808372713134, -10460.102314961234, 24351.800900912393, -5180.173239728599, 7599.12372817084, -20082.751820415477, 52263.027699354614, -18552.976078149804, -25290.23889186846, 8753.457218820718, 19160.74236163406, -0.007125, 0.96025, -0.23925000000000002, 192.0, 0.0, 0.0, 0.0, 0.0, 0.0, 0.0, 0.0, 0.0, 0.0, 1.741891557447606E9, 0.0, 2025-03-13 13:45:57.447
58.0, 34088.60076529989, -5936.980955240841, -26761.095435749943, -17215.782966111063, 4788.123641982513, -19595.908474434433, -10462.583358595772, 24353.20906081308, -5182.386062429674, 7601.627123549834, -20079.488465725, 52285.53590602111, -18552.841967683074, -25285.20974936602, 8764.16370441481, 19169.571300693908, -0.007125, 0.96025, -0.23925000000000002, 192.0, 0.0, 0.0, 0.0, 0.0, 0.0, 0.0, 0.0, 0.0, 0.0, 1.741891557447858E9, 0.0, 2025-03-13 13:45:57.447
60.0, 34093.78637001352, -5932.443551116414, -26769.05265677603, -17213.950123065726, 4781.3287116680995, -19594.701480233845, -10470.674690088594, 24350.638610200716, -5178.988597272468, 7609.763158531566, -20077.141532557194, 52272.4377837703, -18548.39397053647, -25281.611118508714, 8763.515503825605, 19170.59948093885, -0.0075625, 0.962125, -0.23562500000000003, 192.0, 127.5, 96.0, 15.0, 16.0, 124.0, 96.0, 0.0, 0.0, 0.0, 1.741891557506392E9, 0.0, 2025-03-13 13:45:57.506
62.0, 34096.11095143687, -5936.422161629458, -26767.10805500842, -17214.82184109948, 4787.654255348952, -19591.72869822129, -10466.003175497435, 24354.30429629139, -5172.752460569437, 7608.489109097613, -20073.475846466525, 52283.12191761994, -18547.946935647364, -25277.856025440222, 8760.565073557505, 19171.314736761422, -0.0075625, 0.962125, -0.23562500000000003, 192.0, 0.0, 0.0, 0.0, 0.0, 0.0, 0.0, 0.0, 0.0, 0.0, 1.741891557506707E9, 0.0, 2025-03-13 13:45:57.506
64.0, 34108.851445776396, -5921.960582966874, -26775.892290579355, -17214.754785866116, 4783.452127391354, -19588.554750508636, -10468.104239476233, 24353.72315093555, -5164.795239543348, 7608.7796817755325, -20067.083247552306, 52271.90134190337, -18544.929450145897, -25279.28653708536, 8751.624375775382, 19164.89978610275, -0.0075625, 0.962125, -0.23562500000000003, 192.0, 0.0, 0.0, 0.0, 0.0, 0.0, 0.0, 0.0, 0.0, 0.0, 1.741891557507002E9, 0.0, 2025-03-13 13:45:57.507
66.0, 34104.582262585434, -5927.8837952475305, -26777.479264435682, -17222.957876081215, 4773.773822042206, -19596.333157579083, -10479.078946003789, 24344.134252564225, -5156.97212898399, 7615.619315578857, -20060.534186426903, 52286.184106610315, -18545.041208868173, -25280.359420819215, 8749.366849585396, 19159.06598079991, -0.0075625, 0.962125, -0.23562500000000003, 192.0, 0.0, 0.0, 0.0, 0.0, 0.0, 0.0, 0.0, 0.0, 0.0, 1.741891557507271E9, 0.0, 2025-03-13 13:45:57.507
68.0, 34103.44232361821, -5920.954754466386, -26783.916566838812, -17218.93456207926, 4778.043005233169, -19589.270006331208, -10465.824361541792, 24355.511290491973, -5164.124687209688, 7616.535737101524, -20063.86459635074, 52272.683652959306, -18553.40076129446, -25282.57224352029, 8743.801265216025, 19157.434303454676, -0.0075625, 0.962125, -0.23562500000000003, 192.0, 0.0, 0.0, 0.0, 0.0, 0.0, 0.0, 0.0, 0.0, 0.0, 1.74189155750753E9, 0.0, 2025-03-13 13:45:57.507
70.0, 34098.010849715574, -5928.040257458718, -26781.457874948726, -17226.2659342606, 4774.198505186857, -19598.54598028016, -10473.580416867784, 24346.86116538777, -5168.393870400652, 7617.653324324289, -20069.340773742293, 52273.91299890435, -18555.05479038415, -25284.986231921463, 8747.355192584419, 19155.914384831714, -0.01478125, 0.9610624999999999, -0.23381250000000003, 192.0, 127.5, 40.0, 15.0, 0.0, 124.0, 96.0, 0.0, 0.0, 0.0, 1.741891557507781E9, 0.0, 2025-03-13 13:45:57.507
72.0, 34105.40927713028, -5918.093731176106, -26783.514235438615, -17214.2630474881, 4777.886543021982, -19586.990128396767, -10464.617367341205, 24354.43840675812, -5172.506591380428, 7624.470606383158, -20075.286337767404, 52271.700176203274, -18558.988697408284, -25280.85115919723, 8746.327012339474, 19156.942565076657, -0.01478125, 0.9610624999999999, -0.23381250000000003, 192.0, 0.0, 0.0, 0.0, 0.0, 0.0, 0.0, 0.0, 0.0, 0.0, 1.741891557508044E9, 0.0, 2025-03-13 13:45:57.508
74.0, 34111.3995446443, -5918.384303854025, -26762.749464839635, -17204.58474213895, 4790.269409450222, -19580.35166029354, -10457.285995159864, 24364.451988274097, -5160.794277285848, 7636.875824555854, -20066.703267896566, 52283.68071123132, -18542.738979189275, -25266.590746234746, 8761.101515424432, 19175.18158855219, -0.01478125, 0.9610624999999999, -0.23381250000000003, 192.0, 0.0, 0.0, 0.0, 0.0, 0.0, 0.0, 0.0, 0.0, 0.0, 1.741891557566683E9, 0.0, 2025-03-13 13:45:57.566
76.0, 34108.24794867611, -5917.60199279809, -26775.512310923616, -17208.943332307736, 4782.178077957401, -19588.331233064084, -10465.824361541792, 24352.046770101402, -5157.665033062105, 7625.31997267246, -20069.720753398033, 52286.56408626605, -18541.844909411062, -25274.637374238657, 8758.195788645244, 19171.426495483698, -0.01478125, 0.9610624999999999, -0.23381250000000003, 192.0, 0.0, 0.0, 0.0, 0.0, 0.0, 0.0, 0.0, 0.0, 0.0, 1.741891557566995E9, 0.0, 2025-03-13 13:45:57.566
78.0, 34099.195492171704, -5929.940155737419, -26774.886462078866, -17221.147384780335, 4773.237380175278, -19599.238884358274, -10481.403527427141, 24331.997255324994, -5170.182009957077, 7621.6319348373345, -20074.59343368929, 52279.14330710689, -18548.170453091916, -25272.491606770946, 8748.003393173623, 19161.03293431198, -0.01478125, 0.9610624999999999, -0.23381250000000003, 192.0, 0.0, 0.0, 0.0, 0.0, 0.0, 0.0, 0.0, 0.0, 0.0, 1.741891557567261E9, 0.0, 2025-03-13 13:45:57.567
80.0, 34112.695945822714, -5914.875079974542, -26771.354886454927, -17215.73826262215, 4780.300531423156, -19593.58389301108, -10472.351070922741, 24344.58128745333, -5156.234521416965, 7612.087739954918, -20071.620651676734, 52280.864391429954, -18543.92362164541, -25273.922118416085, 8740.873186692379, 19152.762788863514, -0.016390625, 0.9585312500000001, -0.22990625000000003, 192.0, 127.5, 56.0, 14.5, 112.0, 124.0, 120.0, 0.0, 0.0, 0.0, 1.741891557567513E9, 0.0, 2025-03-13 13:45:57.567
82.0, 34115.981652257644, -5917.087902675617, -26758.90496479332, -17218.621637656885, 4788.861249549538, -19600.84820995906, -10466.047878986345, 24341.228525785034, -5153.149980682133, 7633.679525098744, -20060.534186426903, 52285.60296125447, -18535.944048874862, -25270.43524628106, 8752.429038575774, 19161.18939652317, -0.016390625, 0.9585312500000001, -0.22990625000000003, 192.0, 0.0, 0.0, 0.0, 0.0, 0.0, 0.0, 0.0, 0.0, 0.0, 1.741891557567803E9, 0.0, 2025-03-13 13:45:57.567
84.0, 34105.38692538583, -5924.642792301512, -26779.31210748102, -17225.349512737932, 4779.697034322862, -19604.156268138442, -10468.97595750999, 24338.63572342822, -5156.92742549508, 7617.027475479541, -20071.97827958802, 52285.46885078774, -18545.510595501735, -25283.53336853187, 8747.0646199065, 19151.600498151838, -0.016390625, 0.9585312500000001, -0.22990625000000003, 192.0, 0.0, 0.0, 0.0, 0.0, 0.0, 0.0, 0.0, 0.0, 0.0, 1.741891557568054E9, 0.0, 2025-03-13 13:45:57.568
86.0, 34099.37430612735, -5934.835187773131, -26772.9195085668, -17232.032684330068, 4781.686339579384, -19608.02311992921, -10470.004137754935, 24336.75817689397, -5164.370556398697, 7614.144100444806, -20080.203721547572, 52260.34549001998, -18548.48337751429, -25283.10868538722, 8751.423210075285, 19154.148597019746, -0.016390625, 0.9585312500000001, -0.22990625000000003, 192.0, 0.0, 0.0, 0.0, 0.0, 0.0, 0.0, 0.0, 0.0, 0.0, 1.741891557568346E9, 0.0, 2025-03-13 13:45:57.568
88.0, 34097.27324214855, -5936.600975585101, -26786.39761047335, -17237.620620443897, 4768.61056907303, -19613.700463020858, -10481.403527427141, 24329.896191346194, -5173.378309414185, 7596.59798104739, -20091.983090875518, 52267.5874552235, -18560.70978173134, -25296.027993682386, 8740.873186692379, 19142.41393118071, -0.016390625, 0.9585312500000001, -0.22990625000000003, 192.0, 0.0, 0.0, 0.0, 0.0, 0.0, 0.0, 0.0, 0.0, 0.0, 1.7418915575686E9, 0.0, 2025-03-13 13:45:57.568
90.0, 34099.977803227644, -5930.990687726819, -26776.316973724006, -17232.94910585274, 4769.459935362332, -19612.716986264826, -10481.06825126031, 24328.666845401152, -5166.382213399675, 7598.7437485150995, -20084.24938729398, 52257.52917021861, -18556.932336918395, -25292.00467968043, 8741.364925070397, 19152.13694001877, -0.0121953125, 0.953265625, -0.22695312500000003, 192.0, 127.5, 96.0, 14.5, 80.0, 124.5, 0.0, 0.0, 0.0, 0.0, 1.741891557626987E9, 0.0, 2025-03-13 13:45:57.626
92.0, 34111.82422778895, -5914.539803807713, -26774.037095789565, -17222.533192936564, 4776.925418010404, -19601.228189614798, -10466.78548655337, 24343.86603163076, -5169.422050645596, 7604.801071262488, -20080.136666314207, 52284.4406705428, -18557.736999718785, -25286.6179092667, 8744.315355338496, 19156.763751121016, -0.0121953125, 0.953265625, -0.22695312500000003, 192.0, 0.0, 0.0, 0.0, 0.0, 0.0, 0.0, 0.0, 0.0, 0.0, 1.741891557627289E9, 0.0, 2025-03-13 13:45:57.627
94.0, 34106.817437030964, -5919.07720793214, -26778.328630724984, -17228.635219172862, 4766.777726027694, -19605.273855361207, -10481.515286149417, 24334.567705937352, -5149.260777146909, 7612.154795188284, -20070.50306445397, 52273.309501804055, -18549.19863333686, -25278.48187428497, 8747.846930962436, 19163.335163990876, -0.0121953125, 0.953265625, -0.22695312500000003, 192.0, 0.0, 0.0, 0.0, 0.0, 0.0, 0.0, 0.0, 0.0, 0.0, 1.741891557627534E9, 0.0, 2025-03-13 13:45:57.627
96.0, 34102.302384651, -5920.775940510744, -26785.168264528307, -17228.255239517122, 4764.743717282262, -19608.760727496236, -10486.991463540968, 24325.828173855327, -5163.700004065037, 7606.231582907628, -20087.512741984458, 52274.851772171474, -18562.00618290975, -25288.830731967777, 8729.496148764629, 19145.520823659997, -0.0121953125, 0.953265625, -0.22695312500000003, 192.0, 0.0, 0.0, 0.0, 0.0, 0.0, 0.0, 0.0, 0.0, 0.0, 1.741891557627795E9, 0.0, 2025-03-13 13:45:57.627
98.0, 34107.57739634244, -5920.060684688174, -26780.16147377032, -17218.062844045504, 4770.219894673812, -19598.36716632452, -10476.039108757866, 24337.898115861193, -5156.189817928054, 7610.813690520966, -20079.488465725, 52262.71477493224, -18557.692296229878, -25272.312792815304, 8734.815863944992, 19155.824977853892, -0.0121953125, 0.953265625, -0.22695312500000003, 192.0, 0.0, 0.0, 0.0, 0.0, 0.0, 0.0, 0.0, 0.0, 0.0, 1.741891557628048E9, 0.0, 2025-03-13 13:45:57.628
100.0, 34109.03025973204, -5911.634077028522, -26776.24991849064, -17216.69938763373, 4776.2772174212005, -19599.7753262252, -10471.144076722156, 24340.71443566256, -5155.742783038948, 7628.940955274219, -20074.191102289093, 52285.06651938755, -18551.09853161556, -25271.709295715013, 8743.041305904544, 19160.518844189508, -0.009097656249999999, 0.9536328125, -0.22747656250000003, 192.0, 127.5, 104.0, 14.5, 104.0, 124.0, 112.0, 0.0, 0.0, 0.0, 1.741891557628295E9, 0.0, 2025-03-13 13:45:57.628
102.0, 34103.7999515295, -5918.764283509766, -26780.384991214873, -17221.437957458253, 4775.003167987248, -19606.257332117242, -10476.55319888034, 24332.332531491822, -5142.689364277049, 7628.784493063033, -20071.330078998813, 52263.56414122154, -18545.421188523913, -25276.269051583895, 8744.628279760871, 19159.580070922384, -0.009097656249999999, 0.9536328125, -0.22747656250000003, 192.0, 0.0, 0.0, 0.0, 0.0, 0.0, 0.0, 0.0, 0.0, 0.0, 1.741891557628557E9, 0.0, 2025-03-13 13:45:57.628
104.0, 34116.31692842447, -5902.02282691274, -26759.866089804902, -17206.127012506367, 4780.904028523449, -19588.554750508636, -10472.30636743383, 24345.654171187183, -5144.92453872258, 7633.433655909736, -20071.441837721093, 52283.70306297577, -18546.941107146875, -25270.99403989244, 8745.567053027995, 19161.07763780089, -0.009097656249999999, 0.9536328125, -0.22747656250000003, 192.0, 0.0, 0.0, 0.0, 0.0, 0.0, 0.0, 0.0, 0.0, 0.0, 1.741891557686262E9, 0.0, 2025-03-13 13:45:57.686
106.0, 34136.2099809897, -5880.095765602085, -26753.607601357413, -17187.619768097375, 4780.434641889888, -19568.34877352104, -10469.892379032657, 24361.099226605802, -5130.507663548907, 7655.338365475937, -20051.749950855967, 52288.553391522575, -18537.66513319792, -25247.457652981004, 8757.994622945145, 19182.55766422244, -0.009097656249999999, 0.9536328125, -0.22747656250000003, 192.0, 0.0, 0.0, 0.0, 0.0, 0.0, 0.0, 0.0, 0.0, 0.0, 1.741891557686554E9, 0.0, 2025-03-13 13:45:57.686
108.0, 34131.6055216319, -5883.4485272703805, -26759.57551712698, -17197.096907746425, 4767.068298705613, -19578.764686437215, -10484.1751437396, 24346.950572365593, -5127.311364091798, 7660.501618445113, -20046.92197405362, 52314.704932535285, -18542.984848378284, -25244.395463990626, 8752.652556020326, 19181.820056655415, -0.009097656249999999, 0.9536328125, -0.22747656250000003, 192.0, 0.0, 0.0, 0.0, 0.0, 0.0, 0.0, 0.0, 0.0, 0.0, 1.741891557686855E9, 0.0, 2025-03-13 13:45:57.686
110.0, 34110.70664056619, -5903.743911235799, -26786.66583140681, -17220.722701635685, 4749.209254885824, -19602.971625682312, -10500.067234047323, 24328.28686574541, -5141.862349732202, 7647.090571771929, -20061.20473876056, 52288.01694965565, -18552.841967683074, -25262.545080488337, 8737.63218374636, 19164.050419813448, -0.008548828125, 0.95881640625, -0.22673828125, 192.0, 127.5, 96.0, 15.0, 16.0, 124.0, 120.0, 0.0, 0.0, 0.0, 1.741891557687114E9, 0.0, 2025-03-13 13:45:57.687
112.0, 34107.15271319779, -5911.678780517434, -26785.43648546177, -17229.819861628996, 4756.94295846736, -19613.07461417611, -10495.775699111904, 24322.073080786835, -5149.417239358097, 7623.554184860491, -20077.052125579372, 52273.77888843762, -18562.34145907658, -25286.170874377596, 8721.449520760718, 19140.558736390918, -0.008548828125, 0.95881640625, -0.22673828125, 192.0, 0.0, 0.0, 0.0, 0.0, 0.0, 0.0, 0.0, 0.0, 0.0, 1.741891557687383E9, 0.0, 2025-03-13 13:45:57.687
114.0, 34095.82037875895, -5921.222975399849, -26797.64053793437, -17236.055998332024, 4756.719441022807, -19614.683939776893, -10492.020606043412, 24323.928275576625, -5161.151905197133, 7618.972077247153, -20084.137628571705, 52260.21137955325, -18563.526101532712, -25289.545987790345, 8724.198785328721, 19140.514032902007, -0.008548828125, 0.95881640625, -0.22673828125, 192.0, 0.0, 0.0, 0.0, 0.0, 0.0, 0.0, 0.0, 0.0, 0.0, 1.741891557687637E9, 0.0, 2025-03-13 13:45:57.687
116.0, 34097.85438750439, -5925.760379524277, -26778.954479569733, -17231.675056418786, 4768.051775461648, -19607.039643173175, -10484.152791995144, 24327.213982011555, -5144.432800344563, 7624.269440683061, -20077.901491868673, 52261.91011213185, -18552.618450238522, -25281.52171153089, 8737.810997702003, 19146.057265526924, -0.008548828125, 0.95881640625, -0.22673828125, 192.0, 0.0, 0.0, 0.0, 0.0, 0.0, 0.0, 0.0, 0.0, 0.0, 1.741891557687881E9, 0.0, 2025-03-13 13:45:57.687
118.0, 34083.951602453184, -5926.207414413383, -26790.689145408767, -17229.618695928897, 4766.487153349776, -19604.424489071906, -10482.185838483078, 24333.71833964805, -5158.983785984968, 7616.803958034988, -20088.295053040394, 52255.629271939906, -18558.67577298591, -25285.790894721857, 8735.374657556375, 19142.793910836448, -0.008548828125, 0.95881640625, -0.22673828125, 192.0, 0.0, 0.0, 0.0, 0.0, 0.0, 0.0, 0.0, 0.0, 0.0, 1.741891557688151E9, 0.0, 2025-03-13 13:45:57.688
120.0, 34094.881605491835, -5922.005286455785, -26773.567709156003, -17223.5166696926, 4773.863229020028, -19603.01632917122, -10480.911789049123, 24332.511345447463, -5160.101373207734, 7618.502690613591, -20086.30574778387, 52263.11710633244, -18559.97217416432, -25281.320545830793, 8736.514596523595, 19147.55483240543, -0.0072744140625, 0.9584082031250001, -0.22836914062500002, 192.0, 127.5, 104.0, 14.5, 120.0, 124.0, 104.0, 0.0, 0.0, 0.0, 1.74189155774598E9, 0.0, 2025-03-13 13:45:57.745
122.0, 34098.63669856032, -5912.014056684263, -26783.178959271787, -17221.16973652479, 4774.287912164678, -19602.68105300439, -10477.737841336471, 24334.746519892993, -5150.266605647398, 7642.374353691859, -20079.06378258035, 52277.62338848393, -18553.043133383173, -25277.5654527623, 8744.650631505327, 19152.382809207775, -0.0072744140625, 0.9584082031250001, -0.22836914062500002, 192.0, 0.0, 0.0, 0.0, 0.0, 0.0, 0.0, 0.0, 0.0, 0.0, 1.741891557746292E9, 0.0, 2025-03-13 13:45:57.746
124.0, 34088.77957925553, -5925.782731268732, -26781.16730227081, -17231.540945952052, 4771.270426663212, -19614.996864199267, -10486.991463540968, 24326.878705844727, -5153.440553360052, 7631.109074486384, -20081.96950935954, 52270.940216891795, -18558.47460728581, -25286.126170888685, 8741.029648903566, 19147.465425427607, -0.0072744140625, 0.9584082031250001, -0.22836914062500002, 192.0, 0.0, 0.0, 0.0, 0.0, 0.0, 0.0, 0.0, 0.0, 0.0, 1.741891557746538E9, 0.0, 2025-03-13 13:45:57.746
126.0, 34091.372381612346, -5919.658353287978, -26789.839779119466, -17230.870393618392, 4772.477420863798, -19613.34283510957, -10479.146001237155, 24328.599790167784, -5150.914806236602, 7624.224737194149, -20081.857750637264, 52265.10641158896, -18560.061581142138, -25291.62470002469, 8738.906233180312, 19144.582050392873, -0.0072744140625, 0.9584082031250001, -0.22836914062500002, 192.0, 0.0, 0.0, 0.0, 0.0, 0.0, 0.0, 0.0, 0.0, 0.0, 1.741891557746817E9, 0.0, 2025-03-13 13:45:57.746
128.0, 34095.35099212539, -5920.015981199263, -26786.10703779543, -17235.16192855381, 4769.5269905956975, -19622.305884636153, -10487.17027749661, 24320.843734841794, -5146.578567812272, 7626.07993198394, -20079.220244791537, 52261.79835340958, -18558.407552052446, -25293.368136092206, 8736.626355245871, 19142.324524202886, -0.0072744140625, 0.9584082031250001, -0.22836914062500002, 192.0, 0.0, 0.0, 0.0, 0.0, 0.0, 0.0, 0.0, 0.0, 0.0, 1.74189155774706E9, 0.0, 2025-03-13 13:45:57.747
130.0, 34099.53076833853, -5915.120949163551, -26797.461723978726, -17238.626448944386, 4765.213103915823, -19623.199954414362, -10490.590094398272, 24319.77085110794, -5143.181102655066, 7626.839891295421, -20081.857750637264, 52272.4377837703, -18559.43573229739, -25294.798647737345, 8731.328991809964, 19135.93192528867, -0.00463720703125, 0.9542041015625, -0.2291845703125, 192.0, 127.5, 120.0, 14.5, 88.0, 124.0, 104.0, 0.0, 0.0, 0.0, 1.741891557747356E9, 0.0, 2025-03-13 13:45:57.747
132.0, 34102.52590209555, -5915.188004396917, -26784.654174405834, -17237.71002742172, 4768.565865584119, -19624.161079425943, -10492.1770682546, 24318.09447027379, -5142.644660788138, 7623.107149971384, -20081.500122725978, 52253.05882132755, -18562.475569543312, -25301.19124665156, 8725.696352207226, 19127.348855417833, -0.00463720703125, 0.9542041015625, -0.2291845703125, 192.0, 0.0, 0.0, 0.0, 0.0, 0.0, 0.0, 0.0, 0.0, 0.0, 1.741891557747634E9, 0.0, 2025-03-13 13:45:57.747
134.0, 34099.553120082994, -5913.712789262866, -26784.83298836148, -17232.479719219176, 4763.268502148211, -19620.964779968832, -10497.586190412783, 24317.33451096231, -5136.140303151644, 7640.161530990784, -20073.54290169989, 52268.66033895735, -18552.260822327236, -25288.316641845304, 8736.58165175696, 19138.032989267467, -0.00463720703125, 0.9542041015625, -0.2291845703125, 192.0, 0.0, 0.0, 0.0, 0.0, 0.0, 0.0, 0.0, 0.0, 0.0, 1.741891557806452E9, 0.0, 2025-03-13 13:45:57.806
136.0, 34098.39082937132, -5919.479539332336, -26780.317935981508, -17228.23288777267, 4769.683452806885, -19616.114451422032, -10489.807783342336, 24326.29756048889, -5150.646585303139, 7631.578461119946, -20085.74695417249, 52247.26971951363, -18562.564976521135, -25293.681060514577, 8726.791587685537, 19136.289553199953, -0.00463720703125, 0.9542041015625, -0.2291845703125, 192.0, 0.0, 0.0, 0.0, 0.0, 0.0, 0.0, 0.0, 0.0, 0.0, 1.74189155780675E9, 0.0, 2025-03-13 13:45:57.806
138.0, 34106.348050397406, -5905.97908568133, -26770.751389354635, -17214.553620166018, 4788.6600838494405, -19599.41769831392, -10465.533788863873, 24343.843679886304, -5145.013945700401, 7630.751446575099, -20072.000631332474, 52267.363937778944, -18555.05479038415, -25279.130074874174, 8744.583576271962, 19150.68407662917, -0.00463720703125, 0.9542041015625, -0.2291845703125, 192.0, 0.0, 0.0, 0.0, 0.0, 0.0, 0.0, 0.0, 0.0, 0.0, 1.741891557807001E9, 0.0, 2025-03-13 13:45:57.807
140.0, 34100.46954160566, -5908.303667104682, -26767.890366064355, -17214.799489355028, 4784.189734958379, -19600.468230303315, -10476.508495391428, 24336.132328049225, -5140.722410764982, 7650.532740418046, -20069.094904553283, 52251.13657130439, -18548.036342625182, -25273.85506318272, 8749.925643196779, 19159.89299534476, -0.005318603515625, 0.95710205078125, -0.23259228515625002, 192.0, 127.5, 104.0, 15.0, 0.0, 124.0, 80.0, 0.0, 0.0, 0.0, 1.741891557807268E9, 0.0, 2025-03-13 13:45:57.807
142.0, 34111.95833825569, -5899.40767281147, -26766.95159279723, -17209.345663707933, 4783.921514024915, -19595.30497733414, -10476.97788202499, 24339.14981355069, -5131.357029838208, 7650.309222973493, -20062.277622494417, 52272.30367330357, -18544.10243560105, -25270.412894536603, 8749.836236218958, 19162.262280257022, -0.005318603515625, 0.95710205078125, -0.23259228515625002, 192.0, 0.0, 0.0, 0.0, 0.0, 0.0, 0.0, 0.0, 0.0, 0.0, 1.74189155780754E9, 0.0, 2025-03-13 13:45:57.807
144.0, 34104.738724796625, -5903.475690302335, -26769.745560854146, -17214.486564932653, 4780.881676778994, -19600.40117506995, -10483.862219317225, 24335.305313504377, -5126.976087924968, 7659.071106799974, -20059.416599204138, 52260.166676064335, -18542.761330933732, -25266.47898751247, 8749.523311796584, 19163.379867479787, -0.005318603515625, 0.95710205078125, -0.23259228515625002, 192.0, 0.0, 0.0, 0.0, 0.0, 0.0, 0.0, 0.0, 0.0, 0.0, 1.741891557807784E9, 0.0, 2025-03-13 13:45:57.807
146.0, 34098.41318111577, -5909.354199094081, -26781.323764481996, -17221.16973652479, 4767.872961506005, -19604.91622744992, -10496.490954934474, 24330.231467513022, -5141.437666587552, 7650.175112506761, -20074.6381371782, 52265.709908689256, -18556.172377606916, -25280.404124308126, 8735.978154656668, 19150.862890584816, -0.005318603515625, 0.95710205078125, -0.23259228515625002, 192.0, 0.0, 0.0, 0.0, 0.0, 0.0, 0.0, 0.0, 0.0, 0.0, 1.741891557808027E9, 0.0, 2025-03-13 13:45:57.808
148.0, 34109.343184154415, -5895.78669020971, -26773.38889520036, -17207.60222764042, 4790.112947239036, -19587.92890166389, -10466.807838297826, 24349.364560766764, -5140.767114253893, 7660.658080656301, -20073.609956933255, 52243.06759155603, -18554.160720605938, -25274.391505049647, 8739.934413425257, 19161.345858734352, -0.005318603515625, 0.95710205078125, -0.23259228515625002, 192.0, 0.0, 0.0, 0.0, 0.0, 0.0, 0.0, 0.0, 0.0, 0.0, 1.741891557808293E9, 0.0, 2025-03-13 13:45:57.808
150.0, 34097.675573548746, -5912.5057950622795, -26784.654174405834, -17226.511803449608, 4770.711633051829, -19607.285512362185, -10490.83596358728, 24328.219810512044, -5139.135436908655, 7663.6085109244, -20071.330078998813, 52269.73322269121, -18554.56305200613, -25270.23408058096, 8742.68367799326, 19167.11260880382, -0.0066593017578125, 0.961551025390625, -0.23529614257812503, 192.0, 127.5, 96.0, 15.0, 24.0, 124.0, 72.0, 0.0, 0.0, 0.0, 1.741891557866614E9, 0.0, 2025-03-13 13:45:57.866
152.0, 34106.057477719485, -5905.4649955588575, -26787.15756978483, -17226.489451705154, 4773.684415064385, -19600.468230303315, -10488.667844375115, 24335.707644904574, -5148.277300390876, 7642.620222880867, -20085.791657661397, 52235.40094320786, -18564.62133701102, -25288.227234867485, 8719.236698059643, 19149.477082428584, -0.0066593017578125, 0.961551025390625, -0.23529614257812503, 192.0, 0.0, 0.0, 0.0, 0.0, 0.0, 0.0, 0.0, 0.0, 0.0, 1.741891557866966E9, 0.0, 2025-03-13 13:45:57.866
154.0, 34113.41120164528, -5900.860536201065, -26772.24895623314, -17219.73922487965, 4783.89916228046, -19593.49448603326, -10477.670786103105, 24345.475357231542, -5141.482370076463, 7645.660060126789, -20072.648831921677, 52256.903321373866, -18552.841967683074, -25275.71025797251, 8733.63122148886, 19163.2234052686, -0.0066593017578125, 0.961551025390625, -0.23529614257812503, 192.0, 0.0, 0.0, 0.0, 0.0, 0.0, 0.0, 0.0, 0.0, 0.0, 1.741891557867225E9, 0.0, 2025-03-13 13:45:57.867
156.0, 34114.014698745574, -5899.228858855827, -26774.59588940095, -17217.07936728947, 4786.335502426088, -19589.78409645368, -10475.726184335494, 24349.230450300034, -5116.359009308697, 7656.9700428211745, -20057.96373581454, 52255.405754495354, -18540.57085997711, -25260.175795576073, 8743.443637304741, 19176.343879263866, -0.0066593017578125, 0.961551025390625, -0.23529614257812503, 192.0, 0.0, 0.0, 0.0, 0.0, 0.0, 0.0, 0.0, 0.0, 0.0, 1.741891557867488E9, 0.0, 2025-03-13 13:45:57.867
158.0, 34114.48408537914, -5905.532050792223, -26772.33836321096, -17221.66147490281, 4783.697996580362, -19596.713137234823, -10479.011890770424, 24341.943781607602, -5124.360933823697, 7639.826254823954, -20066.032715562906, 52258.065612085535, -18545.689409457376, -25267.14953984613, 8739.509730280606, 19169.303079760444, -0.0066593017578125, 0.961551025390625, -0.23529614257812503, 192.0, 0.0, 0.0, 0.0, 0.0, 0.0, 0.0, 0.0, 0.0, 0.0, 1.741891557867753E9, 0.0, 2025-03-13 13:45:57.867
160.0, 34119.58028311495, -5896.770166965744, -26776.652249890834, -17212.564314909498, 4790.939961783882, -19586.945424907855, -10468.350108665241, 24351.3985695122, -5126.931384436058, 7633.500711143102, -20065.608032418255, 52246.71092590224, -18551.05382812665, -25267.417760779594, 8737.721590724183, 19168.811341382425, -0.00532965087890625, 0.9627755126953125, -0.2366480712890625, 192.0, 127.5, 112.0, 15.0, 16.0, 124.0, 72.0, 0.0, 0.0, 0.0, 1.741891557868006E9, 0.0, 2025-03-13 13:45:57.868
162.0, 34124.69883259521, -5896.814870454654, -26762.123615994886, -17207.110489262403, 4802.115834011535, -19581.424544027395, -10461.242253928454, 24356.025380614446, -5110.0558173723, 7641.7038013582, -20048.44189267658, 52265.64285345589, -18534.37942676299, -25250.13986231564, 8754.597157787939, 19184.97165262361, -0.00532965087890625, 0.9627755126953125, -0.2366480712890625, 192.0, 0.0, 0.0, 0.0, 0.0, 0.0, 0.0, 0.0, 0.0, 0.0, 1.741891557868295E9, 0.0, 2025-03-13 13:45:57.868
164.0, 34114.88641677933, -5909.98004793883, -26777.188691757765, -17209.613884641396, 4801.311171211144, -19575.791904424656, -10458.35887889372, 24363.982601640535, -5118.39301805413, 7627.577498862446, -20062.21056726105, 52251.29303351558, -18536.547545975154, -25256.845385652232, 8752.384335086863, 19185.66455670173, -0.00532965087890625, 0.9627755126953125, -0.2366480712890625, 192.0, 0.0, 0.0, 0.0, 0.0, 0.0, 0.0, 0.0, 0.0, 0.0, 1.741891557926997E9, 0.0, 2025-03-13 13:45:57.926
166.0, 34102.347088139904, -5921.334734122126, -26779.200348758743, -17224.3660359819, 4797.779595587206, -19590.767573209712, -10465.131457463678, 24353.164357324167, -5125.411465813097, 7618.07800746894, -20073.766419144442, 52242.9334810893, -18541.531984988687, -25262.52272874388, 8751.40085833083, 19183.250568300555, -0.00532965087890625, 0.9627755126953125, -0.2366480712890625, 192.0, 0.0, 0.0, 0.0, 0.0, 0.0, 0.0, 0.0, 0.0, 0.0, 1.741891557927296E9, 0.0, 2025-03-13 13:45:57.927
168.0, 34108.67263182076, -5915.433873585925, -26789.079819807986, -17227.249411016634, 4791.543458884175, -19584.509084762227, -10467.92542552059, 24353.38787476872, -5126.372590824675, 7608.98084747563, -20081.298957025883, 52231.42233269481, -18545.890575157475, -25271.508130014914, 8744.695334994238, 19172.812303639927, -0.00532965087890625, 0.9627755126953125, -0.2366480712890625, 192.0, 0.0, 0.0, 0.0, 0.0, 0.0, 0.0, 0.0, 0.0, 0.0, 1.741891557927543E9, 0.0, 2025-03-13 13:45:57.927
170.0, 34107.13036145334, -5923.346391123104, -26781.34611622645, -17236.3689227544, 4788.458918149343, -19596.601378512547, -10475.033280257378, 24342.56963045235, -5123.556271023306, 7607.080949196929, -20077.365050001747, 52228.74012336018, -18544.795339679164, -25269.116493358197, 8743.063657649, 19170.197149538657, -0.006664825439453125, 0.9643877563476562, -0.23632403564453125, 192.0, 127.5, 96.0, 15.0, 24.0, 124.0, 80.0, 0.0, 0.0, 0.0, 1.741891557927815E9, 0.0, 2025-03-13 13:45:57.927
172.0, 34109.74551555461, -5924.799254512698, -26786.509369195628, -17238.31352452201, 4785.240266947779, -19600.758802981236, -10476.173219224598, 24338.143985050203, -5122.9527739230125, 7591.9935216895965, -20075.532206956414, 52222.503986657146, -18543.85656641204, -25272.24573758194, 8739.196805858232, 19164.87743435829, -0.006664825439453125, 0.9643877563476562, -0.23632403564453125, 192.0, 0.0, 0.0, 0.0, 0.0, 0.0, 0.0, 0.0, 0.0, 0.0, 1.741891557928086E9, 0.0, 2025-03-13 13:45:57.928
174.0, 34111.3995446443, -5924.374571368047, -26778.216872002708, -17235.385445998367, 4780.658159334441, -19605.36326233903, -10483.54929489485, 24332.06431055836, -5120.941116922035, 7603.214097406161, -20079.443762236093, 52217.69836159925, -18550.67384847091, -25279.91238593011, 8729.987887142646, 19154.617983653305, -0.006664825439453125, 0.9643877563476562, -0.23632403564453125, 192.0, 0.0, 0.0, 0.0, 0.0, 0.0, 0.0, 0.0, 0.0, 0.0, 1.74189155792838E9, 0.0, 2025-03-13 13:45:57.928
176.0, 34109.72316381016, -5920.865347488564, -26788.856302363434, -17231.563297696506, 4776.210162187835, -19600.624692514502, -10479.637739615171, 24340.088586817812, -5120.337619821742, 7607.930315486231, -20074.481674967014, 52230.97529780571, -18550.942069404373, -25271.977516648476, 8733.810035444503, 19163.17870177969, -0.006664825439453125, 0.9643877563476562, -0.23632403564453125, 192.0, 0.0, 0.0, 0.0, 0.0, 0.0, 0.0, 0.0, 0.0, 0.0, 1.741891557928639E9, 0.0, 2025-03-13 13:45:57.928
178.0, 34112.8524080339, -5919.45718758788, -26773.34419171145, -17225.461271460208, 4784.122679725013, -19598.59068376907, -10476.463791902517, 24340.088586817812, -5120.516433777384, 7607.6620945527675, -20073.11821855524, 52225.05208552505, -18550.91971765992, -25268.490644513447, 8735.68758197875, 19165.03389656948, -0.006664825439453125, 0.9643877563476562, -0.23632403564453125, 192.0, 0.0, 0.0, 0.0, 0.0, 0.0, 0.0, 0.0, 0.0, 0.0, 1.741891557928896E9, 0.0, 2025-03-13 13:45:57.928
180.0, 34099.17314042725, -5930.02956271524, -26792.477284965193, -17241.80039665704, 4773.70676680884, -19609.20776238534, -10485.762117595927, 24330.320874490844, -5125.255003601909, 7601.940047972209, -20077.856788379766, 52242.03941131108, -18553.91485141693, -25277.18547310656, 8731.463102276695, 19158.68600114417, -0.008332412719726562, 0.9631938781738281, -0.23716201782226565, 192.0, 127.5, 88.0, 15.0, 8.0, 124.0, 72.0, 0.0, 0.0, 0.0, 1.741891557987334E9, 0.0, 2025-03-13 13:45:57.987
182.0, 34102.72706779565, -5928.263774903271, -26783.603642416438, -17236.055998332024, 4784.100327980558, -19599.14947738045, -10480.442402415563, 24339.86506937326, -5128.987744925946, 7591.255914122572, -20083.042393093398, 52216.29020169857, -18554.943031661875, -25284.785066221368, 8728.736189453148, 19157.099027287844, -0.008332412719726562, 0.9631938781738281, -0.23716201782226565, 192.0, 0.0, 0.0, 0.0, 0.0, 0.0, 0.0, 0.0, 0.0, 0.0, 1.741891557987633E9, 0.0, 2025-03-13 13:45:57.987
184.0, 34096.4462276037, -5929.694286548411, -26797.752296656647, -17236.435977987763, 4780.345234912066, -19595.72966047879, -10476.866123302714, 24343.307238019377, -5129.63594551515, 7596.910905469765, -20082.707116926566, 52236.94321357527, -18556.082970629093, -25278.705391729523, 8734.882919178357, 19165.547986691952, -0.008332412719726562, 0.9631938781738281, -0.23716201782226565, 192.0, 0.0, 0.0, 0.0, 0.0, 0.0, 0.0, 0.0, 0.0, 0.0, 1.74189155798791E9, 0.0, 2025-03-13 13:45:57.987
186.0, 34111.22073068866, -5918.093731176106, -26780.452046448238, -17226.93648659426, 4798.628961876508, -19582.34096555006, -10460.191721939054, 24355.332476536332, -5127.847805958725, 7602.118861927851, -20084.897587883188, 52218.25715521064, -18549.5786129926, -25273.206862593517, 8740.739076225647, 19169.727762905095, -0.008332412719726562, 0.9631938781738281, -0.23716201782226565, 192.0, 0.0, 0.0, 0.0, 0.0, 0.0, 0.0, 0.0, 0.0, 0.0, 1.741891557988164E9, 0.0, 2025-03-13 13:45:57.988
188.0, 34101.855349761885, -5923.41344635647, -26791.180883786787, -17235.720722165195, 4790.001188516759, -19587.07953537459, -10466.964300509013, 24350.370389267253, -5128.048971658823, 7603.571725317446, -20081.88010238172, 52241.54767293307, -18552.037304882684, -25269.407066036114, 8746.05879140601, 19168.94545184916, -0.008332412719726562, 0.9631938781738281, -0.23716201782226565, 192.0, 0.0, 0.0, 0.0, 0.0, 0.0, 0.0, 0.0, 0.0, 0.0, 1.741891557988417E9, 0.0, 2025-03-13 13:45:57.988
190.0, 34102.7494195401, -5921.290030633215, -26793.01372683212, -17232.256201774624, 4780.635807589985, -19590.097020876055, -10473.423954656597, 24344.715397920063, -5140.454189831518, 7597.6261612923345, -20087.579797217822, 52219.86648081142, -18554.58540375059, -25273.29626957134, 8740.068523891989, 19166.576166936895, -0.006166206359863281, 0.961596939086914, -0.23858100891113282, 192.0, 127.5, 112.0, 15.0, 0.0, 124.0, 64.0, 0.0, 0.0, 0.0, 1.741891557988663E9, 0.0, 2025-03-13 13:45:57.988
192.0, 34106.817437030964, -5918.36195210957, -26787.269328507107, -17225.237754015656, 4780.635807589985, -19588.420640041906, -10474.0721552458, 24346.145909565203, -5117.208375597999, 7601.001274705086, -20075.129875556217, 52246.330946246504, -18550.71855195982, -25270.211728836504, 8739.755599469614, 19167.35847799283, -0.006166206359863281, 0.961596939086914, -0.23858100891113282, 192.0, 0.0, 0.0, 0.0, 0.0, 0.0, 0.0, 0.0, 0.0, 0.0, 1.741891557988945E9, 0.0, 2025-03-13 13:45:57.988
194.0, 34100.17896892774, -5927.570870825157, -26788.744543641158, -17234.066693075503, 4774.8690575205155, -19600.624692514502, -10484.577475139795, 24330.522040190943, -5123.779788467859, 7597.6261612923345, -20079.30965176936, 52237.83728335349, -18551.254993826748, -25268.267127068895, 8733.675924977772, 19160.205919767133, -0.006166206359863281, 0.961596939086914, -0.23858100891113282, 192.0, 0.0, 0.0, 0.0, 0.0, 0.0, 0.0, 0.0, 0.0, 0.0, 1.741891558046636E9, 0.0, 2025-03-13 13:45:58.046
196.0, 34104.55991084098, -5920.150091665994, -26777.836892346968, -17231.138614551855, 4780.971083756815, -19596.713137234823, -10474.675652346094, 24345.00597059798, -5125.009134412901, 7592.999350190085, -20082.863579137753, 52251.091867815485, -18552.685505471887, -25273.67624922708, 8730.546680754029, 19153.209823752622, -0.006166206359863281, 0.961596939086914, -0.23858100891113282, 192.0, 0.0, 0.0, 0.0, 0.0, 0.0, 0.0, 0.0, 0.0, 0.0, 1.741891558046985E9, 0.0, 2025-03-13 13:45:58.046
198.0, 34103.956413740685, -5924.687495790422, -26776.518139424104, -17235.541908209554, 4778.043005233169, -19604.69271000537, -10483.079908261288, 24334.3441884928, -5120.091750632733, 7598.922562470742, -20073.319384255337, 52234.328059474, -18549.28804031468, -25271.44107478155, 8734.748808711625, 19156.69669588765, -0.006166206359863281, 0.961596939086914, -0.23858100891113282, 192.0, 0.0, 0.0, 0.0, 0.0, 0.0, 0.0, 0.0, 0.0, 0.0, 1.741891558047251E9, 0.0, 2025-03-13 13:45:58.047
200.0, 34096.4462276037, -5932.063571460673, -26778.976831314187, -17239.185242555766, 4776.701900565851, -19607.799602484658, -10483.035204772379, 24333.003083825482, -5117.945983165024, 7594.519268813046, -20073.185273788604, 52247.13560904689, -18551.72438046031, -25277.34193531775, 8731.708971465703, 19151.824015596394, -0.00408310317993164, 0.958798469543457, -0.23329050445556643, 192.0, 127.5, 120.0, 14.5, 112.0, 124.0, 112.0, 0.0, 0.0, 0.0, 1.741891558047503E9, 0.0, 2025-03-13 13:45:58.047
202.0, 34094.63573630282, -5927.8837952475305, -26780.273232492596, -17228.903440106325, 4787.9001245379595, -19595.908474434433, -10469.177123210087, 24343.82132814185, -5120.7175994774825, 7596.061539180463, -20082.97533786003, 52224.739161102676, -18554.853624684052, -25277.744266717946, 8736.246375590132, 19153.589803408362, -0.00408310317993164, 0.958798469543457, -0.23329050445556643, 192.0, 0.0, 0.0, 0.0, 0.0, 0.0, 0.0, 0.0, 0.0, 0.0, 1.741891558047776E9, 0.0, 2025-03-13 13:45:58.047
204.0, 34084.33158210893, -5940.9148622649745, -26784.07302905, -17233.329085508478, 4785.5531913701525, -19596.802544212645, -10471.054669744333, 24343.888383375215, -5122.595146011728, 7599.771928760044, -20086.663375695156, 52239.31249848753, -18551.90319441595, -25272.066923626295, 8747.10932339541, 19164.31864074691, -0.00408310317993164, 0.958798469543457, -0.23329050445556643, 192.0, 0.0, 0.0, 0.0, 0.0, 0.0, 0.0, 0.0, 0.0, 0.0, 1.741891558048026E9, 0.0, 2025-03-13 13:45:58.048
206.0, 34072.73102673662, -5952.023679259262, -26803.29552928156, -17242.068617590503, 4772.790345286173, -19604.424489071906, -10485.31508270682, 24335.014740826457, -5134.77684673987, 7584.304521596971, -20102.80133519189, 52209.2717539396, -18558.85458694155, -25282.639298753656, 8742.191939615243, 19160.831768611883, -0.00408310317993164, 0.958798469543457, -0.23329050445556643, 192.0, 0.0, 0.0, 0.0, 0.0, 0.0, 0.0, 0.0, 0.0, 0.0, 1.741891558048292E9, 0.0, 2025-03-13 13:45:58.048
208.0, 34069.95941042416, -5955.711717094388, -26795.36065999993, -17240.3698850119, 4780.5016971232535, -19601.362300081528, -10477.715489592016, 24339.06040657287, -5148.165541668599, 7573.396870302781, -20110.60209400679, 52217.22897496569, -18576.221892383324, -25293.032859925373, 8732.82655868847, 19156.003791809537, -0.00408310317993164, 0.958798469543457, -0.23329050445556643, 192.0, 0.0, 0.0, 0.0, 0.0, 0.0, 0.0, 0.0, 0.0, 0.0, 1.741891558048541E9, 0.0, 2025-03-13 13:45:58.048
210.0, 34079.9953436846, -5945.921653022963, -26794.153665799342, -17232.435015730265, 4780.814621545627, -19594.187390111376, -10474.295672690354, 24349.029284599936, -5142.756419510415, 7580.683538995211, -20104.276550325936, 52211.55163187404, -18566.96827017883, -25286.99788892244, 8740.694372736738, 19166.1738355367, -0.00404155158996582, 0.9563992347717285, -0.2276452522277832, 192.0, 127.5, 112.0, 14.5, 104.0, 124.5, 8.0, 0.0, 0.0, 0.0, 1.741891558106362E9, 0.0, 2025-03-13 13:45:58.106
212.0, 34089.87481473384, -5934.052876717195, -26776.719305124203, -17223.40491097032, 4784.815583803128, -19586.45368652984, -10472.731050578483, 24353.589040468818, -5119.979991910457, 7593.848716479388, -20088.49621874049, 52225.16384424733, -18557.11115087404, -25278.839502196253, 8746.930509439768, 19173.102876317844, -0.00404155158996582, 0.9563992347717285, -0.2276452522277832, 192.0, 0.0, 0.0, 0.0, 0.0, 0.0, 0.0, 0.0, 0.0, 0.0, 1.741891558106676E9, 0.0, 2025-03-13 13:45:58.106
214.0, 34100.8495212614, -5921.044161444207, -26778.06040979152, -17220.677998146773, 4785.486136136787, -19583.704421961836, -10468.55127436534, 24354.90779339168, -5123.06453264529, 7603.817594506454, -20085.54578847239, 52225.230899480695, -18555.658287484443, -25276.58197600627, 8744.87414894988, 19170.577129194397, -0.00404155158996582, 0.9563992347717285, -0.2276452522277832, 192.0, 0.0, 0.0, 0.0, 0.0, 0.0, 0.0, 0.0, 0.0, 0.0, 1.741891558106941E9, 0.0, 2025-03-13 13:45:58.106
216.0, 34091.171215912254, -5934.589318584123, -26775.713476623714, -17233.016161086103, 4778.087708722081, -19602.055204159642, -10483.906922806134, 24337.2946187609, -5113.654448229605, 7602.700007283689, -20075.59926218978, 52236.49617868617, -18548.39397053647, -25273.81035969381, 8746.68464025076, 19169.861873371825, -0.00404155158996582, 0.9563992347717285, -0.2276452522277832, 192.0, 0.0, 0.0, 0.0, 0.0, 0.0, 0.0, 0.0, 0.0, 0.0, 1.7418915581072E9, 0.0, 2025-03-13 13:45:58.107
218.0, 34090.27714613404, -5928.017905714262, -26784.363601727917, -17230.155137795824, 4776.500734865754, -19602.993977426766, -10484.063385017322, 24337.04874957189, -5127.736047236449, 7594.1616409017615, -20084.361146016257, 52227.28725997058, -18561.71561023183, -25285.880301699675, 8737.475721535173, 19154.528576675486, -0.00404155158996582, 0.9563992347717285, -0.2276452522277832, 192.0, 0.0, 0.0, 0.0, 0.0, 0.0, 0.0, 0.0, 0.0, 0.0, 1.741891558107488E9, 0.0, 2025-03-13 13:45:58.107
220.0, 34107.26447192007, -5913.60103054059, -26761.743636339146, -17215.22417249968, 4790.09059549458, -19590.029965642687, -10472.596940111749, 24347.28584853242, -5112.179233095555, 7613.294734155505, -20069.5866429313, 52241.97235607772, -18546.471720513313, -25271.44107478155, 8748.472779807184, 19164.78802738047, -0.00402077579498291, 0.9561996173858642, -0.2258226261138916, 192.0, 127.5, 112.0, 14.5, 112.0, 124.5, 0.0, 0.0, 0.0, 0.0, 1.741891558107746E9, 0.0, 2025-03-13 13:45:58.107
222.0, 34108.47146612066, -5904.660332758467, -26762.972982284187, -17207.155192751314, 4798.09252000958, -19582.49742776125, -10462.248082428943, 24354.125482335745, -5109.631134227649, 7617.519213857558, -20063.775189372922, 52249.974280592716, -18543.655400711945, -25262.90270839962, 8758.441657834252, 19175.2262920411, -0.00402077579498291, 0.9561996173858642, -0.2258226261138916, 192.0, 0.0, 0.0, 0.0, 0.0, 0.0, 0.0, 0.0, 0.0, 0.0, 1.741891558108012E9, 0.0, 2025-03-13 13:45:58.108
224.0, 34107.89032076482, -5910.896469461497, -26753.406435657318, -17207.713986362694, 4801.646447377974, -19581.513951005218, -10462.87393127369, 24357.455892259586, -5105.8089859257925, 7625.498786628103, -20059.01426780394, 52256.2327690402, -18537.933354131386, -25255.034894351353, 8765.795381760046, 19181.171856066212, -0.00402077579498291, 0.9561996173858642, -0.2258226261138916, 192.0, 0.0, 0.0, 0.0, 0.0, 0.0, 0.0, 0.0, 0.0, 0.0, 1.74189155816673E9, 0.0, 2025-03-13 13:45:58.166
226.0, 34101.96710848416, -5912.349332851092, -26766.795130586044, -17213.59249515444, 4799.299514210166, -19582.229206827786, -10461.130495206178, 24356.15949108118, -5107.552421993306, 7616.22281267915, -20064.199872517573, 52258.46794348573, -18542.85073791155, -25262.723894443978, 8764.58838755946, 19177.349707764355, -0.00402077579498291, 0.9561996173858642, -0.2258226261138916, 192.0, 0.0, 0.0, 0.0, 0.0, 0.0, 0.0, 0.0, 0.0, 0.0, 1.741891558167017E9, 0.0, 2025-03-13 13:45:58.167
228.0, 34092.355858368384, -5925.3580481240815, -26766.95159279723, -17223.74018713715, 4795.052682763659, -19590.655814487436, -10467.344280164752, 24352.2479358015, -5116.180195353055, 7613.6523620667895, -20073.766419144442, 52241.41356246633, -18542.403703022446, -25265.562565989803, 8760.743887513148, 19175.718030419117, -0.00402077579498291, 0.9561996173858642, -0.2258226261138916, 192.0, 0.0, 0.0, 0.0, 0.0, 0.0, 0.0, 0.0, 0.0, 0.0, 1.741891558167298E9, 0.0, 2025-03-13 13:45:58.167
230.0, 34078.095445405896, -5938.679687819444, -26783.268366249606, -17235.474852976186, 4783.697996580362, -19599.7753262252, -10474.586245368273, 24343.284886274923, -5132.318154849787, 7594.02753043503, -20088.20564606257, 52240.608899665946, -18557.401723551957, -25282.974574920485, 8746.30466059502, 19160.36238197832, -0.004010387897491455, 0.9550998086929321, -0.2299113130569458, 192.0, 127.5, 112.0, 14.5, 104.0, 124.0, 88.0, 0.0, 0.0, 0.0, 1.741891558167543E9, 0.0, 2025-03-13 13:45:58.167
232.0, 34083.683381519724, -5936.779789540743, -26775.288793479063, -17229.819861628996, 4789.397691416466, -19592.175733110398, -10470.808800555325, 24349.811595655872, -5128.719523992482, 7588.21607687665, -20089.16677107415, 52216.71488484322, -18560.5309677757, -25286.975537177987, 8741.58844251495, 19161.815245367914, -0.004010387897491455, 0.9550998086929321, -0.2299113130569458, 192.0, 0.0, 0.0, 0.0, 0.0, 0.0, 0.0, 0.0, 0.0, 0.0, 1.741891558167807E9, 0.0, 2025-03-13 13:45:58.167
