%OpenBCI Raw EXG Data
%Number of channels = 16
%Sample Rate = 125 Hz
%Board = OpenBCI_GUI$BoardCytonSerialDaisy
Sample Index, EXG Channel 0, EXG Channel 1, EXG Channel 2, EXG Channel 3, EXG Channel 4, EXG Channel 5, EXG Channel 6, EXG Channel 7, EXG Channel 8, EXG Channel 9, EXG Channel 10, EXG Channel 11, EXG Channel 12, EXG Channel 13, EXG Channel 14, EXG Channel 15, Accel Channel 0, Accel Channel 1, Accel Channel 2, Not Used, Digital Channel 0 (D11), Digital Channel 1 (D12), Digital Channel 2 (D13), Digital Channel 3 (D17), Not Used, Digital Channel 4 (D18), Analog Channel 0, Analog Channel 1, Analog Channel 2, Timestamp, Marker Channel, Timestamp (Formatted)
238.0, -24461.950297588148, 1409.2327844181998, 9798.17775466177, 1879.714653457958, 8692.504011691095, 14661.738534180944, -8667.33594743442, 8119.740560023852, 2513.297201788092, -15703.262770564888, -15870.85615049078, 45387.049959546326, -5497.970342394155, 5138.174311897077, 10440.566890307295, -187500.02235174447, 0.0, 0.0, 0.0, 192.0, 0.0, 0.0, 0.0, 0.0, 0.0, 0.0, 0.0, 0.0, 0.0, 1.745267438533358E9, 0.0, 2025-04-21 15:30:38.533
240.0, -24455.088312040367, 1413.6360780758953, 9805.173850676281, 1889.392958807106, 8699.455404216696, 14665.80655167181, -8654.66250832826, 8127.407208372022, 2537.973527666751, -15704.849744421213, -15860.909624208169, 45392.50378519342, -5505.055845386487, 5144.745724766937, 10446.758323521415, -187500.02235174447, 0.0, 0.0, 0.0, 192.0, 0.0, 0.0, 0.0, 0.0, 0.0, 0.0, 0.0, 0.0, 0.0, 1.74526743853361E9, 0.0, 2025-04-21 15:30:38.533
242.0, -24454.909498084726, 1416.8770810219146, 9801.865792496896, 1891.7398919749132, 8693.040453558022, 14668.846388917733, -8657.076496729434, 8139.27598467779, 2530.6645072298656, -15699.530029240852, -15860.596699785794, 45397.13059629567, -5497.61271448287, 5145.68449803406, 10451.78746602386, -187500.02235174447, 0.0, 0.0, 0.0, 192.0, 0.0, 0.0, 0.0, 0.0, 0.0, 0.0, 0.0, 0.0, 0.0, 1.745267438533825E9, 0.0, 2025-04-21 15:30:38.533
244.0, -24450.03681779347, 1416.89943276637, 9798.98241746216, 1896.2996478437958, 8691.699348890705, 14669.583996484756, -8656.517703118052, 8138.828949788684, 2520.2262425692375, -15703.374529287164, -15866.81048474437, 45405.646610933145, -5499.892592417311, 5150.668937047593, 10446.870082243691, -187500.02235174447, -0.196, 0.962, -0.07, 192.0, 124.5, 112.0, 15.0, 8.0, 126.5, 104.0, 0.0, 0.0, 0.0, 1.745267438534027E9, 0.0, 2025-04-21 15:30:38.534
246.0, -24462.084408054878, 1407.1987756727667, 9784.744356244131, 1882.709787214969, 8682.803354597492, 14664.912481893598, -8664.676089844239, 8125.194385670947, 2510.5255854756338, -15702.949846142514, -15870.878502235235, 45381.21615424349, -5494.975208637144, 5148.500817835429, 10445.797198509837, -187500.02235174447, -0.196, 0.962, -0.07, 192.0, 0.0, 0.0, 0.0, 0.0, 0.0, 0.0, 0.0, 0.0, 0.0, 1.745267438534271E9, 0.0, 2025-04-21 15:30:38.534
248.0, -24455.84827135185, 1407.8916797508812, 9793.059205181504, 1886.554287261282, 8685.709081376683, 14664.197226071028, -8672.119220747856, 8118.444158845444, 2515.1076930889717, -15711.1082328687, -15878.299281394397, 45371.00140702741, -5504.050016885998, 5141.057686931812, 10433.347276848232, -187500.02235174447, -0.196, 0.962, -0.07, 192.0, 0.0, 0.0, 0.0, 0.0, 0.0, 0.0, 0.0, 0.0, 0.0, 1.74526743853451E9, 0.0, 2025-04-21 15:30:38.534
250.0, -24460.542137687462, 1404.315400638032, 9788.924132457272, 1880.9887028919106, 8682.66924413076, 14656.597632956224, -8679.808220840481, 8115.761949510807, 2507.396341251891, -15699.77589842986, -15875.773534270947, 45351.86831377367, -5504.832327941934, 5137.2131868854985, 10431.87206171418, -187500.02235174447, -0.196, 0.962, -0.07, 192.0, 0.0, 0.0, 0.0, 0.0, 0.0, 0.0, 0.0, 0.0, 0.0, 1.745267438534717E9, 0.0, 2025-04-21 15:30:38.534
252.0, -24464.297230755954, 1390.256153375644, 9785.057280666504, 1872.4726882544385, 8678.288302217521, 14644.259470016894, -8688.883029089337, 8103.066158660193, 2498.723864403232, -15717.120852127178, -15882.501409351995, 45376.142308252136, -5506.732226220635, 5130.261794359898, 10425.434759311052, -187500.02235174447, -0.196, 0.962, -0.07, 192.0, 0.0, 0.0, 0.0, 0.0, 0.0, 0.0, 0.0, 0.0, 0.0, 1.745267438534927E9, 0.0, 2025-04-21 15:30:38.534
254.0, -24458.955163831135, 1397.0510836900573, 9797.686016283753, 1876.5630574897598, 8685.776136610048, 14645.712333406489, -8686.24552324361, 8104.988408683349, 2505.7423121621982, -15724.96631443099, -15872.219606902554, 45344.98397648144, -5507.335723320928, 5121.097579133222, 10429.815701224292, -187500.02235174447, -0.198, 0.96, -0.066, 192.0, 124.5, 104.0, 15.0, 0.0, 126.5, 120.0, 0.0, 0.0, 0.0, 1.745267438535133E9, 0.0, 2025-04-21 15:30:38.535
0.0, -12309.038616304233, 665.3667289455807, 4858.822209694649, 899.4341968815562, 4352.309328592936, 7256.2926717153405, -4360.378308341302, 4051.253682524405, 1251.295358097, -7858.158094663393, -7933.371714755502, 22685.2548343247, -2755.567759939165, 2562.7616122676864, 5218.662943680638, -93750.01117587223, -0.15100000000000002, 0.965, -0.046, 192.0, 126.0, 96.0, 15.0, 40.0, 127.5, 24.0, 0.0, 0.0, 0.0, 1.745267438688577E9, 0.0, 2025-04-21 15:30:38.688
2.0, -24616.087927351946, 1333.6615364148065, 9719.477262434633, 1813.3523241701514, 8705.043340330523, 14525.549355214758, -8713.313485778986, 8115.60548729962, 2643.250244051247, -15703.016901375879, -15802.593922924272, 45242.70239385395, -5332.299212491419, 5073.488363443418, 10424.339523832741, -187500.02235174447, -0.15100000000000002, 0.965, -0.046, 192.0, 0.0, 0.0, 0.0, 0.0, 0.0, 0.0, 0.0, 0.0, 0.0, 1.745267438688856E9, 0.0, 2025-04-21 15:30:38.688
4.0, -24605.336738268943, 1336.7907806385494, 9727.345076482901, 1832.1277895126093, 8707.904363620803, 14533.752445429856, -8697.019064071068, 8114.152623910025, 2656.482476768789, -15700.893485652625, -15788.55702740634, 45234.74517282786, -5318.9552210516, 5098.924648633558, 10435.87302397168, -187500.02235174447, -0.15100000000000002, 0.965, -0.046, 192.0, 0.0, 0.0, 0.0, 0.0, 0.0, 0.0, 0.0, 0.0, 0.0, 1.745267438689068E9, 0.0, 2025-04-21 15:30:38.689
6.0, -24596.328985253454, 1342.9598621082143, 9737.470416721157, 1835.525254669816, 8713.112320078888, 14533.752445429856, -8699.231886772142, 8130.067065962204, 2658.4270785364006, -15688.085936079735, -15782.455001170041, 45260.76260337384, -5314.283706460441, 5092.91202937508, 10439.628117040173, -187500.02235174447, -0.15100000000000002, 0.965, -0.046, 192.0, 0.0, 0.0, 0.0, 0.0, 0.0, 0.0, 0.0, 0.0, 0.0, 1.745267438689286E9, 0.0, 2025-04-21 15:30:38.689
8.0, -24595.72548815316, 1340.83644638496, 9746.433466247734, 1836.0840482811986, 8713.1570235678, 14527.203384304452, -8701.86939261787, 8125.686124048963, 2657.801229691652, -15682.29683426581, -15778.923425546101, 45252.29129222528, -5309.388674424729, 5092.308532274787, 10440.812759496303, -187500.02235174447, -0.052000000000000005, 0.982, -0.002, 192.0, 127.0, 48.0, 15.0, 88.0, 127.5, 120.0, 0.0, 0.0, 0.0, 1.745267438689485E9, 0.0, 2025-04-21 15:30:38.689
10.0, -24599.212360288187, 1334.0415160705468, 9761.632652477343, 1833.6030046466597, 8716.733302680648, 14529.237393049883, -8693.420433213763, 8117.684199533964, 2670.519372286722, -15686.744831412416, -15769.960376019524, 45269.54683894478, -5314.216651227075, 5100.86925040117, 10457.084829459767, -187500.02235174447, -0.052000000000000005, 0.982, -0.002, 192.0, 0.0, 0.0, 0.0, 0.0, 0.0, 0.0, 0.0, 0.0, 0.0, 1.7452674386897E9, 0.0, 2025-04-21 15:30:38.689
12.0, -24609.3600522709, 1329.481760201664, 9765.521856012567, 1832.9324523130003, 8714.0063898571, 14524.856451136644, -8702.003503084601, 8110.732807008363, 2670.877000198007, -15703.419232776074, -15772.419067909608, 45257.74511787237, -5309.500433147005, 5078.8080786237815, 10455.676669559083, -187500.02235174447, -0.052000000000000005, 0.982, -0.002, 192.0, 0.0, 0.0, 0.0, 0.0, 0.0, 0.0, 0.0, 0.0, 0.0, 1.745267438689913E9, 0.0, 2025-04-21 15:30:38.689
14.0, -24599.949967855213, 1342.4681237301975, 9777.949425929717, 1845.941167585989, 8723.617639972883, 14537.149910587063, -8699.321293749965, 8124.635592059564, 2671.3910903204787, -15695.730232683449, -15765.132399217178, 45266.596408676676, -5296.894049274212, 5082.071433314256, 10460.325832405786, -187500.02235174447, -0.052000000000000005, 0.982, -0.002, 192.0, 0.0, 0.0, 0.0, 0.0, 0.0, 0.0, 0.0, 0.0, 0.0, 1.745267438690128E9, 0.0, 2025-04-21 15:30:38.690
16.0, -24606.521380725073, 1325.7490188776278, 9761.140914099326, 1839.8614930941455, 8713.738168923637, 14524.990561603376, -8708.619619443372, 8113.392664598545, 2665.3114158286353, -15689.67290993606, -15764.59595735025, 45276.654693681565, -5301.342046420818, 5082.473764714452, 10454.715544547504, -187500.02235174447, -0.052000000000000005, 0.982, -0.002, 192.0, 0.0, 0.0, 0.0, 0.0, 0.0, 0.0, 0.0, 0.0, 0.0, 1.745267438747052E9, 0.0, 2025-04-21 15:30:38.747
18.0, -24599.949967855213, 1334.3991439818317, 9763.689012967232, 1838.878016338112, 8710.407758999796, 14527.762177915834, -8725.070503362478, 8102.596772026632, 2659.611720992532, -15705.587351988239, -15769.893320786157, 45268.00456857736, -5307.153499979198, 5075.768241377859, 10444.1655211646, -187500.02235174447, -0.032, 0.99, 0.008, 192.0, 127.5, 0.0, 15.0, 120.0, 0.0, 32.0, 0.0, 0.0, 0.0, 1.745267438747312E9, 0.0, 2025-04-21 15:30:38.747
20.0, -24604.15209581281, 1333.1027428034238, 9758.45870476469, 1828.462103421939, 8715.235735802144, 14528.320971527217, -8705.1550990528, 8109.704626763419, 2672.709843243342, -15695.43966000553, -15762.383134649175, 45277.50405997087, -5302.750206321502, 5075.723537888949, 10440.566890307295, -187500.02235174447, -0.032, 0.99, 0.008, 192.0, 0.0, 0.0, 0.0, 0.0, 0.0, 0.0, 0.0, 0.0, 0.0, 1.745267438747532E9, 0.0, 2025-04-21 15:30:38.747
22.0, -24605.470848735673, 1327.9618415787031, 9755.664736707777, 1820.4154754180283, 8710.92184912227, 14521.458985979438, -8724.221137073177, 8093.633722500053, 2659.2987965701577, -15706.660235722095, -15768.64162309666, 45256.024033549314, -5310.863889558779, 5074.963578577469, 10434.174291393078, -187500.02235174447, -0.032, 0.99, 0.008, 192.0, 0.0, 0.0, 0.0, 0.0, 0.0, 0.0, 0.0, 0.0, 0.0, 1.745267438747735E9, 0.0, 2025-04-21 15:30:38.747
24.0, -24610.16471507129, 1326.2407572556447, 9751.68612619473, 1818.3367631836848, 8719.460215504196, 14515.044035320763, -8703.702235663204, 8111.425711086477, 2673.3580438325457, -15699.820601918771, -15768.351050418742, 45260.42732720701, -5295.262371928975, 5071.297892486798, 10437.370590850185, -187500.02235174447, -0.032, 0.99, 0.008, 192.0, 0.0, 0.0, 0.0, 0.0, 0.0, 0.0, 0.0, 0.0, 0.0, 1.745267438747953E9, 0.0, 2025-04-21 15:30:38.747
26.0, -24615.886761651847, 1323.9832310656586, 9745.382934258334, 1815.0957602376652, 8713.96168636819, 14518.01681733332, -8713.715817179182, 8114.51025182131, 2661.1763431044037, -15713.522221269874, -15783.617291881716, 45244.66934736602, -5318.105854762299, 5068.548627918795, 10435.403637338119, -187500.02235174447, -0.032, 0.99, 0.008, 192.0, 0.0, 0.0, 0.0, 0.0, 0.0, 0.0, 0.0, 0.0, 0.0, 1.745267438748149E9, 0.0, 2025-04-21 15:30:38.748
28.0, -24618.4125087753, 1317.8812048293598, 9743.460684235179, 1822.8741673081122, 8721.002485871611, 14523.180070302496, -8697.510802449084, 8114.353789610123, 2661.802191949152, -15709.163631101088, -15786.612425638728, 45261.79078361879, -5316.675343117159, 5076.058814055778, 10436.230651882965, -187500.02235174447, -0.016, 0.988, 0.012, 192.0, 127.5, 64.0, 15.0, 112.0, 0.0, 48.0, 0.0, 0.0, 0.0, 1.745267438748352E9, 0.0, 2025-04-21 15:30:38.748
30.0, -24621.340587298942, 1318.5741089074743, 9745.293527280513, 1824.908176053545, 8720.622506215872, 14530.980829117398, -8705.646837430815, 8121.640458302553, 2656.6612907244316, -15717.076148638267, -15788.825248339803, 45244.24466422137, -5313.8366715713355, 5074.896523344102, 10441.773884507882, -187500.02235174447, -0.016, 0.988, 0.012, 192.0, 0.0, 0.0, 0.0, 0.0, 0.0, 0.0, 0.0, 0.0, 0.0, 1.745267438806605E9, 0.0, 2025-04-21 15:30:38.806
32.0, -24611.21524706069, 1321.5021874311194, 9747.238129048124, 1820.8848620515898, 8723.86350916189, 14522.218945290917, -8700.908267606292, 8117.259516389313, 2651.028651121694, -15703.307474053798, -15789.31698671782, 45252.62656839211, -5315.043665771922, 5076.796421622804, 10439.44930308453, -187500.02235174447, -0.016, 0.988, 0.012, 192.0, 0.0, 0.0, 0.0, 0.0, 0.0, 0.0, 0.0, 0.0, 0.0, 1.745267438806836E9, 0.0, 2025-04-21 15:30:38.806
34.0, -24620.223000076177, 1315.7577891061055, 9740.912585367274, 1804.6127920881263, 8718.163814325788, 14509.858430607133, -8707.122052564866, 8106.262458117302, 2646.4018400194454, -15706.43671827754, -15788.780544850892, 45226.6761930795, -5314.797796582913, 5064.502962172385, 10441.237442640953, -187500.02235174447, -0.016, 0.988, 0.012, 192.0, 0.0, 0.0, 0.0, 0.0, 0.0, 0.0, 0.0, 0.0, 0.0, 1.745267438807055E9, 0.0, 2025-04-21 15:30:38.807
36.0, -24620.513572754095, 1319.7140478746949, 9743.863015635374, 1814.0005247593554, 8720.846023660424, 14523.984733102887, -8704.573953696961, 8105.927181950472, 2640.2104068053254, -15695.14908732761, -15793.40735595314, 45245.74223109987, -5310.819186069869, 5062.424249938042, 10445.528977576372, -187500.02235174447, -0.016, 0.988, 0.012, 192.0, 0.0, 0.0, 0.0, 0.0, 0.0, 0.0, 0.0, 0.0, 0.0, 1.745267438807278E9, 0.0, 2025-04-21 15:30:38.807
38.0, -24603.59330220143, 1341.194074296245, 9750.926166883251, 1831.7925133457798, 8721.695389949726, 14546.403532791559, -8697.130822793344, 8135.118560209104, 2645.775991174697, -15693.964444871479, -15788.758193106438, 45239.126114741106, -5309.567488380371, 5083.05491007029, 10450.938099734558, -187500.02235174447, -0.012, 0.988, 0.014, 192.0, 127.5, 80.0, 15.0, 112.0, 0.0, 56.0, 0.0, 0.0, 0.0, 1.745267438807478E9, 0.0, 2025-04-21 15:30:38.807
40.0, -24602.833342889946, 1347.3631557659098, 9746.567576714466, 1838.5427401712825, 8713.537003223539, 14559.792227720289, -8714.72164567967, 8141.600566101142, 2656.0577936241384, -15686.543665712317, -15784.26549247092, 45279.515716971844, -5314.104892504799, 5091.302703774298, 10456.861312015213, -187500.02235174447, -0.012, 0.988, 0.014, 192.0, 0.0, 0.0, 0.0, 0.0, 0.0, 0.0, 0.0, 0.0, 0.0, 1.745267438807692E9, 0.0, 2025-04-21 15:30:38.807
42.0, -24596.82072363147, 1351.2970627900438, 9751.842588405918, 1846.075278052721, 8715.995695113623, 14555.813617207245, -8703.925753107756, 8136.526720109788, 2665.780802462197, -15671.970328327458, -15773.760172576925, 45268.45160346647, -5299.531555119938, 5107.641828971127, 10448.568814822294, -187500.02235174447, -0.012, 0.988, 0.014, 192.0, 0.0, 0.0, 0.0, 0.0, 0.0, 0.0, 0.0, 0.0, 0.0, 1.745267438807888E9, 0.0, 2025-04-21 15:30:38.807
44.0, -24616.512610496597, 1326.330164233466, 9735.391704486812, 1827.2551092213523, 8708.284343276542, 14524.16354705853, -8717.49326199213, 8103.9602284384055, 2637.8858253819735, -15688.041232590824, -15790.300463473854, 45277.81698439324, -5330.1534450237095, 5095.370721265164, 10442.042105441345, -187500.02235174447, -0.012, 0.988, 0.014, 192.0, 0.0, 0.0, 0.0, 0.0, 0.0, 0.0, 0.0, 0.0, 0.0, 1.745267438808089E9, 0.0, 2025-04-21 15:30:38.808
46.0, -24623.173430344275, 1310.9745157926698, 9733.223585274647, 1820.460178906939, 8708.932543865747, 14525.906983126044, -8727.842119674935, 8099.176955124969, 2644.18901731837, -15703.888619409636, -15792.021547796912, 45238.410858918534, -5326.398351955218, 5078.070471056756, 10430.799177980325, -187500.02235174447, -0.012, 0.988, 0.014, 192.0, 0.0, 0.0, 0.0, 0.0, 0.0, 0.0, 0.0, 0.0, 0.0, 1.745267438866349E9, 0.0, 2025-04-21 15:30:38.866
48.0, -24623.084023366457, 1315.4895681726418, 9737.73863765462, 1831.233719734397, 8721.807148672004, 14533.998314618864, -8700.729453650649, 8123.540356581254, 2636.768238159208, -15711.331750313253, -15801.118707790221, 45250.86078058014, -5329.8628723457905, 5076.058814055778, 10427.558175034306, -187500.02235174447, -0.009000000000000001, 0.988, 0.016, 192.0, 127.5, 104.0, 15.0, 112.0, 0.0, 72.0, 0.0, 0.0, 0.0, 1.745267438866591E9, 0.0, 2025-04-21 15:30:38.866
50.0, -24625.565067000996, 1319.1105507744016, 9748.467474993167, 1847.1481617865757, 8732.245413332632, 14549.845701437676, -8685.709081376683, 8136.414961387511, 2640.3445172720576, -15707.1072706112, -15790.03224254039, 45239.86372230813, -5319.312848962885, 5082.853744370192, 10447.831207255269, -187500.02235174447, -0.009000000000000001, 0.988, 0.016, 192.0, 0.0, 0.0, 0.0, 0.0, 0.0, 0.0, 0.0, 0.0, 0.0, 1.745267438866806E9, 0.0, 2025-04-21 15:30:38.866
52.0, -24628.291979824542, 1316.383637950854, 9745.382934258334, 1847.9975280758774, 8728.713837708692, 14557.44529455248, -8691.520534935062, 8134.448007875444, 2652.9509011448504, -15701.876962408658, -15785.494838415962, 45270.776184889815, -5312.048532014911, 5087.391148494619, 10451.206320668021, -187500.02235174447, -0.009000000000000001, 0.988, 0.016, 192.0, 0.0, 0.0, 0.0, 0.0, 0.0, 0.0, 0.0, 0.0, 0.0, 1.745267438867012E9, 0.0, 2025-04-21 15:30:38.867
54.0, -24631.711796726206, 1310.7957018370273, 9737.358657998879, 1833.9382808134892, 8722.29888705002, 14550.516253771337, -8700.751805395104, 8124.523833337288, 2637.2823282816803, -15705.185020588044, -15795.284902487387, 45251.91131256954, -5321.369209452773, 5086.00534033839, 10442.64560254164, -187500.02235174447, -0.009000000000000001, 0.988, 0.016, 192.0, 0.0, 0.0, 0.0, 0.0, 0.0, 0.0, 0.0, 0.0, 0.0, 1.745267438867209E9, 0.0, 2025-04-21 15:30:38.867
56.0, -24635.377482816875, 1307.2194227241782, 9737.895099865807, 1827.165702243531, 8721.158948082799, 14546.314125813738, -8700.617694928373, 8129.0835892061705, 2641.707973683831, -15705.25207582141, -15795.575475165306, 45256.739289371886, -5313.7249128490585, 5081.311474002776, 10443.718486275493, -187500.02235174447, -0.009000000000000001, 0.988, 0.016, 192.0, 0.0, 0.0, 0.0, 0.0, 0.0, 0.0, 0.0, 0.0, 0.0, 1.745267438867421E9, 0.0, 2025-04-21 15:30:38.867
58.0, -24628.49314552464, 1312.6956001157284, 9739.951460355695, 1825.846949320668, 8718.543793981527, 14546.135311858096, -8693.24161925812, 8121.953382724927, 2638.0869910820716, -15705.900276410614, -15797.765946121926, 45247.016280533826, -5328.588822911838, 5076.483497200429, 10437.750570505927, -187500.02235174447, -0.007500000000000001, 0.986, 0.019, 192.0, 127.5, 104.0, 15.0, 96.0, 0.0, 88.0, 0.0, 0.0, 0.0, 1.745267438867628E9, 0.0, 2025-04-21 15:30:38.867
60.0, -24612.62340696137, 1327.000716567125, 9747.17107381476, 1833.8712255801233, 8725.741055696137, 14549.152797359562, -8687.854848844392, 8136.5937753431535, 2648.614662720521, -15699.194753074022, -15788.825248339803, 45260.650844651565, -5321.950354808611, 5084.239552526421, 10445.439570598552, -187500.02235174447, -0.007500000000000001, 0.986, 0.019, 192.0, 0.0, 0.0, 0.0, 0.0, 0.0, 0.0, 0.0, 0.0, 0.0, 1.745267438926575E9, 0.0, 2025-04-21 15:30:38.926
62.0, -24619.798316931527, 1322.5974229094295, 9735.436407975723, 1820.974269029411, 8715.593363713428, 14532.344285529172, -8703.881049618847, 8114.599658799131, 2648.972290631806, -15704.000378131912, -15782.007966280935, 45260.20380976246, -5316.317715205874, 5073.354252976686, 10445.774846765382, -187500.02235174447, -0.007500000000000001, 0.986, 0.019, 192.0, 0.0, 0.0, 0.0, 0.0, 0.0, 0.0, 0.0, 0.0, 0.0, 1.745267438926808E9, 0.0, 2025-04-21 15:30:38.926
64.0, -24609.40475575981, 1324.229100254667, 9741.516082467566, 1819.297888195263, 8719.415512015285, 14529.460910494437, -8698.874258860858, 8119.9864292128605, 2637.1705695594037, -15709.498907267918, -15789.249931484454, 45255.44288819348, -5325.727799621559, 5069.330938974731, 10434.129587904166, -187500.02235174447, -0.007500000000000001, 0.986, 0.019, 192.0, 0.0, 0.0, 0.0, 0.0, 0.0, 0.0, 0.0, 0.0, 0.0, 1.745267438927004E9, 0.0, 2025-04-21 15:30:38.927
66.0, -24616.378500029863, 1317.4565216847088, 9734.989373086617, 1812.6370683475816, 8715.749825924615, 14518.150927800052, -8701.355302495396, 8120.500519335333, 2648.391145275968, -15700.82643041926, -15785.36072794923, 45254.504114926356, -5323.962011809589, 5070.0014913083905, 10436.96825944999, -187500.02235174447, -0.007500000000000001, 0.986, 0.019, 192.0, 0.0, 0.0, 0.0, 0.0, 0.0, 0.0, 0.0, 0.0, 0.0, 1.745267438927206E9, 0.0, 2025-04-21 15:30:38.927
68.0, -24619.35128204242, 1320.675172886273, 9732.798902129996, 1815.2522224488525, 8712.44176774523, 14524.051788336254, -8710.228945044153, 8106.731844750863, 2639.741020171764, -15717.992570160935, -15796.447193199063, 45247.26214972283, -5327.717104878081, 5060.077316770234, 10427.312305845298, -187500.02235174447, -0.00575, 0.985, 0.0195, 192.0, 127.5, 112.0, 15.0, 96.0, 0.0, 80.0, 0.0, 0.0, 0.0, 1.745267438927417E9, 0.0, 2025-04-21 15:30:38.927
70.0, -24616.937293641247, 1324.2961554880328, 9743.438332490723, 1836.9334145705004, 8720.197823071221, 14535.607640219647, -8703.501069963106, 8115.270211132791, 2641.193883561359, -15710.43768053504, -15791.50745767444, 45258.63918765059, -5326.353648466307, 5071.320244231253, 10432.944945448035, -187500.02235174447, -0.00575, 0.985, 0.0195, 192.0, 0.0, 0.0, 0.0, 0.0, 0.0, 0.0, 0.0, 0.0, 0.0, 1.745267438927644E9, 0.0, 2025-04-21 15:30:38.927
72.0, -24615.886761651847, 1325.190225266245, 9749.562710471477, 1845.3823739746065, 8726.165738840788, 14543.45310252346, -8696.974360582157, 8124.32266763719, 2641.350345772546, -15700.49115425243, -15790.41222219613, 45253.96767305943, -5322.777369353458, 5079.858610613181, 10438.197605395033, -187500.02235174447, -0.00575, 0.985, 0.0195, 192.0, 0.0, 0.0, 0.0, 0.0, 0.0, 0.0, 0.0, 0.0, 0.0, 1.745267438927842E9, 0.0, 2025-04-21 15:30:38.927
74.0, -24618.501915753117, 1323.8491205989267, 9757.005841375094, 1852.1773042890197, 8735.933451167757, 14558.45112305297, -8688.1007180334, 8140.5276823672875, 2642.4008777619456, -15698.166572829077, -15786.232445982987, 45257.54395217228, -5309.7910058249245, 5088.799308395303, 10452.368611379698, -187500.02235174447, -0.00575, 0.985, 0.0195, 192.0, 0.0, 0.0, 0.0, 0.0, 0.0, 0.0, 0.0, 0.0, 0.0, 1.745267438928053E9, 0.0, 2025-04-21 15:30:38.928
76.0, -24615.417375018285, 1330.2864230020552, 9756.625861719354, 1843.5048274403607, 8730.747846454125, 14548.92927991501, -8695.409738470285, 8136.347906154145, 2649.106401098538, -15692.06454659278, -15785.494838415962, 45235.75100132835, -5305.499470889506, 5083.2113722814765, 10449.127608433677, -187500.02235174447, -0.00575, 0.985, 0.0195, 192.0, 0.0, 0.0, 0.0, 0.0, 0.0, 0.0, 0.0, 0.0, 0.0, 1.745267438986868E9, 0.0, 2025-04-21 15:30:38.986
78.0, -24614.188029073244, 1319.6916961302395, 9749.40624826029, 1831.5466441567714, 8721.20365157171, 14539.295678054772, -8696.303808248498, 8127.384856627567, 2649.799305176652, -15706.01203513289, -15784.198437237554, 45248.67030962352, -5311.154462236698, 5078.964540834969, 10447.473579343985, -187500.02235174447, -0.005875, 0.9835, 0.01975, 192.0, 127.5, 104.0, 15.0, 88.0, 0.0, 80.0, 0.0, 0.0, 0.0, 1.745267438987106E9, 0.0, 2025-04-21 15:30:38.987
80.0, -24606.63313944735, 1326.2631090000998, 9759.755105943097, 1835.7934756032796, 8727.976230141669, 14549.666887482035, -8699.38834898333, 8121.059312946715, 2651.4756860108005, -15707.576657244761, -15782.902036059146, 45238.03087926279, -5311.62384887026, 5079.478630957441, 10445.327811876276, -187500.02235174447, -0.005875, 0.9835, 0.01975, 192.0, 0.0, 0.0, 0.0, 0.0, 0.0, 0.0, 0.0, 0.0, 0.0, 1.745267438987428E9, 0.0, 2025-04-21 15:30:38.987
82.0, -24606.0072906026, 1324.1396932768457, 9753.854245406896, 1832.3513069571625, 8721.181299827254, 14556.283003840805, -8701.109433306388, 8126.647249060542, 2658.941168658873, -15697.876000151158, -15777.828190067792, 45261.81313536324, -5299.129223719743, 5092.442642741518, 10444.076114186779, -187500.02235174447, -0.005875, 0.9835, 0.01975, 192.0, 0.0, 0.0, 0.0, 0.0, 0.0, 0.0, 0.0, 0.0, 0.0, 1.745267438987665E9, 0.0, 2025-04-21 15:30:38.987
84.0, -24605.739069669136, 1331.8510451139266, 9748.802751159996, 1837.4028012040617, 8720.600154471416, 14557.288832341294, -8698.606037927395, 8137.666659077008, 2651.587444733077, -15706.928456655558, -15786.098335516255, 45237.87441705161, -5307.600534868305, 5087.972293850457, 10433.526090803873, -187500.02235174447, -0.005875, 0.9835, 0.01975, 192.0, 0.0, 0.0, 0.0, 0.0, 0.0, 0.0, 0.0, 0.0, 0.0, 1.74526743898786E9, 0.0, 2025-04-21 15:30:38.987
86.0, -24597.49127596513, 1333.996812581636, 9748.825102904451, 1844.4883041963942, 8725.62929697386, 14568.442352824493, -8698.650741416304, 8130.4917491068545, 2657.6000639915546, -15693.360947771187, -15780.778620335892, 45260.00264406236, -5306.102967989799, 5097.024750354856, 10437.258832127909, -187500.02235174447, -0.005875, 0.9835, 0.01975, 192.0, 0.0, 0.0, 0.0, 0.0, 0.0, 0.0, 0.0, 0.0, 0.0, 1.745267438988064E9, 0.0, 2025-04-21 15:30:38.988
88.0, -24601.78281090055, 1332.163969536301, 9747.774570915053, 1845.4494292079723, 8727.059808619, 14566.743620245888, -8675.114354504867, 8138.1807491994805, 2661.422212293412, -15682.743869154916, -15775.257739455432, 45239.43903916348, -5303.0407789994215, 5107.910049904591, 10437.92938446157, -187500.02235174447, -0.0049375, 0.98575, 0.020874999999999998, 192.0, 127.5, 112.0, 15.0, 112.0, 0.0, 88.0, 0.0, 0.0, 0.0, 1.745267438988264E9, 0.0, 2025-04-21 15:30:38.988
90.0, -24602.54277021203, 1334.0862195594573, 9740.711419667176, 1843.2142547624417, 8717.672075947772, 14555.992431162887, -8699.567162938973, 8118.84649024564, 2653.0850116115826, -15686.230741289943, -15776.196512722554, 45254.61587364863, -5307.824052312858, 5104.445529514019, 10435.82832048277, -187500.02235174447, -0.0049375, 0.98575, 0.020874999999999998, 192.0, 0.0, 0.0, 0.0, 0.0, 0.0, 0.0, 0.0, 0.0, 0.0, 1.745267439047152E9, 0.0, 2025-04-21 15:30:39.047
92.0, -24598.72062191017, 1333.4156672257982, 9739.370314999856, 1843.9518623294668, 8720.220174815677, 14550.471550282426, -8685.820840098959, 8128.189519427958, 2662.2715785827136, -15689.985834358435, -15772.396716165153, 45232.42059140451, -5307.064093001377, 5100.958657378991, 10430.463901813497, -187500.02235174447, -0.0049375, 0.98575, 0.020874999999999998, 192.0, 0.0, 0.0, 0.0, 0.0, 0.0, 0.0, 0.0, 0.0, 0.0, 1.745267439047416E9, 0.0, 2025-04-21 15:30:39.047
94.0, -24602.118087067378, 1330.4875887021528, 9741.001992345095, 1848.6457286650812, 8723.930564395258, 14551.49973052737, -8683.697424375705, 8139.208929444424, 2649.039345865172, -15689.449392491508, -15778.632852868182, 45247.17274274502, -5304.605401111294, 5099.326980033753, 10433.369628592685, -187500.02235174447, -0.0049375, 0.98575, 0.020874999999999998, 192.0, 0.0, 0.0, 0.0, 0.0, 0.0, 0.0, 0.0, 0.0, 0.0, 1.745267439047599E9, 0.0, 2025-04-21 15:30:39.047
96.0, -24600.262892277588, 1322.7315333761615, 9748.154550570793, 1849.003356576366, 8724.936392895746, 14543.274288567816, -8688.301883733498, 8127.697781049941, 2647.362965031024, -15695.14908732761, -15777.470562156506, 45218.11547495311, -5303.308999932886, 5091.995607852413, 10441.125683918677, -187500.02235174447, -0.0049375, 0.98575, 0.020874999999999998, 192.0, 0.0, 0.0, 0.0, 0.0, 0.0, 0.0, 0.0, 0.0, 0.0, 1.745267439047806E9, 0.0, 2025-04-21 15:30:39.047
98.0, -24610.611749960393, 1317.5906321514408, 9749.003916860094, 1845.1812082745087, 8722.768273683581, 14526.01874184832, -8695.47679370365, 8120.947554224438, 2646.1112673415264, -15701.228761819455, -15776.062402255822, 45230.297175681255, -5302.504337132495, 5092.397939252608, 10443.696134531037, -187500.02235174447, -0.0064687500000000005, 0.9858750000000001, 0.0194375, 192.0, 127.5, 96.0, 15.0, 104.0, 0.0, 72.0, 0.0, 0.0, 0.0, 1.745267439048004E9, 0.0, 2025-04-21 15:30:39.048
100.0, -24609.628273204362, 1316.875376328871, 9757.83285591994, 1849.1151152986426, 8725.405779529308, 14513.479413208892, -8695.968532081668, 8121.998086213838, 2633.9519183578395, -15701.698148453015, -15785.450134927052, 45209.130073682085, -5305.298305189408, 5082.317302503265, 10440.544538562839, -187500.02235174447, -0.0064687500000000005, 0.9858750000000001, 0.0194375, 192.0, 0.0, 0.0, 0.0, 0.0, 0.0, 0.0, 0.0, 0.0, 0.0, 1.745267439048216E9, 0.0, 2025-04-21 15:30:39.048
102.0, -24609.136534826343, 1317.6353356403513, 9763.465495522678, 1853.6301676786147, 8733.117131366389, 14514.105262053641, -8685.86554358787, 8121.193423413447, 2654.359061045535, -15697.898351895614, -15774.296614443854, 45229.246643691855, -5291.104947460288, 5094.275485786854, 10456.816608526304, -187500.02235174447, -0.0064687500000000005, 0.9858750000000001, 0.0194375, 192.0, 0.0, 0.0, 0.0, 0.0, 0.0, 0.0, 0.0, 0.0, 0.0, 1.745267439048423E9, 0.0, 2025-04-21 15:30:39.048
104.0, -24605.314386524486, 1316.3389344619436, 9765.253635079103, 1860.6262636931258, 8724.444654517729, 14514.820517876211, -8695.923828592757, 8122.89215599205, 2649.2405115652696, -15700.312340296787, -15776.464733656017, 45216.93083249698, -5292.513107360972, 5091.81679389677, 10452.59212882425, -187500.02235174447, -0.0064687500000000005, 0.9858750000000001, 0.0194375, 192.0, 0.0, 0.0, 0.0, 0.0, 0.0, 0.0, 0.0, 0.0, 0.0, 1.74526743904864E9, 0.0, 2025-04-21 15:30:39.048
106.0, -24613.562180228495, 1313.2990972160217, 9766.862960679884, 1862.0791270827208, 8722.991791128134, 14512.16066028603, -8697.220229771165, 8122.869804247595, 2647.2735580532026, -15696.803116417304, -15771.435591153575, 45231.347707670655, -5287.886296258724, 5092.062663085779, 10459.945852750046, -187500.02235174447, -0.0064687500000000005, 0.9858750000000001, 0.0194375, 192.0, 0.0, 0.0, 0.0, 0.0, 0.0, 0.0, 0.0, 0.0, 0.0, 1.74526743910733E9, 0.0, 2025-04-21 15:30:39.107
108.0, -24617.004348874612, 1314.9754780501698, 9754.390687273823, 1860.4027462485728, 8709.759558410593, 14499.263703735318, -8711.055959589, 8105.815423228196, 2640.8586073945294, -15714.0586631368, -15777.224692967498, 45212.03580046127, -5298.793947552914, 5085.7371194049265, 10438.10819841721, -187500.02235174447, -0.0064687500000000005, 0.9858750000000001, 0.0194375, 192.0, 0.0, 0.0, 0.0, 0.0, 0.0, 0.0, 0.0, 0.0, 0.0, 1.74526743910758E9, 0.0, 2025-04-21 15:30:39.107
110.0, -24608.175409814765, 1322.932699076259, 9750.009745360583, 1861.4756299824276, 8703.657532174293, 14500.850677591645, -8719.862546904391, 8099.154603380514, 2637.5281974706886, -15721.25592485141, -15780.510399402428, 45226.40797214604, -5299.442148142118, 5086.631189183139, 10428.58635527925, -187500.02235174447, -0.006, 0.99, 0.028, 192.0, 127.5, 104.0, 15.0, 120.0, 0.0, 112.0, 0.0, 0.0, 0.0, 1.745267439107783E9, 0.0, 2025-04-21 15:30:39.107
112.0, -24592.68565090724, 1331.1134375469014, 9758.436353020234, 1871.8691911541453, 8715.973343369167, 14512.585343430681, -8698.874258860858, 8124.74735078184, 2664.037366394683, -15696.1549158281, -15765.512378872918, 45224.59748084516, -5290.434395126628, 5090.766261907371, 10434.643678026638, -187500.02235174447, -0.006, 0.99, 0.028, 192.0, 0.0, 0.0, 0.0, 0.0, 0.0, 0.0, 0.0, 0.0, 0.0, 1.745267439108005E9, 0.0, 2025-04-21 15:30:39.108
114.0, -24603.72741266816, 1326.8219026114825, 9750.233262805135, 1852.3561182446622, 8707.703197920704, 14500.157773513529, -8704.238677530131, 8108.922315707483, 2664.685566983887, -15679.569921442262, -15764.12657071669, 45228.59844310265, -5296.357607407285, 5101.204526567999, 10439.851634484725, -187500.02235174447, -0.006, 0.99, 0.028, 192.0, 0.0, 0.0, 0.0, 0.0, 0.0, 0.0, 0.0, 0.0, 0.0, 1.745267439108225E9, 0.0, 2025-04-21 15:30:39.108
116.0, -24603.01215684559, 1315.1989954947228, 9752.580195972943, 1857.8546473806678, 8715.660418946794, 14507.600904417146, -8696.035587315035, 8125.060275204215, 2652.5038662557445, -15720.026578906367, -15771.815570809315, 45218.42839937549, -5295.150613206699, 5080.1491832911, 10435.493044315941, -187500.02235174447, -0.006, 0.99, 0.028, 192.0, 0.0, 0.0, 0.0, 0.0, 0.0, 0.0, 0.0, 0.0, 0.0, 1.745267439108418E9, 0.0, 2025-04-21 15:30:39.108
118.0, -24608.756555170603, 1311.3991989373208, 9745.11471332487, 1847.46108620895, 8712.285305534042, 14504.248142748851, -8697.399043726808, 8121.148719924537, 2637.751714915242, -15725.726273742472, -15781.046841269355, 45205.822015502694, -5298.033988241433, 5071.05202329779, 10434.666029771093, -187500.02235174447, -0.006, 0.99, 0.028, 192.0, 0.0, 0.0, 0.0, 0.0, 0.0, 0.0, 0.0, 0.0, 0.0, 1.745267439108619E9, 0.0, 2025-04-21 15:30:39.108
120.0, -24607.68367143675, 1313.8802425718598, 9743.97477435765, 1846.7011268974695, 8714.0063898571, 14501.431822947483, -8697.801375127003, 8122.646286803042, 2659.745831459264, -15719.378378317164, -15780.085716257778, 45205.15146316904, -5293.407177139185, 5072.9966250654015, 10435.224823382476, -187500.02235174447, -0.002, 0.994, 0.032, 192.0, 127.5, 120.0, 15.5, 8.0, 0.5, 0.0, 0.0, 0.0, 0.0, 1.745267439166901E9, 0.0, 2025-04-21 15:30:39.166
122.0, -24611.2599505496, 1310.2369082256448, 9743.68420167973, 1837.3133942262405, 8709.893668877325, 14490.412412931015, -8708.731378165648, 8116.298391377734, 2652.325052300102, -15709.610665990194, -15781.560931391828, 45194.24381187485, -5293.004845738989, 5066.782840106826, 10431.603840780717, -187500.02235174447, -0.002, 0.994, 0.032, 192.0, 0.0, 0.0, 0.0, 0.0, 0.0, 0.0, 0.0, 0.0, 0.0, 1.745267439167136E9, 0.0, 2025-04-21 15:30:39.167
124.0, -24619.507744253606, 1306.0794837569576, 9738.20802428818, 1830.6749261230143, 8713.24643054562, 14482.097563993642, -8703.657532174293, 8104.8990017055285, 2638.0869910820716, -15717.925514927569, -15788.959358806535, 45203.96682071291, -5297.072863229855, 5066.827543595737, 10431.1121024027, -187500.02235174447, -0.002, 0.994, 0.032, 192.0, 0.0, 0.0, 0.0, 0.0, 0.0, 0.0, 0.0, 0.0, 0.0, 1.745267439167336E9, 0.0, 2025-04-21 15:30:39.167
126.0, -24624.760404200602, 1308.2028994802117, 9745.002954602594, 1837.5369116707936, 8717.627372458861, 14489.63010187508, -8696.795546626514, 8107.760024995808, 2641.5068079837333, -15740.21020414951, -15791.954492563546, 45184.163175125504, -5296.894049274212, 5065.039404039312, 10439.203433895522, -187500.02235174447, -0.002, 0.994, 0.032, 192.0, 0.0, 0.0, 0.0, 0.0, 0.0, 0.0, 0.0, 0.0, 0.0, 1.74526743916755E9, 0.0, 2025-04-21 15:30:39.167
128.0, -24617.1608110858, 1313.0755797714687, 9739.660887677775, 1841.4037634615618, 8710.765386911082, 14504.136384026575, -8704.708064163693, 8117.237164644857, 2641.976194617295, -15727.20148887652, -15790.233408240487, 45197.4177595875, -5298.726892319548, 5074.181267521532, 10441.72918101897, -187500.02235174447, -0.002, 0.994, 0.032, 192.0, 0.0, 0.0, 0.0, 0.0, 0.0, 0.0, 0.0, 0.0, 0.0, 1.745267439167757E9, 0.0, 2025-04-21 15:30:39.167
130.0, -24624.313369311498, 1306.0571320125023, 9730.4966724511, 1830.8760918231121, 8700.349473994907, 14489.071308263698, -8714.699293935215, 8089.968036409383, 2629.5039212112333, -15716.763224215892, -15801.118707790221, 45179.64812274553, -5298.346912663807, 5070.917912831058, 10428.87692795717, -187500.02235174447, -0.002, 0.994, 0.032, 192.0, 0.0, 0.0, 15.5, 0.0, 0.0, 64.0, 0.0, 0.0, 0.0, 1.745267439167951E9, 0.0, 2025-04-21 15:30:39.167
132.0, -24617.29492155253, 1303.7996058225162, 9744.265347035569, 1838.296870982274, 8711.10066307791, 14485.763250084312, -8709.58074445495, 8100.920391192483, 2628.6992584108425, -15729.704884255516, -15796.514248432428, 45194.19910838594, -5308.226383713053, 5062.468953426952, 10432.833186725758, -187500.02235174447, -0.002, 0.994, 0.032, 192.0, 0.0, 0.0, 0.0, 0.0, 0.0, 0.0, 0.0, 0.0, 0.0, 1.745267439168159E9, 0.0, 2025-04-21 15:30:39.168
134.0, -24624.313369311498, 1305.6324488678515, 9750.993222116616, 1840.912025083545, 8715.749825924615, 14481.851694804633, -8703.09873856291, 8114.420844843489, 2642.7808574176856, -15734.935192458057, -15783.729050603994, 45175.04366338774, -5286.612246824771, 5061.0831452707225, 10440.25396588492, -187500.02235174447, -0.002, 0.994, 0.032, 192.0, 0.0, 0.0, 0.0, 0.0, 0.0, 0.0, 0.0, 0.0, 0.0, 1.745267439168369E9, 0.0, 2025-04-21 15:30:39.168
136.0, -24627.19674434623, 1303.6207918668738, 9744.622974946855, 1841.6272809061147, 8714.520479979574, 14484.109220994618, -8712.218250300677, 8096.69591149043, 2642.8255609065964, -15738.01973319289, -15788.22175123951, 45192.29921010724, -5289.562677092872, 5067.0957645292, 10439.628117040173, -187500.02235174447, -0.002, 0.994, 0.032, 192.0, 0.0, 0.0, 0.0, 0.0, 0.0, 0.0, 0.0, 0.0, 0.0, 1.745267439226632E9, 0.0, 2025-04-21 15:30:39.226
138.0, -24623.93338965576, 1309.3204867029772, 9745.986431358628, 1843.3483652291734, 8714.028741601556, 14488.467811163404, -8725.159910340299, 8095.511269034299, 2635.583595703077, -15728.989628432946, -15790.41222219613, 45167.3099598062, -5303.62192435526, 5062.938340060513, 10432.900241959125, -187500.02235174447, -0.002, 0.994, 0.032, 192.0, 0.0, 0.0, 0.0, 0.0, 0.0, 0.0, 0.0, 0.0, 0.0, 1.745267439226878E9, 0.0, 2025-04-21 15:30:39.226
140.0, -24618.4125087753, 1312.5614896489967, 9745.315879024969, 1850.8585513661567, 8715.39219801333, 14491.127668753585, -8709.066654332479, 8103.244972615836, 2630.71091541182, -15724.295762097332, -15786.657129127638, 45192.12039615159, -5301.185584209631, 5069.286235485821, 10432.520262303384, -187500.02235174447, -0.004, 0.99, 0.014, 192.0, 127.5, 112.0, 15.0, 120.0, 0.0, 56.0, 0.0, 0.0, 0.0, 1.745267439227083E9, 0.0, 2025-04-21 15:30:39.227
142.0, -24601.447534733717, 1328.0736003009797, 9752.289623295024, 1865.4989439843828, 8718.29792479252, 14501.811802603223, -8693.755709380594, 8114.398493099034, 2649.106401098538, -15699.015939118379, -15770.36270741972, 45184.83372745916, -5290.0097119819775, 5083.010206581379, 10438.599936795228, -187500.02235174447, -0.004, 0.99, 0.014, 192.0, 0.0, 0.0, 0.0, 0.0, 0.0, 0.0, 0.0, 0.0, 0.0, 1.74526743922731E9, 0.0, 2025-04-21 15:30:39.227
144.0, -24603.19097080123, 1326.6877921447508, 9745.047658091506, 1863.1520108165755, 8710.765386911082, 14498.235523490373, -8694.783889625536, 8114.800824499229, 2653.2191220783143, -15715.042139892834, -15768.619271352205, 45215.9250039965, -5291.2390579270195, 5083.77016589286, 10439.270489128887, -187500.02235174447, -0.004, 0.99, 0.014, 192.0, 0.0, 0.0, 0.0, 0.0, 0.0, 0.0, 0.0, 0.0, 0.0, 1.745267439227518E9, 0.0, 2025-04-21 15:30:39.227
146.0, -24607.326043525463, 1331.001678824625, 9741.583137700933, 1861.810906149257, 8707.993770598623, 14502.7729276148, -8696.057939059488, 8117.371275111589, 2642.8032091621412, -15697.406613517596, -15768.105181229734, 45191.494547306844, -5298.212802197076, 5089.000474095402, 10436.476521071974, -187500.02235174447, -0.004, 0.99, 0.014, 192.0, 0.0, 0.0, 0.0, 0.0, 0.0, 0.0, 0.0, 0.0, 0.0, 1.745267439227747E9, 0.0, 2025-04-21 15:30:39.227
148.0, -24603.839171390435, 1334.8685306153932, 9740.979640600639, 1856.5805979467152, 8706.29503802002, 14503.8234596042, -8700.170660039266, 8117.259516389313, 2651.676851710898, -15693.696223938015, -15771.949681276046, 45207.43134110348, -5306.840575556824, 5080.953846091491, 10433.25786987041, -187500.02235174447, -0.004, 0.99, 0.014, 192.0, 0.0, 0.0, 0.0, 0.0, 0.0, 0.0, 0.0, 0.0, 0.0, 1.745267439227963E9, 0.0, 2025-04-21 15:30:39.227
150.0, -24614.143325584333, 1325.5255014330749, 9729.580250928433, 1853.4960572118828, 8696.840250115425, 14499.911904324521, -8710.29600027752, 8108.1847081404585, 2642.0432498506607, -15693.405651260096, -15777.224692967498, 45189.16996588349, -5300.895011531712, 5085.401843238097, 10423.847785454725, -187500.02235174447, -0.006, 0.996, 0.012, 192.0, 127.5, 104.0, 15.5, 16.0, 0.0, 48.0, 0.0, 0.0, 0.0, 1.745267439286912E9, 0.0, 2025-04-21 15:30:39.286
152.0, -24611.416412760784, 1324.4302659547648, 9733.111826552371, 1860.6039119486704, 8702.986979840634, 14509.053767806741, -8701.66822691777, 8118.734731523363, 2640.1433515719596, -15699.664139707584, -15783.84080932627, 45197.88714622106, -5307.33231393484, 5093.24730554191, 10420.562079019795, -187500.02235174447, -0.006, 0.996, 0.012, 192.0, 0.0, 0.0, 0.0, 0.0, 0.0, 0.0, 0.0, 0.0, 0.0, 1.745267439287151E9, 0.0, 2025-04-21 15:30:39.287
154.0, -24619.530095998063, 1321.256318242111, 9727.523890438544, 1856.9829293469109, 8696.057939059488, 14505.745709627356, -8711.592401455928, 8116.0525221887265, 2630.0403630781607, -15701.698148453015, -15783.729050603994, 45185.72779723738, -5309.276915702452, 5086.072395571756, 10420.517375530884, -187500.02235174447, -0.006, 0.996, 0.012, 192.0, 0.0, 0.0, 0.0, 0.0, 0.0, 0.0, 0.0, 0.0, 0.0, 1.745267439287351E9, 0.0, 2025-04-21 15:30:39.287
156.0, -24612.39988951682, 1327.5595101785077, 9739.124445810849, 1861.3191677712402, 8707.546735709517, 14516.094567310163, -8698.181354782744, 8127.60837407212, 2630.845025878552, -15722.217049862988, -15787.17121925011, 45196.814262487205, -5304.068959244366, 5077.8693053566585, 10419.422140052575, -187500.02235174447, -0.006, 0.996, 0.012, 192.0, 0.0, 0.0, 0.0, 0.0, 0.0, 0.0, 0.0, 0.0, 0.0, 1.745267439287559E9, 0.0, 2025-04-21 15:30:39.287
158.0, -24611.14819182732, 1319.5799374079631, 9742.074876078948, 1859.3522142591733, 8702.62935192935, 14517.234506277384, -8702.316427506976, 8122.869804247595, 2645.105438841038, -15704.246247320922, -15780.64450986916, 45186.063073404206, -5295.217668440065, 5090.363930507175, 10431.335619847254, -187500.02235174447, -0.006, 0.996, 0.012, 192.0, 0.0, 0.0, 0.0, 0.0, 0.0, 0.0, 0.0, 0.0, 0.0, 1.745267439287759E9, 0.0, 2025-04-21 15:30:39.287
160.0, -24616.624369218873, 1316.9200798177815, 9751.417905261267, 1854.9489206014778, 8710.899497377814, 14512.562991686225, -8698.650741416304, 8124.412074615011, 2643.6525754514428, -15710.884715424147, -15780.577454635795, 45184.453747803425, -5299.933886520134, 5086.877058372147, 10433.280221614865, -187500.02235174447, -0.002, 0.994, 0.012, 192.0, 127.5, 120.0, 15.5, 8.0, 0.0, 48.0, 0.0, 0.0, 0.0, 1.745267439287968E9, 0.0, 2025-04-21 15:30:39.287
162.0, -24624.514535011596, 1306.481815157153, 9750.322669782958, 1856.2453217798857, 8715.302791035509, 14511.221887018906, -8688.793622111514, 8124.3897228705555, 2640.992717861261, -15711.197639846521, -15780.063364513322, 45172.04852963073, -5284.242961912509, 5081.8032123807925, 10434.800140237825, -187500.02235174447, -0.002, 0.994, 0.012, 192.0, 0.0, 0.0, 0.0, 0.0, 0.0, 0.0, 0.0, 0.0, 0.0, 1.745267439288184E9, 0.0, 2025-04-21 15:30:39.288
164.0, -24624.469831522685, 1309.0746175139686, 9753.206044817693, 1851.7079176554582, 8714.855756146402, 14510.461927707425, -8698.38252048284, 8113.415016343, 2635.740057914264, -15733.147052901633, -15780.175123235598, 45167.68993946194, -5288.489793359017, 5086.184154294033, 10436.744742005438, -187500.02235174447, -0.002, 0.994, 0.012, 192.0, 0.0, 0.0, 0.0, 0.0, 0.0, 0.0, 0.0, 0.0, 0.0, 1.745267439288389E9, 0.0, 2025-04-21 15:30:39.288
166.0, -24632.40470080432, 1299.329256931455, 9740.3984952448, 1842.6331094066036, 8714.051093346012, 14502.705872381435, -8697.711968149182, 8107.581211040165, 2635.069505580605, -15737.30447737032, -15786.32185296081, 45161.096174847626, -5297.922229519157, 5075.120040788655, 10434.330753604265, -187500.02235174447, -0.002, 0.994, 0.012, 192.0, 0.0, 0.0, 0.0, 0.0, 0.0, 0.0, 0.0, 0.0, 0.0, 1.745267439347226E9, 0.0, 2025-04-21 15:30:39.347
168.0, -24624.447479778228, 1305.386579678843, 9741.359620256379, 1849.1151152986426, 8721.069541104978, 14511.646570163557, -8693.599247169406, 8123.965039725905, 2631.515578212211, -15721.501794040418, -15790.144001262666, 45147.48396247435, -5303.845441799813, 5082.652578670094, 10434.084884415255, -187500.02235174447, -0.002, 0.994, 0.012, 192.0, 0.0, 0.0, 0.0, 0.0, 0.0, 0.0, 0.0, 0.0, 0.0, 1.745267439347515E9, 0.0, 2025-04-21 15:30:39.347
170.0, -24620.737090198647, 1312.5391379045413, 9725.914564837762, 1847.170513531031, 8705.468023475174, 14509.791375373767, -8716.308619535997, 8108.721150007385, 2628.006354332728, -15708.1578026006, -15786.053632027344, 45169.65689297401, -5299.844479542313, 5081.534991447329, 10431.737951247449, -187500.02235174447, 0.002, 0.99, 0.01, 192.0, 0.0, 8.0, 15.0, 120.0, 0.0, 40.0, 0.0, 0.0, 0.0, 1.745267439347722E9, 0.0, 2025-04-21 15:30:39.347
172.0, -24616.87023840788, 1320.1163792748905, 9725.869861348852, 1850.6350339216035, 8699.857735616892, 14501.29771248075, -8712.709988678693, 8099.2663621027905, 2611.197842502337, -15715.131546870656, -15793.31794897532, 45165.164192338496, -5313.970782038067, 5076.505848944885, 10417.298724329321, -187500.02235174447, 0.002, 0.99, 0.01, 192.0, 0.0, 0.0, 0.0, 0.0, 0.0, 0.0, 0.0, 0.0, 0.0, 1.74526743934795E9, 0.0, 2025-04-21 15:30:39.347
174.0, -24613.942159884235, 1314.4390361832425, 9729.557899183977, 1853.4066502340615, 8703.679883918749, 14494.01104378832, -8707.412625242785, 8095.846545201129, 2624.3406682420577, -15723.848727208226, -15785.941873305068, 45182.57620126918, -5309.545136635917, 5074.427136710541, 10422.01494240939, -187500.02235174447, 0.002, 0.99, 0.01, 192.0, 0.0, 0.0, 0.0, 0.0, 0.0, 0.0, 0.0, 0.0, 0.0, 1.745267439348144E9, 0.0, 2025-04-21 15:30:39.348
176.0, -24610.656453449305, 1323.0891612874464, 9735.771684142552, 1866.683586440514, 8719.102587592912, 14509.880782351589, -8687.966607566668, 8133.062199719215, 2628.4980927107445, -15718.551363772318, -15778.968129035013, 45163.48781150435, -5306.326485434352, 5079.590389679717, 10432.833186725758, -187500.02235174447, 0.002, 0.99, 0.01, 192.0, 0.0, 0.0, 0.0, 0.0, 0.0, 0.0, 0.0, 0.0, 0.0, 1.745267439348351E9, 0.0, 2025-04-21 15:30:39.348
178.0, -24610.96937787168, 1320.518710675086, 9731.569556184955, 1859.9333596150113, 8713.425244501263, 14513.233544019884, -8701.645875173315, 8121.729865280375, 2637.1929213038593, -15706.123793855168, -15776.21886446701, 45189.03585541676, -5301.833784798835, 5083.904276359592, 10434.666029771093, -187500.02235174447, 0.002, 0.99, 0.01, 192.0, 0.0, 0.0, 0.0, 0.0, 0.0, 0.0, 0.0, 0.0, 0.0, 1.745267439348546E9, 0.0, 2025-04-21 15:30:39.348
180.0, -24619.306578553507, 1311.421550681776, 9731.25663176258, 1850.3444612436845, 8709.938372366236, 14510.931314340987, -8702.986979840634, 8109.279943618768, 2632.454351479334, -15703.106308353701, -15783.371422692708, 45167.242904572835, -5305.47711914505, 5075.7011861444935, 10424.495986043928, -187500.02235174447, -0.001, 0.988, 0.01, 192.0, 127.5, 112.0, 15.0, 104.0, 0.0, 40.0, 0.0, 0.0, 0.0, 1.745267439407503E9, 0.0, 2025-04-21 15:30:39.407
182.0, -24608.421279003775, 1316.9424315622368, 9740.242033033614, 1850.0762403102208, 8709.983075855145, 14503.197610759451, -8706.29503802002, 8110.576344797176, 2625.5700141870993, -15719.646599250627, -15786.12068726071, 45184.096119892136, -5295.776462051447, 5067.587502907218, 10423.601916265718, -187500.02235174447, -0.001, 0.988, 0.01, 192.0, 0.0, 0.0, 0.0, 0.0, 0.0, 0.0, 0.0, 0.0, 0.0, 1.745267439407769E9, 0.0, 2025-04-21 15:30:39.407
184.0, -24610.76821217158, 1318.037667040547, 9744.913547624774, 1847.2152170199415, 8708.507860721094, 14504.672825893502, -8703.165793796277, 8117.147757667037, 2643.3172992846135, -15718.752529472415, -15770.496817886451, 45170.461555774404, -5286.276970657942, 5070.403822708586, 10426.373532578174, -187500.02235174447, -0.001, 0.988, 0.01, 192.0, 0.0, 0.0, 0.0, 0.0, 0.0, 0.0, 0.0, 0.0, 0.0, 1.745267439407969E9, 0.0, 2025-04-21 15:30:39.407
186.0, -24619.708909953704, 1309.745169847628, 9745.718210425164, 1839.4144582050394, 8709.938372366236, 14501.521229925303, -8708.1055293209, 8102.239144115347, 2635.382430002979, -15736.142186658644, -15780.488047657973, 45183.29145709175, -5304.605401111294, 5060.256130725877, 10423.19958486552, -187500.02235174447, -0.001, 0.988, 0.01, 192.0, 0.0, 0.0, 0.0, 0.0, 0.0, 0.0, 0.0, 0.0, 0.0, 1.745267439408187E9, 0.0, 2025-04-21 15:30:39.408
188.0, -24626.146212356834, 1305.520690145575, 9757.586986730932, 1837.2910424817853, 8722.522404494573, 14501.387119458572, -8699.29894200551, 8112.856222731617, 2634.0860288245713, -15722.932305685557, -15777.98465227898, 45156.53641897874, -5293.787156794925, 5060.814924337259, 10430.77682623587, -187500.02235174447, -0.001, 0.988, 0.01, 192.0, 0.0, 0.0, 0.0, 0.0, 0.0, 0.0, 0.0, 0.0, 0.0, 1.745267439408382E9, 0.0, 2025-04-21 15:30:39.408
190.0, -24635.131613627866, 1302.391445921832, 9751.306146538991, 1831.6807546235032, 8711.905325878302, 14497.25204673434, -8718.052055603512, 8094.706606233908, 2627.291098510158, -15732.990590690446, -15790.03224254039, 45173.948427909425, -5291.61903758276, 5051.404839921575, 10430.128625646666, -187500.02235174447, -0.001, 0.988, 0.01, 192.0, 0.0, 0.0, 15.0, 104.0, 0.0, 48.0, 0.0, 0.0, 0.0, 1.745267439408581E9, 0.0, 2025-04-21 15:30:39.408
192.0, -24618.792488431038, 1308.3817134358542, 9759.822161176464, 1837.4698564374278, 8724.779930684559, 14498.414337446016, -8689.62063665636, 8098.84167895814, 2642.557339973133, -15726.128605142667, -15781.627986625193, 45155.26236954479, -5286.187563680121, 5063.295967971799, 10430.463901813497, -187500.02235174447, -0.001, 0.988, 0.01, 192.0, 0.0, 0.0, 0.0, 0.0, 0.0, 0.0, 0.0, 0.0, 0.0, 1.745267439408795E9, 0.0, 2025-04-21 15:30:39.408
194.0, -24610.83526740495, 1322.4633124426978, 9768.628748491854, 1859.5980834481818, 8729.183224342254, 14519.87201212311, -8682.088098774922, 8127.250746160835, 2637.841121893063, -15716.986741660447, -15776.800009822848, 45181.54802102423, -5285.226438668542, 5074.605950666184, 10440.745704262938, -187500.02235174447, -0.001, 0.988, 0.01, 192.0, 0.0, 0.0, 0.0, 0.0, 0.0, 0.0, 0.0, 0.0, 0.0, 1.745267439409012E9, 0.0, 2025-04-21 15:30:39.409
196.0, -24597.06659282048, 1339.4506382287311, 9768.896969425317, 1878.619417979648, 8723.908212650802, 14533.260707051839, -8696.661436159782, 8133.173958441492, 2655.007261634739, -15701.29581705282, -15756.549329346339, 45182.643256502546, -5281.001958966489, 5096.622418954661, 10449.194663667044, -187500.02235174447, -0.001, 0.988, 0.01, 192.0, 0.0, 0.0, 0.0, 0.0, 0.0, 0.0, 0.0, 0.0, 0.0, 1.745267439467694E9, 0.0, 2025-04-21 15:30:39.467
198.0, -24594.876121863857, 1348.614853455407, 9768.204065347203, 1886.0625488832652, 8720.264878304586, 14535.518233241824, -8691.900514590801, 8144.886272536072, 2657.644767480465, -15691.81867740377, -15754.984707234467, 45214.0698092067, -5289.652084070693, 5110.748721450415, 10445.283108387364, -187500.02235174447, -0.001, 0.988, 0.01, 192.0, 0.0, 0.0, 0.0, 0.0, 0.0, 0.0, 0.0, 0.0, 0.0, 1.745267439467935E9, 0.0, 2025-04-21 15:30:39.467
200.0, -24604.286206279543, 1332.1192660473903, 9751.350850027902, 1872.8750196546341, 8715.52630848006, 14523.87297438061, -8705.780947897549, 8128.636554317064, 2649.8887121544735, -15684.1520290556, -15757.376343891186, 45192.768596740796, -5286.724005547047, 5116.113140119689, 10443.562024064306, -187500.02235174447, -0.0025, 0.989, 0.006, 192.0, 127.5, 112.0, 15.0, 120.0, 0.0, 8.0, 0.0, 0.0, 0.0, 1.745267439468138E9, 0.0, 2025-04-21 15:30:39.468
202.0, -24620.558276243006, 1306.906498301804, 9728.68618115022, 1847.2152170199415, 8700.729453650649, 14491.306482709228, -8718.186166070243, 8096.941780679439, 2622.731342641275, -15716.226782348966, -15785.338376204774, 45185.75014898183, -5304.560697622383, 5083.323131003754, 10420.785596464348, -187500.02235174447, -0.0025, 0.989, 0.006, 192.0, 0.0, 0.0, 0.0, 0.0, 0.0, 0.0, 0.0, 0.0, 0.0, 1.745267439468357E9, 0.0, 2025-04-21 15:30:39.468
204.0, -24615.752651185114, 1313.2096902382004, 9740.465550478168, 1856.9158741135448, 8714.900459635313, 14502.839982848167, -8696.840250115425, 8102.485013304355, 2626.039400820661, -15725.994494675935, -15786.634777383182, 45162.97372138187, -5310.506261647494, 5058.311528958265, 10423.02077090988, -187500.02235174447, -0.0025, 0.989, 0.006, 192.0, 0.0, 0.0, 0.0, 0.0, 0.0, 0.0, 0.0, 0.0, 0.0, 1.745267439468573E9, 0.0, 2025-04-21 15:30:39.468
206.0, -24616.892590152336, 1312.9191175602816, 9747.528701726043, 1854.2113130344526, 8714.520479979574, 14507.265628250318, -8709.1560613103, 8104.1390423940475, 2625.5700141870993, -15721.434738807053, -15782.566759892317, 45174.596628498635, -5310.215688969575, 5072.7060523874825, 10434.241346626442, -187500.02235174447, -0.0025, 0.989, 0.006, 192.0, 0.0, 0.0, 0.0, 0.0, 0.0, 0.0, 0.0, 0.0, 0.0, 1.745267439468769E9, 0.0, 2025-04-21 15:30:39.468
208.0, -24620.26770356509, 1312.7850070935497, 9751.17203607226, 1852.5796356892154, 8727.082160363456, 14511.221887018906, -8687.00548255509, 8104.787242983251, 2632.163778801415, -15723.580506274762, -15777.828190067792, 45165.45476501641, -5301.118528976265, 5069.845029097203, 10441.885643230158, -187500.02235174447, -0.0025, 0.989, 0.006, 192.0, 0.0, 0.0, 0.0, 0.0, 0.0, 0.0, 0.0, 0.0, 0.0, 1.745267439468974E9, 0.0, 2025-04-21 15:30:39.468
210.0, -24629.72249146968, 1303.2631639555889, 9744.354754013391, 1834.6311848916037, 8719.326105037464, 14499.531924668781, -8702.808165884991, 8096.986484168349, 2622.619583918999, -15732.990590690446, -15783.46082967053, 45161.74437543683, -5304.024255755456, 5059.138543503112, 10436.811797238803, -187500.02235174447, -0.0032500000000000003, 0.9884999999999999, 0.005, 192.0, 127.5, 112.0, 15.0, 112.0, 0.0, 16.0, 0.0, 0.0, 0.0, 1.745267439527815E9, 0.0, 2025-04-21 15:30:39.527
212.0, -24613.383366272854, 1311.6003646374184, 9750.79205641652, 1842.4319437065058, 8718.655552703805, 14512.026549819298, -8709.267820032575, 8110.732807008363, 2633.0802003240824, -15727.872041210181, -15783.84080932627, 45156.24584630082, -5299.553906864394, 5061.172552248544, 10430.173329135578, -187500.02235174447, -0.0032500000000000003, 0.9884999999999999, 0.005, 192.0, 0.0, 0.0, 0.0, 0.0, 0.0, 0.0, 0.0, 0.0, 0.0, 1.745267439528074E9, 0.0, 2025-04-21 15:30:39.528
214.0, -24606.566084213984, 1323.424437454276, 9764.918358912273, 1851.7079176554582, 8728.087988863945, 14517.167451044019, -8694.023930314057, 8108.229411629369, 2650.805133677141, -15707.599008989217, -15766.942890518058, 45167.35466329511, -5284.488831101517, 5076.6399594116165, 10437.728218761471, -187500.02235174447, -0.0032500000000000003, 0.9884999999999999, 0.005, 192.0, 0.0, 0.0, 0.0, 0.0, 0.0, 0.0, 0.0, 0.0, 0.0, 1.745267439528281E9, 0.0, 2025-04-21 15:30:39.528
216.0, -24609.96354937119, 1326.6207369113847, 9756.447047763711, 1852.4678769669388, 8721.226003316166, 14515.356959743138, -8699.880087361347, 8102.5520685377205, 2637.4611422373227, -15714.997436403924, -15770.586224864272, 45180.385730312555, -5295.687055073626, 5066.134639517622, 10436.051837927324, -187500.02235174447, -0.0032500000000000003, 0.9884999999999999, 0.005, 192.0, 0.0, 0.0, 0.0, 0.0, 0.0, 0.0, 0.0, 0.0, 0.0, 1.745267439528495E9, 0.0, 2025-04-21 15:30:39.528
218.0, -24609.851790648914, 1330.554643935519, 9754.323632040458, 1856.3794322466174, 8714.989866613134, 14512.741805641868, -8707.837308387436, 8122.914507736506, 2637.684659681876, -15704.82739267676, -15771.16737022011, 45184.453747803425, -5295.240020184519, 5070.515581430863, 10433.280221614865, -187500.02235174447, -0.0032500000000000003, 0.9884999999999999, 0.005, 192.0, 0.0, 0.0, 0.0, 0.0, 0.0, 0.0, 0.0, 0.0, 0.0, 1.745267439528688E9, 0.0, 2025-04-21 15:30:39.528
220.0, -24611.371709271876, 1323.8267688544713, 9749.629765704844, 1861.4085747490615, 8719.840195159935, 14515.73693939888, -8703.523421707561, 8120.478167590877, 2641.9538428728397, -15696.087860594735, -15771.07796324229, 45192.679189762974, -5298.704540575092, 5082.138488547622, 10431.201509380522, -187500.02235174447, -0.003625, 0.98825, 0.0035, 192.0, 127.5, 112.0, 15.0, 112.0, 0.0, 8.0, 0.0, 0.0, 0.0, 1.745267439528883E9, 0.0, 2025-04-21 15:30:39.528
222.0, -24607.97424411467, 1321.3010217310216, 9751.26144305008, 1864.3143015282515, 8729.451445275718, 14517.815651633222, -8693.643950658316, 8121.260478646813, 2640.098648083049, -15698.34538678472, -15775.88358830018, 45181.6150762576, -5288.534496847928, 5077.914008845569, 10434.844843726736, -187500.02235174447, -0.003625, 0.98825, 0.0035, 192.0, 0.0, 0.0, 0.0, 0.0, 0.0, 0.0, 0.0, 0.0, 0.0, 1.745267439529086E9, 0.0, 2025-04-21 15:30:39.529
224.0, -24609.695328437727, 1323.5138444320971, 9744.041829591017, 1863.621397450137, 8722.835328916946, 14517.100395810652, -8710.586572955439, 8107.670618017986, 2640.679793438887, -15704.402709532109, -15781.35976569173, 45197.730684009875, -5304.67245634466, 5084.038386826323, 10428.519300045884, -187500.02235174447, -0.003625, 0.98825, 0.0035, 192.0, 0.0, 0.0, 0.0, 0.0, 0.0, 0.0, 0.0, 0.0, 0.0, 1.74526743952928E9, 0.0, 2025-04-21 15:30:39.529
226.0, -24616.423203518774, 1314.9978297946252, 9740.778474900542, 1854.6359961791036, 8725.562241740494, 14507.802070117245, -8694.716834392171, 8116.3430948666455, 2631.001488089739, -15705.475593265963, -15788.467620428519, 45173.27787557577, -5307.421720912662, 5078.159878034578, 10432.386151836652, -187500.02235174447, -0.003625, 0.98825, 0.0035, 192.0, 0.0, 0.0, 0.0, 0.0, 0.0, 0.0, 0.0, 0.0, 0.0, 1.745267439586908E9, 0.0, 2025-04-21 15:30:39.586
228.0, -24605.850828391413, 1317.7023908737174, 9742.745428412609, 1856.848818880179, 8723.371770783875, 14510.39487247406, -8701.690578662226, 8117.639496045053, 2642.222063806303, -15710.460032279496, -15780.868027313714, 45180.02810240127, -5300.067996986866, 5071.946093076002, 10438.331715861765, -187500.02235174447, -0.003625, 0.98825, 0.0035, 192.0, 0.0, 0.0, 0.0, 0.0, 0.0, 0.0, 0.0, 0.0, 0.0, 1.745267439587142E9, 0.0, 2025-04-21 15:30:39.587
230.0, -24604.77794465756, 1323.35738222091, 9754.45774250719, 1863.0179003498438, 8728.244451075132, 14516.005160332343, -8699.634218172338, 8118.242993145346, 2646.0442121081605, -15705.386186288142, -15777.001175522946, 45161.587913225645, -5303.510165632983, 5067.185171507022, 10436.185948394055, -187500.02235174447, -0.0028125, 0.987125, 0.00275, 192.0, 127.5, 120.0, 15.0, 104.0, 0.0, 8.0, 0.0, 0.0, 0.0, 1.745267439587347E9, 0.0, 2025-04-21 15:30:39.587
232.0, -24604.62148244637, 1325.1678735217897, 9761.74441119962, 1863.3531765166733, 8737.162797112798, 14526.622238948614, -8684.636197642827, 8133.665696819508, 2644.0772585960935, -15703.732157198448, -15768.64162309666, 45193.30503860772, -5291.57433409385, 5077.086994300723, 10451.698059046037, -187500.02235174447, -0.0028125, 0.987125, 0.00275, 192.0, 0.0, 0.0, 0.0, 0.0, 0.0, 0.0, 0.0, 0.0, 0.0, 1.745267439587568E9, 0.0, 2025-04-21 15:30:39.587
234.0, -24604.107392323902, 1320.9433938197367, 9754.591852973921, 1852.780801389313, 8732.49128252164, 14518.910887111531, -8701.645875173315, 8107.469452317889, 2641.685621939376, -15706.950808400014, -15769.73685857497, 45169.70159646292, -5290.1214707042545, 5076.215276266966, 10453.530902091374, -187500.02235174447, -0.0028125, 0.987125, 0.00275, 192.0, 0.0, 0.0, 0.0, 0.0, 0.0, 0.0, 0.0, 0.0, 0.0, 1.745267439587767E9, 0.0, 2025-04-21 15:30:39.587
236.0, -24596.1054678089, 1326.196053766734, 9758.145780342315, 1860.2909875262962, 8734.34647731143, 14527.87393663811, -8690.849982601403, 8132.458702618922, 2644.0549068516384, -15705.095613610223, -15771.435591153575, 45185.86190770411, -5284.444127612606, 5079.679796657539, 10450.312250889809, -187500.02235174447, -0.0028125, 0.987125, 0.00275, 192.0, 0.0, 0.0, 0.0, 0.0, 0.0, 0.0, 0.0, 0.0, 0.0, 1.745267439587974E9, 0.0, 2025-04-21 15:30:39.587
238.0, -24594.29497650802, 1329.7499811351279, 9757.810504175486, 1861.8556096381676, 8737.609832001905, 14538.82629142121, -8678.735337106626, 8137.84547303265, 2647.9441103868617, -15700.446450763518, -15762.964280005013, 45167.35466329511, -5281.069014199855, 5078.33869199022, 10457.107181204223, -187500.02235174447, -0.0028125, 0.987125, 0.00275, 192.0, 0.0, 0.0, 0.0, 0.0, 0.0, 0.0, 0.0, 0.0, 0.0, 1.745267439588198E9, 0.0, 2025-04-21 15:30:39.588
240.0, -24594.38438348584, 1325.7266671331724, 9746.634631947833, 1859.8439526371901, 8726.188090585243, 14531.673733195512, -8699.522459450061, 8130.402342129033, 2657.9576919028395, -15721.390035318142, -15763.746591060948, 45192.209803129415, -5279.124412432243, 5087.748776405904, 10451.049858456834, -187500.02235174447, -0.0028125, 0.987125, 0.00275, 192.0, 0.0, 0.0, 0.0, 0.0, 0.0, 0.0, 0.0, 0.0, 0.0, 1.745267439647227E9, 0.0, 2025-04-21 15:30:39.647
242.0, -24591.277491006553, 1328.8335596124602, 9751.417905261267, 1864.269598039341, 8724.645820217827, 14532.478395995904, -8696.169697781766, 8121.03696120226, 2636.656479436932, -15720.071282395278, -15770.340355675264, 45171.60149474162, -5287.0145782249665, 5085.580657193739, 10436.096541416233, -187500.02235174447, -0.006, 0.992, 0.008, 192.0, 127.5, 104.0, 15.5, 0.0, 0.0, 32.0, 0.0, 0.0, 0.0, 1.745267439647471E9, 0.0, 2025-04-21 15:30:39.647
244.0, -24587.432990960242, 1336.5896149384516, 9753.474265751156, 1876.7418714454022, 8727.417436530284, 14537.060503609242, -8687.161944766278, 8135.431484631477, 2651.09570635506, -15702.927494398058, -15760.639698581661, 45190.600477528635, -5282.052490955888, 5097.203564310499, 10440.186910651555, -187500.02235174447, -0.006, 0.992, 0.008, 192.0, 0.0, 0.0, 0.0, 0.0, 0.0, 0.0, 0.0, 0.0, 0.0, 1.745267439647685E9, 0.0, 2025-04-21 15:30:39.647
246.0, -24588.77409562756, 1334.7344201486612, 9759.285719309535, 1887.0460256392987, 8730.412570287297, 14542.424922278515, -8676.075479516445, 8142.338173668168, 2652.056831366638, -15686.655424434593, -15762.986631749467, 45164.20306732691, -5285.449956113095, 5104.8702126586695, 10441.617422296695, -187500.02235174447, -0.006, 0.992, 0.008, 192.0, 0.0, 0.0, 0.0, 0.0, 0.0, 0.0, 0.0, 0.0, 0.0, 1.745267439647885E9, 0.0, 2025-04-21 15:30:39.647
248.0, -24590.986918328636, 1326.3078124890105, 9760.760934443586, 1885.6378657386144, 8735.061733134, 14542.53668100079, -8674.33204344893, 8147.4567231484325, 2648.972290631806, -15698.099517595712, -15764.998288750445, 45170.86388717459, -5275.883409486224, 5106.099558603712, 10450.245195656444, -187500.02235174447, -0.006, 0.992, 0.008, 192.0, 0.0, 0.0, 0.0, 0.0, 0.0, 0.0, 0.0, 0.0, 0.0, 1.745267439648095E9, 0.0, 2025-04-21 15:30:39.648
250.0, -24585.71190663718, 1322.932699076259, 9766.550036257511, 1884.9673134049551, 8741.25316634812, 14537.30637279825, -8675.539037649518, 8142.226414945891, 2648.7264214427973, -15711.085881124245, -15764.21597769451, 45153.049546843715, -5272.910627473668, 5092.219125296966, 10452.055686957323, -187500.02235174447, -0.006, 0.992, 0.008, 192.0, 0.0, 0.0, 0.0, 0.0, 0.0, 0.0, 0.0, 0.0, 0.0, 1.745267439648294E9, 0.0, 2025-04-21 15:30:39.648
252.0, -24581.263909490575, 1329.6382224128513, 9773.322614827468, 1886.0178453943547, 8747.578710028973, 14532.791320418279, -8680.612883640872, 8142.5840428571755, 2657.555360502644, -15714.103366625712, -15751.520186843896, 45162.72785219287, -5262.204141879576, 5097.8294131552475, 10460.63875682816, -187500.02235174447, -0.006, 0.986, 0.012, 192.0, 127.5, 104.0, 15.0, 104.0, 0.0, 48.0, 0.0, 0.0, 0.0, 1.745267439648486E9, 0.0, 2025-04-21 15:30:39.648
254.0, -24589.62346191686, 1322.3292019759658, 9758.726925698153, 1871.4445080094945, 8737.229852346165, 14525.281134281295, -8695.275628003554, 8119.002952456827, 2651.0510028661497, -15714.550401514818, -15754.82824502328, 45151.59668345412, -5267.792077993403, 5086.765299649871, 10445.104294431721, -187500.02235174447, -0.006, 0.986, 0.012, 192.0, 0.0, 0.0, 0.0, 0.0, 0.0, 0.0, 0.0, 0.0, 0.0, 1.745267439648721E9, 0.0, 2025-04-21 15:30:39.648
0.0, -24586.71773513767, 1328.967670079192, 9766.013594390583, 1870.7516039313798, 8740.604965758916, 14524.454119736449, -8693.912171591779, 8126.13315893807, 2646.938281886373, -15705.944979899525, -15755.968183990502, 45151.75314566531, -5269.714328016559, 5084.708939159982, 10446.40069561013, -187500.02235174447, -0.006, 0.986, 0.012, 192.0, 0.0, 0.0, 0.0, 0.0, 0.0, 0.0, 0.0, 0.0, 0.0, 1.74526743970742E9, 0.0, 2025-04-21 15:30:39.707
2.0, -24588.908206094293, 1322.8656438428932, 9762.571425744465, 1867.3764905186285, 8741.744904726136, 14517.435671977482, -8694.314502991976, 8116.745426266841, 2654.649633723454, -15706.146145599621, -15755.185872934566, 45147.34985200761, -5266.205104137076, 5084.865401371169, 10448.50175958893, -187500.02235174447, -0.006, 0.986, 0.012, 192.0, 0.0, 0.0, 0.0, 0.0, 0.0, 0.0, 0.0, 0.0, 0.0, 1.745267439707658E9, 0.0, 2025-04-21 15:30:39.707
4.0, -24585.57779617045, 1324.5643764214965, 9764.73954495663, 1866.683586440514, 8750.573843785984, 14519.402625489549, -8688.301883733498, 8115.717246021896, 2651.319223799613, -15703.598046731717, -15759.030372980878, 45150.389689253534, -5267.009766937467, 5087.1005758167, 10454.559082336316, -187500.02235174447, -0.006, 0.986, 0.012, 192.0, 0.0, 0.0, 0.0, 0.0, 0.0, 0.0, 0.0, 0.0, 0.0, 1.745267439707862E9, 0.0, 2025-04-21 15:30:39.707
6.0, -24603.660357434794, 1309.9686872921811, 9746.5005214811, 1860.7827259043129, 8731.619564487883, 14502.035320047775, -8704.082215318944, 8108.899963963028, 2645.507770241233, -15711.130584613156, -15763.008983493923, 45145.718174662376, -5270.921322217146, 5076.662311156072, 10449.485236344963, -187500.02235174447, -0.004, 0.988, 0.01, 192.0, 127.5, 112.0, 15.0, 112.0, 0.0, 40.0, 0.0, 0.0, 0.0, 1.745267439708065E9, 0.0, 2025-04-21 15:30:39.708
8.0, -24607.393098758832, 1310.7509983481168, 9738.655059177287, 1863.3755282611287, 8727.35038129692, 14506.036282305275, -8708.44080548773, 8119.2264699013795, 2631.1803020453817, -15727.20148887652, -15779.459867413028, 45136.330441991144, -5277.291569386908, 5069.465049441463, 10431.268564613887, -187500.02235174447, -0.004, 0.988, 0.01, 192.0, 0.0, 0.0, 0.0, 0.0, 0.0, 0.0, 0.0, 0.0, 0.0, 1.745267439708285E9, 0.0, 2025-04-21 15:30:39.708
10.0, -24602.609825445394, 1311.2427367261334, 9749.40624826029, 1874.260827810863, 8734.614698244894, 14513.881744609089, -8697.823726871458, 8111.93980120895, 2638.5563777156326, -15716.53970677134, -15771.055611497834, 45145.49465721782, -5284.71234854607, 5073.57777042124, 10433.704904759516, -187500.02235174447, -0.004, 0.988, 0.01, 192.0, 0.0, 0.0, 0.0, 0.0, 0.0, 0.0, 0.0, 0.0, 0.0, 1.745267439708482E9, 0.0, 2025-04-21 15:30:39.708
12.0, -24606.63313944735, 1306.7276843461616, 9750.412076760778, 1871.84683940969, 8734.748808711625, 14517.77094814431, -8699.120128049866, 8120.254650146324, 2627.648726421443, -15708.783651445348, -15772.93315803208, 45130.0048983103, -5284.689996801615, 5083.881924615136, 10431.313268102798, -187500.02235174447, -0.004, 0.988, 0.01, 192.0, 0.0, 0.0, 0.0, 0.0, 0.0, 0.0, 0.0, 0.0, 0.0, 1.745267439708682E9, 0.0, 2025-04-21 15:30:39.708
14.0, -24614.232732562155, 1294.1883557067342, 9744.891195880318, 1861.6767956825252, 8726.836291174448, 14508.047939306252, -8704.685712419237, 8105.636609272553, 2626.70995315432, -15727.179137132067, -15777.202341223043, 45133.53647393423, -5286.031101468933, 5075.8129448667705, 10432.408503581108, -187500.02235174447, -0.004, 0.988, 0.01, 192.0, 0.0, 0.0, 0.0, 0.0, 0.0, 0.0, 0.0, 0.0, 0.0, 1.745267439767687E9, 0.0, 2025-04-21 15:30:39.767
16.0, -24616.98199713016, 1296.222364452167, 9750.769704672064, 1866.7729934183353, 8727.596250485927, 14505.745709627356, -8701.556468195495, 8110.911620964006, 2625.61471767601, -15729.30255285532, -15774.341317932764, 45109.35188643359, -5282.097194444799, 5066.916950573558, 10434.621326282184, -187500.02235174447, -0.006, 0.988, 0.014, 192.0, 127.5, 104.0, 15.0, 112.0, 0.0, 56.0, 0.0, 0.0, 0.0, 1.745267439767939E9, 0.0, 2025-04-21 15:30:39.767
18.0, -24602.72158416767, 1302.2573354551, 9758.659870464788, 1874.7749179333352, 8734.190015100243, 14516.139270799074, -8694.426261714252, 8119.494690834844, 2632.387296245968, -15737.617401792695, -15769.088657985767, 45126.78624710873, -5278.230342654031, 5072.594293665206, 10431.983820436457, -187500.02235174447, -0.006, 0.988, 0.014, 192.0, 0.0, 0.0, 0.0, 0.0, 0.0, 0.0, 0.0, 0.0, 0.0, 1.745267439768157E9, 0.0, 2025-04-21 15:30:39.768
20.0, -24602.498066723118, 1309.2757832140665, 9760.515065254578, 1875.8701534116453, 8734.949974411724, 14522.867145880122, -8691.81110761298, 8127.340153138656, 2633.169607301904, -15722.641733007638, -15761.422009637596, 45117.21970048186, -5272.821220495846, 5078.159878034578, 10438.041143183846, -187500.02235174447, -0.006, 0.988, 0.014, 192.0, 0.0, 0.0, 0.0, 0.0, 0.0, 0.0, 0.0, 0.0, 0.0, 1.745267439768372E9, 0.0, 2025-04-21 15:30:39.768
22.0, -24597.781848643048, 1310.706294859206, 9758.235187320137, 1872.5397434878046, 8732.737151710648, 14516.20632603244, -8688.257180244587, 8123.965039725905, 2644.5242934852, -15714.304532325808, -15756.839902024258, 45155.46353524489, -5276.062223441866, 5082.116136803167, 10443.204396153022, -187500.02235174447, -0.006, 0.988, 0.014, 192.0, 0.0, 0.0, 0.0, 0.0, 0.0, 0.0, 0.0, 0.0, 0.0, 1.74526743976857E9, 0.0, 2025-04-21 15:30:39.768
24.0, -24600.195837044223, 1309.0075622806028, 9751.373201772358, 1866.4153655070504, 8723.751750439615, 14507.846773606156, -8699.701273405704, 8122.199251913936, 2627.8275403770854, -15721.34533182923, -15768.194588207554, 45127.83677909813, -5277.582142064827, 5070.962616319968, 10431.402675080619, -187500.02235174447, -0.006, 0.988, 0.014, 192.0, 0.0, 0.0, 0.0, 0.0, 0.0, 0.0, 0.0, 0.0, 0.0, 1.745267439768771E9, 0.0, 2025-04-21 15:30:39.768
26.0, -24602.453363234206, 1313.2767454715665, 9756.245882063613, 1872.3832812766173, 8732.088951121445, 14522.30835226874, -8693.1522122803, 8101.4121295705, 2632.074371823594, -15720.11598588419, -15765.713544573015, 45153.16130556599, -5281.80662176688, 5077.154049534089, 10434.10723615971, -187500.02235174447, -0.006, 0.988, 0.014, 192.0, 0.0, 0.0, 15.0, 88.0, 0.0, 64.0, 0.0, 0.0, 0.0, 1.745267439768971E9, 0.0, 2025-04-21 15:30:39.768
28.0, -24585.041354303525, 1318.708219374206, 9766.751201957608, 1885.2131825939637, 8744.069486149489, 14528.388026760582, -8685.709081376683, 8133.553938097231, 2635.449485236345, -15711.15293635761, -15758.963317747513, 45132.642404156024, -5280.644331055204, 5078.785726879326, 10443.226747897477, -187500.02235174447, -0.006, 0.988, 0.014, 192.0, 0.0, 0.0, 0.0, 0.0, 0.0, 0.0, 0.0, 0.0, 0.0, 1.745267439769199E9, 0.0, 2025-04-21 15:30:39.769
30.0, -24594.92082535277, 1317.1435972623347, 9764.426620534256, 1885.32494131624, 8747.757523984614, 14541.01676237783, -8685.731433121138, 8134.023324730793, 2640.009241105228, -15711.39880554662, -15754.940003745558, 45160.805602169705, -5272.955330962579, 5088.396976995108, 10450.40165786763, -187500.02235174447, -0.006, 0.988, 0.014, 192.0, 0.0, 0.0, 0.0, 0.0, 0.0, 0.0, 0.0, 0.0, 0.0, 1.745267439827052E9, 0.0, 2025-04-21 15:30:39.827
32.0, -24595.457267219695, 1314.0814082719576, 9761.207969332692, 1886.4648802834608, 8745.54470128354, 14537.440483264982, -8678.377709195342, 8133.062199719215, 2644.9266248853955, -15712.069357880278, -15758.73980030296, 45140.86784611557, -5271.256598383975, 5087.279389772343, 10446.311288632309, -187500.02235174447, -0.006, 0.988, 0.014, 192.0, 0.0, 0.0, 0.0, 0.0, 0.0, 0.0, 0.0, 0.0, 0.0, 1.745267439827288E9, 0.0, 2025-04-21 15:30:39.827
34.0, -24597.938310854235, 1316.6742106287732, 9751.619070961366, 1880.429909280528, 8738.280384335565, 14530.243221550372, -8686.156116265789, 8125.082626948671, 2635.6282991919875, -15711.175288102066, -15766.160579462121, 45157.184619567946, -5279.593799065805, 5085.021863582357, 10436.811797238803, -187500.02235174447, -0.006, 0.988, 0.014, 192.0, 0.0, 0.0, 0.0, 0.0, 0.0, 0.0, 0.0, 0.0, 0.0, 1.745267439827484E9, 0.0, 2025-04-21 15:30:39.827
36.0, -24594.473790463664, 1317.9482600627257, 9758.25753906459, 1884.7437959604022, 8749.143332140844, 14536.568765231224, -8682.311616219475, 8132.615164830109, 2649.9334156433843, -15693.830334404747, -15758.40452413613, 45133.6035291676, -5273.491772829506, 5093.403767753097, 10440.119855418188, -187500.02235174447, -0.004, 0.986, 0.016, 192.0, 127.5, 112.0, 15.0, 104.0, 0.0, 64.0, 0.0, 0.0, 0.0, 1.745267439827696E9, 0.0, 2025-04-21 15:30:39.827
38.0, -24607.9071888813, 1310.2145564811894, 9754.25657680709, 1870.6621969535586, 8741.63314600386, 14520.654323179046, -8691.073500045955, 8111.693932019942, 2632.074371823594, -15707.464898522485, -15769.893320786157, 45151.35081426511, -5272.66475828466, 5084.105442059689, 10433.391980337141, -187500.02235174447, -0.004, 0.986, 0.016, 192.0, 0.0, 0.0, 0.0, 0.0, 0.0, 0.0, 0.0, 0.0, 0.0, 1.745267439827921E9, 0.0, 2025-04-21 15:30:39.827
40.0, -24601.53694171154, 1309.7898733365387, 9758.726925698153, 1871.6009702206816, 8740.91789018129, 14512.808860875233, -8687.228999999643, 8133.08455146367, 2633.9742701022947, -15705.855572921702, -15764.797123050348, 45126.763895364275, -5271.8153919953575, 5071.47670644244, 10434.643678026638, -187500.02235174447, -0.004, 0.986, 0.016, 192.0, 0.0, 0.0, 0.0, 0.0, 0.0, 0.0, 0.0, 0.0, 0.0, 1.745267439828113E9, 0.0, 2025-04-21 15:30:39.828
42.0, -24604.107392323902, 1311.5556611485079, 9751.730829683642, 1867.7564701743688, 8731.284288321052, 14516.58630568818, -8699.321293749965, 8116.477205333377, 2633.6166421910098, -15715.310360826297, -15764.618309094705, 45144.28766301724, -5271.56952280635, 5075.38826172212, 10432.721428003482, -187500.02235174447, -0.004, 0.986, 0.016, 192.0, 0.0, 0.0, 0.0, 0.0, 0.0, 0.0, 0.0, 0.0, 0.0, 1.745267439828319E9, 0.0, 2025-04-21 15:30:39.828
44.0, -24598.407697487797, 1310.7286466036614, 9751.574367472454, 1861.4532782379722, 8737.878052935368, 14515.02168357631, -8681.484601674629, 8120.858147246618, 2643.518464984711, -15708.984817145447, -15766.093524228756, 45129.155532020995, -5282.343063633807, 5077.265808256365, 10432.989648936946, -187500.02235174447, -0.004, 0.986, 0.016, 192.0, 0.0, 0.0, 0.0, 0.0, 0.0, 0.0, 0.0, 0.0, 0.0, 1.745267439886788E9, 0.0, 2025-04-21 15:30:39.886
46.0, -24598.273587021064, 1313.4779111716641, 9753.78719017353, 1857.2064467914638, 8740.1132273809, 14503.734052626378, -8690.626465156849, 8106.150699395025, 2643.2725957957027, -15720.87594519567, -15764.014811994412, 45137.89506410302, -5272.508296073473, 5071.320244231253, 10440.365724607198, -187500.02235174447, -0.005, 0.984, 0.017, 192.0, 127.5, 104.0, 15.0, 88.0, 0.0, 72.0, 0.0, 0.0, 0.0, 1.745267439887021E9, 0.0, 2025-04-21 15:30:39.887
48.0, -24600.9557963557, 1303.7325505891504, 9753.474265751156, 1855.0606793237544, 8737.945108168735, 14502.169430514507, -8690.738223879127, 8109.659923274508, 2630.219177033803, -15726.843860965237, -15775.235387710976, 45131.27894774425, -5277.80565950938, 5057.372755691142, 10425.30064884432, -187500.02235174447, -0.005, 0.984, 0.017, 192.0, 0.0, 0.0, 0.0, 0.0, 0.0, 0.0, 0.0, 0.0, 0.0, 1.745267439887245E9, 0.0, 2025-04-21 15:30:39.887
50.0, -24610.25412204911, 1294.97066676267, 9754.055411106994, 1859.7321939149135, 8739.330916324963, 14506.39391021656, -8679.115316762367, 8128.636554317064, 2645.775991174697, -15720.87594519567, -15768.418105652108, 45134.36348847908, -5278.744432776503, 5070.6496918975945, 10441.572718807784, -187500.02235174447, -0.005, 0.984, 0.017, 192.0, 0.0, 0.0, 0.0, 0.0, 0.0, 0.0, 0.0, 0.0, 0.0, 1.745267439887464E9, 0.0, 2025-04-21 15:30:39.887
52.0, -24604.688537679736, 1300.3350854319438, 9751.97669887265, 1869.4775544974275, 8739.375619813874, 14517.815651633222, -8685.396156954308, 8124.613240315109, 2636.365906759013, -15725.793328975837, -15775.324794688797, 45133.44706695641, -5278.655025798682, 5078.00341582339, 10441.460960085507, -187500.02235174447, -0.005, 0.984, 0.017, 192.0, 0.0, 0.0, 0.0, 0.0, 0.0, 0.0, 0.0, 0.0, 0.0, 1.745267439887663E9, 0.0, 2025-04-21 15:30:39.887
54.0, -24606.07434583597, 1308.3370099469437, 9752.624899461855, 1870.3716242756398, 8742.638974504349, 14522.330704013195, -8687.608979655382, 8125.4402548599555, 2626.553490943133, -15712.963427658491, -15778.565797634817, 45132.1059622891, -5274.587008307816, 5070.0014913083905, 10434.531919304362, -187500.02235174447, -0.005, 0.984, 0.017, 192.0, 0.0, 0.0, 0.0, 0.0, 0.0, 0.0, 0.0, 0.0, 0.0, 1.745267439887861E9, 0.0, 2025-04-21 15:30:39.887
56.0, -24608.845962148425, 1303.1514052333123, 9750.926166883251, 1870.170458575542, 8740.1132273809, 14524.275305780806, -8688.681863389238, 8129.329458395178, 2626.262918265214, -15703.642750220628, -15773.290785943365, 45142.27600601626, -5272.418889095651, 5079.769203635359, 10441.2150908965, -187500.02235174447, -0.0075, 0.986, 0.018500000000000003, 192.0, 127.5, 88.0, 15.0, 112.0, 0.0, 80.0, 0.0, 0.0, 0.0, 1.745267439888061E9, 0.0, 2025-04-21 15:30:39.888
58.0, -24601.71575566718, 1308.1581959913012, 9757.050544864005, 1880.4075575360725, 8744.82944546097, 14528.946820371964, -8685.016177298568, 8128.502443850332, 2631.0238398341944, -15726.754453987414, -15774.40837316613, 45130.58604366613, -5277.38097636473, 5079.031596068335, 10437.258832127909, -187500.02235174447, -0.0075, 0.986, 0.018500000000000003, 192.0, 0.0, 0.0, 0.0, 0.0, 0.0, 0.0, 0.0, 0.0, 0.0, 1.745267439888269E9, 0.0, 2025-04-21 15:30:39.888
60.0, -24593.624424174363, 1311.645068126329, 9758.5034082536, 1888.2530198398854, 8737.073390134978, 14536.032323364298, -8692.124032035355, 8125.082626948671, 2634.130732313482, -15703.06160486479, -15767.233463195977, 45152.98249161035, -5270.9883774505115, 5092.91202937508, 10441.080980429768, -187500.02235174447, -0.0075, 0.986, 0.018500000000000003, 192.0, 0.0, 0.0, 0.0, 0.0, 0.0, 0.0, 0.0, 0.0, 0.0, 1.745267439947174E9, 0.0, 2025-04-21 15:30:39.947
62.0, -24594.250273019108, 1324.6537833993177, 9757.676393708754, 1885.3696448051508, 8730.43492203175, 14528.455081993949, -8699.075424560955, 8122.467472847399, 2637.5281974706886, -15697.227799561955, -15759.16448344761, 45147.327500263156, -5271.211894895065, 5097.762357921882, 10431.201509380522, -187500.02235174447, -0.0075, 0.986, 0.018500000000000003, 192.0, 0.0, 0.0, 0.0, 0.0, 0.0, 0.0, 0.0, 0.0, 0.0, 1.7452674399474E9, 0.0, 2025-04-21 15:30:39.947
64.0, -24580.056915289988, 1334.5556061930188, 9767.131181613348, 1887.6495227395922, 8732.044247632533, 14527.315143026728, -8701.95879959569, 8118.757083267818, 2650.447505765856, -15686.208389545489, -15749.195605420544, 45168.06991911768, -5257.510275543961, 5098.052930599801, 10432.184986136555, -187500.02235174447, -0.0075, 0.986, 0.018500000000000003, 192.0, 0.0, 0.0, 0.0, 0.0, 0.0, 0.0, 0.0, 0.0, 0.0, 1.745267439947603E9, 0.0, 2025-04-21 15:30:39.947
66.0, -24589.422296216762, 1326.8219026114825, 9764.627786234354, 1880.429909280528, 8733.653573233316, 14524.118843569619, -8692.19108726872, 8120.925202479983, 2654.269654067714, -15692.109250081689, -15749.419122865096, 45153.58598871064, -5263.813467480358, 5090.363930507175, 10429.614535524195, -187500.02235174447, -0.00575, 0.985, 0.019250000000000003, 192.0, 127.5, 112.0, 15.0, 96.0, 0.0, 80.0, 0.0, 0.0, 0.0, 1.745267439947807E9, 0.0, 2025-04-21 15:30:39.947
68.0, -24598.43004923225, 1314.9978297946252, 9751.462608750178, 1870.103403342176, 8727.283326063553, 14521.034302834787, -8694.225096014154, 8121.059312946715, 2640.4562759943337, -15712.516392769385, -15760.662050326117, 45163.44310801543, -5277.582142064827, 5082.317302503265, 10425.412407566597, -187500.02235174447, -0.00575, 0.985, 0.019250000000000003, 192.0, 0.0, 0.0, 0.0, 0.0, 0.0, 0.0, 0.0, 0.0, 0.0, 1.745267439948018E9, 0.0, 2025-04-21 15:30:39.948
70.0, -24603.19097080123, 1309.2981349585218, 9752.803713417497, 1868.6058364636704, 8731.083122620956, 14520.117881312119, -8687.608979655382, 8122.668638547497, 2628.9898310887615, -15713.678683481061, -15771.748515575948, 45136.53160769124, -5282.276008400441, 5078.785726879326, 10420.91970693108, -187500.02235174447, -0.00575, 0.985, 0.019250000000000003, 192.0, 0.0, 0.0, 0.0, 0.0, 0.0, 0.0, 0.0, 0.0, 0.0, 1.745267439948223E9, 0.0, 2025-04-21 15:30:39.948
72.0, -24615.797354674025, 1298.7928150645275, 9744.846492391407, 1859.0616415812544, 8731.306640065508, 14518.530907455792, -8688.704215133694, 8130.804673529229, 2629.0568863221274, -15715.265657337388, -15773.536655132373, 45151.08259333165, -5276.75512751998, 5078.9868925794235, 10427.714637245494, -187500.02235174447, -0.00575, 0.985, 0.019250000000000003, 192.0, 0.0, 0.0, 0.0, 0.0, 0.0, 0.0, 0.0, 0.0, 0.0, 1.745267439948442E9, 0.0, 2025-04-21 15:30:39.948
74.0, -24628.24727633563, 1284.1077189573907, 9746.5005214811, 1854.5912926901929, 8738.548605269028, 14515.625180676601, -8682.758651108581, 8127.362504883112, 2614.885880337463, -15727.849689465726, -15788.199399495054, 45115.63272662553, -5283.19242992311, 5067.140468018111, 10425.635925011149, -187500.02235174447, -0.00575, 0.985, 0.019250000000000003, 192.0, 0.0, 0.0, 0.0, 0.0, 0.0, 0.0, 0.0, 0.0, 0.0, 1.74526744000744E9, 0.0, 2025-04-21 15:30:40.007
76.0, -24642.82061372049, 1265.7345850151282, 9733.134178296827, 1846.589368175193, 8730.770198198581, 14503.890514837565, -8693.62159891386, 8114.309086121212, 2613.7012378813315, -15739.45024483803, -15794.9272745761, 45124.17109300746, -5285.472307857551, 5053.595310878195, 10431.760302991905, -187500.02235174447, -0.006875, 0.9855, 0.016625, 192.0, 127.5, 96.0, 15.0, 104.0, 0.0, 56.0, 0.0, 0.0, 0.0, 1.745267440007687E9, 0.0, 2025-04-21 15:30:40.007
78.0, -24631.175354859275, 1275.3458351309105, 9745.226472047147, 1862.0567753382654, 8737.498073279628, 14508.740843384367, -8686.156116265789, 8127.451911860933, 2604.2464499767366, -15747.921555986592, -15801.074004301312, 45088.676522812435, -5285.964046235567, 5052.589482377706, 10428.63105876816, -187500.02235174447, -0.006875, 0.9855, 0.016625, 192.0, 0.0, 0.0, 0.0, 0.0, 0.0, 0.0, 0.0, 0.0, 0.0, 1.745267440007906E9, 0.0, 2025-04-21 15:30:40.007
80.0, -24630.50480252562, 1278.0950996989131, 9742.946594112705, 1862.7720311608352, 8731.954840654713, 14507.802070117245, -8698.963665838679, 8104.31785634969, 2614.0812175370716, -15742.780654761871, -15793.31794897532, 45120.01366853877, -5287.148688691698, 5063.653595883084, 10433.526090803873, -187500.02235174447, -0.006875, 0.9855, 0.016625, 192.0, 0.0, 0.0, 0.0, 0.0, 0.0, 0.0, 0.0, 0.0, 0.0, 1.745267440008109E9, 0.0, 2025-04-21 15:30:40.008
82.0, -24619.887723909345, 1289.0251027375582, 9749.428600004745, 1868.3152637857515, 8735.374657556375, 14506.192744516462, -8697.935485593734, 8115.136100666059, 2623.42424671939, -15732.1635761456, -15783.013794781424, 45104.814482309164, -5279.683206043626, 5069.7109186304715, 10430.866233213692, -187500.02235174447, -0.006875, 0.9855, 0.016625, 192.0, 0.0, 0.0, 0.0, 0.0, 0.0, 0.0, 0.0, 0.0, 0.0, 1.745267440008314E9, 0.0, 2025-04-21 15:30:40.008
84.0, -24615.260912807098, 1294.098948728913, 9750.79205641652, 1872.2044673209748, 8736.559300012506, 14506.617427661113, -8688.279531989043, 8117.773606511785, 2627.1569880434263, -15733.34821860173, -15781.627986625193, 45123.969927307364, -5270.586046050316, 5067.319281973753, 10430.843881469236, -187500.02235174447, -0.006875, 0.9855, 0.016625, 192.0, 0.0, 0.0, 0.0, 0.0, 0.0, 0.0, 0.0, 0.0, 0.0, 1.745267440008511E9, 0.0, 2025-04-21 15:30:40.008
86.0, -24618.0101773751, 1292.1096434723906, 9743.147759812804, 1863.6437491945924, 8727.976230141669, 14500.671863636002, -8701.221192028665, 8109.346998852134, 2623.1560257859264, -15720.272448095377, -15778.78931507937, 45110.02243876725, -5272.530647817927, 5073.488363443418, 10431.223861124976, -187500.02235174447, -0.0084375, 0.98775, 0.0143125, 192.0, 127.5, 88.0, 15.0, 120.0, 0.0, 48.0, 0.0, 0.0, 0.0, 1.745267440008709E9, 0.0, 2025-04-21 15:30:40.008
88.0, -24607.884837136848, 1303.6654953557845, 9751.641422705821, 1868.0023393633771, 8738.0121634021, 14511.423052719005, -8683.742127864614, 8125.3284961376785, 2628.229871777281, -15709.34244505673, -15778.78931507937, 45127.747372120306, -5285.539363090917, 5075.120040788655, 10425.881794200159, -187500.02235174447, -0.0084375, 0.98775, 0.0143125, 192.0, 0.0, 0.0, 0.0, 0.0, 0.0, 0.0, 0.0, 0.0, 0.0, 1.745267440008923E9, 0.0, 2025-04-21 15:30:40.008
90.0, -24618.68072970876, 1297.2728964415667, 9745.718210425164, 1851.0150135773438, 8729.96553539819, 14500.023663046797, -8690.715872134671, 8113.638533787554, 2630.8897293674627, -15703.016901375879, -15772.709640587527, 45117.71143885988, -5284.533534590428, 5076.10351754469, 10430.441550069041, -187500.02235174447, -0.0084375, 0.98775, 0.0143125, 192.0, 0.0, 0.0, 0.0, 0.0, 0.0, 0.0, 0.0, 0.0, 0.0, 1.745267440067776E9, 0.0, 2025-04-21 15:30:40.067
92.0, -24619.910075653803, 1298.2787249420555, 9744.622974946855, 1850.5456269437823, 8725.808110929504, 14496.805011845234, -8692.1016802909, 8108.408225585012, 2612.3824849584685, -15730.509547055906, -15784.444306426563, 45131.815389611176, -5295.888220773723, 5062.33484296022, 10415.354122561708, -187500.02235174447, -0.0084375, 0.98775, 0.0143125, 192.0, 0.0, 0.0, 0.0, 0.0, 0.0, 0.0, 0.0, 0.0, 0.0, 1.745267440068016E9, 0.0, 2025-04-21 15:30:40.068
94.0, -24606.521380725073, 1307.2194227241782, 9747.126370325848, 1865.1636678175532, 8722.321238794475, 14513.814689375722, -8702.003503084601, 8121.886327491561, 2626.285270009669, -15715.131546870656, -15778.744611590459, 45119.79015109422, -5292.669569572159, 5075.164744277567, 10418.461015040995, -187500.02235174447, -0.0084375, 0.98775, 0.0143125, 192.0, 0.0, 0.0, 0.0, 0.0, 0.0, 0.0, 0.0, 0.0, 0.0, 1.745267440068225E9, 0.0, 2025-04-21 15:30:40.068
96.0, -24574.87131057636, 1338.0871818169574, 9773.926111927762, 1898.7583397338797, 8738.168625613287, 14553.086704383697, -8682.848058086403, 8147.143798726059, 2634.2648427802137, -15697.004282117401, -15760.751457303937, 45139.83966587063, -5281.694863044603, 5092.19677355251, 10434.040180926346, -187500.02235174447, -0.00821875, 0.9858750000000001, 0.01415625, 192.0, 127.5, 96.0, 15.0, 96.0, 0.0, 56.0, 0.0, 0.0, 0.0, 1.745267440068431E9, 0.0, 2025-04-21 15:30:40.068
98.0, -24579.028735045045, 1336.6343184273624, 9777.860018951897, 1904.5474415478043, 8741.096704136933, 14561.245091109884, -8676.209589983177, 8167.5285896692985, 2650.7604301882307, -15667.254110247388, -15738.958506460012, 45164.98537838285, -5268.194409393598, 5111.083997617245, 10453.64266081365, -187500.02235174447, -0.00821875, 0.9858750000000001, 0.01415625, 192.0, 0.0, 0.0, 0.0, 0.0, 0.0, 0.0, 0.0, 0.0, 0.0, 1.745267440068643E9, 0.0, 2025-04-21 15:30:40.068
100.0, -24611.59522671643, 1307.3535331909102, 9761.409135032789, 1879.2899703133073, 8732.1113028659, 14526.219907548417, -8695.029758814546, 8132.436350874466, 2639.1375230714707, -15694.210314060489, -15753.196567678044, 45158.19044806844, -5264.260502369464, 5101.718616690471, 10454.78259978087, -187500.02235174447, -0.00821875, 0.9858750000000001, 0.01415625, 192.0, 0.0, 0.0, 0.0, 0.0, 0.0, 0.0, 0.0, 0.0, 0.0, 1.745267440068831E9, 0.0, 2025-04-21 15:30:40.068
102.0, -24629.342511813942, 1281.7831375340388, 9747.014611603572, 1867.041214351799, 8729.563203997994, 14509.366692229116, -8698.695444905215, 8119.874670490583, 2611.331952969069, -15730.867174967192, -15780.800972080347, 45128.3508692206, -5294.345950406308, 5072.974273320946, 10431.000343680424, -187500.02235174447, -0.00821875, 0.9858750000000001, 0.01415625, 192.0, 0.0, 0.0, 0.0, 0.0, 0.0, 0.0, 0.0, 0.0, 0.0, 1.745267440069029E9, 0.0, 2025-04-21 15:30:40.069
104.0, -24632.717625226695, 1276.7539950315947, 9741.426675489745, 1864.8730951396342, 8734.078256377967, 14505.924523582999, -8694.023930314057, 8117.572440811688, 2616.89753733844, -15731.627134278671, -15784.1760854931, 45119.007840038284, -5295.888220773723, 5065.195866250499, 10432.699076259027, -187500.02235174447, -0.00821875, 0.9858750000000001, 0.01415625, 192.0, 0.0, 0.0, 0.0, 0.0, 0.0, 0.0, 0.0, 0.0, 0.0, 1.745267440127976E9, 0.0, 2025-04-21 15:30:40.127
106.0, -24634.081081638466, 1280.3079223999885, 9749.138027326826, 1863.5543422167711, 8739.666192491793, 14506.885648594576, -8687.00548255509, 8128.1448159390475, 2603.911173809907, -15740.098445427233, -15792.60269315275, 45121.42182843946, -5299.531555119938, 5054.8023050787815, 10426.39588432263, -187500.02235174447, -0.008109375, 0.9819375, 0.013078125, 192.0, 127.5, 96.0, 15.0, 72.0, 0.0, 48.0, 0.0, 0.0, 0.0, 1.745267440128232E9, 0.0, 2025-04-21 15:30:40.128
108.0, -24629.320160069485, 1289.0921579709243, 9748.065143592972, 1856.647653180081, 8740.761427970103, 14502.951741570443, -8700.081253061444, 8114.152623910025, 2610.1696622573927, -15742.199509406033, -15785.114858760222, 45118.873729571555, -5282.678339800637, 5055.294043456798, 10428.899279701625, -187500.02235174447, -0.008109375, 0.9819375, 0.013078125, 192.0, 0.0, 0.0, 0.0, 0.0, 0.0, 0.0, 0.0, 0.0, 0.0, 1.745267440128448E9, 0.0, 2025-04-21 15:30:40.128
110.0, -24620.02183437608, 1299.1727947202678, 9746.656983692286, 1862.5038102273716, 8745.142369883344, 14501.834154347678, -8696.348511737408, 8099.98161792536, 2618.2386420057587, -15727.53676504335, -15781.516227902917, 45136.01751756877, -5285.986397980023, 5052.52242714434, 10422.216108109487, -187500.02235174447, -0.008109375, 0.9819375, 0.013078125, 192.0, 0.0, 0.0, 0.0, 0.0, 0.0, 0.0, 0.0, 0.0, 0.0, 1.745267440128662E9, 0.0, 2025-04-21 15:30:40.128
112.0, -24615.953816885212, 1304.0901785004353, 9743.460684235179, 1860.9838916044107, 8742.527215782073, 14505.298674738251, -8697.488450704628, 8117.237164644857, 2626.8217118765965, -15725.748625486927, -15775.570663877807, 45128.64144189852, -5281.896028744702, 5066.916950573558, 10420.87500344217, -187500.02235174447, -0.008109375, 0.9819375, 0.013078125, 192.0, 0.0, 0.0, 0.0, 0.0, 0.0, 0.0, 0.0, 0.0, 0.0, 1.745267440128859E9, 0.0, 2025-04-21 15:30:40.128
114.0, -24617.563142485997, 1299.642181353829, 9740.197329544704, 1858.5699032032376, 8734.480587778162, 14502.035320047775, -8703.143442051822, 8108.609391285109, 2624.742999642253, -15713.768090458881, -15775.771829577903, 45148.60154969711, -5289.316807903863, 5061.798401093292, 10414.013017894391, -187500.02235174447, -0.008109375, 0.9819375, 0.013078125, 192.0, 0.0, 0.0, 0.0, 0.0, 0.0, 0.0, 0.0, 0.0, 0.0, 1.745267440129066E9, 0.0, 2025-04-21 15:30:40.129
116.0, -24615.9091133963, 1304.0231232670694, 9746.83579764793, 1857.2064467914638, 8739.800302958525, 14507.287979994773, -8687.340758721919, 8119.204118156925, 2623.4913019527557, -15717.277314338366, -15774.69894584405, 45127.21093025338, -5292.870735272257, 5063.921816816547, 10414.571811505773, -187500.02235174447, -0.008109375, 0.9819375, 0.013078125, 192.0, 0.0, 0.0, 0.0, 0.0, 0.0, 0.0, 0.0, 0.0, 0.0, 1.745267440129273E9, 0.0, 2025-04-21 15:30:40.129
118.0, -24610.812915660492, 1310.5274809035636, 9760.671527465765, 1864.8507433951788, 8753.054887420521, 14514.73111089839, -8667.581816623428, 8117.326571622679, 2637.0811625815827, -15721.367683573686, -15761.690230571061, 45147.57336945217, -5272.307130373375, 5071.43200295353, 10437.59410829474, -187500.02235174447, -0.006, 0.99, 0.012, 192.0, 127.5, 104.0, 15.0, 120.0, 0.0, 48.0, 0.0, 0.0, 0.0, 1.745267440129492E9, 0.0, 2025-04-21 15:30:40.129
120.0, -24605.87318013587, 1310.3710186923765, 9763.554902500498, 1867.4211940075393, 8743.868320449392, 14514.373482987105, -8682.490430175118, 8126.714304293908, 2632.0296683346833, -15710.594142746228, -15762.003154993434, 45122.96409880687, -5281.8513252557905, 5066.045232539801, 10438.599936795228, -187500.02235174447, -0.006, 0.99, 0.012, 192.0, 0.0, 0.0, 0.0, 0.0, 0.0, 0.0, 0.0, 0.0, 0.0, 1.745267440187608E9, 0.0, 2025-04-21 15:30:40.187
122.0, -24609.449459248717, 1302.0114662660917, 9753.563672728977, 1866.907103885067, 8739.77795121407, 14511.624218419101, -8686.111412776878, 8122.311010636212, 2635.136560813971, -15706.369663044175, -15763.456018383029, 45146.634596185046, -5286.813412524869, 5068.615683152161, 10438.01879143939, -187500.02235174447, -0.006, 0.99, 0.012, 192.0, 0.0, 0.0, 0.0, 0.0, 0.0, 0.0, 0.0, 0.0, 0.0, 1.745267440187852E9, 0.0, 2025-04-21 15:30:40.187
124.0, -24614.210380817698, 1301.9891145216363, 9751.082629094439, 1868.6952434414916, 8742.169587870787, 14510.976017829898, -8674.935540549224, 8138.583080599676, 2621.3455344850463, -15716.62911374916, -15774.40837316613, 45119.96896504986, -5297.721063819059, 5073.398956465597, 10438.845805984236, -187500.02235174447, -0.006, 0.99, 0.012, 192.0, 0.0, 0.0, 0.0, 0.0, 0.0, 0.0, 0.0, 0.0, 0.0, 1.745267440188045E9, 0.0, 2025-04-21 15:30:40.188
126.0, -24618.77013668658, 1300.1562714763013, 9751.663774450275, 1872.0033016208772, 8747.131675139866, 14512.63004691959, -8667.179485223232, 8137.398438143545, 2622.2843077521693, -15724.563983030795, -15774.40837316613, 45144.31001476169, -5297.274028929953, 5068.459220940974, 10445.39486710964, -187500.02235174447, -0.006, 0.99, 0.012, 192.0, 0.0, 0.0, 0.0, 0.0, 0.0, 0.0, 0.0, 0.0, 0.0, 1.745267440188251E9, 0.0, 2025-04-21 15:30:40.188
128.0, -24621.653511721317, 1293.1154719728795, 9752.714306439675, 1873.0091301213658, 8746.841102461947, 14514.820517876211, -8674.689671360216, 8129.620031073097, 2616.539909427155, -15722.73113998546, -15775.525960388895, 45119.79015109422, -5292.28958991642, 5067.6545581405835, 10447.361820621709, -187500.02235174447, -0.002, 0.988, 0.016, 192.0, 127.5, 120.0, 15.0, 112.0, 0.0, 64.0, 0.0, 0.0, 0.0, 1.745267440188465E9, 0.0, 2025-04-21 15:30:40.188
130.0, -24614.97034012918, 1296.6246958523627, 9748.065143592972, 1873.5679237327486, 8747.601061773428, 14515.267552765317, -8676.120183005356, 8131.877557263084, 2625.1229792979934, -15715.578581759763, -15773.380192921186, 45138.386802481036, -5291.417871882662, 5070.090898286212, 10446.959489221512, -187500.02235174447, -0.002, 0.988, 0.016, 192.0, 0.0, 0.0, 0.0, 0.0, 0.0, 0.0, 0.0, 0.0, 0.0, 1.745267440188679E9, 0.0, 2025-04-21 15:30:40.188
132.0, -24616.28909305204, 1299.5304226315527, 9734.072951563949, 1860.9391881155002, 8736.939279668246, 14508.53967768427, -8695.141517536822, 8120.724036779886, 2609.8790895794737, -15728.386131332652, -15782.432649425586, 45120.59481389461, -5306.52765113445, 5057.216293479954, 10426.105311644711, -187500.02235174447, -0.002, 0.988, 0.016, 192.0, 0.0, 0.0, 0.0, 0.0, 0.0, 0.0, 0.0, 0.0, 0.0, 1.745267440188887E9, 0.0, 2025-04-21 15:30:40.188
134.0, -24612.57870347246, 1305.2301174676559, 9737.224547532147, 1853.2501880228745, 8736.380486056863, 14504.091680537664, -8691.520534935062, 8120.500519335333, 2622.6642874079093, -15711.264695079888, -15773.491951643462, 45143.63946242803, -5293.9436190061115, 5059.920854559047, 10421.322038331276, -187500.02235174447, -0.002, 0.988, 0.016, 192.0, 0.0, 0.0, 0.0, 0.0, 0.0, 0.0, 0.0, 0.0, 0.0, 1.745267440247839E9, 0.0, 2025-04-21 15:30:40.247
136.0, -24599.122953310365, 1314.3049257165105, 9754.591852973921, 1859.7098421704582, 8755.625338032882, 14511.043073063263, -8663.804371810482, 8133.352772397134, 2622.731342641275, -15726.620343520683, -15769.111009730223, 45129.31199423218, -5298.86100278628, 5061.999566793391, 10423.043122654333, -187500.02235174447, -0.002, 0.988, 0.016, 192.0, 0.0, 0.0, 0.0, 0.0, 0.0, 0.0, 0.0, 0.0, 0.0, 1.745267440248081E9, 0.0, 2025-04-21 15:30:40.248
138.0, -24594.049107319013, 1326.196053766734, 9760.336251298935, 1868.1140980856537, 8760.319204368498, 14517.480375466392, -8666.106601489379, 8137.197272443447, 2638.1540463154374, -15705.788517688337, -15752.347201388742, 45149.65208168651, -5270.228418139031, 5078.67396815705, 10439.851634484725, -187500.02235174447, -0.002, 0.99, 0.014, 192.0, 127.5, 120.0, 15.0, 120.0, 0.0, 56.0, 0.0, 0.0, 0.0, 1.745267440248297E9, 0.0, 2025-04-21 15:30:40.248
140.0, -24601.626348689362, 1307.3982366798207, 9745.472341236156, 1858.3463857586844, 8748.763352485103, 14510.35016898515, -8690.402947712297, 8108.832908729662, 2622.776046130186, -15707.084918866745, -15766.093524228756, 45138.990299581325, -5282.879505500735, 5077.064642556267, 10429.435721568552, -187500.02235174447, -0.002, 0.99, 0.014, 192.0, 0.0, 0.0, 0.0, 0.0, 0.0, 0.0, 0.0, 0.0, 0.0, 1.74526744024853E9, 0.0, 2025-04-21 15:30:40.248
142.0, -24593.646775918816, 1316.5401001620412, 9768.204065347203, 1875.3784150336285, 8766.980024216178, 14520.386102245582, -8663.871427043847, 8138.963060255416, 2631.2473572787476, -15704.603875232206, -15761.690230571061, 45141.448991471414, -5278.342101376307, 5083.747814148404, 10437.59410829474, -187500.02235174447, -0.002, 0.99, 0.014, 192.0, 0.0, 0.0, 0.0, 0.0, 0.0, 0.0, 0.0, 0.0, 0.0, 1.745267440248727E9, 0.0, 2025-04-21 15:30:40.248
144.0, -24598.45240097671, 1309.5440041475301, 9768.293472325024, 1871.9585981319665, 8764.54368407055, 14522.442462735471, -8665.436049155718, 8149.580138871687, 2643.294947540158, -15708.738947956437, -15750.179082176577, 45130.56369192168, -5260.036022667411, 5080.462107713474, 10452.726239290982, -187500.02235174447, -0.002, 0.99, 0.014, 192.0, 0.0, 0.0, 0.0, 0.0, 0.0, 0.0, 0.0, 0.0, 0.0, 1.745267440248928E9, 0.0, 2025-04-21 15:30:40.248
146.0, -24592.328022995953, 1317.9929635516362, 9770.461591537189, 1882.7991941927903, 8758.754582256626, 14523.895326125066, -8672.834476570426, 8148.127275482092, 2640.098648083049, -15703.106308353701, -15751.989573477456, 45118.91843306046, -5255.990356921, 5092.6661601860715, 10448.635870055661, -187500.02235174447, -0.002, 0.99, 0.014, 192.0, 0.0, 0.0, 0.0, 0.0, 0.0, 0.0, 0.0, 0.0, 0.0, 1.745267440249125E9, 0.0, 2025-04-21 15:30:40.249
148.0, -24586.427162459753, 1319.937565319248, 9771.847399693419, 1895.2938193433072, 8753.68073626527, 14530.064407594731, -8664.47492414414, 8141.689973078964, 2641.193883561359, -15701.385224030642, -15746.73691353046, 45119.05254352719, -5264.32755760283, 5104.669046958572, 10449.976974722978, -187500.02235174447, -0.002, 0.99, 0.014, 192.0, 127.5, 120.0, 15.0, 120.0, 0.0, 56.0, 0.0, 0.0, 0.0, 1.745267440249329E9, 0.0, 2025-04-21 15:30:40.249
150.0, -24595.14434279732, 1307.8229198244715, 9765.633614734843, 1892.4998512863938, 8741.811959959503, 14528.723302927412, -8673.348566692897, 8142.025249245793, 2640.4339242498786, -15711.354102057709, -15753.464788611507, 45118.13612200453, -5277.515086831461, 5107.373608037664, 10445.30546013182, -187500.02235174447, -0.002, 0.99, 0.014, 192.0, 0.0, 0.0, 0.0, 0.0, 0.0, 0.0, 0.0, 0.0, 0.0, 1.745267440307402E9, 0.0, 2025-04-21 15:30:40.307
152.0, -24579.431066445242, 1312.8967658158263, 9774.328443327957, 1899.7641682343685, 8750.05975366351, 14531.763140173334, -8671.068688758456, 8141.868787034606, 2643.138485328971, -15704.358006043198, -15749.195605420544, 45111.56470913467, -5262.695880257593, 5106.837166170736, 10451.183968923566, -187500.02235174447, -0.002, 0.99, 0.014, 192.0, 0.0, 0.0, 0.0, 0.0, 0.0, 0.0, 0.0, 0.0, 0.0, 1.745267440307641E9, 0.0, 2025-04-21 15:30:40.307
154.0, -24597.334813753943, 1302.1902802217342, 9760.35860304339, 1885.4367000385166, 8736.604003501416, 14513.30059925325, -8690.380595967841, 8125.79788277124, 2648.122924342504, -15707.219029333477, -15747.07218969729, 45103.562784619666, -5261.690051757104, 5097.225916054955, 10442.489140330452, -187500.02235174447, -0.002, 0.99, 0.014, 192.0, 0.0, 0.0, 0.0, 0.0, 0.0, 0.0, 0.0, 0.0, 0.0, 1.745267440307844E9, 0.0, 2025-04-21 15:30:40.307
156.0, -24585.510740937083, 1306.481815157153, 9751.037925605528, 1882.1509936035866, 8734.391180800341, 14509.076119551197, -8689.777098867547, 8128.1448159390475, 2634.0189735912054, -15718.216087605488, -15754.02358222289, 45105.26151719827, -5270.071955927844, 5079.769203635359, 10426.753512233916, -187500.02235174447, -0.002, 0.99, 0.014, 192.0, 0.0, 0.0, 0.0, 0.0, 0.0, 0.0, 0.0, 0.0, 0.0, 1.745267440308046E9, 0.0, 2025-04-21 15:30:40.308
158.0, -24596.686613164737, 1304.3807511783543, 9744.667678435764, 1865.6107027066594, 8727.35038129692, 14494.860410077621, -8699.410700727785, 8112.185670397958, 2626.8217118765965, -15725.815680720292, -15757.890434013658, 45094.51032811527, -5274.050566440888, 5079.232761768432, 10416.359951062197, -187500.02235174447, -0.004, 0.988, 0.012, 192.0, 127.5, 112.0, 15.0, 112.0, 0.0, 48.0, 0.0, 0.0, 0.0, 1.745267440308248E9, 0.0, 2025-04-21 15:30:40.308
160.0, -24596.86542712038, 1295.2835911850443, 9745.382934258334, 1860.4698014819387, 8733.787683700048, 14485.651491362036, -8694.739186136627, 8108.855260474117, 2626.5981944320433, -15722.485270796451, -15762.606652093727, 45103.003991008285, -5272.7541652624805, 5068.459220940974, 10416.561116762296, -187500.02235174447, -0.004, 0.988, 0.012, 192.0, 0.0, 0.0, 0.0, 0.0, 0.0, 0.0, 0.0, 0.0, 0.0, 1.745267440308472E9, 0.0, 2025-04-21 15:30:40.308
162.0, -24611.617578460882, 1289.1815649487455, 9744.913547624774, 1855.2171415349414, 8733.340648810941, 14479.683575592468, -8700.774157139558, 8120.232298401868, 2609.8567378350185, -15739.45024483803, -15775.50360864444, 45078.97586571883, -5279.1467641766985, 5053.505903900374, 10406.949866646513, -187500.02235174447, -0.004, 0.988, 0.012, 192.0, 0.0, 0.0, 0.0, 0.0, 0.0, 0.0, 0.0, 0.0, 0.0, 1.745267440308682E9, 0.0, 2025-04-21 15:30:40.308
164.0, -24598.944139354724, 1299.642181353829, 9758.011669875583, 1869.5446097307934, 8748.293965851542, 14496.715604867411, -8689.374767467352, 8124.166205426002, 2629.459217722323, -15718.68547423905, -15759.320945658797, 45095.47145312685, -5267.389746593207, 5058.825619080737, 10422.037294153846, -187500.02235174447, -0.004, 0.988, 0.012, 192.0, 0.0, 0.0, 0.0, 0.0, 0.0, 0.0, 0.0, 0.0, 0.0, 1.745267440367175E9, 0.0, 2025-04-21 15:30:40.367
166.0, -24606.029642347057, 1294.5683353624745, 9753.921300640262, 1867.9352841300113, 8750.663250763804, 14492.11114550962, -8691.162907023778, 8111.716283764396, 2626.7323048987755, -15741.417198350096, -15760.885567770669, 45077.88063024052, -5270.831915239324, 5057.260996968866, 10425.25594535541, -187500.02235174447, -0.004, 0.988, 0.012, 192.0, 0.0, 0.0, 0.0, 0.0, 0.0, 0.0, 0.0, 0.0, 0.0, 1.745267440367419E9, 0.0, 2025-04-21 15:30:40.367
168.0, -24600.575816699962, 1301.2962104435219, 9760.872693165862, 1884.654388982581, 8764.051945692534, 14504.494011937859, -8671.515723647562, 8136.549071854243, 2624.7877031311637, -15733.437625579552, -15763.679535827583, 45102.221679952345, -5268.082650671322, 5068.19100000751, 10433.481387314963, -187500.02235174447, -0.002, 0.984, 0.014, 192.0, 127.5, 120.0, 15.0, 96.0, 0.0, 56.0, 0.0, 0.0, 0.0, 1.745267440367627E9, 0.0, 2025-04-21 15:30:40.367
170.0, -24602.810991145492, 1298.9939807646253, 9759.241015820626, 1884.9673134049551, 8760.095686923944, 14503.555238670737, -8682.378671452841, 8125.79788277124, 2625.547662442644, -15716.182078860054, -15760.326774159286, 45091.4928426138, -5262.673528513137, 5078.405747223585, 10443.517320575396, -187500.02235174447, -0.002, 0.984, 0.014, 192.0, 0.0, 0.0, 0.0, 0.0, 0.0, 0.0, 0.0, 0.0, 0.0, 1.74526744036784E9, 0.0, 2025-04-21 15:30:40.367
172.0, -24603.548598712518, 1299.8880505428376, 9759.889216409829, 1889.8176419517567, 8751.423210075285, 14503.890514837565, -8693.442784958219, 8108.810556985207, 2611.6672291358987, -15719.601895761716, -15768.015774251911, 45116.72796210384, -5267.8814849712235, 5077.645787912105, 10437.884680972658, -187500.02235174447, -0.002, 0.984, 0.014, 192.0, 0.0, 0.0, 0.0, 0.0, 0.0, 0.0, 0.0, 0.0, 0.0, 1.745267440368051E9, 0.0, 2025-04-21 15:30:40.368
174.0, -24584.214339758677, 1316.2718792285775, 9766.304167068502, 1905.2850491148292, 8747.869282706892, 14511.959494585932, -8690.134726778833, 8118.153586167525, 2626.2182147763033, -15710.482384023951, -15754.314154900809, 45092.856299025574, -5258.158476133165, 5083.0325583258345, 10439.426951340074, -187500.02235174447, -0.002, 0.984, 0.014, 192.0, 0.0, 0.0, 0.0, 0.0, 0.0, 0.0, 0.0, 0.0, 0.0, 1.745267440368253E9, 0.0, 2025-04-21 15:30:40.368
176.0, -24580.660412390283, 1319.4011234523207, 9761.498542010611, 1908.5037003163936, 8742.326050081974, 14521.481337723893, -8690.067671545467, 8132.101074707637, 2640.4562759943337, -15698.233628062444, -15742.333619872765, 45124.86399708557, -5263.902874458179, 5094.968389864968, 10449.060553200312, -187500.02235174447, -0.002, 0.984, 0.014, 192.0, 0.0, 0.0, 0.0, 0.0, 0.0, 0.0, 0.0, 0.0, 0.0, 1.745267440368452E9, 0.0, 2025-04-21 15:30:40.368
178.0, -24584.370801969864, 1319.0881990299463, 9753.675431451253, 1898.780691478335, 8740.001468658624, 14516.362788243627, -8681.663415630272, 8131.564632840709, 2639.6963166828536, -15693.539761726828, -15749.240308909453, 45089.5929443351, -5269.200237894087, 5100.623381212161, 10437.504701316919, -187500.02235174447, -0.002, 0.984, 0.014, 192.0, 0.0, 0.0, 15.0, 88.0, 0.0, 56.0, 0.0, 0.0, 0.0, 1.745267440368652E9, 0.0, 2025-04-21 15:30:40.368
180.0, -24593.847941618915, 1312.516786160086, 9745.159416813782, 1881.7933656923017, 8736.91692792379, 14511.557163185736, -8686.849020343903, 8120.969905968894, 2617.0539995496274, -15701.429927519552, -15763.41131489412, 45101.75229331879, -5275.302264130386, 5090.185116551533, 10431.380323336163, -187500.02235174447, -0.002, 0.984, 0.014, 192.0, 0.0, 0.0, 0.0, 0.0, 0.0, 0.0, 0.0, 0.0, 0.0, 1.745267440427386E9, 0.0, 2025-04-21 15:30:40.427
182.0, -24593.1550375408, 1305.6995041012174, 9738.45389347719, 1863.8002114057795, 8732.647744732827, 14489.026604774786, -8691.408776212786, 8111.895097720039, 2624.094799053049, -15708.448375278518, -15762.539596860363, 45077.00891220676, -5263.366432591251, 5076.304683244787, 10419.712712730494, -187500.02235174447, -0.002, 0.984, 0.014, 192.0, 0.0, 0.0, 0.0, 0.0, 0.0, 0.0, 0.0, 0.0, 0.0, 1.745267440427622E9, 0.0, 2025-04-21 15:30:40.427
184.0, -24592.35037474041, 1302.1679284772788, 9743.59479470191, 1857.3405572581958, 8735.128788367367, 14482.522247138293, -8703.858697874392, 8108.698798262931, 2629.906252611429, -15727.73793074345, -15764.327736416786, 45087.469528611844, -5283.214781667564, 5060.971386548446, 10411.755491704404, -187500.02235174447, -0.002, 0.984, 0.014, 192.0, 0.0, 0.0, 0.0, 0.0, 0.0, 0.0, 0.0, 0.0, 0.0, 1.745267440427845E9, 0.0, 2025-04-21 15:30:40.427
186.0, -24601.87221787837, 1292.9590097616924, 9739.862053377874, 1854.5018857123716, 8741.744904726136, 14482.097563993642, -8694.649779158804, 8111.492766319843, 2634.063677080116, -15727.268544109887, -15760.729105559481, 45067.53177255771, -5273.737642018515, 5056.366927190653, 10416.181137106554, -187500.02235174447, -0.002, 0.984, 0.014, 192.0, 0.0, 0.0, 0.0, 0.0, 0.0, 0.0, 0.0, 0.0, 0.0, 1.745267440428048E9, 0.0, 2025-04-21 15:30:40.428
188.0, -24610.63410170485, 1280.6879020557287, 9736.174015542749, 1846.2764437528187, 8743.600099515927, 14472.15103771103, -8690.067671545467, 8106.374216839578, 2623.5360054416665, -15732.789424990347, -15769.35687891923, 45064.87191496753, -5272.70946177357, 5056.8586655686695, 10419.39978830812, -187500.02235174447, -0.002, 0.983, 0.015, 192.0, 127.5, 120.0, 15.0, 88.0, 0.0, 64.0, 0.0, 0.0, 0.0, 1.745267440428243E9, 0.0, 2025-04-21 15:30:40.428
190.0, -24620.49122100964, 1276.2622566535779, 9734.318820752958, 1842.4766471954165, 8742.102532637422, 14469.021793487287, -8696.549677437506, 8092.627893999565, 2605.095816266038, -15751.676649055082, -15787.618254139217, 45040.55321700015, -5287.863944514268, 5032.0258774788235, 10407.15103234661, -187500.02235174447, -0.002, 0.983, 0.015, 192.0, 0.0, 0.0, 0.0, 0.0, 0.0, 0.0, 0.0, 0.0, 0.0, 1.745267440428465E9, 0.0, 2025-04-21 15:30:40.428
192.0, -24624.223962333675, 1275.5022973420976, 9744.511216224577, 1855.1500863015756, 8747.645765262338, 14481.225845959885, -8689.19595351171, 8112.677408775975, 2610.7955111021415, -15755.476445612485, -15781.002137780446, 45046.47642928081, -5277.716252531559, 5042.777066561826, 10422.976067420968, -187500.02235174447, -0.002, 0.983, 0.015, 192.0, 0.0, 0.0, 0.0, 0.0, 0.0, 0.0, 0.0, 0.0, 0.0, 1.745267440428663E9, 0.0, 2025-04-21 15:30:40.428
194.0, -24618.099584352924, 1273.4682885966645, 9753.317803539969, 1868.203505063475, 8750.216215874698, 14487.77490708529, -8696.773194882058, 8109.995199441338, 2606.5263279111778, -15751.430779866074, -15782.455001170041, 45050.34328107158, -5285.0476247129, 5049.99668002089, 10426.597050022729, -187500.02235174447, -0.002, 0.983, 0.015, 192.0, 0.0, 0.0, 0.0, 0.0, 0.0, 0.0, 0.0, 0.0, 0.0, 1.745267440488155E9, 0.0, 2025-04-21 15:30:40.488
196.0, -24618.34545354193, 1278.0950996989131, 9763.21962633367, 1879.6252464801369, 8753.59132928745, 14494.167505999507, -8685.574970909951, 8113.415016343, 2622.5301769411776, -15735.02459943588, -15766.115875973212, 45064.558990545156, -5264.528723302928, 5066.827543595737, 10439.82928274027, -187500.02235174447, -0.002, 0.983, 0.015, 192.0, 0.0, 0.0, 0.0, 0.0, 0.0, 0.0, 0.0, 0.0, 0.0, 1.745267440488435E9, 0.0, 2025-04-21 15:30:40.488
198.0, -24613.763345928593, 1282.6101520788852, 9759.241015820626, 1884.7437959604022, 8751.11028565291, 14497.877895579088, -8684.882066831835, 8121.148719924537, 2625.8829386094735, -15732.677666268071, -15765.132399217178, 45074.34905461658, -5263.411136080163, 5064.3688517056535, 10447.183006666066, -187500.02235174447, -0.002, 0.983, 0.015, 192.0, 0.0, 0.0, 15.0, 112.0, 0.0, 40.0, 0.0, 0.0, 0.0, 1.745267440488638E9, 0.0, 2025-04-21 15:30:40.488
200.0, -24606.05199409151, 1298.1446144753236, 9760.917396654773, 1894.3773978206395, 8754.172474643288, 14510.73014864089, -8677.550694650496, 8122.378065869578, 2625.0782758090827, -15721.322980084775, -15766.272338184399, 45075.6901592839, -5258.47140055554, 5072.594293665206, 10442.869119986191, -187500.02235174447, -0.002, 0.983, 0.015, 192.0, 0.0, 0.0, 0.0, 0.0, 0.0, 0.0, 0.0, 0.0, 0.0, 1.745267440488853E9, 0.0, 2025-04-21 15:30:40.488
202.0, -24593.57972068545, 1312.4050274378094, 9767.667623480276, 1909.9342119615333, 8758.888692723358, 14513.054730064241, -8672.700366103694, 8122.17690016948, 2628.3863339884683, -15706.883753166647, -15759.097428214245, 45093.37038914805, -5257.264406354953, 5087.81583163927, 10447.45122759953, -187500.02235174447, -0.002, 0.983, 0.015, 192.0, 0.0, 0.0, 0.0, 0.0, 0.0, 0.0, 0.0, 0.0, 0.0, 1.745267440489055E9, 0.0, 2025-04-21 15:30:40.489
204.0, -24587.477694449153, 1320.7869316085496, 9770.238074092636, 1909.777749750346, 8751.892596708847, 14507.8244218617, -8684.680901131738, 8129.329458395178, 2639.0481160936497, -15683.146200555111, -15744.568794318295, 45096.76785430525, -5246.759086460958, 5097.807061410793, 10450.424009612085, -187500.02235174447, -0.002, 0.983, 0.015, 192.0, 0.0, 0.0, 0.0, 0.0, 0.0, 0.0, 0.0, 0.0, 0.0, 1.745267440489258E9, 0.0, 2025-04-21 15:30:40.489
206.0, -24574.178406498242, 1328.0065450676138, 9765.186579845737, 1902.1558048910863, 8742.035477404055, 14501.878857836587, -8688.346587222408, 8122.400417614033, 2640.3668690165127, -15682.363889499175, -15742.64654429514, 45118.56080514918, -5261.7124035015595, 5088.374625250653, 10440.812759496303, -187500.02235174447, -0.002, 0.983, 0.015, 192.0, 0.0, 0.0, 0.0, 0.0, 0.0, 0.0, 0.0, 0.0, 0.0, 1.745267440489469E9, 0.0, 2025-04-21 15:30:40.489
208.0, -24574.82660708745, 1327.4477514562311, 9756.4023442748, 1896.4561100549831, 8740.962593670201, 14497.386157201072, -8689.397119211808, 8116.3654466111, 2641.842084150563, -15686.566017456773, -15741.998343705935, 45110.02243876725, -5265.959234948067, 5087.6146659391725, 10433.615497781695, -187500.02235174447, -0.002, 0.983, 0.015, 192.0, 0.0, 0.0, 15.0, 104.0, 0.0, 32.0, 0.0, 0.0, 0.0, 1.745267440489675E9, 0.0, 2025-04-21 15:30:40.489
210.0, -24589.757572383594, 1318.775274607572, 9744.421809246756, 1882.7321389594244, 8737.229852346165, 14485.070346006198, -8690.201782012198, 8095.064234145193, 2638.0199358487052, -15688.600026202206, -15750.268489154398, 45116.95147954839, -5274.89993273019, 5081.870267614158, 10426.73116048946, -187500.02235174447, -0.002, 0.983, 0.015, 192.0, 0.0, 0.0, 0.0, 0.0, 0.0, 0.0, 0.0, 0.0, 0.0, 1.745267440548066E9, 0.0, 2025-04-21 15:30:40.548
212.0, -24593.311499751988, 1315.9589548062033, 9744.332402268936, 1876.294836556296, 8736.089913378944, 14481.225845959885, -8693.755709380594, 8106.240106372847, 2614.483548937267, -15709.431852034551, -15764.21597769451, 45079.8922872415, -5274.408194352173, 5053.885883556114, 10408.983875391947, -187500.02235174447, -0.002, 0.983, 0.015, 192.0, 0.0, 0.0, 0.0, 0.0, 0.0, 0.0, 0.0, 0.0, 0.0, 1.745267440548316E9, 0.0, 2025-04-21 15:30:40.548
214.0, -24603.079212078956, 1303.0172947665806, 9739.079742321937, 1864.716632928447, 8732.15600635481, 14469.804104543222, -8704.573953696961, 8114.353789610123, 2634.3095462691244, -15712.985779402947, -15761.578471848783, 45092.9457060034, -5277.112755431265, 5055.204636478977, 10413.163651605088, -187500.02235174447, -0.002, 0.983, 0.015, 192.0, 0.0, 0.0, 0.0, 0.0, 0.0, 0.0, 0.0, 0.0, 0.0, 1.745267440548519E9, 0.0, 2025-04-21 15:30:40.548
216.0, -24602.185142300743, 1297.809338308494, 9750.836759905429, 1868.1811533190196, 8748.942166440745, 14486.947892540444, -8673.28151145953, 8142.271118434802, 2620.6079269180213, -15728.743759243938, -15771.033259753378, 45057.54054278619, -5274.564656563361, 5054.869360312147, 10418.215145851987, -187500.02235174447, -0.002, 0.983, 0.015, 192.0, 0.0, 0.0, 0.0, 0.0, 0.0, 0.0, 0.0, 0.0, 0.0, 1.745267440548726E9, 0.0, 2025-04-21 15:30:40.548
218.0, -24611.952854627714, 1286.231134680645, 9754.591852973921, 1867.6670631965476, 8745.499997794628, 14486.098526251142, -8693.822764613958, 8128.055408961226, 2613.0753890365827, -15733.549384301828, -15775.056573755333, 45070.66101678146, -5276.844534497802, 5052.544778888796, 10430.843881469236, -187500.02235174447, -0.002, 0.9855, 0.0135, 192.0, 127.5, 120.0, 15.0, 112.0, 0.0, 48.0, 0.0, 0.0, 0.0, 1.745267440548929E9, 0.0, 2025-04-21 15:30:40.548
220.0, -24614.836229662447, 1283.8842015128378, 9760.73858269913, 1869.4552027529721, 8750.39502983034, 14486.590264629158, -8691.207610512687, 8120.969905968894, 2619.3785809729793, -15734.644619780138, -15768.865140541213, 45048.80101070416, -5263.142915146699, 5061.261959226365, 10431.223861124976, -187500.02235174447, -0.002, 0.9855, 0.0135, 192.0, 0.0, 0.0, 0.0, 0.0, 0.0, 0.0, 0.0, 0.0, 0.0, 1.745267440549137E9, 0.0, 2025-04-21 15:30:40.549
222.0, -24615.48443025165, 1281.6266753228517, 9763.689012967232, 1869.164630075053, 8756.430000833274, 14490.68063386448, -8680.970511552157, 8122.735693780863, 2621.971383329795, -15739.651410538127, -15768.574567863294, 45068.895228969486, -5262.85234246878, 5065.061755783768, 10436.96825944999, -187500.02235174447, -0.002, 0.9855, 0.0135, 192.0, 0.0, 0.0, 0.0, 0.0, 0.0, 0.0, 0.0, 0.0, 0.0, 1.745267440549349E9, 0.0, 2025-04-21 15:30:40.549
224.0, -24625.676825723272, 1275.0105589640807, 9765.857132179395, 1865.1860195620084, 8763.336689869964, 14490.01008153082, -8671.00163352509, 8125.708475793419, 2622.5972321745435, -15734.73402675796, -15768.485160885473, 45034.67470820841, -5253.7328307310145, 5072.482534942929, 10449.328774133775, -187500.02235174447, -0.002, 0.9855, 0.0135, 192.0, 0.0, 0.0, 0.0, 0.0, 0.0, 0.0, 0.0, 0.0, 0.0, 1.74526744060832E9, 0.0, 2025-04-21 15:30:40.608
226.0, -24627.44261353524, 1271.7919077625165, 9755.195350074215, 1859.8663043816455, 8759.872169479391, 14488.221941974396, -8685.776136610048, 8117.684199533964, 2617.5680896720996, -15744.524090829384, -15782.007966280935, 45046.96816765883, -5261.600644779282, 5057.1492382465885, 10447.048896199334, -187500.02235174447, -0.002, 0.9855, 0.0135, 192.0, 0.0, 0.0, 0.0, 0.0, 0.0, 0.0, 0.0, 0.0, 0.0, 1.745267440608563E9, 0.0, 2025-04-21 15:30:40.608
228.0, -24628.381386802364, 1271.0095967065809, 9750.099152338404, 1856.6029496911706, 8758.441657834252, 14483.013985516309, -8681.037566785522, 8125.082626948671, 2614.908232081918, -15744.769960018393, -15784.55606514884, 45030.4278767619, -5259.767801733948, 5055.875188812636, 10443.740838019949, -187500.02235174447, -0.003, 0.98475, 0.01175, 192.0, 127.5, 112.0, 15.0, 96.0, 0.0, 40.0, 0.0, 0.0, 0.0, 1.745267440608772E9, 0.0, 2025-04-21 15:30:40.608
230.0, -24615.573837229473, 1283.392463134821, 9746.366411014367, 1860.8944846265895, 8753.501922309628, 14490.278302464283, -8687.072537788456, 8115.247859388335, 2618.70802863932, -15740.143148916144, -15781.158599991633, 45049.47156303783, -5261.555941290372, 5060.546703403796, 10436.320058860787, -187500.02235174447, -0.003, 0.98475, 0.01175, 192.0, 0.0, 0.0, 0.0, 0.0, 0.0, 0.0, 0.0, 0.0, 0.0, 1.745267440609015E9, 0.0, 2025-04-21 15:30:40.609
232.0, -24610.54469472703, 1292.1990504502119, 9740.107922566882, 1866.3706620181397, 8748.316317595998, 14487.216113473907, -8694.269799503065, 8107.17887963997, 2609.812034346108, -15724.25105860842, -15776.576492378295, 45038.608615232544, -5273.827048996335, 5054.3329184452205, 10424.026599410368, -187500.02235174447, -0.003, 0.98475, 0.01175, 192.0, 0.0, 0.0, 0.0, 0.0, 0.0, 0.0, 0.0, 0.0, 0.0, 1.745267440609206E9, 0.0, 2025-04-21 15:30:40.609
234.0, -24596.64190967583, 1306.97355353517, 9749.473303493656, 1875.1548975890755, 8751.333803097463, 14488.82543907469, -8688.90538083379, 8103.26732436029, 2624.810054875619, -15713.410462547597, -15761.332602659775, 45069.14109815849, -5265.020461680944, 5074.315377988265, 10425.59122152224, -187500.02235174447, -0.003, 0.98475, 0.01175, 192.0, 0.0, 0.0, 0.0, 0.0, 0.0, 0.0, 0.0, 0.0, 0.0, 1.745267440609427E9, 0.0, 2025-04-21 15:30:40.609
236.0, -24597.848903876413, 1306.3477046904213, 9738.588003943922, 1879.4464325244944, 8779.094669710956, 14488.601921630136, -8708.396101998818, 8109.279943618768, 2627.849892121541, -15714.706863726005, -15763.83599803877, 45077.3888918625, -5275.436374597118, 5074.561247177273, 10416.427006295564, -187500.02235174447, -0.003, 0.98475, 0.01175, 192.0, 0.0, 0.0, 0.0, 0.0, 0.0, 0.0, 0.0, 0.0, 0.0, 1.745267440609622E9, 0.0, 2025-04-21 15:30:40.609
238.0, -24596.9548340982, 1306.7500360906167, 9745.897024380807, 1888.9682756624552, 8825.65335341136, 14496.20151474494, -8696.19204952622, 8119.092359434648, 2617.813958861108, -15702.234590319944, -15762.494893371451, 45092.47631936983, -5273.134144918221, 5089.469860728963, 10410.995532392924, -187500.02235174447, -0.003, 0.98475, 0.01175, 192.0, 0.0, 0.0, 0.0, 0.0, 0.0, 0.0, 0.0, 0.0, 0.0, 1.745267440609833E9, 0.0, 2025-04-21 15:30:40.609
240.0, -24605.359090013397, 1296.6917510857286, 9742.365448756867, 1890.6670082410585, 8764.476628837185, 14494.949817055443, -8690.894686090312, 8127.295449649746, 2617.4339792053675, -15711.689378224539, -15759.16448344761, 45080.696950041885, -5273.491772829506, 5080.439755969019, 10421.724369731472, -187500.02235174447, -0.004, 0.98, 0.012, 192.0, 127.5, 112.0, 15.0, 80.0, 0.0, 48.0, 0.0, 0.0, 0.0, 1.745267440667931E9, 0.0, 2025-04-21 15:30:40.667
242.0, -24616.78083143006, 1291.4614428831867, 9740.06321907797, 1885.2802378273295, 8754.999489188134, 14486.858485562621, -8687.363110466375, 8123.070969947693, 2603.6876563653536, -15721.25592485141, -15771.569701620307, 45078.10414768507, -5286.008749724478, 5068.4815726854295, 10421.411445309097, -187500.02235174447, -0.004, 0.98, 0.012, 192.0, 0.0, 0.0, 0.0, 0.0, 0.0, 0.0, 0.0, 0.0, 0.0, 1.745267440668186E9, 0.0, 2025-04-21 15:30:40.668
244.0, -24614.389194773343, 1290.0756347269578, 9742.700724923698, 1895.9196681880558, 8762.800248003035, 14497.609674645624, -8672.074517258945, 8129.150644439536, 2605.4087406884123, -15724.92161094208, -15775.704774344538, 45067.17414464643, -5291.7084445605815, 5059.205598736477, 10422.909012187602, -187500.02235174447, -0.004, 0.98, 0.012, 192.0, 0.0, 0.0, 0.0, 0.0, 0.0, 0.0, 0.0, 0.0, 0.0, 1.745267440668407E9, 0.0, 2025-04-21 15:30:40.668
246.0, -24619.77596518707, 1283.2807044125443, 9752.31197503948, 1890.7340634744244, 8764.633091048372, 14504.762232871322, -8674.935540549224, 8129.575327584187, 2600.4019499304236, -15733.30351511282, -15771.636756853672, 45064.558990545156, -5282.387767122718, 5069.599159908194, 10441.013925196401, -187500.02235174447, -0.004, 0.98, 0.012, 192.0, 0.0, 0.0, 0.0, 0.0, 0.0, 0.0, 0.0, 0.0, 0.0, 1.745267440668605E9, 0.0, 2025-04-21 15:30:40.668
248.0, -24624.626293733872, 1275.9269804867483, 9748.199254059704, 1880.943999403, 8759.849817734936, 14504.516363682314, -8683.160982508776, 8139.790074800262, 2597.4291679178677, -15735.784558747358, -15779.772791835403, 45068.87287722503, -5277.783307764925, 5070.515581430863, 10446.78067526587, -187500.02235174447, -0.004, 0.98, 0.012, 192.0, 0.0, 0.0, 0.0, 0.0, 0.0, 0.0, 0.0, 0.0, 0.0, 1.745267440668803E9, 0.0, 2025-04-21 15:30:40.668
250.0, -24599.659395177296, 1299.3963121648208, 9762.102039110905, 1892.7904239643126, 8774.423155119795, 14526.935163370987, -8665.1454764778, 8155.302185452246, 2609.3426477125463, -15719.154860872612, -15771.92732953159, 45061.7873742327, -5269.714328016559, 5071.543761675806, 10451.809817768315, -187500.02235174447, 0.002, 0.982, 0.01, 192.0, 0.0, 8.0, 15.0, 88.0, 0.0, 40.0, 0.0, 0.0, 0.0, 1.745267440669008E9, 0.0, 2025-04-21 15:30:40.669
