%OpenBCI Raw EXG Data
%Number of channels = 16
%Sample Rate = 125 Hz
%Board = OpenBCI_GUI$BoardCytonSerialDaisy
Sample Index, EXG Channel 0, EXG Channel 1, EXG Channel 2, EXG Channel 3, EXG Channel 4, EXG Channel 5, EXG Channel 6, EXG Channel 7, EXG Channel 8, EXG Channel 9, EXG Channel 10, EXG Channel 11, EXG Channel 12, EXG Channel 13, EXG Channel 14, EXG Channel 15, Accel Channel 0, Accel Channel 1, Accel Channel 2, Not Used, Digital Channel 0 (D11), Digital Channel 1 (D12), Digital Channel 2 (D13), Digital Channel 3 (D17), Not Used, Digital Channel 4 (D18), Analog Channel 0, Analog Channel 1, Analog Channel 2, Timestamp, Marker Channel, Timestamp (Formatted)
0.0, 14282.54118949666, 23379.656479317724, -7608.7796817755325, 2814.9116414680057, 8862.936063162811, 9351.746362655922, 3976.9117804660536, 18926.473727997985, 0.0, 0.0, 0.0, 0.0, 0.0, 0.0, 0.0, 0.0, 0.0, 0.0, 0.0, 192.0, 0.0, 0.0, 0.0, 0.0, 0.0, 0.0, 0.0, 0.0, 0.0, 1.741985473079511E9, 0.0, 2025-03-14 15:51:13.079
252.0, 14281.0212708737, 23379.030630472975, -7635.601775121901, 2806.5520890417206, 8859.762115450158, 9345.286708508338, 3981.069204934741, 18929.51356524391, 47849.07225955394, -1793.235754160375, 20934.487394629406, 51443.03160226722, 9317.101158750196, -2.212822701075399, 21641.182499072853, -15407.99622631028, 0.0, 0.0, 0.0, 192.0, 0.0, 0.0, 0.0, 0.0, 0.0, 0.0, 0.0, 0.0, 0.0, 1.741985473079736E9, 0.0, 2025-03-14 15:51:13.079
254.0, 14279.367241784006, 23373.643860059245, -7616.513385357069, 2813.1011501671255, 8860.164446850355, 9347.678345165055, 3980.331597367716, 18926.496079742443, 47847.82056186445, -1799.0695594632102, 20916.404833365064, 51414.98016297581, 9313.480176148436, -0.6482005892039048, 21639.86374614999, -15399.279045972711, 0.0, 0.0, 0.0, 192.0, 0.0, 0.0, 0.0, 0.0, 0.0, 0.0, 0.0, 0.0, 0.0, 1.741985473079951E9, 0.0, 2025-03-14 15:51:13.079
0.0, 14284.552846497638, 23376.43782811616, -7631.1984814642055, 2817.4597403359107, 8862.690193973804, 9353.80272314581, 3981.7621090128555, 18930.5193937444, 47850.81569562146, -1795.9403152394673, 20943.025761011337, 51455.54857916219, 9318.5987256287, -0.49173837801675535, 21645.786958430643, -15391.925322046915, 0.0, 0.0, 0.0, 192.0, 0.0, 0.0, 0.0, 0.0, 0.0, 0.0, 0.0, 0.0, 0.0, 1.741985473080154E9, 0.0, 2025-03-14 15:51:13.080
2.0, 14276.617977216003, 23366.558357066915, -7617.31804815746, 2812.7211705113855, 8855.85056017048, 9339.296440994316, 3970.0944984071853, 18921.422233751087, 47848.08878279791, -1794.330989638685, 20912.202705407468, 51414.15314843097, 9314.709522093479, -0.29057267791899183, 21643.52943224066, -15395.725118604318, 0.128, 0.972, 0.132, 192.0, 2.0, 0.0, 15.0, 48.0, 2.0, 16.0, 0.0, 0.0, 0.0, 1.741985473080353E9, 0.0, 2025-03-14 15:51:13.080
4.0, 14276.595625471547, 23365.99956345553, -7637.6581356117895, 2808.1167111535924, 8854.621214225437, 9340.61519391718, 3975.5706757987355, 18928.910068143614, 47841.338555972405, -1803.1599286985313, 20954.76042685037, 51464.8469048556, 9307.087577234219, -9.164215226675896, 21633.314685024583, -15407.19156350989, 0.128, 0.972, 0.132, 192.0, 0.0, 0.0, 0.0, 0.0, 0.0, 0.0, 0.0, 0.0, 0.0, 1.741985473080566E9, 0.0, 2025-03-14 15:51:13.080
6.0, 14278.674337705892, 23364.72551402158, -7623.241260438116, 2809.636629776553, 8857.102257859977, 9343.476217207459, 3978.610513044657, 18933.201603079033, 47845.540683930005, -1800.7459402973582, 20900.42333607952, 51397.009360433745, 9307.55696386778, -3.911555279678736, 21634.588734458535, -15405.537534420197, 0.128, 0.972, 0.132, 192.0, 0.0, 0.0, 0.0, 0.0, 0.0, 0.0, 0.0, 0.0, 0.0, 1.741985473080781E9, 0.0, 2025-03-14 15:51:13.080
8.0, 14272.639366702959, 23357.081217417865, -7643.715458359177, 2801.9476296839275, 8853.168350835842, 9344.951432341508, 3983.282027635816, 18928.574791976785, 47842.63495715082, -1799.7624635413247, 20958.0461332853, 51456.12972451803, 9304.047739988297, -6.146729725209442, 21631.66065593489, -15408.555019921663, 0.128, 0.972, 0.132, 192.0, 0.0, 0.0, 0.0, 0.0, 0.0, 0.0, 0.0, 0.0, 0.0, 1.741985473080919E9, 0.0, 2025-03-14 15:51:13.080
10.0, 14269.420715501396, 23352.521461548982, -7628.98565876313, 2801.902926195017, 8854.241234569698, 9332.65797289109, 3982.522068324336, 18931.70403620053, 47839.259843738066, -1803.4057978875398, 20894.65658601005, 51381.78782245968, 9298.83978353021, -6.347895425307206, 21631.705359423802, -15415.461708958353, 0.128, 0.972, 0.132, 192.0, 0.0, 0.0, 0.0, 0.0, 0.0, 0.0, 0.0, 0.0, 0.0, 1.741985473081067E9, 0.0, 2025-03-14 15:51:13.081
0.0, 7097.751748293847, 11646.421151926656, -3800.9588481138767, 1407.064665206035, 4402.019608261538, 4638.456361109777, 1959.3315672077617, 9419.472148355502, 23922.535648648223, -900.9541155045171, 10476.821419813803, 25726.366129680413, 4650.414544393367, -3.7550930684915866, 10818.66899951327, -7707.2167643567045, 0.106, 0.968, 0.15, 192.0, 1.5, 40.0, 15.0, 32.0, 2.0, 88.0, 0.0, 0.0, 0.0, 1.741985473249677E9, 0.0, 2025-03-14 15:51:13.249
2.0, 14185.176990649343, 23279.65477462468, -7587.433765820714, 2808.1390628980475, 8803.905106056345, 9268.933149449009, 3912.3822942235824, 18832.93167745253, 47790.19776465867, -1868.8070021637682, 20946.624391868638, 51271.28079787264, 9329.439321689526, -27.49264568002769, 21604.65974863288, -15440.361552281565, 0.106, 0.968, 0.15, 192.0, 0.0, 0.0, 0.0, 0.0, 0.0, 0.0, 0.0, 0.0, 0.0, 1.741985473249863E9, 0.0, 2025-03-14 15:51:13.249
4.0, 14183.679423770836, 23276.927861801134, -7597.737920014611, 2801.925277939472, 8803.9274578008, 9267.301472103773, 3920.451273971948, 18841.693561279008, 47784.65453203375, -1876.5854092342151, 21010.21510484399, 51344.52746445268, 9320.051589018296, -36.63450916224828, 21600.9493590533, -15455.985421655825, 0.106, 0.968, 0.15, 192.0, 0.0, 0.0, 0.0, 0.0, 0.0, 0.0, 0.0, 0.0, 0.0, 1.741985473250002E9, 0.0, 2025-03-14 15:51:13.250
6.0, 14181.80187723659, 23273.955079788575, -7591.255914122572, 2802.8864029510505, 8804.106271756444, 9271.570655294736, 3920.3395152496714, 18840.374808356144, 47785.79447100097, -1876.294836556296, 20944.791548823305, 51266.81044898158, 9321.303286707795, -35.96395682858906, 21601.865780575965, -15447.58116574063, 0.106, 0.968, 0.15, 192.0, 0.0, 0.0, 0.0, 0.0, 0.0, 0.0, 0.0, 0.0, 0.0, 1.741985473250147E9, 0.0, 2025-03-14 15:51:13.250
8.0, 14174.269339355153, 23264.36618141725, -7596.0391874360075, 2798.930144182461, 8800.84291706597, 9272.442373328493, 3914.908041347032, 18835.502128064887, 47783.58164829989, -1880.6534267250809, 21013.76903221238, 51337.710182393814, 9318.7998913288, -38.288538251941, 21591.472219404248, -15456.544215267208, 0.10200000000000001, 0.966, 0.156, 192.0, 1.5, 24.0, 15.0, 24.0, 2.0, 112.0, 0.0, 0.0, 0.0, 1.741985473250292E9, 0.0, 2025-03-14 15:51:13.250
10.0, 14177.175066134343, 23265.819044806845, -7591.9935216895965, 2794.8397749471396, 8804.866231067925, 9263.099344146174, 3921.3453437501603, 18849.53902358282, 47778.82072673091, -1882.8662494261564, 20948.054903513777, 51268.19625713781, 9315.156556982583, -41.23896852004153, 21598.356556696483, -15454.711372221873, 0.10200000000000001, 0.966, 0.156, 192.0, 0.0, 0.0, 0.0, 0.0, 0.0, 0.0, 0.0, 0.0, 0.0, 1.741985473250447E9, 0.0, 2025-03-14 15:51:13.250
12.0, 14184.66290052687, 23272.211643721064, -7587.076137909429, 2806.350923341623, 8811.169423004321, 9275.97394895243, 3917.5902506816687, 18834.92098270905, 47787.56025881294, -1881.0334063808211, 21015.73598572445, 51330.9152520794, 9318.41991167306, -39.40612547470635, 21600.65878637538, -15459.025258901747, 0.10200000000000001, 0.966, 0.156, 192.0, 0.0, 0.0, 0.0, 0.0, 0.0, 0.0, 0.0, 0.0, 0.0, 1.741985473250585E9, 0.0, 2025-03-14 15:51:13.250
14.0, 14190.541409318615, 23277.151379245686, -7586.07030940894, 2812.3635426001006, 8811.12471951541, 9275.16928615204, 3920.741846649867, 18841.559450812274, 47790.64479954777, -1873.0314818658212, 20957.755560607384, 51275.48292583024, 9325.684228621034, -32.968823071577916, 21607.61017890098, -15432.2925725332, 0.10200000000000001, 0.966, 0.156, 192.0, 0.0, 0.0, 0.0, 0.0, 0.0, 0.0, 0.0, 0.0, 0.0, 1.741985473250729E9, 0.0, 2025-03-14 15:51:13.250
16.0, 14183.277092370641, 23265.215547706553, -7586.115012897852, 2801.9699814283827, 8801.111137999433, 9259.50071328887, 3904.045093541753, 18828.77425298384, 47784.587476800385, -1881.1451651030977, 21017.81469795879, 51339.945356839344, 9309.233344701928, -40.21078827509741, 21602.715146865266, -15452.431494287432, 0.10200000000000001, 0.966, 0.156, 192.0, 0.0, 0.0, 0.0, 0.0, 0.0, 0.0, 0.0, 0.0, 0.0, 1.741985473310726E9, 0.0, 2025-03-14 15:51:13.310
18.0, 14190.004967451689, 23270.311745442363, -7593.334626356916, 2805.389798330045, 8804.396844434363, 9268.128486648618, 3910.4153407115155, 18844.040494446814, 47782.57581979941, -1880.5640197472596, 20954.425150683543, 51282.0543387001, 9307.758129567877, -42.96005284310017, 21601.955187553787, -15457.72885772334, 0.094, 0.96, 0.162, 192.0, 1.0, 120.0, 15.0, 0.0, 2.5, 8.0, 0.0, 0.0, 0.0, 1.741985473310896E9, 0.0, 2025-03-14 15:51:13.310
20.0, 14191.100202929998, 23267.383666918715, -7582.516382040547, 2808.7425599983408, 8806.140280501877, 9265.245111613884, 3906.6378958985683, 18846.946221226004, 47789.14723266927, -1882.1286418591312, 21010.39391879963, 51326.15433051042, 9310.954429024987, -41.484837709049906, 21604.436231188327, -15459.695811235406, 0.094, 0.96, 0.162, 192.0, 0.0, 0.0, 0.0, 0.0, 0.0, 0.0, 0.0, 0.0, 0.0, 1.741985473311053E9, 0.0, 2025-03-14 15:51:13.311
22.0, 14185.445211582806, 23260.856957537766, -7597.872030481342, 2800.9194494389835, 8805.067396768021, 9267.8379139707, 3914.975096580398, 18849.58372707173, 47782.9781511996, -1880.5640197472596, 20965.757485122384, 51289.58687658154, 9304.628885344135, -47.11747731178729, 21604.65974863288, -15464.34497408211, 0.094, 0.96, 0.162, 192.0, 0.0, 0.0, 0.0, 0.0, 0.0, 0.0, 0.0, 0.0, 0.0, 1.741985473311198E9, 0.0, 2025-03-14 15:51:13.311
24.0, 14181.131324902932, 23254.84433827929, -7586.115012897852, 2799.3324755826566, 8801.871097310914, 9252.951652163465, 3906.302619731739, 18827.902534950084, 47781.34647385436, -1883.0897668707094, 21005.990625141934, 51316.8113013281, 9299.130356208128, -45.642262177737024, 21599.384736941425, -15467.340107839122, 0.094, 0.96, 0.162, 192.0, 0.0, 0.0, 0.0, 0.0, 0.0, 0.0, 0.0, 0.0, 0.0, 1.74198547331135E9, 0.0, 2025-03-14 15:51:13.311
26.0, 14188.462697084273, 23262.019248249442, -7592.798184489988, 2802.7522924843183, 8811.169423004321, 9272.621187284134, 3922.4405792284706, 18853.83055851824, 47786.21915414562, -1879.2899703133073, 20974.117037548665, 51286.971722480266, 9305.724120822444, -44.055288321410224, 21602.6480916319, -15473.3527270976, 0.094, 0.96, 0.162, 192.0, 0.0, 0.0, 0.0, 0.0, 0.0, 0.0, 0.0, 0.0, 0.0, 1.741985473311484E9, 0.0, 2025-03-14 15:51:13.311
28.0, 14180.61723478046, 23247.98235273151, -7579.878876194821, 2797.7902052152403, 8804.910934556834, 9266.295643603284, 3910.4823959448813, 18849.71783753846, 47786.62148554582, -1881.3016273142848, 21002.21318032899, 51297.70055981881, 9308.31692317926, -41.127209797765, 21607.096088778508, -15459.069962390658, 0.096, 0.976, 0.17200000000000001, 192.0, 1.5, 0.0, 15.0, 64.0, 2.5, 48.0, 0.0, 0.0, 0.0, 1.741985473311623E9, 0.0, 2025-03-14 15:51:13.311
30.0, 14183.075926670543, 23252.206832433563, -7598.475527581636, 2796.7173214813856, 8805.805004335047, 9265.423925569527, 3918.5066722043366, 18853.316468395766, 47781.726453510106, -1880.9216476585445, 20977.15687479459, 51282.52372533366, 9308.182812712528, -43.45179122111693, 21603.877437576943, -15469.508227051287, 0.096, 0.976, 0.17200000000000001, 192.0, 0.0, 0.0, 0.0, 0.0, 0.0, 0.0, 0.0, 0.0, 0.0, 1.741985473368155E9, 0.0, 2025-03-14 15:51:13.368
32.0, 14180.147848146898, 23247.691780053592, -7578.761288972055, 2801.0535599057152, 8807.03435028009, 9271.011861683353, 3911.8011488677444, 18839.123110666646, 47780.58651454288, -1885.5037552718825, 20982.834217886237, 51276.33229211954, 9297.073995718241, -43.340032498840394, 21603.296292221105, -15479.611215545085, 0.096, 0.976, 0.17200000000000001, 192.0, 0.0, 0.0, 0.0, 0.0, 0.0, 0.0, 0.0, 0.0, 0.0, 1.741985473368342E9, 0.0, 2025-03-14 15:51:13.368
34.0, 14181.064269669567, 23248.45173936507, -7603.370559617349, 2793.386911557545, 8802.452242666752, 9268.821390726733, 3909.968305822409, 18848.756712526883, 47777.70313950815, -1882.2404005814078, 20985.96346210998, 51303.24379244373, 9301.007902742374, -37.86385510729016, 21610.582960913536, -15456.2983460782, 0.096, 0.976, 0.17200000000000001, 192.0, 0.0, 0.0, 0.0, 0.0, 0.0, 0.0, 0.0, 0.0, 0.0, 1.741985473368478E9, 0.0, 2025-03-14 15:51:13.368
36.0, 14191.636644796927, 23253.79380628989, -7581.175277373229, 2806.2391646193464, 8805.581486890494, 9276.912722219555, 3908.358980221627, 18854.657573063087, 47780.72062500961, -1882.843897681701, 20969.78079912434, 51276.24288514172, 9301.477289375936, -40.233140019552714, 21606.55964691158, -15463.942642681915, 0.096, 0.976, 0.17200000000000001, 192.0, 0.0, 0.0, 0.0, 0.0, 0.0, 0.0, 0.0, 0.0, 0.0, 1.741985473368619E9, 0.0, 2025-03-14 15:51:13.368
38.0, 14192.977749464244, 23255.35842840176, -7603.2588008950715, 2801.6347052615533, 8804.106271756444, 9278.902027476077, 3911.979962823387, 18870.415552904076, 47783.76046225554, -1876.6971679564915, 20992.691337191027, 51322.48864441975, 9303.89127777711, -30.95716607060028, 21610.40414695789, -15458.511168779276, 0.088, 0.968, 0.17400000000000002, 192.0, 1.0, 96.0, 15.0, 32.0, 2.5, 56.0, 0.0, 0.0, 0.0, 1.741985473368763E9, 0.0, 2025-03-14 15:51:13.368
40.0, 14207.61814208247, 23267.36131517426, -7581.175277373229, 2810.553051299221, 8807.883716569391, 9272.531780306314, 3907.911945332521, 18855.372828885655, 47790.30952338094, -1873.880848155123, 20960.549528664294, 51271.21374263927, 9303.086614976719, -33.66172714969244, 21611.164106269374, -15460.433418802431, 0.088, 0.968, 0.17400000000000002, 192.0, 0.0, 0.0, 0.0, 0.0, 0.0, 0.0, 0.0, 0.0, 0.0, 1.741985473368919E9, 0.0, 2025-03-14 15:51:13.368
42.0, 14206.9028862599, 23266.31078318486, -7605.359864873871, 2796.940838925939, 8803.525126400606, 9268.150838393074, 3905.9002883315434, 18855.97632598595, 47793.46111934914, -1868.494077741394, 21005.007148385903, 51333.50805443621, 9306.215859200462, -33.05823004939914, 21612.46050744778, -15464.38967757102, 0.088, 0.968, 0.17400000000000002, 192.0, 0.0, 0.0, 0.0, 0.0, 0.0, 0.0, 0.0, 0.0, 0.0, 1.741985473369055E9, 0.0, 2025-03-14 15:51:13.369
44.0, 14201.516115846172, 23257.727713314023, -7593.200515890184, 2791.2634958342906, 8803.323960700507, 9254.270405086329, 3898.680674872479, 18855.30577365229, 47789.57191581392, -1877.9041621570782, 20952.10056926019, 51268.66564377137, 9306.193507456006, -42.58007318735996, 21603.676271876844, -15476.459619576886, 0.088, 0.968, 0.17400000000000002, 192.0, 0.0, 0.0, 0.0, 0.0, 0.0, 0.0, 0.0, 0.0, 0.0, 1.741985473369208E9, 0.0, 2025-03-14 15:51:13.369
46.0, 14197.783374522136, 23258.778245303423, -7606.209231163172, 2787.2625335767907, 8803.659236867337, 9253.152817863562, 3902.189898751962, 18851.170700928058, 47788.05199719095, -1887.2918948283072, 21000.44739251702, 51322.57805139757, 9306.819356300755, -49.41970699068391, 21594.355594438985, -15486.54025632623, 0.088, 0.968, 0.17400000000000002, 192.0, 0.0, 0.0, 0.0, 0.0, 0.0, 0.0, 0.0, 0.0, 0.0, 1.741985473428387E9, 0.0, 2025-03-14 15:51:13.428
48.0, 14204.488897858728, 23265.975507018033, -7582.292864595994, 2792.671655734975, 8811.169423004321, 9261.177094123017, 3904.9168115755097, 18862.212462688978, 47787.8284797464, -1885.9507901609886, 20950.692409359504, 51250.80659995158, 9304.338312666216, -46.33516625585154, 21599.809420086076, -15480.77350625676, 0.08600000000000001, 0.966, 0.176, 192.0, 1.0, 88.0, 15.0, 24.0, 2.5, 64.0, 0.0, 0.0, 0.0, 1.741985473428564E9, 0.0, 2025-03-14 15:51:13.428
50.0, 14201.985502479733, 23265.75198957348, -7596.240353136105, 2795.5326790252543, 8806.877888068902, 9260.998280167376, 3907.1966895099513, 18853.808206773785, 47796.29979089496, -1876.4289470230278, 21018.44054680354, 51323.315658964595, 9310.127414480141, -43.16121854319794, 21603.22923698774, -15476.213750387878, 0.08600000000000001, 0.966, 0.176, 192.0, 0.0, 0.0, 0.0, 0.0, 0.0, 0.0, 0.0, 0.0, 0.0, 1.74198547342871E9, 0.0, 2025-03-14 15:51:13.428
52.0, 14197.202229166298, 23261.102826726776, -7587.925504198731, 2794.8844784360504, 8806.78848109108, 9258.360774321649, 3901.944029562954, 18855.596346330207, 47792.85762224885, -1878.977045890933, 20949.843043070203, 51247.118562116455, 9307.378149912138, -47.31864301188505, 21595.808457828578, -15476.72784051035, 0.08600000000000001, 0.966, 0.176, 192.0, 0.0, 0.0, 0.0, 0.0, 0.0, 0.0, 0.0, 0.0, 0.0, 1.741985473428865E9, 0.0, 2025-03-14 15:51:13.428
54.0, 14197.179877421842, 23263.717980828045, -7594.116937412851, 2793.677484235464, 8807.168460746821, 9253.622204497124, 3914.237489013373, 18859.709067309985, 47792.27647689301, -1881.0557581252765, 21020.273389848877, 51321.214594985795, 9306.908763278576, -44.21175053259737, 21592.209826971273, -15481.980500457348, 0.08600000000000001, 0.966, 0.176, 192.0, 0.0, 0.0, 0.0, 0.0, 0.0, 0.0, 0.0, 0.0, 0.0, 1.741985473429006E9, 0.0, 2025-03-14 15:51:13.429
56.0, 14199.705624545291, 23266.377838418226, -7579.588303516902, 2806.730902997363, 8817.36085621844, 9267.659100015057, 3915.936221591976, 18870.370849415165, 47793.75169202706, -1873.076185354732, 20955.743903606406, 51248.459666783776, 9309.635676102123, -41.68600340914767, 21602.759850354178, -15467.541273539218, 0.08600000000000001, 0.966, 0.176, 192.0, 0.0, 0.0, 0.0, 0.0, 0.0, 0.0, 0.0, 0.0, 0.0, 1.741985473429148E9, 0.0, 2025-03-14 15:51:13.429
58.0, 14190.452002340795, 23255.82781503532, -7589.288960610505, 2800.517118038788, 8811.907030571345, 9264.708669746957, 3910.5047476893365, 18861.07252372176, 47788.499032080064, -1876.7418714454022, 21027.895334708137, 51324.67911537637, 9306.484080133925, -42.4236109761728, 21603.8997893214, -15465.395506071509, 0.092, 0.966, 0.17, 192.0, 1.0, 112.0, 15.0, 24.0, 2.5, 40.0, 0.0, 0.0, 0.0, 1.741985473429288E9, 0.0, 2025-03-14 15:51:13.429
60.0, 14196.084641943533, 23258.733541814512, -7591.188858889206, 2799.9136209384947, 8807.727254358204, 9260.439486555993, 3899.0830062726745, 18837.804357743786, 47785.906229723245, -1881.3239790587402, 20955.63214488413, 51244.21283533727, 9299.51033586387, -43.60825343230408, 21598.982405541232, -15461.238081602824, 0.092, 0.966, 0.17, 192.0, 0.0, 0.0, 0.0, 0.0, 0.0, 0.0, 0.0, 0.0, 0.0, 1.741985473490111E9, 0.0, 2025-03-14 15:51:13.490
62.0, 14211.52969736215, 23273.999783277486, -7580.236504106106, 2816.163339157503, 8810.40946369284, 9274.230512884917, 3903.4415964414593, 18858.16679694257, 47798.37850312931, -1871.913894643056, 21028.409424830606, 51320.61109788551, 9307.065225489763, -37.461523707094635, 21601.61991138696, -15458.846444946104, 0.092, 0.966, 0.17, 192.0, 0.0, 0.0, 0.0, 0.0, 0.0, 0.0, 0.0, 0.0, 0.0, 1.741985473490302E9, 0.0, 2025-03-14 15:51:13.490
64.0, 14216.134156719943, 23275.65381236718, -7587.925504198731, 2812.31883911119, 8809.381283447896, 9268.150838393074, 3911.3764657230936, 18860.223157432458, 47800.658381063746, -1864.0460805947878, 20971.077200302745, 51267.77157399316, 9308.02635050134, -33.28174749395222, 21603.206885243286, -15449.570470997152, 0.092, 0.966, 0.17, 192.0, 0.0, 0.0, 0.0, 0.0, 0.0, 0.0, 0.0, 0.0, 0.0, 1.741985473490443E9, 0.0, 2025-03-14 15:51:13.490
66.0, 14216.24591544222, 23273.910376299667, -7583.589265774402, 2811.6482867775308, 8810.118891014921, 9268.463762815449, 3911.287058745272, 18855.43988411902, 47802.625334575816, -1865.1189643286425, 21024.989607928946, 51321.32635370807, 9300.002074241886, -31.6500701487148, 21601.66461487587, -15460.478122291343, 0.092, 0.966, 0.17, 192.0, 0.0, 0.0, 0.0, 0.0, 0.0, 0.0, 0.0, 0.0, 0.0, 1.741985473490597E9, 0.0, 2025-03-14 15:51:13.490
68.0, 14222.43734865634, 23279.252443224486, -7588.685463510212, 2811.60358328862, 8808.531917158594, 9271.54830355028, 3900.20059349544, 18856.31160215278, 47802.15594794226, -1864.9848538619108, 20967.791493867815, 51266.65398677039, 9309.233344701928, -33.14763702722038, 21603.09512652101, -15465.261395604777, 0.08600000000000001, 0.966, 0.17, 192.0, 1.0, 88.0, 15.0, 24.0, 2.5, 40.0, 0.0, 0.0, 0.0, 1.74198547349074E9, 0.0, 2025-03-14 15:51:13.490
70.0, 14226.214793469286, 23281.577024647835, -7569.954701656664, 2816.386856602056, 8815.349199217462, 9263.568730779736, 3905.743826120356, 18862.88301502264, 47807.74388405608, -1858.301682269774, 21028.72234925298, 51314.9114030494, 9304.65123708859, -32.588843415837694, 21614.13688828193, -15471.363421841077, 0.08600000000000001, 0.966, 0.17, 192.0, 0.0, 0.0, 0.0, 0.0, 0.0, 0.0, 0.0, 0.0, 0.0, 1.741985473490893E9, 0.0, 2025-03-14 15:51:13.490
72.0, 14220.24687769972, 23275.18442573362, -7590.093623410896, 2809.413112332, 8813.918687572323, 9270.251902371872, 3908.2025180104397, 18869.141503470124, 47809.86729977933, -1858.5475514587822, 20980.889616118624, 51284.91536199038, 9308.048702245796, -27.15736951319808, 21609.487725435225, -15470.4022968295, 0.08600000000000001, 0.966, 0.17, 192.0, 0.0, 0.0, 0.0, 0.0, 0.0, 0.0, 0.0, 0.0, 0.0, 1.741985473491028E9, 0.0, 2025-03-14 15:51:13.491
74.0, 14216.536488120139, 23268.12127448574, -7572.0334138910075, 2812.7211705113855, 8822.389998720884, 9271.145972150085, 3925.7933408967665, 18878.238663463435, 47802.53592759799, -1864.8283916507235, 21017.97116016998, 51308.00471401271, 9307.579315612234, -30.28661373694107, 21605.777335855644, -15480.035898689735, 0.08600000000000001, 0.966, 0.17, 192.0, 0.0, 0.0, 0.0, 0.0, 0.0, 0.0, 0.0, 0.0, 0.0, 1.741985473491171E9, 0.0, 2025-03-14 15:51:13.491
76.0, 14222.19147946733, 23275.340887944807, -7582.516382040547, 2818.867900236595, 8816.444434695773, 9277.806791997766, 3906.660247643024, 18873.567148872276, 47806.671000322225, -1860.3356910152067, 20990.813790656783, 51287.731681791745, 9312.74256858141, -28.744343369524884, 21620.685949407336, -15466.58014852764, 0.08600000000000001, 0.966, 0.17, 192.0, 0.0, 0.0, 0.0, 0.0, 0.0, 0.0, 0.0, 0.0, 0.0, 1.741985473550415E9, 0.0, 2025-03-14 15:51:13.550
78.0, 14224.29254344613, 23276.816103078858, -7569.150038856273, 2819.5608043147095, 8807.861364824936, 9273.716422762445, 3888.0635962562083, 18863.73238131194, 47809.7331893126, -1850.947958343978, 21019.35696832621, 51303.757882566206, 9311.401463914093, -18.730761853547317, 21610.962940569276, -15471.184607885434, 0.084, 0.97, 0.17200000000000001, 192.0, 1.0, 80.0, 15.0, 40.0, 2.5, 48.0, 0.0, 0.0, 0.0, 1.741985473550588E9, 0.0, 2025-03-14 15:51:13.550
80.0, 14219.129290476954, 23271.719905343045, -7595.12276591334, 2811.0671414216927, 8800.55234438805, 9271.92828320602, 3885.269628199295, 18856.31160215278, 47809.330857912406, -1854.9265688570224, 21008.605779243208, 51298.013484241186, 9308.607495857179, -22.552910155404827, 21600.41291718637, -15478.851256233605, 0.084, 0.97, 0.17200000000000001, 192.0, 0.0, 0.0, 0.0, 0.0, 0.0, 0.0, 0.0, 0.0, 0.0, 1.741985473550738E9, 0.0, 2025-03-14 15:51:13.550
82.0, 14209.853316528, 23260.834605793312, -7581.376443073326, 2807.2002896309245, 8800.887620554879, 9265.490980802891, 3883.1015089871303, 18845.15808166958, 47803.251183420565, -1859.3522142591733, 21007.555247253807, 51283.99894046771, 9307.042873745308, -28.431418947150583, 21597.171914240353, -15480.549988812209, 0.084, 0.97, 0.17200000000000001, 192.0, 0.0, 0.0, 0.0, 0.0, 0.0, 0.0, 0.0, 0.0, 0.0, 1.741985473550878E9, 0.0, 2025-03-14 15:51:13.550
84.0, 14200.554990834593, 23250.373989388227, -7604.465795095658, 2797.7231499818745, 8804.307437456542, 9266.228588369917, 3901.3181807182054, 18856.78098878634, 47793.55052632696, -1871.0868800982096, 21000.805020428303, 51292.425548127365, 9298.504507363381, -41.55189294241583, 21591.36046068197, -15486.652015048507, 0.084, 0.97, 0.17200000000000001, 192.0, 0.0, 0.0, 0.0, 0.0, 0.0, 0.0, 0.0, 0.0, 0.0, 1.741985473551021E9, 0.0, 2025-03-14 15:51:13.551
86.0, 14195.011758209677, 23241.433291606107, -7590.384196088815, 2801.0312081612597, 8802.564001389028, 9263.188751123995, 3904.9838668088755, 18869.141503470124, 47786.5767820569, -1877.9935691348994, 20984.979985353948, 51263.100059402, 9297.40927188507, -44.16704704368676, 21592.61215837147, -15482.896921980015, 0.086, 0.971, 0.17, 192.0, 1.0, 96.0, 15.0, 48.0, 2.5, 32.0, 0.0, 0.0, 0.0, 1.741985473551163E9, 0.0, 2025-03-14 15:51:13.551
88.0, 14204.019511225166, 23249.681085310112, -7599.995446204597, 2809.3013536097233, 8810.07418752601, 9279.729042020923, 3902.6592853855236, 18864.201767945502, 47789.16958441372, -1877.680644712525, 21004.91774140808, 51299.689865075336, 9294.391786383603, -36.45569520660582, 21600.591731142013, -15474.783238742739, 0.086, 0.971, 0.17, 192.0, 0.0, 0.0, 0.0, 0.0, 0.0, 0.0, 0.0, 0.0, 0.0, 1.741985473551309E9, 0.0, 2025-03-14 15:51:13.551
90.0, 14208.355749649496, 23250.351637643773, -7575.363823814849, 2816.69978102443, 8813.98574280569, 9279.6396350431, 3905.6320673980795, 18864.73820981243, 47799.74195954108, -1864.3143015282515, 20980.599043440707, 51258.42854481084, 9310.015655757863, -26.10683752379865, 21606.827867845044, -15462.467427547865, 0.086, 0.971, 0.17, 192.0, 0.0, 0.0, 0.0, 0.0, 0.0, 0.0, 0.0, 0.0, 0.0, 1.741985473609246E9, 0.0, 2025-03-14 15:51:13.609
92.0, 14202.38783387993, 23243.22143116253, -7606.052768951985, 2798.6172197600868, 8803.659236867337, 9268.55316979327, 3897.004294038331, 18862.92771851155, 47791.717683281626, -1874.7749179333352, 21017.233552602953, 51315.000810027224, 9297.610437585168, -34.73461088354718, 21598.602425885492, -15480.34882311211, 0.086, 0.971, 0.17, 192.0, 0.0, 0.0, 0.0, 0.0, 0.0, 0.0, 0.0, 0.0, 0.0, 1.741985473609425E9, 0.0, 2025-03-14 15:51:13.609
94.0, 14202.968979235768, 23241.142718928186, -7588.93133269922, 2802.4617198063997, 8811.884678826891, 9276.242169885894, 3898.7253783613896, 18850.187224172023, 47792.70116003766, -1879.0664528687541, 20967.143293278612, 51249.13021911743, 9301.41023414257, -37.260358006996874, 21592.433344415826, -15473.68800326443, 0.086, 0.971, 0.17, 192.0, 0.0, 0.0, 0.0, 0.0, 0.0, 0.0, 0.0, 0.0, 0.0, 1.741985473609566E9, 0.0, 2025-03-14 15:51:13.609
96.0, 14202.186668179831, 23238.818137504833, -7605.359864873871, 2802.707588995408, 8813.516356172127, 9275.728079763423, 3897.920715560999, 18859.239680676423, 47793.88580249379, -1879.8040604357793, 21013.791383956835, 51308.47410064627, 9302.728987065433, -38.53440744094937, 21602.80455384309, -15482.49459057982, 0.087, 0.9724999999999999, 0.169, 192.0, 1.0, 96.0, 15.0, 56.0, 2.5, 32.0, 0.0, 0.0, 0.0, 1.741985473609702E9, 0.0, 2025-03-14 15:51:13.609
98.0, 14205.42767112585, 23239.578096816316, -7584.662149508256, 2813.0117431893045, 8812.55523116055, 9275.325748363228, 3894.456195170426, 18854.05407596279, 47796.00921821704, -1875.8030981782792, 20961.845929842704, 51244.7939806931, 9306.7970045563, -30.711296881591903, 21604.480934677238, -15470.469352062864, 0.087, 0.9724999999999999, 0.169, 192.0, 0.0, 0.0, 0.0, 0.0, 0.0, 0.0, 0.0, 0.0, 0.0, 1.741985473609856E9, 0.0, 2025-03-14 15:51:13.609
100.0, 14207.484031615739, 23239.30987588285, -7601.358902616371, 2807.2002896309245, 8814.70099862826, 9272.330614606217, 3897.6748463719905, 18858.569128342766, 47795.070444949924, -1875.3784150336285, 21021.10040439372, 51316.99011528375, 9302.88544927662, -35.15929402819801, 21604.70445212179, -15478.49362832232, 0.087, 0.9724999999999999, 0.169, 192.0, 0.0, 0.0, 0.0, 0.0, 0.0, 0.0, 0.0, 0.0, 0.0, 1.741985473610002E9, 0.0, 2025-03-14 15:51:13.610
102.0, 14208.154583949397, 23238.147585171177, -7596.642684536301, 2801.6123535170977, 8806.632018879893, 9258.986623166398, 3890.3434741906494, 18850.611907316674, 47797.32797113991, -1877.5912377347038, 20951.63118262663, 51244.83868418201, 9302.013731242863, -41.55189294241583, 21599.22827473024, -15491.234122661845, 0.087, 0.9724999999999999, 0.169, 192.0, 0.0, 0.0, 0.0, 0.0, 0.0, 0.0, 0.0, 0.0, 0.0, 1.741985473610144E9, 0.0, 2025-03-14 15:51:13.610
104.0, 14209.67450257236, 23241.27682939492, -7607.170356174751, 2802.5287750397656, 8803.256905467142, 9265.602739525168, 3893.8303463256775, 18853.271764906858, 47796.65741880625, -1876.6748162120364, 21017.121793880677, 51321.88514731946, 9299.59974284169, -40.94839584212254, 21597.12721075144, -15493.134020940546, 0.087, 0.9724999999999999, 0.169, 192.0, 0.0, 0.0, 0.0, 0.0, 0.0, 0.0, 0.0, 0.0, 0.0, 1.741985473610279E9, 0.0, 2025-03-14 15:51:13.610
106.0, 14214.010740996688, 23244.11550094074, -7600.55423981598, 2803.22167911788, 8804.575658390006, 9265.111001147152, 3886.6107328666135, 18848.86847124916, 47796.0315699615, -1875.7583946893687, 20951.318258204254, 51253.35469881949, 9296.26933291785, -43.340032498840394, 21599.60825438598, -15489.11070693859, 0.0885, 0.97125, 0.1695, 192.0, 1.0, 104.0, 15.0, 40.0, 2.5, 40.0, 0.0, 0.0, 0.0, 1.741985473670953E9, 0.0, 2025-03-14 15:51:13.670
108.0, 14217.162336964886, 23247.378855631217, -7597.827326992432, 2806.12740589707, 8806.944943302267, 9271.011861683353, 3898.3453987056496, 18871.466084893476, 47800.34545664137, -1876.8983336565893, 21024.07318640628, 51329.14946426743, 9300.69497832, -41.79776213142421, 21598.624777629946, -15493.06696570718, 0.0885, 0.97125, 0.1695, 192.0, 0.0, 0.0, 0.0, 0.0, 0.0, 0.0, 0.0, 0.0, 0.0, 1.741985473671147E9, 0.0, 2025-03-14 15:51:13.671
110.0, 14218.771662565669, 23248.675256809624, -7590.585361788912, 2807.893193709039, 8810.49887067066, 9269.938977949498, 3894.2103259814176, 18859.999639987906, 47804.10054970987, -1866.0577375957655, 20958.023781540847, 51250.44897204029, 9296.40344338458, -39.78610513044657, 21603.810382343578, -15489.803611016705, 0.0885, 0.97125, 0.1695, 192.0, 0.0, 0.0, 0.0, 0.0, 0.0, 0.0, 0.0, 0.0, 0.0, 1.741985473671287E9, 0.0, 2025-03-14 15:51:13.671
112.0, 14213.094319474021, 23241.053311950363, -7593.200515890184, 2804.2051558739136, 8805.782652590591, 9267.949672692976, 3889.494107901348, 18856.512767852877, 47800.36780838583, -1873.4114615215615, 21029.884639964657, 51327.651897388925, 9297.7445480519, -36.90273009571196, 21602.312815465073, -15491.681157550951, 0.0885, 0.97125, 0.1695, 192.0, 0.0, 0.0, 0.0, 0.0, 0.0, 0.0, 0.0, 0.0, 0.0, 1.741985473671432E9, 0.0, 2025-03-14 15:51:13.671
114.0, 14211.730863062246, 23239.64515204968, -7598.609638048368, 2800.852394205617, 8805.35796944594, 9270.274254116328, 3890.656398613024, 18861.07252372176, 47798.289096151486, -1872.6738539545363, 20965.779836866837, 51259.702594244794, 9297.945713751998, -46.625738933770535, 21592.12041999345, -15494.519829096775, 0.0885, 0.97125, 0.1695, 192.0, 0.0, 0.0, 0.0, 0.0, 0.0, 0.0, 0.0, 0.0, 0.0, 1.741985473671584E9, 0.0, 2025-03-14 15:51:13.671
116.0, 14213.787223552135, 23241.522698583925, -7589.735995499611, 2800.6735802499747, 8809.381283447896, 9259.16543712204, 3890.097605001641, 18857.049209719804, 47801.95478224216, -1871.3103975427625, 21027.91768645259, 51311.13395823645, 9305.634713844624, -39.54023594143819, 21599.652957874892, -15491.323529639665, 0.09025, 0.974625, 0.16975, 192.0, 1.0, 112.0, 15.0, 72.0, 2.5, 40.0, 0.0, 0.0, 0.0, 1.741985473671728E9, 0.0, 2025-03-14 15:51:13.671
118.0, 14207.640493826926, 23238.54991657137, -7605.806899762977, 2794.3927400580337, 8805.760300846136, 9260.528893533814, 3884.6661310990016, 18848.44378810451, 47795.04809320546, -1876.0266156228324, 20969.222005512955, 51256.685108743324, 9309.725083079944, -47.02807033396606, 21595.964920039765, -15500.040709977236, 0.09025, 0.974625, 0.16975, 192.0, 0.0, 0.0, 0.0, 0.0, 0.0, 0.0, 0.0, 0.0, 0.0, 1.741985473671868E9, 0.0, 2025-03-14 15:51:13.671
120.0, 14213.720168318769, 23247.624724820223, -7585.600922775379, 2805.0098186743044, 8814.231611994697, 9270.251902371872, 3897.585439394169, 18863.665326078575, 47794.39989261626, -1875.043138866799, 21014.216067101486, 51299.622809841974, 9316.65412386109, -43.20592203210855, 21601.37404219795, -15486.070869692669, 0.09025, 0.974625, 0.16975, 192.0, 0.0, 0.0, 0.0, 0.0, 0.0, 0.0, 0.0, 0.0, 0.0, 1.741985473731245E9, 0.0, 2025-03-14 15:51:13.731
122.0, 14211.395586895418, 23252.095073711287, -7609.383178875826, 2798.214888359891, 8806.69907411326, 9270.341309349693, 3886.946009033443, 18854.814035274274, 47794.91398273873, -1872.7632609323575, 20967.456217700987, 51267.90568445989, 9319.582202384736, -42.64712842072588, 21596.300196206594, -15483.790991758227, 0.09025, 0.974625, 0.16975, 192.0, 0.0, 0.0, 0.0, 0.0, 0.0, 0.0, 0.0, 0.0, 0.0, 1.741985473731428E9, 0.0, 2025-03-14 15:51:13.731
124.0, 14217.542316620627, 23263.98620176151, -7586.204419875672, 2804.540432040743, 8812.801100349558, 9271.414193083549, 3896.8925353160544, 18865.185244701534, 47800.50191885256, -1867.4435457519944, 21001.788497184338, 51288.26812365867, 9328.522900166858, -36.858026606801346, 21599.787068341622, -15471.005793929791, 0.09025, 0.974625, 0.16975, 192.0, 0.0, 0.0, 0.0, 0.0, 0.0, 0.0, 0.0, 0.0, 0.0, 1.741985473731574E9, 0.0, 2025-03-14 15:51:13.731
126.0, 14213.586057852037, 23268.36714367475, -7606.656266052279, 2795.5550307697094, 8810.677684626304, 9269.201370382472, 3895.9314103044762, 18870.862587793185, 47804.05584622095, -1869.678720197525, 20973.91587184857, 51270.72200426126, 9324.521937909358, -40.32254699737394, 21598.915350307867, -15474.425610831453, 0.094125, 0.9753125, 0.171875, 192.0, 1.5, 8.0, 15.0, 64.0, 2.5, 56.0, 0.0, 0.0, 0.0, 1.74198547373171E9, 0.0, 2025-03-14 15:51:13.731
128.0, 14212.356711906996, 23272.07753325433, -7590.540658300002, 2803.3110860957013, 8812.331713715997, 9266.630919770112, 3894.8361748261664, 18855.73045679694, 47796.61271531734, -1872.6738539545363, 20989.204465056, 51281.227324155254, 9319.448091918004, -42.53536969844934, 21594.22148397225, -15470.91638695197, 0.094125, 0.9753125, 0.171875, 192.0, 0.0, 0.0, 0.0, 0.0, 0.0, 0.0, 0.0, 0.0, 0.0, 1.741985473731862E9, 0.0, 2025-03-14 15:51:13.731
130.0, 14211.23912468423, 23279.40890543567, -7608.690274797711, 2804.071045407182, 8807.950771802756, 9272.6882425175, 3892.131613747074, 18862.68184932254, 47798.60202057386, -1871.2433423093967, 20975.122866049154, 51286.63644631344, 9322.443225675015, -39.048497563421435, 21596.568417140057, -15466.937776438926, 0.094125, 0.9753125, 0.171875, 192.0, 0.0, 0.0, 0.0, 0.0, 0.0, 0.0, 0.0, 0.0, 0.0, 1.741985473732004E9, 0.0, 2025-03-14 15:51:13.732
132.0, 14218.72695907676, 23291.56825441936, -7582.628140762823, 2813.3023158672236, 8817.047931796067, 9280.041966443297, 3899.910020817521, 18864.693506323518, 47802.67003806472, -1866.1471445735867, 20977.268633516866, 51279.103908432, 9328.925231567053, -36.120419039776216, 21606.202019000295, -15453.414971043465, 0.094125, 0.9753125, 0.171875, 192.0, 0.0, 0.0, 0.0, 0.0, 0.0, 0.0, 0.0, 0.0, 0.0, 1.741985473732142E9, 0.0, 2025-03-14 15:51:13.732
134.0, 14220.872726544469, 23298.206722522584, -7602.297675883494, 2810.553051299221, 8811.303533471053, 9267.994376181887, 3907.3755034655937, 18874.34945992821, 47804.27936366551, -1863.263769538852, 20987.371622010665, 51302.75205406571, 9328.813472844777, -37.126247540265034, 21600.770545097657, -15458.265299590266, 0.094125, 0.9753125, 0.171875, 192.0, 0.0, 0.0, 0.0, 0.0, 0.0, 0.0, 0.0, 0.0, 0.0, 1.741985473732286E9, 0.0, 2025-03-14 15:51:13.732
136.0, 14220.515098633183, 23297.871446355755, -7580.862352950854, 2811.447121077433, 8811.594106148972, 9261.847646456677, 3903.687465630468, 18867.755695313896, 47808.07916022291, -1866.2141998069526, 20973.558243937285, 51277.740452020225, 9334.624926403158, -37.08154405135442, 21593.953263038788, -15462.355668825589, 0.0950625, 0.96965625, 0.1739375, 192.0, 1.5, 0.0, 15.0, 16.0, 2.5, 64.0, 0.0, 0.0, 0.0, 1.741985473788622E9, 0.0, 2025-03-14 15:51:13.788
138.0, 14224.493709146227, 23306.94625460461, -7585.936198942209, 2817.571499058187, 8817.562021918538, 9275.102230918674, 3912.58345992368, 18879.758582086397, 47810.783721302, -1863.3755282611287, 21002.81667742928, 51321.77338859718, 9336.234252003938, -34.19816901661981, 21609.97946381324, -15451.470369275854, 0.0950625, 0.96965625, 0.1739375, 192.0, 0.0, 0.0, 0.0, 0.0, 0.0, 0.0, 0.0, 0.0, 0.0, 1.741985473788807E9, 0.0, 2025-03-14 15:51:13.788
140.0, 14220.179822466353, 23302.922940602653, -7574.469754036636, 2819.2925833812455, 8816.422082951318, 9275.236341385405, 3915.3327244916827, 18876.07054425127, 47813.75650331456, -1856.625301435626, 20976.28515676083, 51274.655911285394, 9337.910632838088, -30.934814326144974, 21610.47120219126, -15451.023334386748, 0.0950625, 0.96965625, 0.1739375, 192.0, 0.0, 0.0, 0.0, 0.0, 0.0, 0.0, 0.0, 0.0, 0.0, 1.741985473788936E9, 0.0, 2025-03-14 15:51:13.788
142.0, 14212.356711906996, 23297.714984144568, -7592.373501345337, 2809.860147221106, 8809.291876470075, 9274.275216373828, 3908.2248697548953, 18875.981137273448, 47803.675866565216, -1864.0460805947878, 21013.612570001194, 51327.54013866665, 9329.148749011607, -34.91342483918963, 21601.61991138696, -15455.180758855435, 0.0950625, 0.96965625, 0.1739375, 192.0, 0.0, 0.0, 0.0, 0.0, 0.0, 0.0, 0.0, 0.0, 0.0, 1.741985473789073E9, 0.0, 2025-03-14 15:51:13.789
144.0, 14214.927162519356, 23299.16784753416, -7575.542637770491, 2815.0234001902822, 8815.259792239642, 9274.11875416264, 3909.67773314449, 18872.874244794162, 47801.32893339741, -1864.6719294395364, 20966.33863047822, 51269.60441703849, 9325.773635598855, -40.1884365306421, 21597.70835610728, -15459.874625191049, 0.0950625, 0.96965625, 0.1739375, 192.0, 0.0, 0.0, 0.0, 0.0, 0.0, 0.0, 0.0, 0.0, 0.0, 1.741985473789222E9, 0.0, 2025-03-14 15:51:13.789
146.0, 14207.416976382374, 23294.786905620924, -7599.07902468193, 2807.7590832423075, 8805.380321190396, 9267.949672692976, 3904.9615150644204, 18870.415552904076, 47804.0334944765, -1861.6097404491593, 21021.614494516194, 51334.04449630315, 9330.51220542338, -35.65103240621477, 21594.824981072543, -15459.651107746497, 0.09553125, 0.969828125, 0.17496875, 192.0, 1.5, 0.0, 15.0, 40.0, 2.5, 64.0, 0.0, 0.0, 0.0, 1.741985473789367E9, 0.0, 2025-03-14 15:51:13.789
148.0, 14200.28676990113, 23286.85203633929, -7590.540658300002, 2800.897097694528, 8802.742815344669, 9253.532797519303, 3899.3735789505936, 18857.295078908814, 47795.472776350114, -1869.298740541785, 20959.633107141628, 51258.56265527757, 9320.99036228542, -47.58686394534874, 21582.28565243312, -15467.697735750406, 0.09553125, 0.969828125, 0.17496875, 192.0, 0.0, 0.0, 0.0, 0.0, 0.0, 0.0, 0.0, 0.0, 0.0, 1.741985473789508E9, 0.0, 2025-03-14 15:51:13.789
150.0, 14200.353825134496, 23286.628518894737, -7601.64947529429, 2805.434501818955, 8806.006170035145, 9264.97689068042, 3913.3210674907054, 18876.83050356275, 47788.38727335779, -1873.0314818658212, 21017.188849114045, 51325.59553689904, 9316.095330249707, -45.48579996654987, 21586.107800734975, -15473.889168964526, 0.09553125, 0.969828125, 0.17496875, 192.0, 0.0, 0.0, 0.0, 0.0, 0.0, 0.0, 0.0, 0.0, 0.0, 1.741985473849961E9, 0.0, 2025-03-14 15:51:13.849
152.0, 14202.588999580026, 23285.265062482962, -7590.78652748901, 2805.5686122856873, 8805.246210723664, 9265.088649402696, 3912.851680857144, 18867.88980578063, 47794.95868622765, -1866.7729934183353, 20954.402798939085, 51251.27598658514, 9320.36451344067, -41.93187259815605, 21591.203998470784, -15468.591805528618, 0.09553125, 0.969828125, 0.17496875, 192.0, 0.0, 0.0, 0.0, 0.0, 0.0, 0.0, 0.0, 0.0, 0.0, 1.741985473850133E9, 0.0, 2025-03-14 15:51:13.850
154.0, 14195.749365776703, 23276.83845482331, -7604.890478240309, 2797.901963937517, 8798.965370531723, 9259.21014061095, 3904.112148775119, 18859.306735909788, 47790.868316992324, -1869.678720197525, 21023.045006161334, 51324.94733630984, 9314.329542437737, -42.803590631913025, 21585.861931545965, -15470.4022968295, 0.09553125, 0.969828125, 0.17496875, 192.0, 0.0, 0.0, 0.0, 0.0, 0.0, 0.0, 0.0, 0.0, 0.0, 1.741985473850289E9, 0.0, 2025-03-14 15:51:13.850
156.0, 14203.706586802791, 23282.56050140387, -7599.6825217822225, 2804.115748896092, 8803.279257211598, 9267.390879081593, 3912.806977368233, 18869.722648825962, 47791.04713094797, -1870.1928103199973, 20953.1958047385, 51249.1972743508, 9314.865984304666, -44.703488910614126, 21582.240948944207, -15475.476142820853, 0.09476562499999999, 0.9689140625, 0.17448437500000002, 192.0, 1.0, 120.0, 15.0, 32.0, 2.5, 56.0, 0.0, 0.0, 0.0, 1.741985473850423E9, 0.0, 2025-03-14 15:51:13.850
158.0, 14200.28676990113, 23275.072667011344, -7596.508574069569, 2802.931106439961, 8799.41240542083, 9258.628995255112, 3900.178241750985, 18857.33978239772, 47795.897459494765, -1866.0577375957655, 21026.68834050755, 51315.20197572732, 9315.961219782976, -39.49553245252758, 21590.68990834831, -15473.732706753339, 0.09476562499999999, 0.9689140625, 0.17448437500000002, 192.0, 0.0, 0.0, 0.0, 0.0, 0.0, 0.0, 0.0, 0.0, 0.0, 1.741985473850584E9, 0.0, 2025-03-14 15:51:13.850
160.0, 14205.070043214566, 23278.336021701816, -7591.099451911385, 2813.190557144947, 8804.374492689907, 9268.083783159707, 3908.0237040547972, 18873.88007329465, 47792.79056701548, -1866.75064167388, 20957.979078051936, 51246.93974816081, 9314.865984304666, -39.98727083054433, 21586.823056557543, -15468.412991572975, 0.09476562499999999, 0.9689140625, 0.17448437500000002, 192.0, 0.0, 0.0, 0.0, 0.0, 0.0, 0.0, 0.0, 0.0, 0.0, 1.741985473850729E9, 0.0, 2025-03-14 15:51:13.850
162.0, 14206.768775793169, 23279.163036246664, -7586.673806509234, 2811.827100733173, 8810.118891014921, 9266.161533136552, 3914.9303930914875, 18878.395125674622, 47798.37850312931, -1862.1908858049974, 21027.44829981903, 51319.80643508511, 9316.162385483072, -29.347840469818173, 21599.8988270639, -15458.913500179471, 0.09476562499999999, 0.9689140625, 0.17448437500000002, 192.0, 0.0, 0.0, 0.0, 0.0, 0.0, 0.0, 0.0, 0.0, 0.0, 1.741985473850866E9, 0.0, 2025-03-14 15:51:13.850
164.0, 14206.724072304258, 23278.42542867964, -7596.59798104739, 2806.686199508453, 8806.922591557812, 9265.893312203087, 3908.5377941772695, 18871.1531604711, 47799.00435197406, -1861.7214991714359, 20962.695296132006, 51259.210855866775, 9317.816414572766, -35.338107983840466, 21598.80359158559, -15465.529616538242, 0.09476562499999999, 0.9689140625, 0.17448437500000002, 192.0, 0.0, 0.0, 0.0, 0.0, 0.0, 0.0, 0.0, 0.0, 0.0, 1.741985473851001E9, 0.0, 2025-03-14 15:51:13.851
166.0, 14206.008816481688, 23273.12806524373, -7595.279228124527, 2807.7814349867626, 8807.12375725791, 9262.048812156774, 3906.682599387479, 18870.415552904076, 47794.42224436072, -1863.84491489469, 21017.233552602953, 51323.248603731234, 9312.921382537053, -40.09902955282087, 21594.713222350267, -15474.58207304264, 0.0963828125, 0.9654570312499999, 0.17324218750000003, 192.0, 1.5, 8.0, 15.0, 8.0, 2.5, 48.0, 0.0, 0.0, 0.0, 1.741985473910655E9, 0.0, 2025-03-14 15:51:13.910
168.0, 14208.311046160585, 23274.08919025531, -7600.196611904695, 2810.798920488229, 8810.521222415116, 9269.31312910475, 3912.8293291126884, 18874.908253539594, 47793.57287807141, -1869.1199265861426, 20957.107360018177, 51271.101983917, 9310.574449369245, -39.048497563421435, 21594.46735316126, -15472.279843363744, 0.0963828125, 0.9654570312499999, 0.17324218750000003, 192.0, 0.0, 0.0, 0.0, 0.0, 0.0, 0.0, 0.0, 0.0, 0.0, 1.741985473910864E9, 0.0, 2025-03-14 15:51:13.910
170.0, 14196.442269854817, 23258.08534122531, -7595.88272522482, 2801.9699814283827, 8803.882754311891, 9252.795189952278, 3899.530041161781, 18863.173587700556, 47796.255087406054, -1862.5038102273716, 21010.617436244185, 51311.42453091437, 9310.84267030271, -36.83567486234604, 21595.450829917292, -15477.331337610643, 0.0963828125, 0.9654570312499999, 0.17324218750000003, 192.0, 0.0, 0.0, 0.0, 0.0, 0.0, 0.0, 0.0, 0.0, 0.0, 1.741985473911009E9, 0.0, 2025-03-14 15:51:13.911
172.0, 14199.169182678364, 23259.404094148173, -7611.528946343536, 2801.768815728285, 8804.016864778623, 9260.283024344806, 3905.8555848426327, 18876.11524774018, 47790.734206525594, -1875.6466359670922, 20964.170511266057, 51269.224437382756, 9303.354835910182, -48.525637212471636, 21587.78418156912, -15485.646186548018, 0.0963828125, 0.9654570312499999, 0.17324218750000003, 192.0, 0.0, 0.0, 0.0, 0.0, 0.0, 0.0, 0.0, 0.0, 0.0, 1.741985473911146E9, 0.0, 2025-03-14 15:51:13.911
174.0, 14201.158487934887, 23258.018285991944, -7587.679635009723, 2805.74742624133, 8808.9789520477, 9258.584291766201, 3906.9508203209425, 18866.749866813407, 47792.27647689301, -1870.818659164746, 21002.593159984728, 51290.391539381926, 9312.831975559233, -41.59659643132645, 21590.444039159305, -15481.734631268338, 0.0963828125, 0.9654570312499999, 0.17324218750000003, 192.0, 0.0, 0.0, 0.0, 0.0, 0.0, 0.0, 0.0, 0.0, 0.0, 1.741985473911283E9, 0.0, 2025-03-14 15:51:13.911
176.0, 14193.245970397707, 23251.49157661099, -7608.690274797711, 2797.767853470785, 8800.708806599238, 9254.136294619597, 3903.910983075021, 18868.202730203, 47788.18610765769, -1875.6466359670922, 20976.888653861126, 51271.63842578392, 9301.477289375936, -45.73166915555825, 21590.958129281775, -15489.669500549973, 0.09319140625, 0.969728515625, 0.17162109375, 192.0, 1.0, 104.0, 15.0, 56.0, 2.5, 40.0, 0.0, 0.0, 0.0, 1.741985473911424E9, 0.0, 2025-03-14 15:51:13.911
178.0, 14202.790165280125, 23257.07951272482, -7582.449326807181, 2804.6298390185643, 8806.386149690885, 9256.952614420965, 3900.8934975735547, 18863.620622589664, 47790.89066873678, -1870.1928103199973, 20995.19473257002, 51278.2545421427, 9302.88544927662, -46.31281451139623, 21586.912463535366, -15493.536352340741, 0.09319140625, 0.969728515625, 0.17162109375, 192.0, 0.0, 0.0, 0.0, 0.0, 0.0, 0.0, 0.0, 0.0, 0.0, 1.741985473911572E9, 0.0, 2025-03-14 15:51:13.911
180.0, 14205.092394959021, 23256.520719113436, -7600.420129349248, 2803.467548306888, 8806.117928757421, 9262.920530190531, 3909.9236023334984, 18871.644898849117, 47791.40475885925, -1868.6281882081257, 20994.993566869925, 51286.39057712443, 9300.426757386536, -42.96005284310017, 21591.8969025489, -15487.233160404345, 0.09319140625, 0.969728515625, 0.17162109375, 192.0, 0.0, 0.0, 0.0, 0.0, 0.0, 0.0, 0.0, 0.0, 0.0, 1.741985473969433E9, 0.0, 2025-03-14 15:51:13.969
182.0, 14204.33243564754, 23253.45853012306, -7580.0129866615525, 2815.671600779486, 8805.067396768021, 9265.35687033616, 3904.2686109863057, 18869.409724403587, 47792.052959448454, -1866.6612346960587, 20995.418250014576, 51273.6500827849, 9302.907801021076, -37.23800626254157, 21594.17678048334, -15483.790991758227, 0.09319140625, 0.969728515625, 0.17162109375, 192.0, 0.0, 0.0, 0.0, 0.0, 0.0, 0.0, 0.0, 0.0, 0.0, 1.741985473969638E9, 0.0, 2025-03-14 15:51:13.969
184.0, 14205.04769147011, 23255.42548363513, -7601.135385171818, 2815.22456589038, 8802.78751883358, 9273.627015784623, 3906.3473232206493, 18876.24935820691, 47792.12001468182, -1866.393013762595, 21000.91677915058, 51301.38859765394, 9303.980684754932, -33.79583761642428, 21594.154428738886, -15470.737572996328, 0.09319140625, 0.969728515625, 0.17162109375, 192.0, 0.0, 0.0, 0.0, 0.0, 0.0, 0.0, 0.0, 0.0, 0.0, 1.741985473969786E9, 0.0, 2025-03-14 15:51:13.969
186.0, 14214.10014797451, 23262.22041394954, -7577.934274427209, 2822.0418479492487, 8813.829280594502, 9266.49680930338, 3919.5125007048255, 18885.659442622597, 47797.46208160664, -1858.3687375031398, 20987.125752821656, 51273.04658568461, 9308.74160632391, -28.07379103586567, 21597.306024707083, -15466.49074154982, 0.096595703125, 0.9718642578125, 0.16981054687500002, 192.0, 1.5, 16.0, 15.0, 56.0, 2.5, 32.0, 0.0, 0.0, 0.0, 1.741985473969922E9, 0.0, 2025-03-14 15:51:13.969
188.0, 14217.363502664984, 23268.523605885937, -7599.861335737865, 2819.5608043147095, 8807.011998535634, 9271.12362040563, 3914.0363233132753, 18873.477741894454, 47796.99269497308, -1857.9887578473995, 21011.66796823358, 51313.68205710436, 9308.495737134903, -27.135017768742774, 21601.329338709038, -15470.670517762963, 0.096595703125, 0.9718642578125, 0.16981054687500002, 192.0, 0.0, 0.0, 0.0, 0.0, 0.0, 0.0, 0.0, 0.0, 0.0, 1.74198547397007E9, 0.0, 2025-03-14 15:51:13.970
190.0, 14216.938819520334, 23269.17180647514, -7588.439594321203, 2817.8844234805615, 8803.703940356248, 9262.652309257068, 3896.19963123794, 18851.371866628157, 47797.75265428456, -1851.976138588922, 20979.48145621794, 51264.463515813775, 9306.84170804521, -32.231215504552786, 21591.8969025489, -15475.58790154313, 0.096595703125, 0.9718642578125, 0.16981054687500002, 192.0, 0.0, 0.0, 0.0, 0.0, 0.0, 0.0, 0.0, 0.0, 0.0, 1.741985473970208E9, 0.0, 2025-03-14 15:51:13.970
192.0, 14212.66963632937, 23264.477940139528, -7604.532850329024, 2817.0797606801702, 8806.252039224153, 9273.291739617795, 3904.156852264029, 18871.17551221556, 47802.759445042546, -1855.4406589794946, 21015.87009619118, 51317.63831587295, 9312.474347647947, -31.158331770698044, 21593.394469427403, -15464.546139782207, 0.096595703125, 0.9718642578125, 0.16981054687500002, 192.0, 0.0, 0.0, 0.0, 0.0, 0.0, 0.0, 0.0, 0.0, 0.0, 1.741985473970351E9, 0.0, 2025-03-14 15:51:13.970
194.0, 14201.829040268547, 23252.296239411386, -7593.200515890184, 2812.5870600446538, 8805.849707823958, 9263.971062179931, 3904.358017964127, 18870.3037941818, 47798.64672406277, -1867.4658974964498, 20962.15885426508, 51250.09134412901, 9311.803795314288, -37.37211672927341, 21591.069888004055, -15472.190436385923, 0.096595703125, 0.9718642578125, 0.16981054687500002, 192.0, 0.0, 0.0, 0.0, 0.0, 0.0, 0.0, 0.0, 0.0, 0.0, 1.741985473970489E9, 0.0, 2025-03-14 15:51:13.970
196.0, 14194.989406465222, 23245.41190211915, -7611.953629488186, 2799.3771790715673, 8805.69324561277, 9254.315108575238, 3900.222945239895, 18862.860663278185, 47789.79543325847, -1877.680644712525, 21006.504715264407, 51306.0601122451, 9304.22655394394, -43.49649471002754, 21587.113629235464, -15485.020337703269, 0.09629785156250001, 0.9699321289062499, 0.1689052734375, 192.0, 1.5, 0.0, 15.0, 32.0, 2.5, 32.0, 0.0, 0.0, 0.0, 1.741985474028373E9, 0.0, 2025-03-14 15:51:14.028
198.0, 14199.057423956088, 23253.279716167417, -7595.435690335714, 2801.6570570060085, 8807.771957847113, 9255.969137664932, 3901.3405324626606, 18868.962689514483, 47790.89066873678, -1879.4017290355837, 20943.67396160054, 51224.610355449964, 9308.003998756885, -46.60338718931523, 21588.186512969318, -15491.479991850852, 0.09629785156250001, 0.9699321289062499, 0.1689052734375, 192.0, 0.0, 0.0, 0.0, 0.0, 0.0, 0.0, 0.0, 0.0, 0.0, 1.741985474028565E9, 0.0, 2025-03-14 15:51:14.028
200.0, 14200.24206641222, 23259.024114492433, -7607.483280597125, 2794.7280162248635, 8804.64271362337, 9245.843797426676, 3893.1150905031077, 18860.916061510572, 47794.91398273873, -1873.8137929217569, 21015.668930491083, 51305.90365003391, 9308.853365046187, -47.58686394534874, 21589.63937635891, -15499.996006488325, 0.09629785156250001, 0.9699321289062499, 0.1689052734375, 192.0, 0.0, 0.0, 0.0, 0.0, 0.0, 0.0, 0.0, 0.0, 0.0, 1.741985474028709E9, 0.0, 2025-03-14 15:51:14.028
202.0, 14205.494726359217, 23263.382704661217, -7595.16746940225, 2799.3324755826566, 8806.095577012966, 9254.002184152863, 3898.1889364944623, 18863.620622589664, 47797.90911649574, -1871.4445080094945, 20951.988810537914, 51233.215777065256, 9309.479213890936, -49.531465712960454, 21584.297309434096, -15501.49357336683, 0.09629785156250001, 0.9699321289062499, 0.1689052734375, 192.0, 0.0, 0.0, 0.0, 0.0, 0.0, 0.0, 0.0, 0.0, 0.0, 1.741985474028857E9, 0.0, 2025-03-14 15:51:14.028
204.0, 14209.115708960977, 23265.997858762486, -7603.191745661706, 2808.004952431316, 8807.481385169194, 9263.635786013101, 3906.101454031641, 18869.74500057042, 47801.440692119686, -1867.8011736632793, 21029.63877077565, 51316.43132167236, 9310.686208091523, -44.994061588533114, 21591.293405448607, -15488.462506349386, 0.09629785156250001, 0.9699321289062499, 0.1689052734375, 192.0, 0.0, 0.0, 0.0, 0.0, 0.0, 0.0, 0.0, 0.0, 0.0, 1.741985474029003E9, 0.0, 2025-03-14 15:51:14.029
206.0, 14210.635627583937, 23265.8413965513, -7599.011969448563, 2812.6541152780196, 8808.844841580969, 9268.128486648618, 3904.5368319197696, 18863.575919100753, 47801.775968286514, -1863.9343218725112, 20954.29104021681, 51234.44512301029, 9312.74256858141, -36.925081840167266, 21588.70060309179, -15477.06311667718, 0.09714892578125, 0.9689660644531249, 0.16745263671875, 192.0, 1.5, 8.0, 15.0, 32.0, 2.5, 24.0, 0.0, 0.0, 0.0, 1.74198547402915E9, 0.0, 2025-03-14 15:51:14.029
208.0, 14206.18763043733, 23261.37104766024, -7600.8001090049875, 2819.1808246589694, 8812.376417204907, 9277.35975710866, 3908.3142767327163, 18878.5068843969, 47800.45721536365, -1867.3764905186285, 21025.81662247379, 51315.000810027224, 9307.8475365457, -32.74530562702485, 21587.80653331358, -15470.983442185336, 0.09714892578125, 0.9689660644531249, 0.16745263671875, 192.0, 0.0, 0.0, 0.0, 0.0, 0.0, 0.0, 0.0, 0.0, 0.0, 1.741985474029297E9, 0.0, 2025-03-14 15:51:14.029
210.0, 14200.420880367861, 23254.151434201176, -7603.303504383983, 2816.811539746707, 8814.969219561723, 9277.382108853115, 3913.254012257339, 18879.289195452835, 47803.47470086512, -1859.0839933257096, 20954.358095450174, 51245.933919660325, 9317.347027939204, -23.20111074460873, 21594.355594438985, -15458.198244356901, 0.09714892578125, 0.9689660644531249, 0.16745263671875, 192.0, 0.0, 0.0, 0.0, 0.0, 0.0, 0.0, 0.0, 0.0, 0.0, 1.741985474088958E9, 0.0, 2025-03-14 15:51:14.088
212.0, 14192.061327941577, 23243.713169540548, -7601.783585761022, 2802.729940739863, 8808.911896814334, 9265.803905225266, 3903.2180789969066, 18867.375715658156, 47789.21428790263, -1878.9993976353883, 21012.29381707833, 51302.46148138779, 9304.092443477208, -36.0757155508656, 21589.102934491984, -15478.046593433213, 0.09714892578125, 0.9689660644531249, 0.16745263671875, 192.0, 0.0, 0.0, 0.0, 0.0, 0.0, 0.0, 0.0, 0.0, 0.0, 1.741985474089127E9, 0.0, 2025-03-14 15:51:14.089
214.0, 14201.180839679342, 23254.196137690084, -7606.388045118814, 2805.702722752419, 8811.50469917115, 9267.614396526145, 3908.4483871994485, 18877.54575938532, 47791.22594490361, -1876.2277813229302, 20952.212327982466, 51238.40138177889, 9300.292646919805, -45.776372644468864, 21586.778353068632, -15484.886227236537, 0.09714892578125, 0.9689660644531249, 0.16745263671875, 192.0, 0.0, 0.0, 0.0, 0.0, 0.0, 0.0, 0.0, 0.0, 0.0, 1.741985474089283E9, 0.0, 2025-03-14 15:51:14.089
216.0, 14201.784336779636, 23253.100902211776, -7597.380292103326, 2802.8193477176846, 8809.716559614726, 9252.526969018814, 3896.4678521714036, 18864.78291330134, 47801.217174675134, -1872.5397434878046, 21016.272427591375, 51291.933809749346, 9314.038969759818, -39.093201052332056, 21585.884283290423, -15482.896921980015, 0.094574462890625, 0.9664830322265625, 0.16672631835937501, 192.0, 1.0, 112.0, 15.0, 16.0, 2.5, 24.0, 0.0, 0.0, 0.0, 1.741985474089421E9, 0.0, 2025-03-14 15:51:14.089
218.0, 14197.962188477779, 23248.585849831805, -7609.8972689982975, 2798.0360744042487, 8808.17428924731, 9249.35302130616, 3896.7360731048675, 18864.4029336456, 47795.42807286121, -1873.5679237327486, 20968.171473523555, 51246.984451649725, 9306.46172838947, -47.05042207842137, 21586.35366992398, -15491.792916273227, 0.094574462890625, 0.9664830322265625, 0.16672631835937501, 192.0, 0.0, 0.0, 0.0, 0.0, 0.0, 0.0, 0.0, 0.0, 0.0, 1.74198547408957E9, 0.0, 2025-03-14 15:51:14.089
220.0, 14201.270246657163, 23246.753006786468, -7593.848716479388, 2801.835870961651, 8812.443472438274, 9251.319974818227, 3906.2355644983727, 18866.280480179845, 47797.998523473565, -1876.4736505119386, 21013.210238600997, 51284.11069918999, 9303.265428932362, -44.90465461071189, 21582.68798383331, -15492.239951162333, 0.094574462890625, 0.9664830322265625, 0.16672631835937501, 192.0, 0.0, 0.0, 0.0, 0.0, 0.0, 0.0, 0.0, 0.0, 0.0, 1.741985474089713E9, 0.0, 2025-03-14 15:51:14.089
222.0, 14202.14196469092, 23248.02705622042, -7612.445367866203, 2788.2013068439137, 8813.739873616682, 9244.413285781537, 3896.2219829823953, 18857.272727164356, 47795.58453507239, -1881.4133860365614, 20967.43386595653, 51250.963062162766, 9303.757167310378, -53.93475937065594, 21584.252605945185, -15500.375986144065, 0.094574462890625, 0.9664830322265625, 0.16672631835937501, 192.0, 0.0, 0.0, 0.0, 0.0, 0.0, 0.0, 0.0, 0.0, 0.0, 1.741985474089864E9, 0.0, 2025-03-14 15:51:14.089
224.0, 14202.790165280125, 23248.40703587616, -7595.659207780267, 2794.057463891204, 8815.013923050634, 9239.182977578996, 3900.3347039621717, 18862.279517922347, 47801.88772700879, -1878.2394383239077, 21002.123773351166, 51273.560675807086, 9309.322751679749, -53.085393081354276, 21584.386716411915, -15506.835640291649, 0.094574462890625, 0.9664830322265625, 0.16672631835937501, 192.0, 0.0, 0.0, 0.0, 0.0, 0.0, 0.0, 0.0, 0.0, 0.0, 1.741985474089998E9, 0.0, 2025-03-14 15:51:14.089
226.0, 14208.601618838504, 23254.620820834738, -7606.7233212856445, 2803.467548306888, 8818.903126585858, 9266.921492448031, 3906.168509265007, 18872.82954130525, 47801.59715433087, -1867.264731796352, 20982.744810908414, 51270.43143158334, 9307.624019101146, -44.27880576596329, 21590.22052171475, -15495.436250619443, 0.09528723144531251, 0.9672415161132812, 0.16836315917968753, 192.0, 1.5, 0.0, 15.0, 32.0, 2.5, 40.0, 0.0, 0.0, 0.0, 1.741985474151793E9, 0.0, 2025-03-14 15:51:14.151
228.0, 14203.930104247345, 23247.17768993112, -7595.860373480365, 2802.059388406204, 8809.35893170344, 9258.651346999568, 3890.4775846573816, 18860.804302788296, 47805.911041010746, -1867.5106009853605, 21000.894427406125, 51273.851248485, 9312.787272070322, -33.438209705139364, 21584.49847513419, -15489.088355194135, 0.09528723144531251, 0.9672415161132812, 0.16836315917968753, 192.0, 0.0, 0.0, 0.0, 0.0, 0.0, 0.0, 0.0, 0.0, 0.0, 1.741985474151976E9, 0.0, 2025-03-14 15:51:14.151
230.0, 14196.486973343728, 23239.958076472056, -7627.398684906803, 2785.3849870425447, 8802.005207777645, 9243.541567747781, 3889.9634945349094, 18859.127921954147, 47800.07723570791, -1870.818659164746, 20986.276386532354, 51274.54415256312, 9308.831013301733, -39.71904989708065, 21572.18266393932, -15499.727785554862, 0.09528723144531251, 0.9672415161132812, 0.16836315917968753, 192.0, 0.0, 0.0, 0.0, 0.0, 0.0, 0.0, 0.0, 0.0, 0.0, 1.741985474152118E9, 0.0, 2025-03-14 15:51:14.152
232.0, 14199.213886167276, 23239.064006693843, -7600.867164238354, 2797.03024590376, 8811.638809637881, 9254.940957419987, 3900.804090595733, 18859.73141905444, 47795.36101762784, -1880.2734470693408, 20976.95570909449, 51246.51506501616, 9302.483117876425, -50.403183746717424, 21566.572376081036, -15499.794840788227, 0.09528723144531251, 0.9672415161132812, 0.16836315917968753, 192.0, 0.0, 0.0, 0.0, 0.0, 0.0, 0.0, 0.0, 0.0, 0.0, 1.741985474152252E9, 0.0, 2025-03-14 15:51:14.152
234.0, 14198.56568557807, 23239.131061927208, -7622.660115082278, 2795.3315133251567, 8809.448338681263, 9260.037155155796, 3906.9508203209425, 18861.765427799874, 47792.54469782647, -1876.2724848118407, 20989.763258667383, 51272.510143817686, 9299.108004463675, -46.60338718931523, 21578.21763494225, -15491.859971506594, 0.09528723144531251, 0.9672415161132812, 0.16836315917968753, 192.0, 0.0, 0.0, 0.0, 0.0, 0.0, 0.0, 0.0, 0.0, 0.0, 1.741985474152395E9, 0.0, 2025-03-14 15:51:14.152
236.0, 14201.404357123894, 23236.784128759402, -7603.214097406161, 2798.1478331265253, 8809.113062514432, 9264.418097069038, 3900.848794084644, 18875.26588145088, 47796.59036357288, -1877.0994993566871, 20979.57086319576, 51245.91156791587, 9308.205164456984, -44.859951121801274, 21576.764771552655, -15487.099049937613, 0.10064361572265626, 0.9686207580566406, 0.17018157958984376, 192.0, 1.5, 40.0, 15.0, 40.0, 2.5, 48.0, 0.0, 0.0, 0.0, 1.741985474152537E9, 0.0, 2025-03-14 15:51:14.152
238.0, 14201.180839679342, 23234.191326402586, -7625.990525006119, 2788.4918795218327, 8802.049911266555, 9259.299547588773, 3905.743826120356, 18877.29989019631, 47794.534003083, -1880.0275778803323, 21002.973139640468, 51285.04947245711, 9297.386920140616, -46.73749765604707, 21570.483931360715, -15492.932855240448, 0.10064361572265626, 0.9686207580566406, 0.17018157958984376, 192.0, 0.0, 0.0, 0.0, 0.0, 0.0, 0.0, 0.0, 0.0, 0.0, 1.741985474152688E9, 0.0, 2025-03-14 15:51:14.152
240.0, 14207.014644982177, 23237.253515392964, -7603.214097406161, 2794.951533669416, 8807.615495635926, 9254.091591130686, 3899.0606545282194, 18863.48651212293, 47798.24439266258, -1878.1947348349972, 20970.071371802256, 51237.59671897849, 9302.103138220686, -47.69862266762527, 21578.575262853537, -15492.68698605144, 0.10064361572265626, 0.9686207580566406, 0.17018157958984376, 192.0, 0.0, 0.0, 0.0, 0.0, 0.0, 0.0, 0.0, 0.0, 0.0, 1.741985474209245E9, 0.0, 2025-03-14 15:51:14.209
242.0, 14206.09822345951, 23236.001817703465, -7627.353981417893, 2787.843678932629, 8808.867193325425, 9251.20821609595, 3902.5922301521578, 18866.369887157667, 47802.31241015344, -1879.9828743914218, 21009.052814132312, 51294.28074291715, 9304.785347555322, -48.77150640148001, 21577.658841330867, -15502.432346633954, 0.10064361572265626, 0.9686207580566406, 0.17018157958984376, 192.0, 0.0, 0.0, 0.0, 0.0, 0.0, 0.0, 0.0, 0.0, 0.0, 1.7419854742094E9, 0.0, 2025-03-14 15:51:14.209
244.0, 14201.650226312904, 23229.475108322516, -7612.691237055211, 2791.777585956763, 8808.64367588087, 9245.866149171132, 3898.904192317032, 18857.78681728683, 47800.41251187474, -1881.9498279034888, 20955.743903606406, 51224.3421345165, 9301.969027753954, -55.29821578242967, 21579.35757390947, -15505.852163535616, 0.10064361572265626, 0.9686207580566406, 0.17018157958984376, 192.0, 0.0, 0.0, 0.0, 0.0, 0.0, 0.0, 0.0, 0.0, 0.0, 1.741985474209544E9, 0.0, 2025-03-14 15:51:14.209
246.0, 14199.504458845195, 23226.390567587685, -7632.22666170915, 2784.31210330869, 8805.447376423763, 9250.671774229024, 3903.7321691193783, 18861.988945244426, 47795.96451472813, -1884.4532232824831, 21005.945921653023, 51289.408062625895, 9299.018597485852, -54.47120123758331, 21574.596652340493, -15511.507154882807, 0.10132180786132813, 0.9643103790283203, 0.17009078979492187, 192.0, 1.5, 24.0, 15.0, 0.0, 2.5, 40.0, 0.0, 0.0, 0.0, 1.741985474209684E9, 0.0, 2025-03-14 15:51:14.209
248.0, 14200.979673979244, 23227.910486210643, -7618.435635380225, 2785.854373676106, 8803.636885122882, 9247.40841953855, 3895.2161544819064, 18857.049209719804, 47796.053921705956, -1887.2248395949412, 20945.775025579336, 51216.56372744605, 9304.092443477208, -57.24281755004139, 21572.40618138387, -15507.64030309204, 0.10132180786132813, 0.9643103790283203, 0.17009078979492187, 192.0, 0.0, 0.0, 0.0, 0.0, 0.0, 0.0, 0.0, 0.0, 0.0, 1.741985474209837E9, 0.0, 2025-03-14 15:51:14.209
250.0, 14202.879572257945, 23227.59756178827, -7632.3160686869705, 2780.579361984654, 8803.212201978231, 9241.462855513437, 3897.965419049909, 18862.391276644623, 47793.2823053935, -1887.4483570394943, 21012.31616882279, 51293.252562672205, 9289.541457836802, -58.00277686152183, 21572.540291850604, -15525.432291678464, 0.10132180786132813, 0.9643103790283203, 0.17009078979492187, 192.0, 0.0, 0.0, 0.0, 0.0, 0.0, 0.0, 0.0, 0.0, 0.0, 1.741985474209982E9, 0.0, 2025-03-14 15:51:14.209
252.0, 14201.67257805736, 23225.809422231847, -7619.307353413982, 2784.4015102865114, 8806.07322526851, 9250.515312017837, 3898.166584750007, 18855.953974241493, 47797.46208160664, -1885.5484587607932, 20943.24927845589, 51214.753236145174, 9297.498678862892, -54.962939615600064, 21576.13892270791, -15517.855050308115, 0.10132180786132813, 0.9643103790283203, 0.17009078979492187, 192.0, 0.0, 0.0, 0.0, 0.0, 0.0, 0.0, 0.0, 0.0, 0.0, 1.741985474210129E9, 0.0, 2025-03-14 15:51:14.210
254.0, 14203.483069358239, 23229.11748041123, -7627.17516746225, 2779.282960806246, 8805.98381829069, 9246.491998015881, 3896.981942293876, 18862.525387111353, 47795.09279669438, -1882.3521593036842, 21009.857476932702, 51288.8045655256, 9297.811603285267, -53.97946285956655, 21576.764771552655, -15521.185460231956, 0.10132180786132813, 0.9643103790283203, 0.17009078979492187, 192.0, 0.0, 0.0, 0.0, 0.0, 0.0, 0.0, 0.0, 0.0, 0.0, 1.741985474210266E9, 0.0, 2025-03-14 15:51:14.210
0.0, 14202.656054813393, 23226.41291933214, -7622.190728448717, 2784.1109376085924, 8801.781690333091, 9250.716477717933, 3899.887669073066, 18864.894672023616, 47798.758482785044, -1887.7836332063239, 20941.77406332184, 51207.5336226861, 9299.97972249743, -56.48285823856095, 21577.390620397404, -15520.537259642751, 0.09966090393066407, 0.9631551895141601, 0.17004539489746096, 192.0, 1.5, 8.0, 15.0, 8.0, 2.5, 40.0, 0.0, 0.0, 0.0, 1.74198547426945E9, 0.0, 2025-03-14 15:51:14.269
2.0, 14203.594828080515, 23227.977541444012, -7621.609583092879, 2786.0778911206594, 8802.474594411206, 9251.230567840406, 3892.2433724693506, 18858.792645787318, 47799.00435197406, -1884.4755750269385, 21015.266599090886, 51278.56746656507, 9301.03025448683, -55.275864037974365, 21573.27789941763, -15521.699550354428, 0.09966090393066407, 0.9631551895141601, 0.17004539489746096, 192.0, 0.0, 0.0, 0.0, 0.0, 0.0, 0.0, 0.0, 0.0, 0.0, 1.741985474269616E9, 0.0, 2025-03-14 15:51:14.269
4.0, 14205.8523542705, 23230.905619967656, -7615.440501623214, 2785.7426149538296, 8800.328826943496, 9248.436599783492, 3894.7691195928005, 18856.49041610842, 47798.95964848514, -1880.3181505582513, 20953.53108090533, 51215.82611987903, 9295.665835817557, -54.091221581843094, 21579.78225705412, -15521.11840499859, 0.09966090393066407, 0.9631551895141601, 0.17004539489746096, 192.0, 0.0, 0.0, 0.0, 0.0, 0.0, 0.0, 0.0, 0.0, 0.0, 1.741985474269907E9, 0.0, 2025-03-14 15:51:14.269
6.0, 14206.791127537625, 23228.49163156648, -7612.7135887996665, 2787.6201614880756, 8801.669931610815, 9249.26361432834, 3891.036378268764, 18857.96563124247, 47799.965476985635, -1880.3181505582513, 21021.815660216293, 51281.227324155254, 9301.812565542767, -51.29725352492971, 21573.27789941763, -15524.761739344805, 0.09966090393066407, 0.9631551895141601, 0.17004539489746096, 192.0, 0.0, 0.0, 0.0, 0.0, 0.0, 0.0, 0.0, 0.0, 0.0, 1.741985474270043E9, 0.0, 2025-03-14 15:51:14.270
8.0, 14202.276075157652, 23225.60825653175, -7614.07704521144, 2788.3354173106454, 8798.36187343143, 9249.867111428632, 3897.0489975272417, 18866.481645879943, 47800.099587452365, -1877.457127267972, 20959.878976330638, 51219.648268180885, 9300.426757386536, -48.16800930118672, 21575.8930535189, -15515.083433995658, 0.09966090393066407, 0.9631551895141601, 0.17004539489746096, 192.0, 0.0, 0.0, 0.0, 0.0, 0.0, 0.0, 0.0, 0.0, 0.0, 1.741985474270184E9, 0.0, 2025-03-14 15:51:14.270
10.0, 14202.410185624383, 23224.289503608885, -7606.41039686327, 2791.9787516568604, 8803.770995589613, 9249.464780028437, 3911.041189556264, 18873.678907594553, 47795.53983158348, -1882.7321389594244, 21018.23938110344, 51277.025196197654, 9302.594876598701, -50.3137767688962, 21574.93192850732, -15520.380797431566, 0.09883045196533204, 0.96757759475708, 0.1690226974487305, 192.0, 1.5, 8.0, 15.0, 48.0, 2.5, 32.0, 0.0, 0.0, 0.0, 1.741985474270326E9, 0.0, 2025-03-14 15:51:14.270
12.0, 14204.868877514467, 23229.519811811428, -7620.6931615702115, 2788.9165626664835, 8796.238457708176, 9253.331631819205, 3896.0878725156635, 18858.367962642667, 47799.674904307714, -1879.200563335486, 20968.685563646028, 51230.31005028606, 9309.79213831331, -53.51007622600511, 21572.7414575507, -15510.814250804693, 0.09883045196533204, 0.96757759475708, 0.1690226974487305, 192.0, 0.0, 0.0, 0.0, 0.0, 0.0, 0.0, 0.0, 0.0, 0.0, 1.741985474270475E9, 0.0, 2025-03-14 15:51:14.270
14.0, 14212.803746796102, 23238.907544482656, -7605.561030573968, 2792.4704900348775, 8801.513469399628, 9254.15864636405, 3900.4017591955376, 18859.418494632067, 47802.468872364625, -1879.938170902511, 21011.53385776685, 51266.408117581384, 9319.962182040475, -47.92214011217834, 21569.813379027055, -15503.97461700137, 0.09883045196533204, 0.96757759475708, 0.1690226974487305, 192.0, 0.0, 0.0, 0.0, 0.0, 0.0, 0.0, 0.0, 0.0, 0.0, 1.741985474332648E9, 0.0, 2025-03-14 15:51:14.332
16.0, 14224.538412635138, 23258.241803436496, -7619.664981325267, 2796.0691208921817, 8805.134452001388, 9263.322861590726, 3911.6670384010126, 18879.043326263825, 47803.385293887295, -1872.8526679101788, 20974.608775926685, 51237.59671897849, 9321.102121007696, -51.20784654710848, 21568.338163893004, -15504.041672234736, 0.09883045196533204, 0.96757759475708, 0.1690226974487305, 192.0, 0.0, 0.0, 0.0, 0.0, 0.0, 0.0, 0.0, 0.0, 0.0, 1.741985474332842E9, 0.0, 2025-03-14 15:51:14.332
18.0, 14224.694874846326, 23264.254422694972, -7597.134422914318, 2800.5618215276986, 8803.703940356248, 9252.817541696733, 3896.4007969380377, 18865.297003423813, 47816.08108473791, -1865.6330544511145, 21010.21510484399, 51262.11658264597, 9334.535519425335, -42.065983064887895, 21579.446980887293, -15491.077660450657, 0.09883045196533204, 0.96757759475708, 0.1690226974487305, 192.0, 0.0, 0.0, 0.0, 0.0, 0.0, 0.0, 0.0, 0.0, 0.0, 1.741985474332986E9, 0.0, 2025-03-14 15:51:14.332
20.0, 14217.832889298546, 23263.60622210577, -7620.335533658927, 2792.2246208458687, 8801.938152544279, 9251.431733540503, 3897.227811482884, 18866.68281158004, 47814.22588994812, -1872.6067987211704, 20984.73411616494, 51259.92611168935, 9331.786254857332, -49.64322443523699, 21574.350783151483, -15498.96782624338, 0.09841522598266603, 0.96978879737854, 0.17351134872436524, 192.0, 1.5, 8.0, 15.0, 48.0, 2.5, 72.0, 0.0, 0.0, 0.0, 1.741985474333126E9, 0.0, 2025-03-14 15:51:14.333
22.0, 14217.363502664984, 23270.378800675728, -7593.379329845826, 2800.383007572056, 8806.944943302267, 9263.255806357362, 3899.4182824395043, 18870.035573248337, 47814.20353820366, -1878.2841418128185, 20993.428944758052, 51258.316786088566, 9337.821225860265, -47.676270923169966, 21573.344954650995, -15483.858046991594, 0.09841522598266603, 0.96978879737854, 0.17351134872436524, 192.0, 0.0, 0.0, 0.0, 0.0, 0.0, 0.0, 0.0, 0.0, 0.0, 1.741985474333268E9, 0.0, 2025-03-14 15:51:14.333
24.0, 14213.787223552135, 23280.347678702794, -7616.22281267915, 2798.192536615436, 8802.206373477742, 9256.684393487501, 3902.9722098078983, 18870.54966337081, 47811.566032357936, -1868.136449830109, 20990.992604612424, 51272.59955079551, 9324.477234420447, -51.252550036019095, 21578.93289076482, -15484.036860947235, 0.09841522598266603, 0.96978879737854, 0.17351134872436524, 192.0, 0.0, 0.0, 0.0, 0.0, 0.0, 0.0, 0.0, 0.0, 0.0, 1.741985474333414E9, 0.0, 2025-03-14 15:51:14.333
26.0, 14211.172069450864, 23282.001707792486, -7598.0955479258955, 2802.439368061944, 8805.246210723664, 9261.959405178954, 3894.1656224925073, 18864.648802834607, 47807.74388405608, -1867.6447114520922, 20983.661232431084, 51251.54420751861, 9327.450016433004, -43.94352959913368, 21581.950376266286, -15476.504323065798, 0.09841522598266603, 0.96978879737854, 0.17351134872436524, 192.0, 0.0, 0.0, 0.0, 0.0, 0.0, 0.0, 0.0, 0.0, 0.0, 1.741985474333553E9, 0.0, 2025-03-14 15:51:14.333
28.0, 14207.081700215544, 23282.26992872595, -7619.195594691706, 2796.247934847824, 8802.519297900117, 9260.819466211733, 3896.8031283382334, 18872.941300027527, 47805.70987531065, -1867.7564701743688, 20989.182113311545, 51282.23315265574, 9326.555946654791, -44.122343554776144, 21579.17875995383, -15477.130171910547, 0.09841522598266603, 0.96978879737854, 0.17351134872436524, 192.0, 0.0, 0.0, 0.0, 0.0, 0.0, 0.0, 0.0, 0.0, 0.0, 1.741985474333698E9, 0.0, 2025-03-14 15:51:14.333
30.0, 14208.109880460488, 23283.36516420426, -7596.575629302934, 2804.406321574011, 8807.906068313845, 9263.166399379541, 3907.263744743317, 18880.2056169755, 47807.229793933606, -1873.2102958214637, 20969.33376423523, 51242.0447161251, 9330.623964145656, -44.6140819327929, 21579.42462914284, -15474.738535253828, 0.10120761299133302, 0.96589439868927, 0.17775567436218262, 192.0, 1.5, 32.0, 15.0, 8.0, 2.5, 88.0, 0.0, 0.0, 0.0, 1.741985474390176E9, 0.0, 2025-03-14 15:51:14.390
32.0, 14202.81251702458, 23281.12998975873, -7620.447292381203, 2796.024417403271, 8802.452242666752, 9257.623166754624, 3905.4756051868926, 18873.298927938813, 47807.00627648905, -1872.3832812766173, 20999.57567448326, 51286.99407422472, 9333.32852522475, -43.854122621312456, 21576.474198874737, -15473.44213407542, 0.10120761299133302, 0.96589439868927, 0.17775567436218262, 192.0, 0.0, 0.0, 0.0, 0.0, 0.0, 0.0, 0.0, 0.0, 0.0, 1.741985474390349E9, 0.0, 2025-03-14 15:51:14.390
34.0, 14209.361578149985, 23286.919091572654, -7596.8662019808535, 2801.902926195017, 8805.961466546234, 9260.864169700644, 3903.553355163736, 18866.88397728014, 47806.045151477476, -1871.6456737095923, 20964.751656621895, 51234.62393696594, 9330.601612401202, -43.22827377656386, 21571.042724972096, -15477.040764932724, 0.10120761299133302, 0.96589439868927, 0.17775567436218262, 192.0, 0.0, 0.0, 0.0, 0.0, 0.0, 0.0, 0.0, 0.0, 0.0, 1.741985474390493E9, 0.0, 2025-03-14 15:51:14.390
36.0, 14205.42767112585, 23285.24271073851, -7616.669847568256, 2803.6016587736203, 8803.033388022588, 9263.12169589063, 3904.5815354086803, 18878.93156754155, 47804.301715409965, -1868.1140980856537, 21015.333654324255, 51298.505222619206, 9329.461673433982, -43.29532900992978, 21572.070905217042, -15474.224445131356, 0.10120761299133302, 0.96589439868927, 0.17775567436218262, 192.0, 0.0, 0.0, 0.0, 0.0, 0.0, 0.0, 0.0, 0.0, 0.0, 1.741985474390632E9, 0.0, 2025-03-14 15:51:14.390
38.0, 14195.771717521158, 23271.89871929869, -7605.113995684862, 2798.907792438006, 8801.781690333091, 9253.912777175043, 3898.0324742832754, 18873.991832016927, 47798.82553801841, -1874.909028400067, 20960.30365947529, 51232.94755613179, 9324.141958253618, -50.06790757988782, 21565.633602813912, -15478.627738789051, 0.10120761299133302, 0.96589439868927, 0.17775567436218262, 192.0, 0.0, 0.0, 0.0, 0.0, 0.0, 0.0, 0.0, 0.0, 0.0, 1.741985474390782E9, 0.0, 2025-03-14 15:51:14.390
40.0, 14197.24693265521, 23272.993954776997, -7610.120786442851, 2799.846565705129, 8803.636885122882, 9252.169341107528, 3901.8993260740435, 18867.26395693588, 47796.880936250804, -1878.8429354242012, 21018.39584331463, 51294.77248129517, 9323.426702431048, -54.40414600421739, 21565.27597490263, -15482.11461092408, 0.09960380649566651, 0.966947199344635, 0.1768778371810913, 192.0, 1.5, 8.0, 15.0, 32.0, 2.5, 64.0, 0.0, 0.0, 0.0, 1.741985474390926E9, 0.0, 2025-03-14 15:51:14.390
42.0, 14201.04672921261, 23273.351582688283, -7592.395853089793, 2801.701760494919, 8806.095577012966, 9248.503655016859, 3903.553355163736, 18872.941300027527, 47801.88772700879, -1882.4415662815054, 20969.803150868793, 51231.69585844229, 9326.332429210237, -56.03582334945481, 21578.46350413126, -15484.97563421436, 0.09960380649566651, 0.966947199344635, 0.1768778371810913, 192.0, 0.0, 0.0, 0.0, 0.0, 0.0, 0.0, 0.0, 0.0, 0.0, 1.741985474391077E9, 0.0, 2025-03-14 15:51:14.391
44.0, 14202.47724085775, 23275.69851585609, -7601.448309594191, 2801.768815728285, 8805.737949101682, 9257.801980710266, 3904.3803697085823, 18867.77804705835, 47802.9829624871, -1879.938170902511, 21034.51145106691, 51303.310847677094, 9321.660914619079, -51.02903259146603, 21575.13309420742, -15478.381869600044, 0.09960380649566651, 0.966947199344635, 0.1768778371810913, 192.0, 0.0, 0.0, 0.0, 0.0, 0.0, 0.0, 0.0, 0.0, 0.0, 1.741985474449073E9, 0.0, 2025-03-14 15:51:14.449
46.0, 14195.950531476801, 23267.9424605301, -7600.129556671329, 2796.0467691477265, 8798.428928664796, 9253.376335308116, 3901.429939440482, 18862.413628389077, 47800.12193919682, -1875.7360429449134, 20963.72347637695, 51229.03600085211, 9323.22553673095, -53.71124192610287, 21575.535425607613, -15479.611215545085, 0.09960380649566651, 0.966947199344635, 0.1768778371810913, 192.0, 0.0, 0.0, 0.0, 0.0, 0.0, 0.0, 0.0, 0.0, 0.0, 1.741985474449263E9, 0.0, 2025-03-14 15:51:14.449
48.0, 14194.43061285384, 23264.723809328534, -7607.863260252865, 2787.776623699263, 8794.383262918385, 9238.73594268989, 3901.496994673848, 18853.69644805151, 47790.95772397015, -1888.0965576286983, 21036.12077666769, 51305.88129828946, 9313.480176148436, -62.76369843050223, 21564.717181291246, -15496.129154697557, 0.09960380649566651, 0.966947199344635, 0.1768778371810913, 192.0, 0.0, 0.0, 0.0, 0.0, 0.0, 0.0, 0.0, 0.0, 0.0, 1.741985474449405E9, 0.0, 2025-03-14 15:51:14.449
50.0, 14199.28094140064, 23265.148492473185, -7601.962399716664, 2786.6813882209526, 8791.991626261668, 9242.7816084363, 3900.3570557066273, 18862.994773744915, 47795.02574146101, -1883.2685808263518, 20970.093723546714, 51225.929108372824, 9314.933039538031, -63.88128565326758, 21560.06801844454, -15494.788050030238, 0.10080190324783325, 0.9684735996723175, 0.17243891859054566, 192.0, 1.5, 24.0, 15.0, 40.0, 2.5, 32.0, 0.0, 0.0, 0.0, 1.741985474449551E9, 0.0, 2025-03-14 15:51:14.449
52.0, 14204.377139136452, 23268.903585541677, -7593.446385079192, 2795.1750511139694, 8801.424062421807, 9250.090628873186, 3904.134500519574, 18869.230910447946, 47801.39598863077, -1879.8934674136005, 21045.799082016838, 51296.404158640406, 9317.727007594945, -55.23116054906375, 21571.713277305756, -15490.250645905811, 0.10080190324783325, 0.9684735996723175, 0.17243891859054566, 192.0, 0.0, 0.0, 0.0, 0.0, 0.0, 0.0, 0.0, 0.0, 0.0, 1.7419854744497E9, 0.0, 2025-03-14 15:51:14.449
54.0, 14199.750328034203, 23260.7899023044, -7604.59990556239, 2791.866992934584, 8795.925533285801, 9251.141160862584, 3902.2569539853284, 18867.420419147067, 47803.22883167611, -1877.3900720346062, 20976.061639316278, 51229.81831190805, 9319.537498895825, -51.96780585858892, 21573.03203022862, -15487.277863893256, 0.10080190324783325, 0.9684735996723175, 0.17243891859054566, 192.0, 0.0, 0.0, 0.0, 0.0, 0.0, 0.0, 0.0, 0.0, 0.0, 1.741985474449841E9, 0.0, 2025-03-14 15:51:14.449
56.0, 14205.964112992779, 23264.65675409517, -7596.419167091748, 2802.439368061944, 8802.184021733286, 9260.618300511635, 3902.7710441078, 18865.87814877965, 47799.85371826336, -1881.2569238253743, 21040.054683691822, 51292.17967893835, 9314.396597671104, -52.8618756368012, 21570.30511740507, -15482.53929406873, 0.10080190324783325, 0.9684735996723175, 0.17243891859054566, 192.0, 0.0, 0.0, 0.0, 0.0, 0.0, 0.0, 0.0, 0.0, 0.0, 1.741985474449984E9, 0.0, 2025-03-14 15:51:14.449
58.0, 14211.708511317793, 23268.836530308312, -7600.487184582614, 2801.500594794821, 8804.486251412183, 9253.488094030392, 3907.3084482322274, 18870.25909069289, 47807.81093928945, -1869.7010719419804, 20982.186017297034, 51240.43539052432, 9320.453920418491, -42.602424931815264, 21583.6938123338, -15469.754096240295, 0.10080190324783325, 0.9684735996723175, 0.17243891859054566, 192.0, 0.0, 0.0, 0.0, 0.0, 0.0, 0.0, 0.0, 0.0, 0.0, 1.741985474450124E9, 0.0, 2025-03-14 15:51:14.450
60.0, 14213.831927041047, 23266.646059351693, -7592.1052804118735, 2801.3217808391787, 8806.252039224153, 9246.000259637864, 3904.0897970306632, 18864.469988878966, 47809.889651523794, -1876.5854092342151, 21034.623209789184, 51293.0066934832, 9324.209013486983, -48.03389883445488, 21576.205977941274, -15488.06017494919, 0.10340095162391663, 0.9652367998361587, 0.17221945929527283, 192.0, 1.5, 40.0, 15.0, 8.0, 2.5, 48.0, 0.0, 0.0, 0.0, 1.74198547450941E9, 0.0, 2025-03-14 15:51:14.509
62.0, 14215.86593578648, 23268.16597797465, -7602.007103205575, 2799.801862216218, 8800.351178687952, 9244.368582292627, 3897.361921949616, 18866.794570302318, 47806.26866892203, -1871.5115632428603, 20986.20933129899, 51249.979585406734, 9307.735777823422, -55.745250671535814, 21581.391582654906, -15488.618968560573, 0.10340095162391663, 0.9652367998361587, 0.17221945929527283, 192.0, 0.0, 0.0, 0.0, 0.0, 0.0, 0.0, 0.0, 0.0, 0.0, 1.741985474509592E9, 0.0, 2025-03-14 15:51:14.509
64.0, 14215.776528808658, 23263.382704661217, -7581.6893674957, 2810.217775132391, 8807.369626446918, 9254.829198697711, 3907.1519860210406, 18874.88590179514, 47806.26866892203, -1872.651502210081, 21031.762186498905, 51288.40223412541, 9310.663856347068, -48.16800930118672, 21583.023260000144, -15489.177762171956, 0.10340095162391663, 0.9652367998361587, 0.17221945929527283, 192.0, 0.0, 0.0, 0.0, 0.0, 0.0, 0.0, 0.0, 0.0, 0.0, 1.741985474509743E9, 0.0, 2025-03-14 15:51:14.509
66.0, 14212.535525862639, 23263.382704661217, -7600.9118677272645, 2801.2994290947236, 8805.849707823958, 9252.661079485546, 3909.029532555286, 18878.55158788581, 47805.03932297699, -1871.3774527761286, 20996.69229944853, 51261.53543729013, 9312.250830203395, -50.17966630216436, 21585.83957980151, -15487.054346448702, 0.10340095162391663, 0.9652367998361587, 0.17221945929527283, 192.0, 0.0, 0.0, 0.0, 0.0, 0.0, 0.0, 0.0, 0.0, 0.0, 1.741985474509888E9, 0.0, 2025-03-14 15:51:14.509
68.0, 14211.149717706408, 23259.76172205946, -7583.11987914084, 2804.3616180851004, 8808.084882269488, 9249.330669561705, 3909.610677911124, 18882.954881543505, 47801.35128514186, -1863.8672666391453, 21025.548401540327, 51276.77932700865, 9309.635676102123, -43.09416330983202, 21581.592748355004, -15494.16220118549, 0.10340095162391663, 0.9652367998361587, 0.17221945929527283, 192.0, 0.0, 0.0, 0.0, 0.0, 0.0, 0.0, 0.0, 0.0, 0.0, 1.741985474510024E9, 0.0, 2025-03-14 15:51:14.510
70.0, 14205.8523542705, 23254.8890417682, -7608.153832930784, 2791.1964406009247, 8804.016864778623, 9251.275271329318, 3910.4153407115155, 18877.92573904106, 47798.69142755168, -1867.9352841300113, 21001.699090206515, 51258.6967657443, 9308.629847601635, -44.122343554776144, 21573.344954650995, -15498.587846587641, 0.09970047581195832, 0.9696183999180794, 0.17110972964763643, 192.0, 1.5, 0.0, 15.0, 56.0, 2.5, 40.0, 0.0, 0.0, 0.0, 1.74198547451017E9, 0.0, 2025-03-14 15:51:14.510
72.0, 14204.868877514467, 23249.368160887738, -7591.479431567125, 2789.4977080223216, 8803.256905467142, 9244.055657870253, 3900.290000473261, 18869.901462781603, 47794.24343040508, -1871.9809498764218, 21011.578561255763, 51253.399402308394, 9306.014693500363, -55.208808804608445, 21571.087428461007, -15507.774413558773, 0.09970047581195832, 0.9696183999180794, 0.17110972964763643, 192.0, 0.0, 0.0, 0.0, 0.0, 0.0, 0.0, 0.0, 0.0, 0.0, 1.741985474510321E9, 0.0, 2025-03-14 15:51:14.510
74.0, 14210.076833972555, 23252.832681278313, -7608.489109097613, 2793.901001680017, 8805.425024679307, 9257.176131865517, 3904.2686109863057, 18871.644898849117, 47799.85371826336, -1874.841973166701, 21009.499849021417, 51263.971777435756, 9307.333446423227, -55.78995416044643, 21577.345916908493, -15506.16508795799, 0.09970047581195832, 0.9696183999180794, 0.17110972964763643, 192.0, 0.0, 0.0, 0.0, 0.0, 0.0, 0.0, 0.0, 0.0, 0.0, 1.741985474571023E9, 0.0, 2025-03-14 15:51:14.571
76.0, 14217.788185809635, 23256.677181324623, -7578.068384893941, 2804.31691459619, 8810.0294840371, 9253.711611474946, 3908.0907592881636, 18873.79066631683, 47809.35320965686, -1867.6223597076369, 21012.74085196744, 51248.861998183966, 9310.574449369245, -45.172875544175575, 21588.946472280797, -15488.842486005127, 0.09970047581195832, 0.9696183999180794, 0.17110972964763643, 192.0, 0.0, 0.0, 0.0, 0.0, 0.0, 0.0, 0.0, 0.0, 0.0, 1.741985474571204E9, 0.0, 2025-03-14 15:51:14.571
78.0, 14214.882459030445, 23253.637344078703, -7605.829251507432, 2796.538507525743, 8808.151937502855, 9246.044963126775, 3900.267648728806, 18867.01808774687, 47804.70404681016, -1869.365795775151, 21029.124680653178, 51280.400309610406, 9312.161423225572, -49.35265175731799, 21593.148600238397, -15491.658805806495, 0.09970047581195832, 0.9696183999180794, 0.17110972964763643, 192.0, 0.0, 0.0, 0.0, 0.0, 0.0, 0.0, 0.0, 0.0, 0.0, 1.741985474571343E9, 0.0, 2025-03-14 15:51:14.571
80.0, 14219.375159665962, 23259.404094148173, -7574.02271914753, 2811.380065844067, 8820.467748697729, 9255.142123120086, 3917.232622770384, 18874.46121865049, 47801.79832003097, -1869.3434440306955, 20998.30162504931, 51238.0437538676, 9309.009827257374, -46.893959867234216, 21592.880379304934, -15494.92216049697, 0.09885023790597916, 0.9708091999590397, 0.1715548648238182, 192.0, 1.5, 8.0, 15.0, 48.0, 2.5, 48.0, 0.0, 0.0, 0.0, 1.74198547457149E9, 0.0, 2025-03-14 15:51:14.571
82.0, 14217.072929987065, 23262.063951738353, -7595.078062424429, 2808.250821620324, 8816.869117840424, 9258.83016095521, 3915.6232971696018, 18880.2056169755, 47806.69335206668, -1862.3026445272737, 21032.00805568791, 51290.92798124886, 9312.183774970028, -35.91925333967845, 21597.32837645154, -15477.465448077375, 0.09885023790597916, 0.9708091999590397, 0.1715548648238182, 192.0, 0.0, 0.0, 0.0, 0.0, 0.0, 0.0, 0.0, 0.0, 0.0, 1.741985474571635E9, 0.0, 2025-03-14 15:51:14.571
84.0, 14211.820270040069, 23258.17474820313, -7582.225809362628, 2808.675504764975, 8810.677684626304, 9251.744657962878, 3906.8837650875766, 18868.06861973627, 47802.87120376482, -1862.7496794163799, 20989.450334245008, 51232.165245075856, 9311.781443569833, -42.49066620953872, 21588.99117576971, -15489.02129996077, 0.09885023790597916, 0.9708091999590397, 0.1715548648238182, 192.0, 0.0, 0.0, 0.0, 0.0, 0.0, 0.0, 0.0, 0.0, 0.0, 1.741985474571788E9, 0.0, 2025-03-14 15:51:14.571
86.0, 14221.342113178029, 23269.194158219598, -7594.78748974651, 2813.4140745895, 8816.019751551123, 9264.619262769134, 3911.622334912102, 18880.58559663124, 47803.02766597601, -1866.4377172515055, 21035.40552084512, 51296.58297259605, 9314.709522093479, -44.6140819327929, 21581.950376266286, -15480.237064389834, 0.09885023790597916, 0.9708091999590397, 0.1715548648238182, 192.0, 0.0, 0.0, 0.0, 0.0, 0.0, 0.0, 0.0, 0.0, 0.0, 1.741985474571938E9, 0.0, 2025-03-14 15:51:14.571
88.0, 14219.598677110514, 23268.635364608213, -7584.505687297069, 2810.5306995547653, 8814.388074205885, 9265.289815102795, 3914.103378546641, 18881.03263152035, 47807.94504975618, -1859.754545659369, 20990.72438367896, 51227.42667525133, 9316.698827350001, -34.68990739463656, 21591.6957368488, -15470.782276485239, 0.09885023790597916, 0.9708091999590397, 0.1715548648238182, 192.0, 0.0, 0.0, 0.0, 0.0, 0.0, 0.0, 0.0, 0.0, 0.0, 1.741985474572072E9, 0.0, 2025-03-14 15:51:14.572
90.0, 14208.780432794147, 23258.6888383256, -7610.992504476608, 2797.03024590376, 8804.285085712087, 9259.008974910854, 3907.7331313768786, 18876.159951229092, 47801.708913053146, -1864.8507433951788, 21033.0138841884, 51280.71323403278, 9313.144899981608, -41.57424468687114, 21574.395486640395, -15497.604369831608, 0.09742511895298958, 0.9674045999795198, 0.17077743241190912, 192.0, 1.5, 0.0, 15.0, 16.0, 2.5, 40.0, 0.0, 0.0, 0.0, 1.741985474630441E9, 0.0, 2025-03-14 15:51:14.630
92.0, 14211.484993873239, 23261.92984127162, -7594.1616409017615, 2803.5346035402545, 8808.64367588087, 9259.92539643352, 3900.9605528069205, 18873.276576194356, 47799.71960779663, -1866.2141998069526, 20967.90325259009, 51204.58319241801, 9310.686208091523, -38.73557314104714, 21576.027163985633, -15486.719070281873, 0.09742511895298958, 0.9674045999795198, 0.17077743241190912, 192.0, 0.0, 0.0, 0.0, 0.0, 0.0, 0.0, 0.0, 0.0, 0.0, 1.741985474630648E9, 0.0, 2025-03-14 15:51:14.630
94.0, 14209.294522916618, 23259.60525984827, -7607.684446297222, 2796.896135437028, 8802.966332789223, 9250.582367251202, 3901.876974329588, 18866.191073202022, 47798.624372318314, -1861.877961382623, 21033.50562256642, 51289.36335913699, 9310.038007502319, -43.63060517675939, 21575.803646541077, -15496.755003542306, 0.09742511895298958, 0.9674045999795198, 0.17077743241190912, 192.0, 0.0, 0.0, 0.0, 0.0, 0.0, 0.0, 0.0, 0.0, 0.0, 1.741985474630798E9, 0.0, 2025-03-14 15:51:14.630
96.0, 14221.319761433573, 23267.853053552277, -7595.346283357893, 2801.9923331728382, 8813.426949194307, 9255.87973068711, 3910.884727345077, 18880.853817564705, 47806.89451776678, -1865.230723050919, 20964.23756649942, 51214.37325648943, 9319.984533784931, -40.63547141974824, 21578.731725064725, -15490.362404628087, 0.09742511895298958, 0.9674045999795198, 0.17077743241190912, 192.0, 0.0, 0.0, 0.0, 0.0, 0.0, 0.0, 0.0, 0.0, 0.0, 1.741985474630943E9, 0.0, 2025-03-14 15:51:14.630
98.0, 14222.839680056535, 23267.629536107725, -7592.976998445631, 2797.611391259598, 8814.544536417072, 9249.911814917543, 3912.4269977124927, 18878.17160823007, 47807.36390440034, -1862.3696997606398, 21039.987628458457, 51290.63740857094, 9309.926248780042, -43.42943947666162, 21582.576225111035, -15499.97365474387, 0.09742511895298958, 0.9674045999795198, 0.17077743241190912, 192.0, 0.0, 0.0, 0.0, 0.0, 0.0, 0.0, 0.0, 0.0, 0.0, 1.741985474631073E9, 0.0, 2025-03-14 15:51:14.631
100.0, 14222.146775978421, 23267.69659134109, -7591.077100166929, 2800.807690716707, 8812.376417204907, 9250.805884695756, 3902.882802830077, 18879.40095417511, 47815.00820100406, -1857.7428886583912, 20979.235587028932, 51210.618163420935, 9318.978705284442, -40.434305719650474, 21584.92315827884, -15487.456677848897, 0.09771255947649479, 0.9657022999897599, 0.17038871620595458, 192.0, 1.5, 8.0, 15.0, 16.0, 2.5, 40.0, 0.0, 0.0, 0.0, 1.741985474631213E9, 0.0, 2025-03-14 15:51:14.631
102.0, 14224.605467868503, 23270.691725098102, -7588.864277465854, 2805.099225652126, 8812.801100349558, 9250.425905040014, 3903.7321691193783, 18871.73430582694, 47813.91296552574, -1862.1908858049974, 21044.815605260803, 51279.32742587655, 9312.362588925671, -42.53536969844934, 21582.26330068866, -15495.34684364162, 0.09771255947649479, 0.9657022999897599, 0.17038871620595458, 192.0, 0.0, 0.0, 0.0, 0.0, 0.0, 0.0, 0.0, 0.0, 0.0, 1.741985474631356E9, 0.0, 2025-03-14 15:51:14.631
104.0, 14219.688084088337, 23265.93080352912, -7591.792355989499, 2802.7522924843183, 8812.622286393915, 9254.292756830782, 3915.6009454251466, 18878.573939630263, 47814.002372503564, -1857.8322956362124, 20980.084953318234, 51218.79890189158, 9317.525841894847, -43.921177854678376, 21584.721992578747, -15485.310910381188, 0.09771255947649479, 0.9657022999897599, 0.17038871620595458, 192.0, 0.0, 0.0, 0.0, 0.0, 0.0, 0.0, 0.0, 0.0, 0.0, 1.741985474690237E9, 0.0, 2025-03-14 15:51:14.690
106.0, 14212.401415395907, 23257.995934247487, -7588.484297810113, 2802.3946645730334, 8809.515393914628, 9250.291794573282, 3906.2579162428283, 18871.98017501595, 47807.788587544994, -1864.0013771058773, 21045.955544228025, 51284.89301024593, 9309.054530746285, -43.69766041012531, 21583.872626289445, -15486.272035392767, 0.09771255947649479, 0.9657022999897599, 0.17038871620595458, 192.0, 0.0, 0.0, 0.0, 0.0, 0.0, 0.0, 0.0, 0.0, 0.0, 1.741985474690424E9, 0.0, 2025-03-14 15:51:14.690
108.0, 14208.176935693853, 23256.565422602347, -7598.609638048368, 2803.735769240352, 8810.834146837491, 9253.711611474946, 3910.3482854781496, 18886.73232635645, 47802.1335961978, -1867.398842263084, 20979.123828306656, 51224.65505893887, 9308.249867945895, -45.82107613337948, 21578.530559364626, -15487.63549180454, 0.09771255947649479, 0.9657022999897599, 0.17038871620595458, 192.0, 0.0, 0.0, 0.0, 0.0, 0.0, 0.0, 0.0, 0.0, 0.0, 1.741985474690567E9, 0.0, 2025-03-14 15:51:14.690
110.0, 14209.361578149985, 23257.817120291846, -7589.132498399317, 2804.8533564631175, 8810.253001481653, 9250.224739339918, 3904.2462592418506, 18873.12011398317, 47800.47956710811, -1861.0509468377766, 21029.39290158664, 51268.173905393356, 9303.623056843646, -37.90855859620078, 21576.161274452363, -15485.288558636734, 0.0968562797382474, 0.9658511499948799, 0.16819435810297728, 192.0, 1.5, 0.0, 15.0, 24.0, 2.5, 24.0, 0.0, 0.0, 0.0, 1.74198547469072E9, 0.0, 2025-03-14 15:51:14.690
112.0, 14208.802784538602, 23254.576117345827, -7602.588248561412, 2796.158527870003, 8804.93328630129, 9242.915718903032, 3901.7652156073113, 18875.936433784536, 47803.85468052086, -1866.3259585292292, 20986.76812491037, 51227.02434385113, 9308.674551090546, -47.609215689804046, 21575.043687229598, -15490.720032539373, 0.0968562797382474, 0.9658511499948799, 0.16819435810297728, 192.0, 0.0, 0.0, 0.0, 0.0, 0.0, 0.0, 0.0, 0.0, 0.0, 1.741985474690861E9, 0.0, 2025-03-14 15:51:14.690
114.0, 14212.781395051647, 23254.620820834738, -7583.768079730044, 2801.2770773502684, 8807.637847380382, 9250.023573639819, 3906.9955238098532, 18876.49522739592, 47805.30754391045, -1871.5339149873157, 21032.119814410187, 51261.11075414548, 9300.739681808911, -53.13009657026489, 21569.54515809359, -15499.213695432389, 0.0968562797382474, 0.9658511499948799, 0.16819435810297728, 192.0, 0.0, 0.0, 0.0, 0.0, 0.0, 0.0, 0.0, 0.0, 0.0, 1.741985474690995E9, 0.0, 2025-03-14 15:51:14.690
116.0, 14205.38296763694, 23249.725788799024, -7604.8457747513985, 2792.448138290422, 8804.419196178818, 9242.826311925211, 3911.1753000229955, 18877.568111129774, 47807.1850904447, -1867.2200283074415, 20993.54070348033, 51230.824140408535, 9305.835879544722, -48.03389883445488, 21574.954280251775, -15493.670462807473, 0.0968562797382474, 0.9658511499948799, 0.16819435810297728, 192.0, 0.0, 0.0, 0.0, 0.0, 0.0, 0.0, 0.0, 0.0, 0.0, 1.74198547469114E9, 0.0, 2025-03-14 15:51:14.691
118.0, 14207.484031615739, 23248.85407076527, -7586.606751275868, 2796.382045314556, 8805.156803745844, 9249.241262583884, 3890.9916747798534, 18860.78195104384, 47801.95478224216, -1872.1150603431536, 21021.435680560553, 51247.610300494474, 9299.085652719219, -52.437192492150366, 21572.584995339515, -15502.25353267831, 0.0968562797382474, 0.9658511499948799, 0.16819435810297728, 192.0, 0.0, 0.0, 0.0, 0.0, 0.0, 0.0, 0.0, 0.0, 0.0, 1.741985474691283E9, 0.0, 2025-03-14 15:51:14.691
120.0, 14215.977694508756, 23255.738408057503, -7608.645571308801, 2791.5987720011203, 8803.301608956053, 9255.611509753646, 3897.3842736940715, 18869.789704059327, 47807.67682882272, -1867.1529730740756, 21004.426003030065, 51249.93488191783, 9312.362588925671, -48.212712790097335, 21569.433399371315, -15499.928951254959, 0.0964281398691237, 0.9699255749974399, 0.16909717905148863, 192.0, 1.5, 0.0, 15.0, 56.0, 2.5, 40.0, 0.0, 0.0, 0.0, 1.741985474750997E9, 0.0, 2025-03-14 15:51:14.750
122.0, 14218.950476521311, 23255.02315223493, -7581.801126217977, 2800.1371383830474, 8806.07322526851, 9255.008012653352, 3890.9246195464875, 18869.2532621924, 47814.09177948139, -1862.324996271729, 21018.88758169265, 51245.86686442696, 9302.438414387514, -44.47997146606105, 21571.378001138928, -15503.527582112263, 0.0964281398691237, 0.9699255749974399, 0.16909717905148863, 192.0, 0.0, 0.0, 0.0, 0.0, 0.0, 0.0, 0.0, 0.0, 0.0, 1.741985474751174E9, 0.0, 2025-03-14 15:51:14.751
124.0, 14198.833906511534, 23235.353617114262, -7614.211155678172, 2785.094414364626, 8796.752547830647, 9235.271422299316, 3886.0966427441413, 18859.105570209693, 47804.61463983234, -1873.746737688391, 21011.377395555664, 51248.07968712803, 9299.689149819511, -49.10678256830962, 21571.467408116747, -15499.794840788227, 0.0964281398691237, 0.9699255749974399, 0.16909717905148863, 192.0, 0.0, 0.0, 0.0, 0.0, 0.0, 0.0, 0.0, 0.0, 0.0, 1.741985474751312E9, 0.0, 2025-03-14 15:51:14.751
126.0, 14203.684235058337, 23239.7345590275, -7588.037262921008, 2798.192536615436, 8808.1295857584, 9243.49686425887, 3896.356093449127, 18862.793608044816, 47797.238564162086, -1876.2277813229302, 20991.77491566836, 51222.95632636027, 9290.636693315113, -61.19907631863074, 21566.997059225687, -15504.712224568395, 0.0964281398691237, 0.9699255749974399, 0.16909717905148863, 192.0, 0.0, 0.0, 0.0, 0.0, 0.0, 0.0, 0.0, 0.0, 0.0, 1.741985474751469E9, 0.0, 2025-03-14 15:51:14.751
128.0, 14204.757118792191, 23237.186460159595, -7614.434673122725, 2791.285847578746, 8806.252039224153, 9244.30152705926, 3906.704951131934, 18877.143427985124, 47798.37850312931, -1876.2724848118407, 21013.232590345455, 51265.04466116961, 9298.303341663282, -51.74428841403585, 21573.099085461985, -15502.432346633954, 0.0964281398691237, 0.9699255749974399, 0.16909717905148863, 192.0, 0.0, 0.0, 0.0, 0.0, 0.0, 0.0, 0.0, 0.0, 0.0, 1.741985474751609E9, 0.0, 2025-03-14 15:51:14.751
130.0, 14210.14388920592, 23238.97459971602, -7589.288960610505, 2805.2556878633127, 8810.565925904028, 9254.583329508701, 3908.1801662659846, 18874.528273883854, 47800.07723570791, -1878.462955768461, 20985.33761326523, 51219.98354434771, 9300.627923086635, -47.162180800697904, 21570.55098659408, -15493.514000596286, 0.09821406993456186, 0.96996278749872, 0.1725485895257443, 192.0, 1.5, 16.0, 15.0, 40.0, 2.5, 64.0, 0.0, 0.0, 0.0, 1.741985474751763E9, 0.0, 2025-03-14 15:51:14.751
132.0, 14211.596752595515, 23240.092186938786, -7606.857431752376, 2800.383007572056, 8807.906068313845, 9254.739791719889, 3906.816709854211, 18875.48939889543, 47801.12776769731, -1869.1869818195084, 21023.939075939546, 51278.61217005398, 9297.498678862892, -47.45275347861689, 21578.955242509277, -15486.11557318158, 0.09821406993456186, 0.96996278749872, 0.1725485895257443, 192.0, 0.0, 0.0, 0.0, 0.0, 0.0, 0.0, 0.0, 0.0, 0.0, 1.741985474751912E9, 0.0, 2025-03-14 15:51:14.751
134.0, 14215.977694508756, 23241.857974750757, -7591.367672844848, 2799.578344771665, 8813.963391061234, 9249.30831781725, 3906.324971476194, 18881.39025943163, 47803.00531423156, -1870.3492725311844, 20979.526159706853, 51212.339247744, 9302.058434731774, -47.89978836772303, 21573.70258256228, -15491.770564528772, 0.09821406993456186, 0.96996278749872, 0.1725485895257443, 192.0, 0.0, 0.0, 0.0, 0.0, 0.0, 0.0, 0.0, 0.0, 0.0, 1.741985474810653E9, 0.0, 2025-03-14 15:51:14.810
136.0, 14210.9038485174, 23237.678198537615, -7615.172280689751, 2793.096338879626, 8808.353103202951, 9252.30345157426, 3908.426035454993, 18882.64195712113, 47803.117072953835, -1870.617493464648, 21025.39193932914, 51273.71713801827, 9305.120623722152, -48.32447151237387, 21570.103951704976, -15500.107765210601, 0.09821406993456186, 0.96996278749872, 0.1725485895257443, 192.0, 0.0, 0.0, 0.0, 0.0, 0.0, 0.0, 0.0, 0.0, 0.0, 1.741985474810835E9, 0.0, 2025-03-14 15:51:14.810
138.0, 14205.38296763694, 23229.139832155684, -7602.856469494876, 2793.677484235464, 8810.051835781554, 9242.602794480657, 3899.530041161781, 18863.77708480085, 47799.92077349672, -1872.5397434878046, 20967.612679912174, 51201.051616794066, 9301.700806820489, -49.933797113155975, 21569.299288904585, -15500.621855333075, 0.09821406993456186, 0.96996278749872, 0.1725485895257443, 192.0, 0.0, 0.0, 0.0, 0.0, 0.0, 0.0, 0.0, 0.0, 0.0, 1.741985474810981E9, 0.0, 2025-03-14 15:51:14.810
140.0, 14204.399490880907, 23230.525640311917, -7610.880745754332, 2797.3878738150447, 8807.324922958007, 9250.425905040014, 3903.553355163736, 18875.109419239692, 47793.63993330478, -1877.9935691348994, 21022.061529405302, 51273.71713801827, 9295.59878058419, -54.71707042659169, 21565.119512691443, -15512.870611294582, 0.10010703496728093, 0.97098139374936, 0.17127429476287215, 192.0, 1.5, 24.0, 15.0, 48.0, 2.5, 40.0, 0.0, 0.0, 0.0, 1.741985474811127E9, 0.0, 2025-03-14 15:51:14.811
142.0, 14209.115708960977, 23236.292390381383, -7591.50178331158, 2802.5958302731315, 8815.818585851024, 9257.578463265714, 3915.7574076363335, 18882.083163509746, 47800.8818985083, -1866.616531207148, 20966.405685711587, 51206.013704063145, 9302.281952176327, -45.53050345546049, 21575.31190816306, -15495.659768063995, 0.10010703496728093, 0.97098139374936, 0.17127429476287215, 192.0, 0.0, 0.0, 0.0, 0.0, 0.0, 0.0, 0.0, 0.0, 0.0, 1.741985474811279E9, 0.0, 2025-03-14 15:51:14.811
144.0, 14208.780432794147, 23235.30891362535, -7600.59894330489, 2801.098263394626, 8812.801100349558, 9255.969137664932, 3912.069369801208, 18887.067602523282, 47800.56897408593, -1870.3716242756398, 21034.623209789184, 51278.94744622081, 9299.689149819511, -43.51884645448285, 21579.044649487096, -15501.582980344652, 0.10010703496728093, 0.97098139374936, 0.17127429476287215, 192.0, 0.0, 0.0, 0.0, 0.0, 0.0, 0.0, 0.0, 0.0, 0.0, 1.741985474811416E9, 0.0, 2025-03-14 15:51:14.811
146.0, 14207.394624637918, 23233.543125813383, -7596.329760113927, 2799.734806982852, 8810.878850326402, 9250.917643418032, 3907.621372654602, 18884.966538544482, 47801.03836071949, -1871.8021359207794, 20968.238528756923, 51204.24791625117, 9301.209068442473, -45.15052379972027, 21572.85321627298, -15504.287541423744, 0.10010703496728093, 0.97098139374936, 0.17127429476287215, 192.0, 0.0, 0.0, 0.0, 0.0, 0.0, 0.0, 0.0, 0.0, 0.0, 1.741985474811558E9, 0.0, 2025-03-14 15:51:14.811
148.0, 14208.489860116228, 23235.06304443634, -7601.582420060924, 2801.254725605813, 8807.168460746821, 9254.40451555306, 3905.5650121647136, 18880.518541397876, 47802.29005840899, -1862.6602724385586, 21038.534765068864, 51280.132088676946, 9298.12452770764, -39.27201500797451, 21573.769637795645, -15505.11455596859, 0.10010703496728093, 0.97098139374936, 0.17127429476287215, 192.0, 0.0, 0.0, 0.0, 0.0, 0.0, 0.0, 0.0, 0.0, 0.0, 1.7419854748117E9, 0.0, 2025-03-14 15:51:14.811
150.0, 14206.321740904063, 23231.822041490323, -7601.001274705086, 2796.538507525743, 8808.531917158594, 9246.514349760337, 3912.4717012014034, 18885.570035644774, 47797.70795079565, -1866.1471445735867, 20964.43873219952, 51203.82323310652, 9294.056510216775, -43.02710807646609, 21569.343992393493, -15508.422614147976, 0.10105351748364047, 0.9714906968746799, 0.1726371473814361, 192.0, 1.5, 24.0, 15.0, 48.0, 2.5, 56.0, 0.0, 0.0, 0.0, 1.741985474869606E9, 0.0, 2025-03-14 15:51:14.869
152.0, 14212.982560751745, 23234.548954313872, -7594.765138002055, 2808.764911742796, 8809.873021825913, 9263.300509846273, 3909.1189395331076, 18883.69248911053, 47799.00435197406, -1868.2482085523854, 21033.997360944435, 51270.72200426126, 9295.755242795378, -41.44013422013929, 21576.9435855083, -15501.11359371109, 0.10105351748364047, 0.9714906968746799, 0.1726371473814361, 192.0, 0.0, 0.0, 0.0, 0.0, 0.0, 0.0, 0.0, 0.0, 0.0, 1.741985474869791E9, 0.0, 2025-03-14 15:51:14.869
154.0, 14210.233296183742, 23230.525640311917, -7601.8506409943875, 2802.9087546955056, 8808.688379369782, 9255.320937075727, 3908.2472214993504, 18871.331974426743, 47804.18995668769, -1868.0246911078325, 20971.56893868076, 51202.83975635049, 9299.778556797333, -43.474142965572234, 21579.581091354026, -15493.73751804084, 0.10105351748364047, 0.9714906968746799, 0.1726371473814361, 192.0, 0.0, 0.0, 0.0, 0.0, 0.0, 0.0, 0.0, 0.0, 0.0, 1.741985474869943E9, 0.0, 2025-03-14 15:51:14.869
156.0, 14203.728938547247, 23222.411957074637, -7602.543545072502, 2797.700798237419, 8805.626190379404, 9249.867111428632, 3909.878898844588, 18883.44661992152, 47801.41834037523, -1874.9313801445223, 21029.77288124238, 51259.79200122262, 9306.014693500363, -49.28559652395207, 21574.015506984655, -15510.568381615685, 0.10105351748364047, 0.9714906968746799, 0.1726371473814361, 192.0, 0.0, 0.0, 0.0, 0.0, 0.0, 0.0, 0.0, 0.0, 0.0, 1.741985474870089E9, 0.0, 2025-03-14 15:51:14.870
158.0, 14211.797918295613, 23233.58782930229, -7600.21896364915, 2803.780472729263, 8810.610629392939, 9254.69508823098, 3908.9624773219202, 18883.89365481063, 47796.813881017435, -1875.1772493335307, 20964.908118833082, 51202.70564588376, 9305.634713844624, -47.363346500795664, 21575.423666885337, -15505.382776902054, 0.10105351748364047, 0.9714906968746799, 0.1726371473814361, 192.0, 0.0, 0.0, 0.0, 0.0, 0.0, 0.0, 0.0, 0.0, 0.0, 1.741985474870227E9, 0.0, 2025-03-14 15:51:14.870
160.0, 14209.38392989444, 23232.961980457545, -7593.781661246021, 2800.31595233869, 8807.660199124837, 9246.536701504792, 3904.0003900528422, 18875.06471575078, 47800.77013978602, -1866.616531207148, 21024.430814317562, 51256.059259898575, 9310.216821457961, -43.18357028765325, 21584.833751301023, -15505.74040481334, 0.10052675874182024, 0.96974534843734, 0.17631857369071804, 192.0, 1.5, 16.0, 15.0, 32.0, 2.5, 80.0, 0.0, 0.0, 0.0, 1.741985474870364E9, 0.0, 2025-03-14 15:51:14.870
162.0, 14211.328531662051, 23237.74525377098, -7613.853527766887, 2799.5559930272098, 8806.162632246333, 9255.008012653352, 3903.396892952549, 18874.662384350584, 47796.947991484165, -1870.03634810881, 20971.099552047202, 51220.65409668137, 9315.089501749218, -52.28073028096322, 21573.121437206442, -15509.048462992725, 0.10052675874182024, 0.96974534843734, 0.17631857369071804, 192.0, 0.0, 0.0, 0.0, 0.0, 0.0, 0.0, 0.0, 0.0, 0.0, 1.741985474870509E9, 0.0, 2025-03-14 15:51:14.870
164.0, 14207.90871476039, 23236.51590782594, -7598.922562470742, 2793.096338879626, 8808.46486192523, 9249.531835261803, 3904.6932941309565, 18885.994718789425, 47798.95964848514, -1865.945978873489, 21008.069337376277, 51245.28571907112, 9324.074903020251, -42.334203998351576, 21577.390620397404, -15496.442079119932, 0.10052675874182024, 0.96974534843734, 0.17631857369071804, 192.0, 0.0, 0.0, 0.0, 0.0, 0.0, 0.0, 0.0, 0.0, 0.0, 1.741985474929846E9, 0.0, 2025-03-14 15:51:14.929
166.0, 14207.640493826926, 23247.088282953297, -7616.692199312712, 2794.6833127359528, 8806.766129346624, 9245.26265207084, 3901.9663813074094, 18868.4038959031, 47795.11514843883, -1876.3842435341173, 20974.09468580421, 51212.04867506608, 9321.660914619079, -54.87353263777884, 21569.12047494894, -15503.460526878898, 0.10052675874182024, 0.96974534843734, 0.17631857369071804, 192.0, 0.0, 0.0, 0.0, 0.0, 0.0, 0.0, 0.0, 0.0, 0.0, 1.741985474930031E9, 0.0, 2025-03-14 15:51:14.930
168.0, 14214.368368907973, 23257.571251102836, -7594.586324046412, 2803.4004930735223, 8809.582449147994, 9253.108114374652, 3906.5484889207473, 18884.67596586656, 47801.48539560859, -1868.3152637857515, 21001.497924506417, 51227.337268273506, 9325.37130419866, -48.19036104564203, 21566.70648654777, -15487.97076797137, 0.10052675874182024, 0.96974534843734, 0.17631857369071804, 192.0, 0.0, 0.0, 0.0, 0.0, 0.0, 0.0, 0.0, 0.0, 0.0, 1.741985474930182E9, 0.0, 2025-03-14 15:51:14.930
170.0, 14200.197362923309, 23248.943477743087, -7612.668885310756, 2791.4646615343886, 8806.833184579991, 9239.49590200137, 3901.2511254848396, 18869.566186614775, 47805.285192166, -1876.7195197009469, 20988.712726677983, 51232.70168694278, 9324.253716975894, -53.152448314720196, 21572.339126150506, -15473.464485819875, 0.10426337937091013, 0.96687267421867, 0.18015928684535903, 192.0, 1.5, 48.0, 15.0, 16.0, 2.5, 96.0, 0.0, 0.0, 0.0, 1.741985474930326E9, 0.0, 2025-03-14 15:51:14.930
172.0, 14192.597769808504, 23247.334152142306, -7592.2840943675155, 2795.93501042545, 8811.191774748775, 9235.137311832585, 3900.3347039621717, 18875.847026806718, 47802.066540964435, -1883.9167814155558, 20989.025651100357, 51220.1400065589, 9323.292591964317, -59.32152978438494, 21571.869739516944, -15478.940663211426, 0.10426337937091013, 0.96687267421867, 0.18015928684535903, 192.0, 0.0, 0.0, 0.0, 0.0, 0.0, 0.0, 0.0, 0.0, 0.0, 1.741985474930476E9, 0.0, 2025-03-14 15:51:14.930
174.0, 14185.62402553845, 23247.200041675573, -7615.664019067767, 2788.6259899885645, 8803.525126400606, 9233.773855420812, 3891.751634091334, 18872.06958199377, 47795.763349028035, -1897.841918211212, 20989.450334245008, 51227.896061884894, 9323.538461153325, -72.1514311017312, 21565.20891966926, -15474.82794223165, 0.10426337937091013, 0.96687267421867, 0.18015928684535903, 192.0, 0.0, 0.0, 0.0, 0.0, 0.0, 0.0, 0.0, 0.0, 0.0, 1.741985474930621E9, 0.0, 2025-03-14 15:51:14.930
176.0, 14198.073947200055, 23264.813216306356, -7589.490126310602, 2806.999123930827, 8812.331713715997, 9250.314146317738, 3907.1743377654957, 18879.78093383085, 47799.809014774444, -1890.2199733519524, 20976.061639316278, 51200.761044116145, 9326.287725721328, -62.204904819119555, 21569.41104762686, -15461.841578703115, 0.10426337937091013, 0.96687267421867, 0.18015928684535903, 192.0, 0.0, 0.0, 0.0, 0.0, 0.0, 0.0, 0.0, 0.0, 0.0, 1.741985474930765E9, 0.0, 2025-03-14 15:51:14.930
178.0, 14191.971920963755, 23263.60622210577, -7609.830213764932, 2800.1371383830474, 8810.387111948385, 9247.810750938745, 3909.1636430220183, 18883.804247832806, 47802.781796787, -1881.9945313923993, 21003.598988485217, 51244.03402138162, 9332.590917657724, -55.074698337876605, 21571.80268428358, -15456.924194922949, 0.10426337937091013, 0.96687267421867, 0.18015928684535903, 192.0, 0.0, 0.0, 0.0, 0.0, 0.0, 0.0, 0.0, 0.0, 0.0, 1.741985474930906E9, 0.0, 2025-03-14 15:51:14.930
180.0, 14192.843638997512, 23267.204852963074, -7584.840963463898, 2807.2002896309245, 8813.292838727575, 9247.319012560727, 3902.9722098078983, 18876.227006462457, 47803.27353516502, -1886.6883977280138, 20972.798284625806, 51193.3849684459, 9331.138054268129, -61.020262362988284, 21570.439227871804, -15465.484913049331, 0.10413168968545507, 0.967436337109335, 0.1790796434226795, 192.0, 1.5, 32.0, 15.0, 32.0, 2.5, 72.0, 0.0, 0.0, 0.0, 1.74198547499154E9, 0.0, 2025-03-14 15:51:14.991
182.0, 14195.503496587695, 23273.955079788575, -7600.464832838158, 2807.960248942405, 8811.191774748775, 9249.129503861608, 3910.1471197780515, 18890.375660702666, 47805.21813693263, -1878.5747144907373, 21019.02169215938, 51254.29347208661, 9335.22842350345, -57.17576231667547, 21574.328431407026, -15459.092314135112, 0.10413168968545507, 0.967436337109335, 0.1790796434226795, 192.0, 0.0, 0.0, 0.0, 0.0, 0.0, 0.0, 0.0, 0.0, 0.0, 1.741985474991709E9, 0.0, 2025-03-14 15:51:14.991
184.0, 14194.072984942555, 23270.40115242018, -7585.444460564192, 2804.3616180851004, 8808.911896814334, 9251.297623073771, 3903.0616167857193, 18880.54089314233, 47803.00531423156, -1881.6145517366592, 20981.560168452284, 51201.16337551634, 9330.445150190015, -60.72968968506929, 21572.674402317334, -15464.032049659736, 0.10413168968545507, 0.967436337109335, 0.1790796434226795, 192.0, 0.0, 0.0, 0.0, 0.0, 0.0, 0.0, 0.0, 0.0, 0.0, 1.741985474991865E9, 0.0, 2025-03-14 15:51:14.991
186.0, 14195.1011651875, 23270.870539053743, -7604.97988521813, 2796.538507525743, 8805.715597357226, 9243.407457281048, 3900.491166173359, 18873.12011398317, 47803.05001772047, -1882.910952915067, 21029.079977164267, 51255.299300587096, 9327.293554221817, -64.99887287603293, 21566.17004468084, -15474.716183509372, 0.10413168968545507, 0.967436337109335, 0.1790796434226795, 192.0, 0.0, 0.0, 0.0, 0.0, 0.0, 0.0, 0.0, 0.0, 0.0, 1.741985474992016E9, 0.0, 2025-03-14 15:51:14.992
188.0, 14191.368423863463, 23263.338001172306, -7589.378367588326, 2795.21975460288, 8806.36379794643, 9235.293774043772, 3897.853660327633, 18872.11428548268, 47808.10151196737, -1881.0557581252765, 20975.97223233846, 51185.51715439763, 9333.373228713659, -58.114535583798364, 21566.997059225687, -15470.15642764049, 0.10413168968545507, 0.967436337109335, 0.1790796434226795, 192.0, 0.0, 0.0, 0.0, 0.0, 0.0, 0.0, 0.0, 0.0, 0.0, 1.741985474992155E9, 0.0, 2025-03-14 15:51:14.992
190.0, 14186.629854038938, 23258.152396458674, -7608.6008678198905, 2786.7484434543185, 8801.178193232798, 9233.885614143088, 3893.8750498145882, 18879.31154719729, 47796.21038391714, -1895.8973164436004, 21032.969180699492, 51253.46645754176, 9324.186661742528, -70.36329154530664, 21557.631678298912, -15489.82596276116, 0.10406584484272755, 0.9687181685546675, 0.17653982171133975, 192.0, 1.5, 32.0, 15.0, 40.0, 2.5, 56.0, 0.0, 0.0, 0.0, 1.741985474992292E9, 0.0, 2025-03-14 15:51:14.992
192.0, 14187.590979050516, 23256.811291791357, -7600.017797949052, 2789.2071353444026, 8806.922591557812, 9234.511462987837, 3897.6971981164456, 18869.007393003394, 47801.82067177542, -1892.7904239643126, 20967.612679912174, 51177.15760197135, 9324.723103609456, -69.58098048937089, 21554.100102674976, -15488.484858093841, 0.10406584484272755, 0.9687181685546675, 0.17653982171133975, 192.0, 0.0, 0.0, 0.0, 0.0, 0.0, 0.0, 0.0, 0.0, 0.0, 1.741985474992434E9, 0.0, 2025-03-14 15:51:14.992
194.0, 14185.244045882708, 23253.45853012306, -7597.447347336692, 2790.727053967363, 8809.157766003344, 9236.165492077529, 3894.8585265706215, 18869.230910447946, 47800.390160130286, -1891.0469878967988, 21032.49979406593, 51253.37705056394, 9332.18858625753, -71.81615493490159, 21563.97957372422, -15493.536352340741, 0.10406584484272755, 0.9687181685546675, 0.17653982171133975, 192.0, 0.0, 0.0, 0.0, 0.0, 0.0, 0.0, 0.0, 0.0, 0.0, 1.741985475050495E9, 0.0, 2025-03-14 15:51:15.050
196.0, 14178.605577779483, 23244.02609396292, -7598.944914215197, 2780.221734073369, 8805.156803745844, 9226.956573361942, 3891.10343350213, 18861.92189001106, 47795.09279669438, -1897.4842902999271, 20972.708877647983, 51181.22561946221, 9321.169176241061, -74.99010264755519, 21561.722047534233, -15489.445983105421, 0.10406584484272755, 0.9687181685546675, 0.17653982171133975, 192.0, 0.0, 0.0, 0.0, 0.0, 0.0, 0.0, 0.0, 0.0, 0.0, 1.741985475050663E9, 0.0, 2025-03-14 15:51:15.050
198.0, 14175.118705644454, 23238.773434015922, -7611.46189111017, 2777.472469505366, 8796.529030386095, 9221.547451203758, 3883.392081665049, 18866.503997624397, 47785.57095355642, -1902.558136291282, 21031.20339288752, 51247.02915513863, 9316.385902927626, -81.53916377296017, 21548.847442727976, -15500.711262310895, 0.10406584484272755, 0.9687181685546675, 0.17653982171133975, 192.0, 0.0, 0.0, 0.0, 0.0, 0.0, 0.0, 0.0, 0.0, 0.0, 1.741985475050819E9, 0.0, 2025-03-14 15:51:15.050
200.0, 14185.936949960822, 23249.323457398827, -7595.279228124527, 2793.8562981911064, 8807.794309591569, 9238.154797334051, 3900.58057315118, 18865.92285226856, 47789.482508836096, -1896.7913862218127, 20962.024743798345, 51173.290750180575, 9315.31301919377, -76.82294569289037, 21551.663762529348, -15492.485820351341, 0.10603292242136378, 0.9693590842773337, 0.1722699108556699, 192.0, 1.5, 48.0, 15.0, 40.0, 2.5, 32.0, 0.0, 0.0, 0.0, 1.741985475050969E9, 0.0, 2025-03-14 15:51:15.050
202.0, 14182.226560381241, 23241.388588117195, -7593.31227461246, 2788.827155688662, 8811.03531253759, 9231.762198419834, 3906.615544154113, 18878.3057186968, 47798.02087521802, -1889.5717727627484, 21041.35108487023, 51251.34304181851, 9321.07976926324, -64.95416938712232, 21569.858082515966, -15480.661747534485, 0.10603292242136378, 0.9693590842773337, 0.1722699108556699, 192.0, 0.0, 0.0, 0.0, 0.0, 0.0, 0.0, 0.0, 0.0, 0.0, 1.741985475051114E9, 0.0, 2025-03-14 15:51:15.051
204.0, 14189.669691284858, 23248.921125998633, -7589.7583472440665, 2794.325684824668, 8818.970181819222, 9242.423980525014, 3913.589288424169, 18885.72649785596, 47796.322142639416, -1890.845822196701, 20970.898386347104, 51183.32668344101, 9320.31980995176, -68.75396594452452, 21575.31190816306, -15483.187494657934, 0.10603292242136378, 0.9693590842773337, 0.1722699108556699, 192.0, 0.0, 0.0, 0.0, 0.0, 0.0, 0.0, 0.0, 0.0, 0.0, 1.741985475051247E9, 0.0, 2025-03-14 15:51:15.051
206.0, 14184.886417971424, 23242.394416617684, -7589.780698988521, 2796.1361761255475, 8815.03627479509, 9242.848663669665, 3901.2511254848396, 18867.88980578063, 47802.02183747552, -1889.392958807106, 21039.138262169155, 51254.22641685324, 9323.471405919958, -64.84241066484579, 21576.9435855083, -15476.817247488172, 0.10603292242136378, 0.9693590842773337, 0.1722699108556699, 192.0, 0.0, 0.0, 0.0, 0.0, 0.0, 0.0, 0.0, 0.0, 0.0, 1.74198547505139E9, 0.0, 2025-03-14 15:51:15.051
208.0, 14189.982615707233, 23244.56253582985, -7593.200515890184, 2798.796033715729, 8815.706827128748, 9246.15672184905, 3912.4717012014034, 18879.423305919565, 47798.53496534049, -1888.0518541397876, 20978.453275972995, 51205.164337773844, 9322.867908819666, -63.188381575153066, 21576.049515730087, -15470.290538107221, 0.10603292242136378, 0.9693590842773337, 0.1722699108556699, 192.0, 0.0, 0.0, 0.0, 0.0, 0.0, 0.0, 0.0, 0.0, 0.0, 1.741985475051534E9, 0.0, 2025-03-14 15:51:15.051
210.0, 14178.471467312751, 23230.07860542281, -7589.154850143773, 2789.765928955785, 8812.152899760355, 9236.523119988815, 3901.5640499072138, 18876.651689607108, 47791.76238677053, -1894.4668047984608, 21031.806889987816, 51247.14091386091, 9310.060359246774, -66.25057056553014, 21572.18266393932, -15485.623834803562, 0.1050164612106819, 0.9706795421386669, 0.16913495542783497, 192.0, 1.5, 32.0, 15.0, 48.0, 2.5, 24.0, 0.0, 0.0, 0.0, 1.741985475110873E9, 0.0, 2025-03-14 15:51:15.110
212.0, 14178.538522546116, 23226.234105376498, -7606.946838730198, 2791.352902812112, 8812.532879416094, 9244.681506715002, 3910.325933733694, 18872.941300027527, 47791.02477920351, -1898.713636244969, 20977.939185850526, 51192.42384343432, 9308.451033645992, -70.74327120104685, 21572.048553472585, -15485.355613870099, 0.1050164612106819, 0.9706795421386669, 0.16913495542783497, 192.0, 0.0, 0.0, 0.0, 0.0, 0.0, 0.0, 0.0, 0.0, 0.0, 1.741985475111065E9, 0.0, 2025-03-14 15:51:15.111
214.0, 14183.210037137276, 23226.435271076592, -7593.245219379094, 2797.5890395151428, 8816.802062607057, 9244.234471825896, 3905.654419142535, 18876.808151818295, 47793.684636793696, -1900.1217961456534, 21018.597009014728, 51222.10696007097, 9308.65219934609, -68.12811709977592, 21568.7404952932, -15481.265244634778, 0.1050164612106819, 0.9706795421386669, 0.16913495542783497, 192.0, 0.0, 0.0, 0.0, 0.0, 0.0, 0.0, 0.0, 0.0, 0.0, 1.741985475111213E9, 0.0, 2025-03-14 15:51:15.111
216.0, 14181.667766769859, 23223.395433830672, -7605.181050918228, 2794.929181924961, 8810.007132292645, 9243.183939836495, 3908.984829066376, 18880.697355353517, 47794.22107866062, -1895.5173367878601, 20984.220026042465, 51202.52683192812, 9310.954429024987, -64.48478275356088, 21573.88139651792, -15479.432401589442, 0.1050164612106819, 0.9706795421386669, 0.16913495542783497, 192.0, 0.0, 0.0, 0.0, 0.0, 0.0, 0.0, 0.0, 0.0, 0.0, 1.741985475111357E9, 0.0, 2025-03-14 15:51:15.111
218.0, 14182.628891781438, 23219.43917506208, -7585.735033242111, 2800.2712488497796, 8808.487213669683, 9237.68541070049, 3904.2239074973954, 18877.948090785514, 47793.70698853815, -1898.5124705448713, 21009.723366465973, 51223.02338159364, 9305.03121674433, -67.01052987701057, 21573.83669302901, -15485.82500050366, 0.1050164612106819, 0.9706795421386669, 0.16913495542783497, 192.0, 0.0, 0.0, 0.0, 0.0, 0.0, 0.0, 0.0, 0.0, 0.0, 1.741985475111494E9, 0.0, 2025-03-14 15:51:15.111
220.0, 14183.9476447043, 23220.86968670722, -7602.655303794779, 2795.4209203029777, 8808.822489836513, 9241.932242146999, 3913.142253535063, 18892.141448514634, 47793.237601904584, -1895.9196681880558, 20995.887636648135, 51222.59869844899, 9302.594876598701, -70.81032643441277, 21576.161274452363, -15486.16027667049, 0.1, 0.97, 0.168, 192.0, 1.5, 16.0, 15.0, 40.0, 2.5, 32.0, 0.0, 0.0, 0.0, 1.74198547511164E9, 0.0, 2025-03-14 15:51:15.111
222.0, 14183.612368537471, 23216.22052386052, -7585.8244402199325, 2794.705664480408, 8809.247172981164, 9236.143140333073, 3901.519346418303, 18869.54383487032, 47795.204555416654, -1897.037255410821, 21000.62620647266, 51204.9855238182, 9308.182812712528, -68.75396594452452, 21575.535425607613, -15492.3070063957, 0.1, 0.97, 0.168, 192.0, 0.0, 0.0, 0.0, 0.0, 0.0, 0.0, 0.0, 0.0, 0.0, 1.741985475111792E9, 0.0, 2025-03-14 15:51:15.111
224.0, 14182.42772608134, 23217.181648872098, -7610.992504476608, 2790.5705917561763, 8806.78848109108, 9244.703858459456, 3903.3745412080934, 18867.26395693588, 47789.12488092481, -1901.3511420906952, 21003.82250592977, 51215.49084371219, 9301.074957975741, -74.20779159161945, 21568.87460575993, -15496.039747719735, 0.1, 0.97, 0.168, 192.0, 0.0, 0.0, 0.0, 0.0, 0.0, 0.0, 0.0, 0.0, 0.0, 1.741985475172481E9, 0.0, 2025-03-14 15:51:15.172
226.0, 14189.624987795949, 23221.49553555197, -7584.058652407963, 2797.969019170883, 8814.522184672616, 9244.055657870253, 3907.643724399057, 18873.075410494257, 47793.99756121606, -1897.5960490222037, 20989.986776111935, 51192.64736087887, 9303.019559743352, -67.56932348839325, 21579.245815187194, -15481.980500457348, 0.1, 0.97, 0.168, 192.0, 0.0, 0.0, 0.0, 0.0, 0.0, 0.0, 0.0, 0.0, 0.0, 1.741985475172644E9, 0.0, 2025-03-14 15:51:15.172
228.0, 14189.289711629119, 23222.74723324147, -7607.326818385937, 2787.9107341659947, 8810.32005671502, 9233.997372865364, 3913.812805868722, 18880.16091348659, 47793.01408446003, -1895.7855577213238, 21012.405575800607, 51227.47137874024, 9301.812565542767, -68.19517233314185, 21574.17196919584, -15489.535390083242, 0.1, 0.97, 0.168, 192.0, 0.0, 0.0, 0.0, 0.0, 0.0, 0.0, 0.0, 0.0, 0.0, 1.741985475172791E9, 0.0, 2025-03-14 15:51:15.172
230.0, 14189.155601162387, 23221.49553555197, -7589.26660886605, 2793.02928364626, 8809.60480089245, 9235.651401955058, 3910.01300931132, 18882.329032698755, 47794.04226470498, -1898.3113048447735, 20985.047040587313, 51172.75430831365, 9305.120623722152, -69.91625665620049, 21575.378963396426, -15491.949378484414, 0.098, 0.97, 0.17, 192.0, 1.5, 8.0, 15.0, 40.0, 2.5, 40.0, 0.0, 0.0, 0.0, 1.741985475172932E9, 0.0, 2025-03-14 15:51:15.172
