%OpenBCI Raw EXG Data
%Number of channels = 16
%Sample Rate = 125 Hz
%Board = OpenBCI_GUI$BoardCytonSerialDaisy
Sample Index, EXG Channel 0, EXG Channel 1, EXG Channel 2, EXG Channel 3, EXG Channel 4, EXG Channel 5, EXG Channel 6, EXG Channel 7, EXG Channel 8, EXG Channel 9, EXG Channel 10, EXG Channel 11, EXG Channel 12, EXG Channel 13, EXG Channel 14, EXG Channel 15, Accel Channel 0, Accel Channel 1, Accel Channel 2, Not Used, Digital Channel 0 (D11), Digital Channel 1 (D12), Digital Channel 2 (D13), Digital Channel 3 (D17), Not Used, Digital Channel 4 (D18), Analog Channel 0, Analog Channel 1, Analog Channel 2, Timestamp, Marker Channel, Timestamp (Formatted)
220.0, -64663.0155638475, -46571.82652614433, -70274.6892302858, -68376.0426492742, -72731.23535290186, -58706.54388744163, -69251.33696214402, -57512.49134689467, -36074.15092875373, -53716.67340000551, -67245.13378681347, 2447173.231503157, -63365.07211507227, -67552.0008864404, -56525.28184953712, -13143.69745775431, 0.031, 0.485, -0.08700000000000001, 192.0, 0.5, 120.0, 15.0, 40.0, 125.0, 72.0, 0.0, 0.0, 0.0, 1.741801412381875E9, 0.0, 2025-03-12 12:43:32.381
222.0, -64670.23517730656, -46579.73904368151, -70279.38309662142, -68382.68111737742, -72737.8738210051, -58711.34951249952, -69256.90254651339, -57526.90822206834, -36057.07419598987, -53701.16128935353, -67228.68290289438, 2447071.3075484405, -63351.39284746562, -67536.26525834385, -56514.150680798375, -13135.561422772578, 0.031, 0.485, -0.08700000000000001, 192.0, 0.0, 0.0, 0.0, 0.0, 0.0, 0.0, 0.0, 0.0, 0.0, 1.74180141238226E9, 0.0, 2025-03-12 12:43:32.382
224.0, -64667.84354064984, -46576.98977911351, -70275.58330006401, -68379.95420455387, -72735.86216400411, -58709.47196596527, -69254.6450203234, -57516.76053008563, -36071.356960696816, -53716.85221396115, -67240.84225187806, 2446933.9784305072, -63364.13334180514, -67547.08350266021, -56521.43734949081, -13145.329135099548, 0.031, 0.485, -0.08700000000000001, 192.0, 0.0, 0.0, 0.0, 0.0, 0.0, 0.0, 0.0, 0.0, 0.0, 1.741801412382501E9, 0.0, 2025-03-12 12:43:32.382
226.0, -64671.598633718335, -46581.303665793384, -70282.35587863397, -68387.33028022412, -72737.3150273937, -58716.98215210225, -69273.8004653216, -57530.26098373664, -36075.62614388778, -53718.14861513956, -67246.58665020307, 2446807.378149912, -63368.98367035195, -67551.30798236227, -56531.987372873715, -13152.168768902871, 0.031, 0.485, -0.08700000000000001, 192.0, 0.0, 0.0, 0.0, 0.0, 0.0, 0.0, 0.0, 0.0, 0.0, 1.741801412382724E9, 0.0, 2025-03-12 12:43:32.382
228.0, -64651.43736021964, -46559.06368006035, -70258.37245683343, -68365.17970146891, -72705.62025375607, -58690.07065177806, -69219.15045012838, -57490.452526861736, -36057.029492500966, -53701.40715854253, -67229.55462092813, 2447121.196642065, -63347.54834741931, -67535.32648507673, -56507.37810222842, -13134.533242527634, 0.031, 0.485, -0.08700000000000001, 192.0, 0.0, 0.0, 0.0, 0.0, 0.0, 0.0, 0.0, 0.0, 0.0, 1.741801412382936E9, 0.0, 2025-03-12 12:43:32.382
230.0, -64693.972729918096, -46599.341523568815, -70300.21492245376, -68407.82682988964, -72752.69302757896, -58734.81884417759, -69276.1026950005, -57534.060780294036, -36062.528021636965, -53709.78906271328, -67237.17656578739, 2447190.934084765, -63356.3549347347, -67542.90372644708, -56514.79888138758, -13133.92974542734, 0.0455, 0.7275, -0.1295, 192.0, 0.5, 112.0, 15.0, 40.0, 125.0, 80.0, 0.0, 0.0, 0.0, 1.741801412383151E9, 0.0, 2025-03-12 12:43:32.383
232.0, -64676.47131400959, -46586.55632574038, -70286.2897856581, -68397.36621348455, -72743.64057107456, -58729.8120534196, -69274.09103799952, -57534.95485007225, -36090.4677022061, -53739.807455516755, -67263.9763073893, 2447030.0015246873, -63386.373327538175, -67577.16895069706, -56546.13602711392, -13170.966585989785, 0.0455, 0.7275, -0.1295, 192.0, 0.0, 0.0, 0.0, 0.0, 0.0, 0.0, 0.0, 0.0, 0.0, 1.741801412383383E9, 0.0, 2025-03-12 12:43:32.383
234.0, -64673.99027037505, -46582.4436047606, -70283.27230015663, -68393.61112041607, -72740.4666233619, -58724.31352428359, -69271.36412517597, -57526.10355926795, -36064.53967863794, -53713.81237671523, -67238.04828382115, 2446932.905546773, -63364.66978367207, -67552.62673528514, -56522.77845415813, -13145.798521733108, 0.0455, 0.7275, -0.1295, 192.0, 0.0, 0.0, 0.0, 0.0, 0.0, 0.0, 0.0, 0.0, 0.0, 1.741801412383613E9, 0.0, 2025-03-12 12:43:32.383
0.0, -32287.027810457686, -23229.899791467167, -35094.80924544445, -34199.68893524277, -36275.85307071842, -29302.242911129346, -34512.725116339345, -28663.944144719142, -18029.8558509178, -26855.6880182848, -33616.554274148264, 1223392.1555748172, -31679.149768251154, -33775.519880714404, -28260.11517764511, -6574.162134428279, 0.054, 0.974, -0.178, 192.0, 0.5, 88.0, 15.0, 56.0, 125.0, 56.0, 0.0, 0.0, 0.0, 1.741801412523406E9, 0.0, 2025-03-12 12:43:32.523
2.0, -64582.325766363836, -46469.85786793922, -70199.00622356012, -68409.12323106805, -72563.21728983131, -58616.041674142085, -69029.20532574717, -57337.16426338724, -35901.99779295895, -53583.12172688505, -67102.14967753287, 2447252.624899462, -63155.70332475941, -67387.69321294942, -56335.51553911156, -12952.791208361532, 0.054, 0.974, -0.178, 192.0, 0.0, 0.0, 0.0, 0.0, 0.0, 0.0, 0.0, 0.0, 0.0, 1.741801412523713E9, 0.0, 2025-03-12 12:43:32.523
4.0, -64582.28106287493, -46468.94144641655, -70197.575711915, -68407.87153337855, -72562.81495843112, -58619.17091836583, -69040.64941890829, -57338.527719799014, -35912.301947152846, -53596.75629100279, -67113.95139860528, 2447374.3972032545, -63169.7625720218, -67402.06538463419, -56350.088876496426, -12965.911682356798, 0.054, 0.974, -0.178, 192.0, 0.0, 0.0, 0.0, 0.0, 0.0, 0.0, 0.0, 0.0, 0.0, 1.741801412523951E9, 0.0, 2025-03-12 12:43:32.523
6.0, -64584.80680999837, -46477.144536631655, -70202.98483407317, -68417.66159744997, -72565.60892648804, -58628.64805801488, -69060.0507330955, -57357.79492351949, -35902.28836563687, -53587.189744375915, -67106.8435438685, 2447264.4266205346, -63160.218377139376, -67391.76123044029, -56341.19288220321, -12960.144932287329, 0.054, 0.974, -0.178, 192.0, 0.0, 0.0, 0.0, 0.0, 0.0, 0.0, 0.0, 0.0, 0.0, 1.741801412524169E9, 0.0, 2025-03-12 12:43:32.524
8.0, -64590.573560067845, -46480.89962970014, -70209.62330217639, -68420.47791725134, -72571.84506319107, -58623.41774981234, -69049.0983783124, -57348.36248735935, -35916.705240810545, -53604.35588411759, -67121.46158474227, 2447128.7068282017, -63173.47296160138, -67408.88266669305, -56356.9508620442, -12981.960234875707, 0.05, 0.978, -0.182, 192.0, 0.5, 72.0, 15.0, 72.0, 125.0, 40.0, 0.0, 0.0, 0.0, 1.741801412524383E9, 0.0, 2025-03-12 12:43:32.524
10.0, -64598.10609794928, -46487.895725714654, -70224.01782560561, -68434.4477575359, -72584.85377846405, -58637.56640405255, -69065.39280002032, -57358.97956597562, -35922.06965947982, -53608.46860509737, -67129.68702670181, 2446991.3777102684, -63180.44670587143, -67413.53182953976, -56367.34442321592, -12981.177923819772, 0.05, 0.978, -0.182, 192.0, 0.0, 0.0, 0.0, 0.0, 0.0, 0.0, 0.0, 0.0, 0.0, 1.741801412524609E9, 0.0, 2025-03-12 12:43:32.524
12.0, -64591.042946701404, -46474.10469938573, -70213.93718885627, -68421.32728354064, -72573.96847891432, -58620.62378175543, -69046.28205851103, -57341.76872274503, -35916.97346174401, -53602.81361375018, -67123.24972429869, 2446876.042708879, -63170.96956622238, -67409.35205332661, -56361.331803957444, -12978.674528440777, 0.05, 0.978, -0.182, 192.0, 0.0, 0.0, 0.0, 0.0, 0.0, 0.0, 0.0, 0.0, 0.0, 1.741801412524817E9, 0.0, 2025-03-12 12:43:32.524
14.0, -64561.24807134248, -46448.73546942895, -70193.53004616857, -68398.05911756268, -72553.13665308198, -58599.07670010051, -69039.04009330751, -57329.229394105605, -35903.137731926174, -53585.8486397086, -67106.6870816573, 2447063.2609204366, -63151.83647296864, -67389.79427692822, -56344.45623689369, -12960.033173565052, 0.05, 0.978, -0.182, 192.0, 0.0, 0.0, 0.0, 0.0, 0.0, 0.0, 0.0, 0.0, 0.0, 1.741801412525036E9, 0.0, 2025-03-12 12:43:32.525
16.0, -64557.15770210716, -46444.62274844918, -70190.98194730066, -68395.57807392813, -72553.85190890454, -58599.65784545635, -69028.35595945787, -57338.6841820102, -35890.30783060883, -53574.471601780846, -67089.07390702653, 2447398.0006453996, -63135.58675474963, -67378.3501837671, -56334.50971061108, -12951.51715892758, 0.05, 0.978, -0.182, 192.0, 0.0, 0.0, 0.0, 0.0, 0.0, 0.0, 0.0, 0.0, 0.0, 1.741801412583686E9, 0.0, 2025-03-12 12:43:32.583
18.0, -64542.047922855374, -46427.434256963046, -70173.92756628127, -68376.57909114112, -72532.21542027181, -58577.55197019005, -68987.40756361575, -57296.72995766759, -35884.339914839264, -53568.16840984445, -67084.04476452408, 2447282.129202143, -63126.44489126741, -67370.43766622993, -56326.507786096074, -12939.6036791329, 0.058, 0.972, -0.18, 192.0, 0.5, 104.0, 15.0, 48.0, 125.0, 48.0, 0.0, 0.0, 0.0, 1.741801412583934E9, 0.0, 2025-03-12 12:43:32.583
20.0, -64562.85739694326, -46442.40992574811, -70192.323051968, -68393.36525122705, -72551.16969956992, -58596.21567681023, -68998.69519456568, -57306.922353139205, -35865.29622856334, -53549.75057241328, -67066.18572070429, 2447192.543410366, -63102.79674563369, -67350.2987444757, -56298.99278867159, -12912.960399742175, 0.058, 0.972, -0.18, 192.0, 0.0, 0.0, 0.0, 0.0, 0.0, 0.0, 0.0, 0.0, 0.0, 1.74180141258419E9, 0.0, 2025-03-12 12:43:32.584
22.0, -64587.913702477665, -46474.43997555256, -70227.43764250728, -68429.86564992258, -72587.40187733197, -58630.05621791557, -69039.64359040781, -57360.85711250986, -35915.4758948655, -53599.81847999316, -67119.33816901901, 2446995.1328033367, -63154.02694392526, -67402.5124195233, -56356.63793762183, -12965.822275378976, 0.058, 0.972, -0.18, 192.0, 0.0, 0.0, 0.0, 0.0, 0.0, 0.0, 0.0, 0.0, 0.0, 1.741801412584404E9, 0.0, 2025-03-12 12:43:32.584
24.0, -64563.05856264336, -46441.694669925535, -70198.11215378191, -68396.3380332396, -72552.08612109258, -58588.571380206515, -69012.17329647223, -57309.33634154038, -35916.77229604391, -53601.67367478296, -67123.00385510968, 2446858.8765691374, -63156.15035964851, -67400.09843112213, -56359.29779521201, -12963.832970122454, 0.058, 0.972, -0.18, 192.0, 0.0, 0.0, 0.0, 0.0, 0.0, 0.0, 0.0, 0.0, 0.0, 1.741801412584614E9, 0.0, 2025-03-12 12:43:32.584
26.0, -64545.08776010129, -46431.211701775996, -70190.84783683394, -68391.84533260409, -72541.26787677621, -58589.197229051264, -68992.52611309601, -57317.6288387333, -35868.49252802045, -53550.64464219149, -67078.72504934372, 2447239.7502946556, -63108.071757325146, -67350.23168924233, -56310.68275102172, -12917.542507355512, 0.058, 0.972, -0.18, 192.0, 0.0, 0.0, 0.0, 0.0, 0.0, 0.0, 0.0, 0.0, 0.0, 1.741801412584836E9, 0.0, 2025-03-12 12:43:32.584
28.0, -64575.12850464923, -46456.40211777713, -70219.63688369238, -68417.99687361681, -72570.54866201266, -58611.79484269558, -69026.791337346, -57346.82021699193, -35892.11832190971, -53578.13728787152, -67103.91546534485, 2447368.496342718, -63130.31174305818, -67376.76320991079, -56337.05780947898, -12940.922432055764, 0.058, 0.966, -0.18, 192.0, 0.5, 104.0, 15.0, 24.0, 125.0, 48.0, 0.0, 0.0, 0.0, 1.741801412585051E9, 0.0, 2025-03-12 12:43:32.585
30.0, -64565.00316441097, -46449.51778048489, -70222.38614826038, -68418.24274280581, -72572.04622889117, -58615.281714830606, -69022.05276752148, -57345.1885396467, -35905.797589516354, -53587.92735194294, -67122.75798592067, 2447223.120596781, -63146.69557174392, -67391.69417520693, -56358.38137368934, -12960.770781132076, 0.058, 0.966, -0.18, 192.0, 0.0, 0.0, 0.0, 0.0, 0.0, 0.0, 0.0, 0.0, 0.0, 1.741801412644085E9, 0.0, 2025-03-12 12:43:32.644
32.0, -64561.3374783203, -46447.19319906154, -70209.42213647629, -68405.7928211442, -72561.38444678599, -58601.37892977941, -69017.85063956388, -57323.30618182495, -35894.80053124434, -53583.635817007525, -67113.30319801607, 2447114.2228977946, -63136.592583250116, -67381.77000066877, -56347.8984055398, -12946.622126891867, 0.058, 0.966, -0.18, 192.0, 0.0, 0.0, 0.0, 0.0, 0.0, 0.0, 0.0, 0.0, 0.0, 1.74180141264434E9, 0.0, 2025-03-12 12:43:32.644
34.0, -64560.26459458645, -46447.32730952827, -70216.79821214655, -68412.900675881, -72562.16675784191, -58608.55383974956, -69012.35211042788, -57340.561728544446, -35886.798606729346, -53576.61736924855, -67102.77552637762, 2446998.3514545383, -63127.33896104562, -67374.3492215096, -56338.28715542402, -12934.641591863823, 0.058, 0.966, -0.18, 192.0, 0.0, 0.0, 0.0, 0.0, 0.0, 0.0, 0.0, 0.0, 0.0, 1.741801412644573E9, 0.0, 2025-03-12 12:43:32.644
36.0, -64533.598963451266, -46421.93572782704, -70190.73607811166, -68386.34680346808, -72540.61967618701, -58583.07285107051, -68982.40077285776, -57310.632742718786, -35886.86566196271, -53579.67955823893, -67107.55879969106, 2446933.9784305072, -63126.06491161167, -67376.13736106604, -56338.15304495729, -12938.575498887956, 0.058, 0.966, -0.18, 192.0, 0.0, 0.0, 0.0, 0.0, 0.0, 0.0, 0.0, 0.0, 0.0, 1.74180141264478E9, 0.0, 2025-03-12 12:43:32.644
38.0, -64535.476509985514, -46421.33223072675, -70188.05386877703, -68383.06109703316, -72538.65272267493, -58582.02231908111, -68984.32302288093, -57293.6230651883, -35868.80545244282, -53559.47358125134, -67087.46458142574, 2447474.175390503, -63105.769527646255, -67355.21612825587, -56313.76729175655, -12909.093547951406, 0.056, 0.96, -0.176, 192.0, 0.5, 96.0, 15.0, 0.0, 125.0, 64.0, 0.0, 0.0, 0.0, 1.741801412644994E9, 0.0, 2025-03-12 12:43:32.644
40.0, -64548.686390958595, -46441.15822805861, -70211.45614522173, -68409.61496944606, -72562.03264737519, -58615.59463925298, -69003.36670915683, -57335.28671685299, -35875.64508624614, -53567.27434006624, -67095.71237512975, 2447408.193040871, -63112.273885282746, -67365.27441326075, -56322.462120349664, -12923.823347547454, 0.056, 0.96, -0.176, 192.0, 0.0, 0.0, 0.0, 0.0, 0.0, 0.0, 0.0, 0.0, 0.0, 1.74180141264524E9, 0.0, 2025-03-12 12:43:32.645
42.0, -64545.02070486793, -46432.955137843506, -70205.28706375207, -68399.62373967454, -72554.50010949375, -58601.1330605904, -68981.86433099084, -57325.519004526024, -35888.050304418844, -53582.38411931803, -67109.23518052521, 2447260.135085599, -63128.702417457396, -67386.35210828211, -56338.30950716848, -12943.537586157036, 0.056, 0.96, -0.176, 192.0, 0.0, 0.0, 0.0, 0.0, 0.0, 0.0, 0.0, 0.0, 0.0, 1.741801412645461E9, 0.0, 2025-03-12 12:43:32.645
44.0, -64550.49688225948, -46435.16796054458, -70209.55624694303, -68402.68592866491, -72557.04820836165, -58602.51886874663, -69003.21024694566, -57326.860109193345, -35870.28066757687, -53566.0449941212, -67094.93006407381, 2447163.039107685, -63112.139774816016, -67362.3463347371, -56323.512652339065, -12921.185841701728, 0.056, 0.96, -0.176, 192.0, 0.0, 0.0, 0.0, 0.0, 0.0, 0.0, 0.0, 0.0, 0.0, 1.741801412645675E9, 0.0, 2025-03-12 12:43:32.645
46.0, -64590.5959118123, -46483.067748912305, -70254.9302881873, -68449.73635074335, -72600.29883388267, -58647.73644777972, -69045.36563698837, -57377.330348173426, -35913.86656926472, -53607.99921846381, -67138.11363436146, 2446987.6226172, -63158.050257927214, -67407.94389342594, -56367.92556857176, -12965.934034101252, 0.056, 0.96, -0.176, 192.0, 0.0, 0.0, 0.0, 0.0, 0.0, 0.0, 0.0, 0.0, 0.0, 1.741801412703506E9, 0.0, 2025-03-12 12:43:32.703
48.0, -64580.62703378523, -46470.95310341753, -70241.47453802521, -68436.99585640381, -72584.87613020852, -58633.43133132831, -69037.34136072891, -57366.556807345965, -35922.717860069024, -53618.48218661335, -67149.71418973377, 2446836.882452593, -63165.202816152916, -67415.63289351856, -56372.97706281866, -12977.109906328906, 0.054, 0.964, -0.17400000000000002, 192.0, 0.5, 88.0, 15.0, 16.0, 125.0, 72.0, 0.0, 0.0, 0.0, 1.741801412703752E9, 0.0, 2025-03-12 12:43:32.703
50.0, -64569.22764411302, -46461.52066725739, -70229.3822442749, -68426.55759174319, -72573.81201670313, -58625.69762774678, -69022.27628496604, -57352.89989148377, -35910.31264189633, -53605.36171261808, -67139.7006082178, 2447149.628061012, -63151.8588247131, -67403.0041579013, -56363.00818479159, -12968.817409135987, 0.054, 0.964, -0.17400000000000002, 192.0, 0.0, 0.0, 0.0, 0.0, 0.0, 0.0, 0.0, 0.0, 0.0, 1.74180141270399E9, 0.0, 2025-03-12 12:43:32.703
52.0, -64596.34031013731, -46483.96181869052, -70251.95750617475, -68448.19408037592, -72598.42128734844, -58645.836549501015, -69055.49097722661, -57370.84834228139, -35912.61487157522, -53610.815538265175, -67143.5004047752, 2447316.9979234934, -63154.87631021456, -67406.5133817808, -56361.86824582437, -12966.7610486461, 0.054, 0.964, -0.17400000000000002, 192.0, 0.0, 0.0, 0.0, 0.0, 0.0, 0.0, 0.0, 0.0, 0.0, 1.74180141270421E9, 0.0, 2025-03-12 12:43:32.704
54.0, -64570.434638313614, -46458.52553350038, -70226.99060761817, -68424.90356265349, -72573.54379576967, -58626.79286322509, -69027.86422107986, -57363.9416532447, -35918.649842578154, -53613.542451088724, -67151.50232929019, 2447185.0332242292, -63164.53226381925, -67414.87293420707, -56370.96540581768, -12976.796981906533, 0.054, 0.964, -0.17400000000000002, 192.0, 0.0, 0.0, 0.0, 0.0, 0.0, 0.0, 0.0, 0.0, 0.0, 1.741801412704419E9, 0.0, 2025-03-12 12:43:32.704
56.0, -64560.73398122001, -46449.78600141835, -70214.38422374538, -68411.69368168041, -72560.98211538579, -58614.14177586338, -69009.58049411542, -57347.44606583668, -35886.642144518155, -53583.144078629506, -67119.80755565257, 2447102.9576185895, -63131.80930993668, -67382.39584951352, -56343.651574093295, -12951.338344971937, 0.054, 0.966, -0.176, 192.0, 0.5, 88.0, 15.0, 32.0, 125.0, 56.0, 0.0, 0.0, 0.0, 1.741801412704626E9, 0.0, 2025-03-12 12:43:32.704
58.0, -64557.00123989597, -46446.83557115025, -70207.00814807513, -68404.83169613263, -72556.89174615048, -58603.256476313654, -69005.93715976921, -57317.74059745557, -35898.01918244591, -53593.53763980122, -67127.56361097856, 2446974.211570527, -63143.11929263107, -67391.42595427347, -56345.05973399398, -12953.886443839841, 0.054, 0.966, -0.176, 192.0, 0.0, 0.0, 0.0, 0.0, 0.0, 0.0, 0.0, 0.0, 0.0, 1.741801412704856E9, 0.0, 2025-03-12 12:43:32.704
60.0, -64532.123748317215, -46422.62863190516, -70177.83912156094, -68379.82009408715, -72529.04147255915, -58585.9785778497, -68976.18698789919, -57303.65899844874, -35864.44686227404, -53560.769982429745, -67091.39848844988, 2446898.036825423, -63109.5469724592, -67360.06645680267, -56312.13561441131, -12918.883612022832, 0.054, 0.966, -0.176, 192.0, 0.0, 0.0, 0.0, 0.0, 0.0, 0.0, 0.0, 0.0, 0.0, 1.741801412763205E9, 0.0, 2025-03-12 12:43:32.763
62.0, -64549.78162643691, -46443.90749262661, -70196.88280783687, -68400.71897515285, -72551.28145829219, -58604.999912381165, -69005.66893883573, -57322.0768358799, -35869.25248733193, -53563.51924699775, -67093.81247685105, 2447372.251435787, -63114.374949261546, -67365.78850338323, -56318.125881925334, -12929.724208083655, 0.054, 0.966, -0.176, 192.0, 0.0, 0.0, 0.0, 0.0, 0.0, 0.0, 0.0, 0.0, 0.0, 1.741801412763483E9, 0.0, 2025-03-12 12:43:32.763
64.0, -64539.052789098365, -46436.5090652119, -70185.03638327555, -68391.68887039291, -72537.80335638563, -58591.8794383859, -68997.39879338727, -57309.20223107365, -35881.94827818254, -53577.80201170469, -67101.21090426575, 2447430.187157415, -63124.2991237997, -67375.77973315475, -56328.2959256525, -12933.054618007496, 0.054, 0.966, -0.176, 192.0, 0.0, 0.0, 0.0, 0.0, 0.0, 0.0, 0.0, 0.0, 0.0, 1.741801412763711E9, 0.0, 2025-03-12 12:43:32.763
66.0, -64544.95364963456, -46438.677184424065, -70188.88088332188, -68399.17670478544, -72535.23290577327, -58599.769604178626, -69009.53579062651, -57323.68616148069, -35883.13292063867, -53575.879761681535, -67101.76969787714, 2447313.242830425, -63125.59552497811, -67377.81374190017, -56327.73713204112, -12936.452083164702, 0.054, 0.965, -0.176, 192.0, 0.5, 88.0, 15.0, 16.0, 125.0, 64.0, 0.0, 0.0, 0.0, 1.74180141276392E9, 0.0, 2025-03-12 12:43:32.763
68.0, -64562.477417287526, -46455.70921369901, -70206.35994748592, -68420.20969631788, -72559.5292519962, -58618.276848587615, -69032.20045950418, -57342.17105414523, -35873.1193391227, -53569.19659008939, -67092.35961346145, 2447202.735805838, -63116.811289407175, -67373.00811684229, -56321.18807091571, -12941.168301244772, 0.054, 0.965, -0.176, 192.0, 0.0, 0.0, 0.0, 0.0, 0.0, 0.0, 0.0, 0.0, 0.0, 1.74180141276416E9, 0.0, 2025-03-12 12:43:32.764
70.0, -64580.716440763055, -46469.164963861105, -70219.07809008099, -68430.04446387822, -72571.5321387687, -58624.021246912635, -69025.62904663432, -57342.0369436785, -35911.050249463355, -53605.60758180709, -67131.43046276933, 2447040.7303620256, -63157.11148466009, -67407.18393411445, -56355.83327482144, -12970.47143822568, 0.054, 0.965, -0.176, 192.0, 0.0, 0.0, 0.0, 0.0, 0.0, 0.0, 0.0, 0.0, 0.0, 1.74180141276437E9, 0.0, 2025-03-12 12:43:32.764
72.0, -64566.54543477839, -46453.98812937595, -70203.90125559583, -68415.02409160425, -72555.05890310513, -58613.60533399646, -69013.7379185841, -57342.6851442677, -35903.96474647102, -53596.488070069325, -67119.51698297464, 2446918.421616366, -63148.43900781143, -67399.96432065539, -56346.311431683476, -12965.263481767593, 0.054, 0.965, -0.176, 192.0, 0.0, 0.0, 0.0, 0.0, 0.0, 0.0, 0.0, 0.0, 0.0, 1.74180141276458E9, 0.0, 2025-03-12 12:43:32.764
74.0, -64548.39581828068, -46438.31955651278, -70187.62918563238, -68398.14852454049, -72540.373806998, -58593.48876398668, -69008.84288654839, -57316.89123116627, -35883.04351366085, -53574.6951192254, -67099.51217168715, 2447225.266364249, -63126.4001877785, -67377.74668666681, -56325.7925302735, -12943.470530923669, 0.054, 0.965, -0.176, 192.0, 0.0, 0.0, 0.0, 0.0, 0.0, 0.0, 0.0, 0.0, 0.0, 1.741801412764796E9, 0.0, 2025-03-12 12:43:32.764
76.0, -64569.674679002135, -46454.79279217635, -70207.27636900858, -68416.16403057147, -72556.60117347255, -58613.180650851806, -69020.93518029871, -57343.132179156804, -35882.90940319412, -53569.97890114533, -67098.57339842003, 2447351.3302029767, -63124.47793775534, -67372.8516546311, -56324.45142560619, -12938.530795399047, 0.056, 0.9624999999999999, -0.178, 192.0, 0.5, 104.0, 15.0, 0.0, 125.0, 48.0, 0.0, 0.0, 0.0, 1.741801412823502E9, 0.0, 2025-03-12 12:43:32.823
78.0, -64568.6912022461, -46459.35254804523, -70211.47849696619, -68420.54497248471, -72564.33487705409, -58611.97365665122, -69046.03618932203, -57336.13608314229, -35909.73149654049, -53601.60661954959, -67122.66857894284, 2447196.2985034348, -63153.579909036154, -67402.78064045675, -56352.41345791978, -12965.442295723236, 0.056, 0.9624999999999999, -0.178, 192.0, 0.0, 0.0, 0.0, 0.0, 0.0, 0.0, 0.0, 0.0, 0.0, 1.741801412823883E9, 0.0, 2025-03-12 12:43:32.823
80.0, -64567.97594642353, -46455.23982706545, -70205.66704340781, -68413.9959113593, -72551.48262399228, -58603.36823503593, -69002.85261903437, -57319.081702122894, -35898.8238452463, -53590.22958162184, -67111.2915410151, 2447084.7185951136, -63145.71209498789, -67391.67182346247, -56343.361001415375, -12950.533682171546, 0.056, 0.9624999999999999, -0.178, 192.0, 0.0, 0.0, 0.0, 0.0, 0.0, 0.0, 0.0, 0.0, 0.0, 1.741801412824206E9, 0.0, 2025-03-12 12:43:32.824
82.0, -64586.46083908807, -46476.29517034235, -70225.4706889952, -68436.0570831367, -72571.75565621325, -58629.72094174873, -69025.15966000076, -57356.565577574445, -35905.08233369378, -53595.37048284656, -67118.68996842981, 2446954.3632214502, -63149.13191188955, -67397.39387004303, -56338.10834146838, -12954.981679318153, 0.056, 0.9624999999999999, -0.178, 192.0, 0.0, 0.0, 0.0, 0.0, 0.0, 0.0, 0.0, 0.0, 0.0, 1.741801412824524E9, 0.0, 2025-03-12 12:43:32.824
84.0, -64554.25197532797, -46442.34287051474, -70191.74190661215, -68403.35648099858, -72538.33979825256, -58593.667577942324, -69007.56883711444, -57305.13421358279, -35904.121208682205, -53595.9516282024, -67118.15352656288, 2446834.200243259, -63150.67418225696, -67399.38317529955, -56342.601042103895, -12957.060391552495, 0.056, 0.9624999999999999, -0.178, 192.0, 0.0, 0.0, 0.0, 0.0, 0.0, 0.0, 0.0, 0.0, 0.0, 1.741801412824861E9, 0.0, 2025-03-12 12:43:32.824
86.0, -64570.993431924995, -46462.50414401342, -70211.18792428827, -68425.19413533142, -72559.28338280719, -58618.58977300999, -69017.60477037488, -57342.8863099678, -35882.28355434937, -53573.68929072491, -67098.10401178646, 2447341.137807505, -63127.54012674572, -67376.07030583266, -56317.88001273633, -12932.361713929382, 0.056, 0.9652499999999999, -0.179, 192.0, 0.5, 96.0, 15.0, 32.0, 125.0, 48.0, 0.0, 0.0, 0.0, 1.741801412825183E9, 0.0, 2025-03-12 12:43:32.825
88.0, -64579.33063260683, -46469.9696266615, -70219.27925578109, -68432.99489414631, -72563.1725863424, -58623.79772946808, -69025.04790127849, -57339.86882446633, -35915.98998498797, -53608.20038416391, -67131.72103544725, 2447360.449714714, -63162.34179286264, -67412.660111506, -56355.16272248778, -12974.807676650009, 0.056, 0.9652499999999999, -0.179, 192.0, 0.0, 0.0, 0.0, 0.0, 0.0, 0.0, 0.0, 0.0, 0.0, 1.741801412825515E9, 0.0, 2025-03-12 12:43:32.825
90.0, -64581.99049019701, -46465.05224288133, -70214.4736307232, -68425.93174289844, -72555.88591764998, -58615.59463925298, -69008.55231387047, -57334.325591841414, -35909.48562735148, -53603.059482939185, -67126.37896852243, 2447242.968945857, -63153.06581891368, -67400.23254158885, -56345.01503050507, -12960.591967176435, 0.056, 0.9652499999999999, -0.179, 192.0, 0.0, 0.0, 0.0, 0.0, 0.0, 0.0, 0.0, 0.0, 0.0, 1.741801412885134E9, 0.0, 2025-03-12 12:43:32.885
92.0, -64554.564899750345, -46450.54596072983, -70203.74479338466, -68412.92302762545, -72547.72753092379, -58609.202040338765, -69016.10720349637, -57319.43933003418, -35896.40985684512, -53586.98857867582, -67113.68317767182, 2447141.581433008, -63144.23687985384, -67388.90020715001, -56336.029629234035, -12950.153702515807, 0.056, 0.9652499999999999, -0.179, 192.0, 0.0, 0.0, 0.0, 0.0, 0.0, 0.0, 0.0, 0.0, 0.0, 1.741801412885498E9, 0.0, 2025-03-12 12:43:32.885
94.0, -64588.0925164333, -46476.988074420464, -70232.31032279853, -68442.09205413962, -72581.67983075141, -58637.18642439681, -69038.86127935187, -57354.08453393991, -35906.512845338926, -53598.20915439238, -67120.58986670851, 2447011.2260593446, -63153.222281124865, -67403.71941372388, -56349.68654509623, -12962.111885799395, 0.056, 0.9652499999999999, -0.179, 192.0, 0.0, 0.0, 0.0, 0.0, 0.0, 0.0, 0.0, 0.0, 0.0, 1.741801412885823E9, 0.0, 2025-03-12 12:43:32.885
96.0, -64577.006051183474, -46464.985187647966, -70221.2238575487, -68428.59160048862, -72566.4806445218, -58619.46149104375, -69025.3384739564, -57348.787170504, -35922.382583902196, -53612.000180721305, -67136.9960471387, 2446867.459639008, -63167.16976966498, -67408.92737018196, -56362.42703943575, -12973.153647560317, 0.055, 0.963625, -0.1805, 192.0, 0.5, 88.0, 15.0, 8.0, 125.0, 40.0, 0.0, 0.0, 0.0, 1.741801412886134E9, 0.0, 2025-03-12 12:43:32.886
98.0, -64570.47934180252, -46464.135821358665, -70221.24620929315, -68428.54689699972, -72572.42620854691, -58613.672389229825, -69061.36948601836, -57332.023362162516, -35900.276708635894, -53587.65913100948, -67115.87364862843, 2447189.324759165, -63144.59450776512, -67388.38611702753, -56342.77985605954, -12950.556033916002, 0.055, 0.963625, -0.1805, 192.0, 0.0, 0.0, 0.0, 0.0, 0.0, 0.0, 0.0, 0.0, 0.0, 1.74180141288647E9, 0.0, 2025-03-12 12:43:32.886
100.0, -64581.968138452554, -46476.42928080908, -70225.53774422858, -68438.4040163045, -72570.54866201266, -58629.87740395992, -69019.75053784258, -57360.9912229766, -35926.361194415236, -53616.17995693445, -67140.88525067392, 2447256.9164343975, -63170.857807500106, -67417.42103307498, -56366.27153948206, -12976.19348480624, 0.055, 0.963625, -0.1805, 192.0, 0.0, 0.0, 0.0, 0.0, 0.0, 0.0, 0.0, 0.0, 0.0, 1.741801412886771E9, 0.0, 2025-03-12 12:43:32.886
102.0, -64586.237321643515, -46481.748995989445, -70229.89633439736, -68444.34958032961, -72575.64485974847, -58638.281659875116, -69028.57947690242, -57362.377031132826, -35910.44675236306, -53601.248991638306, -67124.90375338838, 2447152.3102703467, -63149.40013282301, -67399.67374797747, -56343.517463626566, -12963.698859655722, 0.055, 0.963625, -0.1805, 192.0, 0.0, 0.0, 0.0, 0.0, 0.0, 0.0, 0.0, 0.0, 0.0, 1.741801412887091E9, 0.0, 2025-03-12 12:43:32.887
104.0, -64577.92247270614, -46475.42345230859, -70224.84484015046, -68438.69458898241, -72571.9791736578, -58631.2408603717, -69041.52113694204, -57354.30805138446, -35928.953996772056, -53619.08568371364, -67142.96396290827, 2447006.9345244095, -63174.38938312404, -67422.33841685516, -56366.18213250425, -12984.128354087872, 0.055, 0.963625, -0.1805, 192.0, 0.0, 0.0, 0.0, 0.0, 0.0, 0.0, 0.0, 0.0, 0.0, 1.741801412887423E9, 0.0, 2025-03-12 12:43:32.887
106.0, -64571.552225536376, -46466.929789415575, -70216.39588074635, -68431.20675458989, -72566.882975922, -58619.79676721058, -69032.6921978822, -57340.22645237762, -35907.92100523961, -53602.41128234998, -67122.22154405374, 2446896.963941689, -63156.06095267069, -67401.57364625618, -56348.30073694, -12962.08953405494, 0.0545, 0.9628125, -0.17825, 192.0, 0.5, 88.0, 15.0, 8.0, 125.0, 64.0, 0.0, 0.0, 0.0, 1.741801412944036E9, 0.0, 2025-03-12 12:43:32.944
108.0, -64565.740771977995, -46458.749050944934, -70207.36577598641, -68422.55662948568, -72558.59047872908, -58608.75500544966, -69024.8467355784, -57319.14875735626, -35904.38942961567, -53595.52694505775, -67119.76285216367, 2447240.286736523, -63154.406923581, -67397.9079601655, -56345.05973399398, -12954.735810129145, 0.0545, 0.9628125, -0.17825, 192.0, 0.0, 0.0, 0.0, 0.0, 0.0, 0.0, 0.0, 0.0, 0.0, 1.741801412944409E9, 0.0, 2025-03-12 12:43:32.944
110.0, -64560.66692598665, -46458.21260907801, -70207.74575564216, -68423.89773415301, -72555.8188624166, -58613.40416829636, -69013.67086335074, -57336.31489709794, -35893.90646146613, -53586.11686064206, -67110.844506126, 2447417.848994476, -63141.86759494157, -67389.07902110566, -56334.01797223306, -12946.599775147411, 0.0545, 0.9628125, -0.17825, 192.0, 0.0, 0.0, 0.0, 0.0, 0.0, 0.0, 0.0, 0.0, 0.0, 1.741801412944729E9, 0.0, 2025-03-12 12:43:32.944
112.0, -64570.63580401371, -46461.900646913135, -70211.90318011084, -68425.95409464289, -72560.15510084094, -58615.30406657506, -69025.40552918977, -57339.28767911049, -35903.80828425983, -53595.97397994685, -67121.32747427553, 2447284.274969611, -63154.85395847011, -67400.6572247335, -56347.80899856198, -12962.670679410778, 0.0545, 0.9628125, -0.17825, 192.0, 0.0, 0.0, 0.0, 0.0, 0.0, 0.0, 0.0, 0.0, 0.0, 1.741801412945091E9, 0.0, 2025-03-12 12:43:32.945
114.0, -64557.64944048518, -46449.607187462716, -70201.53197068357, -68412.02895784724, -72546.63229544548, -58602.272999557616, -69020.2869797095, -57317.91941141122, -35893.59353704376, -53585.379253075036, -67111.20213403727, 2447169.476410088, -63147.6566967555, -67388.56493098318, -56339.2482804356, -12947.471493181169, 0.0545, 0.9628125, -0.17825, 192.0, 0.0, 0.0, 0.0, 0.0, 0.0, 0.0, 0.0, 0.0, 0.0, 1.741801412945331E9, 0.0, 2025-03-12 12:43:32.945
116.0, -64549.669867714634, -46440.0629925803, -70192.07718277899, -68404.83169613263, -72544.93356286688, -58596.2827320436, -69012.30740693897, -57324.1778998587, -35882.50707179392, -53574.672767480944, -67099.51217168715, 2447062.188036703, -63138.93951641793, -67380.56300646818, -56330.1958239312, -12942.978792545653, 0.05425, 0.96540625, -0.18212499999999998, 192.0, 0.5, 88.0, 15.0, 32.0, 125.0, 24.0, 0.0, 0.0, 0.0, 1.74180141294556E9, 0.0, 2025-03-12 12:43:32.945
118.0, -64548.03819036939, -46441.269986780884, -70192.03247929006, -68407.46920197835, -72549.58272571358, -58598.76377567813, -69025.45023267869, -57329.6317255058, -35881.65770550462, -53574.38219480302, -67097.29934898608, 2446944.1708259787, -63135.899679172006, -67378.41723900047, -56327.983001230125, -12940.900080311309, 0.05425, 0.96540625, -0.18212499999999998, 192.0, 0.0, 0.0, 0.0, 0.0, 0.0, 0.0, 0.0, 0.0, 0.0, 1.741801412945791E9, 0.0, 2025-03-12 12:43:32.945
120.0, -64540.14802457667, -46432.597509932224, -70182.04124951854, -68395.95805358388, -72536.95399009633, -58581.48587721418, -69006.38419465831, -57302.56376297042, -35877.58968801376, -53567.36374704406, -67091.37613670542, 2446961.3369657206, -63131.854013425596, -67375.3550500101, -56325.92664074024, -12937.949650043209, 0.05425, 0.96540625, -0.18212499999999998, 192.0, 0.0, 0.0, 0.0, 0.0, 0.0, 0.0, 0.0, 0.0, 0.0, 1.741801413004336E9, 0.0, 2025-03-12 12:43:33.004
122.0, -64536.750559419466, -46429.82589361977, -70178.39791517233, -68393.05232680468, -72531.74603363825, -58584.59276969347, -68985.3288513814, -57307.30233279495, -35867.19612684204, -53558.26658705075, -67081.29549995608, 2447389.9540173956, -63121.72867318734, -67364.46975046037, -56313.588477800906, -12923.286905680527, 0.05425, 0.96540625, -0.18212499999999998, 192.0, 0.0, 0.0, 0.0, 0.0, 0.0, 0.0, 0.0, 0.0, 0.0, 1.74180141300461E9, 0.0, 2025-03-12 12:43:33.004
124.0, -64550.76510319294, -46444.62274844918, -70193.48534267966, -68407.402146745, -72542.67603667689, -58600.68602570129, -69004.84192429089, -57334.14677788577, -35872.247621088936, -53563.631005720024, -67088.96214830424, 2447286.957178945, -63125.01437962227, -67369.0965615626, -56316.13657666881, -12933.144024985317, 0.05425, 0.96540625, -0.18212499999999998, 192.0, 0.0, 0.0, 0.0, 0.0, 0.0, 0.0, 0.0, 0.0, 0.0, 1.741801413004826E9, 0.0, 2025-03-12 12:43:33.004
126.0, -64557.44827478508, -46448.19902756203, -70193.70886012421, -68404.92110311045, -72541.67020817641, -58591.790031408076, -69001.2879969225, -57311.50446075255, -35884.116397394704, -53574.248084336294, -67097.20994200825, 2447148.018735411, -63136.7043419724, -67379.66893668997, -56325.83723376242, -12937.972001787664, 0.052125000000000005, 0.966703125, -0.1830625, 192.0, 0.5, 72.0, 15.0, 32.0, 125.0, 32.0, 0.0, 0.0, 0.0, 1.741801413005056E9, 0.0, 2025-03-12 12:43:33.005
128.0, -64556.44244628459, -46449.71894618499, -70192.59127290145, -68405.65871067747, -72546.25231578974, -58596.193325065775, -69019.2364477201, -57322.25564983555, -35889.99490618645, -53573.197552346894, -67105.52479094562, 2447024.6371060177, -63139.34184781812, -67378.0596110892, -56328.698257052696, -12934.865109308375, 0.052125000000000005, 0.966703125, -0.1830625, 192.0, 0.0, 0.0, 0.0, 0.0, 0.0, 0.0, 0.0, 0.0, 0.0, 1.741801413005287E9, 0.0, 2025-03-12 12:43:33.005
130.0, -64521.9313528456, -46419.07470453676, -70159.86831901889, -68375.01446902925, -72511.89768456193, -58563.626833394395, -68977.79631349997, -57279.69792839264, -35873.14169086715, -53557.10429633907, -67084.00006103517, 2447014.444710546, -63119.85112665309, -67366.7943318837, -56311.71093126666, -12923.823347547454, 0.052125000000000005, 0.966703125, -0.1830625, 192.0, 0.0, 0.0, 0.0, 0.0, 0.0, 0.0, 0.0, 0.0, 0.0, 1.741801413005488E9, 0.0, 2025-03-12 12:43:33.005
132.0, -64546.85354791326, -46439.750068157926, -70183.5611681415, -68395.71218439487, -72535.50112670675, -58586.604426694445, -69005.69129058019, -57314.20902183164, -35861.071748861286, -53545.99547934478, -67073.20416846326, 2447514.9449723894, -63108.02705383624, -67346.40954094047, -56297.495221793084, -12907.417167117259, 0.052125000000000005, 0.966703125, -0.1830625, 192.0, 0.0, 0.0, 0.0, 0.0, 0.0, 0.0, 0.0, 0.0, 0.0, 1.741801413005713E9, 0.0, 2025-03-12 12:43:33.005
134.0, -64568.66885050164, -46464.47109752549, -70208.28219750908, -68421.97548412984, -72560.51272875223, -58608.62089498292, -69039.50947994107, -57334.28088835251, -35896.29809812285, -53578.941950671906, -67108.47522121372, 2447381.3709475244, -63145.957964176894, -67383.37932626955, -56337.75071355709, -12949.349039715415, 0.052125000000000005, 0.966703125, -0.1830625, 192.0, 0.0, 0.0, 0.0, 0.0, 0.0, 0.0, 0.0, 0.0, 0.0, 1.741801413005924E9, 0.0, 2025-03-12 12:43:33.005
136.0, -64559.48228353051, -46453.786963675855, -70199.22974100467, -68415.11349858207, -72551.75084492574, -58603.189421080286, -69028.4900699246, -57339.77941748851, -35901.595461558754, -53585.69217749741, -67116.79007015111, 2447245.114713325, -63151.0541619127, -67389.86133216158, -56341.617565347864, -12954.51229268459, 0.051062500000000004, 0.9663515625, -0.18153124999999998, 192.0, 0.5, 72.0, 15.0, 24.0, 125.0, 48.0, 0.0, 0.0, 0.0, 1.741801413063733E9, 0.0, 2025-03-12 12:43:33.063
138.0, -64549.58046073681, -46444.24276879344, -70189.819656589, -68408.60914094557, -72542.47487097679, -58604.28465655859, -69022.20922973266, -57335.666696508735, -35883.088217149765, -53566.08969761011, -67093.70071812878, 2447146.4094098103, -63134.49151927132, -67375.71267792139, -56328.25122216359, -12945.862167580388, 0.051062500000000004, 0.9663515625, -0.18153124999999998, 192.0, 0.0, 0.0, 0.0, 0.0, 0.0, 0.0, 0.0, 0.0, 0.0, 1.741801413095285E9, 0.0, 2025-03-12 12:43:33.095
140.0, -64571.753391236474, -46472.00363540693, -70215.36770050142, -68428.92687665545, -72560.8256531746, -58617.06985438703, -69048.8972126123, -57345.88144372481, -35893.59353704376, -53578.2937500827, -67102.75317463317, 2447019.809129216, -63141.10763563009, -67385.01100361478, -56333.97326874415, -12949.863129837888, 0.051062500000000004, 0.9663515625, -0.18153124999999998, 192.0, 0.0, 0.0, 0.0, 0.0, 0.0, 0.0, 0.0, 0.0, 0.0, 1.741801413095507E9, 0.0, 2025-03-12 12:43:33.095
142.0, -64551.50271075997, -46450.85888515221, -70190.42315368929, -68407.13392581152, -72537.2222110298, -58591.61121745244, -68992.05672646246, -57309.1798793292, -35897.16981615661, -53582.47352629585, -67104.1389827894, 2446997.2785708047, -63145.823853710164, -67388.76609668328, -56337.86247227937, -12953.774685117565, 0.051062500000000004, 0.9663515625, -0.18153124999999998, 192.0, 0.0, 0.0, 0.0, 0.0, 0.0, 0.0, 0.0, 0.0, 0.0, 1.741801413095715E9, 0.0, 2025-03-12 12:43:33.095
144.0, -64560.0410771419, -46456.40211777713, -70195.072316536, -68412.83362064762, -72544.55358321113, -58599.00964486715, -69009.96047377116, -57316.75712069954, -35891.738342253964, -53576.81853494865, -67098.2381222532, 2447433.4058086164, -63137.06196988368, -67380.4512477459, -56322.43976860521, -12936.340324442426, 0.051062500000000004, 0.9663515625, -0.18153124999999998, 192.0, 0.0, 0.0, 0.0, 0.0, 0.0, 0.0, 0.0, 0.0, 0.0, 1.741801413095927E9, 0.0, 2025-03-12 12:43:33.095
146.0, -64549.20048108107, -46450.791829918846, -70185.8633978204, -68406.44102173341, -72537.44572847435, -58594.13696457589, -69012.46386915015, -57320.02047539002, -35896.02987718939, -53578.0478808937, -67098.57339842003, 2447326.653877098, -63139.29714432921, -67382.79818091371, -56326.239565162614, -12946.063333280485, 0.04953125, 0.9651757812499999, -0.182765625, 192.0, 0.5, 64.0, 15.0, 16.0, 125.0, 32.0, 0.0, 0.0, 0.0, 1.741801413096146E9, 0.0, 2025-03-12 12:43:33.096
148.0, -64571.6416325142, -46472.98711216296, -70206.96344458622, -68426.75875744328, -72557.2270223173, -58610.49844151717, -69032.02164554855, -57324.62493474781, -35889.88314746418, -53574.76217445877, -67091.86787508344, 2447210.2459919746, -63131.92106865896, -67377.903148878, -56319.26582089256, -12938.441388421224, 0.04953125, 0.9651757812499999, -0.182765625, 192.0, 0.0, 0.0, 0.0, 0.0, 0.0, 0.0, 0.0, 0.0, 0.0, 1.74180141309639E9, 0.0, 2025-03-12 12:43:33.096
150.0, -64556.42009454013, -46460.44778352354, -70191.3172234675, -68413.66063519247, -72539.09975756405, -58598.11557508893, -69004.57370335743, -57323.90967892524, -35910.133827940685, -53595.102261913096, -67109.70456715877, 2447060.5787111023, -63154.18340613645, -67399.31612006619, -56336.454312378686, -12956.03221130755, 0.04953125, 0.9651757812499999, -0.182765625, 192.0, 0.0, 0.0, 0.0, 0.0, 0.0, 0.0, 0.0, 0.0, 0.0, 1.741801413123459E9, 0.0, 2025-03-12 12:43:33.123
152.0, -64563.90792893266, -46465.27576032589, -70194.20059850224, -68416.18638231592, -72543.68186517738, -58596.64035995488, -69009.35697667087, -57316.377141043806, -35899.807322002336, -53583.88168619653, -67099.17689552032, 2446950.608128382, -63140.370028063066, -67385.2568728038, -56321.12101568234, -12942.41999893427, 0.04953125, 0.9651757812499999, -0.182765625, 192.0, 0.0, 0.0, 0.0, 0.0, 0.0, 0.0, 0.0, 0.0, 0.0, 1.741801413123715E9, 0.0, 2025-03-12 12:43:33.123
154.0, -64560.10813237526, -46463.26410332491, -70190.49020892265, -68412.87832413655, -72539.23386803077, -58593.17583956431, -69005.57953185792, -57314.63370497629, -35902.19895865905, -53582.026491406745, -67100.40624146536, 2447107.2491535246, -63140.079455385145, -67382.28409079125, -56319.22111740364, -12937.74848434311, 0.04953125, 0.9651757812499999, -0.182765625, 192.0, 0.0, 0.0, 0.0, 0.0, 0.0, 0.0, 0.0, 0.0, 0.0, 1.74180141312394E9, 0.0, 2025-03-12 12:43:33.123
156.0, -64563.57265276583, -46465.52162951489, -70195.25113049164, -68416.85693464958, -72546.54288846767, -58598.65201695586, -69025.51728791205, -57314.879574165294, -35894.04057193286, -53575.99152040381, -67093.14192451739, 2447430.187157415, -63134.849147182606, -67377.7019831779, -56314.7954720015, -12933.568708129967, 0.050765625, 0.965587890625, -0.1793828125, 192.0, 0.5, 80.0, 15.0, 24.0, 125.0, 64.0, 0.0, 0.0, 0.0, 1.741801413124162E9, 0.0, 2025-03-12 12:43:33.124
158.0, -64592.942844980105, -46491.13672866068, -70220.95563661524, -68438.96280991589, -72569.05109513416, -58618.09803463198, -69058.01672435006, -57342.2828128675, -35929.13281072769, -53610.45791035389, -67127.78712842311, 2447268.181713603, -63172.75770577881, -67407.49685853683, -56352.34640268641, -12964.436467222748, 0.050765625, 0.965587890625, -0.1793828125, 192.0, 0.0, 0.0, 0.0, 0.0, 0.0, 0.0, 0.0, 0.0, 0.0, 1.741801413124394E9, 0.0, 2025-03-12 12:43:33.124
160.0, -64591.86996124625, -46493.75188276194, -70223.39197676086, -68442.2038128619, -72569.92281316791, -58626.70345624727, -69042.81753812046, -57355.515045585045, -35921.22029319052, -53601.67367478296, -67121.05925334207, 2447141.581433008, -63164.84518824163, -67400.61252124459, -56346.13261772783, -12958.401496219814, 0.050765625, 0.965587890625, -0.1793828125, 192.0, 0.0, 0.0, 0.0, 0.0, 0.0, 0.0, 0.0, 0.0, 0.0, 1.7418014131246E9, 0.0, 2025-03-12 12:43:33.124
162.0, -64584.53858906491, -46482.39719657865, -70211.76906964411, -68427.85399292159, -72555.95297288334, -58608.79970893857, -69023.52798265553, -57327.888289438284, -35932.217351462525, -53610.79318652072, -67133.37506453694, 2447005.3251988087, -63176.40104012502, -67409.84379170464, -56351.050001508, -12969.175037047273, 0.050765625, 0.965587890625, -0.1793828125, 192.0, 0.0, 0.0, 0.0, 0.0, 0.0, 0.0, 0.0, 0.0, 0.0, 1.741801413124814E9, 0.0, 2025-03-12 12:43:33.124
164.0, -64541.24326005498, -46441.35939375871, -70172.92173778078, -68389.78897211421, -72524.66053064591, -58571.20407476474, -68990.44740086167, -57286.090527306864, -35902.310717381326, -53582.853505951585, -67101.41206996585, 2446914.130081431, -63149.33307758965, -67382.21703555787, -56323.311486638966, -12933.389894174326, 0.050765625, 0.965587890625, -0.1793828125, 192.0, 0.0, 0.0, 0.0, 0.0, 0.0, 0.0, 0.0, 0.0, 0.0, 1.741801413125015E9, 0.0, 2025-03-12 12:43:33.125
166.0, -64569.026478412925, -46465.02989113687, -70199.58736891596, -68416.18638231592, -72551.50497573674, -58604.17289783632, -69025.5396396565, -57320.51221376804, -35885.032818917374, -53565.95558714338, -67086.2352354807, 2447264.9630624014, -63133.97742914885, -67364.89443360502, -56310.995675444094, -12922.325780668949, 0.0513828125, 0.9687939453125, -0.18169140625, 192.0, 0.5, 80.0, 15.0, 48.0, 125.0, 32.0, 0.0, 0.0, 0.0, 1.741801413183736E9, 0.0, 2025-03-12 12:43:33.183
168.0, -64580.20235064058, -46475.937542431064, -70209.46683996521, -68428.52454525525, -72558.34460954006, -58618.25449684316, -69030.83700309241, -57338.326554098916, -35900.544929569354, -53584.105203641084, -67102.82022986654, 2447399.6099710003, -63151.411789823986, -67386.41916351547, -56330.55345184248, -12944.252841979605, 0.0513828125, 0.9687939453125, -0.18169140625, 192.0, 0.0, 0.0, 0.0, 0.0, 0.0, 0.0, 0.0, 0.0, 0.0, 1.741801413184034E9, 0.0, 2025-03-12 12:43:33.184
170.0, -64574.43560057111, -46475.26699009741, -70205.57763642998, -68427.47401326585, -72557.31642929513, -58608.10680486045, -69029.07121528045, -57341.20992913365, -35924.34953741426, -53610.88259349854, -67128.27886680113, 2447242.968945857, -63175.70813604691, -67413.12949813956, -56355.76621958807, -12969.063278324997, 0.0513828125, 0.9687939453125, -0.18169140625, 192.0, 0.0, 0.0, 0.0, 0.0, 0.0, 0.0, 0.0, 0.0, 0.0, 1.741801413184258E9, 0.0, 2025-03-12 12:43:33.184
172.0, -64570.81461796935, -46470.72958597298, -70197.4192497038, -68418.93564688393, -72550.40974025843, -58608.59854323847, -69015.3919476738, -57337.45483606516, -35891.98421144298, -53577.10910762657, -67093.36544196194, 2447154.4560378143, -63142.73931297533, -67378.7525151673, -56318.95289647018, -12934.216908719172, 0.0513828125, 0.9687939453125, -0.18169140625, 192.0, 0.0, 0.0, 0.0, 0.0, 0.0, 0.0, 0.0, 0.0, 0.0, 1.741801413184467E9, 0.0, 2025-03-12 12:43:33.184
174.0, -64579.934129707115, -46475.78108021988, -70203.61068291792, -68423.31658879717, -72557.4281880174, -58613.56063050755, -69027.03720653501, -57337.70070525417, -35918.78395304489, -53601.584267805134, -67120.58986670851, 2447010.153175611, -63169.18142666596, -67403.94293116844, -56343.29394618201, -12959.56378693149, 0.0513828125, 0.9687939453125, -0.18169140625, 192.0, 0.0, 0.0, 0.0, 0.0, 0.0, 0.0, 0.0, 0.0, 0.0, 1.74180141318468E9, 0.0, 2025-03-12 12:43:33.184
176.0, -64551.6368212267, -46451.59649271923, -70178.04028726104, -68397.94735884039, -72534.31648425061, -58586.55972320554, -69017.47065990814, -57297.86989663481, -35899.76261851342, -53580.23835185032, -67099.31100598705, 2446907.692779028, -63150.38360957905, -67382.08292509115, -56326.41837911825, -12940.184824488739, 0.04769140625, 0.9693969726562499, -0.18184570312499998, 192.0, 0.5, 48.0, 15.0, 40.0, 125.0, 40.0, 0.0, 0.0, 0.0, 1.7418014131849E9, 0.0, 2025-03-12 12:43:33.184
178.0, -64551.68152471561, -46453.228170064474, -70179.98488902867, -68401.7471553978, -72532.64010341646, -58592.617045952924, -69016.4871831521, -57307.50349849505, -35882.55177528284, -53566.581435988126, -67085.05059302457, 2447101.8847348555, -63129.86470816907, -67367.24136677283, -56313.7449400121, -12926.483205137636, 0.04769140625, 0.9693969726562499, -0.18184570312499998, 192.0, 0.0, 0.0, 0.0, 0.0, 0.0, 0.0, 0.0, 0.0, 0.0, 1.741801413185132E9, 0.0, 2025-03-12 12:43:33.185
180.0, -64554.81076893935, -46448.28843453985, -70178.01793551659, -68399.42257397444, -72530.04730105965, -58589.80072615156, -69011.52509588303, -57314.29842880946, -35879.19901361454, -53565.32973829863, -67080.22261622222, 2447414.093901407, -63126.69076045642, -67367.48723596183, -56310.07925392142, -12929.098359238908, 0.04769140625, 0.9693969726562499, -0.18184570312499998, 192.0, 0.0, 0.0, 0.0, 0.0, 0.0, 0.0, 0.0, 0.0, 0.0, 1.741801413244037E9, 0.0, 2025-03-12 12:43:33.244
182.0, -64574.5920627823, -46468.874391183184, -70200.324976483, -68422.69073995242, -72556.64587696145, -58611.63838048439, -69026.9477995572, -57332.783321473995, -35897.907423723635, -53582.62998850703, -67102.32849148852, 2447272.4732485386, -63142.35933331959, -67384.16163732548, -56330.03936172001, -12944.968097802175, 0.04769140625, 0.9693969726562499, -0.18184570312499998, 192.0, 0.0, 0.0, 0.0, 0.0, 0.0, 0.0, 0.0, 0.0, 0.0, 1.741801413244354E9, 0.0, 2025-03-12 12:43:33.244
184.0, -64565.763123722456, -46460.82776317928, -70198.51448518211, -68422.02018761876, -72554.5224612382, -58608.88911591639, -69024.19853498919, -57320.66867597922, -35901.14842666965, -53588.08381415413, -67100.80857286556, 2447135.144130605, -63143.2534030978, -67392.36472754058, -56335.64964957829, -12955.071086295973, 0.04769140625, 0.9693969726562499, -0.18184570312499998, 192.0, 0.0, 0.0, 0.0, 0.0, 0.0, 0.0, 0.0, 0.0, 0.0, 1.741801413244565E9, 0.0, 2025-03-12 12:43:33.244
186.0, -64557.06829512934, -46451.127106085674, -70194.35706071342, -68413.5041729813, -72546.29701927866, -58590.98536860769, -69020.57755238743, -57316.91358291073, -35889.74903699745, -53574.8962849255, -67092.02433729463, 2447024.100664151, -63126.26607731177, -67375.77973315475, -56328.25122216359, -12940.251879722106, 0.046845703125, 0.9686984863281249, -0.1819228515625, 192.0, 0.5, 56.0, 15.0, 32.0, 125.0, 40.0, 0.0, 0.0, 0.0, 1.741801413244778E9, 0.0, 2025-03-12 12:43:33.244
188.0, -64546.25005081297, -46439.97358560248, -70188.6126623884, -68406.68689092241, -72538.78683314167, -58583.29636851506, -68999.81278178845, -57306.095338594365, -35884.20580437253, -53569.867142423056, -67085.74349710268, 2446972.065803059, -63118.487670241324, -67371.75641915279, -56321.411588360264, -12936.809711075988, 0.046845703125, 0.9686984863281249, -0.1819228515625, 192.0, 0.0, 0.0, 0.0, 0.0, 0.0, 0.0, 0.0, 0.0, 0.0, 1.741801413245006E9, 0.0, 2025-03-12 12:43:33.245
190.0, -64541.556184477355, -46436.62082393418, -70191.1160577674, -68406.77629790024, -72541.13376630947, -58582.983444092686, -69003.32200566793, -57315.84069917688, -35879.042551403356, -53569.084831367116, -67086.8834360699, 2447414.630343274, -63110.88807712652, -67369.27537551825, -56323.803225016985, -12930.819443561966, 0.046845703125, 0.9686984863281249, -0.1819228515625, 192.0, 0.0, 0.0, 0.0, 0.0, 0.0, 0.0, 0.0, 0.0, 0.0, 1.741801413245239E9, 0.0, 2025-03-12 12:43:33.245
192.0, -64530.648533183165, -46425.824931362265, -70181.30364195153, -68396.56155068417, -72527.67801614739, -58571.74051663167, -68968.028601173, -57290.069137819904, -35866.48087101947, -53560.36765102955, -67075.0817149975, 2447346.5022261743, -63097.946417086896, -67361.16169228098, -56313.56612605645, -12920.649399834801, 0.046845703125, 0.9686984863281249, -0.1819228515625, 192.0, 0.0, 0.0, 0.0, 0.0, 0.0, 0.0, 0.0, 0.0, 0.0, 1.741801413245461E9, 0.0, 2025-03-12 12:43:33.245
194.0, -64530.13444306069, -46426.160207529094, -70187.18215074328, -68402.03772807571, -72530.56139118211, -58576.85906611193, -68965.86048196083, -57303.94957112665, -35857.27195230388, -53551.13638056951, -67071.52778762911, 2447237.068085321, -63085.65295763648, -67347.81770084116, -56302.43495731771, -12905.31610313846, 0.046845703125, 0.9686984863281249, -0.1819228515625, 192.0, 0.0, 0.0, 0.0, 0.0, 0.0, 0.0, 0.0, 0.0, 0.0, 1.741801413245675E9, 0.0, 2025-03-12 12:43:33.245
196.0, -64527.56399244833, -46425.534358684345, -70187.53977865455, -68402.73063215383, -72530.58374292657, -58578.49074345717, -68973.10244716436, -57300.39564375826, -35862.27874306187, -53558.62421496204, -67081.54136914508, 2447107.7855953914, -63095.15244902998, -67358.90416609099, -56316.71772202465, -12917.542507355512, 0.0494228515625, 0.9683492431640625, -0.17996142578125, 192.0, 0.5, 80.0, 15.0, 32.0, 125.0, 56.0, 0.0, 0.0, 0.0, 1.741801413305656E9, 0.0, 2025-03-12 12:43:33.305
198.0, -64554.63195498371, -46448.7131176845, -70212.10434581093, -68426.31172255418, -72549.53802222467, -58602.22829606871, -68994.26954916352, -57318.29939106696, -35882.77529272739, -53577.17616285994, -67099.57922692051, 2446970.456477458, -63111.82685039364, -67374.08100057615, -56329.9946582311, -12929.210117961184, 0.0494228515625, 0.9683492431640625, -0.17996142578125, 192.0, 0.0, 0.0, 0.0, 0.0, 0.0, 0.0, 0.0, 0.0, 0.0, 1.741801413305953E9, 0.0, 2025-03-12 12:43:33.305
200.0, -64545.84771941278, -46437.358431501205, -70205.55528468553, -68415.649940449, -72536.32814125158, -58587.319682517016, -68983.36189786934, -57305.00010311605, -35876.20387985753, -53568.28016856673, -67098.61810190894, 2447372.251435787, -63106.171859046444, -67365.98966908333, -56326.373675629344, -12922.437539391225, 0.0494228515625, 0.9683492431640625, -0.17996142578125, 192.0, 0.0, 0.0, 0.0, 0.0, 0.0, 0.0, 0.0, 0.0, 0.0, 1.741801413306172E9, 0.0, 2025-03-12 12:43:33.306
202.0, -64551.07802761532, -46442.253463536916, -70215.7253284127, -68425.44000452042, -72551.79554841465, -58603.56940073603, -68986.69230779319, -57336.717228498135, -35880.29424909285, -53575.298616325694, -67107.22352352423, 2447392.099784863, -63114.73257717283, -67371.73406740834, -56330.084065208925, -12926.03617024853, 0.0494228515625, 0.9683492431640625, -0.17996142578125, 192.0, 0.0, 0.0, 0.0, 0.0, 0.0, 0.0, 0.0, 0.0, 0.0, 1.741801413306383E9, 0.0, 2025-03-12 12:43:33.306
204.0, -64540.77387342142, -46437.17961754556, -70209.57859868748, -68421.26022830728, -72542.0725395766, -58601.848316412965, -68987.34050838239, -57320.53456551249, -35881.30007759334, -53580.88655243952, -67110.46452647026, 2447266.0359461354, -63120.92401038695, -67378.77486691176, -56338.15304495729, -12933.792225574522, 0.0494228515625, 0.9683492431640625, -0.17996142578125, 192.0, 0.0, 0.0, 0.0, 0.0, 0.0, 0.0, 0.0, 0.0, 0.0, 1.741801413306594E9, 0.0, 2025-03-12 12:43:33.306
206.0, -64541.0867978438, -46432.7092686545, -70206.56111318602, -68415.42642300445, -72541.53609770967, -58589.912484873836, -68971.49312156357, -57307.79407117297, -35877.32146708029, -53577.51143902677, -67106.70943340176, 2447144.2636423428, -63115.93957137342, -67374.66214593199, -56331.87220476535, -12925.276210937049, 0.05071142578125, 0.9701746215820313, -0.180980712890625, 192.0, 0.5, 80.0, 15.0, 48.0, 125.0, 40.0, 0.0, 0.0, 0.0, 1.741801413306804E9, 0.0, 2025-03-12 12:43:33.306
208.0, -64518.288018499385, -46410.46928292147, -70186.73511585416, -68394.61694891655, -72521.03954804415, -58564.83382759498, -68971.24725237457, -57287.02930057399, -35851.6616644456, -53556.05376434967, -67083.46361916824, 2447052.5320830983, -63093.43136470692, -67351.46103518737, -56309.49810856559, -12899.83992574691, 0.05071142578125, 0.9701746215820313, -0.180980712890625, 192.0, 0.0, 0.0, 0.0, 0.0, 0.0, 0.0, 0.0, 0.0, 0.0, 1.741801413307032E9, 0.0, 2025-03-12 12:43:33.307
210.0, -64532.23550703949, -46426.83075986276, -70203.85655210692, -68411.76073691377, -72543.14542331046, -58587.811420895036, -68995.74476429757, -57315.48307126559, -35863.39633028464, -53567.02847087723, -67095.26534024064, 2446918.9580582334, -63104.58488519012, -67364.49210220482, -56324.294963395, -12909.115899695862, 0.05071142578125, 0.9701746215820313, -0.180980712890625, 192.0, 0.0, 0.0, 0.0, 0.0, 0.0, 0.0, 0.0, 0.0, 0.0, 1.741801413364542E9, 0.0, 2025-03-12 12:43:33.364
212.0, -64531.52025121692, -46422.405114460606, -70196.03344154757, -68404.87639962154, -72536.86458311851, -58582.60346443695, -68961.85951970334, -57299.90390538024, -35860.87058316119, -53560.837037663114, -67092.35961346145, 2447123.8788513993, -63100.13688804351, -67356.40077071199, -56319.84696624839, -12907.21600141716, 0.05071142578125, 0.9701746215820313, -0.180980712890625, 192.0, 0.0, 0.0, 0.0, 0.0, 0.0, 0.0, 0.0, 0.0, 0.0, 1.741801413364843E9, 0.0, 2025-03-12 12:43:33.364
214.0, -64549.13342584771, -46446.18737056105, -70216.52999121309, -68428.99393188882, -72557.51759499521, -58603.85997341394, -68988.6369095608, -57324.93785917018, -35869.945391410045, -53570.202418589884, -67099.98155832071, 2447345.4293424403, -63106.21656253536, -67367.17431153945, -56322.328009882935, -12911.239315419116, 0.05071142578125, 0.9701746215820313, -0.180980712890625, 192.0, 0.0, 0.0, 0.0, 0.0, 0.0, 0.0, 0.0, 0.0, 0.0, 1.741801413365064E9, 0.0, 2025-03-12 12:43:33.365
216.0, -64557.76119920745, -46453.89872239813, -70220.01686334811, -68436.1017866256, -72559.41749327391, -58614.07472063002, -68985.90999673725, -57342.95336520116, -35897.16981615661, -53601.8524887386, -67126.31191328907, 2447187.178991697, -63131.31757155867, -67398.04207063223, -56347.38431541733, -12940.140120999828, 0.052355712890625, 0.9700873107910156, -0.1814903564453125, 192.0, 0.5, 88.0, 15.0, 40.0, 125.0, 40.0, 0.0, 0.0, 0.0, 1.741801413365271E9, 0.0, 2025-03-12 12:43:33.365
218.0, -64545.132463590206, -46446.6120537057, -70214.40657548983, -68432.59256274613, -72551.5720309701, -58612.5324502626, -68982.3784211133, -57339.153568643764, -35888.54204279686, -53593.80586073469, -67117.93000911832, 2447066.479571638, -63122.86861215456, -67392.47648626287, -56339.650611835794, -12940.721266355666, 0.052355712890625, 0.9700873107910156, -0.1814903564453125, 192.0, 0.0, 0.0, 0.0, 0.0, 0.0, 0.0, 0.0, 0.0, 0.0, 1.741801413365504E9, 0.0, 2025-03-12 12:43:33.365
220.0, -64560.95749866456, -46454.904550898624, -70223.5707907165, -68442.02499890626, -72563.55256599815, -58617.36042706495, -69004.12666846832, -57326.92716442671, -35883.57995552778, -53592.26359036727, -67115.78424165062, 2446955.972547051, -63119.71701618636, -67389.92838739496, -56339.00241124659, -12937.703780854199, 0.052355712890625, 0.9700873107910156, -0.1814903564453125, 192.0, 0.0, 0.0, 0.0, 0.0, 0.0, 0.0, 0.0, 0.0, 0.0, 1.741801413365709E9, 0.0, 2025-03-12 12:43:33.365
222.0, -64536.035303596895, -46434.31859425528, -70199.60972066042, -68422.13194634103, -72537.04339707416, -58597.534429733096, -68972.23072913059, -57306.83294616139, -35883.44584506105, -53591.12365140005, -67119.15935506337, 2446998.3514545383, -63123.27094355476, -67391.11302985108, -56335.06850422246, -12937.457911665191, 0.052355712890625, 0.9700873107910156, -0.1814903564453125, 192.0, 0.0, 0.0, 0.0, 0.0, 0.0, 0.0, 0.0, 0.0, 0.0, 1.741801413365924E9, 0.0, 2025-03-12 12:43:33.365
224.0, -64534.917716374126, -46431.94930934302, -70194.89350258035, -68416.74517592731, -72535.5234784512, -58595.85804889895, -68975.33762160988, -57306.05063510545, -35869.69952222103, -53579.724261727846, -67103.8931136004, 2447436.624459818, -63106.12715555754, -67377.43376224444, -56322.30565813847, -12924.851527792398, 0.052355712890625, 0.9700873107910156, -0.1814903564453125, 192.0, 0.0, 0.0, 0.0, 0.0, 0.0, 0.0, 0.0, 0.0, 0.0, 1.741801413366136E9, 0.0, 2025-03-12 12:43:33.366
226.0, -64531.25203028346, -46432.57515818777, -70195.67581363629, -68417.66159744997, -72535.81405112911, -58593.91344713133, -68984.52418858101, -57313.225545075606, -35860.26708606089, -53565.88853191001, -67096.1370582744, 2447340.064923771, -63096.2923879972, -67366.52611095025, -56312.33678011141, -12917.877783522343, 0.052177856445312504, 0.9710436553955077, -0.18174517822265623, 192.0, 0.5, 80.0, 15.0, 48.0, 125.0, 40.0, 0.0, 0.0, 0.0, 1.741801413423984E9, 0.0, 2025-03-12 12:43:33.423
228.0, -64546.33945779079, -46435.36912624468, -70199.9673485717, -68418.10863233908, -72540.06088257562, -58591.27594128561, -68983.98774671409, -57305.58124847189, -35871.08533037726, -53577.690252982415, -67108.56462819155, 2447211.3188757086, -63109.97165560385, -67378.28312853375, -56320.83044300443, -12921.901097524298, 0.052177856445312504, 0.9710436553955077, -0.18174517822265623, 192.0, 0.0, 0.0, 0.0, 0.0, 0.0, 0.0, 0.0, 0.0, 0.0, 1.741801413424277E9, 0.0, 2025-03-12 12:43:33.424
230.0, -64556.57655675132, -46449.182504318065, -70213.40074698934, -68430.37974004504, -72554.2765920492, -58604.21760132523, -69008.30644468147, -57314.81251893193, -35868.827804187276, -53574.51630526976, -67106.41886072385, 2447094.3745487183, -63114.576114961645, -67376.04795408821, -56322.730341283124, -12914.368559642859, 0.052177856445312504, 0.9710436553955077, -0.18174517822265623, 192.0, 0.0, 0.0, 0.0, 0.0, 0.0, 0.0, 0.0, 0.0, 0.0, 1.741801413424501E9, 0.0, 2025-03-12 12:43:33.424
232.0, -64570.7922662249, -46461.99005389095, -70224.7777849171, -68445.91420244148, -72563.99960088725, -58622.81425271204, -68997.51055210955, -57344.92031871323, -35894.57701379979, -53599.99729394881, -67132.72686394774, 2446943.0979422447, -63139.78888270723, -67403.8535241906, -56345.37265841635, -12945.03515303554, 0.052177856445312504, 0.9710436553955077, -0.18174517822265623, 192.0, 0.0, 0.0, 0.0, 0.0, 0.0, 0.0, 0.0, 0.0, 0.0, 1.741801413424734E9, 0.0, 2025-03-12 12:43:33.424
234.0, -64544.976001379015, -46438.85599837971, -70199.54266542706, -68421.68491145193, -72539.63619943097, -58595.433365754296, -68981.66316529074, -57312.91262065323, -35880.89774619314, -53584.75340423029, -67114.53254396112, 2447105.103386057, -63124.92497264445, -67392.49883800732, -56325.39019887331, -12935.200385475206, 0.052177856445312504, 0.9710436553955077, -0.18174517822265623, 192.0, 0.0, 0.0, 0.0, 0.0, 0.0, 0.0, 0.0, 0.0, 0.0, 1.741801413424958E9, 0.0, 2025-03-12 12:43:33.424
236.0, -64556.46479802905, -46454.25635030941, -70210.76324114362, -68434.71597846938, -72550.32033328062, -58609.55966825005, -68991.8332090179, -57325.69781848167, -35887.11153115172, -53590.58720953312, -67118.53350621862, 2447274.0825741393, -63131.38462679203, -67393.48231476334, -56331.33576289842, -12936.005048275596, 0.05108892822265625, 0.9685218276977539, -0.1798725891113281, 192.0, 0.5, 72.0, 15.0, 24.0, 125.0, 56.0, 0.0, 0.0, 0.0, 1.741801413425166E9, 0.0, 2025-03-12 12:43:33.425
238.0, -64555.97305965103, -46449.316614784795, -70206.94109284176, -68429.95505690039, -72541.2231732873, -58604.01643562513, -68988.99453747208, -57327.284792337996, -35881.92592643809, -53583.52405828525, -67110.41982298135, 2447160.8933402174, -63124.88026915554, -67387.64850946052, -56323.11032093887, -12932.361713929382, 0.05108892822265625, 0.9685218276977539, -0.1798725891113281, 192.0, 0.0, 0.0, 0.0, 0.0, 0.0, 0.0, 0.0, 0.0, 0.0, 1.741801413425407E9, 0.0, 2025-03-12 12:43:33.425
240.0, -64534.76125416294, -46440.7111931695, -70193.44063919075, -68420.56732422917, -72532.72951039427, -58596.99798786617, -68984.25596764755, -57306.4753182501, -35882.48472004947, -53585.80393621969, -67112.07385207103, 2447043.4125713604, -63125.282600555736, -67386.57562572666, -56326.373675629344, -12938.709609354688, 0.05108892822265625, 0.9685218276977539, -0.1798725891113281, 192.0, 0.0, 0.0, 0.0, 0.0, 0.0, 0.0, 0.0, 0.0, 0.0, 1.741801413483652E9, 0.0, 2025-03-12 12:43:33.483
242.0, -64518.33272198829, -46420.46051269299, -70170.08306623496, -68396.67330940644, -72510.48952466126, -58571.516999187115, -68954.03640914398, -57280.010852815016, -35865.7656151969, -53567.98959588881, -67091.80081985008, 2446983.867524131, -63107.82588813614, -67373.7010209204, -56307.0394166755, -12922.37048415786, 0.05108892822265625, 0.9685218276977539, -0.1798725891113281, 192.0, 0.0, 0.0, 0.0, 0.0, 0.0, 0.0, 0.0, 0.0, 0.0, 1.741801413483963E9, 0.0, 2025-03-12 12:43:33.483
244.0, -64540.215079810034, -46439.303033268814, -70190.95959555621, -68414.86762939306, -72529.57791442609, -58591.20888605224, -68981.17142691273, -57301.87085889231, -35848.10773707721, -53548.387116001504, -67073.15946497435, 2447435.5515760845, -63090.43623094991, -67349.87406133105, -56286.63227398781, -12896.665978034256, 0.05108892822265625, 0.9685218276977539, -0.1798725891113281, 192.0, 0.0, 0.0, 0.0, 0.0, 0.0, 0.0, 0.0, 0.0, 0.0, 1.741801413484186E9, 0.0, 2025-03-12 12:43:33.484
246.0, -64562.70093473208, -46457.72087069999, -70209.17626728729, -68432.57021100166, -72545.51470822272, -58607.726825204714, -68998.87400852132, -57322.099187624364, -35898.24269989046, -53596.152793902496, -67122.40035800938, 2447327.190318965, -63139.29714432921, -67399.02554738827, -56335.895518767305, -12948.589080403934, 0.049544464111328124, 0.9692609138488769, -0.17893629455566407, 192.0, 0.5, 64.0, 15.0, 40.0, 125.0, 56.0, 0.0, 0.0, 0.0, 1.741801413484404E9, 0.0, 2025-03-12 12:43:33.484
248.0, -64556.42009454013, -46457.31853929979, -70206.82933411948, -68429.5974289891, -72547.39225475697, -58604.39641528087, -68999.81278178845, -57309.85043166285, -35885.748074739946, -53580.685386739424, -67109.63751192541, 2447214.53752691, -63125.52846974474, -67382.44055300242, -56320.092835437405, -12928.025475505052, 0.049544464111328124, 0.9692609138488769, -0.17893629455566407, 192.0, 0.0, 0.0, 0.0, 0.0, 0.0, 0.0, 0.0, 0.0, 0.0, 1.741801413484622E9, 0.0, 2025-03-12 12:43:33.484
250.0, -64586.662004788166, -46473.54590577435, -70225.0236541061, -68444.32722858516, -72571.17451085741, -58621.40609281136, -69027.90892456876, -57324.401417303256, -35900.81315050282, -53595.83986948012, -67122.62387545394, 2447072.9168740413, -63140.01240015178, -67399.24906483282, -56336.096684467404, -12938.955478543698, 0.049544464111328124, 0.9692609138488769, -0.17893629455566407, 192.0, 0.0, 0.0, 0.0, 0.0, 0.0, 0.0, 0.0, 0.0, 0.0, 1.741801413484836E9, 0.0, 2025-03-12 12:43:33.484
252.0, -64585.09738267629, -46487.78396699238, -70236.82537517851, -68460.19696714843, -72584.74201974178, -58638.03579068611, -69027.41718619075, -57351.469379838636, -35925.221255448014, -53620.56089884769, -67144.90856467588, 2446905.54701156, -63168.08619118765, -67421.77962324377, -56365.5562836595, -12964.36941198938, 0.049544464111328124, 0.9692609138488769, -0.17893629455566407, 192.0, 0.0, 0.0, 0.0, 0.0, 0.0, 0.0, 0.0, 0.0, 0.0, 1.741801413485053E9, 0.0, 2025-03-12 12:43:33.485
254.0, -64558.87878643022, -46455.888027654655, -70206.24818876364, -68432.03376913474, -72551.34851352555, -58613.09124387398, -68990.80502877296, -57337.611298276344, -35895.29226962236, -53593.068253167665, -67114.35373000547, 2447233.8494341196, -63138.17955710644, -67400.03137588875, -56332.67686756574, -12943.761103601588, 0.049544464111328124, 0.9692609138488769, -0.17893629455566407, 192.0, 0.0, 0.0, 0.0, 0.0, 0.0, 0.0, 0.0, 0.0, 0.0, 1.741801413485275E9, 0.0, 2025-03-12 12:43:33.485
0.0, -64569.27234760194, -46464.94048415905, -70219.70393892574, -68441.1532808725, -72562.61379273103, -58618.3886073099, -69019.48231690911, -57332.00101041806, -35903.227138903996, -53602.59009630563, -67126.4460237558, 2447429.1142736813, -63149.042504911726, -67401.5065910228, -56349.53008288504, -12956.412190963292, 0.04677223205566406, 0.9676304569244385, -0.17846814727783203, 192.0, 0.5, 48.0, 15.0, 24.0, 125.0, 56.0, 0.0, 0.0, 0.0, 1.741801413544009E9, 0.0, 2025-03-12 12:43:33.544
2.0, -64542.94199263358, -46440.19710304703, -70193.59710140195, -68416.76752767176, -72536.55165869615, -58594.4275372538, -68979.85267398985, -57309.11282409583, -35875.19805135704, -53571.7446889573, -67097.14288677489, 2447344.8929005736, -63120.45462375339, -67376.89732037751, -56317.85766099187, -12923.599830102901, 0.04677223205566406, 0.9676304569244385, -0.17846814727783203, 192.0, 0.0, 0.0, 0.0, 0.0, 0.0, 0.0, 0.0, 0.0, 0.0, 1.741801413544292E9, 0.0, 2025-03-12 12:43:33.544
4.0, -64570.03230691342, -46463.353510302724, -70218.40753774733, -68440.2592110943, -72553.56133622663, -58623.75302597917, -69007.61354060334, -57339.26532736604, -35893.16885389911, -53590.475450810845, -67117.77354690713, 2447198.980712769, -63141.129987374545, -67394.97988164186, -56338.73419031313, -12944.677525124256, 0.04677223205566406, 0.9676304569244385, -0.17846814727783203, 192.0, 0.0, 0.0, 0.0, 0.0, 0.0, 0.0, 0.0, 0.0, 0.0, 1.741801413544511E9, 0.0, 2025-03-12 12:43:33.544
6.0, -64558.767027707945, -46457.25148406643, -70206.15878178582, -68431.81025169019, -72551.52732748119, -58608.62089498292, -69007.43472664771, -57333.409170318744, -35893.16885389911, -53591.235410122325, -67116.76771840664, 2447079.8906183112, -63137.24078383933, -67393.12468685207, -56336.38725714532, -12942.04001927853, 0.04677223205566406, 0.9676304569244385, -0.17846814727783203, 192.0, 0.0, 0.0, 0.0, 0.0, 0.0, 0.0, 0.0, 0.0, 0.0, 1.741801413544726E9, 0.0, 2025-03-12 12:43:33.544
8.0, -64575.93316744962, -46477.32335058729, -70226.45416575125, -68452.10563565561, -72571.59919400206, -58629.07274115953, -69021.56102914346, -57329.095283638875, -35901.751923769945, -53598.20915439238, -67124.61318071045, 2446944.1708259787, -63140.705304229894, -67399.71845146638, -56341.259937436575, -12946.912699569786, 0.04677223205566406, 0.9676304569244385, -0.17846814727783203, 192.0, 0.0, 0.0, 0.0, 0.0, 0.0, 0.0, 0.0, 0.0, 0.0, 1.741801413544943E9, 0.0, 2025-03-12 12:43:33.544
10.0, -64539.56687922083, -46437.89487336813, -70190.31139496701, -68413.52652472575, -72535.45642321782, -58588.63843543988, -68992.12378169582, -57301.80380365894, -35893.90646146613, -53590.02841592174, -67116.20892479527, 2446994.059919603, -63134.78209194924, -67390.1072013506, -56336.00727748958, -12942.151778000805, 0.047386116027832034, 0.9678152284622192, -0.17923407363891602, 192.0, 0.5, 64.0, 15.0, 32.0, 125.0, 48.0, 0.0, 0.0, 0.0, 1.741801413545163E9, 0.0, 2025-03-12 12:43:33.545
12.0, -64538.29282978688, -46434.698573911024, -70188.88088332188, -68412.6995101809, -72532.7742138832, -58587.07381332801, -68993.97897648561, -57304.620123460314, -35864.268048318394, -53558.78067717322, -67085.67644186932, 2447457.0092507615, -63108.31762651416, -67358.92651783544, -56310.72745451063, -12910.993446230108, 0.047386116027832034, 0.9678152284622192, -0.17923407363891602, 192.0, 0.0, 0.0, 0.0, 0.0, 0.0, 0.0, 0.0, 0.0, 0.0, 1.741801413545384E9, 0.0, 2025-03-12 12:43:33.545
14.0, -64535.141233818686, -46429.892948853136, -70187.67388912129, -68411.15723981347, -72531.41075747141, -58591.63356919689, -68987.56402582694, -57302.787280414974, -35877.45557754703, -53572.862276180065, -67103.0437473111, 2447340.601365638, -63124.075606355145, -67375.91384362149, -56328.407684374775, -12931.713513340177, 0.047386116027832034, 0.9678152284622192, -0.17923407363891602, 192.0, 0.0, 0.0, 0.0, 0.0, 0.0, 0.0, 0.0, 0.0, 0.0, 1.741801413604298E9, 0.0, 2025-03-12 12:43:33.604
16.0, -64546.048885112876, -46446.8132194058, -70202.96248232872, -68425.70822545388, -72544.41947274441, -58602.40711002435, -68998.31521490995, -57317.22650733311, -35858.50129824893, -53555.91965388294, -67082.88247381241, 2447244.578271458, -63105.18838229041, -67359.30649749118, -56311.8897452223, -12913.36273114237, 0.047386116027832034, 0.9678152284622192, -0.17923407363891602, 192.0, 0.0, 0.0, 0.0, 0.0, 0.0, 0.0, 0.0, 0.0, 0.0, 1.741801413604551E9, 0.0, 2025-03-12 12:43:33.604
18.0, -64567.32774583432, -46469.299074327835, -70222.98964536068, -68446.76356873078, -72562.45733051984, -58625.29529634659, -69006.89828478078, -57345.88144372481, -35896.58867080077, -53594.02937817924, -67122.28859928712, 2447074.526199642, -63144.72861823185, -67396.20922758689, -56350.80413231899, -12954.288775240038, 0.047386116027832034, 0.9678152284622192, -0.17923407363891602, 192.0, 0.0, 0.0, 0.0, 0.0, 0.0, 0.0, 0.0, 0.0, 0.0, 1.741801413604762E9, 0.0, 2025-03-12 12:43:33.604
20.0, -64549.468702014536, -46452.55761773081, -70203.18599977327, -68428.05515862169, -72550.58855421407, -58606.63158972641, -69007.52413362553, -57326.4801295376, -35887.20093812954, -53584.060500152176, -67110.10689855897, 2446954.8996633175, -63134.04448438221, -67387.53675073823, -56335.78376004503, -12944.051676279507, 0.04969305801391602, 0.9669076142311096, -0.179617036819458, 192.0, 0.5, 80.0, 15.0, 24.0, 125.0, 48.0, 0.0, 0.0, 0.0, 1.741801413604987E9, 0.0, 2025-03-12 12:43:33.604
22.0, -64532.414320995136, -46431.837550620745, -70183.3152989525, -68409.48085897934, -72533.15419353893, -58591.76767966362, -69000.21511318865, -57312.82321367541, -35882.23885086046, -53578.98665416082, -67104.87659035642, 2446961.3369657206, -63130.378798291546, -67382.17233206896, -56335.85081527839, -12943.068199523474, 0.04969305801391602, 0.9669076142311096, -0.179617036819458, 192.0, 0.0, 0.0, 0.0, 0.0, 0.0, 0.0, 0.0, 0.0, 0.0, 1.741801413605224E9, 0.0, 2025-03-12 12:43:33.605
24.0, -64553.3355538053, -46455.06101310981, -70204.21418001821, -68431.51967901227, -72549.2250978023, -58611.25840082865, -68995.76711604204, -57333.76679823003, -35864.826841929775, -53561.28407255222, -67084.76002034664, 2447438.233785419, -63112.83267889413, -67365.02854407174, -56312.71675976715, -12923.97980975864, 0.04969305801391602, 0.9669076142311096, -0.179617036819458, 192.0, 0.0, 0.0, 0.0, 0.0, 0.0, 0.0, 0.0, 0.0, 0.0, 1.741801413605436E9, 0.0, 2025-03-12 12:43:33.605
26.0, -64552.97792589402, -46449.92011188509, -70200.43673520526, -68425.95409464289, -72548.04045534617, -58607.27979031561, -69019.01293027555, -57318.4782050226, -35896.923946967596, -53590.631913022036, -67116.41009049537, 2447296.61313255, -63141.95700191939, -67396.03041363125, -56342.33282117043, -12955.451065951715, 0.04969305801391602, 0.9669076142311096, -0.179617036819458, 192.0, 0.0, 0.0, 0.0, 0.0, 0.0, 0.0, 0.0, 0.0, 0.0, 1.741801413605656E9, 0.0, 2025-03-12 12:43:33.605
28.0, -64537.06348384184, -46446.25442579442, -70193.75356361314, -68423.07071960816, -72540.03853083117, -58602.474165257714, -69009.20051445968, -57325.60841150385, -35871.264144332905, -53563.47454350883, -67085.78820059159, 2447207.027340773, -63114.73257717283, -67371.66701217496, -56315.28721037951, -12928.651324349801, 0.04969305801391602, 0.9669076142311096, -0.179617036819458, 192.0, 0.0, 0.0, 0.0, 0.0, 0.0, 0.0, 0.0, 0.0, 0.0, 1.741801413605862E9, 0.0, 2025-03-12 12:43:33.605
30.0, -64574.92733894913, -46474.95406567503, -70224.68837793928, -68450.54101354373, -72572.56031901363, -58628.782168481615, -69039.17420377424, -57348.20602514816, -35888.40793233013, -53585.155735630484, -67105.94947409027, 2447064.3338041706, -63134.133891360034, -67389.83898041713, -56337.46014087917, -12948.27615598156, 0.04784652900695801, 0.9654538071155547, -0.181808518409729, 192.0, 0.5, 56.0, 15.0, 16.0, 125.0, 32.0, 0.0, 0.0, 0.0, 1.741801413664527E9, 0.0, 2025-03-12 12:43:33.664
32.0, -64568.57944352382, -46473.94823717454, -70219.99451160365, -68447.70234199791, -72560.87035666351, -58629.340962092996, -69020.86812506535, -57348.72011527063, -35917.30873791084, -53611.39668362102, -67135.56553549356, 2446994.059919603, -63162.252385884814, -67421.24318137683, -56362.56114990248, -12978.249845296126, 0.04784652900695801, 0.9654538071155547, -0.181808518409729, 192.0, 0.0, 0.0, 0.0, 0.0, 0.0, 0.0, 0.0, 0.0, 0.0, 1.741801413664828E9, 0.0, 2025-03-12 12:43:33.664
34.0, -64573.07214415934, -46481.16785063361, -70222.69907268275, -68451.32332459967, -72565.65362997695, -58625.87644170242, -69021.7398430991, -57340.87465296682, -35901.9754412145, -53597.15862240298, -67115.06898582804, 2447371.178552053, -63143.70043798691, -67395.42691653097, -56345.86439679437, -12957.529778186057, 0.04784652900695801, 0.9654538071155547, -0.181808518409729, 192.0, 0.0, 0.0, 0.0, 0.0, 0.0, 0.0, 0.0, 0.0, 0.0, 1.74180141366505E9, 0.0, 2025-03-12 12:43:33.665
36.0, -64550.25101307047, -46456.04448986584, -70196.8157526035, -68427.78693768823, -72544.21830704431, -58602.272999557616, -69007.59118885889, -57320.02047539002, -35902.78010401489, -53594.6999305129, -67114.97957885022, 2447265.499504268, -63143.20869960889, -67399.24906483282, -56343.40570490429, -12960.323746242972, 0.04784652900695801, 0.9654538071155547, -0.181808518409729, 192.0, 0.0, 0.0, 0.0, 0.0, 0.0, 0.0, 0.0, 0.0, 0.0, 1.741801413665248E9, 0.0, 2025-03-12 12:43:33.665
38.0, -64576.96134769456, -46488.812147237324, -70227.1247180849, -68463.61678405009, -72571.44273179087, -58638.013438941656, -69037.85545085138, -57354.37510661782, -35898.756790012936, -53595.929276457944, -67112.81145963806, 2447151.7738284795, -63136.83845243913, -67396.79037294273, -56339.71766706916, -12954.869920595876, 0.04784652900695801, 0.9654538071155547, -0.181808518409729, 192.0, 0.0, 0.0, 0.0, 0.0, 0.0, 0.0, 0.0, 0.0, 0.0, 1.741801413665461E9, 0.0, 2025-03-12 12:43:33.665
40.0, -64576.089629660804, -46485.61584778021, -70225.71655818421, -68463.28150788325, -72570.4816067793, -58638.23695638621, -69045.47739571064, -57363.44991486668, -35912.70427855304, -53609.8544132536, -67126.13309933343, 2447008.007408143, -63151.92587994646, -67416.8622394636, -56355.54270214352, -12978.026327851574, 0.048923264503479, 0.9647269035577773, -0.1819042592048645, 192.0, 0.5, 72.0, 15.0, 16.0, 125.0, 40.0, 0.0, 0.0, 0.0, 1.741801413665682E9, 0.0, 2025-03-12 12:43:33.665
42.0, -64565.83017895582, -46468.5167632719, -70207.49988645314, -68441.26503959479, -72547.66047569043, -58611.95130490677, -69004.41724114624, -57324.91550742573, -35910.33499364078, -53605.96520971838, -67124.65788419938, 2446885.162220617, -63148.9530979339, -67409.95555042691, -56347.29490843951, -12966.984566090652, 0.048923264503479, 0.9647269035577773, -0.1819042592048645, 192.0, 0.0, 0.0, 0.0, 0.0, 0.0, 0.0, 0.0, 0.0, 0.0, 1.741801413665914E9, 0.0, 2025-03-12 12:43:33.665
44.0, -64536.750559419466, -46444.30982402681, -70182.48828440765, -68416.32049278266, -72522.40300445593, -58586.336205760985, -68985.88764499279, -57307.279981050495, -35886.32922009578, -53581.08771813962, -67099.5345234316, 2447316.4614816266, -63124.500289499796, -67386.32975653766, -56321.970381971645, -12935.89328955332, 0.048923264503479, 0.9647269035577773, -0.1819042592048645, 192.0, 0.0, 0.0, 0.0, 0.0, 0.0, 0.0, 0.0, 0.0, 0.0, 1.741801413724802E9, 0.0, 2025-03-12 12:43:33.724
46.0, -64536.63880069719, -46443.169885059586, -70187.24920597664, -68416.23108580483, -72524.32525447909, -58586.71618541673, -69009.44638364868, -57305.51419323852, -35873.74518796745, -53565.28503480972, -67087.06225002554, 2447419.9947619434, -63112.050367838194, -67368.51541620678, -56309.386349843306, -12919.308295167482, 0.048923264503479, 0.9647269035577773, -0.1819042592048645, 192.0, 0.0, 0.0, 0.0, 0.0, 0.0, 0.0, 0.0, 0.0, 0.0, 1.741801413725067E9, 0.0, 2025-03-12 12:43:33.725
48.0, -64564.846702199786, -46469.5672952613, -70207.96927308671, -68439.11927212706, -72543.19012679937, -58610.61020023945, -69000.10335446637, -57327.0836266379, -35888.2738218634, -53579.634854750024, -67101.41206996585, 2447296.076690683, -63125.79669067821, -67384.6533757035, -56325.81488201796, -12940.94478380022, 0.048923264503479, 0.9647269035577773, -0.1819042592048645, 192.0, 0.0, 0.0, 0.0, 0.0, 0.0, 0.0, 0.0, 0.0, 0.0, 1.741801413725284E9, 0.0, 2025-03-12 12:43:33.725
50.0, -64577.073106416836, -46482.464251812016, -70222.05087209355, -68449.9598681879, -72556.15413858344, -58618.902697432364, -69013.67086335074, -57332.24687960707, -35905.954051727545, -53595.571648546655, -67119.11465157446, 2447150.1645028787, -63143.29810658671, -67395.71748920888, -56333.3474198994, -12945.102208268907, 0.0474616322517395, 0.9653634517788887, -0.18195212960243223, 192.0, 0.5, 56.0, 15.0, 24.0, 125.0, 40.0, 0.0, 0.0, 0.0, 1.741801413725494E9, 0.0, 2025-03-12 12:43:33.725
52.0, -64597.480249104534, -46503.58665032228, -70242.21214559223, -68472.93746148795, -72578.39412431647, -58643.95900296677, -69039.04009330751, -57369.06020272496, -35928.21638920503, -53618.146910446514, -67139.23122158422, 2447000.4972220063, -63165.09105743063, -67418.91859995348, -56360.7506586016, -12974.025365594074, 0.0474616322517395, 0.9653634517788887, -0.18195212960243223, 192.0, 0.0, 0.0, 0.0, 0.0, 0.0, 0.0, 0.0, 0.0, 0.0, 1.74180141372572E9, 0.0, 2025-03-12 12:43:33.725
54.0, -64574.88263546022, -46480.497298299946, -70222.4755552382, -68448.93168794295, -72562.61379273103, -58613.538278763095, -69027.57364840194, -57330.548147028465, -35930.56332237284, -53615.3529423896, -67139.11946286196, 2446900.1825928907, -63164.353449863615, -67411.8107452167, -56358.62724287835, -12973.690089427244, 0.0474616322517395, 0.9653634517788887, -0.18195212960243223, 192.0, 0.0, 0.0, 0.0, 0.0, 0.0, 0.0, 0.0, 0.0, 0.0, 1.741801413725934E9, 0.0, 2025-03-12 12:43:33.725
56.0, -64588.83012400033, -46487.44869082555, -70227.45999425174, -68455.16782464598, -72571.10745562405, -58615.16995610833, -69047.53375620053, -57340.137045399795, -35923.075487980306, -53608.91563998647, -67131.3410557915, 2447352.4030867107, -63157.80438873821, -67402.33360556765, -56355.185074232235, -12959.697897398222, 0.0474616322517395, 0.9653634517788887, -0.18195212960243223, 192.0, 0.0, 0.0, 0.0, 0.0, 0.0, 0.0, 0.0, 0.0, 0.0, 1.741801413726152E9, 0.0, 2025-03-12 12:43:33.726
58.0, -64571.99926042548, -46476.87631569819, -70217.60287494694, -68444.72955998535, -72555.55064148315, -58613.09124387398, -69033.02747404903, -57337.87951920981, -35907.608080817234, -53588.28497985423, -67114.37608174993, 2447328.7996445657, -63139.69947572941, -67385.94977688191, -56336.72253331215, -12946.80094084751, 0.0474616322517395, 0.9653634517788887, -0.18195212960243223, 192.0, 0.0, 0.0, 0.0, 0.0, 0.0, 0.0, 0.0, 0.0, 0.0, 1.741801413726358E9, 0.0, 2025-03-12 12:43:33.726
60.0, -64592.78638276892, -46500.36799912072, -70235.10429085545, -68466.74602827383, -72570.43690329038, -58640.025095942634, -69035.46381419466, -57361.21474042115, -35932.75379332945, -53618.52689010226, -67138.35950355047, 2447178.595921826, -63161.58183355115, -67415.67759700747, -56359.27544346755, -12973.265406282593, 0.047730816125869754, 0.9646817258894443, -0.18197606480121611, 192.0, 0.5, 64.0, 15.0, 16.0, 125.0, 40.0, 0.0, 0.0, 0.0, 1.741801413784234E9, 0.0, 2025-03-12 12:43:33.784
62.0, -64580.80584774088, -46490.063844926815, -70224.91189538383, -68456.21835663538, -72559.3280862961, -58626.34582833599, -69017.85063956388, -57352.94459497269, -35930.25039795046, -53614.61533482258, -67133.1962505813, 2447048.2405481627, -63158.765513749786, -67414.38119582906, -56352.34640268641, -12973.488923727147, 0.047730816125869754, 0.9646817258894443, -0.18197606480121611, 192.0, 0.0, 0.0, 0.0, 0.0, 0.0, 0.0, 0.0, 0.0, 0.0, 1.74180141378456E9, 0.0, 2025-03-12 12:43:33.784
64.0, -64544.30544904536, -46457.11737359969, -70191.1160577674, -68420.63437946253, -72525.6663591464, -58582.558760948035, -68993.5319415965, -57286.53756219597, -35912.301947152846, -53596.55512530269, -67114.17491604983, 2446961.3369657206, -63141.59937400811, -67394.26462581928, -56335.69435306721, -12948.074990281462, 0.047730816125869754, 0.9646817258894443, -0.18197606480121611, 192.0, 0.0, 0.0, 0.0, 0.0, 0.0, 0.0, 0.0, 0.0, 0.0, 1.741801413784776E9, 0.0, 2025-03-12 12:43:33.784
66.0, -64551.65917297116, -46462.12416435769, -70197.19573225925, -68426.22231557636, -72533.28830400566, -58589.26428428463, -69010.27339819353, -57314.410187531736, -35882.06003690482, -53565.1956278319, -67083.91065405734, 2447365.814133384, -63109.3458067591, -67360.31232599168, -56306.34651259739, -12917.453100377692, 0.047730816125869754, 0.9646817258894443, -0.18197606480121611, 192.0, 0.0, 0.0, 0.0, 0.0, 0.0, 0.0, 0.0, 0.0, 0.0, 1.741801413784983E9, 0.0, 2025-03-12 12:43:33.784
68.0, -64568.42298131264, -46475.57991451978, -70208.66217716482, -68437.64405699301, -72543.88303087748, -58599.21081056724, -69009.26756969304, -57317.96411490013, -35901.72957202549, -53584.820459463655, -67105.52479094562, 2447335.236946969, -63132.72573145935, -67375.89149187702, -56329.12294019735, -12936.809711075988, 0.047730816125869754, 0.9646817258894443, -0.18197606480121611, 192.0, 0.0, 0.0, 0.0, 0.0, 0.0, 0.0, 0.0, 0.0, 0.0, 1.741801413785207E9, 0.0, 2025-03-12 12:43:33.785
70.0, -64590.573560067845, -46496.03176069639, -70227.10236634045, -68457.20183339142, -72566.57005149961, -58622.74719747868, -69034.72620662763, -57329.11763538333, -35920.59444434577, -53601.42780559395, -67121.77450916464, 2447188.251875431, -63151.30003110171, -67397.97501539887, -56339.91883276926, -12953.66292639529, 0.04786540806293488, 0.9663408629447221, -0.18198803240060807, 192.0, 0.5, 64.0, 15.0, 32.0, 125.0, 40.0, 0.0, 0.0, 0.0, 1.74180141378542E9, 0.0, 2025-03-12 12:43:33.785
72.0, -64607.694996320606, -46519.34463016327, -70250.5269945296, -68482.10167671462, -72589.39118258849, -58655.93953799481, -69053.68048592574, -57372.994109749096, -35948.17649700362, -53630.19450070793, -67150.42944555634, 2447027.8557572193, -63178.0103657258, -67429.11099542512, -56369.937225572736, -12984.463630254702, 0.04786540806293488, 0.9663408629447221, -0.18198803240060807, 192.0, 0.0, 0.0, 0.0, 0.0, 0.0, 0.0, 0.0, 0.0, 0.0, 1.741801413785651E9, 0.0, 2025-03-12 12:43:33.785
74.0, -64603.69403406311, -46514.71781906102, -70247.86713693943, -68477.05018246772, -72587.51363605424, -58646.864729745954, -69055.33451501543, -57360.3877258763, -35940.04046202188, -53624.383047149546, -67141.1981750963, 2446899.646151024, -63172.64594705653, -67421.22082963238, -56365.84685633741, -12980.686185441755, 0.04786540806293488, 0.9663408629447221, -0.18198803240060807, 192.0, 0.0, 0.0, 0.0, 0.0, 0.0, 0.0, 0.0, 0.0, 0.0, 1.741801413844072E9, 0.0, 2025-03-12 12:43:33.844
76.0, -64595.31212989237, -46503.31842938882, -70234.63490422188, -68465.94136547344, -72573.4320370474, -58636.49352031869, -69043.30927649848, -57346.8872722253, -35946.99185454749, -53633.27904144276, -67150.60825951198, 2447099.2025255207, -63183.419487883984, -67428.68631228046, -56374.92166458627, -12986.05060411103, 0.04786540806293488, 0.9663408629447221, -0.18198803240060807, 192.0, 0.0, 0.0, 0.0, 0.0, 0.0, 0.0, 0.0, 0.0, 0.0, 1.741801413844305E9, 0.0, 2025-03-12 12:43:33.844
78.0, -64560.80103645338, -46469.85786793922, -70202.85072360643, -68436.0570831367, -72541.64785643196, -58609.51496476114, -69011.56979937194, -57324.3790655588, -35915.40883963214, -53601.47250908286, -67119.00289285218, 2447323.4352258965, -63151.52354854626, -67401.08190787815, -56340.432922891734, -12960.301394498516, 0.04786540806293488, 0.9663408629447221, -0.18198803240060807, 192.0, 0.0, 0.0, 0.0, 0.0, 0.0, 0.0, 0.0, 0.0, 0.0, 1.741801413844517E9, 0.0, 2025-03-12 12:43:33.844
80.0, -64558.409399796656, -46469.88021968368, -70205.91291259682, -68436.83939419263, -72541.62550468749, -58608.643246727384, -69015.10137499588, -57331.77749297351, -35897.92977546809, -53584.5969420191, -67105.3906804789, 2447228.4850154505, -63139.78888270723, -67384.22869255886, -56331.760446043074, -12946.331554213948, 0.04993270403146744, 0.966170431472361, -0.17899401620030403, 192.0, 0.5, 80.0, 15.0, 24.0, 125.0, 64.0, 0.0, 0.0, 0.0, 1.741801413844729E9, 0.0, 2025-03-12 12:43:33.844
82.0, -64577.49778956149, -46482.307789600825, -70216.75350865764, -68445.24365010782, -72556.35530428354, -58617.47218578723, -69022.32098845494, -57327.754178971554, -35914.045383220364, -53597.76211950328, -67117.57238120704, 2447095.983874319, -63155.055124170205, -67397.7067944654, -56343.80803630448, -12958.714420642189, 0.04993270403146744, 0.966170431472361, -0.17899401620030403, 192.0, 0.0, 0.0, 0.0, 0.0, 0.0, 0.0, 0.0, 0.0, 0.0, 1.741801413844951E9, 0.0, 2025-03-12 12:43:33.844
84.0, -64579.509446562464, -46490.91321121612, -70226.38711051788, -68456.71009501339, -72568.3805428005, -58627.46341555875, -69041.09645379739, -57349.94946121568, -35907.563377328326, -53590.542506044214, -67110.8892096149, 2446983.867524131, -63148.126083389056, -67387.49204724932, -56337.415437390264, -12950.71249612719, 0.04993270403146744, 0.966170431472361, -0.17899401620030403, 192.0, 0.0, 0.0, 0.0, 0.0, 0.0, 0.0, 0.0, 0.0, 0.0, 1.741801413845175E9, 0.0, 2025-03-12 12:43:33.845
86.0, -64564.66788824414, -46475.19993486404, -70211.85847662193, -68440.61683900557, -72552.24258330377, -58614.65586598586, -69033.20628800467, -57329.922298183716, -35927.03174674889, -53609.206212664394, -67127.25068655619, 2447054.141408699, -63168.063839443195, -67409.19559111544, -56360.05775452349, -12974.338290016449, 0.04993270403146744, 0.966170431472361, -0.17899401620030403, 192.0, 0.0, 0.0, 0.0, 0.0, 0.0, 0.0, 0.0, 0.0, 0.0, 1.741801413845387E9, 0.0, 2025-03-12 12:43:33.845
88.0, -64569.20529236857, -46477.09983314274, -70211.36673824392, -68439.4992517828, -72550.20857455833, -58609.470261272225, -69012.46386915015, -57316.511251510536, -35909.46327560703, -53591.07894791114, -67108.095241558, 2447418.3854363426, -63145.73444673234, -67388.38611702753, -56335.113207711365, -12950.377219960359, 0.04993270403146744, 0.966170431472361, -0.17899401620030403, 192.0, 0.0, 0.0, 0.0, 0.0, 0.0, 0.0, 0.0, 0.0, 0.0, 1.741801413845596E9, 0.0, 2025-03-12 12:43:33.845
90.0, -64556.06246662885, -46468.270894082896, -70201.68843289476, -68430.87147842305, -72544.21830704431, -58604.61993272543, -69012.66503485024, -57322.85914693584, -35901.68486853658, -53582.2500088513, -67097.34405247499, 2447312.706388558, -63139.252440840304, -67380.18302681245, -56326.3960273738, -12937.815539576477, 0.050966352015733726, 0.9640852157361806, -0.180497008100152, 192.0, 0.5, 80.0, 15.0, 8.0, 125.0, 40.0, 0.0, 0.0, 0.0, 1.741801413904266E9, 0.0, 2025-03-12 12:43:33.904
92.0, -64574.413248826655, -46489.70621701553, -70222.22968604919, -68453.24557462282, -72563.7313799538, -58630.32443884903, -69033.78743336051, -57340.96405994464, -35913.53129309789, -53596.30925611368, -67111.090375315, 2447176.4501543585, -63149.28837410073, -67393.25879731879, -56339.67296358025, -12954.646403151322, 0.050966352015733726, 0.9640852157361806, -0.180497008100152, 192.0, 0.0, 0.0, 0.0, 0.0, 0.0, 0.0, 0.0, 0.0, 0.0, 1.741801413904526E9, 0.0, 2025-03-12 12:43:33.904
94.0, -64567.998298167986, -46481.972513434, -70210.11504055442, -68442.58379251765, -72548.44278674637, -58616.42165379783, -69027.05955827946, -57324.3790655588, -35922.024955990906, -53605.004084706794, -67120.20988705277, 2447041.8032457596, -63160.5089498173, -67403.11591662359, -56351.51938814156, -12966.738696901644, 0.050966352015733726, 0.9640852157361806, -0.180497008100152, 192.0, 0.0, 0.0, 0.0, 0.0, 0.0, 0.0, 0.0, 0.0, 0.0, 1.741801413904746E9, 0.0, 2025-03-12 12:43:33.904
96.0, -64551.07802761532, -46465.3651673037, -70190.8701885784, -68426.17761208744, -72529.30969349261, -58601.89301990188, -69003.47846787912, -57312.040902619476, -35906.44579010556, -53588.15086938749, -67106.57532293502, 2446933.4419886405, -63141.24174609682, -67385.61450071508, -56327.20069017419, -12951.293641483027, 0.050966352015733726, 0.9640852157361806, -0.180497008100152, 192.0, 0.0, 0.0, 0.0, 0.0, 0.0, 0.0, 0.0, 0.0, 0.0, 1.741801413904956E9, 0.0, 2025-03-12 12:43:33.904
98.0, -64546.13829209069, -46466.72862371548, -70191.69720312324, -68428.52454525525, -72528.8179551146, -58605.26813331463, -69017.20243897468, -57316.086568365885, -35886.016295673406, -53570.917674412456, -67088.96214830424, 2447217.219736245, -63123.47210925486, -67367.88956736203, -56312.895573722795, -12938.016705276574, 0.050966352015733726, 0.9640852157361806, -0.180497008100152, 192.0, 0.0, 0.0, 0.0, 0.0, 0.0, 0.0, 0.0, 0.0, 0.0, 1.741801413905168E9, 0.0, 2025-03-12 12:43:33.905
100.0, -64578.52596980643, -46496.41174035212, -70219.39101450337, -68456.06189442419, -72560.35626654104, -58635.822967985034, -69035.66497989476, -57352.430504850214, -35908.591557573265, -53595.19166889092, -67111.24683752618, 2447401.755738468, -63142.336981575136, -67392.47648626287, -56336.029629234035, -12963.922377100274, 0.04748317600786686, 0.9640426078680903, -0.182248504050076, 192.0, 0.5, 48.0, 15.0, 16.0, 125.0, 32.0, 0.0, 0.0, 0.0, 1.74180141390538E9, 0.0, 2025-03-12 12:43:33.905
102.0, -64568.98177492402, -46483.93946694607, -70208.72923239818, -68442.89671694001, -72555.5282897387, -58619.57324976603, -69027.03720653501, -57333.94561218567, -35923.38841240268, -53609.54148883122, -67126.40132026689, 2447254.77066693, -63156.999725937814, -67406.66984399199, -56348.14427472881, -12971.320804514982, 0.04748317600786686, 0.9640426078680903, -0.182248504050076, 192.0, 0.0, 0.0, 0.0, 0.0, 0.0, 0.0, 0.0, 0.0, 0.0, 1.741801413905602E9, 0.0, 2025-03-12 12:43:33.905
104.0, -64537.219946053025, -46452.53526598636, -70183.49411290814, -68416.7004724384, -72531.27664700469, -58593.44406049777, -69000.61744458883, -57337.29837385397, -35892.05126667634, -53579.5454477722, -67093.45484893976, 2447166.794200754, -63124.16501333297, -67374.19275929841, -56319.53404182602, -12943.6046413904, 0.04748317600786686, 0.9640426078680903, -0.182248504050076, 192.0, 0.0, 0.0, 0.0, 0.0, 0.0, 0.0, 0.0, 0.0, 0.0, 1.741801413905818E9, 0.0, 2025-03-12 12:43:33.905
106.0, -64540.32683853232, -46444.44393449354, -70180.25310996213, -68405.50224846629, -72527.81212661411, -58568.521865430106, -68993.50958985205, -57271.49483817755, -35882.931754938574, -53569.17423834494, -67079.68617435529, 2447064.8702460374, -63111.26805678225, -67363.32981149314, -56316.27068713554, -12925.879708037342, 0.04748317600786686, 0.9640426078680903, -0.182248504050076, 192.0, 0.0, 0.0, 0.0, 0.0, 0.0, 0.0, 0.0, 0.0, 0.0, 1.741801413965545E9, 0.0, 2025-03-12 12:43:33.965
108.0, -64524.90413485815, -46445.33800427175, -70181.2142349737, -68411.15723981347, -72528.84030685906, -58577.90959810133, -68974.15297915376, -57293.801879143946, -35872.13586236666, -53557.350165528085, -67065.76103755964, 2446959.1911982526, -63093.36430947355, -67351.68455263192, -56296.176468870224, -12902.209210659172, 0.04748317600786686, 0.9640426078680903, -0.182248504050076, 192.0, 0.0, 0.0, 0.0, 0.0, 0.0, 0.0, 0.0, 0.0, 0.0, 1.741801413965832E9, 0.0, 2025-03-12 12:43:33.965
110.0, -64512.78948936338, -46425.22143426197, -70167.5126156226, -68394.32637623863, -72508.54492289363, -58563.31390897202, -68971.20254888566, -57280.30142549294, -35869.40894954312, -53561.30642429667, -67064.68815382579, 2447265.499504268, -63088.93866407141, -67353.29387823271, -56300.04332066099, -12907.864202006365, 0.04774158800393343, 0.9660213039340451, -0.18312425202503801, 192.0, 0.5, 64.0, 15.0, 32.0, 125.0, 32.0, 0.0, 0.0, 0.0, 1.741801413966047E9, 0.0, 2025-03-12 12:43:33.966
112.0, -64513.951780075055, -46424.66264065059, -70171.5135778801, -68396.76271638426, -72510.13189674997, -58561.369307204404, -68957.3221155789, -57270.37725095478, -35858.00955987091, -53547.98478460131, -67056.99915373315, 2447408.193040871, -63076.0864110096, -67341.55921239367, -56287.503992021564, -12891.212152387161, 0.04774158800393343, 0.9660213039340451, -0.18312425202503801, 192.0, 0.0, 0.0, 0.0, 0.0, 0.0, 0.0, 0.0, 0.0, 0.0, 1.741801413966274E9, 0.0, 2025-03-12 12:43:33.966
114.0, -64523.026588323904, -46428.57419593027, -70181.14717974034, -68406.41866998895, -72512.83645782906, -58570.98055732019, -68956.38334231179, -57283.45302146114, -35858.50129824893, -53555.18204631592, -67067.10214222696, 2447282.129202143, -63078.27688196622, -67343.5485176502, -56292.35432056837, -12896.487164078613, 0.04774158800393343, 0.9660213039340451, -0.18312425202503801, 192.0, 0.0, 0.0, 0.0, 0.0, 0.0, 0.0, 0.0, 0.0, 0.0, 1.741801413966482E9, 0.0, 2025-03-12 12:43:33.966
116.0, -64525.842908125276, -46436.57612044527, -70191.65249963434, -68415.31466428217, -72527.99094056975, -58581.329415003, -68978.62332804482, -57299.34511176886, -35868.69369372055, -53560.56881672965, -67078.76975283262, 2447147.4822935443, -63086.614082648055, -67349.87406133105, -56300.020968916535, -12904.667902549256, 0.04774158800393343, 0.9660213039340451, -0.18312425202503801, 192.0, 0.0, 0.0, 0.0, 0.0, 0.0, 0.0, 0.0, 0.0, 0.0, 1.741801413966695E9, 0.0, 2025-03-12 12:43:33.966
118.0, -64543.47843450051, -46446.70146068352, -70204.90708409632, -68426.17761208744, -72536.3728447405, -58594.49459248717, -68981.41729610173, -57305.178917071695, -35880.74128398196, -53571.36470930156, -67092.51607567264, 2447011.2260593446, -63101.92502759994, -67360.82641611414, -56318.30469588098, -12915.530850354535, 0.04774158800393343, 0.9660213039340451, -0.18312425202503801, 192.0, 0.0, 0.0, 0.0, 0.0, 0.0, 0.0, 0.0, 0.0, 0.0, 1.741801413966908E9, 0.0, 2025-03-12 12:43:33.966
120.0, -64540.930335632605, -46454.43516426506, -70213.33369175598, -68435.0512546362, -72542.31840876561, -58604.91050540334, -68987.27345314901, -57335.309068597446, -35882.95410668303, -53572.594055246605, -67097.27699724161, 2447058.432943634, -63101.075661310635, -67366.9954975838, -56318.34939936989, -12920.98467600163, 0.049870794001966715, 0.9650106519670225, -0.183562126012519, 192.0, 0.5, 80.0, 15.0, 16.0, 125.0, 32.0, 0.0, 0.0, 0.0, 1.741801414025843E9, 0.0, 2025-03-12 12:43:34.025
122.0, -64529.754463404955, -46435.2126640335, -70197.97804331518, -68416.0969753381, -72527.87918184749, -58583.58694119298, -68961.65835400324, -57299.90390538024, -35892.0736184208, -53586.60859902008, -67106.6870816573, 2447456.4728088942, -63109.30110327019, -67371.95758485289, -56325.546661084496, -12928.22664120515, 0.049870794001966715, 0.9650106519670225, -0.183562126012519, 192.0, 0.0, 0.0, 0.0, 0.0, 0.0, 0.0, 0.0, 0.0, 0.0, 1.741801414026107E9, 0.0, 2025-03-12 12:43:34.026
124.0, -64519.405605722146, -46428.99887907492, -70192.90419732383, -68410.64314969101, -72520.34664396604, -58577.73078414569, -68953.76818821051, -57318.43350153369, -35859.41771977159, -53548.7894474017, -67075.70756384225, 2447391.026901129, -63082.143733756995, -67340.75454959329, -56297.159945626256, -12894.721376266645, 0.049870794001966715, 0.9650106519670225, -0.183562126012519, 192.0, 0.0, 0.0, 0.0, 0.0, 0.0, 0.0, 0.0, 0.0, 0.0, 1.741801414026326E9, 0.0, 2025-03-12 12:43:34.026
126.0, -64536.23646929699, -46442.99107110394, -70211.72436615519, -68424.63534172003, -72539.34562675306, -58584.41395573783, -68999.8351335329, -57279.85439060383, -35878.43905430306, -53570.78356394572, -67096.24881699668, 2447254.2342250627, -63100.62862642153, -67360.75936088078, -56315.398969101785, -12910.7475770411, 0.049870794001966715, 0.9650106519670225, -0.183562126012519, 192.0, 0.0, 0.0, 0.0, 0.0, 0.0, 0.0, 0.0, 0.0, 0.0, 1.741801414026544E9, 0.0, 2025-03-12 12:43:34.026
128.0, -64561.44923704258, -46466.214533593, -70233.85259316595, -68450.47395831037, -72554.0754263491, -58611.504270017664, -68976.85754023284, -57313.60552473134, -35891.0230864314, -53583.61346526307, -67110.79980263708, 2447114.759339662, -63117.03480685173, -67372.0022883418, -56325.63606806232, -12911.015797974564, 0.049870794001966715, 0.9650106519670225, -0.183562126012519, 192.0, 0.0, 0.0, 0.0, 0.0, 0.0, 0.0, 0.0, 0.0, 0.0, 1.741801414026757E9, 0.0, 2025-03-12 12:43:34.026
130.0, -64539.67863794311, -46450.367146774195, -70219.68158718129, -68439.36514131608, -72545.06767333361, -58603.27882805811, -68973.97416519812, -57317.38296954429, -35908.658612806634, -53603.77473876176, -67130.53639299111, 2446960.8005238534, -63129.887059913526, -67394.91282640849, -56342.601042103895, -12939.536623899536, 0.05193539700098336, 0.9645053259835112, -0.1777810630062595, 192.0, 0.5, 88.0, 15.0, 16.0, 125.0, 80.0, 0.0, 0.0, 0.0, 1.741801414026969E9, 0.0, 2025-03-12 12:43:34.026
132.0, -64515.02466380891, -46420.639326648634, -70186.64570887634, -68406.86570487806, -72509.08136476057, -58571.13701953137, -68935.95384787963, -57278.20036151414, -35862.27874306187, -53557.52897948372, -67081.94370054528, 2447221.51127118, -63085.407088447464, -67352.3998084545, -56295.79648921448, -12894.587265799913, 0.05193539700098336, 0.9645053259835112, -0.1777810630062595, 192.0, 0.0, 0.0, 0.0, 0.0, 0.0, 0.0, 0.0, 0.0, 0.0, 1.741801414027203E9, 0.0, 2025-03-12 12:43:34.027
134.0, -64558.43175154111, -46464.18052484757, -70232.44443326526, -68451.81506297768, -72555.79651067215, -58617.56159276505, -68989.77684852801, -57325.49665278157, -35887.0221241739, -53582.585285018125, -67109.7939741366, 2447362.595482182, -63109.77048990375, -67373.36574475358, -56316.605963302376, -12911.418129374759, 0.05193539700098336, 0.9645053259835112, -0.1777810630062595, 192.0, 0.0, 0.0, 0.0, 0.0, 0.0, 0.0, 0.0, 0.0, 0.0, 1.741801414027418E9, 0.0, 2025-03-12 12:43:34.027
136.0, -64545.22187056803, -46451.976472374976, -70222.16263081583, -68441.22033610586, -72546.45348148984, -58606.49747925967, -68983.13838042479, -57313.33730379788, -35899.025010946396, -53593.98467469033, -67122.08743358702, 2447215.610410644, -63124.03090286624, -67388.22965481636, -56333.861510021874, -12931.378237173349, 0.05193539700098336, 0.9645053259835112, -0.1777810630062595, 192.0, 0.0, 0.0, 0.0, 0.0, 0.0, 0.0, 0.0, 0.0, 0.0, 1.741801414086079E9, 0.0, 2025-03-12 12:43:34.086
138.0, -64540.75152167697, -46443.12518157067, -70214.96536910122, -68434.4477575359, -72536.26108601822, -58601.53539199059, -68973.59418554237, -57323.95438241415, -35890.73251375348, -53584.61929376356, -67115.78424165062, 2447101.8847348555, -63117.03480685173, -67378.01490760027, -56328.81001577497, -12924.158623714284, 0.05193539700098336, 0.9645053259835112, -0.1777810630062595, 192.0, 0.0, 0.0, 0.0, 0.0, 0.0, 0.0, 0.0, 0.0, 0.0, 1.741801414086351E9, 0.0, 2025-03-12 12:43:34.086
140.0, -64546.942954891085, -46446.20972230551, -70220.88858138188, -68441.98029541735, -72545.33589426707, -58608.33032230501, -68980.14324666778, -57327.284792337996, -35878.21553685851, -53572.03526163522, -67104.9883490787, 2447000.4972220063, -63107.021225335746, -67370.08003831864, -56320.361056370864, -12923.398664402803, 0.054967698500491685, 0.9672526629917556, -0.17689053150312975, 192.0, 0.5, 104.0, 15.0, 40.0, 125.0, 64.0, 0.0, 0.0, 0.0, 1.741801414086562E9, 0.0, 2025-03-12 12:43:34.086
142.0, -64546.33945779079, -46454.43516426506, -70228.39876751885, -68448.86463270958, -72552.60021121505, -58614.164127607844, -68998.24815967657, -57314.94662939866, -35887.53621429637, -53584.395776319005, -67120.29929403058, 2447240.8231783896, -63121.88513539853, -67382.08292509115, -56332.878033265835, -12931.445292406714, 0.054967698500491685, 0.9672526629917556, -0.17689053150312975, 192.0, 0.0, 0.0, 0.0, 0.0, 0.0, 0.0, 0.0, 0.0, 0.0, 1.741801414086781E9, 0.0, 2025-03-12 12:43:34.086
144.0, -64550.47453051502, -46453.89872239813, -70227.14706982936, -68447.43412106445, -72553.6730949489, -58611.52662176212, -68997.97993874311, -57329.363504572335, -35890.59840328675, -53587.547372287205, -67122.75798592067, 2447457.0092507615, -63127.11544360107, -67388.72139319437, -56340.835254291924, -12938.7543128436, 0.054967698500491685, 0.9672526629917556, -0.17689053150312975, 192.0, 0.0, 0.0, 0.0, 0.0, 0.0, 0.0, 0.0, 0.0, 0.0, 1.74180141408699E9, 0.0, 2025-03-12 12:43:34.086
146.0, -64579.4423913291, -46485.48173731348, -70255.1761573763, -68478.6148045796, -72579.37760107251, -58649.63634605841, -69008.70877608166, -57367.85320852438, -35904.16591217112, -53601.6513230385, -67135.31966630455, 2447316.9979234934, -63137.218432094865, -67401.79716370073, -56349.88771079633, -12952.098304283418, 0.054967698500491685, 0.9672526629917556, -0.17689053150312975, 192.0, 0.0, 0.0, 0.0, 0.0, 0.0, 0.0, 0.0, 0.0, 0.0, 1.741801414087206E9, 0.0, 2025-03-12 12:43:34.087
148.0, -64569.98760342451, -46472.182449362575, -70242.94975315926, -68463.79559800573, -72569.94516491237, -58633.520738306135, -69008.17233421473, -57332.47039705163, -35920.125057712205, -53616.47052961237, -67150.11652113397, 2447176.9865962253, -63153.714019502884, -67418.3151028532, -56361.801190591, -12965.889330612343, 0.054967698500491685, 0.9672526629917556, -0.17689053150312975, 192.0, 0.0, 0.0, 0.0, 0.0, 0.0, 0.0, 0.0, 0.0, 0.0, 1.741801414087431E9, 0.0, 2025-03-12 12:43:34.087
150.0, -64576.491961061, -46481.92780994509, -70254.86323295394, -68476.55844408971, -72582.21627261833, -58643.78018901112, -69037.65428515128, -57348.54130131499, -35913.50894135344, -53609.6532475535, -67145.42265479836, 2447061.651594836, -63152.12704564656, -67411.00608241631, -56360.1024580124, -12955.6075281629, 0.05748384925024584, 0.9686263314958778, -0.17744526575156488, 192.0, 0.5, 112.0, 15.0, 40.0, 125.0, 56.0, 0.0, 0.0, 0.0, 1.741801414144979E9, 0.0, 2025-03-12 12:43:34.144
152.0, -64568.95942317956, -46472.651835996134, -70240.13343335789, -68463.16974916098, -72570.74982771276, -58632.67137201683, -69011.27922669402, -57333.208004618646, -35911.944319241564, -53611.62020106557, -67138.62772448394, 2446960.2640819866, -63150.4059613235, -67411.2072481164, -56355.810923076984, -12956.412190963292, 0.05748384925024584, 0.9686263314958778, -0.17744526575156488, 192.0, 0.0, 0.0, 0.0, 0.0, 0.0, 0.0, 0.0, 0.0, 0.0, 1.741801414145271E9, 0.0, 2025-03-12 12:43:34.145
154.0, -64559.4375800416, -46475.57991451978, -70233.36085478793, -68462.0074584493, -72565.81009218814, -58634.07953191752, -69009.06640399294, -57342.59573728988, -35910.893787252164, -53608.580363819645, -67136.63841922741, 2447360.9861565814, -63146.248536854815, -67408.34622482613, -56348.03251600653, -12956.434542707748, 0.05748384925024584, 0.9686263314958778, -0.17744526575156488, 192.0, 0.0, 0.0, 0.0, 0.0, 0.0, 0.0, 0.0, 0.0, 0.0, 1.741801414145493E9, 0.0, 2025-03-12 12:43:34.145
156.0, -64559.34817306378, -46473.88118194118, -70229.8739826529, -68461.02398169327, -72558.36696128451, -58632.58196503901, -69000.86331377785, -57344.07095242393, -35908.41274361763, -53608.289791141724, -67131.47516625824, 2447341.137807505, -63140.705304229894, -67405.7087189804, -56339.605908346886, -12954.735810129145, 0.05748384925024584, 0.9686263314958778, -0.17744526575156488, 192.0, 0.0, 0.0, 0.0, 0.0, 0.0, 0.0, 0.0, 0.0, 0.0, 1.741801414145707E9, 0.0, 2025-03-12 12:43:34.145
158.0, -64570.61345226925, -46485.50408905793, -70237.78650019008, -68468.914147486, -72566.65945847744, -58643.26609888865, -69018.3870814308, -57354.12923742882, -35916.79464778837, -53614.07889295565, -67139.43238728432, 2447207.027340773, -63147.991972922326, -67414.47060280688, -56346.803170061496, -12963.22947302216, 0.05748384925024584, 0.9686263314958778, -0.17744526575156488, 192.0, 0.0, 0.0, 0.0, 0.0, 0.0, 0.0, 0.0, 0.0, 0.0, 1.741801414145926E9, 0.0, 2025-03-12 12:43:34.145
160.0, -64567.37244932324, -46475.57991451978, -70224.6213227059, -68454.56432754568, -72552.2202315593, -58626.47993880272, -69002.00325274507, -57322.83679519139, -35922.58374960229, -53612.916602243975, -67144.12625361995, 2447083.64571138, -63150.94240319043, -67408.97207367088, -56347.71959158416, -12964.458818967203, 0.056741924625122925, 0.9693131657479389, -0.18072263287578244, 192.0, 0.5, 96.0, 15.0, 40.0, 125.0, 32.0, 0.0, 0.0, 0.0, 1.741801414146136E9, 0.0, 2025-03-12 12:43:34.146
162.0, -64547.61350722474, -46464.068766125296, -70215.92649411279, -68445.53422278575, -72543.41364424392, -58614.49940377467, -69010.89924703828, -57328.96117317214, -35893.504130065936, -53583.65816875198, -67115.80659339507, 2447026.2464316185, -63124.276772055244, -67382.97699486936, -56320.76338777106, -12937.994353532118, 0.056741924625122925, 0.9693131657479389, -0.18072263287578244, 192.0, 0.0, 0.0, 0.0, 0.0, 0.0, 0.0, 0.0, 0.0, 0.0, 1.74180141414636E9, 0.0, 2025-03-12 12:43:34.146
164.0, -64568.758257479465, -46487.29222861436, -70237.87590716791, -68467.4612840964, -72570.19103410137, -58635.554747051574, -69015.77192732954, -57338.23714712109, -35913.37483088671, -53604.46764283987, -67135.07379711555, 2447444.671087822, -63142.314629830675, -67398.64556773253, -56341.9975450036, -12955.719286885178, 0.056741924625122925, 0.9693131657479389, -0.18072263287578244, 192.0, 0.0, 0.0, 0.0, 0.0, 0.0, 0.0, 0.0, 0.0, 0.0, 1.741801414146563E9, 0.0, 2025-03-12 12:43:34.146
166.0, -64563.930280677116, -46476.20576336453, -70231.68447395379, -68459.07937992566, -72560.95976364134, -58628.625706270424, -69007.50178188107, -57339.80176923297, -35922.159066457636, -53610.837890009636, -67141.95813440777, 2447384.589598726, -63153.378743336056, -67409.53086728226, -56350.31239394098, -12964.57057768948, 0.056741924625122925, 0.9693131657479389, -0.18072263287578244, 192.0, 0.0, 0.0, 0.0, 0.0, 0.0, 0.0, 0.0, 0.0, 0.0, 1.741801414205244E9, 0.0, 2025-03-12 12:43:34.205
168.0, -64555.257803828456, -46472.11539412921, -70228.8234506635, -68458.92291771447, -72554.56716472712, -58632.67137201683, -69010.787488316, -57350.59766180488, -35907.42926686159, -53593.2470671233, -67127.92123888984, 2447286.957178945, -63134.93855416043, -67393.19174208543, -56337.549547856994, -12953.215891506183, 0.056741924625122925, 0.9693131657479389, -0.18072263287578244, 192.0, 0.0, 0.0, 0.0, 0.0, 0.0, 0.0, 0.0, 0.0, 0.0, 1.74180141420551E9, 0.0, 2025-03-12 12:43:34.205
170.0, -64558.63291724121, -46473.34474007425, -70231.30449429805, -68460.33107761516, -72562.54673749766, -58622.92601143432, -69019.01293027555, -57331.50927204004, -35910.15617968514, -53594.58817179062, -67124.344959777, 2447159.2840146166, -63137.48665302833, -67398.26558807679, -56342.802207803994, -12957.172150274773, 0.05937096231256146, 0.9676565828739694, -0.17936131643789122, 192.0, 0.5, 120.0, 15.0, 24.0, 125.0, 56.0, 0.0, 0.0, 0.0, 1.74180141420573E9, 0.0, 2025-03-12 12:43:34.205
172.0, -64543.14315833368, -46460.40308003463, -70217.31230226903, -68447.34471408662, -72549.73918792477, -58618.05333114306, -68995.20832243066, -57325.13902487028, -35917.04051697737, -53606.12167192956, -67131.36340753596, 2447025.173547885, -63142.89577518652, -67403.83117244615, -56347.74194332862, -12959.921414842775, 0.05937096231256146, 0.9676565828739694, -0.17936131643789122, 192.0, 0.0, 0.0, 0.0, 0.0, 0.0, 0.0, 0.0, 0.0, 0.0, 1.741801414205949E9, 0.0, 2025-03-12 12:43:34.205
174.0, -64523.67478891311, -46443.81808564879, -70198.067450293, -68427.63047547704, -72529.53321093717, -58594.226371553705, -68971.91780470822, -57299.725091424596, -35882.14944388264, -53572.66111047997, -67096.1817617633, 2446946.8530353135, -63108.563495703165, -67370.147093552, -56312.537945811506, -12923.331609169438, 0.05937096231256146, 0.9676565828739694, -0.17936131643789122, 192.0, 0.0, 0.0, 0.0, 0.0, 0.0, 0.0, 0.0, 0.0, 0.0, 1.741801414206169E9, 0.0, 2025-03-12 12:43:34.206
176.0, -64527.854565126254, -46442.09700132573, -70199.34149972696, -68424.21065857538, -72528.19210626985, -58587.56555170603, -68986.66995604873, -57294.29361752196, -35877.075597891286, -53567.609616233065, -67094.30421522906, 2447254.2342250627, -63106.37302474654, -67360.96052658088, -56307.12882365332, -12913.250972420094, 0.05937096231256146, 0.9676565828739694, -0.17936131643789122, 192.0, 0.0, 0.0, 0.0, 0.0, 0.0, 0.0, 0.0, 0.0, 0.0, 1.741801414206385E9, 0.0, 2025-03-12 12:43:34.206
178.0, -64520.523192944915, -46437.47019022348, -70193.39593570185, -68420.25439980678, -72520.88308583297, -58586.64913018336, -68970.35318259636, -57293.57836169939, -35879.55664152582, -53568.05665112218, -67096.56174141905, 2447473.638948636, -63109.56932420365, -67361.67578240344, -56308.00054168708, -12912.736882297622, 0.05937096231256146, 0.9676565828739694, -0.17936131643789122, 192.0, 0.0, 0.0, 0.0, 0.0, 0.0, 0.0, 0.0, 0.0, 0.0, 1.741801414206604E9, 0.0, 2025-03-12 12:43:34.206
180.0, -64547.501748502465, -46465.78985044835, -70221.49207848216, -68451.4574350664, -72546.38642625647, -58617.60629625396, -68985.86529324834, -57336.717228498135, -35880.562470026314, -53570.828267434634, -67099.26630249814, 2447351.8666448435, -63109.07758582564, -67366.25789001679, -56307.151175397776, -12919.755330056589, 0.06268548115628073, 0.9648282914369847, -0.1796806582189456, 192.0, 1.0, 8.0, 15.0, 8.0, 125.0, 48.0, 0.0, 0.0, 0.0, 1.741801414265553E9, 0.0, 2025-03-12 12:43:34.265
182.0, -64545.624201968225, -46462.92882715807, -70221.78265116009, -68447.92585944246, -72549.85094664704, -58610.878421172914, -69012.75444182807, -57313.04673111996, -35919.11922921172, -53607.99921846381, -67138.62772448394, 2447177.523038092, -63150.69653400142, -67405.03816664674, -56350.82648406345, -12957.395667719326, 0.06268548115628073, 0.9648282914369847, -0.1796806582189456, 192.0, 0.0, 0.0, 0.0, 0.0, 0.0, 0.0, 0.0, 0.0, 0.0, 1.741801414265874E9, 0.0, 2025-03-12 12:43:34.265
184.0, -64560.44340854209, -46466.4156992931, -70224.64367445036, -68452.46326356688, -72550.38738851398, -58617.025150898124, -68998.76224979905, -57318.20998408914, -35892.520653309904, -53583.45700305188, -67116.32068351754, 2447079.8906183112, -63127.11544360107, -67379.51247447879, -56327.647725063296, -12931.445292406714, 0.06268548115628073, 0.9648282914369847, -0.1796806582189456, 192.0, 0.0, 0.0, 0.0, 0.0, 0.0, 0.0, 0.0, 0.0, 0.0, 1.741801414266093E9, 0.0, 2025-03-12 12:43:34.266
186.0, -64526.71462615903, -46447.349661272725, -70204.70591839623, -68432.27963832374, -72534.42824297289, -58598.6296652114, -68978.35510711135, -57303.524887982, -35894.95699345553, -53591.32481710015, -67116.67831142883, 2446949.535244648, -63132.34575180361, -67386.79914317121, -56329.61467857536, -12939.558975643991, 0.06268548115628073, 0.9648282914369847, -0.1796806582189456, 192.0, 0.0, 0.0, 0.0, 0.0, 0.0, 0.0, 0.0, 0.0, 0.0, 1.741801414266299E9, 0.0, 2025-03-12 12:43:34.266
188.0, -64527.31812325933, -46442.99107110394, -70199.4756101937, -68427.0493301212, -72526.9180568359, -58594.31577853153, -68972.87892971981, -57303.34607402636, -35874.30398157883, -53569.26364532276, -67096.09235478549, 2447250.4791319943, -63111.62568469354, -67364.08977080463, -56306.54767829749, -12912.692178808711, 0.06268548115628073, 0.9648282914369847, -0.1796806582189456, 192.0, 0.0, 0.0, 0.0, 0.0, 0.0, 0.0, 0.0, 0.0, 0.0, 1.741801414266511E9, 0.0, 2025-03-12 12:43:34.266
190.0, -64521.774890634406, -46437.53724545685, -70191.65249963434, -68421.03671086273, -72516.72566136428, -58592.25941804164, -68965.01111567153, -57305.84946940535, -35874.23692634546, -53565.307386554174, -67091.9349303168, 2447506.3619025187, -63108.22821953634, -67366.92844235044, -56304.848945718884, -12919.732978312133, 0.06234274057814036, 0.9624141457184923, -0.18084032910947279, 192.0, 0.5, 120.0, 15.0, 0.0, 125.0, 40.0, 0.0, 0.0, 0.0, 1.741801414266733E9, 0.0, 2025-03-12 12:43:34.266
192.0, -64512.700082385556, -46430.47409420897, -70186.6680606208, -68414.64411194851, -72517.15034450893, -58587.78906915058, -68967.08982790587, -57301.96026587013, -35868.894859420645, -53562.0440318637, -67085.47527616922, 2447392.099784863, -63104.718995656855, -67357.11602653457, -56296.2882275925, -12911.84281251941, 0.06234274057814036, 0.9624141457184923, -0.18084032910947279, 192.0, 0.0, 0.0, 0.0, 0.0, 0.0, 0.0, 0.0, 0.0, 0.0, 1.741801414266959E9, 0.0, 2025-03-12 12:43:34.266
194.0, -64553.76023694995, -46469.25437083893, -70225.1801163173, -68451.97152518887, -72562.5243857532, -58622.59073526749, -69017.64947386378, -57332.85037670736, -35887.15623464063, -53578.2937500827, -67101.23325601021, 2447254.77066693, -63123.807385421685, -67378.64075644502, -56319.69050403721, -12931.311181939982, 0.06234274057814036, 0.9624141457184923, -0.18084032910947279, 192.0, 0.0, 0.0, 0.0, 0.0, 0.0, 0.0, 0.0, 0.0, 0.0, 1.741801414267167E9, 0.0, 2025-03-12 12:43:34.267
196.0, -64541.66794319963, -46448.42254500658, -70209.22097077621, -68432.48080402384, -72543.72656866629, -58601.93772339079, -69001.75738355606, -57304.08368159339, -35899.8743772357, -53589.04493916571, -67115.02428233913, 2447101.8847348555, -63137.30783907269, -67388.90020715001, -56330.32993439793, -12940.162472744283, 0.06234274057814036, 0.9624141457184923, -0.18084032910947279, 192.0, 0.0, 0.0, 0.0, 0.0, 0.0, 0.0, 0.0, 0.0, 0.0, 1.741801414327258E9, 0.0, 2025-03-12 12:43:34.327
198.0, -64538.49399548698, -46454.1669433316, -70213.62426443389, -68440.01334190529, -72553.24841180425, -58608.79970893857, -69014.16260172875, -57327.418902804726, -35887.31269685182, -53580.10424138358, -67103.71429964475, 2446998.3514545383, -63129.37296979105, -67379.64658494551, -56324.00439071708, -12928.964248772176, 0.06234274057814036, 0.9624141457184923, -0.18084032910947279, 192.0, 0.0, 0.0, 0.0, 0.0, 0.0, 0.0, 0.0, 0.0, 0.0, 1.74180141432755E9, 0.0, 2025-03-12 12:43:34.327
200.0, -64517.34924523226, -46425.266137750885, -70180.34251693994, -68409.97259735735, -72519.85490558803, -58584.033976082086, -68966.75455173905, -57294.71830066661, -35869.14072860965, -53562.91574989745, -67084.42474417982, 2447155.5289215483, -63114.10672832808, -67364.0003638268, -56307.084120164414, -12920.26942017906, 0.062, 0.964, -0.186, 192.0, 0.5, 120.0, 15.0, 16.0, 125.0, 24.0, 0.0, 0.0, 0.0, 1.741801414327764E9, 0.0, 2025-03-12 12:43:34.327
202.0, -64504.98873054847, -46414.87257657917, -70170.37363891288, -68399.75785014128, -72513.14938225143, -58571.11466778692, -68959.02084815751, -57285.55408543994, -35860.46825176099, -53553.23744454831, -67073.94177603027, 2447502.6068094503, -63104.92016135695, -67354.41146545547, -56296.62350375933, -12909.473527607148, 0.062, 0.964, -0.186, 192.0, 0.0, 0.0, 0.0, 0.0, 0.0, 0.0, 0.0, 0.0, 0.0, 1.741801414327988E9, 0.0, 2025-03-12 12:43:34.327
204.0, -64524.52415520241, -46434.87738786667, -70193.6641566353, -68421.3496352851, -72532.64010341646, -58590.00189185166, -68980.41146760124, -57296.97582685659, -35855.17088832508, -53545.86136887805, -67070.56666261752, 2447386.735366194, -63099.958074087874, -67347.37066595205, -56291.12497462332, -12901.337492625415, 0.062, 0.964, -0.186, 192.0, 0.0, 0.0, 0.0, 0.0, 0.0, 0.0, 0.0, 0.0, 0.0, 1.741801414328203E9, 0.0, 2025-03-12 12:43:34.328
206.0, -64554.72136196153, -46454.211646820506, -70214.56303770102, -68440.9074116835, -72552.95783912633, -58612.37598805142, -68998.47167712112, -57317.78530094449, -35888.69850500805, -53578.941950671906, -67104.80953512306, 2447221.51127118, -63135.16207160498, -67381.32296577966, -56321.18807091571, -12930.193594717217, 0.062, 0.964, -0.186, 192.0, 0.0, 0.0, 0.0, 0.0, 0.0, 0.0, 0.0, 0.0, 0.0, 1.741801414328416E9, 0.0, 2025-03-12 12:43:34.328
208.0, -64538.002257108965, -46443.70632692651, -70200.43673520526, -68430.17857434494, -72537.31161800762, -58599.94841813426, -68988.25692990505, -57311.41505377473, -35875.26510659041, -53567.341395299605, -67091.9349303168, 2447102.9576185895, -63124.097958099606, -67370.90705286349, -56308.44757657619, -12918.168356200262, 0.062, 0.964, -0.186, 192.0, 0.0, 0.0, 0.0, 0.0, 0.0, 0.0, 0.0, 0.0, 0.0, 1.741801414328624E9, 0.0, 2025-03-12 12:43:34.328
210.0, -64543.81371066734, -46447.61788220619, -70201.26374975011, -68431.13969935653, -72544.28536227767, -58605.134022847895, -69006.33949116939, -57331.82219646242, -35896.34280161176, -53587.390910076014, -67111.62681718192, 2446951.681012116, -63143.231051353345, -67391.40360252901, -56327.87124250785, -12939.871900066364, 0.062, 0.968, -0.18, 192.0, 0.5, 120.0, 15.0, 32.0, 125.0, 48.0, 0.0, 0.0, 0.0, 1.741801414386119E9, 0.0, 2025-03-12 12:43:34.386
212.0, -64508.363843961226, -46417.53243416935, -70163.98103999866, -68396.6956611509, -72509.72956534977, -58567.2254642517, -68968.40858082873, -57273.73001262308, -35858.92598139358, -53551.15873231396, -67071.6842498403, 2447019.809129216, -63104.02609157874, -67352.37745671003, -56289.895628678285, -12901.516306581058, 0.062, 0.968, -0.18, 192.0, 0.0, 0.0, 0.0, 0.0, 0.0, 0.0, 0.0, 0.0, 0.0, 1.741801414386405E9, 0.0, 2025-03-12 12:43:34.386
214.0, -64516.186954520585, -46423.27683249436, -70169.88190053486, -68403.6917571654, -72507.27087345968, -58577.21669402322, -68967.04512441697, -57295.43355648918, -35856.444937759035, -53548.29770902368, -67066.99038350469, 2447461.837227564, -63098.706376398375, -67347.1471485075, -56282.00546288556, -12892.732071010121, 0.062, 0.968, -0.18, 192.0, 0.0, 0.0, 0.0, 0.0, 0.0, 0.0, 0.0, 0.0, 0.0, 1.741801414386612E9, 0.0, 2025-03-12 12:43:34.386
216.0, -64540.080969343304, -46447.52847522837, -70197.821581104, -68429.7985946892, -72534.80822262862, -58599.2331623117, -68995.1412671973, -57313.51611775353, -35865.49739426344, -53554.01975560424, -67078.65799411036, 2447342.747133106, -63107.87059162505, -67358.68064864643, -56296.19882061468, -12910.434652618726, 0.062, 0.968, -0.18, 192.0, 0.0, 0.0, 0.0, 0.0, 0.0, 0.0, 0.0, 0.0, 0.0, 1.741801414386816E9, 0.0, 2025-03-12 12:43:34.386
218.0, -64523.4289197241, -46435.34677450023, -70182.4659326632, -68419.04740560621, -72520.10077477703, -58590.180705807295, -68975.15880765424, -57300.86503039182, -35882.55177528284, -53572.88462792452, -67092.89605532838, 2447189.8612010316, -63123.025074365745, -67377.54552096671, -56310.61569578835, -12926.058521992985, 0.062, 0.968, -0.18, 192.0, 0.0, 0.0, 0.0, 0.0, 0.0, 0.0, 0.0, 0.0, 0.0, 1.741801414387038E9, 0.0, 2025-03-12 12:43:34.387
220.0, -64521.79724237887, -46440.13004781366, -70187.87505482139, -68420.18734457342, -72524.8169928571, -58584.88334237139, -68996.81764803144, -57286.515210451515, -35867.218478586496, -53559.65239520698, -67077.94273828778, 2447084.182153247, -63108.4964404698, -67362.77101788175, -56297.1375938818, -12911.21696367466, 0.058, 0.968, -0.178, 192.0, 0.5, 104.0, 15.0, 32.0, 125.0, 56.0, 0.0, 0.0, 0.0, 1.741801414387248E9, 0.0, 2025-03-12 12:43:34.387
222.0, -64537.48816698649, -46450.83653340775, -70195.36288921391, -68426.91521965447, -72529.39910047044, -58593.08643258649, -68982.69134553568, -57297.37815825679, -35876.650914746635, -53572.19172384641, -67088.71627911524, 2446957.045430785, -63117.01245510727, -67369.78946564073, -56308.31346610945, -12914.547373598502, 0.058, 0.968, -0.178, 192.0, 0.0, 0.0, 0.0, 0.0, 0.0, 0.0, 0.0, 0.0, 0.0, 1.741801414387476E9, 0.0, 2025-03-12 12:43:34.387
224.0, -64515.426995209105, -46434.22918727746, -70176.34155468244, -68409.07852757914, -72507.85201881552, -58579.0271853241, -68950.01309514203, -57281.687233649165, -35870.10185362123, -53561.61934871905, -67077.04866850957, 2447327.190318965, -63110.172821303946, -67361.83224461463, -56290.85675368986, -12904.399681615792, 0.058, 0.968, -0.178, 192.0, 0.0, 0.0, 0.0, 0.0, 0.0, 0.0, 0.0, 0.0, 0.0, 1.741801414387682E9, 0.0, 2025-03-12 12:43:34.387
