%OpenBCI Raw EXG Data
%Number of channels = 16
%Sample Rate = 125 Hz
%Board = OpenBCI_GUI$BoardCytonSerialDaisy
Sample Index, EXG Channel 0, EXG Channel 1, EXG Channel 2, EXG Channel 3, EXG Channel 4, EXG Channel 5, EXG Channel 6, EXG Channel 7, EXG Channel 8, EXG Channel 9, EXG Channel 10, EXG Channel 11, EXG Channel 12, EXG Channel 13, EXG Channel 14, EXG Channel 15, Accel Channel 0, Accel Channel 1, Accel Channel 2, Not Used, Digital Channel 0 (D11), Digital Channel 1 (D12), Digital Channel 2 (D13), Digital Channel 3 (D17), Not Used, Digital Channel 4 (D18), Analog Channel 0, Analog Channel 1, Analog Channel 2, Timestamp, Marker Channel, Timestamp (Formatted)
0.0, -2051.510161341448, -4744.56009203912, 21211.179639241655, 7475.33976737735, -7366.844399791289, -5793.572162815591, -32388.21415760686, 22563.303716576545, 0.0, 0.0, 0.0, 0.0, 0.0, 0.0, 0.0, 0.0, -0.067, 0.47000000000000003, 0.139, 192.0, 125.5, 104.0, 14.5, 48.0, 4.0, 88.0, 0.0, 0.0, 0.0, 1.744824403628616E9, 0.0, 2025-04-16 12:26:43.628
88.0, -2020.284774337384, -4728.779760453673, 21212.878371820258, 7486.269770415995, -7348.583024571303, -5800.881183252476, -32390.158759374473, 22568.310507334532, 2988.6070476301966, 23363.652630287725, -15119.859888536917, -6644.7712951625945, -9289.966140981453, 8062.810666896185, -41703.88480471192, -187500.02235174447, -0.067, 0.47000000000000003, 0.139, 192.0, 0.0, 0.0, 0.0, 0.0, 0.0, 0.0, 0.0, 0.0, 0.0, 1.744824403628784E9, 0.0, 2025-04-16 12:26:43.628
90.0, -2073.683091841113, -4769.3481766400555, 21191.890083776725, 7449.322336831372, -7376.813277818356, -5814.985134003775, -32405.782628748733, 22548.12688209139, 2970.6585968325853, 23381.735191552067, -15136.355475944934, -6671.414574553321, -9304.338312666216, 8037.664954383965, -41719.44161885281, -187500.02235174447, -0.067, 0.47000000000000003, 0.139, 192.0, 0.0, 0.0, 0.0, 0.0, 0.0, 0.0, 0.0, 0.0, 0.0, 1.744824403628949E9, 0.0, 2025-04-16 12:26:43.628
92.0, -2042.4800565815042, -4747.84579847405, 21192.15830471019, 7465.750869006022, -7363.7151555675455, -5815.9462590153535, -32403.860378725578, 22559.302754319044, 2969.0269194873476, 23334.95299040711, -15139.171795746302, -6672.0627751425245, -9310.686208091523, 8037.910823572973, -41721.65444155389, -187500.02235174447, -0.067, 0.47000000000000003, 0.139, 192.0, 0.0, 0.0, 0.0, 0.0, 0.0, 0.0, 0.0, 0.0, 0.0, 1.744824403629107E9, 0.0, 2025-04-16 12:26:43.629
94.0, -2073.392519163194, -4777.059528477136, 21186.86094127428, 7440.247528582518, -7381.328330198327, -5822.271802696205, -32400.93230020193, 22542.248373299644, 2959.080393204736, 23375.499054849035, -15149.274784240102, -6685.898504960359, -9315.469481404958, 8022.242250709803, -41731.064525969574, -187500.02235174447, -0.067, 0.47000000000000003, 0.139, 192.0, 0.0, 0.0, 0.0, 0.0, 0.0, 0.0, 0.0, 0.0, 0.0, 1.744824403629256E9, 0.0, 2025-04-16 12:26:43.629
96.0, -2049.0067659624538, -4758.03819394567, 21190.1019442203, 7459.090049158341, -7371.851190549278, -5815.745093315255, -32405.08972467062, 22558.65455372984, 2963.7966112848057, 23320.58081872235, -15141.049342280548, -6679.729423490695, -9314.776577326844, 8031.384114192023, -41724.47076135525, -187500.02235174447, -0.1015, 0.7040000000000001, 0.20550000000000002, 192.0, 125.5, 96.0, 14.5, 40.0, 4.0, 64.0, 0.0, 0.0, 0.0, 1.744824403629408E9, 0.0, 2025-04-16 12:26:43.629
98.0, -2078.891048299199, -4780.479345378798, 21185.63159532924, 7442.572110005869, -7375.896856295688, -5815.7227415708, -32407.660175282977, 22546.45050125724, 2957.0016809703925, 23382.361040396816, -15149.475949940199, -6687.060795672035, -9312.65316160359, 8024.455073410878, -41734.17141844886, -187500.02235174447, -0.1015, 0.7040000000000001, 0.20550000000000002, 192.0, 0.0, 0.0, 0.0, 0.0, 0.0, 0.0, 0.0, 0.0, 0.0, 1.744824403629562E9, 0.0, 2025-04-16 12:26:43.629
100.0, -2054.795867776378, -4756.630034044985, 21192.180656454642, 7466.756697506511, -7362.21758868904, -5806.312657155116, -32393.35505883158, 22567.125864878402, 2961.404974628088, 23318.94914137711, -15142.591612647966, -6690.055929429046, -9310.440338902514, 8033.596936893098, -41721.92266248735, -187500.02235174447, -0.1015, 0.7040000000000001, 0.20550000000000002, 192.0, 0.0, 0.0, 0.0, 0.0, 0.0, 0.0, 0.0, 0.0, 0.0, 1.744824403629714E9, 0.0, 2025-04-16 12:26:43.629
102.0, -2075.247713952984, -4777.528915110697, 21187.531493607938, 7448.629432753258, -7369.057222492364, -5811.855889780032, -32399.010050178775, 22555.435902528276, 2958.3651373821663, 23395.928549281187, -15144.960897560228, -6684.467993315219, -9304.785347555322, 8032.3452392036015, -41724.82838926654, -187500.02235174447, -0.1015, 0.7040000000000001, 0.20550000000000002, 192.0, 0.0, 0.0, 0.0, 0.0, 0.0, 0.0, 0.0, 0.0, 0.0, 1.74482440362985E9, 0.0, 2025-04-16 12:26:43.629
0.0, -1064.3230157283565, -2404.4218545462913, 10598.414909650674, 3734.8423880150785, -3666.7813261486685, -2873.6520258965525, -16180.114886774409, 11280.94777833793, 1476.8915148844142, 11664.369602724268, -7573.843905191888, -3343.999784469579, -4656.762439818674, 4014.7309320844333, -20862.917108883514, -93750.01117587223, -0.13, 0.934, 0.28400000000000003, 192.0, 125.5, 120.0, 14.5, 24.0, 4.0, 112.0, 0.0, 0.0, 0.0, 1.744824403798688E9, 0.0, 2025-04-16 12:26:43.798
2.0, -2098.113548530763, -4778.355929655544, 21206.48577290604, 7493.467032130603, -7315.010704399432, -5740.889101134432, -32356.07234908013, 22580.3804493404, 2713.971163507839, 23387.256072432527, -15123.860850794417, -6668.598254751952, -9300.069129475252, 7943.452351504845, -41680.102548611474, -187500.02235174447, -0.13, 0.934, 0.28400000000000003, 192.0, 0.0, 0.0, 0.0, 0.0, 0.0, 0.0, 0.0, 0.0, 0.0, 1.744824403798846E9, 0.0, 2025-04-16 12:26:43.798
4.0, -2105.6907899011126, -4791.588162373086, 21213.235999731543, 7483.475802359081, -7311.434425286583, -5745.426505258859, -32349.8362123771, 22571.216234113723, 2711.7359890623084, 23466.78357920451, -15131.594554375954, -6661.624510481895, -9296.179925940029, 7942.781799171186, -41683.947048657785, -187500.02235174447, -0.13, 0.934, 0.28400000000000003, 192.0, 0.0, 0.0, 0.0, 0.0, 0.0, 0.0, 0.0, 0.0, 0.0, 1.744824403799018E9, 0.0, 2025-04-16 12:26:43.799
6.0, -2107.0095428239756, -4785.75435707025, 21202.01542401498, 7483.006415725519, -7325.873652204711, -5757.51879900918, -32371.15977658746, 22565.740056722174, 2720.0508379996822, 23393.469857391105, -15119.27874318108, -6667.011280895625, -9298.616266085657, 7942.155950326437, -41677.666208465846, -187500.02235174447, -0.13, 0.934, 0.28400000000000003, 192.0, 0.0, 0.0, 0.0, 0.0, 0.0, 0.0, 0.0, 0.0, 0.0, 1.744824403799185E9, 0.0, 2025-04-16 12:26:43.799
8.0, -2107.0765980573415, -4793.465708907332, 21201.523685636963, 7473.238703398551, -7318.743445723468, -5760.201008343817, -32356.45232873587, 22561.672039231307, 2702.6388290689983, 23466.291840826492, -15134.723798599696, -6668.084164629479, -9308.786309812822, 7931.404761243434, -41700.46498781026, -187500.02235174447, -0.126, 0.928, 0.28400000000000003, 192.0, 126.0, 8.0, 14.5, 0.0, 4.0, 112.0, 0.0, 0.0, 0.0, 1.744824403799339E9, 0.0, 2025-04-16 12:26:43.799
10.0, -2098.7841008644227, -4774.533781353686, 21210.15145899671, 7491.924761763187, -7318.050541645353, -5745.046525603119, -32354.97711360182, 22575.172492882313, 2707.779730293719, 23394.051002746943, -15122.117414726903, -6664.597292494452, -9307.534612123325, 7941.373639270501, -41682.42713003482, -187500.02235174447, -0.126, 0.928, 0.28400000000000003, 192.0, 0.0, 0.0, 0.0, 0.0, 0.0, 0.0, 0.0, 0.0, 0.0, 1.744824403799505E9, 0.0, 2025-04-16 12:26:43.799
12.0, -2106.540156190414, -4795.387958930488, 21196.025156500957, 7476.7032237891235, -7317.06706488932, -5762.57029325608, -32364.141328828497, 22565.65064974435, 2704.0469889696824, 23473.01971590754, -15129.247621208147, -6649.800437665038, -9304.293609177304, 7944.636993960977, -41688.77502546013, -187500.02235174447, -0.126, 0.928, 0.28400000000000003, 192.0, 0.0, 0.0, 0.0, 0.0, 0.0, 0.0, 0.0, 0.0, 0.0, 1.744824403799651E9, 0.0, 2025-04-16 12:26:43.799
14.0, -2104.282630000428, -4783.541534369175, 21206.39636592822, 7487.7449855500445, -7322.610297514236, -5748.198121571318, -32345.58938093059, 22568.176396867802, 2700.873041257029, 23394.76625856951, -15138.121263756904, -6680.154106635346, -9312.675513348046, 7924.229851273281, -41691.36782781695, -187500.02235174447, -0.126, 0.928, 0.28400000000000003, 192.0, 0.0, 0.0, 0.0, 0.0, 0.0, 0.0, 0.0, 0.0, 0.0, 1.744824403799797E9, 0.0, 2025-04-16 12:26:43.799
16.0, -2107.7247986465454, -4797.243153720278, 21195.935749523134, 7475.496229588536, -7314.54131776587, -5763.553770012113, -32358.84396539259, 22562.387295053875, 2702.817643024641, 23459.54161400099, -15129.38173167488, -6654.203731322734, -9299.108004463675, 7938.423209002401, -41688.86443243795, -187500.02235174447, -0.126, 0.928, 0.28400000000000003, 192.0, 0.0, 0.0, 0.0, 0.0, 0.0, 0.0, 0.0, 0.0, 0.0, 1.744824403859074E9, 0.0, 2025-04-16 12:26:43.859
18.0, -2119.2359470410283, -4800.081825266102, 21197.52272337946, 7469.751831263523, -7332.556823796848, -5757.3623367979935, -32368.32110504164, 22555.413550783822, 2687.0820149281044, 23383.523331108492, -15142.792778348063, -6692.604028296952, -9316.676475605545, 7909.522403421689, -41702.65545876687, -187500.02235174447, -0.126, 0.9420000000000001, 0.28400000000000003, 192.0, 126.0, 8.0, 14.5, 56.0, 4.0, 112.0, 0.0, 0.0, 0.0, 1.744824403859285E9, 0.0, 2025-04-16 12:26:43.859
20.0, -2088.1446705036965, -4782.021615746215, 21207.804525828902, 7485.263941915506, -7292.211925055019, -5746.99112737073, -32340.001444816764, 22579.776952240107, 2710.663105328453, 23441.59316320338, -15126.297190940046, -6664.440830283264, -9293.7435857944, 7936.277441534691, -41685.4893190252, -187500.02235174447, -0.126, 0.9420000000000001, 0.28400000000000003, 192.0, 0.0, 0.0, 0.0, 0.0, 0.0, 0.0, 0.0, 0.0, 0.0, 1.744824403859428E9, 0.0, 2025-04-16 12:26:43.859
22.0, -2128.377810523249, -4811.771787616228, 21188.47026687506, 7461.861665470799, -7329.584041784292, -5768.091174136541, -32373.238488821804, 22550.630277470384, 2699.8225092676294, 23399.9742150276, -15136.534289900577, -6690.949999207259, -9301.276123675838, 7918.3513424815355, -41690.63022024992, -187500.02235174447, -0.126, 0.9420000000000001, 0.28400000000000003, 192.0, 0.0, 0.0, 0.0, 0.0, 0.0, 0.0, 0.0, 0.0, 0.0, 1.744824403859561E9, 0.0, 2025-04-16 12:26:43.859
24.0, -2105.936659090121, -4798.80777583215, 21192.2030081991, 7473.57397956538, -7319.659867246136, -5770.974549171276, -32377.35120980158, 22556.620544984406, 2699.129605189515, 23430.529049698, -15144.603269648942, -6679.192981623767, -9307.55696386778, 7917.65843840342, -41705.65059252389, -187500.02235174447, -0.126, 0.9420000000000001, 0.28400000000000003, 192.0, 0.0, 0.0, 0.0, 0.0, 0.0, 0.0, 0.0, 0.0, 0.0, 1.7448244038597E9, 0.0, 2025-04-16 12:26:43.859
26.0, -2110.6305254257354, -4790.068243750125, 21211.783136341946, 7477.083203444863, -7325.292506848873, -5748.37693552696, -32360.92267762693, 22562.70021947625, 2713.4347216409114, 23414.10051752335, -15136.80251083404, -6679.975292679703, -9302.058434731774, 7916.451444202834, -41693.245374351194, -187500.02235174447, -0.126, 0.9420000000000001, 0.28400000000000003, 192.0, 0.0, 0.0, 0.0, 0.0, 0.0, 0.0, 0.0, 0.0, 0.0, 1.744824403859845E9, 0.0, 2025-04-16 12:26:43.859
28.0, -2061.5013911129704, -4756.071240433603, 21226.937619082644, 7503.122985735296, -7291.228448298985, -5733.311859764083, -32347.332816998103, 22586.974213954712, 2743.2072452553807, 23434.328846255405, -15116.529478613076, -6644.50307422913, -9284.534667078813, 7943.228834060292, -41676.258048565156, -187500.02235174447, -0.124, 0.9400000000000001, 0.28200000000000003, 192.0, 126.0, 16.0, 14.5, 48.0, 4.0, 104.0, 0.0, 0.0, 0.0, 1.744824403860001E9, 0.0, 2025-04-16 12:26:43.860
30.0, -2077.706405843068, -4762.3073771366335, 21232.324389496374, 7504.8217183138995, -7302.650189715647, -5723.164167781373, -32345.097642552573, 22584.69433602027, 2763.256760031791, 23437.949828857163, -15097.03875744805, -6634.489492713153, -9269.268425615839, 7954.494113265767, -41651.53701919759, -187500.02235174447, -0.124, 0.9400000000000001, 0.28200000000000003, 192.0, 0.0, 0.0, 0.0, 0.0, 0.0, 0.0, 0.0, 0.0, 0.0, 1.744824403919301E9, 0.0, 2025-04-16 12:26:43.919
32.0, -2048.4032688621605, -4743.867187961005, 21228.90457259471, 7520.3785324547935, -7286.422823241094, -5724.125292792952, -32338.21330526034, 22599.93822573879, 2779.037091617238, 23441.749625414566, -15091.897856223328, -6617.345704715933, -9267.8379139707, 7968.106325639049, -41651.44761221977, -187500.02235174447, -0.124, 0.9400000000000001, 0.28200000000000003, 192.0, 0.0, 0.0, 0.0, 0.0, 0.0, 0.0, 0.0, 0.0, 0.0, 1.744824403919493E9, 0.0, 2025-04-16 12:26:43.919
34.0, -2077.192315720596, -4764.587255071075, 21227.764633627492, 7501.334846178872, -7305.511213005926, -5724.527624193147, -32335.553447670158, 22586.907158721348, 2773.247989803313, 23459.809834934455, -15102.313769139502, -6639.093952070946, -9273.291739617795, 7949.800246930153, -41657.90726636735, -187500.02235174447, -0.124, 0.9400000000000001, 0.28200000000000003, 192.0, 0.0, 0.0, 0.0, 0.0, 0.0, 0.0, 0.0, 0.0, 0.0, 1.744824403919639E9, 0.0, 2025-04-16 12:26:43.919
36.0, -2043.7764577599119, -4738.681583247374, 21229.865697606292, 7524.513605179025, -7285.752270907435, -5721.532490436136, -32341.096680295075, 22598.03832746009, 2788.469527777377, 23445.437663249693, -15088.813315488496, -6620.631411150863, -9266.362698836649, 7964.150066870459, -41648.56423718503, -187500.02235174447, -0.124, 0.9400000000000001, 0.28200000000000003, 192.0, 0.0, 0.0, 0.0, 0.0, 0.0, 0.0, 0.0, 0.0, 0.0, 1.744824403919785E9, 0.0, 2025-04-16 12:26:43.919
38.0, -2092.480908928026, -4775.450202876354, 21209.43620317414, 7494.986950753564, -7313.44608228756, -5737.4692842327695, -32357.279343280716, 22574.211367870736, 2773.136231081037, 23474.91961418624, -15109.712196554208, -6640.300946271533, -9277.247998386383, 7947.632127717988, -41662.77994665861, -187500.02235174447, -0.126, 0.936, 0.28, 192.0, 126.0, 8.0, 14.5, 32.0, 4.0, 96.0, 0.0, 0.0, 0.0, 1.744824403919934E9, 0.0, 2025-04-16 12:26:43.919
40.0, -2064.2730074254287, -4753.836065988072, 21209.23503747404, 7507.101596248341, -7302.247858315452, -5739.860920889488, -32361.54852647168, 22582.012126685637, 2776.1984200714137, 23423.756471128043, -15114.361359400913, -6635.942356102748, -9283.931169978521, 7946.38043002849, -41668.25612405016, -187500.02235174447, -0.126, 0.936, 0.28, 192.0, 0.0, 0.0, 0.0, 0.0, 0.0, 0.0, 0.0, 0.0, 0.0, 1.744824403920105E9, 0.0, 2025-04-16 12:26:43.920
42.0, -2089.910458315666, -4780.635807589985, 21206.9551595396, 7487.543819849947, -7309.690989219069, -5744.443028502826, -32352.40666298946, 22569.249280601656, 2777.070138105171, 23468.8399396944, -15119.368150158902, -6642.2678997836, -9285.182867668018, 7937.305621779636, -41671.519478740636, -187500.02235174447, -0.126, 0.936, 0.28, 192.0, 0.0, 0.0, 0.0, 0.0, 0.0, 0.0, 0.0, 0.0, 0.0, 1.744824403920243E9, 0.0, 2025-04-16 12:26:43.920
44.0, -2066.418774893138, -4757.300586378645, 21208.899761307213, 7504.084110746874, -7298.91744839161, -5742.587833713035, -32352.563125200646, 22584.984908698192, 2780.981693384849, 23402.432906917682, -15115.903629768329, -6642.98315560617, -9283.707652533967, 7940.725438681297, -41666.62444670492, -187500.02235174447, -0.126, 0.936, 0.28, 192.0, 0.0, 0.0, 0.0, 0.0, 0.0, 0.0, 0.0, 0.0, 0.0, 1.744824403920379E9, 0.0, 2025-04-16 12:26:43.920
46.0, -2097.0183130524533, -4785.03910124768, 21197.880351290747, 7485.0404244709525, -7312.6414194871695, -5750.455647761303, -32365.39302651799, 22567.125864878402, 2769.2693792902687, 23462.872023924832, -15127.23596420717, -6647.9452428752475, -9282.880637989121, 7931.762389154719, -41677.75561544366, -187500.02235174447, -0.126, 0.936, 0.28, 192.0, 0.0, 0.0, 0.0, 0.0, 0.0, 0.0, 0.0, 0.0, 0.0, 1.744824403979568E9, 0.0, 2025-04-16 12:26:43.979
48.0, -2071.9173040291435, -4764.855476004538, 21199.310862935887, 7500.530183378481, -7312.797881698357, -5747.125237837463, -32366.532965485214, 22577.34061209448, 2772.7115479363856, 23391.234682945575, -15126.319542684501, -6653.153199333335, -9291.821335771243, 7933.28230777768, -41679.052016622074, -187500.02235174447, -0.124, 0.9380000000000001, 0.28600000000000003, 192.0, 126.0, 16.0, 14.5, 40.0, 4.0, 120.0, 0.0, 0.0, 0.0, 1.744824403979744E9, 0.0, 2025-04-16 12:26:43.979
50.0, -2088.1446705036965, -4779.7417378117725, 21196.829819301347, 7484.906314004221, -7313.021399142909, -5750.098019850018, -32359.22394504833, 22568.154045123345, 2778.1653735834807, 23470.561024017457, -15123.883202538873, -6644.324260273488, -9285.004053712375, 7935.584537456577, -41680.795452689585, -187500.02235174447, -0.124, 0.9380000000000001, 0.28600000000000003, 192.0, 0.0, 0.0, 0.0, 0.0, 0.0, 0.0, 0.0, 0.0, 0.0, 1.744824403979909E9, 0.0, 2025-04-16 12:26:43.979
52.0, -2069.548019116881, -4754.79719099965, 21205.569351383372, 7502.430081657181, -7310.696817719558, -5738.832740644543, -32348.472755965326, 22581.47568481871, 2786.0555393762043, 23398.96838652711, -15115.635408834865, -6643.005507350625, -9281.36071936616, 7941.261880548225, -41667.56321997204, -187500.02235174447, -0.124, 0.9380000000000001, 0.28600000000000003, 192.0, 0.0, 0.0, 0.0, 0.0, 0.0, 0.0, 0.0, 0.0, 0.0, 1.744824403980123E9, 0.0, 2025-04-16 12:26:43.980
54.0, -2091.6538943831797, -4785.016749503226, 21197.075688490357, 7477.843162756344, -7317.379989311695, -5752.512008251191, -32360.92267762693, 22574.546644037564, 2775.036129359738, 23475.456056053168, -15132.421568920801, -6644.83835039596, -9283.931169978521, 7934.735171167275, -41682.71770271274, -187500.02235174447, -0.124, 0.9380000000000001, 0.28600000000000003, 192.0, 0.0, 0.0, 0.0, 0.0, 0.0, 0.0, 0.0, 0.0, 0.0, 1.74482440398028E9, 0.0, 2025-04-16 12:26:43.980
56.0, -2094.201993251085, -4783.921514024915, 21191.890083776725, 7485.599218082335, -7328.824082472812, -5748.891025649432, -32367.002352118776, 22579.9781179402, 2768.956454867894, 23387.479589877083, -15136.020199778104, -6664.016147138614, -9294.16826893905, 7923.022857072695, -41682.136557356906, -187500.02235174447, -0.124, 0.9380000000000001, 0.28600000000000003, 192.0, 0.0, 0.0, 0.0, 0.0, 0.0, 0.0, 0.0, 0.0, 0.0, 1.744824403980391E9, 0.0, 2025-04-16 12:26:43.980
58.0, -2088.0105600369648, -4781.239304690279, 21205.211723472086, 7489.24255242855, -7310.339189808273, -5744.353621525004, -32362.710817183357, 22585.18607439829, 2772.2421613028246, 23471.320983328937, -15130.655781108831, -6643.452542239731, -9285.227571156927, 7937.976174113295, -41677.308580554556, -187500.02235174447, -0.121, 0.9400000000000001, 0.28700000000000003, 192.0, 126.0, 40.0, 14.5, 56.0, 4.5, 0.0, 0.0, 0.0, 0.0, 1.744824403980489E9, 0.0, 2025-04-16 12:26:43.980
60.0, -2094.492565929004, -4774.04204297567, 21207.670415362172, 7494.696378075645, -7322.722056236513, -5741.2243773012615, -32356.07234908013, 22586.348365109967, 2763.2791117762463, 23389.804171300435, -15131.505147398133, -6664.954920405737, -9293.944751494499, 7925.99563908525, -41675.3863305314, -187500.02235174447, -0.121, 0.9400000000000001, 0.28700000000000003, 192.0, 0.0, 0.0, 0.0, 0.0, 0.0, 0.0, 0.0, 0.0, 0.0, 1.744824404039845E9, 0.0, 2025-04-16 12:26:44.039
62.0, -2103.835595111322, -4800.66297062194, 21197.008633256988, 7483.118174447796, -7308.953381652043, -5758.994014143231, -32350.35030249957, 22583.46499007523, 2766.631873444542, 23462.78261694701, -15136.601345133942, -6652.79557142205, -9288.110946191662, 7936.813883401619, -41672.972342130226, -187500.02235174447, -0.121, 0.9400000000000001, 0.28700000000000003, 192.0, 0.0, 0.0, 0.0, 0.0, 0.0, 0.0, 0.0, 0.0, 0.0, 1.744824404039958E9, 0.0, 2025-04-16 12:26:44.039
64.0, -2109.6694004141573, -4792.750453084762, 21203.937674038134, 7490.583657095869, -7322.632649258691, -5748.086362849041, -32354.619485690535, 22585.94603370977, 2749.5327889362325, 23376.77310428299, -15154.102761042448, -6690.122984662412, -9304.874754533143, 7906.281400475669, -41681.980095145715, -187500.02235174447, -0.121, 0.9400000000000001, 0.28700000000000003, 192.0, 0.0, 0.0, 0.0, 0.0, 0.0, 0.0, 0.0, 0.0, 0.0, 1.744824404040053E9, 0.0, 2025-04-16 12:26:44.040
66.0, -2088.770519348445, -4784.525011125209, 21208.922113051667, 7502.139508979262, -7298.760986180424, -5749.271005305172, -32352.87604962302, 22594.17147566932, 2780.9146381514834, 23449.84095690739, -15126.833632806974, -6644.883053884871, -9279.773745509834, 7940.032534603183, -41666.08800483799, -187500.02235174447, -0.121, 0.9400000000000001, 0.28700000000000003, 192.0, 0.0, 0.0, 0.0, 0.0, 0.0, 0.0, 0.0, 0.0, 0.0, 1.744824404040146E9, 0.0, 2025-04-16 12:26:44.040
68.0, -2108.216537024562, -4789.822374561117, 21206.642235117226, 7492.349444907838, -7319.793977712868, -5749.829798916555, -32359.64862819298, 22579.709897006738, 2756.5959401841096, 23395.257996947526, -15138.411836434823, -6672.398051309354, -9298.146879452095, 7915.870298846996, -41676.034531120604, -187500.02235174447, -0.1195, 0.9420000000000001, 0.28650000000000003, 192.0, 126.0, 40.0, 14.5, 64.0, 4.0, 120.0, 0.0, 0.0, 0.0, 1.744824404040241E9, 0.0, 2025-04-16 12:26:44.040
70.0, -2084.8589640687665, -4772.723290052806, 21203.982377527045, 7496.238648443062, -7304.550087994348, -5755.820066430577, -32362.241430549795, 22582.4815133192, 2769.6493589460088, 23447.426968506214, -15130.588725875465, -6641.753809661128, -9288.960312480964, 7932.3211827661025, -41672.257086307654, -187500.02235174447, -0.1195, 0.9420000000000001, 0.28650000000000003, 192.0, 0.0, 0.0, 0.0, 0.0, 0.0, 0.0, 0.0, 0.0, 0.0, 1.744824404040346E9, 0.0, 2025-04-16 12:26:44.040
72.0, -2103.4332637111265, -4786.246095448268, 21221.081462035356, 7497.266828688005, -7303.857183916233, -5737.916319121876, -32334.189991258383, 22587.018917443624, 2772.6221409585646, 23413.29585472296, -15128.353551429935, -6661.713917459717, -9290.010844470364, 7921.391179727457, -41667.13853682739, -187500.02235174447, -0.1195, 0.9420000000000001, 0.28650000000000003, 192.0, 0.0, 0.0, 0.0, 0.0, 0.0, 0.0, 0.0, 0.0, 0.0, 1.744824404040445E9, 0.0, 2025-04-16 12:26:44.040
74.0, -2080.6791878556237, -4779.4511651338535, 21221.617903902283, 7505.089939247363, -7286.400471496639, -5741.2243773012615, -32343.622427418522, 22591.913949479338, 2781.8087079296956, 23437.659256179246, -15116.395368146344, -6639.295117771044, -9269.268425615839, 7942.424171259901, -41652.408737231344, -187500.02235174447, -0.1195, 0.9420000000000001, 0.28650000000000003, 192.0, 0.0, 0.0, 0.0, 0.0, 0.0, 0.0, 0.0, 0.0, 0.0, 1.744824404040546E9, 0.0, 2025-04-16 12:26:44.040
76.0, -2122.5887087093247, -4813.71638938384, 21194.348775666807, 7467.315491117894, -7329.360524339739, -5760.715098466289, -32370.668038209446, 22567.125864878402, 2777.1371933385367, 23414.033462289986, -15127.593592118454, -6661.445696526253, -9281.628940299624, 7920.787682627164, -41666.400929260366, -187500.02235174447, -0.1195, 0.9420000000000001, 0.28650000000000003, 192.0, 0.0, 0.0, 0.0, 0.0, 0.0, 0.0, 0.0, 0.0, 0.0, 1.744824404099269E9, 0.0, 2025-04-16 12:26:44.099
78.0, -2082.154402989674, -4784.100327980558, 21208.408022929198, 7493.8470117863435, -7302.359617037728, -5750.94738613932, -32359.916849126443, 22584.671984275818, 2778.5900567281315, 23413.72053786761, -15132.443920665255, -6654.3378417894655, -9289.630864814624, 7920.586516927066, -41678.269705566134, -187500.02235174447, -0.11875, 0.9380000000000001, 0.28325, 192.0, 126.0, 40.0, 14.5, 24.0, 4.0, 96.0, 0.0, 0.0, 0.0, 1.744824404099395E9, 0.0, 2025-04-16 12:26:44.099
80.0, -2114.2962115164055, -4803.680456123407, 21203.44593566012, 7480.234799413061, -7320.6880474910795, -5752.422601273371, -32360.386235760005, 22572.51263529213, 2774.4549840039, 23423.17532577221, -15128.510013641122, -6662.630338982384, -9287.55215258028, 7925.9285838518845, -41669.95485662876, -187500.02235174447, -0.11875, 0.9380000000000001, 0.28325, 192.0, 0.0, 0.0, 0.0, 0.0, 0.0, 0.0, 0.0, 0.0, 0.0, 1.74482440409951E9, 0.0, 2025-04-16 12:26:44.099
82.0, -2097.5994584082914, -4795.320903697122, 21191.487752376528, 7482.380566880771, -7311.97086715351, -5767.800601458622, -32372.813805677153, 22571.19388236927, 2763.5249809652546, 23407.48440116458, -15142.278688225591, -6660.50692325913, -9297.878658518632, 7919.312467493113, -41682.62829573492, -187500.02235174447, -0.11875, 0.9380000000000001, 0.28325, 192.0, 0.0, 0.0, 0.0, 0.0, 0.0, 0.0, 0.0, 0.0, 0.0, 1.744824404099607E9, 0.0, 2025-04-16 12:26:44.099
84.0, -2117.246641784506, -4806.921459069426, 21204.071784504868, 7484.056947714919, -7315.323628821806, -5751.819104173077, -32352.764290900745, 22572.04324865857, 2759.3675564965674, 23435.11115731134, -15142.345743458956, -6671.861609442426, -9296.381091640127, 7912.673999389887, -41678.269705566134, -187500.02235174447, -0.11875, 0.9380000000000001, 0.28325, 192.0, 0.0, 0.0, 0.0, 0.0, 0.0, 0.0, 0.0, 0.0, 0.0, 1.744824404099714E9, 0.0, 2025-04-16 12:26:44.099
86.0, -2088.8599263262663, -4784.6144181030295, 21204.89879904971, 7499.703168833634, -7299.833869914279, -5750.857979161498, -32353.412491489948, 22593.098591935468, 2763.5026292207995, 23406.232703475085, -15131.460443909222, -6657.668251713307, -9290.07789970373, 7925.526252451689, -41670.75951942915, -187500.02235174447, -0.11875, 0.9380000000000001, 0.28325, 192.0, 0.0, 0.0, 0.0, 0.0, 0.0, 0.0, 0.0, 0.0, 0.0, 1.744824404099801E9, 0.0, 2025-04-16 12:26:44.099
88.0, -2114.7208946610567, -4804.66393287944, 21206.53047639495, 7481.128869191274, -7310.450948530549, -5747.840493660033, -32353.859526379056, 22582.794437741573, 2758.2946727627127, 23446.063512094443, -15141.496377169655, -6671.839257697971, -9294.682359061522, 7917.099644792038, -41678.96260964425, -187500.02235174447, -0.120375, 0.9400000000000001, 0.283625, 192.0, 126.0, 24.0, 14.5, 56.0, 4.0, 112.0, 0.0, 0.0, 0.0, 1.744824404099895E9, 0.0, 2025-04-16 12:26:44.099
90.0, -2079.6510076106797, -4773.37149064201, 21214.890028821235, 7507.302761948438, -7293.575381466792, -5739.682106933846, -32344.896476852475, 22599.200618171766, 2774.9243706374614, 23400.53300863898, -15119.837536792462, -6649.532216731574, -9279.371414109637, 7934.735171167275, -41663.85283039246, -187500.02235174447, -0.120375, 0.9400000000000001, 0.283625, 192.0, 0.0, 0.0, 0.0, 0.0, 0.0, 0.0, 0.0, 0.0, 0.0, 1.744824404159816E9, 0.0, 2025-04-16 12:26:44.159
92.0, -2113.4915487160147, -4801.959371800348, 21203.758860082493, 7479.676005801679, -7313.356675309739, -5749.271005305172, -32344.62825591901, 22581.52038830762, 2763.346167009612, 23455.093616854385, -15130.208746219725, -6654.471952256197, -9283.707652533967, 7927.180281541381, -41671.787699674096, -187500.02235174447, -0.120375, 0.9400000000000001, 0.283625, 192.0, 0.0, 0.0, 0.0, 0.0, 0.0, 0.0, 0.0, 0.0, 0.0, 1.744824404159944E9, 0.0, 2025-04-16 12:26:44.159
94.0, -2089.306961215372, -4776.880714521493, 21204.787040327436, 7496.305703676428, -7309.311009563328, -5744.7559529252, -32347.824555376123, 22589.2317401447, 2756.797105884207, 23386.831389287876, -15137.651877123342, -6662.920911660303, -9296.984588740419, 7918.932487837374, -41680.19195558929, -187500.02235174447, -0.120375, 0.9400000000000001, 0.283625, 192.0, 0.0, 0.0, 0.0, 0.0, 0.0, 0.0, 0.0, 0.0, 0.0, 1.744824404160055E9, 0.0, 2025-04-16 12:26:44.160
96.0, -2106.4283974681375, -4797.600781631563, 21202.708328093093, 7483.028767469975, -7315.189518355074, -5754.389554785437, -32354.239506034795, 22573.496112048164, 2773.9855973703384, 23474.338468830403, -15121.022179248594, -6641.865568383404, -9275.862190230155, 7934.757522911731, -41669.82074616203, -187500.02235174447, -0.120375, 0.9400000000000001, 0.283625, 192.0, 0.0, 0.0, 0.0, 0.0, 0.0, 0.0, 0.0, 0.0, 0.0, 1.744824404160161E9, 0.0, 2025-04-16 12:26:44.160
98.0, -2093.3973304506935, -4781.731043068296, 21203.84826706031, 7490.404843140226, -7314.362503810228, -5755.216569330284, -32352.004331589265, 22578.726420250707, 2762.0497658312042, 23392.665194590714, -15134.18735673277, -6662.116248859912, -9297.498678862892, 7914.171566268393, -41684.19291784679, -187500.02235174447, -0.1211875, 0.9380000000000001, 0.2818125, 192.0, 126.0, 24.0, 14.5, 32.0, 4.0, 96.0, 0.0, 0.0, 0.0, 1.744824404160257E9, 0.0, 2025-04-16 12:26:44.160
100.0, -2118.1407115627185, -4811.749435871772, 21188.24674943051, 7471.137639419751, -7320.732750979991, -5766.146572368929, -32358.240468292293, 22567.03645790058, 2758.5628936961766, 23472.617384507346, -15134.656743366331, -6651.923853388293, -9292.581295082724, 7917.1219965364935, -41683.589420746495, -187500.02235174447, -0.1211875, 0.9380000000000001, 0.2818125, 192.0, 0.0, 0.0, 0.0, 0.0, 0.0, 0.0, 0.0, 0.0, 0.0, 1.74482440416036E9, 0.0, 2025-04-16 12:26:44.160
102.0, -2101.5557171768805, -4784.569714614119, 21203.691804849124, 7495.992779254053, -7316.396512555661, -5745.180636069851, -32345.8352501196, 22588.00239419966, 2758.965225096372, 23385.177360198184, -15135.75197884464, -6665.759583206128, -9301.499641120392, 7910.997618555739, -41678.89555441088, -187500.02235174447, -0.1211875, 0.9380000000000001, 0.2818125, 192.0, 0.0, 0.0, 0.0, 0.0, 0.0, 0.0, 0.0, 0.0, 0.0, 1.744824404160459E9, 0.0, 2025-04-16 12:26:44.160
104.0, -2104.193223022607, -4797.109043253547, 21206.038738016934, 7488.549648350436, -7310.562707252826, -5746.052354103608, -32348.15983154295, 22584.001431942157, 2770.1410973240254, 23470.672782739734, -15127.66064735182, -6639.2504142821335, -9284.735832778912, 7930.175415298393, -41669.79839441757, -187500.02235174447, -0.1211875, 0.9380000000000001, 0.2818125, 192.0, 0.0, 0.0, 0.0, 0.0, 0.0, 0.0, 0.0, 0.0, 0.0, 1.744824404160558E9, 0.0, 2025-04-16 12:26:44.160
106.0, -2102.1145107882635, -4784.6144181030295, 21207.491601406527, 7499.39024441126, -7309.109843863231, -5738.676278433357, -32342.661302406945, 22590.572844812017, 2771.3033880357016, 23394.743906825057, -15122.18446996027, -6650.470989998697, -9287.485097346915, 7922.151139038938, -41664.61278970394, -187500.02235174447, -0.1211875, 0.9380000000000001, 0.2818125, 192.0, 0.0, 0.0, 0.0, 0.0, 0.0, 0.0, 0.0, 0.0, 0.0, 1.744824404220016E9, 0.0, 2025-04-16 12:26:44.220
108.0, -2108.7306271470343, -4800.7523775997615, 21196.114563478775, 7483.967540737098, -7300.30325654784, -5752.355546040005, -32346.863430364545, 22578.2793853616, 2759.6804809189416, 23468.705829227667, -15129.80641481953, -6641.351478260932, -9285.339329879205, 7926.554432696633, -41671.698292696274, -187500.02235174447, -0.12159375, 0.935, 0.28090625, 192.0, 126.0, 24.0, 14.5, 16.0, 4.0, 96.0, 0.0, 0.0, 0.0, 1.744824404220125E9, 0.0, 2025-04-16 12:26:44.220
110.0, -2103.2320980110285, -4787.162516970935, 21203.892970549223, 7494.651674586735, -7312.373198553705, -5738.743333666723, -32341.431956461904, 22580.22398712921, 2754.4725244608553, 23387.680755577177, -15137.584821889976, -6667.1900948512675, -9295.755242795378, 7914.596249413044, -41675.408682275855, -187500.02235174447, -0.12159375, 0.935, 0.28090625, 192.0, 0.0, 0.0, 0.0, 0.0, 0.0, 0.0, 0.0, 0.0, 0.0, 1.744824404220224E9, 0.0, 2025-04-16 12:26:44.220
112.0, -2095.9454293185986, -4791.699921095362, 21200.093173991823, 7493.735253064067, -7300.705587948035, -5749.829798916555, -32346.617561175535, 22578.592309783973, 2768.1294403230477, 23457.619363977836, -15128.018275263104, -6640.122132315891, -9284.69112929, 7931.047133332149, -41672.882935152404, -187500.02235174447, -0.12159375, 0.935, 0.28090625, 192.0, 0.0, 0.0, 0.0, 0.0, 0.0, 0.0, 0.0, 0.0, 0.0, 1.744824404220333E9, 0.0, 2025-04-16 12:26:44.220
114.0, -2110.5634701923696, -4794.918572296926, 21200.38374666974, 7486.985026238564, -7318.564631767826, -5746.789961670633, -32349.433880976903, 22572.780856225596, 2757.534713451232, 23394.810962058422, -15134.008542777126, -6663.703222716239, -9294.972931739441, 7915.04328430215, -41674.89459215338, -187500.02235174447, -0.12159375, 0.935, 0.28090625, 192.0, 0.0, 0.0, 0.0, 0.0, 0.0, 0.0, 0.0, 0.0, 0.0, 1.744824404220435E9, 0.0, 2025-04-16 12:26:44.220
116.0, -2101.8462898547996, -4800.797081088672, 21196.159266967687, 7483.140526192252, -7310.562707252826, -5757.027060631163, -32355.826479891122, 22576.781818483094, 2761.3345100086344, 23449.706846440655, -15136.958973045228, -6651.901501643837, -9291.061376459764, 7918.776025626186, -41683.20944109076, -187500.02235174447, -0.12159375, 0.935, 0.28090625, 192.0, 0.0, 0.0, 0.0, 0.0, 0.0, 0.0, 0.0, 0.0, 0.0, 1.74482440422053E9, 0.0, 2025-04-16 12:26:44.220
118.0, -2122.320487775861, -4805.781520102206, 21193.38765065523, 7474.7139185326005, -7332.713286008035, -5757.183522842351, -32352.40666298946, 22568.019934656615, 2749.666899402964, 23394.408630658225, -15139.171795746302, -6676.689586244773, -9297.766899796356, 7906.929601064873, -41683.29884806858, -187500.02235174447, -0.118796875, 0.9355, 0.28445312500000003, 192.0, 126.0, 48.0, 14.5, 32.0, 4.5, 0.0, 0.0, 0.0, 0.0, 1.744824404220629E9, 0.0, 2025-04-16 12:26:44.220
120.0, -2093.3973304506935, -4791.811679817639, 21197.567426868372, 7484.548686092936, -7309.758044452435, -5760.491581021736, -32346.595209431078, 22574.099609148456, 2750.4939139478106, 23430.17142178672, -15139.23885097967, -6661.155123848334, -9298.16923119655, 7909.4329964438675, -41689.602040004975, -187500.02235174447, -0.118796875, 0.9355, 0.28445312500000003, 192.0, 0.0, 0.0, 0.0, 0.0, 0.0, 0.0, 0.0, 0.0, 0.0, 1.744824404279452E9, 0.0, 2025-04-16 12:26:44.279
122.0, -2124.890938388221, -4812.464691694342, 21186.972699996557, 7468.053098684919, -7330.701629007057, -5762.793810700633, -32362.375541016525, 22559.123940363403, 2756.931216350939, 23399.90715979423, -15136.601345133942, -6674.968501921714, -9292.424832871537, 7903.1521562519265, -41680.527231756125, -187500.02235174447, -0.118796875, 0.9355, 0.28445312500000003, 192.0, 0.0, 0.0, 0.0, 0.0, 0.0, 0.0, 0.0, 0.0, 0.0, 1.744824404279587E9, 0.0, 2025-04-16 12:26:44.279
124.0, -2089.1952024930956, -4787.095461737569, 21197.72388907956, 7492.394148396748, -7302.6054862267365, -5754.031926874152, -32352.40666298946, 22575.91010044934, 2752.7290883933415, 23415.888657079777, -15139.775292846596, -6661.468048270709, -9293.073033460741, 7916.093816291549, -41690.11613012745, -187500.02235174447, -0.118796875, 0.9355, 0.28445312500000003, 192.0, 0.0, 0.0, 0.0, 0.0, 0.0, 0.0, 0.0, 0.0, 0.0, 1.744824404279689E9, 0.0, 2025-04-16 12:26:44.279
126.0, -2123.862758143277, -4811.816491105138, 21193.789982055427, 7480.055985457419, -7323.616126014725, -5755.797714686121, -32345.67878790841, 22563.70604797674, 2749.443381958411, 23411.48536342208, -15136.310772456023, -6671.816905953516, -9291.575466582235, 7912.696351134343, -41678.225002077226, -187500.02235174447, -0.118796875, 0.9355, 0.28445312500000003, 192.0, 0.0, 0.0, 0.0, 0.0, 0.0, 0.0, 0.0, 0.0, 0.0, 1.744824404279787E9, 0.0, 2025-04-16 12:26:44.279
128.0, -2093.6879031286126, -4790.872906550516, 21198.975586769055, 7498.809099055422, -7309.713340963524, -5748.175769826862, -32350.193840288382, 22583.08501041949, 2744.503646433788, 23408.73609885408, -15136.020199778104, -6661.848027926449, -9293.989454983408, 7922.262897761214, -41679.14142359989, -187500.02235174447, -0.118796875, 0.9355, 0.28445312500000003, 192.0, 0.0, 0.0, 0.0, 0.0, 0.0, 0.0, 0.0, 0.0, 0.0, 1.744824404279895E9, 0.0, 2025-04-16 12:26:44.279
130.0, -2123.482778487537, -4813.135244028002, 21200.987243770032, 7481.95588373612, -7327.058294660842, -5752.132028595452, -32341.253142506263, 22569.13752187938, 2741.1508847654923, 23422.013035060532, -15139.015333535115, -6673.2250658542, -9291.59781832669, 7916.89847909194, -41678.269705566134, -187500.02235174447, -0.12, 0.934, 0.28, 192.0, 126.0, 32.0, 14.5, 24.0, 4.0, 96.0, 0.0, 0.0, 0.0, 1.744824404279991E9, 0.0, 2025-04-16 12:26:44.279
132.0, -2086.6918071141013, -4788.794194316172, 21207.871581062267, 7504.218221213606, -7305.667675217113, -5748.533397738147, -32340.40377621696, 22585.81192324304, 2748.8622366025734, 23404.26574996302, -15127.906516540828, -6653.443772011254, -9286.859248502165, 7926.777950141186, -41672.2347345632, -187500.02235174447, -0.12, 0.934, 0.28, 192.0, 0.0, 0.0, 0.0, 0.0, 0.0, 0.0, 0.0, 0.0, 0.0, 1.744824404280091E9, 0.0, 2025-04-16 12:26:44.280
134.0, -2124.533310476936, -4818.47731095282, 21197.455668146096, 7476.792630766944, -7328.68997200608, -5754.881293163454, -32347.10929955355, 22567.28232708959, 2741.4414574434113, 23433.479479966103, -15138.836519579474, -6670.632263497385, -9299.040949230308, 7910.125900521983, -41683.947048657785, -187500.02235174447, -0.12, 0.934, 0.28, 192.0, 0.0, 0.0, 0.0, 0.0, 0.0, 0.0, 0.0, 0.0, 0.0, 1.744824404280188E9, 0.0, 2025-04-16 12:26:44.280
136.0, -2086.356530947272, -4784.6144181030295, 21210.15145899671, 7509.0461980159525, -7306.472338017505, -5744.130104080451, -32344.49414545228, 22586.013088943135, 2742.849617344096, 23397.42611615969, -15126.18543221777, -6659.165818591812, -9291.26254215986, 7923.939278595362, -41674.805185175566, -187500.02235174447, -0.12, 0.934, 0.28, 192.0, 0.0, 0.0, 0.0, 0.0, 0.0, 0.0, 0.0, 0.0, 0.0, 1.744824404339156E9, 0.0, 2025-04-16 12:26:44.339
138.0, -2121.806397653389, -4815.996267318281, 21201.63544435924, 7488.43788962816, -7327.527681294404, -5751.215607072783, -32352.764290900745, 22568.42226605681, 2744.928329578439, 23450.31034354095, -15123.749092072141, -6657.55649299103, -9283.55119032278, 7919.513633193212, -41675.989827631696, -187500.02235174447, -0.12, 0.934, 0.28, 192.0, 0.0, 0.0, 0.0, 0.0, 0.0, 0.0, 0.0, 0.0, 0.0, 1.744824404339304E9, 0.0, 2025-04-16 12:26:44.339
140.0, -2097.733568875023, -4793.018674018225, 21204.876447305258, 7502.787709568466, -7319.525756779404, -5748.712211693789, -32357.748729914278, 22572.870263203415, 2735.741762607308, 23389.20067420014, -15131.32633344249, -6662.540932004564, -9298.929190508032, 7912.741054623253, -41684.32702831352, -187500.02235174447, -0.124, 0.9380000000000001, 0.278, 192.0, 126.0, 16.0, 14.5, 40.0, 4.0, 88.0, 0.0, 0.0, 0.0, 1.744824404339404E9, 0.0, 2025-04-16 12:26:44.339
142.0, -2126.343801777816, -4818.387903974999, 21202.373051926264, 7479.497191846037, -7320.218660857518, -5758.412868787393, -32354.820651390633, 22565.4271322998, 2742.9166725774617, 23454.847747665375, -15122.98913276066, -6655.254263312133, -9285.227571156927, 7919.625391915488, -41676.57097298753, -187500.02235174447, -0.124, 0.9380000000000001, 0.278, 192.0, 0.0, 0.0, 0.0, 0.0, 0.0, 0.0, 0.0, 0.0, 0.0, 1.744824404339519E9, 0.0, 2025-04-16 12:26:44.339
144.0, -2138.0114123834865, -4828.759113402261, 21186.592720340817, 7476.747927278034, -7324.376085326206, -5771.131011382462, -32367.471738752338, 22561.761446209126, 2719.290878688202, 23371.14046468025, -15143.865662081918, -6683.752737492649, -9304.74064406641, 7897.1618887379045, -41690.49610978319, -187500.02235174447, -0.124, 0.9380000000000001, 0.278, 192.0, 0.0, 0.0, 0.0, 0.0, 0.0, 0.0, 0.0, 0.0, 0.0, 1.74482440433962E9, 0.0, 2025-04-16 12:26:44.339
146.0, -2156.541008536936, -4852.809590436172, 21186.81623778537, 7469.282444629961, -7321.895041691666, -5764.783115957155, -32357.033474091706, 22561.984963653682, 2721.4589979003667, 23445.057683593954, -15146.503167927644, -6679.058871157035, -9294.682359061522, 7913.3669034680015, -41689.13265337142, -187500.02235174447, -0.124, 0.9380000000000001, 0.278, 192.0, 0.0, 0.0, 0.0, 0.0, 0.0, 0.0, 0.0, 0.0, 0.0, 1.744824404339722E9, 0.0, 2025-04-16 12:26:44.339
148.0, -2181.57496232688, -4872.188552878923, 21177.94259523661, 7464.946206205632, -7334.702591264558, -5776.696595751834, -32361.727340427322, 22555.99469613966, 2702.839994769096, 23357.75176975152, -15164.406915236345, -6703.779900524605, -9309.903897035587, 7892.84800205803, -41698.38627557591, -187500.02235174447, -0.124, 0.9380000000000001, 0.278, 192.0, 0.0, 0.0, 0.0, 0.0, 0.0, 0.0, 0.0, 0.0, 0.0, 1.744824404339822E9, 0.0, 2025-04-16 12:26:44.339
150.0, -2192.9967037435417, -4889.958189720892, 21188.157342452687, 7466.913159717698, -7319.011666656932, -5764.827819446065, -32348.852735621065, 22560.777969453095, 2692.737006275297, 23425.96929382912, -15164.161046047337, -6695.599162053963, -9302.37135915415, 7899.441766672346, -41694.00533366267, -187500.02235174447, -0.11800000000000001, 0.934, 0.28, 192.0, 126.0, 40.0, 14.5, 24.0, 4.0, 96.0, 0.0, 0.0, 0.0, 1.744824404400903E9, 0.0, 2025-04-16 12:26:44.400
152.0, -2204.7090178381227, -4898.2059834249, 21181.451819116097, 7474.691566788146, -7325.940707438077, -5762.212665344795, -32361.794395660687, 22560.42034154181, 2694.4357388539006, 23345.882993445754, -15166.57503444851, -6712.072397717524, -9306.260562689373, 7894.9937695257395, -41692.843042951, -187500.02235174447, -0.11800000000000001, 0.934, 0.28, 192.0, 0.0, 0.0, 0.0, 0.0, 0.0, 0.0, 0.0, 0.0, 0.0, 1.744824404401051E9, 0.0, 2025-04-16 12:26:44.401
154.0, -2223.9538698141423, -4917.003800511814, 21176.75795278048, 7472.4787440870705, -7322.54324228087, -5765.945406668831, -32359.760386915255, 22558.162815351825, 2691.3735498635233, 23429.277352008507, -15169.369002505424, -6699.443662100275, -9304.360664410671, 7904.001522541228, -41699.63797326541, -187500.02235174447, -0.11800000000000001, 0.934, 0.28, 192.0, 0.0, 0.0, 0.0, 0.0, 0.0, 0.0, 0.0, 0.0, 0.0, 1.744824404401141E9, 0.0, 2025-04-16 12:26:44.401
156.0, -2233.4533612076475, -4909.963001008392, 21184.2010836841, 7490.829526284877, -7326.231280115996, -5749.807447172099, -32355.424148490925, 22567.41643755632, 2674.4309275664004, 23354.689580761147, -15171.872397884417, -6709.61370582744, -9310.015655757863, 7904.426205685879, -41689.400874304876, -187500.02235174447, -0.11800000000000001, 0.934, 0.28, 192.0, 0.0, 0.0, 0.0, 0.0, 0.0, 0.0, 0.0, 0.0, 0.0, 1.744824404401235E9, 0.0, 2025-04-16 12:26:44.401
158.0, -2229.8770820947984, -4924.804559326716, 21176.51208359147, 7477.95492147862, -7319.458701546037, -5765.967758413286, -32356.675846180424, 22561.984963653682, 2671.0111106647387, 23427.600971174357, -15176.096877586471, -6692.358159107943, -9305.768824311355, 7911.9587435673175, -41698.073351153536, -187500.02235174447, -0.11800000000000001, 0.934, 0.28, 192.0, 0.0, 0.0, 0.0, 0.0, 0.0, 0.0, 0.0, 0.0, 0.0, 1.744824404401332E9, 0.0, 2025-04-16 12:26:44.401
160.0, -2239.086000810385, -4921.250631958322, 21177.204987669586, 7472.568151064891, -7340.178768656107, -5768.717022981289, -32366.935296885407, 22553.491300760663, 2669.915875186429, 23358.534080807458, -15173.235854296192, -6713.2123366847445, -9310.730911580433, 7894.434975914357, -41698.274516853635, -187500.02235174447, -0.11800000000000001, 0.936, 0.28600000000000003, 192.0, 126.0, 40.0, 14.5, 32.0, 4.0, 120.0, 0.0, 0.0, 0.0, 1.74482440440142E9, 0.0, 2025-04-16 12:26:44.401
162.0, -2214.34261969836, -4908.130157963056, 21186.883293018735, 7478.960749979109, -7315.234221843984, -5764.157267112407, -32348.15983154295, 22565.2259665997, 2690.6135905520428, 23422.34831122736, -15171.224197295214, -6692.984007952691, -9304.986513255419, 7905.163813252904, -41700.219118621244, -187500.02235174447, -0.11800000000000001, 0.936, 0.28600000000000003, 192.0, 0.0, 0.0, 0.0, 0.0, 0.0, 0.0, 0.0, 0.0, 0.0, 1.744824404401532E9, 0.0, 2025-04-16 12:26:44.401
164.0, -2224.400904703248, -4903.726864305361, 21184.558711595382, 7472.165819664696, -7333.8308732308005, -5761.519761266681, -32358.21811654784, 22557.492263018165, 2670.7652414757304, 23366.558357066915, -15167.692621671275, -6708.697284304772, -9301.052606231286, 7900.112319006004, -41690.60786850547, -187500.02235174447, -0.11800000000000001, 0.936, 0.28600000000000003, 192.0, 0.0, 0.0, 0.0, 0.0, 0.0, 0.0, 0.0, 0.0, 0.0, 1.74482440440164E9, 0.0, 2025-04-16 12:26:44.401
166.0, -2211.861576063821, -4898.787128780738, 21165.67148753065, 7465.594406794836, -7325.717189993524, -5779.803488231121, -32374.06550336665, 22544.751768678638, 2677.761337490241, 23413.988758801075, -15175.091049085982, -6694.168650408823, -9306.394673156105, 7903.308618463114, -41704.80122623459, -187500.02235174447, -0.11800000000000001, 0.936, 0.28600000000000003, 192.0, 0.0, 0.0, 0.0, 0.0, 0.0, 0.0, 0.0, 0.0, 0.0, 1.744824404459807E9, 0.0, 2025-04-16 12:26:44.459
168.0, -2214.4990819095474, -4890.2711141432665, 21170.633574799725, 7456.653709012713, -7344.917338480633, -5774.483773050759, -32371.15977658746, 22538.02389359759, 2663.81384895013, 23371.319278635896, -15178.71203168774, -6714.3299239075095, -9321.616211130167, 7883.102641475516, -41712.758447260676, -187500.02235174447, -0.11800000000000001, 0.936, 0.28600000000000003, 192.0, 0.0, 0.0, 0.0, 0.0, 0.0, 0.0, 0.0, 0.0, 0.0, 1.744824404459933E9, 0.0, 2025-04-16 12:26:44.459
170.0, -2184.2571716615166, -4871.003910422792, 21170.208891655075, 7467.091973673341, -7324.219623115018, -5777.47890680777, -32377.060637123664, 22551.189071081768, 2680.8458782250736, 23411.06068027743, -15172.744115918174, -6689.9665224512255, -9310.328580180238, 7901.028740528673, -41710.18799664832, -187500.02235174447, -0.114, 0.934, 0.28, 192.0, 126.0, 56.0, 14.5, 24.0, 4.0, 96.0, 0.0, 0.0, 0.0, 1.744824404460036E9, 0.0, 2025-04-16 12:26:44.460
172.0, -2189.4874798640585, -4867.092355143113, 21176.489731847018, 7463.448639327126, -7342.5257018239145, -5768.895836936932, -32370.51157599826, 22546.674018701797, 2674.140354888482, 23389.24537768905, -15173.235854296192, -6709.881926760903, -9314.240135459917, 7887.930618277863, -41712.043191438104, -187500.02235174447, -0.114, 0.934, 0.28, 192.0, 0.0, 0.0, 0.0, 0.0, 0.0, 0.0, 0.0, 0.0, 0.0, 1.744824404460149E9, 0.0, 2025-04-16 12:26:44.460
174.0, -2145.4321915426485, -4835.799912905683, 21191.353641909798, 7487.253247172028, -7310.7638729529235, -5758.926958909865, -32357.391102002992, 22565.270670088612, 2704.739893047797, 23419.68845363718, -15148.313659228525, -6672.398051309354, -9295.822298028743, 7915.311505235613, -41692.4407115508, -187500.02235174447, -0.114, 0.934, 0.28, 192.0, 0.0, 0.0, 0.0, 0.0, 0.0, 0.0, 0.0, 0.0, 0.0, 1.744824404460243E9, 0.0, 2025-04-16 12:26:44.460
176.0, -2162.307758606405, -4840.940814130404, 21198.34973792431, 7483.520505847991, -7324.6219545152135, -5752.646118717924, -32355.848831635576, 22561.113245619923, 2696.0897679435934, 23421.141317026773, -15149.341839473467, -6688.983045695191, -9295.799946284289, 7903.42037718539, -41694.25120285168, -187500.02235174447, -0.114, 0.934, 0.28, 192.0, 0.0, 0.0, 0.0, 0.0, 0.0, 0.0, 0.0, 0.0, 0.0, 1.744824404460333E9, 0.0, 2025-04-16 12:26:44.460
178.0, -2107.545984690903, -4793.733929840795, 21215.29236022143, 7516.064645774919, -7292.949532622044, -5736.195234798817, -32345.4329187194, 22588.00239419966, 2707.690323315898, 23426.237514762583, -15128.241792707659, -6656.8635889129155, -9286.389861868603, 7929.907194364929, -41681.421301534334, -187500.02235174447, -0.114, 0.934, 0.28, 192.0, 0.0, 0.0, 0.0, 0.0, 0.0, 0.0, 0.0, 0.0, 0.0, 1.744824404460427E9, 0.0, 2025-04-16 12:26:44.460
180.0, -2141.5653397518804, -4819.997229575781, 21203.781211826947, 7492.818831541399, -7314.250745087951, -5752.333194295549, -32341.20843901735, 22564.220138099212, 2713.568832107643, 23449.50568074056, -15124.576106616987, -6660.909254659326, -9278.767917009345, 7925.95093559634, -41674.42520551982, -187500.02235174447, -0.124, 0.936, 0.28200000000000003, 192.0, 126.0, 16.0, 14.5, 32.0, 4.0, 104.0, 0.0, 0.0, 0.0, 1.744824404519985E9, 0.0, 2025-04-16 12:26:44.519
182.0, -2096.6383333967133, -4787.989531515781, 21213.9065520652, 7512.622477128802, -7304.885364161178, -5750.053316361108, -32352.45136647837, 22571.17153062481, 2718.3074019321684, 23416.045119290964, -15122.631504849376, -6652.661460955318, -9283.685300789512, 7928.476682719789, -41675.565144487045, -187500.02235174447, -0.124, 0.936, 0.28200000000000003, 192.0, 0.0, 0.0, 0.0, 0.0, 0.0, 0.0, 0.0, 0.0, 0.0, 1.744824404520097E9, 0.0, 2025-04-16 12:26:44.520
184.0, -2138.793723439422, -4818.298496997178, 21199.243807702518, 7482.849953514333, -7326.141873138175, -5763.218493845284, -32367.87407015253, 22548.953896636238, 2714.0605704856603, 23452.74668368658, -15127.168908973803, -6661.333937803976, -9285.853420001677, 7915.333856980069, -41682.471833523734, -187500.02235174447, -0.124, 0.936, 0.28200000000000003, 192.0, 0.0, 0.0, 0.0, 0.0, 0.0, 0.0, 0.0, 0.0, 0.0, 1.744824404520219E9, 0.0, 2025-04-16 12:26:44.520
186.0, -2101.287496243417, -4787.341330926577, 21209.14563049622, 7506.7216165926, -7310.205079341541, -5754.143685596429, -32351.44553797788, 22565.538891022075, 2708.003247738272, 23399.951863283142, -15125.447824650744, -6659.456391269731, -9293.229495671929, 7919.08895004856, -41682.71770271274, -187500.02235174447, -0.124, 0.936, 0.28200000000000003, 192.0, 0.0, 0.0, 0.0, 0.0, 0.0, 0.0, 0.0, 0.0, 0.0, 1.744824404520326E9, 0.0, 2025-04-16 12:26:44.520
188.0, -2126.790836666922, -4812.911726583448, 21202.462458904083, 7486.873267516287, -7319.190480612574, -5757.831723431555, -32348.204535031862, 22553.379542038387, 2721.8613293005624, 23462.69320996919, -15121.536269371067, -6658.137638346868, -9278.186771653507, 7919.625391915488, -41675.92277239833, -187500.02235174447, -0.124, 0.936, 0.28200000000000003, 192.0, 0.0, 0.0, 0.0, 0.0, 0.0, 0.0, 0.0, 0.0, 0.0, 1.744824404520427E9, 0.0, 2025-04-16 12:26:44.520
190.0, -2099.991095065009, -4788.61538036053, 21207.938636295636, 7503.502965391036, -7315.234221843984, -5751.930862895354, -32348.763328643243, 22560.66621073082, 2703.9128785029507, 23393.96159576912, -15126.61011536242, -6668.061812885024, -9295.93405675102, 7915.289153491159, -41684.32702831352, -187500.02235174447, -0.125, 0.932, 0.28, 192.0, 126.0, 8.0, 14.5, 0.0, 4.0, 88.0, 0.0, 0.0, 0.0, 1.744824404520525E9, 0.0, 2025-04-16 12:26:44.520
192.0, -2113.9832870940313, -4802.942848556381, 21209.0562235184, 7490.516601862503, -7318.966963168021, -5749.785095427644, -32340.53788668369, 22554.69829496125, 2718.0838844876153, 23472.863253696356, -15113.355530900424, -6651.163894076812, -9279.729042020923, 7927.582612941577, -41672.65941770785, -187500.02235174447, -0.125, 0.932, 0.28, 192.0, 0.0, 0.0, 0.0, 0.0, 0.0, 0.0, 0.0, 0.0, 0.0, 1.744824404520633E9, 0.0, 2025-04-16 12:26:44.520
194.0, -2100.5051851874814, -4790.649389105963, 21207.424546173163, 7498.384415910771, -7319.8610329462335, -5752.132028595452, -32347.846907120576, 22557.35815255143, 2708.2044134383696, 23396.01795625901, -15123.190298460759, -6666.854818684437, -9293.83299277222, 7916.6526099029315, -41679.744920700185, -187500.02235174447, -0.125, 0.932, 0.28, 192.0, 0.0, 0.0, 0.0, 0.0, 0.0, 0.0, 0.0, 0.0, 0.0, 1.74482440452073E9, 0.0, 2025-04-16 12:26:44.520
196.0, -2115.972592350554, -4808.642543392485, 21199.71319433608, 7483.699319803634, -7319.59281201277, -5755.1942175858285, -32349.947971099376, 22547.903364646838, 2707.8467855270846, 23469.510492028057, -15133.494452654655, -6662.831504682482, -9289.31794039225, 7914.797415113141, -41690.00437140517, -187500.02235174447, -0.125, 0.932, 0.28, 192.0, 0.0, 0.0, 0.0, 0.0, 0.0, 0.0, 0.0, 0.0, 0.0, 1.744824404579462E9, 0.0, 2025-04-16 12:26:44.579
198.0, -2096.481871185526, -4776.590141843574, 21204.92115079417, 7500.373721167293, -7318.430521301094, -5745.381801769949, -32350.484412966303, 22554.407722283333, 2701.767111035241, 23389.804171300435, -15125.112548483916, -6662.719745960206, -9292.894219505099, 7918.2395837592585, -41684.05880738006, -187500.02235174447, -0.125, 0.932, 0.28, 192.0, 0.0, 0.0, 0.0, 0.0, 0.0, 0.0, 0.0, 0.0, 0.0, 1.744824404579563E9, 0.0, 2025-04-16 12:26:44.579
200.0, -2109.89291785871, -4802.719331111829, 21208.452726418105, 7497.53504962147, -7304.997122883454, -5739.033906344642, -32346.706968153358, 22563.638992743374, 2707.042122726694, 23475.478407797626, -15121.759786815619, -6648.79460916455, -9285.987530468408, 7925.347438496046, -41685.33285681401, -187500.02235174447, -0.1245, 0.933, 0.278, 192.0, 126.0, 16.0, 14.5, 24.0, 4.0, 80.0, 0.0, 0.0, 0.0, 1.744824404579664E9, 0.0, 2025-04-16 12:26:44.579
202.0, -2111.9492783485985, -4796.013807775236, 21199.444973402617, 7492.304741418928, -7321.045675402364, -5745.717077936778, -32359.514517726246, 22561.672039231307, 2693.29579988668, 23379.365906639803, -15133.136824743371, -6676.443717055764, -9297.610437585168, 7907.443691187345, -41688.149176615385, -187500.02235174447, -0.1245, 0.933, 0.278, 192.0, 0.0, 0.0, 0.0, 0.0, 0.0, 0.0, 0.0, 0.0, 0.0, 1.744824404579761E9, 0.0, 2025-04-16 12:26:44.579
204.0, -2104.617906167258, -4807.413197447443, 21200.71902283657, 7484.302816903927, -7305.958247895032, -5750.053316361108, -32348.942142598888, 22564.13073112139, 2711.1324919620147, 23453.081959853407, -15123.860850794417, -6660.886902914871, -9282.634768800113, 7918.664266903909, -41688.283287082115, -187500.02235174447, -0.1245, 0.933, 0.278, 192.0, 0.0, 0.0, 0.0, 0.0, 0.0, 0.0, 0.0, 0.0, 0.0, 1.74482440457986E9, 0.0, 2025-04-16 12:26:44.579
206.0, -2115.0114673389753, -4807.614363147541, 21200.96489202558, 7487.208543683118, -7325.180748126597, -5749.315708794083, -32360.296828782182, 22559.79449269706, 2701.0742069571265, 23372.34745888084, -15127.571240373998, -6687.172554394312, -9298.16923119655, 7903.196859740837, -41691.81486270605, -187500.02235174447, -0.1245, 0.933, 0.278, 192.0, 0.0, 0.0, 0.0, 0.0, 0.0, 0.0, 0.0, 0.0, 0.0, 1.744824404579965E9, 0.0, 2025-04-16 12:26:44.579
208.0, -2099.991095065009, -4801.557040400153, 21206.1057932503, 7493.57879085288, -7311.456777031038, -5752.020269873175, -32359.89449738199, 22557.827539184993, 2701.4318348684114, 23447.426968506214, -15131.393388675857, -6671.101650130946, -9298.213934685462, 7908.896554576941, -41698.16275813136, -187500.02235174447, -0.1245, 0.933, 0.278, 192.0, 0.0, 0.0, 0.0, 0.0, 0.0, 0.0, 0.0, 0.0, 0.0, 1.74482440458007E9, 0.0, 2025-04-16 12:26:44.580
210.0, -2098.6499903976905, -4784.815583803128, 21218.86863933428, 7500.15020372274, -7324.979582426498, -5742.94546162432, -32364.11897708404, 22559.70508571924, 2708.9867244943052, 23389.223025944597, -15114.920153012295, -6674.342653076966, -9290.36847238165, 7914.216269757304, -41681.354246300965, -187500.02235174447, -0.12225, 0.9345000000000001, 0.279, 192.0, 126.0, 32.0, 14.5, 32.0, 4.0, 96.0, 0.0, 0.0, 0.0, 1.744824404640215E9, 0.0, 2025-04-16 12:26:44.640
212.0, -2076.253542453473, -4773.662063319929, 21220.142688768232, 7501.692474090157, -7313.714303221024, -5747.684031448845, -32357.92754386992, 22555.79353043956, 2713.4347216409114, 23458.222861078128, -15110.606266332421, -6652.594405721951, -9284.668777545545, 7926.66619141891, -41685.73518821421, -187500.02235174447, -0.12225, 0.9345000000000001, 0.279, 192.0, 0.0, 0.0, 0.0, 0.0, 0.0, 0.0, 0.0, 0.0, 0.0, 1.744824404640352E9, 0.0, 2025-04-16 12:26:44.640
214.0, -2087.451766425582, -4770.532819096186, 21224.993017315035, 7504.5311456359805, -7322.766759725423, -5734.340040009027, -32359.805090404167, 22557.268745573612, 2722.9118612899615, 23424.02469206151, -15096.658777792309, -6654.3378417894655, -9277.896198975588, 7934.355191511535, -41667.67497869432, -187500.02235174447, -0.12225, 0.9345000000000001, 0.279, 192.0, 0.0, 0.0, 0.0, 0.0, 0.0, 0.0, 0.0, 0.0, 0.0, 1.744824404640453E9, 0.0, 2025-04-16 12:26:44.640
216.0, -2083.8754873127327, -4783.854458791549, 21207.13397349524, 7492.14827920774, -7315.9271259221, -5757.965833898286, -32364.96834337334, 22555.815882184015, 2702.7505877912745, 23460.078055867918, -15113.735510556164, -6654.069620856002, -9287.194524668996, 7922.821691372596, -41685.80224344757, -187500.02235174447, -0.12225, 0.9345000000000001, 0.279, 192.0, 0.0, 0.0, 0.0, 0.0, 0.0, 0.0, 0.0, 0.0, 0.0, 1.744824404640553E9, 0.0, 2025-04-16 12:26:44.640
218.0, -2112.508071959981, -4801.154708999957, 21198.28268269094, 7474.266883643495, -7335.529605809404, -5765.632482246457, -32362.10732008306, 22542.717759933206, 2698.615515067043, 23415.82160184641, -15117.825879791484, -6680.198810124256, -9287.060414202264, 7902.146327751438, -41682.829461435016, -187500.02235174447, -0.12225, 0.9345000000000001, 0.279, 192.0, 0.0, 0.0, 0.0, 0.0, 0.0, 0.0, 0.0, 0.0, 0.0, 1.744824404640658E9, 0.0, 2025-04-16 12:26:44.640
220.0, -2091.9444670610987, -4790.872906550516, 21200.920188536667, 7483.520505847991, -7316.843547444767, -5766.548903769124, -32362.844927650087, 22549.043303614057, 2680.9129334584395, 23426.483383951592, -15135.684923611276, -6680.1094031464345, -9299.130356208128, 7897.854792816019, -41700.57674653253, -187500.02235174447, -0.12012500000000001, 0.9332500000000001, 0.28350000000000003, 192.0, 126.0, 40.0, 14.5, 16.0, 4.5, 0.0, 0.0, 0.0, 0.0, 1.744824404640747E9, 0.0, 2025-04-16 12:26:44.640
222.0, -2111.2116707815735, -4801.445281677876, 21209.48090666305, 7481.173572680184, -7323.437312059083, -5752.400249528915, -32351.892572866986, 22549.289172803066, 2701.9235732464285, 23423.890581594776, -15111.768557044097, -6674.2755978436, -9278.231475142416, 7912.808109856619, -41673.70994969725, -187500.02235174447, -0.12012500000000001, 0.9332500000000001, 0.28350000000000003, 192.0, 0.0, 0.0, 0.0, 0.0, 0.0, 0.0, 0.0, 0.0, 0.0, 1.744824404640845E9, 0.0, 2025-04-16 12:26:44.640
224.0, -2096.057188040875, -4793.823336818617, 21202.462458904083, 7484.7498517930335, -7315.5247945219035, -5766.548903769124, -32357.16758455844, 22550.093835603457, 2681.7846514921966, 23424.35996822834, -15121.491565882156, -6671.481629786686, -9289.69792004799, 7909.567106910599, -41684.48349052471, -187500.02235174447, -0.12012500000000001, 0.9332500000000001, 0.28350000000000003, 192.0, 0.0, 0.0, 0.0, 0.0, 0.0, 0.0, 0.0, 0.0, 0.0, 1.74482440464094E9, 0.0, 2025-04-16 12:26:44.640
226.0, -2135.932700149143, -4820.2430987647895, 21191.644214587715, 7459.00064218052, -7335.060219175843, -5768.784078214655, -32360.810918904655, 22536.995713352648, 2673.492154299278, 23424.292912994973, -15135.32729569999, -6698.437833599786, -9299.152707952584, 7890.098737490027, -41688.61856324894, -187500.02235174447, -0.12012500000000001, 0.9332500000000001, 0.28350000000000003, 192.0, 0.0, 0.0, 0.0, 0.0, 0.0, 0.0, 0.0, 0.0, 0.0, 1.744824404699415E9, 0.0, 2025-04-16 12:26:44.699
228.0, -2098.9852665645203, -4793.890392051982, 21196.561598367884, 7477.150258678229, -7308.796919440856, -5765.18544735735, -32354.999465346275, 22559.36980955241, 2676.442584567378, 23405.316281952415, -15129.80641481953, -6687.865458472426, -9292.760109038367, 7904.113281263505, -41684.4387870358, -187500.02235174447, -0.12012500000000001, 0.9332500000000001, 0.28350000000000003, 192.0, 0.0, 0.0, 0.0, 0.0, 0.0, 0.0, 0.0, 0.0, 0.0, 1.74482440469957E9, 0.0, 2025-04-16 12:26:44.699
230.0, -2139.218406584073, -4828.356782002065, 21185.452781373595, 7453.211540366596, -7332.73563775249, -5777.344796341038, -32364.54366022869, 22536.23575404117, 2664.484401283789, 23424.11409903933, -15139.194147490758, -6704.696322047273, -9295.777594539833, 7886.433051399357, -41693.938278429305, -187500.02235174447, -0.1210625, 0.9316250000000001, 0.28375000000000006, 192.0, 126.0, 24.0, 14.5, 8.0, 4.0, 112.0, 0.0, 0.0, 0.0, 1.744824404699673E9, 0.0, 2025-04-16 12:26:44.699
232.0, -2105.4225689676487, -4802.294647967177, 21185.162208695678, 7471.405860353215, -7316.508271277938, -5779.155287641917, -32368.20934631936, 22541.153137821333, 2664.842029195074, 23386.09378172085, -15136.71310385622, -6697.521412077119, -9300.538516108814, 7893.94323753634, -41697.089874397505, -187500.02235174447, -0.1210625, 0.9316250000000001, 0.28375000000000006, 192.0, 0.0, 0.0, 0.0, 0.0, 0.0, 0.0, 0.0, 0.0, 0.0, 1.744824404699784E9, 0.0, 2025-04-16 12:26:44.699
234.0, -2128.668383201168, -4819.3043254976665, 21189.76666805347, 7462.107534659807, -7321.157434124641, -5774.550828284125, -32361.6379334495, 22531.74305340565, 2672.799250221163, 23437.882773623798, -15130.342856686457, -6698.102557432957, -9292.827164271732, 7892.579781124567, -41695.70406624128, -187500.02235174447, -0.1210625, 0.9316250000000001, 0.28375000000000006, 192.0, 0.0, 0.0, 0.0, 0.0, 0.0, 0.0, 0.0, 0.0, 0.0, 1.744824404699884E9, 0.0, 2025-04-16 12:26:44.699
236.0, -2112.6868859156234, -4807.5026044252645, 21181.518874349462, 7465.952034706121, -7323.549070781359, -5781.815145232099, -32373.97609638883, 22535.855774385425, 2655.901331412951, 23376.52723509398, -15142.926888814794, -6708.071435460024, -9304.874754533143, 7886.8353827995525, -41704.220080878746, -187500.02235174447, -0.1210625, 0.9316250000000001, 0.28375000000000006, 192.0, 0.0, 0.0, 0.0, 0.0, 0.0, 0.0, 0.0, 0.0, 0.0, 1.744824404699984E9, 0.0, 2025-04-16 12:26:44.699
238.0, -2107.523632946448, -4803.501642167765, 21212.699557864617, 7479.854819757322, -7309.981561896988, -5753.406078029404, -32347.466927464837, 22546.69637044625, 2669.960578675339, 23443.649523693268, -15124.75492057263, -6689.117156161923, -9288.133297936118, 7902.347493451535, -41691.45723479477, -187500.02235174447, -0.1210625, 0.9316250000000001, 0.28375000000000006, 192.0, 0.0, 0.0, 0.0, 0.0, 0.0, 0.0, 0.0, 0.0, 0.0, 1.744824404700081E9, 0.0, 2025-04-16 12:26:44.700
240.0, -2096.9736095635426, -4790.336464683588, 21196.226322201055, 7487.968502994598, -7318.4528730455495, -5770.482810793258, -32370.846852165087, 22542.293076788555, 2678.834221224096, 23385.803209042933, -15112.32735065548, -6673.448583298753, -9283.528838578324, 7910.282362733169, -41684.639952735895, -187500.02235174447, -0.11653125, 0.9338125000000002, 0.28187500000000004, 192.0, 126.0, 64.0, 14.5, 32.0, 4.0, 96.0, 0.0, 0.0, 0.0, 1.74482440475974E9, 0.0, 2025-04-16 12:26:44.759
242.0, -2111.9269266041433, -4807.547307914175, 21199.489676891528, 7475.607988310813, -7321.403303313649, -5765.587778757546, -32352.69723566738, 22538.828556397984, 2669.558247275144, 23458.26756456704, -15121.916249026806, -6672.330996075988, -9290.100251448184, 7897.60892362701, -41698.006295920175, -187500.02235174447, -0.11653125, 0.9338125000000002, 0.28187500000000004, 192.0, 0.0, 0.0, 0.0, 0.0, 0.0, 0.0, 0.0, 0.0, 0.0, 1.74482440475985E9, 0.0, 2025-04-16 12:26:44.759
244.0, -2093.6655513841574, -4786.983703015292, 21209.346796196318, 7493.422328641693, -7313.244916587462, -5751.349717539516, -32351.06555832214, 22556.665248473317, 2681.4046718364566, 23390.899406778743, -15110.807432032518, -6670.542856519563, -9285.965178723953, 7907.443691187345, -41684.371731802436, -187500.02235174447, -0.11653125, 0.9338125000000002, 0.28187500000000004, 192.0, 0.0, 0.0, 0.0, 0.0, 0.0, 0.0, 0.0, 0.0, 0.0, 1.74482440475994E9, 0.0, 2025-04-16 12:26:44.759
246.0, -2114.0726940718528, -4812.174119016423, 21200.048470502912, 7475.0044912105195, -7318.8775561902, -5766.213627602295, -32361.54852647168, 22544.28238204508, 2664.2832355836913, 23468.079980382918, -15128.688827596765, -6675.974330422203, -9294.07886196123, 7897.251295715725, -41701.22494712174, -187500.02235174447, -0.11653125, 0.9338125000000002, 0.28187500000000004, 192.0, 0.0, 0.0, 0.0, 0.0, 0.0, 0.0, 0.0, 0.0, 0.0, 1.744824404760046E9, 0.0, 2025-04-16 12:26:44.760
248.0, -2103.4332637111265, -4791.945790284371, 21205.09996474981, 7485.666273315701, -7316.240050344473, -5763.419659545381, -32357.279343280716, 22549.60209722544, 2671.458145553845, 23391.234682945575, -15117.580010602476, -6680.534086291085, -9293.944751494499, 7899.41941492789, -41688.17152835984, -187500.02235174447, -0.11653125, 0.9338125000000002, 0.28187500000000004, 192.0, 0.0, 0.0, 0.0, 0.0, 0.0, 0.0, 0.0, 0.0, 0.0, 1.744824404760144E9, 0.0, 2025-04-16 12:26:44.760
250.0, -2108.7082754025787, -4802.652275878462, 21200.093173991823, 7473.931607476665, -7309.8250996858005, -5770.214589859795, -32355.334741513103, 22547.724550691197, 2670.027633908705, 23469.823416450432, -15123.838499049962, -6676.980158922692, -9291.486059604415, 7893.719720091787, -41697.31339184206, -187500.02235174447, -0.11726562500000001, 0.93690625, 0.28293750000000006, 192.0, 126.0, 40.0, 14.5, 48.0, 4.0, 112.0, 0.0, 0.0, 0.0, 1.744824404760248E9, 0.0, 2025-04-16 12:26:44.760
252.0, -2093.6655513841574, -4780.188772700879, 21208.899761307213, 7491.7906512964555, -7311.121500864208, -5757.13881935344, -32356.608790947055, 22556.3746757954, 2689.6077620515543, 23393.402802157736, -15110.852135521429, -6676.13079263339, -9286.74748977989, 7904.895592319441, -41683.589420746495, -187500.02235174447, -0.11726562500000001, 0.93690625, 0.28293750000000006, 192.0, 0.0, 0.0, 0.0, 0.0, 0.0, 0.0, 0.0, 0.0, 0.0, 1.744824404760358E9, 0.0, 2025-04-16 12:26:44.760
254.0, -2103.969705578054, -4803.501642167765, 21191.53245586544, 7473.104592931819, -7313.222564843008, -5776.718947496289, -32365.437730006903, 22541.331951776978, 2687.573753306121, 23465.844805937388, -15124.956086272728, -6662.004490137636, -9287.350986880183, 7900.827574828574, -41695.25703135217, -187500.02235174447, -0.11726562500000001, 0.93690625, 0.28293750000000006, 192.0, 0.0, 0.0, 0.0, 0.0, 0.0, 0.0, 0.0, 0.0, 0.0, 1.744824404760461E9, 0.0, 2025-04-16 12:26:44.760
0.0, -2105.8249003678443, -4794.002150774259, 21195.823990800858, 7475.33976737735, -7326.343038838272, -5768.761726470199, -32367.181166074417, 22540.728454676682, 2695.665084798942, 23386.518464865505, -15125.514879884111, -6675.616702510918, -9296.60460908468, 7894.770252081186, -41689.55733651607, -187500.02235174447, -0.11726562500000001, 0.93690625, 0.28293750000000006, 192.0, 0.0, 0.0, 0.0, 0.0, 0.0, 0.0, 0.0, 0.0, 0.0, 1.744824404819967E9, 0.0, 2025-04-16 12:26:44.819
2.0, -2085.3283507023275, -4782.066319235125, 21201.322519936864, 7484.638093070757, -7304.348922294251, -5759.083421121052, -32359.961552615354, 22553.13367284938, 2706.77390179323, 23455.920631399233, -15126.163080473314, -6656.908292401826, -9292.60364682718, 7905.409682441913, -41694.18414761831, -187500.02235174447, -0.11726562500000001, 0.93690625, 0.28293750000000006, 192.0, 0.0, 0.0, 0.0, 0.0, 0.0, 0.0, 0.0, 0.0, 0.0, 1.744824404820087E9, 0.0, 2025-04-16 12:26:44.820
4.0, -2087.1388420032076, -4769.147010939957, 21212.945427053623, 7494.763433309011, -7307.724035707001, -5742.543130224125, -32345.947008841875, 22563.37077180991, 2733.5959951395985, 23409.33959595437, -15103.341949384447, -6652.862626655416, -9275.12458266313, 7921.301772749636, -41662.77994665861, -187500.02235174447, -0.11726562500000001, 0.93690625, 0.28293750000000006, 192.0, 0.0, 0.0, 0.0, 0.0, 0.0, 0.0, 0.0, 0.0, 0.0, 1.744824404820184E9, 0.0, 2025-04-16 12:26:44.820
6.0, -2070.151516217174, -4768.811734773128, 21210.464383419083, 7493.712901319612, -7291.340207021261, -5753.629595473957, -32351.378482744516, 22565.158911366336, 2747.476428446344, 23467.096503626886, -15102.93961798425, -6639.406876493321, -9265.759201736355, 7927.42615073039, -41668.77021417263, -187500.02235174447, -0.12, 0.934, 0.28200000000000003, 192.0, 126.0, 32.0, 14.5, 24.0, 4.0, 104.0, 0.0, 0.0, 0.0, 1.744824404820293E9, 0.0, 2025-04-16 12:26:44.820
8.0, -2105.1319962897296, -4792.012845517736, 21198.617958857772, 7475.742098777545, -7323.146739381164, -5757.831723431555, -32358.97807585932, 22553.670114716308, 2740.4132771984673, 23416.49215418007, -15116.998865246638, -6672.286292587077, -9278.20912339796, 7902.571010896088, -41674.55931598655, -187500.02235174447, -0.12, 0.934, 0.28200000000000003, 192.0, 0.0, 0.0, 0.0, 0.0, 0.0, 0.0, 0.0, 0.0, 0.0, 1.744824404820384E9, 0.0, 2025-04-16 12:26:44.820
10.0, -2093.576144406336, -4791.923438539915, 21188.067935474868, 7476.47970634457, -7305.39945428365, -5770.728679982267, -32366.622372463036, 22553.625411227396, 2735.361782951568, 23449.59508771838, -15125.023141506093, -6662.429173282287, -9279.97491120993, 7907.175470253882, -41679.99078988919, -187500.02235174447, -0.12, 0.934, 0.28200000000000003, 192.0, 0.0, 0.0, 0.0, 0.0, 0.0, 0.0, 0.0, 0.0, 0.0, 1.744824404820472E9, 0.0, 2025-04-16 12:26:44.820
12.0, -2106.450749212593, -4789.7776710722055, 21202.171886226166, 7479.787764523955, -7314.340152065773, -5753.47313326277, -32352.138442055995, 22557.00052464015, 2746.515303434766, 23418.30264548095, -15119.770481559097, -6672.666272242817, -9279.46082108746, 7900.827574828574, -41672.86058340795, -187500.02235174447, -0.12, 0.934, 0.28200000000000003, 192.0, 0.0, 0.0, 0.0, 0.0, 0.0, 0.0, 0.0, 0.0, 0.0, 1.744824404820568E9, 0.0, 2025-04-16 12:26:44.820
14.0, -2070.1738679616296, -4765.257807404734, 21216.38759569974, 7504.888773547265, -7283.807669139823, -5743.437200002337, -32341.8342878621, 22573.36200158143, 2757.4006029845004, 23435.44643347817, -15106.694711052742, -6641.977327105681, -9265.35687033616, 7922.441711716857, -41663.36109201445, -187500.02235174447, -0.12, 0.934, 0.28200000000000003, 192.0, 0.0, 0.0, 0.0, 0.0, 0.0, 0.0, 0.0, 0.0, 0.0, 1.744824404879382E9, 0.0, 2025-04-16 12:26:44.879
16.0, -2120.9123278751767, -4803.591049145585, 21196.181618712144, 7480.257151157517, -7317.223527100507, -5760.111601365996, -32362.755520672268, 22551.054960615034, 2749.5327889362325, 23428.472689208116, -15115.411891390311, -6662.742097704661, -9276.59979779718, 7904.336798708057, -41672.257086307654, -187500.02235174447, -0.116, 0.926, 0.28600000000000003, 192.0, 126.0, 48.0, 14.0, 120.0, 4.0, 120.0, 0.0, 0.0, 0.0, 1.744824404879519E9, 0.0, 2025-04-16 12:26:44.879
18.0, -2088.7258158595346, -4783.608589602541, 21203.557694382394, 7499.569058366902, -7294.044768100353, -5752.579063484557, -32358.97807585932, 22566.097684633456, 2745.844751101107, 23423.197677516662, -15117.714121069208, -6652.08031559948, -9278.969082709442, 7914.082159290571, -41675.02870262012, -187500.02235174447, -0.116, 0.926, 0.28600000000000003, 192.0, 0.0, 0.0, 0.0, 0.0, 0.0, 0.0, 0.0, 0.0, 0.0, 1.744824404879631E9, 0.0, 2025-04-16 12:26:44.879
20.0, -2102.673304399646, -4791.118775739525, 21208.028043273454, 7491.5000786185365, -7305.198288583552, -5744.152455824907, -32339.465002949837, 22558.498091518653, 2755.031318072238, 23439.9838376026, -15116.350664657435, -6661.646862226351, -9274.521085562836, 7908.784795854664, -41670.245429306684, -187500.02235174447, -0.116, 0.926, 0.28600000000000003, 192.0, 0.0, 0.0, 0.0, 0.0, 0.0, 0.0, 0.0, 0.0, 0.0, 1.744824404879735E9, 0.0, 2025-04-16 12:26:44.879
22.0, -2085.8647925692553, -4782.535705868686, 21188.42556338615, 7489.7342908065675, -7299.878573403189, -5763.620825245479, -32365.03539860671, 22557.089931617968, 2751.5220941927546, 23417.453279191646, -15113.936676256262, -6649.107533586924, -9274.40932684056, 7914.752711624231, -41674.40285377537, -187500.02235174447, -0.116, 0.926, 0.28600000000000003, 192.0, 0.0, 0.0, 0.0, 0.0, 0.0, 0.0, 0.0, 0.0, 0.0, 1.744824404879839E9, 0.0, 2025-04-16 12:26:44.879
24.0, -2114.2738597719504, -4799.478328165809, 21202.305996692896, 7487.074433216386, -7304.68419846108, -5741.0455633456195, -32342.571895429122, 22559.727437463695, 2726.0411055137047, 23444.767110916033, -15131.035760764571, -6667.0783361289905, -9290.055547959275, 7899.687635861354, -41682.24831607918, -187500.02235174447, -0.116, 0.926, 0.28600000000000003, 192.0, 0.0, 0.0, 0.0, 0.0, 0.0, 0.0, 0.0, 0.0, 0.0, 1.744824404879933E9, 0.0, 2025-04-16 12:26:44.879
26.0, -2076.0523767533755, -4762.374432369999, 21216.320540466375, 7522.501948178047, -7286.333416263273, -5731.411961485382, -32338.794450616177, 22581.4309813298, 2745.822399356651, 23414.011110545533, -15107.141745941848, -6632.544890945541, -9271.8388762282, 7929.415455986912, -41654.15217329886, -187500.02235174447, -0.114, 0.93, 0.28800000000000003, 192.0, 126.0, 56.0, 14.5, 8.0, 4.5, 0.0, 0.0, 0.0, 0.0, 1.744824404880033E9, 0.0, 2025-04-16 12:26:44.880
28.0, -2104.7967201229003, -4785.70965358134, 21204.988206027534, 7498.987913011064, -7302.404320526639, -5742.610185457491, -32342.01310181774, 22561.89555667586, 2740.614442898565, 23472.326811829425, -15114.495469867645, -6634.802417135527, -9275.057527429763, 7924.922755351396, -41661.97528385821, -187500.02235174447, -0.114, 0.93, 0.28800000000000003, 192.0, 0.0, 0.0, 0.0, 0.0, 0.0, 0.0, 0.0, 0.0, 0.0, 1.744824404880144E9, 0.0, 2025-04-16 12:26:44.880
30.0, -2086.7812140919227, -4767.89531325046, 21200.56256062538, 7510.700227105645, -7300.2585530589295, -5746.477037248259, -32352.339607756094, 22565.94122242227, 2731.070248016149, 23406.67973836419, -15119.725778070186, -6644.614832951407, -9286.07693744623, 7918.753673881731, -41670.513650240144, -187500.02235174447, -0.114, 0.93, 0.28800000000000003, 192.0, 0.0, 0.0, 0.0, 0.0, 0.0, 0.0, 0.0, 0.0, 0.0, 1.744824404939168E9, 0.0, 2025-04-16 12:26:44.939
32.0, -2104.349685233794, -4786.938999526382, 21199.556732124893, 7490.494250118048, -7307.813442684823, -5751.215607072783, -32354.239506034795, 22551.501995504143, 2731.6290416275315, 23470.136340872807, -15124.37494091689, -6648.280519042078, -9284.333501378716, 7914.238621501759, -41680.54958350058, -187500.02235174447, -0.114, 0.93, 0.28800000000000003, 192.0, 0.0, 0.0, 0.0, 0.0, 0.0, 0.0, 0.0, 0.0, 0.0, 1.744824404939291E9, 0.0, 2025-04-16 12:26:44.939
34.0, -2080.4333186666154, -4761.145086424957, 21207.446897917616, 7509.493232905059, -7300.057387358831, -5745.292394792127, -32353.993636845786, 22563.61664099892, 2734.668878873453, 23401.941168539666, -15115.031911734572, -6647.833484152971, -9282.210085655463, 7912.450481945334, -41673.77700493062, -187500.02235174447, -0.114, 0.93, 0.28800000000000003, 192.0, 0.0, 0.0, 0.0, 0.0, 0.0, 0.0, 0.0, 0.0, 0.0, 1.744824404939403E9, 0.0, 2025-04-16 12:26:44.939
36.0, -2108.0824265578303, -4788.525973382709, 21196.62865360125, 7488.393186139248, -7307.634628729181, -5754.054278618608, -32358.307523525662, 22554.631239727885, 2731.807855583174, 23477.668878754244, -15119.479908881178, -6643.251376539633, -9277.046832686287, 7916.1832232693705, -41675.92277239833, -187500.02235174447, -0.116, 0.9400000000000001, 0.28400000000000003, 192.0, 126.0, 48.0, 14.5, 48.0, 4.0, 112.0, 0.0, 0.0, 0.0, 1.744824404939504E9, 0.0, 2025-04-16 12:26:44.939
38.0, -2092.905592072677, -4771.225723174301, 21204.317653693874, 7501.759529323523, -7306.584096739781, -5747.415810515382, -32350.998503088776, 22570.031591657593, 2725.2364427133134, 23393.559264368923, -15123.32440892749, -6660.037536625569, -9288.289760147305, 7905.94612430884, -41674.849888664474, -187500.02235174447, -0.116, 0.9400000000000001, 0.28400000000000003, 192.0, 0.0, 0.0, 0.0, 0.0, 0.0, 0.0, 0.0, 0.0, 0.0, 1.744824404939607E9, 0.0, 2025-04-16 12:26:44.939
40.0, -2103.9473538335983, -4788.883601293994, 21201.56838912587, 7485.599218082335, -7302.20315482654, -5753.294319307127, -32346.34934024207, 22562.476702031698, 2729.3044602041796, 23479.45701831067, -15123.726740327686, -6646.760600419117, -9276.756260008367, 7910.66234238891, -41675.67690320932, -187500.02235174447, -0.116, 0.9400000000000001, 0.28400000000000003, 192.0, 0.0, 0.0, 0.0, 0.0, 0.0, 0.0, 0.0, 0.0, 0.0, 1.744824404939718E9, 0.0, 2025-04-16 12:26:44.939
42.0, -2099.1417287757076, -4775.986644743281, 21194.259368688985, 7488.192020439151, -7311.747349708957, -5752.154380339906, -32351.26672402224, 22560.46504503072, 2721.123721733537, 23390.117095722806, -15127.839461307463, -6674.186190865778, -9291.866039260154, 7898.570048638589, -41678.71674045524, -187500.02235174447, -0.116, 0.9400000000000001, 0.28400000000000003, 192.0, 0.0, 0.0, 0.0, 0.0, 0.0, 0.0, 0.0, 0.0, 0.0, 1.744824404939815E9, 0.0, 2025-04-16 12:26:44.939
44.0, -2108.551813191392, -4794.963275785837, 21185.542188351417, 7473.57397956538, -7313.155509609642, -5765.252502590716, -32363.7389974283, 22552.08314085998, 2726.599899125087, 23467.92351817173, -15127.571240373998, -6659.255225569633, -9284.60172231218, 7908.3154092211025, -41680.01314163365, -187500.02235174447, -0.116, 0.9400000000000001, 0.28400000000000003, 192.0, 0.0, 0.0, 0.0, 0.0, 0.0, 0.0, 0.0, 0.0, 0.0, 1.744824404999398E9, 0.0, 2025-04-16 12:26:44.999
46.0, -2119.5265197189474, -4793.152784484957, 21184.044621472913, 7473.417517354193, -7338.480036077504, -5766.213627602295, -32376.68065746792, 22542.40483551083, 2705.768073292741, 23381.288156662962, -15143.955069059739, -6684.624455526407, -9312.094367992207, 7882.387385652946, -41692.97715341773, -187500.02235174447, -0.12, 0.932, 0.28400000000000003, 192.0, 126.0, 32.0, 14.5, 16.0, 4.0, 112.0, 0.0, 0.0, 0.0, 1.744824404999528E9, 0.0, 2025-04-16 12:26:44.999
48.0, -2099.1640805201628, -4784.189734958379, 21200.473153647563, 7488.706110561623, -7317.603506756247, -5758.3011100651165, -32364.901288139976, 22549.445635014254, 2724.387076424012, 23458.64754422278, -15122.922077527295, -6650.247472554144, -9284.199390911985, 7909.321237721591, -41679.99078988919, -187500.02235174447, -0.12, 0.932, 0.28400000000000003, 192.0, 0.0, 0.0, 0.0, 0.0, 0.0, 0.0, 0.0, 0.0, 0.0, 1.744824404999633E9, 0.0, 2025-04-16 12:26:44.999
50.0, -2114.676191172146, -4785.977874514803, 21198.9532350246, 7487.700282061134, -7332.7803412414005, -5756.848246675521, -32363.470776494836, 22545.489376245663, 2722.5095298897663, 23390.988813756565, -15121.871545537895, -6665.93839716177, -9287.574504324735, 7901.386368439958, -41678.91790615534, -187500.02235174447, -0.12, 0.932, 0.28400000000000003, 192.0, 0.0, 0.0, 0.0, 0.0, 0.0, 0.0, 0.0, 0.0, 0.0, 1.744824404999743E9, 0.0, 2025-04-16 12:26:44.999
52.0, -2098.024141552942, -4780.881676778994, 21204.71998509407, 7497.088014732363, -7311.680294475591, -5759.776325199166, -32365.057750351163, 22553.93833564977, 2724.744704335297, 23456.792349432988, -15120.396330403844, -6646.246510296644, -9280.667815288045, 7910.304714477625, -41681.33189455651, -187500.02235174447, -0.12, 0.932, 0.28400000000000003, 192.0, 0.0, 0.0, 0.0, 0.0, 0.0, 0.0, 0.0, 0.0, 0.0, 1.744824404999831E9, 0.0, 2025-04-16 12:26:44.999
54.0, -2114.2068045385845, -4781.060490734636, 21206.15049673921, 7497.110366476819, -7324.934878937588, -5755.261272819194, -32360.945029371385, 22554.675943216796, 2722.4871781453107, 23409.361947698828, -15118.09410072495, -6657.869417413404, -9283.640597300602, 7902.548659151633, -41675.63219972041, -187500.02235174447, -0.12, 0.932, 0.28400000000000003, 192.0, 0.0, 0.0, 0.0, 0.0, 0.0, 0.0, 0.0, 0.0, 0.0, 1.744824404999922E9, 0.0, 2025-04-16 12:26:44.999
56.0, -2098.024141552942, -4784.703825080851, 21196.829819301347, 7496.976256010086, -7310.316838063817, -5762.726755467267, -32363.60488696157, 22559.056885130034, 2722.710695589864, 23458.26756456704, -15120.306923426024, -6641.664402683306, -9283.46178334496, 7913.277496490181, -41679.81197593355, -187500.02235174447, -0.12, 0.9400000000000001, 0.278, 192.0, 126.0, 32.0, 14.5, 48.0, 4.0, 88.0, 0.0, 0.0, 0.0, 1.744824405000014E9, 0.0, 2025-04-16 12:26:45.000
58.0, -2119.906499374688, -4793.689226351885, 21197.455668146096, 7486.962674494109, -7324.979582426498, -5753.584891985046, -32360.74386367129, 22555.055922872536, 2714.0158669967495, 23415.240456490574, -15129.09115899696, -6669.671138485806, -9291.039024715308, 7899.3970631834345, -41680.86250792295, -187500.02235174447, -0.12, 0.9400000000000001, 0.278, 192.0, 0.0, 0.0, 0.0, 0.0, 0.0, 0.0, 0.0, 0.0, 0.0, 1.744824405000121E9, 0.0, 2025-04-16 12:26:45.000
60.0, -2096.7277403745343, -4783.89916228046, 21195.555769867395, 7493.757604808522, -7307.165242095619, -5757.272929820172, -32361.906154382963, 22555.435902528276, 2710.3054774171683, 23444.051855093465, -15130.745188086652, -6655.902463901337, -9292.491888104903, 7909.209478999314, -41684.68465622481, -187500.02235174447, -0.12, 0.9400000000000001, 0.278, 192.0, 0.0, 0.0, 0.0, 0.0, 0.0, 0.0, 0.0, 0.0, 0.0, 1.744824405059753E9, 0.0, 2025-04-16 12:26:45.059
62.0, -2117.8501388847994, -4788.771842571717, 21198.416793157674, 7489.57782859538, -7317.871727689711, -5744.800656414111, -32356.519383969237, 22552.932507149282, 2716.4075036534673, 23425.477555451103, -15120.821013548497, -6664.910216916825, -9286.434565357515, 7910.774101111187, -41671.20655431826, -187500.02235174447, -0.12, 0.9400000000000001, 0.278, 192.0, 0.0, 0.0, 0.0, 0.0, 0.0, 0.0, 0.0, 0.0, 0.0, 1.744824405059893E9, 0.0, 2025-04-16 12:26:45.059
64.0, -2093.4196821951487, -4775.204333687346, 21194.99697625601, 7498.093843232852, -7305.77943393939, -5751.506179750702, -32359.626276448522, 22560.018010141615, 2710.998381495283, 23432.8312793769, -15128.107682240927, -6653.354365033432, -9292.98362648292, 7918.172528525893, -41682.22596433473, -187500.02235174447, -0.12, 0.9400000000000001, 0.278, 192.0, 0.0, 0.0, 0.0, 0.0, 0.0, 0.0, 0.0, 0.0, 0.0, 1.744824405059996E9, 0.0, 2025-04-16 12:26:45.059
66.0, -2115.5032057169924, -4786.022578003714, 21200.741374581026, 7485.889790760254, -7318.408169556638, -5746.745258181722, -32355.379445002014, 22553.066617616012, 2711.7583408067635, 23436.787538145487, -15126.811281062519, -6667.0783361289905, -9287.999187469386, 7909.321237721591, -41672.81587991904, -187500.02235174447, -0.114, 0.9420000000000001, 0.28400000000000003, 192.0, 126.0, 56.0, 14.5, 56.0, 4.0, 112.0, 0.0, 0.0, 0.0, 1.744824405060099E9, 0.0, 2025-04-16 12:26:45.060
68.0, -2083.517859401448, -4766.665967305418, 21200.316691436376, 7499.43494790017, -7298.448061758049, -5744.353621525004, -32362.50965148326, 22567.014106156126, 2719.0226577547382, 23431.333712498395, -15121.402158904333, -6652.706164444228, -9284.892294990099, 7920.720627393798, -41671.854754907465, -187500.02235174447, -0.114, 0.9420000000000001, 0.28400000000000003, 192.0, 0.0, 0.0, 0.0, 0.0, 0.0, 0.0, 0.0, 0.0, 0.0, 1.744824405060212E9, 0.0, 2025-04-16 12:26:45.060
70.0, -2124.823883154855, -4800.640618877485, 21185.832761029335, 7471.316453375394, -7322.006800413943, -5756.065935619586, -32364.20838406186, 22543.097739588946, 2703.130567447015, 23449.43862550719, -15141.51872891411, -6679.885885701881, -9297.766899796356, 7899.441766672346, -41687.67978998182, -187500.02235174447, -0.114, 0.9420000000000001, 0.28400000000000003, 192.0, 0.0, 0.0, 0.0, 0.0, 0.0, 0.0, 0.0, 0.0, 0.0, 1.744824405060308E9, 0.0, 2025-04-16 12:26:45.060
72.0, -2084.1437082461966, -4762.955577725837, 21205.34583393882, 7502.541840379458, -7292.703663433035, -5741.269080790172, -32353.8371746346, 22563.773103210104, 2714.0605704856603, 23415.68749137968, -15128.979400274684, -6665.2007895947445, -9295.911705006565, 7912.383426711968, -41682.561240501556, -187500.02235174447, -0.114, 0.9420000000000001, 0.28400000000000003, 192.0, 0.0, 0.0, 0.0, 0.0, 0.0, 0.0, 0.0, 0.0, 0.0, 1.744824405060411E9, 0.0, 2025-04-16 12:26:45.060
74.0, -2114.027990582942, -4787.117813482024, 21198.796772813414, 7483.006415725519, -7302.091396104264, -5747.728734937756, -32349.813860632643, 22551.680809459784, 2719.089712988104, 23462.02265763553, -15117.512955369111, -6660.439868025765, -9280.220780398939, 7920.251240760236, -41666.892667638385, -187500.02235174447, -0.114, 0.9420000000000001, 0.28400000000000003, 192.0, 0.0, 0.0, 0.0, 0.0, 0.0, 0.0, 0.0, 0.0, 0.0, 1.744824405120122E9, 0.0, 2025-04-16 12:26:45.120
76.0, -2082.5567343898697, -4763.313205637122, 21204.563522882883, 7502.564192123913, -7294.782375667379, -5746.477037248259, -32354.6865409239, 22561.69439097576, 2711.065436728649, 23400.220084216606, -15128.912345041317, -6668.330033818488, -9294.54824859479, 7907.1978219983375, -41679.454348022264, -187500.02235174447, -0.118, 0.9410000000000001, 0.28700000000000003, 192.0, 126.0, 24.0, 14.5, 48.0, 4.5, 8.0, 0.0, 0.0, 0.0, 1.744824405120236E9, 0.0, 2025-04-16 12:26:45.120
78.0, -2102.1592142771738, -4780.479345378798, 21208.698595607115, 7494.003473997531, -7298.537468735871, -5745.873540147965, -32345.321159997126, 22555.1229781059, 2727.225747969836, 23463.900204169775, -15113.154365200326, -6652.504998744131, -9276.64450128609, 7918.552508181633, -41667.33970252749, -187500.02235174447, -0.118, 0.9410000000000001, 0.28700000000000003, 192.0, 0.0, 0.0, 0.0, 0.0, 0.0, 0.0, 0.0, 0.0, 0.0, 1.744824405120353E9, 0.0, 2025-04-16 12:26:45.120
80.0, -2075.3371209308057, -4755.244225888757, 21209.167982240677, 7510.521413150002, -7292.234276799474, -5743.146627324418, -32350.886744366497, 22566.723533478205, 2735.1382655070147, 23404.15399124074, -15107.432318619767, -6648.2358155531665, -9275.92924546352, 7917.189051769859, -41661.61765594693, -187500.02235174447, -0.118, 0.9410000000000001, 0.28700000000000003, 192.0, 0.0, 0.0, 0.0, 0.0, 0.0, 0.0, 0.0, 0.0, 0.0, 1.744824405120453E9, 0.0, 2025-04-16 12:26:45.120
82.0, -2112.441016726615, -4793.219839718323, 21191.28658667643, 7479.497191846037, -7308.551050251848, -5764.38078455696, -32364.007218361763, 22545.444672756752, 2722.6212886120425, 23470.113989128353, -15121.290400182057, -6650.515693487608, -9283.573542067235, 7910.148252266437, -41676.883897409905, -187500.02235174447, -0.118, 0.9410000000000001, 0.28700000000000003, 192.0, 0.0, 0.0, 0.0, 0.0, 0.0, 0.0, 0.0, 0.0, 0.0, 1.744824405120552E9, 0.0, 2025-04-16 12:26:45.120
84.0, -2102.4721386995484, -4778.199467444357, 21189.789019797925, 7491.9694652520975, -7316.508271277938, -5764.872522934977, -32367.672904452433, 22549.80326292554, 2705.2986866591796, 23386.831389287876, -15134.544984644055, -6670.699318730751, -9303.645408588101, 7890.165792723393, -41688.082121382016, -187500.02235174447, -0.118, 0.9410000000000001, 0.28700000000000003, 192.0, 0.0, 0.0, 0.0, 0.0, 0.0, 0.0, 0.0, 0.0, 0.0, 1.744824405120653E9, 0.0, 2025-04-16 12:26:45.120
86.0, -2101.958048577076, -4780.121717467513, 21204.42941241615, 7496.059834487419, -7303.812480427323, -5747.348755282015, -32356.295866524684, 22562.14142586487, 2717.815663554152, 23475.031372908517, -15121.066882737505, -6645.687716685262, -9284.69112929, 7913.031627301172, -41673.531135741614, -187500.02235174447, -0.119, 0.9365000000000001, 0.2885, 192.0, 126.0, 32.0, 14.5, 16.0, 4.5, 8.0, 0.0, 0.0, 0.0, 1.744824405120754E9, 0.0, 2025-04-16 12:26:45.120
88.0, -2094.581972906825, -4771.091612707569, 21202.685976348635, 7500.8207560564, -7312.797881698357, -5751.014441372686, -32363.15785207246, 22559.36980955241, 2716.742779820297, 23394.118057980308, -15123.883202538873, -6659.970481392203, -9295.218800928451, 7902.883935318463, -41678.44851952178, -187500.02235174447, -0.119, 0.9365000000000001, 0.2885, 192.0, 0.0, 0.0, 0.0, 0.0, 0.0, 0.0, 0.0, 0.0, 0.0, 1.744824405120853E9, 0.0, 2025-04-16 12:26:45.120
90.0, -2098.068845041853, -4785.933171025893, 21201.546037381417, 7486.828564027377, -7313.110806120731, -5760.268063577183, -32365.236564306804, 22549.579745480987, 2717.458035642867, 23470.248099595083, -15124.933734528273, -6649.688678942762, -9290.010844470364, 7903.465080674301, -41684.68465622481, -187500.02235174447, -0.119, 0.9365000000000001, 0.2885, 192.0, 0.0, 0.0, 0.0, 0.0, 0.0, 0.0, 0.0, 0.0, 0.0, 1.744824405180267E9, 0.0, 2025-04-16 12:26:45.180
92.0, -2102.8297666108333, -4777.260694177234, 21200.227284458553, 7493.534087363969, -7320.732750979991, -5760.089249621541, -32367.20351781887, 22548.775082680593, 2718.6873815879085, 23385.24441543155, -15119.904592025829, -6662.764449449116, -9294.704710805978, 7899.307656205614, -41679.70021721128, -187500.02235174447, -0.119, 0.9365000000000001, 0.2885, 192.0, 0.0, 0.0, 0.0, 0.0, 0.0, 0.0, 0.0, 0.0, 0.0, 1.744824405180402E9, 0.0, 2025-04-16 12:26:45.180
94.0, -2103.299153244395, -4788.682435593896, 21199.847304802814, 7487.141488449752, -7304.617143227714, -5762.52558976717, -32363.671942194935, 22551.725512948695, 2710.1713669504365, 23457.619363977836, -15128.107682240927, -6653.533178989074, -9294.011806727864, 7899.620580627988, -41690.58551676101, -187500.02235174447, -0.119, 0.9365000000000001, 0.2885, 192.0, 0.0, 0.0, 0.0, 0.0, 0.0, 0.0, 0.0, 0.0, 0.0, 1.744824405180516E9, 0.0, 2025-04-16 12:26:45.180
96.0, -2101.958048577076, -4776.210162187835, 21210.710252608093, 7497.043311243452, -7307.835794429278, -5749.427467516359, -32357.525212469725, 22560.912079919824, 2709.2102419388584, 23387.032554987974, -15126.923039784795, -6671.995719909159, -9300.091481219708, 7897.698330604831, -41683.23179283521, -187500.02235174447, -0.1215, 0.93625, 0.28925, 192.0, 126.0, 16.0, 14.5, 32.0, 4.5, 8.0, 0.0, 0.0, 0.0, 1.744824405180611E9, 0.0, 2025-04-16 12:26:45.180
98.0, -2096.6383333967133, -4785.150859969957, 21201.099002492312, 7488.0355582279635, -7297.933971635577, -5759.955139154808, -32367.82936666362, 22560.71091421973, 2713.568832107643, 23459.340448300893, -15121.871545537895, -6650.895673143348, -9287.306283391272, 7909.23183074377, -41684.4387870358, -187500.02235174447, -0.1215, 0.93625, 0.28925, 192.0, 0.0, 0.0, 0.0, 0.0, 0.0, 0.0, 0.0, 0.0, 0.0, 1.744824405180711E9, 0.0, 2025-04-16 12:26:45.180
100.0, -2096.3030572298835, -4769.8175632736165, 21213.14659275372, 7495.165764709207, -7309.5345270078815, -5748.287528549138, -32356.5864392026, 22561.157949108834, 2715.804006553174, 23400.197732472152, -15117.736472813664, -6667.950054162748, -9293.40830962757, 7901.364016695502, -41674.60401947547, -187500.02235174447, -0.1215, 0.93625, 0.28925, 192.0, 0.0, 0.0, 0.0, 0.0, 0.0, 0.0, 0.0, 0.0, 0.0, 1.744824405180804E9, 0.0, 2025-04-16 12:26:45.180
102.0, -2073.1019464852748, -4756.60768230053, 21207.178676984153, 7501.111328734319, -7304.885364161178, -5750.969737883775, -32370.466872509347, 22565.918870677815, 2717.390980409501, 23465.621288492835, -15119.479908881178, -6643.988984106659, -9286.859248502165, 7913.858641846019, -41682.605943990464, -187500.02235174447, -0.1215, 0.93625, 0.28925, 192.0, 0.0, 0.0, 0.0, 0.0, 0.0, 0.0, 0.0, 0.0, 0.0, 1.744824405180898E9, 0.0, 2025-04-16 12:26:45.180
104.0, -2098.22530725304, -4773.192676686368, 21202.86479030428, 7487.7673372945, -7322.051503902853, -5755.99888038622, -32365.102453840074, 22553.69246646076, 2714.7534745637745, 23426.30456999595, -15120.776310059586, -6660.819847681505, -9292.089556704708, 7904.046226030139, -41682.67299922383, -187500.02235174447, -0.1215, 0.93625, 0.28925, 192.0, 0.0, 0.0, 0.0, 0.0, 0.0, 0.0, 0.0, 0.0, 0.0, 1.744824405239511E9, 0.0, 2025-04-16 12:26:45.239
106.0, -2091.542135660903, -4782.178077957401, 21198.886179791236, 7488.124965205785, -7307.120538606709, -5768.5158572811915, -32377.55237550168, 22547.45632975773, 2703.845823269585, 23449.572735973925, -15129.13586248587, -6659.8587226699265, -9295.218800928451, 7900.447595172835, -41687.43392079281, -187500.02235174447, -0.12275, 0.9381250000000001, 0.287625, 192.0, 126.0, 16.0, 14.5, 48.0, 4.0, 120.0, 0.0, 0.0, 0.0, 1.744824405239664E9, 0.0, 2025-04-16 12:26:45.239
108.0, -2108.1047783022855, -4788.637732104985, 21204.49646764952, 7484.168706437195, -7321.895041691666, -5759.195179843328, -32368.54462248619, 22546.338742534965, 2715.200509452881, 23417.430927447193, -15121.357455415424, -6678.075394401002, -9288.26740840285, 7886.142478721438, -41682.91886841284, -187500.02235174447, -0.12275, 0.9381250000000001, 0.287625, 192.0, 0.0, 0.0, 0.0, 0.0, 0.0, 0.0, 0.0, 0.0, 0.0, 1.744824405239777E9, 0.0, 2025-04-16 12:26:45.239
110.0, -2098.2476589974954, -4789.800022816661, 21193.834685544334, 7484.615741326302, -7311.054445630843, -5775.579008529068, -32369.796320175687, 22545.802300668038, 2708.740855305297, 23434.485308466592, -15128.532365385578, -6668.061812885024, -9291.955446237975, 7894.882010803463, -41687.61273474845, -187500.02235174447, -0.12275, 0.9381250000000001, 0.287625, 192.0, 0.0, 0.0, 0.0, 0.0, 0.0, 0.0, 0.0, 0.0, 0.0, 1.744824405239881E9, 0.0, 2025-04-16 12:26:45.239
112.0, -2123.3263162763496, -4797.354912442554, 21195.91339777868, 7474.646863299235, -7325.203099871052, -5765.006633401708, -32370.26570680925, 22539.052073842537, 2701.9906284797944, 23420.269598993018, -15133.606211376931, -6687.261961372133, -9296.93988525151, 7883.661435086899, -41686.5398510146, -187500.02235174447, -0.12275, 0.9381250000000001, 0.287625, 192.0, 0.0, 0.0, 0.0, 0.0, 0.0, 0.0, 0.0, 0.0, 0.0, 1.744824405239979E9, 0.0, 2025-04-16 12:26:45.239
114.0, -2081.9532372895765, -4767.716499294817, 21209.659720618693, 7500.284314189472, -7293.396567511149, -5750.165075083384, -32360.74386367129, 22563.437827043275, 2712.25007918478, 23424.695244395167, -15122.743263571652, -6663.41265003832, -9290.12260319264, 7903.219211485292, -41682.87416492393, -187500.02235174447, -0.12275, 0.9381250000000001, 0.287625, 192.0, 0.0, 0.0, 0.0, 0.0, 0.0, 0.0, 0.0, 0.0, 0.0, 1.744824405240082E9, 0.0, 2025-04-16 12:26:45.240
116.0, -2112.1727957931516, -4789.509450138742, 21213.750089854013, 7487.923799505687, -7310.249782830451, -5750.813275672588, -32357.54756421418, 22552.41841702681, 2717.905070531973, 23437.793366645976, -15115.166022201303, -6666.877170428893, -9279.729042020923, 7898.793566083142, -41672.32414154102, -187500.02235174447, -0.123375, 0.9410625000000001, 0.2838125, 192.0, 126.0, 16.0, 14.5, 64.0, 4.0, 96.0, 0.0, 0.0, 0.0, 1.744824405240184E9, 0.0, 2025-04-16 12:26:45.240
118.0, -2091.7209496165456, -4780.94873201236, 21206.597531628315, 7496.082186231874, -7303.499556004948, -5760.893912421931, -32373.238488821804, 22553.357190293933, 2716.094579231093, 23418.97319781461, -15117.691769324752, -6660.551626748041, -9284.288797889805, 7904.47090917479, -41677.375635787925, -187500.02235174447, -0.123375, 0.9410625000000001, 0.2838125, 192.0, 0.0, 0.0, 0.0, 0.0, 0.0, 0.0, 0.0, 0.0, 0.0, 1.744824405240284E9, 0.0, 2025-04-16 12:26:45.240
120.0, -2118.5653947073693, -4799.3442176990775, 21201.21076121459, 7478.558418578914, -7320.285716090884, -5759.441049032337, -32372.053846365674, 22543.27655354459, 2708.003247738272, 23452.16553833074, -15123.190298460759, -6675.75081297765, -9286.658082802067, 7894.0549962586165, -41682.91886841284, -187500.02235174447, -0.123375, 0.9410625000000001, 0.2838125, 192.0, 0.0, 0.0, 0.0, 0.0, 0.0, 0.0, 0.0, 0.0, 0.0, 1.744824405299508E9, 0.0, 2025-04-16 12:26:45.299
122.0, -2094.0455310398975, -4780.099365723057, 21201.926017037156, 7491.813003040911, -7313.7590067099345, -5758.0105373871975, -32379.429922035924, 22554.340667049964, 2710.640753583998, 23414.882828579288, -15125.157251972825, -6670.028766397091, -9287.88742874711, 7897.899496304929, -41685.82459519203, -187500.02235174447, -0.123375, 0.9410625000000001, 0.2838125, 192.0, 0.0, 0.0, 0.0, 0.0, 0.0, 0.0, 0.0, 0.0, 0.0, 1.744824405299626E9, 0.0, 2025-04-16 12:26:45.299
124.0, -2119.6829819301347, -4800.215935732834, 21205.591703127826, 7477.7090522896115, -7318.832852701289, -5751.305014050605, -32375.7418842008, 22548.395103024854, 2705.186927936903, 23462.69320996919, -15124.956086272728, -6674.32030133251, -9284.646425801091, 7901.185202739859, -41681.555412001064, -187500.02235174447, -0.123375, 0.9410625000000001, 0.2838125, 192.0, 0.0, 0.0, 0.0, 0.0, 0.0, 0.0, 0.0, 0.0, 0.0, 1.744824405299726E9, 0.0, 2025-04-16 12:26:45.299
126.0, -2092.771481605945, -4778.758261055739, 21212.140764253232, 7497.57975311038, -7301.622009470703, -5741.649060445912, -32361.146195071484, 22568.444617801266, 2696.715616788342, 23406.187999986174, -15127.817109563008, -6676.153144377845, -9294.07886196123, 7903.845060330041, -41682.896516668385, -187500.02235174447, -0.1236875, 0.93853125, 0.28090625, 192.0, 126.0, 16.0, 14.5, 32.0, 4.0, 88.0, 0.0, 0.0, 0.0, 1.744824405299816E9, 0.0, 2025-04-16 12:26:45.299
128.0, -2113.5586039493805, -4796.080863008602, 21211.24669447502, 7483.587561081357, -7307.634628729181, -5741.179673812351, -32358.486337481303, 22558.252222329644, 2705.5892593370986, 23471.432742051216, -15120.12810947038, -6667.860647184926, -9278.656158287067, 7908.404816198924, -41674.089929352995, -187500.02235174447, -0.1236875, 0.93853125, 0.28090625, 192.0, 0.0, 0.0, 0.0, 0.0, 0.0, 0.0, 0.0, 0.0, 0.0, 1.744824405299923E9, 0.0, 2025-04-16 12:26:45.299
130.0, -2089.016388537453, -4772.969159241815, 21212.8560200758, 7499.881982789277, -7303.231335071485, -5740.911452878887, -32356.564087458148, 22566.65647824484, 2705.410445381456, 23406.411517430726, -15114.137841956359, -6666.117211117413, -9283.439431600504, 7913.724531379286, -41671.921810140826, -187500.02235174447, -0.1236875, 0.93853125, 0.28090625, 192.0, 0.0, 0.0, 0.0, 0.0, 0.0, 0.0, 0.0, 0.0, 0.0, 1.744824405300037E9, 0.0, 2025-04-16 12:26:45.300
132.0, -2123.3486680208052, -4810.251868993267, 21196.62865360125, 7475.0044912105195, -7316.172995111107, -5757.809371687099, -32366.667075951944, 22546.51755649061, 2696.4697475993335, 23473.109122885362, -15125.55958337302, -6668.061812885024, -9286.054585701775, 7907.0860632760605, -41683.656475979864, -187500.02235174447, -0.1236875, 0.93853125, 0.28090625, 192.0, 0.0, 0.0, 0.0, 0.0, 0.0, 0.0, 0.0, 0.0, 0.0, 1.744824405300139E9, 0.0, 2025-04-16 12:26:45.300
134.0, -2118.4536359850927, -4805.133319513002, 21189.565502353373, 7482.6934913031455, -7321.045675402364, -5760.5362845106465, -32376.144215600994, 22546.606963468428, 2677.9625031903392, 23382.361040396816, -15142.61396439242, -6694.0792434310015, -9308.249867945895, 7886.3659961659905, -41693.938278429305, -187500.02235174447, -0.1236875, 0.93853125, 0.28090625, 192.0, 0.0, 0.0, 0.0, 0.0, 0.0, 0.0, 0.0, 0.0, 0.0, 1.744824405359724E9, 0.0, 2025-04-16 12:26:45.359
136.0, -2127.5954994673134, -4818.074979552624, 21196.807467556893, 7477.95492147862, -7311.657942731135, -5755.574197241569, -32363.69429393939, 22553.021914127105, 2682.902238714962, 23457.93228840021, -15136.71310385622, -6680.08705140198, -9296.492850362403, 7891.797470068631, -41691.412531305854, -187500.02235174447, -0.1236875, 0.93853125, 0.28090625, 192.0, 0.0, 0.0, 0.0, 0.0, 0.0, 0.0, 0.0, 0.0, 0.0, 1.744824405362294E9, 0.0, 2025-04-16 12:26:45.362
138.0, -2115.056170827886, -4798.271333965223, 21203.177714726655, 7489.041386728452, -7314.608372999236, -5748.488694249237, -32363.649590450477, 22563.683696232285, 2686.9479044613727, 23376.34842113834, -15131.393388675857, -6685.764394493627, -9296.60460908468, 7890.791641568142, -41680.75074920068, -187500.02235174447, -0.124, 0.936, 0.28200000000000003, 192.0, 126.0, 16.0, 14.5, 32.0, 4.0, 104.0, 0.0, 0.0, 0.0, 1.744824405362394E9, 0.0, 2025-04-16 12:26:45.362
140.0, -2119.2359470410283, -4808.553136414664, 21206.172848483664, 7484.906314004221, -7306.561744995326, -5752.04262161763, -32358.754558414767, 22559.66038223033, 2689.2948376291797, 23458.155805844763, -15127.571240373998, -6669.581731507985, -9288.334463636216, 7899.665284116899, -41687.00923764816, -187500.02235174447, -0.124, 0.936, 0.28200000000000003, 192.0, 0.0, 0.0, 0.0, 0.0, 0.0, 0.0, 0.0, 0.0, 0.0, 1.744824405362503E9, 0.0, 2025-04-16 12:26:45.362
142.0, -2121.873452886755, -4800.953543299859, 21201.14370598122, 7484.347520392838, -7323.213794614529, -5755.529493752658, -32369.88572715351, 22554.765350194615, 2684.556267804655, 23382.00341248553, -15126.006618262127, -6685.853801471449, -9293.475364860937, 7886.27658918817, -41683.12003411294, -187500.02235174447, -0.124, 0.936, 0.28200000000000003, 192.0, 0.0, 0.0, 0.0, 0.0, 0.0, 0.0, 0.0, 0.0, 0.0, 1.744824405362597E9, 0.0, 2025-04-16 12:26:45.362
144.0, -2107.166005035163, -4797.9360577983925, 21208.273912462464, 7482.335863391861, -7305.578268239292, -5753.361374540494, -32361.280305538217, 22553.401893782844, 2690.6582940409535, 23456.07709361042, -15124.240830450159, -6672.12983037589, -9288.446222358492, 7893.585609625055, -41692.15013887288, -187500.02235174447, -0.124, 0.936, 0.28200000000000003, 192.0, 0.0, 0.0, 0.0, 0.0, 0.0, 0.0, 0.0, 0.0, 0.0, 1.744824405362693E9, 0.0, 2025-04-16 12:26:45.362
146.0, -2115.4585022280817, -4796.125566497513, 21207.849229317813, 7486.9179710051985, -7318.966963168021, -5746.722906437267, -32361.25795379376, 22562.36494330942, 2703.3093814026574, 23391.10057247884, -15109.891010509851, -6677.337786833977, -9276.800963497277, 7897.631275371466, -41671.16185082935, -187500.02235174447, -0.124, 0.936, 0.28200000000000003, 192.0, 0.0, 0.0, 0.0, 0.0, 0.0, 0.0, 0.0, 0.0, 0.0, 1.744824405362783E9, 0.0, 2025-04-16 12:26:45.362
148.0, -2112.731589404534, -4805.669761379929, 21194.19231345562, 7473.752793521023, -7319.816329457322, -5769.298168337127, -32366.957648629865, 22551.16671933731, 2687.1490701614703, 23446.622305705823, -15127.70535084073, -6676.197847866756, -9289.072071203242, 7888.020025255683, -41693.2900778401, -187500.02235174447, -0.128, 0.934, 0.28400000000000003, 192.0, 126.0, 0.0, 14.5, 24.0, 4.0, 112.0, 0.0, 0.0, 0.0, 1.74482440536288E9, 0.0, 2025-04-16 12:26:45.362
150.0, -2121.314659275372, -4800.193583988379, 21205.502296150007, 7478.893694745743, -7327.460626061038, -5760.402174043915, -32355.290038024195, 22552.060789115523, 2691.5523638191657, 23386.78668579897, -15122.385635660368, -6691.03940618508, -9288.64738805859, 7879.526362362667, -41680.504880011664, -187500.02235174447, -0.128, 0.934, 0.28400000000000003, 192.0, 0.0, 0.0, 0.0, 0.0, 0.0, 0.0, 0.0, 0.0, 0.0, 1.74482440542005E9, 0.0, 2025-04-16 12:26:45.420
152.0, -2113.3350865048274, -4809.223688748323, 21196.67335709016, 7469.774183007978, -7310.719169464013, -5773.656758505912, -32369.50574749777, 22552.105492604434, 2696.8050237661632, 23435.982875345097, -15127.61594386291, -6676.555475778041, -9281.517181577346, 7884.1308217204605, -41689.62439174943, -187500.02235174447, -0.128, 0.934, 0.28400000000000003, 192.0, 0.0, 0.0, 0.0, 0.0, 0.0, 0.0, 0.0, 0.0, 0.0, 1.744824405420208E9, 0.0, 2025-04-16 12:26:45.420
154.0, -2129.8306739128443, -4807.100273025068, 21198.550903624404, 7469.304796374417, -7326.8794807052, -5762.346775811527, -32371.048017865185, 22546.964591379714, 2679.1471456464706, 23393.648671346746, -15135.573164889, -6701.902353990359, -9295.777594539833, 7870.093926202528, -41696.01699066365, -187500.02235174447, -0.128, 0.934, 0.28400000000000003, 192.0, 0.0, 0.0, 0.0, 0.0, 0.0, 0.0, 0.0, 0.0, 0.0, 1.74482440542032E9, 0.0, 2025-04-16 12:26:45.420
156.0, -2099.991095065009, -4786.044929748169, 21201.881313548245, 7487.230895427572, -7308.059311873832, -5763.129086867462, -32377.910003412966, 22551.569050737507, 2692.357026619557, 23444.565945215934, -15118.541135614054, -6666.228969839689, -9285.182867668018, 7902.302789962625, -41684.25997308016, -187500.02235174447, -0.128, 0.934, 0.28400000000000003, 192.0, 0.0, 0.0, 0.0, 0.0, 0.0, 0.0, 0.0, 0.0, 0.0, 1.744824405420417E9, 0.0, 2025-04-16 12:26:45.420
158.0, -2119.0347813409307, -4789.643560605474, 21202.48481064854, 7483.185229681162, -7331.126312151709, -5754.903644907909, -32385.397837805493, 22537.487451730663, 2685.6962067718755, 23426.751604885056, -15125.872507795395, -6684.691510759772, -9294.525896850337, 7889.383481667457, -41694.11709238495, -187500.02235174447, -0.128, 0.9380000000000001, 0.28, 192.0, 126.0, 0.0, 14.5, 40.0, 4.0, 96.0, 0.0, 0.0, 0.0, 1.744824405420516E9, 0.0, 2025-04-16 12:26:45.420
160.0, -2093.9561240620765, -4780.077013978603, 21196.516894878972, 7492.572962352391, -7315.167166610619, -5765.073688635074, -32384.861395938566, 22545.08704484547, 2696.8497272550735, 23444.25302079356, -15115.680112323775, -6660.3281093034875, -9286.903951991077, 7903.018045785195, -41691.47958653922, -187500.02235174447, -0.128, 0.9380000000000001, 0.28, 192.0, 0.0, 0.0, 0.0, 0.0, 0.0, 0.0, 0.0, 0.0, 0.0, 1.744824405420622E9, 0.0, 2025-04-16 12:26:45.420
162.0, -2116.710199917579, -4787.341330926577, 21200.741374581026, 7480.48066860207, -7330.478111562505, -5758.658737976401, -32374.8925179115, 22535.632256940873, 2690.166555662937, 23442.196660303674, -15122.162118215814, -6681.271693858111, -9295.375263139638, 7888.869391544985, -41694.094740640496, -187500.02235174447, -0.128, 0.9380000000000001, 0.28, 192.0, 0.0, 0.0, 0.0, 0.0, 0.0, 0.0, 0.0, 0.0, 0.0, 1.744824405420721E9, 0.0, 2025-04-16 12:26:45.420
164.0, -2107.0765980573415, -4796.170269986424, 21205.323482194362, 7490.762471051511, -7308.4169397851165, -5760.111601365996, -32369.59515447559, 22555.055922872536, 2694.77101502073, 23430.372587486814, -15118.541135614054, -6667.346557062454, -9286.74748977989, 7900.067615517094, -41685.71283646976, -187500.02235174447, -0.128, 0.9380000000000001, 0.28, 192.0, 0.0, 0.0, 0.0, 0.0, 0.0, 0.0, 0.0, 0.0, 0.0, 1.744824405480273E9, 0.0, 2025-04-16 12:26:45.480
166.0, -2148.0920491328297, -4829.295555269188, 21192.985319255033, 7463.225121882573, -7331.97567844101, -5770.035775904153, -32375.004276633776, 22540.46023374322, 2674.6991484998644, 23436.74283465658, -15135.28259221108, -6692.805193997049, -9293.900048005587, 7881.18039145236, -41689.78085396062, -187500.02235174447, -0.128, 0.9380000000000001, 0.28, 192.0, 0.0, 0.0, 0.0, 0.0, 0.0, 0.0, 0.0, 0.0, 0.0, 1.744824405480395E9, 0.0, 2025-04-16 12:26:45.480
168.0, -2112.575127193347, -4799.925363054916, 21203.892970549223, 7488.6837588171675, -7303.7230734495015, -5760.782153699655, -32359.78273865971, 22560.688562475272, 2687.0373114391937, 23407.953787798142, -15124.777272317086, -6676.51077228913, -9286.255751401872, 7894.636141614455, -41682.94122015729, -187500.02235174447, -0.122, 0.932, 0.28200000000000003, 192.0, 126.0, 24.0, 14.5, 16.0, 4.0, 104.0, 0.0, 0.0, 0.0, 1.744824405480485E9, 0.0, 2025-04-16 12:26:45.480
170.0, -2147.7791247104556, -4828.8708721245375, 21200.003767014, 7468.611892296302, -7318.989314912476, -5763.419659545381, -32363.649590450477, 22543.120091333403, 2677.068433412127, 23439.15682305775, -15128.688827596765, -6688.379548594899, -9286.658082802067, 7879.414603640391, -41684.66230448036, -187500.02235174447, -0.122, 0.932, 0.28200000000000003, 192.0, 0.0, 0.0, 0.0, 0.0, 0.0, 0.0, 0.0, 0.0, 0.0, 1.744824405480591E9, 0.0, 2025-04-16 12:26:45.480
172.0, -2116.441978984115, -4804.529822412708, 21200.80842981439, 7485.9791977380755, -7312.194384598063, -5764.4701915347805, -32367.941125385896, 22550.138539092368, 2670.0946891420713, 23392.575787612892, -15131.795720076052, -6688.401900339353, -9300.739681808911, 7880.1969146963265, -41690.76433071665, -187500.02235174447, -0.122, 0.932, 0.28200000000000003, 192.0, 0.0, 0.0, 0.0, 0.0, 0.0, 0.0, 0.0, 0.0, 0.0, 1.744824405480694E9, 0.0, 2025-04-16 12:26:45.480
174.0, -2142.3029473189054, -4826.5239389567305, 21198.32738617985, 7470.221217897084, -7325.940707438077, -5767.890008436443, -32371.696218454388, 22537.196879052746, 2671.882828698496, 23450.667971452236, -15133.717970099207, -6687.552534050052, -9295.308207906271, 7877.961740250796, -41689.91496442735, -187500.02235174447, -0.122, 0.932, 0.28200000000000003, 192.0, 0.0, 0.0, 0.0, 0.0, 0.0, 0.0, 0.0, 0.0, 0.0, 1.744824405480798E9, 0.0, 2025-04-16 12:26:45.480
176.0, -2100.3040194873834, -4788.749490827262, 21213.839496831835, 7498.585581610869, -7304.550087994348, -5754.702479207812, -32369.818671920144, 22558.18516709628, 2684.6680265269315, 23395.034479502974, -15118.004693747127, -6680.668196757817, -9291.866039260154, 7889.405833411913, -41682.18126084581, -187500.02235174447, -0.122, 0.932, 0.28200000000000003, 192.0, 0.0, 0.0, 0.0, 0.0, 0.0, 0.0, 0.0, 0.0, 0.0, 1.744824405480906E9, 0.0, 2025-04-16 12:26:45.480
178.0, -2130.255357057495, -4821.4724447098315, 21196.896874534712, 7468.298967873928, -7315.457739288538, -5771.801563716122, -32373.39495103299, 22539.49910873164, 2686.3667591055346, 23464.8389774369, -15120.821013548497, -6680.198810124256, -9284.26644614535, 7886.544810121633, -41684.19291784679, -187500.02235174447, -0.124, 0.934, 0.278, 192.0, 126.0, 16.0, 14.5, 24.0, 4.0, 88.0, 0.0, 0.0, 0.0, 1.744824405481001E9, 0.0, 2025-04-16 12:26:45.481
180.0, -2112.731589404534, -4803.367531701032, 21204.407060671696, 7483.095822703341, -7310.808576441834, -5765.543075268635, -32368.946953886385, 22551.74786469315, 2676.5766950341103, 23384.77502879799, -15127.884164796373, -6693.475746330709, -9297.588085840713, 7873.826667526564, -41691.211365605755, -187500.02235174447, -0.124, 0.934, 0.278, 192.0, 0.0, 0.0, 0.0, 0.0, 0.0, 0.0, 0.0, 0.0, 0.0, 1.744824405539555E9, 0.0, 2025-04-16 12:26:45.539
182.0, -2135.7538861935004, -4822.277107510222, 21203.356528682296, 7472.076412686874, -7308.8863264186775, -5766.705365980311, -32364.767177673242, 22546.87518440189, 2677.135488645493, 23459.027523878518, -15125.023141506093, -6684.289179359577, -9291.284893904316, 7885.918961276885, -41686.96453415925, -187500.02235174447, -0.124, 0.934, 0.278, 192.0, 0.0, 0.0, 0.0, 0.0, 0.0, 0.0, 0.0, 0.0, 0.0, 1.744824405539667E9, 0.0, 2025-04-16 12:26:45.539
184.0, -2106.60721142378, -4791.252886206256, 21215.426470688162, 7496.708035076623, -7303.164279838119, -5750.098019850018, -32361.21325030485, 22557.469911273707, 2672.419270565423, 23384.015069486508, -15120.306923426024, -6687.910161961337, -9296.783423040322, 7881.783888552653, -41683.388255046404, -187500.02235174447, -0.124, 0.934, 0.278, 192.0, 0.0, 0.0, 0.0, 0.0, 0.0, 0.0, 0.0, 0.0, 0.0, 1.744824405539775E9, 0.0, 2025-04-16 12:26:45.539
186.0, -2112.150444048696, -4808.508432925753, 21216.365243955286, 7485.174534937684, -7294.290637289362, -5754.61307222999, -32359.156889814964, 22555.234736828177, 2692.669951041931, 23474.651393252778, -15105.822993018985, -6661.356289548432, -9273.716422762445, 7902.414548684901, -41674.87224040893, -187500.02235174447, -0.124, 0.934, 0.278, 192.0, 0.0, 0.0, 0.0, 0.0, 0.0, 0.0, 0.0, 0.0, 0.0, 1.744824405539866E9, 0.0, 2025-04-16 12:26:45.539
188.0, -2119.9735546080537, -4811.548270171675, 21207.089270006334, 7482.358215136316, -7312.68612297608, -5763.464363034292, -32363.336666028103, 22548.149233835848, 2678.811869479641, 23385.825560787387, -15116.685940824264, -6688.781879995094, -9289.586161325713, 7885.673092087876, -41677.085063110004, -187500.02235174447, -0.122, 0.9400000000000001, 0.278, 192.0, 126.0, 24.0, 14.5, 48.0, 4.0, 88.0, 0.0, 0.0, 0.0, 1.744824405539956E9, 0.0, 2025-04-16 12:26:45.539
190.0, -2115.1679295501626, -4812.509395183253, 21205.658758361194, 7479.050156956931, -7305.265343816918, -5764.38078455696, -32368.522270741734, 22545.93641113477, 2681.359968347546, 23455.518299999036, -15123.167946716303, -6676.13079263339, -9287.17217292454, 7887.528286877667, -41686.29398182559, -187500.02235174447, -0.122, 0.9400000000000001, 0.278, 192.0, 0.0, 0.0, 0.0, 0.0, 0.0, 0.0, 0.0, 0.0, 0.0, 1.74482440554006E9, 0.0, 2025-04-16 12:26:45.540
192.0, -2106.4954527015034, -4793.085729251591, 21225.19418301513, 7502.452433401637, -7296.838736157267, -5746.2758715481605, -32343.82359311862, 22562.968440409713, 2683.572791048621, 23385.512636365016, -15112.506164611123, -6681.718728747217, -9284.042928700797, 7890.389310167946, -41673.24056306369, -187500.02235174447, -0.122, 0.9400000000000001, 0.278, 192.0, 0.0, 0.0, 0.0, 0.0, 0.0, 0.0, 0.0, 0.0, 0.0, 1.74482440554016E9, 0.0, 2025-04-16 12:26:45.540
194.0, -2112.41866498216, -4811.9058980829595, 21210.732604352546, 7490.449546629137, -7286.959265108021, -5758.144647853929, -32358.307523525662, 22561.247356086657, 2681.963465447839, 23468.147035616286, -15111.70150181073, -6663.837333182971, -9278.276178631328, 7900.782871339664, -41675.36397878695, -187500.02235174447, -0.122, 0.9400000000000001, 0.278, 192.0, 0.0, 0.0, 0.0, 0.0, 0.0, 0.0, 0.0, 0.0, 0.0, 1.744824405599542E9, 0.0, 2025-04-16 12:26:45.599
196.0, -2129.8753774017546, -4814.275182995222, 21204.228246716055, 7484.727500048578, -7308.931029907589, -5752.355546040005, -32359.715683426344, 22559.056885130034, 2667.390128062979, 23396.733212081577, -15124.12907172788, -6695.599162053963, -9294.280027661327, 7886.32129267708, -41681.15308060087, -187500.02235174447, -0.122, 0.9400000000000001, 0.278, 192.0, 0.0, 0.0, 0.0, 0.0, 0.0, 0.0, 0.0, 0.0, 0.0, 1.744824405599678E9, 0.0, 2025-04-16 12:26:45.599
198.0, -2112.1727957931516, -4806.988514302792, 21203.088307748832, 7482.2241046695835, -7297.06225360182, -5752.3778977844595, -32363.649590450477, 22564.711876477228, 2669.312378086135, 23453.417236020236, -15130.879298553384, -6680.578789779996, -9293.341254394205, 7889.852868301019, -41691.1890138613, -187500.02235174447, -0.122, 0.9440000000000001, 0.278, 192.0, 126.0, 24.0, 14.5, 64.0, 4.0, 88.0, 0.0, 0.0, 0.0, 1.744824405599789E9, 0.0, 2025-04-16 12:26:45.599
200.0, -2123.773351165456, -4802.205240989357, 21209.43620317414, 7483.855782014822, -7312.01557064242, -5745.918243636876, -32355.5359072132, 22563.75075146565, 2678.409538079445, 23404.06458426292, -15125.045493250549, -6684.736214248684, -9292.916571249554, 7888.958798522806, -41678.78379568861, -187500.02235174447, -0.122, 0.9440000000000001, 0.278, 192.0, 0.0, 0.0, 0.0, 0.0, 0.0, 0.0, 0.0, 0.0, 0.0, 1.744824405599892E9, 0.0, 2025-04-16 12:26:45.599
202.0, -2104.5284991894364, -4793.622171118519, 21202.261293203985, 7486.649750071735, -7301.085567603775, -5753.920168151876, -32369.773968431233, 22562.007315398136, 2692.044102197183, 23449.125701084817, -15124.37494091689, -6660.886902914871, -9285.227571156927, 7896.334874193058, -41681.421301534334, -187500.02235174447, -0.122, 0.9440000000000001, 0.278, 192.0, 0.0, 0.0, 0.0, 0.0, 0.0, 0.0, 0.0, 0.0, 0.0, 1.74482440559999E9, 0.0, 2025-04-16 12:26:45.599
204.0, -2113.2903830159166, -4798.159575242946, 21204.34000543833, 7482.648787814234, -7319.21283235703, -5745.650022703412, -32363.381369517014, 22558.699257218752, 2699.509584845255, 23410.613645388323, -15127.034798507071, -6681.651673513851, -9288.088594447207, 7881.985054252751, -41682.67299922383, -187500.02235174447, -0.122, 0.9440000000000001, 0.278, 192.0, 0.0, 0.0, 0.0, 0.0, 0.0, 0.0, 0.0, 0.0, 0.0, 1.74482440560009E9, 0.0, 2025-04-16 12:26:45.600
206.0, -2090.245734482495, -4790.872906550516, 21198.170923968664, 7489.778994295478, -7305.645323472658, -5755.976528641764, -32370.399817275982, 22558.341629307466, 2712.898279773984, 23438.59802944637, -15119.681074581275, -6661.624510481895, -9276.152762908074, 7901.967513795796, -41676.10158635397, -187500.02235174447, -0.122, 0.9440000000000001, 0.278, 192.0, 0.0, 0.0, 0.0, 0.0, 0.0, 0.0, 0.0, 0.0, 0.0, 1.744824405600191E9, 0.0, 2025-04-16 12:26:45.600
208.0, -2110.2728975144505, -4795.834993819594, 21204.563522882883, 7488.773165794989, -7313.870765432212, -5744.778304669655, -32352.563125200646, 22556.240565328666, 2708.2714686717354, 23423.60000891686, -15127.23596420717, -6686.770222994116, -9286.881600246621, 7881.828592041564, -41677.12976659891, -187500.02235174447, -0.123, 0.9400000000000001, 0.28, 192.0, 126.0, 16.0, 14.5, 32.0, 4.0, 104.0, 0.0, 0.0, 0.0, 1.744824405600278E9, 0.0, 2025-04-16 12:26:45.600
210.0, -2079.4274901661265, -4774.578484842597, 21208.542133395928, 7508.48740440457, -7292.211925055019, -5741.202025556806, -32357.681674680913, 22574.680754504294, 2729.572681137643, 23445.839994649887, -15112.662626822308, -6656.684774957273, -9271.414193083549, 7912.629295900977, -41665.17158331533, -187500.02235174447, -0.123, 0.9400000000000001, 0.28, 192.0, 0.0, 0.0, 0.0, 0.0, 0.0, 0.0, 0.0, 0.0, 0.0, 1.744824405659595E9, 0.0, 2025-04-16 12:26:45.659
212.0, -2110.5858219368247, -4796.751415342262, 21205.502296150007, 7494.271694930994, -7312.999047398454, -5738.162188310885, -32357.391102002992, 22564.55541426604, 2730.936137549417, 23450.578564474414, -15115.635408834865, -6672.800382709549, -9272.196504139483, 7899.598228883533, -41663.65166469236, -187500.02235174447, -0.123, 0.9400000000000001, 0.28, 192.0, 0.0, 0.0, 0.0, 0.0, 0.0, 0.0, 0.0, 0.0, 0.0, 1.744824405659741E9, 0.0, 2025-04-16 12:26:45.659
214.0, -2088.03291178142, -4778.601798844552, 21206.28460720594, 7506.900430548243, -7297.665750702114, -5743.884234891443, -32359.469814237335, 22570.74684748016, 2730.734971849319, 23429.612628175335, -15121.938600771262, -6665.558417506029, -9278.656158287067, 7900.246429472737, -41670.08896709549, -187500.02235174447, -0.123, 0.9400000000000001, 0.28, 192.0, 0.0, 0.0, 0.0, 0.0, 0.0, 0.0, 0.0, 0.0, 0.0, 1.744824405659841E9, 0.0, 2025-04-16 12:26:45.659
216.0, -2106.674266657146, -4792.839860062583, 21207.312787450886, 7493.265866430505, -7312.060274131331, -5741.738467423734, -32359.961552615354, 22559.973306652704, 2733.9759747953385, 23448.924535384722, -15118.89876352534, -6668.866475685415, -9275.6386727856, 7896.13370849296, -41668.16671707234, -187500.02235174447, -0.123, 0.9400000000000001, 0.28, 192.0, 0.0, 0.0, 0.0, 0.0, 0.0, 0.0, 0.0, 0.0, 0.0, 1.744824405659948E9, 0.0, 2025-04-16 12:26:45.659
218.0, -2086.6247518807354, -4781.641636090474, 21200.13787748073, 7504.240572958061, -7305.622971728203, -5753.003746629209, -32368.969305630842, 22564.242489843666, 2735.361782951568, 23415.329863468392, -15118.049397236038, -6656.528312746086, -9278.41028909806, 7902.0345690291615, -41673.0841008525, -187500.02235174447, -0.1205, 0.937, 0.28400000000000003, 192.0, 126.0, 40.0, 14.5, 24.0, 4.5, 0.0, 0.0, 0.0, 0.0, 1.744824405660051E9, 0.0, 2025-04-16 12:26:45.660
220.0, -2120.219423797062, -4811.548270171675, 21193.678223333147, 7484.213409926107, -7320.330419579795, -5757.831723431555, -32371.427997520925, 22548.238640813666, 2726.890471803006, 23460.815663434943, -15127.727702585185, -6668.553551263041, -9284.668777545545, 7892.982112524762, -41678.51557475515, -187500.02235174447, -0.1205, 0.937, 0.28400000000000003, 192.0, 0.0, 0.0, 0.0, 0.0, 0.0, 0.0, 0.0, 0.0, 0.0, 1.744824405660156E9, 0.0, 2025-04-16 12:26:45.660
222.0, -2094.7607868624673, -4789.285932694189, 21193.745278566515, 7499.367892666804, -7313.44608228756, -5756.535322253147, -32378.289983068706, 22554.877108916895, 2719.223823454836, 23403.930473796187, -15134.5226328996, -6677.538952534074, -9298.862135274665, 7887.684749088854, -41686.76336845915, -187500.02235174447, -0.1205, 0.937, 0.28400000000000003, 192.0, 0.0, 0.0, 0.0, 0.0, 0.0, 0.0, 0.0, 0.0, 0.0, 1.744824405660261E9, 0.0, 2025-04-16 12:26:45.660
224.0, -2123.3933715097155, -4815.8398051070935, 21188.559673852884, 7480.614779068802, -7320.732750979991, -5759.441049032337, -32378.066465624153, 22546.428149512787, 2720.9002042889842, 23465.12955011482, -15135.483757911177, -6678.745946734661, -9290.83785901521, 7887.394176410935, -41687.41156904836, -187500.02235174447, -0.1205, 0.937, 0.28400000000000003, 192.0, 0.0, 0.0, 0.0, 0.0, 0.0, 0.0, 0.0, 0.0, 0.0, 1.744824405719978E9, 0.0, 2025-04-16 12:26:45.719
226.0, -2101.063978798864, -4795.94675254187, 21193.879389033245, 7496.6633315877125, -7316.128291622197, -5752.556711740102, -32373.707875455366, 22556.84406242896, 2715.0887507306043, 23395.660328347723, -15138.724760857198, -6684.311531104033, -9298.12452770764, 7885.762499065698, -41687.90330742637, -187500.02235174447, -0.1205, 0.937, 0.28400000000000003, 192.0, 0.0, 0.0, 0.0, 0.0, 0.0, 0.0, 0.0, 0.0, 0.0, 1.744824405720116E9, 0.0, 2025-04-16 12:26:45.720
228.0, -2124.488606988026, -4821.695962154385, 21185.81040928488, 7476.032671455464, -7316.709436978035, -5758.904607165409, -32378.871128424544, 22544.751768678638, 2719.87202404404, 23467.632945493813, -15133.852080565941, -6680.243513613166, -9289.452050858981, 7889.383481667457, -41685.60107774747, -187500.02235174447, -0.12125, 0.9375, 0.28400000000000003, 192.0, 126.0, 24.0, 14.5, 40.0, 4.0, 112.0, 0.0, 0.0, 0.0, 1.744824405720229E9, 0.0, 2025-04-16 12:26:45.720
230.0, -2096.6159816522577, -4788.123641982513, 21197.67918559065, 7503.257096202028, -7305.533564750382, -5743.683069191346, -32370.846852165087, 22566.522367778107, 2718.352105421079, 23391.033517245476, -15128.688827596765, -6680.467031057719, -9290.904914248576, 7893.920885791885, -41680.77310094513, -187500.02235174447, -0.12125, 0.9375, 0.28400000000000003, 192.0, 0.0, 0.0, 0.0, 0.0, 0.0, 0.0, 0.0, 0.0, 0.0, 1.744824405720325E9, 0.0, 2025-04-16 12:26:45.720
232.0, -2120.1747203081513, -4813.4928719392865, 21188.87259827526, 7482.604084325324, -7311.7026462200465, -5756.267101319683, -32376.479491767826, 22553.290135060568, 2710.9536780063722, 23471.008058906566, -15136.109606755927, -6671.347519319955, -9292.827164271732, 7891.193972968337, -41688.10447312647, -187500.02235174447, -0.12125, 0.9375, 0.28400000000000003, 192.0, 0.0, 0.0, 0.0, 0.0, 0.0, 0.0, 0.0, 0.0, 0.0, 1.74482440572042E9, 0.0, 2025-04-16 12:26:45.720
234.0, -2110.116435303263, -4798.628961876508, 21194.52758962245, 7490.762471051511, -7318.139948623175, -5755.3730315414705, -32374.579593489125, 22559.392161296866, 2705.455148870367, 23387.948976510645, -15136.37782768939, -6682.679853758795, -9297.185754440517, 7885.986016510251, -41684.796414947086, -187500.02235174447, -0.12125, 0.9375, 0.28400000000000003, 192.0, 0.0, 0.0, 0.0, 0.0, 0.0, 0.0, 0.0, 0.0, 0.0, 1.744824405720511E9, 0.0, 2025-04-16 12:26:45.720
