%OpenBCI Raw EXG Data
%Number of channels = 8
%Sample Rate = 250 Hz
%Board = OpenBCI_GUI$BoardCytonSerial
Sample Index, EXG Channel 0, EXG Channel 1, EXG Channel 2, EXG Channel 3, EXG Channel 4, EXG Channel 5, EXG Channel 6, EXG Channel 7, Accel Channel 0, Accel Channel 1, Accel Channel 2, Not Used, Digital Channel 0 (D11), Digital Channel 1 (D12), Digital Channel 2 (D13), Digital Channel 3 (D17), Not Used, Digital Channel 4 (D18), Analog Channel 0, Analog Channel 1, Analog Channel 2, Timestamp, Marker Channel, Timestamp (Formatted)
253.0, -6656.193036579256, 12432.621411397626, -5516.276421103051, -12487.494944035405, -187500.02235174447, 21899.926292887485, -187500.02235174447, -12386.129782930588, 0.0, 0.0, 0.0, 192.0, 0.0, 0.0, 0.0, 0.0, 0.0, 0.0, 0.0, 0.0, 0.0, 1.741291056004724E9, 0.0, 2025-03-06 13:57:36.004
254.0, -6656.193036579256, 12442.836158613702, -5515.963496680677, -12460.538740222304, -187500.02235174447, 21896.37236551909, -187500.02235174447, -12397.283303413786, 0.0, 0.0, 0.0, 192.0, 0.0, 0.0, 0.0, 0.0, 0.0, 0.0, 0.0, 0.0, 0.0, 1.741291056004756E9, 0.0, 2025-03-06 13:57:36.004
255.0, -6654.382545278376, 12428.55339390676, -5521.28321186104, -12461.298699533785, -187500.02235174447, 21898.965167875907, -187500.02235174447, -12386.196838163953, 0.0, 0.0, 0.0, 192.0, 0.0, 0.0, 0.0, 0.0, 0.0, 0.0, 0.0, 0.0, 0.0, 1.741291056004776E9, 0.0, 2025-03-06 13:57:36.004
0.0, -6650.2698242986, 12418.003370523855, -5522.646668272814, -12500.749528497403, -187500.02235174447, 21895.746516674342, -187500.02235174447, -12380.273625883297, 0.0, 0.0, 0.0, 192.0, 0.0, 0.0, 0.0, 0.0, 0.0, 0.0, 0.0, 0.0, 0.0, 1.741291056004795E9, 0.0, 2025-03-06 13:57:36.004
1.0, -6660.909254659326, 12419.724454846913, -5530.112150920886, -12497.843801718212, -187500.02235174447, 21881.553158945222, -187500.02235174447, -12393.394099878562, 0.168, 0.9400000000000001, -0.218, 192.0, 5.0, 64.0, 29.0, 96.0, 249.0, 48.0, 0.0, 0.0, 0.0, 1.741291056004814E9, 0.0, 2025-03-06 13:57:36.004
2.0, -6652.594405721951, 12436.465911443938, -5523.496034562116, -12475.55911249627, -187500.02235174447, 21887.409315992514, -187500.02235174447, -12382.017061950812, 0.168, 0.9400000000000001, -0.218, 192.0, 0.0, 0.0, 0.0, 0.0, 0.0, 0.0, 0.0, 0.0, 0.0, 1.741291056004835E9, 0.0, 2025-03-06 13:57:36.004
3.0, -6654.293138300555, 12424.910059560545, -5526.2676508745735, -12462.192769311998, -187500.02235174447, 21884.213016535406, -187500.02235174447, -12381.905303228534, 0.168, 0.9400000000000001, -0.218, 192.0, 0.0, 0.0, 0.0, 0.0, 0.0, 0.0, 0.0, 0.0, 0.0, 1.741291056004873E9, 0.0, 2025-03-06 13:57:36.004
4.0, -6647.341745774955, 12411.677826843004, -5524.770083996068, -12493.418156316062, -187500.02235174447, 21891.522036972292, -187500.02235174447, -12387.873218998102, 0.168, 0.9400000000000001, -0.218, 192.0, 0.0, 0.0, 0.0, 0.0, 0.0, 0.0, 0.0, 0.0, 0.0, 1.741291056004892E9, 0.0, 2025-03-06 13:57:36.004
5.0, -6654.382545278376, 12419.389178680085, -5524.613621784881, -12489.506601036383, -187500.02235174447, 21893.980728862374, -187500.02235174447, -12384.386346863073, 0.168, 0.9400000000000001, -0.218, 192.0, 0.0, 0.0, 0.0, 0.0, 0.0, 0.0, 0.0, 0.0, 0.0, 1.741291056004911E9, 0.0, 2025-03-06 13:57:36.004
6.0, -6651.432115010276, 12427.659324128548, -5522.691371761724, -12480.543551509805, -187500.02235174447, 21889.488028226857, -187500.02235174447, -12395.763384790826, 0.168, 0.9400000000000001, -0.218, 192.0, 0.0, 0.0, 0.0, 0.0, 0.0, 0.0, 0.0, 0.0, 0.0, 1.74129105600493E9, 0.0, 2025-03-06 13:57:36.004
7.0, -6647.453504497231, 12423.233678726398, -5516.611697269881, -12476.27436831884, -187500.02235174447, 21888.035164837263, -187500.02235174447, -12388.364957376118, 0.168, 0.9400000000000001, -0.218, 192.0, 0.0, 0.0, 0.0, 0.0, 0.0, 0.0, 0.0, 0.0, 0.0, 1.741291056004949E9, 0.0, 2025-03-06 13:57:36.004
8.0, -6658.942301147259, 12408.101547730155, -5517.729284492646, -12496.65915926208, -187500.02235174447, 21884.883568869063, -187500.02235174447, -12384.855733496635, 0.168, 0.9400000000000001, -0.218, 192.0, 0.0, 0.0, 0.0, 0.0, 0.0, 0.0, 0.0, 0.0, 0.0, 1.741291056004974E9, 0.0, 2025-03-06 13:57:36.004
9.0, -6665.424307039298, 12404.748786061858, -5520.679714760747, -12509.734929768436, -187500.02235174447, 21881.687269411956, -187500.02235174447, -12393.930541745489, 0.168, 0.9400000000000001, -0.218, 192.0, 0.0, 0.0, 0.0, 0.0, 0.0, 0.0, 0.0, 0.0, 0.0, 1.741291056004993E9, 0.0, 2025-03-06 13:57:36.004
10.0, -6655.2766150565885, 12420.909097303045, -5511.448444300705, -12493.865191205168, -187500.02235174447, 21885.4647142249, -187500.02235174447, -12390.041338210267, 0.168, 0.9400000000000001, -0.218, 192.0, 0.0, 0.0, 0.0, 0.0, 0.0, 0.0, 0.0, 0.0, 0.0, 1.741291056005013E9, 0.0, 2025-03-06 13:57:36.005
11.0, -6653.957862133725, 12427.748731106369, -5514.8235577134565, -12471.155818838575, -187500.02235174447, 21880.212054277905, -187500.02235174447, -12389.124916687599, 0.164, 0.9460000000000001, -0.22, 192.0, 5.0, 32.0, 29.0, 144.0, 249.0, 32.0, 0.0, 0.0, 0.0, 1.741291056005039E9, 0.0, 2025-03-06 13:57:36.005
12.0, -6651.566225477008, 12415.74584433387, -5523.384275839839, -12492.702900493492, -187500.02235174447, 21876.90399609852, -187500.02235174447, -12396.925675502502, 0.164, 0.9460000000000001, -0.22, 192.0, 0.0, 0.0, 0.0, 0.0, 0.0, 0.0, 0.0, 0.0, 0.0, 1.74129105600506E9, 0.0, 2025-03-06 13:57:36.005
13.0, -6658.7411354471615, 12417.511632145839, -5524.278345618051, -12507.186830900531, -187500.02235174447, 21879.13917054405, -187500.02235174447, -12381.301806128242, 0.164, 0.9460000000000001, -0.22, 192.0, 0.0, 0.0, 0.0, 0.0, 0.0, 0.0, 0.0, 0.0, 0.0, 1.741291056005088E9, 0.0, 2025-03-06 13:57:36.005
14.0, -6659.389336036365, 12426.809957839247, -5525.060656673987, -12494.155763883087, -187500.02235174447, 21871.539577429245, -187500.02235174447, -12390.398966121551, 0.164, 0.9460000000000001, -0.22, 192.0, 0.0, 0.0, 0.0, 0.0, 0.0, 0.0, 0.0, 0.0, 0.0, 1.741291056005107E9, 0.0, 2025-03-06 13:57:36.005
0.0, 0.0, 0.0, 0.0, 0.0, 0.0, 0.0, 0.0, 0.0, 0.158, 0.9480000000000001, -0.218, 192.0, 4.0, 240.0, 29.0, 160.0, 249.0, 48.0, 0.0, 0.0, 0.0, 1.741291056082763E9, 0.0, 2025-03-06 13:57:36.082
1.0, -6650.694507443251, 12538.523976626871, -5526.334706107939, -12494.647502261103, -187500.02235174447, 21254.49731999604, -187500.02235174447, -12580.38879399166, 0.158, 0.9480000000000001, -0.218, 192.0, 0.0, 0.0, 0.0, 0.0, 0.0, 0.0, 0.0, 0.0, 0.0, 1.741291056156817E9, 0.0, 2025-03-06 13:57:36.156
2.0, -6645.151274818334, 12549.029296520865, -5521.126749649853, -12508.036197189833, -187500.02235174447, 21259.459407265116, -187500.02235174447, -12571.269282253896, 0.158, 0.9480000000000001, -0.218, 192.0, 0.0, 0.0, 0.0, 0.0, 0.0, 0.0, 0.0, 0.0, 0.0, 1.741291056156853E9, 0.0, 2025-03-06 13:57:36.156
3.0, -6659.8587226699265, 12557.969994302988, -5518.064560659476, -12477.906045664078, -187500.02235174447, 21252.552718228428, -187500.02235174447, -12572.610386921215, 0.158, 0.9480000000000001, -0.218, 192.0, 0.0, 0.0, 0.0, 0.0, 0.0, 0.0, 0.0, 0.0, 0.0, 1.741291056156901E9, 0.0, 2025-03-06 13:57:36.156
4.0, -6668.50884777413, 12537.518148126383, -5527.8546247309005, -12472.765144439358, -187500.02235174447, 21242.71795066809, -187500.02235174447, -12588.815401651313, 0.158, 0.9480000000000001, -0.218, 192.0, 0.0, 0.0, 0.0, 0.0, 0.0, 0.0, 0.0, 0.0, 0.0, 1.74129105615692E9, 0.0, 2025-03-06 13:57:36.156
5.0, -6662.362118048921, 12536.400560903618, -5529.843929987423, -12506.963313455977, -187500.02235174447, 21247.411817003707, -187500.02235174447, -12585.73086091648, 0.158, 0.9480000000000001, -0.218, 192.0, 0.0, 0.0, 0.0, 0.0, 0.0, 0.0, 0.0, 0.0, 0.0, 1.74129105615694E9, 0.0, 2025-03-06 13:57:36.156
6.0, -6659.456391269731, 12545.609479619203, -5525.865319474378, -12514.719368781969, -187500.02235174447, 21248.194128059644, -187500.02235174447, -12579.539427702359, 0.158, 0.9480000000000001, -0.218, 192.0, 0.0, 0.0, 0.0, 0.0, 0.0, 0.0, 0.0, 0.0, 0.0, 1.741291056156959E9, 0.0, 2025-03-06 13:57:36.156
7.0, -6657.534141246574, 12555.466598923995, -5525.61945028537, -12484.812734700768, -187500.02235174447, 21238.91815411069, -187500.02235174447, -12588.211904551019, 0.158, 0.9480000000000001, -0.218, 192.0, 0.0, 0.0, 0.0, 0.0, 0.0, 0.0, 0.0, 0.0, 0.0, 1.741291056156978E9, 0.0, 2025-03-06 13:57:36.156
8.0, -6655.678946456784, 12544.156616229608, -5528.7933979980235, -12462.170417567542, -187500.02235174447, 21235.274819764476, -187500.02235174447, -12588.591884206759, 0.156, 0.9460000000000001, -0.21, 192.0, 4.0, 224.0, 29.0, 144.0, 249.0, 112.0, 0.0, 0.0, 0.0, 1.741291056156997E9, 0.0, 2025-03-06 13:57:36.156
9.0, -6653.086144099969, 12529.069188722277, -5527.586403797437, -12500.391900586117, -187500.02235174447, 21237.130014554266, -187500.02235174447, -12577.617177679203, 0.156, 0.9460000000000001, -0.21, 192.0, 0.0, 0.0, 0.0, 0.0, 0.0, 0.0, 0.0, 0.0, 0.0, 1.741291056157025E9, 0.0, 2025-03-06 13:57:36.157
10.0, -6665.379603550387, 12534.657124836103, -5528.838101486934, -12510.874868735656, -187500.02235174447, 21226.512935937993, -187500.02235174447, -12585.35088126074, 0.156, 0.9460000000000001, -0.21, 192.0, 0.0, 0.0, 0.0, 0.0, 0.0, 0.0, 0.0, 0.0, 0.0, 1.741291056157045E9, 0.0, 2025-03-06 13:57:36.157
11.0, -6666.050155884047, 12548.24698546493, -5520.635011271836, -12491.294740592808, -187500.02235174447, 21230.111566795298, -187500.02235174447, -12591.609369708225, 0.156, 0.9460000000000001, -0.21, 192.0, 0.0, 0.0, 0.0, 0.0, 0.0, 0.0, 0.0, 0.0, 0.0, 1.741291056157071E9, 0.0, 2025-03-06 13:57:36.157
12.0, -6666.161914606323, 12545.67653485257, -5520.4561973161935, -12464.98673736891, -187500.02235174447, 21235.230116275565, -187500.02235174447, -12595.744442432457, 0.156, 0.9460000000000001, -0.21, 192.0, 0.0, 0.0, 0.0, 0.0, 0.0, 0.0, 0.0, 0.0, 0.0, 1.74129105615709E9, 0.0, 2025-03-06 13:57:36.157
13.0, -6666.407783795332, 12524.889412509134, -5525.842967729923, -12477.369603797151, -187500.02235174447, 21231.497374951527, -187500.02235174447, -12590.335320274273, 0.156, 0.9460000000000001, -0.21, 192.0, 0.0, 0.0, 0.0, 0.0, 0.0, 0.0, 0.0, 0.0, 0.0, 1.741291056157117E9, 0.0, 2025-03-06 13:57:36.157
14.0, -6659.255225569633, 12529.225650933464, -5520.523252549559, -12509.466708834972, -187500.02235174447, 21240.25925877801, -187500.02235174447, -12579.561779446814, 0.156, 0.9460000000000001, -0.21, 192.0, 0.0, 0.0, 0.0, 0.0, 0.0, 0.0, 0.0, 0.0, 0.0, 1.741291056157137E9, 0.0, 2025-03-06 13:57:36.157
15.0, -6660.238702325667, 12542.256717950908, -5512.2978105900065, -12496.726214495447, -187500.02235174447, 21249.9152123827, -187500.02235174447, -12574.95732008902, 0.156, 0.9460000000000001, -0.21, 192.0, 0.0, 0.0, 0.0, 0.0, 0.0, 0.0, 0.0, 0.0, 0.0, 1.741291056157156E9, 0.0, 2025-03-06 13:57:36.157
16.0, -6677.896580445359, 12540.446226650027, -5515.896441447311, -12458.392972754595, -187500.02235174447, 21248.73056992657, -187500.02235174447, -12576.29842475634, 0.156, 0.9460000000000001, -0.21, 192.0, 0.0, 0.0, 0.0, 0.0, 0.0, 0.0, 0.0, 0.0, 0.0, 1.741291056216491E9, 0.0, 2025-03-06 13:57:36.216
17.0, -6681.092879902468, 12522.207203174497, -5519.249203115607, -12449.631088928116, -187500.02235174447, 21247.85885189281, -187500.02235174447, -12570.44226770905, 0.156, 0.9460000000000001, -0.21, 192.0, 0.0, 0.0, 0.0, 0.0, 0.0, 0.0, 0.0, 0.0, 0.0, 1.741291056216526E9, 0.0, 2025-03-06 13:57:36.216
18.0, -6666.586597750974, 12518.943848484023, -5516.164662380775, -12477.883693919623, -187500.02235174447, 21253.670305451193, -187500.02235174447, -12567.782410118869, 0.158, 0.9540000000000001, -0.212, 192.0, 4.0, 240.0, 29.0, 208.0, 249.0, 96.0, 0.0, 0.0, 0.0, 1.741291056216547E9, 0.0, 2025-03-06 13:57:36.216
19.0, -6657.780010435583, 12536.28880218134, -5512.230755356641, -12473.033365372821, -187500.02235174447, 21259.459407265116, -187500.02235174447, -12557.567662902793, 0.158, 0.9540000000000001, -0.212, 192.0, 0.0, 0.0, 0.0, 0.0, 0.0, 0.0, 0.0, 0.0, 0.0, 1.7412910562166E9, 0.0, 2025-03-06 13:57:36.216
20.0, -6659.791667436561, 12541.787331317346, -5516.544642036515, -12457.588309954204, -187500.02235174447, 21248.529404226472, -187500.02235174447, -12573.213884021508, 0.158, 0.9540000000000001, -0.212, 192.0, 0.0, 0.0, 0.0, 0.0, 0.0, 0.0, 0.0, 0.0, 0.0, 1.74129105621662E9, 0.0, 2025-03-06 13:57:36.216
21.0, -6658.472914513697, 12526.968124743478, -5517.706932748191, -12475.760278196369, -187500.02235174447, 21240.326314011374, -187500.02235174447, -12584.680328927081, 0.158, 0.9540000000000001, -0.212, 192.0, 0.0, 0.0, 0.0, 0.0, 0.0, 0.0, 0.0, 0.0, 0.0, 1.741291056216639E9, 0.0, 2025-03-06 13:57:36.216
22.0, -6655.097801100946, 12525.96229624299, -5513.773025724056, -12493.909894694078, -187500.02235174447, 21243.29909602393, -187500.02235174447, -12580.992291091954, 0.158, 0.9540000000000001, -0.212, 192.0, 0.0, 0.0, 0.0, 0.0, 0.0, 0.0, 0.0, 0.0, 0.0, 1.741291056216658E9, 0.0, 2025-03-06 13:57:36.216
23.0, -6640.50211197163, 12548.559909887304, -5503.80414769699, -12493.37345282715, -187500.02235174447, 21250.09402633834, -187500.02235174447, -12583.071003326299, 0.158, 0.9540000000000001, -0.212, 192.0, 0.0, 0.0, 0.0, 0.0, 0.0, 0.0, 0.0, 0.0, 0.0, 1.741291056216677E9, 0.0, 2025-03-06 13:57:36.216
24.0, -6640.8373881384605, 12572.58803517676, -5499.512612761571, -12466.104324591675, -187500.02235174447, 21252.95504962862, -187500.02235174447, -12580.589959691759, 0.158, 0.9540000000000001, -0.212, 192.0, 0.0, 0.0, 0.0, 0.0, 0.0, 0.0, 0.0, 0.0, 0.0, 1.741291056216707E9, 0.0, 2025-03-06 13:57:36.216
25.0, -6652.415591766309, 12566.575415918282, -5501.881897673834, -12460.918719878046, -187500.02235174447, 21256.35251478583, -187500.02235174447, -12568.341203730251, 0.158, 0.9540000000000001, -0.212, 192.0, 0.0, 0.0, 0.0, 0.0, 0.0, 0.0, 0.0, 0.0, 0.0, 1.741291056216727E9, 0.0, 2025-03-06 13:57:36.216
26.0, -6664.709051216728, 12552.538520400349, -5510.353208822395, -12472.474571761439, -187500.02235174447, 21251.30102053893, -187500.02235174447, -12567.380078718672, 0.158, 0.9540000000000001, -0.212, 192.0, 0.0, 0.0, 0.0, 0.0, 0.0, 0.0, 0.0, 0.0, 0.0, 1.741291056216746E9, 0.0, 2025-03-06 13:57:36.216
27.0, -6667.726536718194, 12551.398581433128, -5514.868261202367, -12480.208275342975, -187500.02235174447, 21246.093064080844, -187500.02235174447, -12572.92331134359, 0.158, 0.9540000000000001, -0.212, 192.0, 0.0, 0.0, 0.0, 0.0, 0.0, 0.0, 0.0, 0.0, 0.0, 1.741291056216771E9, 0.0, 2025-03-06 13:57:36.216
28.0, -6670.207580352733, 12552.359706444706, -5518.355133337394, -12468.004222870377, -187500.02235174447, 21240.281610522463, -187500.02235174447, -12580.612311436214, 0.16, 0.9540000000000001, -0.218, 192.0, 5.0, 0.0, 29.0, 208.0, 249.0, 48.0, 0.0, 0.0, 0.0, 1.741291056216791E9, 0.0, 2025-03-06 13:57:36.216
29.0, -6655.522484245597, 12550.973898288477, -5509.637952999825, -12455.397838997584, -187500.02235174447, 21245.44486349164, -187500.02235174447, -12577.639529423659, 0.16, 0.9540000000000001, -0.218, 192.0, 0.0, 0.0, 0.0, 0.0, 0.0, 0.0, 0.0, 0.0, 0.0, 1.741291056216817E9, 0.0, 2025-03-06 13:57:36.216
30.0, -6655.500132501142, 12535.461787636494, -5514.018894913065, -12474.709746206969, -187500.02235174447, 21241.175680300676, -187500.02235174447, -12584.613273693714, 0.16, 0.9540000000000001, -0.218, 192.0, 0.0, 0.0, 0.0, 0.0, 0.0, 0.0, 0.0, 0.0, 0.0, 1.741291056216836E9, 0.0, 2025-03-06 13:57:36.216
31.0, -6662.339766304465, 12542.323773184273, -5510.844947200411, -12482.935188166522, -187500.02235174447, 21241.756825656514, -187500.02235174447, -12590.000044107443, 0.16, 0.9540000000000001, -0.218, 192.0, 0.0, 0.0, 0.0, 0.0, 0.0, 0.0, 0.0, 0.0, 0.0, 1.741291056216856E9, 0.0, 2025-03-06 13:57:36.216
32.0, -6660.350461047943, 12559.646375137136, -5501.7924906960125, -12464.964385624455, -187500.02235174447, 21245.556622213917, -187500.02235174447, -12589.798878407346, 0.16, 0.9540000000000001, -0.218, 192.0, 0.0, 0.0, 0.0, 0.0, 0.0, 0.0, 0.0, 0.0, 0.0, 1.741291056277645E9, 0.0, 2025-03-06 13:57:36.277
33.0, -6662.362118048921, 12550.593918632738, -5506.240487842619, -12450.279289517319, -187500.02235174447, 21245.757787914015, -187500.02235174447, -12588.077794084287, 0.16, 0.9540000000000001, -0.218, 192.0, 0.0, 0.0, 0.0, 0.0, 0.0, 0.0, 0.0, 0.0, 0.0, 1.741291056277681E9, 0.0, 2025-03-06 13:57:36.277
34.0, -6656.014222623614, 12536.378209159162, -5513.147176879308, -12478.017804386354, -187500.02235174447, 21246.338933269853, -187500.02235174447, -12573.571511932792, 0.16, 0.9540000000000001, -0.218, 192.0, 0.0, 0.0, 0.0, 0.0, 0.0, 0.0, 0.0, 0.0, 0.0, 1.741291056277726E9, 0.0, 2025-03-06 13:57:36.277
35.0, -6658.450562769242, 12545.564776130293, -5516.611697269881, -12480.275330576342, -187500.02235174447, 21245.601325702828, -187500.02235174447, -12573.34799448824, 0.16, 0.9540000000000001, -0.218, 192.0, 0.0, 0.0, 0.0, 0.0, 0.0, 0.0, 0.0, 0.0, 0.0, 1.741291056277745E9, 0.0, 2025-03-06 13:57:36.277
36.0, -6659.970481392203, 12558.171160003087, -5518.221022870663, -12466.37254552514, -187500.02235174447, 21242.49443322354, -187500.02235174447, -12579.517075957905, 0.16, 0.9540000000000001, -0.218, 192.0, 0.0, 0.0, 0.0, 0.0, 0.0, 0.0, 0.0, 0.0, 0.0, 1.741291056277765E9, 0.0, 2025-03-06 13:57:36.277
37.0, -6664.329071560988, 12558.394677447639, -5520.255031616096, -12452.045077329289, -187500.02235174447, 21242.203860545622, -187500.02235174447, -12583.674500426592, 0.16, 0.9540000000000001, -0.218, 192.0, 0.0, 0.0, 0.0, 0.0, 0.0, 0.0, 0.0, 0.0, 0.0, 1.741291056277784E9, 0.0, 2025-03-06 13:57:36.277
38.0, -6666.273673328599, 12538.211052204497, -5526.8040927415, -12471.446391516494, -187500.02235174447, 21234.380749986263, -187500.02235174447, -12600.751233190445, 0.152, 0.9540000000000001, -0.218, 192.0, 4.0, 192.0, 29.0, 208.0, 249.0, 48.0, 0.0, 0.0, 0.0, 1.741291056277803E9, 0.0, 2025-03-06 13:57:36.277
39.0, -6669.917007674815, 12542.301421439817, -5526.893499719322, -12483.583388755726, -187500.02235174447, 21230.558601684406, -187500.02235174447, -12598.672520956103, 0.152, 0.9540000000000001, -0.218, 192.0, 0.0, 0.0, 0.0, 0.0, 0.0, 0.0, 0.0, 0.0, 0.0, 1.741291056277831E9, 0.0, 2025-03-06 13:57:36.277
40.0, -6666.206618095233, 12556.137151257653, -5516.812862969979, -12470.105286849177, -187500.02235174447, 21239.521651210984, -187500.02235174447, -12577.237198023462, 0.152, 0.9540000000000001, -0.218, 192.0, 0.0, 0.0, 0.0, 0.0, 0.0, 0.0, 0.0, 0.0, 0.0, 1.741291056277851E9, 0.0, 2025-03-06 13:57:36.277
41.0, -6663.971443649703, 12562.708564127513, -5517.081083903442, -12449.340516250197, -187500.02235174447, 21240.214555289098, -187500.02235174447, -12579.114744557708, 0.152, 0.9540000000000001, -0.218, 192.0, 0.0, 0.0, 0.0, 0.0, 0.0, 0.0, 0.0, 0.0, 0.0, 1.74129105627787E9, 0.0, 2025-03-06 13:57:36.277
42.0, -6673.247417598655, 12537.04876149282, -5531.09562767692, -12461.186940811509, -187500.02235174447, 21227.96579932759, -187500.02235174447, -12599.723052945501, 0.152, 0.9540000000000001, -0.218, 192.0, 0.0, 0.0, 0.0, 0.0, 0.0, 0.0, 0.0, 0.0, 0.0, 1.741291056277895E9, 0.0, 2025-03-06 13:57:36.277
43.0, -6671.3028158310435, 12538.456921393505, -5521.2161566276745, -12486.04208064581, -187500.02235174447, 21231.229154018063, -187500.02235174447, -12593.241047053463, 0.152, 0.9540000000000001, -0.218, 192.0, 0.0, 0.0, 0.0, 0.0, 0.0, 0.0, 0.0, 0.0, 0.0, 1.741291056277915E9, 0.0, 2025-03-06 13:57:36.277
44.0, -6663.36794654941, 12555.041915779342, -5510.174394866753, -12473.368641539651, -187500.02235174447, 21246.696561181136, -187500.02235174447, -12578.377136990684, 0.152, 0.9540000000000001, -0.218, 192.0, 0.0, 0.0, 0.0, 0.0, 0.0, 0.0, 0.0, 0.0, 0.0, 1.741291056277939E9, 0.0, 2025-03-06 13:57:36.277
45.0, -6655.053097612035, 12561.926253071577, -5509.28032508854, -12449.18405403901, -187500.02235174447, 21245.0648838359, -187500.02235174447, -12584.568570204803, 0.152, 0.9540000000000001, -0.218, 192.0, 0.0, 0.0, 0.0, 0.0, 0.0, 0.0, 0.0, 0.0, 0.0, 1.741291056277959E9, 0.0, 2025-03-06 13:57:36.277
46.0, -6657.847065668949, 12546.190624975041, -5515.494110047115, -12450.279289517319, -187500.02235174447, 21239.67811342217, -187500.02235174447, -12580.545256202848, 0.152, 0.9540000000000001, -0.218, 192.0, 0.0, 0.0, 0.0, 0.0, 0.0, 0.0, 0.0, 0.0, 0.0, 1.741291056277978E9, 0.0, 2025-03-06 13:57:36.277
47.0, -6665.9607489062255, 12543.284898195852, -5522.244336872618, -12473.100420606188, -187500.02235174447, 21242.449729734628, -187500.02235174447, -12572.610386921215, 0.152, 0.9540000000000001, -0.218, 192.0, 0.0, 0.0, 0.0, 0.0, 0.0, 0.0, 0.0, 0.0, 0.0, 1.741291056337454E9, 0.0, 2025-03-06 13:57:36.337
48.0, -6660.171647092301, 12550.973898288477, -5517.952801937199, -12474.396821784596, -187500.02235174447, 21243.075578579377, -187500.02235174447, -12575.180837533575, 0.148, 0.9500000000000001, -0.214, 192.0, 4.0, 160.0, 29.0, 176.0, 249.0, 80.0, 0.0, 0.0, 0.0, 1.741291056337488E9, 0.0, 2025-03-06 13:57:36.337
49.0, -6658.674080213796, 12559.24404373694, -5515.963496680677, -12454.526120963827, -187500.02235174447, 21242.49443322354, -187500.02235174447, -12578.935930602067, 0.148, 0.9500000000000001, -0.214, 192.0, 0.0, 0.0, 0.0, 0.0, 0.0, 0.0, 0.0, 0.0, 0.0, 1.741291056337534E9, 0.0, 2025-03-06 13:57:36.337
50.0, -6665.0219756391025, 12545.788293574846, -5520.612659527381, -12451.08395231771, -187500.02235174447, 21242.87441287928, -187500.02235174447, -12580.992291091954, 0.148, 0.9500000000000001, -0.214, 192.0, 0.0, 0.0, 0.0, 0.0, 0.0, 0.0, 0.0, 0.0, 0.0, 1.741291056337559E9, 0.0, 2025-03-06 13:57:36.337
51.0, -6672.755679220639, 12537.451092893016, -5525.708857263191, -12473.815676428758, -187500.02235174447, 21238.337008754854, -187500.02235174447, -12587.094317328254, 0.148, 0.9500000000000001, -0.214, 192.0, 0.0, 0.0, 0.0, 0.0, 0.0, 0.0, 0.0, 0.0, 0.0, 1.741291056337578E9, 0.0, 2025-03-06 13:57:36.337
52.0, -6677.471897300708, 12542.435531906549, -5524.010124684587, -12472.921606650545, -187500.02235174447, 21235.811261631403, -187500.02235174447, -12589.553009218336, 0.148, 0.9500000000000001, -0.214, 192.0, 0.0, 0.0, 0.0, 0.0, 0.0, 0.0, 0.0, 0.0, 0.0, 1.741291056337597E9, 0.0, 2025-03-06 13:57:36.337
53.0, -6671.07929838649, 12555.86893032419, -5513.057769901487, -12446.144216793087, -187500.02235174447, 21238.44876747713, -187500.02235174447, -12586.468468483505, 0.148, 0.9500000000000001, -0.214, 192.0, 0.0, 0.0, 0.0, 0.0, 0.0, 0.0, 0.0, 0.0, 0.0, 1.741291056337616E9, 0.0, 2025-03-06 13:57:36.337
54.0, -6667.860647184926, 12540.446226650027, -5515.404703069295, -12443.305545247264, -187500.02235174447, 21233.889011608248, -187500.02235174447, -12595.073890098798, 0.148, 0.9500000000000001, -0.214, 192.0, 0.0, 0.0, 0.0, 0.0, 0.0, 0.0, 0.0, 0.0, 0.0, 1.741291056337648E9, 0.0, 2025-03-06 13:57:36.337
55.0, -6661.289234315066, 12529.069188722277, -5515.024723413554, -12479.381260798129, -187500.02235174447, 21234.514860452993, -187500.02235174447, -12599.052500611842, 0.148, 0.9500000000000001, -0.214, 192.0, 0.0, 0.0, 0.0, 0.0, 0.0, 0.0, 0.0, 0.0, 0.0, 1.741291056337667E9, 0.0, 2025-03-06 13:57:36.337
56.0, -6656.885940657371, 12547.755247086912, -5508.56506926597, -12487.09261263521, -187500.02235174447, 21241.555659956415, -187500.02235174447, -12586.356709761229, 0.148, 0.9500000000000001, -0.214, 192.0, 0.0, 0.0, 0.0, 0.0, 0.0, 0.0, 0.0, 0.0, 0.0, 1.741291056337686E9, 0.0, 2025-03-06 13:57:36.337
57.0, -6668.173571607301, 12562.663860638602, -5507.402778554294, -12443.216138269441, -187500.02235174447, 21240.147500055733, -187500.02235174447, -12577.930102101578, 0.148, 0.9500000000000001, -0.214, 192.0, 4.0, 160.0, 29.0, 176.0, 249.0, 80.0, 0.0, 0.0, 0.0, 1.741291056337712E9, 0.0, 2025-03-06 13:57:36.337
58.0, -6667.03363264008, 12554.594880890238, -5513.28128734604, -12431.816748597235, -187500.02235174447, 21242.9638198571, -187500.02235174447, -12578.041860823854, 0.148, 0.9500000000000001, -0.214, 192.0, 0.0, 0.0, 0.0, 0.0, 0.0, 0.0, 0.0, 0.0, 0.0, 1.741291056337733E9, 0.0, 2025-03-06 13:57:36.337
59.0, -6664.597292494452, 12538.166348715586, -5523.048999673009, -12470.909949649567, -187500.02235174447, 21240.661590178202, -187500.02235174447, -12584.30034927134, 0.148, 0.9500000000000001, -0.214, 192.0, 0.0, 0.0, 0.0, 0.0, 0.0, 0.0, 0.0, 0.0, 0.0, 1.741291056337758E9, 0.0, 2025-03-06 13:57:36.337
60.0, -6660.84219942596, 12549.543386643338, -5515.427054813749, -12472.116943850155, -187500.02235174447, 21243.500261724028, -187500.02235174447, -12577.930102101578, 0.148, 0.9500000000000001, -0.214, 192.0, 0.0, 0.0, 0.0, 0.0, 0.0, 0.0, 0.0, 0.0, 0.0, 1.741291056337777E9, 0.0, 2025-03-06 13:57:36.337
61.0, -6660.998661637147, 12560.138113515153, -5516.768159481068, -12454.660231430558, -187500.02235174447, 21237.219421532085, -187500.02235174447, -12590.625892952192, 0.148, 0.9500000000000001, -0.214, 192.0, 0.0, 0.0, 0.0, 0.0, 0.0, 0.0, 0.0, 0.0, 0.0, 1.741291056337796E9, 0.0, 2025-03-06 13:57:36.337
62.0, -6668.240626840667, 12564.899035084134, -5519.875051960355, -12442.769103380335, -187500.02235174447, 21238.493470966037, -187500.02235174447, -12588.63658769567, 0.148, 0.9500000000000001, -0.214, 192.0, 0.0, 0.0, 0.0, 0.0, 0.0, 0.0, 0.0, 0.0, 0.0, 1.741291056397625E9, 0.0, 2025-03-06 13:57:36.397
63.0, -6672.979196665192, 12546.883529053155, -5521.797301983512, -12467.825408914734, -187500.02235174447, 21244.30492452442, -187500.02235174447, -12576.186666034064, 0.148, 0.9500000000000001, -0.214, 192.0, 0.0, 0.0, 0.0, 0.0, 0.0, 0.0, 0.0, 0.0, 0.0, 1.741291056397665E9, 0.0, 2025-03-06 13:57:36.397
64.0, -6673.493286787664, 12544.983630774455, -5524.501863062605, -12486.71263297947, -187500.02235174447, 21237.934677354657, -187500.02235174447, -12581.841657381256, 0.148, 0.9500000000000001, -0.214, 192.0, 0.0, 0.0, 0.0, 0.0, 0.0, 0.0, 0.0, 0.0, 0.0, 1.741291056397685E9, 0.0, 2025-03-06 13:57:36.397
65.0, -6673.247417598655, 12551.108008755209, -5526.245299130118, -12472.966310139456, -187500.02235174447, 21234.134880797254, -187500.02235174447, -12589.038919095865, 0.148, 0.9500000000000001, -0.214, 192.0, 0.0, 0.0, 0.0, 0.0, 0.0, 0.0, 0.0, 0.0, 0.0, 1.74129105639773E9, 0.0, 2025-03-06 13:57:36.397
66.0, -6677.762469978627, 12543.9107470406, -5528.771046253568, -12450.033420328311, -187500.02235174447, 21223.00371205851, -187500.02235174447, -12609.40135829465, 0.148, 0.9500000000000001, -0.214, 192.0, 0.0, 0.0, 0.0, 0.0, 0.0, 0.0, 0.0, 0.0, 0.0, 1.74129105639775E9, 0.0, 2025-03-06 13:57:36.397
67.0, -6671.70514723124, 12529.67268582257, -5527.944031708722, -12477.168438097053, -187500.02235174447, 21223.227229503063, -187500.02235174447, -12615.369274064216, 0.148, 0.9500000000000001, -0.218, 192.0, 4.0, 160.0, 29.0, 176.0, 249.0, 48.0, 0.0, 0.0, 0.0, 1.741291056397769E9, 0.0, 2025-03-06 13:57:36.397
68.0, -6663.010318638125, 12535.886470781144, -5520.612659527381, -12480.387089298618, -187500.02235174447, 21231.83265111836, -187500.02235174447, -12587.742517917457, 0.148, 0.9500000000000001, -0.218, 192.0, 0.0, 0.0, 0.0, 0.0, 0.0, 0.0, 0.0, 0.0, 0.0, 1.74129105639779E9, 0.0, 2025-03-06 13:57:36.397
69.0, -6659.165818591812, 12546.972936030978, -5513.929487935244, -12471.37933628313, -187500.02235174447, 21241.399197745228, -187500.02235174447, -12578.131267801675, 0.148, 0.9500000000000001, -0.218, 192.0, 0.0, 0.0, 0.0, 0.0, 0.0, 0.0, 0.0, 0.0, 0.0, 1.741291056397809E9, 0.0, 2025-03-06 13:57:36.397
70.0, -6660.819847681505, 12559.802837348323, -5513.4153978127715, -12442.27736500232, -187500.02235174447, 21242.762654157003, -187500.02235174447, -12576.700756156535, 0.148, 0.9500000000000001, -0.218, 192.0, 0.0, 0.0, 0.0, 0.0, 0.0, 0.0, 0.0, 0.0, 0.0, 1.741291056397835E9, 0.0, 2025-03-06 13:57:36.397
71.0, -6652.482646999675, 12547.576433131271, -5512.700141990202, -12456.135446564609, -187500.02235174447, 21246.741264670047, -187500.02235174447, -12581.171105047597, 0.148, 0.9500000000000001, -0.218, 192.0, 0.0, 0.0, 0.0, 0.0, 0.0, 0.0, 0.0, 0.0, 0.0, 1.741291056397855E9, 0.0, 2025-03-06 13:57:36.397
72.0, -6651.3427080324545, 12546.72706684197, -5509.3026768329955, -12483.963368411467, -187500.02235174447, 21247.45652049262, -187500.02235174447, -12582.355747503729, 0.148, 0.9500000000000001, -0.218, 192.0, 0.0, 0.0, 0.0, 0.0, 0.0, 0.0, 0.0, 0.0, 0.0, 1.74129105639788E9, 0.0, 2025-03-06 13:57:36.397
73.0, -6653.980213878181, 12553.834921578757, -5509.749711722102, -12471.759315938869, -187500.02235174447, 21247.948258870634, -187500.02235174447, -12579.9194073581, 0.148, 0.9500000000000001, -0.218, 192.0, 0.0, 0.0, 0.0, 0.0, 0.0, 0.0, 0.0, 0.0, 0.0, 1.741291056397899E9, 0.0, 2025-03-06 13:57:36.397
74.0, -6655.388373778865, 12566.955395574021, -5507.760406465579, -12445.250147014875, -187500.02235174447, 21245.35545651382, -187500.02235174447, -12579.897055613645, 0.148, 0.9500000000000001, -0.218, 192.0, 0.0, 0.0, 0.0, 0.0, 0.0, 0.0, 0.0, 0.0, 0.0, 1.741291056397923E9, 0.0, 2025-03-06 13:57:36.397
75.0, -6665.4913622726635, 12553.656107623114, -5515.0023716690985, -12438.924603334022, -187500.02235174447, 21236.59357268734, -187500.02235174447, -12585.283826027373, 0.148, 0.9500000000000001, -0.218, 192.0, 0.0, 0.0, 0.0, 0.0, 0.0, 0.0, 0.0, 0.0, 0.0, 1.741291056397943E9, 0.0, 2025-03-06 13:57:36.397
76.0, -6665.826638439494, 12544.558947629805, -5517.505767048093, -12470.060583360266, -187500.02235174447, 21244.841366391345, -187500.02235174447, -12575.49376195595, 0.148, 0.9500000000000001, -0.218, 192.0, 0.0, 0.0, 0.0, 0.0, 0.0, 0.0, 0.0, 0.0, 0.0, 1.741291056397962E9, 0.0, 2025-03-06 13:57:36.397
77.0, -6652.348536532943, 12565.882511840167, -5506.464005287172, -12474.03919387331, -187500.02235174447, 21254.20674731812, -187500.02235174447, -12568.855293852723, 0.14400000000000002, 0.9520000000000001, -0.22, 192.0, 4.0, 128.0, 29.0, 192.0, 249.0, 32.0, 0.0, 0.0, 0.0, 1.741291056457837E9, 0.0, 2025-03-06 13:57:36.457
78.0, -6648.414629508809, 12581.640491681159, -5508.006275654588, -12455.0402110863, -187500.02235174447, 21248.752921671025, -187500.02235174447, -12576.253721267429, 0.14400000000000002, 0.9520000000000001, -0.22, 192.0, 0.0, 0.0, 0.0, 0.0, 0.0, 0.0, 0.0, 0.0, 0.0, 1.741291056457873E9, 0.0, 2025-03-06 13:57:36.457
79.0, -6651.588577221463, 12568.67647989708, -5511.202575111696, -12437.359981222151, -187500.02235174447, 21244.908421624714, -187500.02235174447, -12580.858180625222, 0.14400000000000002, 0.9520000000000001, -0.22, 192.0, 0.0, 0.0, 0.0, 0.0, 0.0, 0.0, 0.0, 0.0, 0.0, 1.741291056457893E9, 0.0, 2025-03-06 13:57:36.457
80.0, -6651.588577221463, 12553.76786634539, -5512.2978105900065, -12461.656327445071, -187500.02235174447, 21240.594534944838, -187500.02235174447, -12590.961169119022, 0.14400000000000002, 0.9520000000000001, -0.22, 192.0, 0.0, 0.0, 0.0, 0.0, 0.0, 0.0, 0.0, 0.0, 0.0, 1.741291056457939E9, 0.0, 2025-03-06 13:57:36.457
81.0, -6636.277632269577, 12572.476276454483, -5499.154984850286, -12484.9468451675, -187500.02235174447, 21247.568279214895, -187500.02235174447, -12589.620064451703, 0.14400000000000002, 0.9520000000000001, -0.22, 192.0, 0.0, 0.0, 0.0, 0.0, 0.0, 0.0, 0.0, 0.0, 0.0, 1.741291056457959E9, 0.0, 2025-03-06 13:57:36.457
82.0, -6642.469065483698, 12591.184686563574, -5498.596191238903, -12458.460027987961, -187500.02235174447, 21246.115415825298, -187500.02235174447, -12579.785296891368, 0.14400000000000002, 0.9520000000000001, -0.22, 192.0, 0.0, 0.0, 0.0, 0.0, 0.0, 0.0, 0.0, 0.0, 0.0, 1.741291056457978E9, 0.0, 2025-03-06 13:57:36.457
83.0, -6649.711030687217, 12579.472372468994, -5507.156909365286, -12438.410513211551, -187500.02235174447, 21242.785005901456, -187500.02235174447, -12577.460715468016, 0.14400000000000002, 0.9520000000000001, -0.22, 192.0, 0.0, 0.0, 0.0, 0.0, 0.0, 0.0, 0.0, 0.0, 0.0, 1.741291056457997E9, 0.0, 2025-03-06 13:57:36.457
84.0, -6640.45740848272, 12563.53557867236, -5507.626295998847, -12468.205388570475, -187500.02235174447, 21245.847194891834, -187500.02235174447, -12581.931064359078, 0.14400000000000002, 0.9520000000000001, -0.22, 192.0, 0.0, 0.0, 0.0, 0.0, 0.0, 0.0, 0.0, 0.0, 0.0, 1.741291056458016E9, 0.0, 2025-03-06 13:57:36.458
85.0, -6639.4292282377755, 12572.878607854678, -5506.240487842619, -12470.619376971648, -187500.02235174447, 21245.847194891834, -187500.02235174447, -12580.142924802652, 0.14400000000000002, 0.9520000000000001, -0.22, 192.0, 0.0, 0.0, 0.0, 0.0, 0.0, 0.0, 0.0, 0.0, 0.0, 1.741291056458042E9, 0.0, 2025-03-06 13:57:36.458
86.0, -6647.967594619703, 12580.768773647402, -5511.694313489713, -12443.193786524986, -187500.02235174447, 21242.49443322354, -187500.02235174447, -12584.032128337876, 0.14400000000000002, 0.9520000000000001, -0.22, 192.0, 0.0, 0.0, 0.0, 0.0, 0.0, 0.0, 0.0, 0.0, 0.0, 1.741291056458061E9, 0.0, 2025-03-06 13:57:36.458
87.0, -6648.571091719997, 12583.093355070754, -5510.822595455957, -12429.9839055519, -187500.02235174447, 21249.602287960326, -187500.02235174447, -12582.981596348476, 0.148, 0.9520000000000001, -0.218, 192.0, 4.0, 160.0, 29.0, 192.0, 249.0, 48.0, 0.0, 0.0, 0.0, 1.74129105645808E9, 0.0, 2025-03-06 13:57:36.458
88.0, -6659.389336036365, 12565.167256017598, -5515.09177864692, -12449.18405403901, -187500.02235174447, 21250.831633905367, -187500.02235174447, -12579.427668980083, 0.148, 0.9520000000000001, -0.218, 192.0, 0.0, 0.0, 0.0, 0.0, 0.0, 0.0, 0.0, 0.0, 0.0, 1.741291056458109E9, 0.0, 2025-03-06 13:57:36.458
89.0, -6654.941338889759, 12565.167256017598, -5516.745807736613, -12472.631033972626, -187500.02235174447, 21246.674209436682, -187500.02235174447, -12582.691023670557, 0.148, 0.9520000000000001, -0.218, 192.0, 0.0, 0.0, 0.0, 0.0, 0.0, 0.0, 0.0, 0.0, 0.0, 1.741291056458129E9, 0.0, 2025-03-06 13:57:36.458
90.0, -6650.873321398893, 12577.72893640148, -5513.102473390398, -12458.683545432514, -187500.02235174447, 21242.270915778987, -187500.02235174447, -12580.00881433592, 0.148, 0.9520000000000001, -0.218, 192.0, 0.0, 0.0, 0.0, 0.0, 0.0, 0.0, 0.0, 0.0, 0.0, 1.741291056458154E9, 0.0, 2025-03-06 13:57:36.458
91.0, -6658.785838936072, 12584.076831826787, -5505.145252364308, -12431.257954985853, -187500.02235174447, 21246.428340247672, -187500.02235174447, -12576.991328834454, 0.148, 0.9520000000000001, -0.218, 192.0, 0.0, 0.0, 0.0, 0.0, 0.0, 0.0, 0.0, 0.0, 0.0, 1.741291056458173E9, 0.0, 2025-03-06 13:57:36.458
92.0, -6660.953958148237, 12564.362593217205, -5509.146214621808, -12452.000373840378, -187500.02235174447, 21245.57897395837, -187500.02235174447, -12577.639529423659, 0.148, 0.9520000000000001, -0.218, 192.0, 0.0, 0.0, 0.0, 0.0, 0.0, 0.0, 0.0, 0.0, 0.0, 1.741291056518233E9, 0.0, 2025-03-06 13:57:36.518
93.0, -6662.0268418820915, 12567.693003141047, -5509.079159388442, -12461.790437911803, -187500.02235174447, 21239.544002955437, -187500.02235174447, -12583.853314382233, 0.148, 0.9520000000000001, -0.218, 192.0, 0.0, 0.0, 0.0, 0.0, 0.0, 0.0, 0.0, 0.0, 0.0, 1.741291056518266E9, 0.0, 2025-03-06 13:57:36.518
94.0, -6650.381583020876, 12578.041860823854, -5501.077234873443, -12448.491149960893, -187500.02235174447, 21242.941468112644, -187500.02235174447, -12578.175971290586, 0.148, 0.9520000000000001, -0.218, 192.0, 0.0, 0.0, 0.0, 0.0, 0.0, 0.0, 0.0, 0.0, 0.0, 1.741291056518287E9, 0.0, 2025-03-06 13:57:36.518
95.0, -6652.192074321756, 12582.06517482581, -5497.61271448287, -12429.112187518143, -187500.02235174447, 21242.33797101235, -187500.02235174447, -12577.170142790097, 0.148, 0.9520000000000001, -0.218, 192.0, 0.0, 0.0, 0.0, 0.0, 0.0, 0.0, 0.0, 0.0, 0.0, 1.741291056518324E9, 0.0, 2025-03-06 13:57:36.518
96.0, -6649.778085920583, 12573.280939254873, -5497.947990649699, -12450.346344750686, -187500.02235174447, 21247.8141484039, -187500.02235174447, -12583.9203696156, 0.148, 0.9520000000000001, -0.218, 192.0, 0.0, 0.0, 0.0, 0.0, 0.0, 0.0, 0.0, 0.0, 0.0, 1.741291056518344E9, 0.0, 2025-03-06 13:57:36.518
97.0, -6654.69546970075, 12574.48793345546, -5499.713778461669, -12461.902196634079, -187500.02235174447, 21246.87537513678, -187500.02235174447, -12569.615253164204, 0.148, 0.9540000000000001, -0.214, 192.0, 4.0, 160.0, 29.0, 208.0, 249.0, 80.0, 0.0, 0.0, 0.0, 1.741291056518363E9, 0.0, 2025-03-06 13:57:36.518
98.0, -6646.64884169684, 12583.9203696156, -5494.148194092298, -12465.567882724748, -187500.02235174447, 21249.602287960326, -187500.02235174447, -12559.86989258169, 0.148, 0.9540000000000001, -0.214, 192.0, 0.0, 0.0, 0.0, 0.0, 0.0, 0.0, 0.0, 0.0, 0.0, 1.741291056518384E9, 0.0, 2025-03-06 13:57:36.518
99.0, -6643.988984106659, 12600.974750635, -5489.0519963564875, -12437.9858300669, -187500.02235174447, 21252.195090317142, -187500.02235174447, -12562.619157149693, 0.148, 0.9540000000000001, -0.214, 192.0, 0.0, 0.0, 0.0, 0.0, 0.0, 0.0, 0.0, 0.0, 0.0, 1.741291056518403E9, 0.0, 2025-03-06 13:57:36.518
100.0, -6667.950054162748, 12574.689099155557, -5507.872165187856, -12433.761350364846, -187500.02235174447, 21239.141671555244, -187500.02235174447, -12572.900959599134, 0.148, 0.9540000000000001, -0.214, 192.0, 0.0, 0.0, 0.0, 0.0, 0.0, 0.0, 0.0, 0.0, 0.0, 1.741291056518438E9, 0.0, 2025-03-06 13:57:36.518
101.0, -6656.2153883237115, 12569.190570019553, -5504.988790153121, -12455.800170397779, -187500.02235174447, 21238.560526199406, -187500.02235174447, -12577.416011979105, 0.148, 0.9540000000000001, -0.214, 192.0, 0.0, 0.0, 0.0, 0.0, 0.0, 0.0, 0.0, 0.0, 0.0, 1.741291056518457E9, 0.0, 2025-03-06 13:57:36.518
102.0, -6647.677021941784, 12581.841657381256, -5499.80318543949, -12454.123789563631, -187500.02235174447, 21243.746130913038, -187500.02235174447, -12569.414087464105, 0.148, 0.9540000000000001, -0.214, 192.0, 0.0, 0.0, 0.0, 0.0, 0.0, 0.0, 0.0, 0.0, 0.0, 1.741291056518477E9, 0.0, 2025-03-06 13:57:36.518
103.0, -6653.130847588879, 12594.090413342765, -5502.7312639631355, -12429.380408451607, -187500.02235174447, 21245.668380936193, -187500.02235174447, -12568.028279307877, 0.148, 0.9540000000000001, -0.214, 192.0, 0.0, 0.0, 0.0, 0.0, 0.0, 0.0, 0.0, 0.0, 0.0, 1.741291056518503E9, 0.0, 2025-03-06 13:57:36.518
104.0, -6655.522484245597, 12582.892189370656, -5503.759444208079, -12428.55339390676, -187500.02235174447, 21247.92590712618, -187500.02235174447, -12575.359651489218, 0.148, 0.9540000000000001, -0.214, 192.0, 0.0, 0.0, 0.0, 0.0, 0.0, 0.0, 0.0, 0.0, 0.0, 1.741291056518523E9, 0.0, 2025-03-06 13:57:36.518
105.0, -6656.483609257175, 12565.234311250962, -5505.212307597674, -12458.012993098855, -187500.02235174447, 21241.0639215784, -187500.02235174447, -12578.175971290586, 0.148, 0.9540000000000001, -0.214, 192.0, 0.0, 0.0, 0.0, 0.0, 0.0, 0.0, 0.0, 0.0, 0.0, 1.741291056518552E9, 0.0, 2025-03-06 13:57:36.518
106.0, -6653.734344689173, 12570.799895620334, -5499.624371483847, -12461.186940811509, -187500.02235174447, 21247.769444914993, -187500.02235174447, -12560.33927921525, 0.148, 0.9540000000000001, -0.214, 192.0, 0.0, 0.0, 0.0, 0.0, 0.0, 0.0, 0.0, 0.0, 0.0, 1.741291056518572E9, 0.0, 2025-03-06 13:57:36.518
107.0, -6653.309661544521, 12582.266340525906, -5497.679769716236, -12448.066466816243, -187500.02235174447, 21246.16011931421, -187500.02235174447, -12560.67455538208, 0.15, 0.9500000000000001, -0.214, 192.0, 4.0, 176.0, 29.0, 176.0, 249.0, 80.0, 0.0, 0.0, 0.0, 1.741291056578516E9, 0.0, 2025-03-06 13:57:36.578
108.0, -6655.142504589857, 12577.639529423659, -5506.329894820439, -12419.567992635726, -187500.02235174447, 21235.92302035368, -187500.02235174447, -12573.124477043686, 0.15, 0.9500000000000001, -0.214, 192.0, 0.0, 0.0, 0.0, 0.0, 0.0, 0.0, 0.0, 0.0, 0.0, 1.741291056578566E9, 0.0, 2025-03-06 13:57:36.578
109.0, -6666.184266350779, 12552.069133766787, -5519.5174240490705, -12451.709801162458, -187500.02235174447, 21228.09990979432, -187500.02235174447, -12586.557875461325, 0.15, 0.9500000000000001, -0.214, 192.0, 0.0, 0.0, 0.0, 0.0, 0.0, 0.0, 0.0, 0.0, 0.0, 1.741291056578586E9, 0.0, 2025-03-06 13:57:36.578
110.0, -6659.009356380625, 12563.53557867236, -5514.220060613163, -12480.342385809707, -187500.02235174447, 21234.358398241806, -187500.02235174447, -12580.947587603045, 0.15, 0.9500000000000001, -0.214, 192.0, 0.0, 0.0, 0.0, 0.0, 0.0, 0.0, 0.0, 0.0, 0.0, 1.74129105657863E9, 0.0, 2025-03-06 13:57:36.578
111.0, -6660.618681981407, 12578.399488735138, -5511.962534423177, -12459.443504743995, -187500.02235174447, 21235.58774418685, -187500.02235174447, -12577.39366023465, 0.15, 0.9500000000000001, -0.214, 192.0, 0.0, 0.0, 0.0, 0.0, 0.0, 0.0, 0.0, 0.0, 0.0, 1.74129105657865E9, 0.0, 2025-03-06 13:57:36.578
112.0, -6667.167743106812, 12578.913578857611, -5512.677790245747, -12435.974173065923, -187500.02235174447, 21229.19514527263, -187500.02235174447, -12581.327567258784, 0.15, 0.9500000000000001, -0.214, 192.0, 0.0, 0.0, 0.0, 0.0, 0.0, 0.0, 0.0, 0.0, 0.0, 1.741291056578669E9, 0.0, 2025-03-06 13:57:36.578
113.0, -6663.636167482873, 12562.753267616425, -5513.4153978127715, -12465.254958302374, -187500.02235174447, 21229.48571795055, -187500.02235174447, -12588.591884206759, 0.15, 0.9500000000000001, -0.214, 192.0, 0.0, 0.0, 0.0, 0.0, 0.0, 0.0, 0.0, 0.0, 0.0, 1.741291056578688E9, 0.0, 2025-03-06 13:57:36.578
114.0, -6670.028766397091, 12561.367459460194, -5517.8186914704675, -12469.32297579324, -187500.02235174447, 21230.424491217673, -187500.02235174447, -12582.892189370656, 0.15, 0.9500000000000001, -0.214, 192.0, 0.0, 0.0, 0.0, 0.0, 0.0, 0.0, 0.0, 0.0, 0.0, 1.741291056578707E9, 0.0, 2025-03-06 13:57:36.578
115.0, -6667.882998929382, 12569.257625252918, -5519.316258348973, -12460.024650099833, -187500.02235174447, 21230.53624993995, -187500.02235174447, -12582.534561459372, 0.15, 0.9500000000000001, -0.214, 192.0, 0.0, 0.0, 0.0, 0.0, 0.0, 0.0, 0.0, 0.0, 0.0, 1.741291056578726E9, 0.0, 2025-03-06 13:57:36.578
116.0, -6658.852894169438, 12584.00977659342, -5509.705008233191, -12440.489225445894, -187500.02235174447, 21237.644104676736, -187500.02235174447, -12576.767811389902, 0.15, 0.9500000000000001, -0.214, 192.0, 0.0, 0.0, 0.0, 0.0, 0.0, 0.0, 0.0, 0.0, 0.0, 1.741291056578752E9, 0.0, 2025-03-06 13:57:36.578
117.0, -6664.150257605345, 12561.792142604845, -5514.756502480091, -12443.46200745845, -187500.02235174447, 21235.11835755329, -187500.02235174447, -12580.969939347498, 0.148, 0.9500000000000001, -0.212, 192.0, 4.0, 160.0, 29.0, 176.0, 249.0, 96.0, 0.0, 0.0, 0.0, 1.741291056578772E9, 0.0, 2025-03-06 13:57:36.578
118.0, -6669.8946559303595, 12550.526863399371, -5520.500900805104, -12469.390031026607, -187500.02235174447, 21228.703406894616, -187500.02235174447, -12597.420823266606, 0.148, 0.9500000000000001, -0.212, 192.0, 0.0, 0.0, 0.0, 0.0, 0.0, 0.0, 0.0, 0.0, 0.0, 1.741291056578799E9, 0.0, 2025-03-06 13:57:36.578
119.0, -6655.075449356491, 12562.686212383058, -5509.839118699922, -12479.761240453869, -187500.02235174447, 21234.44780521963, -187500.02235174447, -12592.950474375544, 0.148, 0.9500000000000001, -0.212, 192.0, 0.0, 0.0, 0.0, 0.0, 0.0, 0.0, 0.0, 0.0, 0.0, 1.741291056578818E9, 0.0, 2025-03-06 13:57:36.578
120.0, -6637.708143914717, 12586.177895805586, -5492.18124058023, -12459.443504743995, -187500.02235174447, 21247.791796659447, -187500.02235174447, -12568.363555474705, 0.148, 0.9500000000000001, -0.212, 192.0, 0.0, 0.0, 0.0, 0.0, 0.0, 0.0, 0.0, 0.0, 0.0, 1.741291056578843E9, 0.0, 2025-03-06 13:57:36.578
121.0, -6633.438960723754, 12581.10404981423, -5486.816821910957, -12470.574673482737, -187500.02235174447, 21252.0162763615, -187500.02235174447, -12562.797971105334, 0.148, 0.9500000000000001, -0.212, 192.0, 0.0, 0.0, 0.0, 0.0, 0.0, 0.0, 0.0, 0.0, 0.0, 1.741291056578863E9, 0.0, 2025-03-06 13:57:36.578
122.0, -6643.921928873293, 12571.626910165181, -5493.388234780817, -12475.84968517419, -187500.02235174447, 21241.935639612155, -187500.02235174447, -12578.131267801675, 0.148, 0.9500000000000001, -0.212, 192.0, 0.0, 0.0, 0.0, 0.0, 0.0, 0.0, 0.0, 0.0, 0.0, 1.741291056637885E9, 0.0, 2025-03-06 13:57:36.637
123.0, -6649.867492898405, 12581.327567258784, -5492.628275469337, -12465.65728970257, -187500.02235174447, 21244.64020069125, -187500.02235174447, -12568.989404319454, 0.148, 0.9500000000000001, -0.212, 192.0, 0.0, 0.0, 0.0, 0.0, 0.0, 0.0, 0.0, 0.0, 0.0, 1.741291056637919E9, 0.0, 2025-03-06 13:57:36.637
124.0, -6658.897597658348, 12594.850372654246, -5492.583571980425, -12428.195765995475, -187500.02235174447, 21248.909383882212, -187500.02235174447, -12557.344145458239, 0.148, 0.9500000000000001, -0.212, 192.0, 0.0, 0.0, 0.0, 0.0, 0.0, 0.0, 0.0, 0.0, 0.0, 1.741291056637939E9, 0.0, 2025-03-06 13:57:36.637
125.0, -6660.573978492496, 12580.63466318067, -5498.551487749993, -12428.151062506566, -187500.02235174447, 21243.701427424126, -187500.02235174447, -12570.621081664693, 0.148, 0.9500000000000001, -0.212, 192.0, 0.0, 0.0, 0.0, 0.0, 0.0, 0.0, 0.0, 0.0, 0.0, 1.741291056637959E9, 0.0, 2025-03-06 13:57:36.637
126.0, -6656.260091812622, 12563.87085483919, -5508.408607054783, -12467.020746114344, -187500.02235174447, 21236.05713082041, -187500.02235174447, -12588.681291184581, 0.148, 0.9500000000000001, -0.212, 192.0, 0.0, 0.0, 0.0, 0.0, 0.0, 0.0, 0.0, 0.0, 0.0, 1.741291056638E9, 0.0, 2025-03-06 13:57:36.638
127.0, -6645.575957962985, 12577.34895674574, -5500.719606962158, -12463.735039679414, -187500.02235174447, 21240.43807273365, -187500.02235174447, -12583.629796937681, 0.152, 0.9480000000000001, -0.216, 192.0, 4.0, 192.0, 29.0, 160.0, 249.0, 64.0, 0.0, 0.0, 0.0, 1.74129105663802E9, 0.0, 2025-03-06 13:57:36.638
128.0, -6650.962728376714, 12594.783317420879, -5500.630199984336, -12438.499920189372, -187500.02235174447, 21239.05226457742, -187500.02235174447, -12574.242064266451, 0.152, 0.9480000000000001, -0.216, 192.0, 0.0, 0.0, 0.0, 0.0, 0.0, 0.0, 0.0, 0.0, 0.0, 1.741291056638041E9, 0.0, 2025-03-06 13:57:36.638
129.0, -6653.153199333335, 12587.474296983994, -5502.016008140566, -12426.184108994497, -187500.02235174447, 21236.459462220606, -187500.02235174447, -12574.934968344567, 0.152, 0.9480000000000001, -0.216, 192.0, 0.0, 0.0, 0.0, 0.0, 0.0, 0.0, 0.0, 0.0, 0.0, 1.74129105663806E9, 0.0, 2025-03-06 13:57:36.638
130.0, -6651.163894076812, 12574.286767755362, -5507.670999487758, -12458.772952410336, -187500.02235174447, 21234.91719185319, -187500.02235174447, -12586.803744650335, 0.152, 0.9480000000000001, -0.216, 192.0, 0.0, 0.0, 0.0, 0.0, 0.0, 0.0, 0.0, 0.0, 0.0, 1.741291056638079E9, 0.0, 2025-03-06 13:57:36.638
131.0, -6654.2707865561, 12575.560817189315, -5511.895479189811, -12465.523179235839, -187500.02235174447, 21229.999808073022, -187500.02235174447, -12591.788183663868, 0.152, 0.9480000000000001, -0.216, 192.0, 0.0, 0.0, 0.0, 0.0, 0.0, 0.0, 0.0, 0.0, 0.0, 1.741291056638113E9, 0.0, 2025-03-06 13:57:36.638
132.0, -6657.489437757664, 12578.578302690781, -5516.678752503247, -12446.188920281998, -187500.02235174447, 21226.132956282254, -187500.02235174447, -12583.29452077085, 0.152, 0.9480000000000001, -0.216, 192.0, 0.0, 0.0, 0.0, 0.0, 0.0, 0.0, 0.0, 0.0, 0.0, 1.741291056638132E9, 0.0, 2025-03-06 13:57:36.638
133.0, -6660.998661637147, 12567.447133952039, -5522.087874661431, -12439.371638223129, -187500.02235174447, 21220.947351568622, -187500.02235174447, -12592.883419142177, 0.152, 0.9480000000000001, -0.216, 192.0, 0.0, 0.0, 0.0, 0.0, 0.0, 0.0, 0.0, 0.0, 0.0, 1.741291056638158E9, 0.0, 2025-03-06 13:57:36.638
134.0, -6665.446658783753, 12555.377191946172, -5521.484377561138, -12465.880807147123, -187500.02235174447, 21223.316636480886, -187500.02235174447, -12587.742517917457, 0.152, 0.9480000000000001, -0.216, 192.0, 0.0, 0.0, 0.0, 0.0, 0.0, 0.0, 0.0, 0.0, 0.0, 1.741291056638177E9, 0.0, 2025-03-06 13:57:36.638
135.0, -6674.7673362216165, 12554.058439023309, -5523.9207177067665, -12480.297682320796, -187500.02235174447, 21220.321502723873, -187500.02235174447, -12586.982558605976, 0.152, 0.9480000000000001, -0.216, 192.0, 0.0, 0.0, 0.0, 0.0, 0.0, 0.0, 0.0, 0.0, 0.0, 1.741291056638196E9, 0.0, 2025-03-06 13:57:36.638
136.0, -6672.330996075988, 12559.691078626047, -5522.534909550537, -12471.021708371843, -187500.02235174447, 21217.415775944686, -187500.02235174447, -12597.130250588687, 0.152, 0.9480000000000001, -0.216, 192.0, 0.0, 0.0, 0.0, 0.0, 0.0, 0.0, 0.0, 0.0, 0.0, 1.741291056638224E9, 0.0, 2025-03-06 13:57:36.638
137.0, -6670.140525119367, 12559.735782114958, -5522.490206061627, -12454.74963840838, -187500.02235174447, 21217.281665477953, -187500.02235174447, -12591.318797030306, 0.148, 0.9540000000000001, -0.22, 192.0, 4.0, 160.0, 29.0, 208.0, 249.0, 32.0, 0.0, 0.0, 0.0, 1.741291056697687E9, 0.0, 2025-03-06 13:57:36.697
138.0, -6664.194961094256, 12547.934061042555, -5523.719552006669, -12481.03528988782, -187500.02235174447, 21220.321502723873, -187500.02235174447, -12594.313930787317, 0.148, 0.9540000000000001, -0.22, 192.0, 0.0, 0.0, 0.0, 0.0, 0.0, 0.0, 0.0, 0.0, 0.0, 1.741291056697724E9, 0.0, 2025-03-06 13:57:36.697
139.0, -6657.109458101923, 12555.757171601912, -5522.646668272814, -12495.742737739414, -187500.02235174447, 21221.997883558022, -187500.02235174447, -12594.91742788761, 0.148, 0.9540000000000001, -0.22, 192.0, 0.0, 0.0, 0.0, 0.0, 0.0, 0.0, 0.0, 0.0, 0.0, 1.741291056697745E9, 0.0, 2025-03-06 13:57:36.697
140.0, -6661.7362692041725, 12560.451037937528, -5529.061618931487, -12476.542589252305, -187500.02235174447, 21212.163115997686, -187500.02235174447, -12598.538410489371, 0.148, 0.9540000000000001, -0.22, 192.0, 0.0, 0.0, 0.0, 0.0, 0.0, 0.0, 0.0, 0.0, 0.0, 1.741291056697764E9, 0.0, 2025-03-06 13:57:36.697
141.0, -6669.313510574521, 12565.211959506507, -5532.235566644141, -12440.17630102352, -187500.02235174447, 21208.67624386266, -187500.02235174447, -12605.020416381409, 0.148, 0.9540000000000001, -0.22, 192.0, 0.0, 0.0, 0.0, 0.0, 0.0, 0.0, 0.0, 0.0, 0.0, 1.741291056697807E9, 0.0, 2025-03-06 13:57:36.697
142.0, -6656.1036296014345, 12553.656107623114, -5521.842005472423, -12465.165551324553, -187500.02235174447, 21211.805488086404, -187500.02235174447, -12616.26334384243, 0.148, 0.9540000000000001, -0.22, 192.0, 0.0, 0.0, 0.0, 0.0, 0.0, 0.0, 0.0, 0.0, 0.0, 1.741291056697827E9, 0.0, 2025-03-06 13:57:36.697
143.0, -6654.539007489563, 12558.774657103379, -5516.209365869685, -12472.765144439358, -187500.02235174447, 21224.63538940375, -187500.02235174447, -12583.473334726494, 0.148, 0.9540000000000001, -0.22, 192.0, 0.0, 0.0, 0.0, 0.0, 0.0, 0.0, 0.0, 0.0, 0.0, 1.741291056697846E9, 0.0, 2025-03-06 13:57:36.697
144.0, -6653.354365033432, 12564.608462406215, -5517.9975054261095, -12471.312281049763, -187500.02235174447, 21227.1611365272, -187500.02235174447, -12580.254683524929, 0.148, 0.9540000000000001, -0.22, 192.0, 0.0, 0.0, 0.0, 0.0, 0.0, 0.0, 0.0, 0.0, 0.0, 1.741291056697865E9, 0.0, 2025-03-06 13:57:36.697
145.0, -6659.322280802999, 12566.910692085112, -5519.159796137786, -12445.093684803687, -187500.02235174447, 21220.120337023778, -187500.02235174447, -12589.35184351824, 0.148, 0.9540000000000001, -0.22, 192.0, 0.0, 0.0, 0.0, 0.0, 0.0, 0.0, 0.0, 0.0, 0.0, 1.741291056697885E9, 0.0, 2025-03-06 13:57:36.697
146.0, -6662.764449449116, 12542.569642373282, -5520.031514171543, -12456.940109365, -187500.02235174447, 21223.540153925438, -187500.02235174447, -12588.077794084287, 0.148, 0.9540000000000001, -0.22, 192.0, 0.0, 0.0, 0.0, 0.0, 0.0, 0.0, 0.0, 0.0, 0.0, 1.741291056697911E9, 0.0, 2025-03-06 13:57:36.697
147.0, -6671.593388508963, 12540.759151072401, -5521.529081050048, -12470.932301394023, -187500.02235174447, 21219.606246901305, -187500.02235174447, -12594.291579042861, 0.152, 0.9480000000000001, -0.216, 192.0, 4.0, 192.0, 29.0, 160.0, 249.0, 64.0, 0.0, 0.0, 0.0, 1.74129105669793E9, 0.0, 2025-03-06 13:57:36.697
148.0, -6670.475801286198, 12543.53076738486, -5525.7982642410125, -12466.551359480782, -187500.02235174447, 21210.48673516354, -187500.02235174447, -12602.449965769049, 0.152, 0.9480000000000001, -0.216, 192.0, 0.0, 0.0, 0.0, 0.0, 0.0, 0.0, 0.0, 0.0, 0.0, 1.741291056697951E9, 0.0, 2025-03-06 13:57:36.697
149.0, -6670.207580352733, 12555.690116368547, -5523.2725171175625, -12438.566975422738, -187500.02235174447, 21213.213647987086, -187500.02235174447, -12594.11276508722, 0.152, 0.9480000000000001, -0.216, 192.0, 0.0, 0.0, 0.0, 0.0, 0.0, 0.0, 0.0, 0.0, 0.0, 1.741291056697976E9, 0.0, 2025-03-06 13:57:36.697
150.0, -6667.525371018097, 12547.95641278701, -5521.640839772325, -12442.679696402514, -187500.02235174447, 21217.080499777854, -187500.02235174447, -12597.86785815571, 0.152, 0.9480000000000001, -0.216, 192.0, 0.0, 0.0, 0.0, 0.0, 0.0, 0.0, 0.0, 0.0, 0.0, 1.741291056697996E9, 0.0, 2025-03-06 13:57:36.697
151.0, -6658.517618002608, 12544.737761585446, -5521.707895005691, -12483.695147478003, -187500.02235174447, 21217.01344454449, -187500.02235174447, -12600.818288423812, 0.152, 0.9480000000000001, -0.216, 192.0, 0.0, 0.0, 0.0, 0.0, 0.0, 0.0, 0.0, 0.0, 0.0, 1.741291056698021E9, 0.0, 2025-03-06 13:57:36.698
152.0, -6660.193998836756, 12550.057476765809, -5520.769121738568, -12481.012938143365, -187500.02235174447, 21218.04162478943, -187500.02235174447, -12593.241047053463, 0.152, 0.9480000000000001, -0.216, 192.0, 0.0, 0.0, 0.0, 0.0, 0.0, 0.0, 0.0, 0.0, 0.0, 1.741291056757976E9, 0.0, 2025-03-06 13:57:36.757
153.0, -6661.535103504075, 12553.611404134203, -5521.99846768361, -12462.863321645656, -187500.02235174447, 21213.571275898372, -187500.02235174447, -12598.806631422834, 0.152, 0.9480000000000001, -0.216, 192.0, 0.0, 0.0, 0.0, 0.0, 0.0, 0.0, 0.0, 0.0, 0.0, 1.741291056758009E9, 0.0, 2025-03-06 13:57:36.758
154.0, -6665.334900061477, 12544.558947629805, -5529.32983986495, -12445.943051092989, -187500.02235174447, 21210.643197374728, -187500.02235174447, -12605.914486159621, 0.152, 0.9480000000000001, -0.216, 192.0, 0.0, 0.0, 0.0, 0.0, 0.0, 0.0, 0.0, 0.0, 0.0, 1.741291056758029E9, 0.0, 2025-03-06 13:57:36.758
155.0, -6670.744022219661, 12526.543441598826, -5537.8905579913335, -12465.254958302374, -187500.02235174447, 21197.992110013023, -187500.02235174447, -12618.140890376675, 0.152, 0.9480000000000001, -0.216, 192.0, 0.0, 0.0, 0.0, 0.0, 0.0, 0.0, 0.0, 0.0, 0.0, 1.741291056758049E9, 0.0, 2025-03-06 13:57:36.758
156.0, -6655.097801100946, 12533.740703313435, -5529.843929987423, -12493.03817666032, -187500.02235174447, 21201.18840947013, -187500.02235174447, -12614.229335096996, 0.152, 0.9480000000000001, -0.216, 192.0, 0.0, 0.0, 0.0, 0.0, 0.0, 0.0, 0.0, 0.0, 0.0, 1.741291056758091E9, 0.0, 2025-03-06 13:57:36.758
157.0, -6658.115286602412, 12552.560872144804, -5527.787569497535, -12475.08972586271, -187500.02235174447, 21199.802601313902, -187500.02235174447, -12611.457718784539, 0.148, 0.9520000000000001, -0.218, 192.0, 4.0, 160.0, 29.0, 192.0, 249.0, 48.0, 0.0, 0.0, 0.0, 1.74129105675811E9, 0.0, 2025-03-06 13:57:36.758
158.0, -6671.816905953516, 12548.895186054133, -5533.33080212245, -12466.908987392068, -187500.02235174447, 21194.99697625601, -187500.02235174447, -12618.476166543505, 0.148, 0.9520000000000001, -0.218, 192.0, 0.0, 0.0, 0.0, 0.0, 0.0, 0.0, 0.0, 0.0, 0.0, 1.741291056758131E9, 0.0, 2025-03-06 13:57:36.758
159.0, -6674.610874010429, 12538.009886504398, -5535.118941678875, -12476.162609596564, -187500.02235174447, 21195.19814195611, -187500.02235174447, -12619.146718877164, 0.148, 0.9520000000000001, -0.218, 192.0, 0.0, 0.0, 0.0, 0.0, 0.0, 0.0, 0.0, 0.0, 0.0, 1.741291056758151E9, 0.0, 2025-03-06 13:57:36.758
160.0, -6671.1240018754015, 12544.938927285544, -5529.531005565048, -12485.192714356508, -187500.02235174447, 21195.66752858967, -187500.02235174447, -12626.813367225333, 0.148, 0.9520000000000001, -0.218, 192.0, 0.0, 0.0, 0.0, 0.0, 0.0, 0.0, 0.0, 0.0, 0.0, 1.74129105675817E9, 0.0, 2025-03-06 13:57:36.758
161.0, -6669.8946559303595, 12555.399543690628, -5526.178243896752, -12471.066411860755, -187500.02235174447, 21202.775383326458, -187500.02235174447, -12619.16907062162, 0.148, 0.9520000000000001, -0.218, 192.0, 0.0, 0.0, 0.0, 0.0, 0.0, 0.0, 0.0, 0.0, 0.0, 1.741291056758197E9, 0.0, 2025-03-06 13:57:36.758
162.0, -6663.36794654941, 12562.328584471774, -5523.719552006669, -12440.332763234706, -187500.02235174447, 21211.71608110858, -187500.02235174447, -12601.108861101731, 0.148, 0.9520000000000001, -0.218, 192.0, 0.0, 0.0, 0.0, 0.0, 0.0, 0.0, 0.0, 0.0, 0.0, 1.741291056758216E9, 0.0, 2025-03-06 13:57:36.758
163.0, -6662.764449449116, 12542.323773184273, -5530.514482321082, -12454.190844796998, -187500.02235174447, 21205.27877870545, -187500.02235174447, -12607.792032693867, 0.148, 0.9520000000000001, -0.218, 192.0, 0.0, 0.0, 0.0, 0.0, 0.0, 0.0, 0.0, 0.0, 0.0, 1.741291056758235E9, 0.0, 2025-03-06 13:57:36.758
164.0, -6660.529275003586, 12536.825244048268, -5528.9051567203, -12474.106249106677, -187500.02235174447, 21200.070822247366, -187500.02235174447, -12626.858070714245, 0.148, 0.9520000000000001, -0.218, 192.0, 0.0, 0.0, 0.0, 0.0, 0.0, 0.0, 0.0, 0.0, 0.0, 1.74129105675826E9, 0.0, 2025-03-06 13:57:36.758
165.0, -6666.385432050876, 12549.699848854525, -5526.960554952688, -12458.683545432514, -187500.02235174447, 21205.52464789446, -187500.02235174447, -12613.514079274426, 0.148, 0.9520000000000001, -0.218, 192.0, 0.0, 0.0, 0.0, 0.0, 0.0, 0.0, 0.0, 0.0, 0.0, 1.74129105675828E9, 0.0, 2025-03-06 13:57:36.758
166.0, -6656.371850534899, 12558.19351174754, -5524.077179917954, -12446.010106326356, -187500.02235174447, 21211.06788051938, -187500.02235174447, -12595.900904643644, 0.148, 0.9520000000000001, -0.218, 192.0, 0.0, 0.0, 0.0, 0.0, 0.0, 0.0, 0.0, 0.0, 0.0, 1.741291056758305E9, 0.0, 2025-03-06 13:57:36.758
167.0, -6651.074487098991, 12545.587127874747, -5526.04413343002, -12459.667022188547, -187500.02235174447, 21208.43037467365, -187500.02235174447, -12597.510230244427, 0.152, 0.9520000000000001, -0.218, 192.0, 4.0, 192.0, 29.0, 192.0, 249.0, 48.0, 0.0, 0.0, 0.0, 1.741291056818231E9, 0.0, 2025-03-06 13:57:36.818
168.0, -6650.895673143348, 12544.313078440795, -5525.127711907353, -12486.46676379046, -187500.02235174447, 21207.603360128804, -187500.02235174447, -12602.49466925796, 0.152, 0.9520000000000001, -0.218, 192.0, 0.0, 0.0, 0.0, 0.0, 0.0, 0.0, 0.0, 0.0, 0.0, 1.741291056818266E9, 0.0, 2025-03-06 13:57:36.818
169.0, -6657.757658691127, 12555.86893032419, -5518.891575204322, -12483.248112588897, -187500.02235174447, 21209.033871773943, -187500.02235174447, -12599.946570390055, 0.152, 0.9520000000000001, -0.218, 192.0, 0.0, 0.0, 0.0, 0.0, 0.0, 0.0, 0.0, 0.0, 0.0, 1.741291056818286E9, 0.0, 2025-03-06 13:57:36.818
170.0, -6671.79455420906, 12562.753267616425, -5525.373581096361, -12441.740923135392, -187500.02235174447, 21196.449839645607, -187500.02235174447, -12610.8765734287, 0.152, 0.9520000000000001, -0.218, 192.0, 0.0, 0.0, 0.0, 0.0, 0.0, 0.0, 0.0, 0.0, 0.0, 1.741291056818306E9, 0.0, 2025-03-06 13:57:36.818
171.0, -6671.101650130946, 12540.982668516956, -5530.358020109895, -12447.172397038032, -187500.02235174447, 21194.594644855817, -187500.02235174447, -12619.54905027736, 0.152, 0.9520000000000001, -0.218, 192.0, 0.0, 0.0, 0.0, 0.0, 0.0, 0.0, 0.0, 0.0, 0.0, 1.741291056818349E9, 0.0, 2025-03-06 13:57:36.818
172.0, -6663.36794654941, 12532.846633535222, -5529.218081142674, -12484.544513767305, -187500.02235174447, 21201.322519936864, -187500.02235174447, -12614.810480452834, 0.152, 0.9520000000000001, -0.218, 192.0, 0.0, 0.0, 0.0, 0.0, 0.0, 0.0, 0.0, 0.0, 0.0, 1.741291056818369E9, 0.0, 2025-03-06 13:57:36.818
173.0, -6662.473876771197, 12549.67749711007, -5528.055790430998, -12489.685414992025, -187500.02235174447, 21205.47994440555, -187500.02235174447, -12610.49659377296, 0.152, 0.9520000000000001, -0.218, 192.0, 0.0, 0.0, 0.0, 0.0, 0.0, 0.0, 0.0, 0.0, 0.0, 1.741291056818388E9, 0.0, 2025-03-06 13:57:36.818
174.0, -6673.917969932315, 12558.506436169915, -5539.365773125383, -12446.993583082389, -187500.02235174447, 21195.131086722744, -187500.02235174447, -12618.587925265781, 0.152, 0.9520000000000001, -0.218, 192.0, 0.0, 0.0, 0.0, 0.0, 0.0, 0.0, 0.0, 0.0, 0.0, 1.741291056818407E9, 0.0, 2025-03-06 13:57:36.818
175.0, -6659.903426158837, 12550.39275293264, -5538.114075435887, -12454.771990152836, -187500.02235174447, 21200.58491236984, -187500.02235174447, -12623.035922412388, 0.152, 0.9520000000000001, -0.218, 192.0, 0.0, 0.0, 0.0, 0.0, 0.0, 0.0, 0.0, 0.0, 0.0, 1.741291056818426E9, 0.0, 2025-03-06 13:57:36.818
176.0, -6664.038498883069, 12542.77080807338, -5545.065467961486, -12476.56494099676, -187500.02235174447, 21196.740412323525, -187500.02235174447, -12620.912506689134, 0.152, 0.9520000000000001, -0.218, 192.0, 0.0, 0.0, 0.0, 0.0, 0.0, 0.0, 0.0, 0.0, 0.0, 1.741291056818445E9, 0.0, 2025-03-06 13:57:36.818
177.0, -6670.676966986295, 12540.714447583492, -5548.2841191630505, -12474.240359573409, -187500.02235174447, 21194.90756927819, -187500.02235174447, -12622.96886717902, 0.15, 0.9520000000000001, -0.218, 192.0, 4.0, 176.0, 29.0, 192.0, 249.0, 48.0, 0.0, 0.0, 0.0, 1.741291056818471E9, 0.0, 2025-03-06 13:57:36.818
178.0, -6668.218275096211, 12550.415104677095, -5544.0596394609975, -12464.249129801885, -187500.02235174447, 21200.406098414194, -187500.02235174447, -12615.749253719958, 0.15, 0.9520000000000001, -0.218, 192.0, 0.0, 0.0, 0.0, 0.0, 0.0, 0.0, 0.0, 0.0, 0.0, 1.741291056818492E9, 0.0, 2025-03-06 13:57:36.818
179.0, -6661.0880686149685, 12545.922404041577, -5543.47849410516, -12441.807978368757, -187500.02235174447, 21205.14466823872, -187500.02235174447, -12610.854221684245, 0.15, 0.9520000000000001, -0.218, 192.0, 0.0, 0.0, 0.0, 0.0, 0.0, 0.0, 0.0, 0.0, 0.0, 1.741291056818518E9, 0.0, 2025-03-06 13:57:36.818
180.0, -6660.730440703684, 12533.271316679873, -5544.23845341664, -12473.636862473115, -187500.02235174447, 21205.837572316836, -187500.02235174447, -12617.470338043016, 0.15, 0.9520000000000001, -0.218, 192.0, 0.0, 0.0, 0.0, 0.0, 0.0, 0.0, 0.0, 0.0, 0.0, 1.741291056818537E9, 0.0, 2025-03-06 13:57:36.818
181.0, -6667.011280895625, 12539.306287682806, -5545.847779017423, -12487.673757991048, -187500.02235174447, 21198.1038687353, -187500.02235174447, -12624.153509635153, 0.15, 0.9520000000000001, -0.218, 192.0, 0.0, 0.0, 0.0, 0.0, 0.0, 0.0, 0.0, 0.0, 0.0, 1.741291056818566E9, 0.0, 2025-03-06 13:57:36.818
182.0, -6681.137583391379, 12550.839787821746, -5546.563034839993, -12467.445429258994, -187500.02235174447, 21197.075688490357, -187500.02235174447, -12613.648189741158, 0.15, 0.9520000000000001, -0.218, 192.0, 0.0, 0.0, 0.0, 0.0, 0.0, 0.0, 0.0, 0.0, 0.0, 1.741291056878481E9, 0.0, 2025-03-06 13:57:36.878
183.0, -6674.9461501772585, 12547.777598831368, -5543.165569682786, -12449.921661606033, -187500.02235174447, 21201.121354236766, -187500.02235174447, -12609.669579228113, 0.15, 0.9520000000000001, -0.218, 192.0, 0.0, 0.0, 0.0, 0.0, 0.0, 0.0, 0.0, 0.0, 0.0, 1.741291056878515E9, 0.0, 2025-03-06 13:57:36.878
184.0, -6669.60408325244, 12534.992401002932, -5543.277328405062, -12475.223836329442, -187500.02235174447, 21198.461496646585, -187500.02235174447, -12612.7764717074, 0.15, 0.9520000000000001, -0.218, 192.0, 0.0, 0.0, 0.0, 0.0, 0.0, 0.0, 0.0, 0.0, 0.0, 1.741291056878535E9, 0.0, 2025-03-06 13:57:36.878
185.0, -6675.929626933293, 12535.640601592137, -5543.031459216054, -12484.768031211857, -187500.02235174447, 21196.226322201055, -187500.02235174447, -12616.419806053616, 0.15, 0.9520000000000001, -0.218, 192.0, 0.0, 0.0, 0.0, 0.0, 0.0, 0.0, 0.0, 0.0, 0.0, 1.74129105687856E9, 0.0, 2025-03-06 13:57:36.878
186.0, -6673.672100743306, 12547.9117092981, -5543.724363294168, -12473.838028173212, -187500.02235174447, 21199.221455958064, -187500.02235174447, -12617.40328280965, 0.15, 0.9520000000000001, -0.218, 192.0, 0.0, 0.0, 0.0, 0.0, 0.0, 0.0, 0.0, 0.0, 0.0, 1.74129105687858E9, 0.0, 2025-03-06 13:57:36.878
187.0, -6675.594350766462, 12549.923366299077, -5548.95467149671, -12446.211272026452, -187500.02235174447, 21199.57908386935, -187500.02235174447, -12611.904753673643, 0.15, 0.9500000000000001, -0.224, 192.0, 4.0, 176.0, 29.0, 176.0, 249.0, 0.0, 0.0, 0.0, 0.0, 1.741291056878622E9, 0.0, 2025-03-06 13:57:36.878
188.0, -6669.626434996896, 12528.353932899707, -5550.876921519866, -12469.635900215615, -187500.02235174447, 21196.740412323525, -187500.02235174447, -12615.369274064216, 0.15, 0.9500000000000001, -0.224, 192.0, 0.0, 0.0, 0.0, 0.0, 0.0, 0.0, 0.0, 0.0, 0.0, 1.741291056878643E9, 0.0, 2025-03-06 13:57:36.878
189.0, -6670.766373964117, 12527.839842777234, -5552.866226776388, -12485.639749245614, -187500.02235174447, 21196.449839645607, -187500.02235174447, -12618.990256665977, 0.15, 0.9500000000000001, -0.224, 192.0, 0.0, 0.0, 0.0, 0.0, 0.0, 0.0, 0.0, 0.0, 0.0, 1.741291056878663E9, 0.0, 2025-03-06 13:57:36.878
190.0, -6671.3028158310435, 12542.10025573972, -5549.5134651080925, -12481.348214310196, -187500.02235174447, 21194.01349949998, -187500.02235174447, -12625.293448602373, 0.15, 0.9500000000000001, -0.224, 192.0, 0.0, 0.0, 0.0, 0.0, 0.0, 0.0, 0.0, 0.0, 0.0, 1.741291056878682E9, 0.0, 2025-03-06 13:57:36.878
191.0, -6663.189132593767, 12559.19934024803, -5538.985793469643, -12450.122827306132, -187500.02235174447, 21198.305034435398, -187500.02235174447, -12628.109768403741, 0.15, 0.9500000000000001, -0.224, 192.0, 0.0, 0.0, 0.0, 0.0, 0.0, 0.0, 0.0, 0.0, 0.0, 1.741291056878701E9, 0.0, 2025-03-06 13:57:36.878
192.0, -6666.206618095233, 12540.647392350125, -5539.879863247856, -12459.488208232906, -187500.02235174447, 21207.044566517423, -187500.02235174447, -12611.904753673643, 0.15, 0.9500000000000001, -0.224, 192.0, 0.0, 0.0, 0.0, 0.0, 0.0, 0.0, 0.0, 0.0, 0.0, 1.741291056878727E9, 0.0, 2025-03-06 13:57:36.878
193.0, -6670.587560008474, 12539.373342916173, -5540.2374911591405, -12474.486228762416, -187500.02235174447, 21211.96195029759, -187500.02235174447, -12605.355692548239, 0.15, 0.9500000000000001, -0.224, 192.0, 0.0, 0.0, 0.0, 0.0, 0.0, 0.0, 0.0, 0.0, 0.0, 1.741291056878747E9, 0.0, 2025-03-06 13:57:36.878
194.0, -6671.481629786686, 12546.995287775433, -5538.628165558358, -12468.004222870377, -187500.02235174447, 21212.990130542534, -187500.02235174447, -12599.790108178868, 0.15, 0.9500000000000001, -0.224, 192.0, 0.0, 0.0, 0.0, 0.0, 0.0, 0.0, 0.0, 0.0, 0.0, 1.741291056878775E9, 0.0, 2025-03-06 13:57:36.878
195.0, -6668.575903007496, 12556.897110569134, -5535.565976567981, -12443.08202780271, -187500.02235174447, 21212.67720612016, -187500.02235174447, -12597.644340711158, 0.15, 0.9500000000000001, -0.224, 192.0, 0.0, 0.0, 0.0, 0.0, 0.0, 0.0, 0.0, 0.0, 0.0, 1.741291056878794E9, 0.0, 2025-03-06 13:57:36.878
196.0, -6676.89075194487, 12536.847595792724, -5542.495017349126, -12429.067484029232, -187500.02235174447, 21205.97168278357, -187500.02235174447, -12598.963093634022, 0.15, 0.9500000000000001, -0.224, 192.0, 0.0, 0.0, 0.0, 0.0, 0.0, 0.0, 0.0, 0.0, 0.0, 1.741291056878819E9, 0.0, 2025-03-06 13:57:36.878
197.0, -6666.564246006518, 12526.744607298924, -5540.617470814881, -12466.059621102766, -187500.02235174447, 21203.512990893483, -187500.02235174447, -12608.7755094499, 0.148, 0.9560000000000001, -0.224, 192.0, 4.0, 160.0, 29.0, 224.0, 249.0, 0.0, 0.0, 0.0, 0.0, 1.741291056938799E9, 0.0, 2025-03-06 13:57:36.938
198.0, -6672.398051309354, 12530.343238156229, -5542.137389437841, -12469.434734515517, -187500.02235174447, 21195.891046034223, -187500.02235174447, -12622.387721823183, 0.148, 0.9560000000000001, -0.224, 192.0, 0.0, 0.0, 0.0, 0.0, 0.0, 0.0, 0.0, 0.0, 0.0, 1.741291056938835E9, 0.0, 2025-03-06 13:57:36.938
199.0, -6670.565208264018, 12547.777598831368, -5532.973174211165, -12438.99165856739, -187500.02235174447, 21204.943502538623, -187500.02235174447, -12605.959189648533, 0.148, 0.9560000000000001, -0.224, 192.0, 0.0, 0.0, 0.0, 0.0, 0.0, 0.0, 0.0, 0.0, 0.0, 1.741291056938855E9, 0.0, 2025-03-06 13:57:36.938
200.0, -6661.535103504075, 12536.042932992332, -5533.822540500467, -12436.756484121857, -187500.02235174447, 21202.283644948442, -187500.02235174447, -12611.055387384342, 0.148, 0.9560000000000001, -0.224, 192.0, 0.0, 0.0, 0.0, 0.0, 0.0, 0.0, 0.0, 0.0, 0.0, 1.741291056938875E9, 0.0, 2025-03-06 13:57:36.938
201.0, -6661.646862226351, 12525.872889265167, -5538.114075435887, -12470.775839182836, -187500.02235174447, 21196.606301856795, -187500.02235174447, -12617.425634554105, 0.148, 0.9560000000000001, -0.224, 192.0, 0.0, 0.0, 0.0, 0.0, 0.0, 0.0, 0.0, 0.0, 0.0, 1.741291056938894E9, 0.0, 2025-03-06 13:57:36.938
202.0, -6669.268807085611, 12530.298534667318, -5537.599985313414, -12475.760278196369, -187500.02235174447, 21195.131086722744, -187500.02235174447, -12614.8775356862, 0.148, 0.9560000000000001, -0.224, 192.0, 0.0, 0.0, 0.0, 0.0, 0.0, 0.0, 0.0, 0.0, 0.0, 1.741291056938931E9, 0.0, 2025-03-06 13:57:36.938
203.0, -6673.873266443404, 12548.694020354036, -5535.81184575699, -12447.172397038032, -187500.02235174447, 21197.075688490357, -187500.02235174447, -12608.887268172177, 0.148, 0.9560000000000001, -0.224, 192.0, 0.0, 0.0, 0.0, 0.0, 0.0, 0.0, 0.0, 0.0, 0.0, 1.741291056938951E9, 0.0, 2025-03-06 13:57:36.938
204.0, -6676.600179266951, 12542.033200506354, -5540.818636514979, -12437.56114692225, -187500.02235174447, 21194.326423922354, -187500.02235174447, -12614.0281693969, 0.148, 0.9560000000000001, -0.224, 192.0, 0.0, 0.0, 0.0, 0.0, 0.0, 0.0, 0.0, 0.0, 0.0, 1.74129105693897E9, 0.0, 2025-03-06 13:57:36.938
205.0, -6673.202714109745, 12526.901069510111, -5540.2374911591405, -12471.245225816398, -187500.02235174447, 21194.348775666807, -187500.02235174447, -12617.179765365097, 0.148, 0.9560000000000001, -0.224, 192.0, 0.0, 0.0, 0.0, 0.0, 0.0, 0.0, 0.0, 0.0, 0.0, 1.74129105693899E9, 0.0, 2025-03-06 13:57:36.938
206.0, -6669.469972785709, 12542.524938884371, -5538.516406836082, -12482.935188166522, -187500.02235174447, 21195.06403148938, -187500.02235174447, -12618.45381479905, 0.148, 0.9560000000000001, -0.224, 192.0, 0.0, 0.0, 0.0, 0.0, 0.0, 0.0, 0.0, 0.0, 0.0, 1.741291056939009E9, 0.0, 2025-03-06 13:57:36.939
207.0, -6671.235760597678, 12550.348049443728, -5544.439619116738, -12471.200522327486, -187500.02235174447, 21189.744316309014, -187500.02235174447, -12621.560707278337, 0.148, 0.9540000000000001, -0.222, 192.0, 4.0, 160.0, 29.0, 208.0, 249.0, 16.0, 0.0, 0.0, 0.0, 1.741291056939035E9, 0.0, 2025-03-06 13:57:36.939
208.0, -6654.784876678572, 12554.997212290433, -5538.449351602716, -12456.448370986984, -187500.02235174447, 21202.82008681537, -187500.02235174447, -12603.768718691912, 0.148, 0.9540000000000001, -0.222, 192.0, 0.0, 0.0, 0.0, 0.0, 0.0, 0.0, 0.0, 0.0, 0.0, 1.741291056939056E9, 0.0, 2025-03-06 13:57:36.939
209.0, -6659.322280802999, 12537.451092893016, -5544.9984127281205, -12476.56494099676, -187500.02235174447, 21194.214665200077, -187500.02235174447, -12616.799785709356, 0.148, 0.9540000000000001, -0.222, 192.0, 0.0, 0.0, 0.0, 0.0, 0.0, 0.0, 0.0, 0.0, 0.0, 1.741291056939076E9, 0.0, 2025-03-06 13:57:36.939
210.0, -6662.295062815555, 12537.115816726187, -5540.639822559336, -12485.706804478981, -187500.02235174447, 21195.04167974492, -187500.02235174447, -12612.798823451856, 0.148, 0.9540000000000001, -0.222, 192.0, 0.0, 0.0, 0.0, 0.0, 0.0, 0.0, 0.0, 0.0, 0.0, 1.741291056939101E9, 0.0, 2025-03-06 13:57:36.939
211.0, -6667.704184973739, 12545.922404041577, -5537.220005657674, -12467.333670536718, -187500.02235174447, 21194.86286578928, -187500.02235174447, -12611.122442617709, 0.148, 0.9540000000000001, -0.222, 192.0, 0.0, 0.0, 0.0, 0.0, 0.0, 0.0, 0.0, 0.0, 0.0, 1.741291056939121E9, 0.0, 2025-03-06 13:57:36.939
212.0, -6669.849952441448, 12545.29655519683, -5541.0645057039865, -12446.390085982095, -187500.02235174447, 21192.046545987912, -187500.02235174447, -12615.97277116451, 0.148, 0.9540000000000001, -0.222, 192.0, 0.0, 0.0, 0.0, 0.0, 0.0, 0.0, 0.0, 0.0, 0.0, 1.741291056998222E9, 0.0, 2025-03-06 13:57:36.998
213.0, -6671.07929838649, 12522.900107252612, -5544.126694694364, -12474.173304340042, -187500.02235174447, 21189.185522697633, -187500.02235174447, -12607.9261431606, 0.148, 0.9540000000000001, -0.222, 192.0, 0.0, 0.0, 0.0, 0.0, 0.0, 0.0, 0.0, 0.0, 0.0, 1.741291056998255E9, 0.0, 2025-03-06 13:57:36.998
214.0, -6679.394147323865, 12520.173194429064, -5545.1101714503975, -12499.631941274636, -187500.02235174447, 21190.72779306505, -187500.02235174447, -12610.317779817316, 0.148, 0.9540000000000001, -0.222, 192.0, 0.0, 0.0, 0.0, 0.0, 0.0, 0.0, 0.0, 0.0, 0.0, 1.741291056998275E9, 0.0, 2025-03-06 13:57:36.998
215.0, -6686.502002060653, 12530.522052111872, -5545.221930172674, -12489.081917891732, -187500.02235174447, 21190.124295964753, -187500.02235174447, -12611.390663551172, 0.148, 0.9540000000000001, -0.222, 192.0, 0.0, 0.0, 0.0, 0.0, 0.0, 0.0, 0.0, 0.0, 0.0, 1.741291056998295E9, 0.0, 2025-03-06 13:57:36.998
216.0, -6680.623493268907, 12537.71931382648, -5540.4163051147825, -12461.410458256061, -187500.02235174447, 21186.52566510745, -187500.02235174447, -12616.755082220447, 0.148, 0.9540000000000001, -0.222, 192.0, 0.0, 0.0, 0.0, 0.0, 0.0, 0.0, 0.0, 0.0, 0.0, 1.741291056998314E9, 0.0, 2025-03-06 13:57:36.998
217.0, -6673.649748998851, 12520.754339784902, -5542.807941771501, -12476.162609596564, -187500.02235174447, 21182.1000197053, -187500.02235174447, -12628.288582359384, 0.152, 0.9580000000000001, -0.218, 192.0, 4.0, 192.0, 29.0, 240.0, 249.0, 48.0, 0.0, 0.0, 0.0, 1.741291056998358E9, 0.0, 2025-03-06 13:57:36.998
218.0, -6668.687661729773, 12521.62605781866, -5537.644688802325, -12493.552266782794, -187500.02235174447, 21190.079592475842, -187500.02235174447, -12625.271096857918, 0.152, 0.9580000000000001, -0.218, 192.0, 0.0, 0.0, 0.0, 0.0, 0.0, 0.0, 0.0, 0.0, 0.0, 1.741291056998379E9, 0.0, 2025-03-06 13:57:36.998
219.0, -6672.778030965094, 12530.700866067513, -5538.158778924797, -12488.500772535894, -187500.02235174447, 21188.80554304189, -187500.02235174447, -12617.8279659543, 0.152, 0.9580000000000001, -0.218, 192.0, 0.0, 0.0, 0.0, 0.0, 0.0, 0.0, 0.0, 0.0, 0.0, 1.741291056998399E9, 0.0, 2025-03-06 13:57:36.998
220.0, -6670.587560008474, 12548.045819764831, -5537.845854502422, -12469.70295544898, -187500.02235174447, 21187.66560407467, -187500.02235174447, -12619.727864233002, 0.152, 0.9580000000000001, -0.218, 192.0, 0.0, 0.0, 0.0, 0.0, 0.0, 0.0, 0.0, 0.0, 0.0, 1.741291056998418E9, 0.0, 2025-03-06 13:57:36.998
221.0, -6671.07929838649, 12536.042932992332, -5542.830293515956, -12459.354097766174, -187500.02235174447, 21188.33615640833, -187500.02235174447, -12618.20794561004, 0.152, 0.9580000000000001, -0.218, 192.0, 0.0, 0.0, 0.0, 0.0, 0.0, 0.0, 0.0, 0.0, 0.0, 1.741291056998437E9, 0.0, 2025-03-06 13:57:36.998
222.0, -6671.638091997874, 12518.385054872639, -5550.362831397394, -12486.04208064581, -187500.02235174447, 21177.18263592513, -187500.02235174447, -12633.921221962122, 0.152, 0.9580000000000001, -0.218, 192.0, 0.0, 0.0, 0.0, 0.0, 0.0, 0.0, 0.0, 0.0, 0.0, 1.741291056998464E9, 0.0, 2025-03-06 13:57:36.998
223.0, -6670.3640425639205, 12531.751398056913, -5544.394915627828, -12481.817600943757, -187500.02235174447, 21183.66464181717, -187500.02235174447, -12622.767701478924, 0.152, 0.9580000000000001, -0.218, 192.0, 0.0, 0.0, 0.0, 0.0, 0.0, 0.0, 0.0, 0.0, 0.0, 1.741291056998483E9, 0.0, 2025-03-06 13:57:36.998
224.0, -6680.064699657524, 12540.647392350125, -5541.891520248833, -12461.164589067053, -187500.02235174447, 21185.408077884684, -187500.02235174447, -12619.16907062162, 0.152, 0.9580000000000001, -0.218, 192.0, 0.0, 0.0, 0.0, 0.0, 0.0, 0.0, 0.0, 0.0, 0.0, 1.741291056998503E9, 0.0, 2025-03-06 13:57:36.998
225.0, -6678.567132779019, 12531.058493978799, -5543.791418527534, -12463.153894323576, -187500.02235174447, 21181.67533656065, -187500.02235174447, -12630.344942849273, 0.152, 0.9580000000000001, -0.218, 192.0, 0.0, 0.0, 0.0, 0.0, 0.0, 0.0, 0.0, 0.0, 0.0, 1.741291056998528E9, 0.0, 2025-03-06 13:57:36.998
226.0, -6673.470935043209, 12525.224688675964, -5542.025630715565, -12487.986682413422, -187500.02235174447, 21186.01157498498, -187500.02235174447, -12623.460605557038, 0.152, 0.9580000000000001, -0.218, 192.0, 0.0, 0.0, 0.0, 0.0, 0.0, 0.0, 0.0, 0.0, 0.0, 1.741291056998552E9, 0.0, 2025-03-06 13:57:36.998
227.0, -6676.84604845596, 12534.254793435908, -5536.61650855738, -12483.873961433645, -187500.02235174447, 21191.510104120982, -187500.02235174447, -12612.888230429679, 0.148, 0.9580000000000001, -0.218, 192.0, 4.0, 160.0, 29.0, 240.0, 249.0, 48.0, 0.0, 0.0, 0.0, 1.741291057057955E9, 0.0, 2025-03-06 13:57:37.057
228.0, -6678.008339167636, 12546.995287775433, -5533.599023055915, -12464.80792341327, -187500.02235174447, 21193.678223333147, -187500.02235174447, -12607.032073382386, 0.148, 0.9580000000000001, -0.218, 192.0, 0.0, 0.0, 0.0, 0.0, 0.0, 0.0, 0.0, 0.0, 0.0, 1.74129105705799E9, 0.0, 2025-03-06 13:57:37.057
229.0, -6683.685682259284, 12532.913688768589, -5544.797247028023, -12446.121865048632, -187500.02235174447, 21186.078630218344, -187500.02235174447, -12611.21184959553, 0.148, 0.9580000000000001, -0.218, 192.0, 0.0, 0.0, 0.0, 0.0, 0.0, 0.0, 0.0, 0.0, 0.0, 1.74129105705801E9, 0.0, 2025-03-06 13:57:37.058
230.0, -6676.51077228913, 12521.670761307569, -5544.8195987724785, -12483.717499222459, -187500.02235174447, 21190.213702942576, -187500.02235174447, -12606.965018149021, 0.148, 0.9580000000000001, -0.218, 192.0, 0.0, 0.0, 0.0, 0.0, 0.0, 0.0, 0.0, 0.0, 0.0, 1.74129105705803E9, 0.0, 2025-03-06 13:57:37.058
231.0, -6679.729423490695, 12531.52788061236, -5545.467799361682, -12479.8953509206, -187500.02235174447, 21190.370165153763, -187500.02235174447, -12609.49076527247, 0.148, 0.9580000000000001, -0.218, 192.0, 0.0, 0.0, 0.0, 0.0, 0.0, 0.0, 0.0, 0.0, 0.0, 1.741291057058049E9, 0.0, 2025-03-06 13:57:37.058
232.0, -6676.778993222594, 12540.222709205475, -5544.081991205453, -12468.004222870377, -187500.02235174447, 21189.610205842284, -187500.02235174447, -12613.916410674621, 0.148, 0.9580000000000001, -0.218, 192.0, 0.0, 0.0, 0.0, 0.0, 0.0, 0.0, 0.0, 0.0, 0.0, 1.741291057058089E9, 0.0, 2025-03-06 13:57:37.058
233.0, -6672.800382709549, 12537.920479526578, -5543.791418527534, -12449.27346101683, -187500.02235174447, 21191.420697143163, -187500.02235174447, -12612.150622862653, 0.148, 0.9580000000000001, -0.218, 192.0, 0.0, 0.0, 0.0, 0.0, 0.0, 0.0, 0.0, 0.0, 0.0, 1.741291057058109E9, 0.0, 2025-03-06 13:57:37.058
234.0, -6659.389336036365, 12528.91272651109, -5539.656345803302, -12479.8953509206, -187500.02235174447, 21199.087345491334, -187500.02235174447, -12613.849355441256, 0.148, 0.9580000000000001, -0.218, 192.0, 0.0, 0.0, 0.0, 0.0, 0.0, 0.0, 0.0, 0.0, 0.0, 1.741291057058129E9, 0.0, 2025-03-06 13:57:37.058
235.0, -6660.864551170415, 12539.19452896053, -5536.9517847242105, -12487.673757991048, -187500.02235174447, 21201.0542990034, -187500.02235174447, -12608.082605371786, 0.148, 0.9580000000000001, -0.218, 192.0, 0.0, 0.0, 0.0, 0.0, 0.0, 0.0, 0.0, 0.0, 0.0, 1.741291057058148E9, 0.0, 2025-03-06 13:57:37.058
236.0, -6671.571036764507, 12547.174101731074, -5536.907081235299, -12461.119885578142, -187500.02235174447, 21195.131086722744, -187500.02235174447, -12608.26141932743, 0.148, 0.9580000000000001, -0.218, 192.0, 0.0, 0.0, 0.0, 0.0, 0.0, 0.0, 0.0, 0.0, 0.0, 1.741291057058167E9, 0.0, 2025-03-06 13:57:37.058
237.0, -6678.745946734661, 12540.043895249832, -5541.8244650154675, -12440.936260335, -187500.02235174447, 21188.894950019712, -187500.02235174447, -12628.109768403741, 0.15, 0.9580000000000001, -0.212, 192.0, 4.0, 176.0, 29.0, 240.0, 249.0, 96.0, 0.0, 0.0, 0.0, 1.741291057058193E9, 0.0, 2025-03-06 13:57:37.058
238.0, -6673.716804232216, 12526.096406709721, -5540.639822559336, -12462.572748967737, -187500.02235174447, 21203.378880426753, -187500.02235174447, -12610.273076328407, 0.15, 0.9580000000000001, -0.212, 192.0, 0.0, 0.0, 0.0, 0.0, 0.0, 0.0, 0.0, 0.0, 0.0, 1.741291057058215E9, 0.0, 2025-03-06 13:57:37.058
239.0, -6681.584618280485, 12517.446281605517, -5546.495979606626, -12484.209237600475, -187500.02235174447, 21196.449839645607, -187500.02235174447, -12610.384835050683, 0.15, 0.9580000000000001, -0.212, 192.0, 0.0, 0.0, 0.0, 0.0, 0.0, 0.0, 0.0, 0.0, 0.0, 1.741291057058234E9, 0.0, 2025-03-06 13:57:37.058
240.0, -6681.539914791574, 12530.231479433953, -5544.3502121389165, -12474.106249106677, -187500.02235174447, 21189.386688397728, -187500.02235174447, -12611.927105418099, 0.15, 0.9580000000000001, -0.212, 192.0, 0.0, 0.0, 0.0, 0.0, 0.0, 0.0, 0.0, 0.0, 0.0, 1.74129105705826E9, 0.0, 2025-03-06 13:57:37.058
241.0, -6679.03651941258, 12540.379171416662, -5543.14321793833, -12449.519330205838, -187500.02235174447, 21190.414868642674, -187500.02235174447, -12606.808555937834, 0.15, 0.9580000000000001, -0.212, 192.0, 0.0, 0.0, 0.0, 0.0, 0.0, 0.0, 0.0, 0.0, 0.0, 1.741291057058279E9, 0.0, 2025-03-06 13:57:37.058
242.0, -6684.557400293041, 12518.273296150363, -5550.072258719476, -12452.358001751662, -187500.02235174447, 21182.77057203896, -187500.02235174447, -12622.365370078727, 0.15, 0.9580000000000001, -0.212, 192.0, 0.0, 0.0, 0.0, 0.0, 0.0, 0.0, 0.0, 0.0, 0.0, 1.741291057118245E9, 0.0, 2025-03-06 13:57:37.118
243.0, -6689.0277491841025, 12505.599857044204, -5555.995471000132, -12485.304473078784, -187500.02235174447, 21179.261348159474, -187500.02235174447, -12630.322591104818, 0.15, 0.9580000000000001, -0.212, 192.0, 0.0, 0.0, 0.0, 0.0, 0.0, 0.0, 0.0, 0.0, 0.0, 1.741291057118279E9, 0.0, 2025-03-06 13:57:37.118
244.0, -6677.851876956449, 12520.396711873616, -5550.608700586403, -12490.177153370041, -187500.02235174447, 21185.609243584782, -187500.02235174447, -12618.520870032415, 0.15, 0.9580000000000001, -0.212, 192.0, 0.0, 0.0, 0.0, 0.0, 0.0, 0.0, 0.0, 0.0, 0.0, 1.741291057118299E9, 0.0, 2025-03-06 13:57:37.118
245.0, -6678.298911845554, 12538.8592527937, -5547.1665319402855, -12460.918719878046, -187500.02235174447, 21184.93869125112, -187500.02235174447, -12620.73369273349, 0.15, 0.9580000000000001, -0.212, 192.0, 0.0, 0.0, 0.0, 0.0, 0.0, 0.0, 0.0, 0.0, 0.0, 1.741291057118318E9, 0.0, 2025-03-06 13:57:37.118
246.0, -6688.424252083809, 12528.868023022178, -5549.580520341458, -12466.998394369888, -187500.02235174447, 21182.1000197053, -187500.02235174447, -12625.919297447123, 0.15, 0.9580000000000001, -0.212, 192.0, 0.0, 0.0, 0.0, 0.0, 0.0, 0.0, 0.0, 0.0, 0.0, 1.741291057118337E9, 0.0, 2025-03-06 13:57:37.118
247.0, -6695.375644609409, 12517.28981939433, -5555.52608436657, -12475.8943886631, -187500.02235174447, 21182.010612727478, -187500.02235174447, -12623.371198579216, 0.152, 0.9560000000000001, -0.216, 192.0, 4.0, 192.0, 29.0, 224.0, 249.0, 64.0, 0.0, 0.0, 0.0, 1.741291057118356E9, 0.0, 2025-03-06 13:57:37.118
248.0, -6692.872249230415, 12527.549270099315, -5551.703936064713, -12482.577560255237, -187500.02235174447, 21184.022269728455, -187500.02235174447, -12621.78422472289, 0.152, 0.9560000000000001, -0.216, 192.0, 0.0, 0.0, 0.0, 0.0, 0.0, 0.0, 0.0, 0.0, 0.0, 1.741291057118403E9, 0.0, 2025-03-06 13:57:37.118
249.0, -6695.643865542873, 12540.870909794678, -5549.580520341458, -12464.383240268618, -187500.02235174447, 21184.357545895284, -187500.02235174447, -12615.145756619664, 0.152, 0.9560000000000001, -0.216, 192.0, 0.0, 0.0, 0.0, 0.0, 0.0, 0.0, 0.0, 0.0, 0.0, 1.741291057118422E9, 0.0, 2025-03-06 13:57:37.118
250.0, -6692.447566085764, 12524.934115998045, -5550.1616656972965, -12465.389068769106, -187500.02235174447, 21185.855112773792, -187500.02235174447, -12602.517021002415, 0.152, 0.9560000000000001, -0.216, 192.0, 0.0, 0.0, 0.0, 0.0, 0.0, 0.0, 0.0, 0.0, 0.0, 1.741291057118441E9, 0.0, 2025-03-06 13:57:37.118
251.0, -6685.674987515806, 12515.14405192662, -5552.352136653917, -12488.56782776926, -187500.02235174447, 21184.29049066192, -187500.02235174447, -12607.836736182779, 0.152, 0.9560000000000001, -0.216, 192.0, 0.0, 0.0, 0.0, 0.0, 0.0, 0.0, 0.0, 0.0, 0.0, 1.74129105711846E9, 0.0, 2025-03-06 13:57:37.118
252.0, -6680.288217102077, 12530.924383512067, -5549.446409874727, -12491.987644670922, -187500.02235174447, 21187.397383141208, -187500.02235174447, -12611.122442617709, 0.152, 0.9560000000000001, -0.216, 192.0, 0.0, 0.0, 0.0, 0.0, 0.0, 0.0, 0.0, 0.0, 0.0, 1.74129105711848E9, 0.0, 2025-03-06 13:57:37.118
253.0, -6683.37275783691, 12548.738723842946, -5545.1101714503975, -12452.536815707304, -187500.02235174447, 21184.178731939643, -187500.02235174447, -12607.613218738225, 0.152, 0.9560000000000001, -0.216, 192.0, 0.0, 0.0, 0.0, 0.0, 0.0, 0.0, 0.0, 0.0, 0.0, 1.741291057118518E9, 0.0, 2025-03-06 13:57:37.118
254.0, -6681.0481764135575, 12544.33543018525, -5540.550415581514, -12440.422170212529, -187500.02235174447, 21182.323537149852, -187500.02235174447, -12611.681236229091, 0.152, 0.9560000000000001, -0.216, 192.0, 0.0, 0.0, 0.0, 0.0, 0.0, 0.0, 0.0, 0.0, 0.0, 1.741291057118537E9, 0.0, 2025-03-06 13:57:37.118
255.0, -6690.815888740527, 12521.737816540935, -5556.174284955774, -12474.03919387331, -187500.02235174447, 21173.829874256837, -187500.02235174447, -12624.824061968811, 0.152, 0.9560000000000001, -0.216, 192.0, 0.0, 0.0, 0.0, 0.0, 0.0, 0.0, 0.0, 0.0, 0.0, 1.741291057118566E9, 0.0, 2025-03-06 13:57:37.118
0.0, -6675.616702510918, 12534.612421347192, -5549.3346511524505, -12474.642690973604, -187500.02235174447, 21181.76474353847, -187500.02235174447, -12621.337189833785, 0.152, 0.9560000000000001, -0.216, 192.0, 0.0, 0.0, 0.0, 0.0, 0.0, 0.0, 0.0, 0.0, 0.0, 1.741291057118585E9, 0.0, 2025-03-06 13:57:37.118
1.0, -6673.873266443404, 12547.688191853547, -5540.662174303791, -12457.230682042918, -187500.02235174447, 21184.357545895284, -187500.02235174447, -12617.425634554105, 0.15, 0.9520000000000001, -0.212, 192.0, 4.0, 176.0, 29.0, 192.0, 249.0, 96.0, 0.0, 0.0, 0.0, 1.741291057178448E9, 0.0, 2025-03-06 13:57:37.178
2.0, -6679.9305891907925, 12544.760113329901, -5544.484322605649, -12436.108283532654, -187500.02235174447, 21179.41781037066, -187500.02235174447, -12610.720111217513, 0.15, 0.9520000000000001, -0.212, 192.0, 0.0, 0.0, 0.0, 0.0, 0.0, 0.0, 0.0, 0.0, 0.0, 1.741291057178483E9, 0.0, 2025-03-06 13:57:37.178
3.0, -6679.572961279508, 12531.706694568002, -5547.47945636266, -12460.941071622501, -187500.02235174447, 21175.640365557716, -187500.02235174447, -12619.63845725518, 0.15, 0.9520000000000001, -0.212, 192.0, 0.0, 0.0, 0.0, 0.0, 0.0, 0.0, 0.0, 0.0, 0.0, 1.741291057178503E9, 0.0, 2025-03-06 13:57:37.178
4.0, -6680.757603735638, 12536.445264392527, -5544.372563883372, -12478.46483927546, -187500.02235174447, 21176.53443533593, -187500.02235174447, -12620.666637500124, 0.15, 0.9520000000000001, -0.212, 192.0, 0.0, 0.0, 0.0, 0.0, 0.0, 0.0, 0.0, 0.0, 0.0, 1.741291057178523E9, 0.0, 2025-03-06 13:57:37.178
5.0, -6685.026786926603, 12551.331526199761, -5543.433790616249, -12458.124751821131, -187500.02235174447, 21181.407115627186, -187500.02235174447, -12618.20794561004, 0.15, 0.9520000000000001, -0.212, 192.0, 0.0, 0.0, 0.0, 0.0, 0.0, 0.0, 0.0, 0.0, 0.0, 1.741291057178542E9, 0.0, 2025-03-06 13:57:37.178
6.0, -6684.624455526407, 12552.762037844901, -5544.283156905551, -12434.141330020588, -187500.02235174447, 21179.41781037066, -187500.02235174447, -12616.26334384243, 0.15, 0.9520000000000001, -0.212, 192.0, 0.0, 0.0, 0.0, 0.0, 0.0, 0.0, 0.0, 0.0, 0.0, 1.741291057178565E9, 0.0, 2025-03-06 13:57:37.178
7.0, -6678.611836267929, 12531.974915501467, -5550.362831397394, -12462.684507690014, -187500.02235174447, 21176.08740044682, -187500.02235174447, -12623.125329390208, 0.15, 0.9520000000000001, -0.212, 192.0, 0.0, 0.0, 0.0, 0.0, 0.0, 0.0, 0.0, 0.0, 0.0, 1.741291057178606E9, 0.0, 2025-03-06 13:57:37.178
8.0, -6678.567132779019, 12526.901069510111, -5553.045040732031, -12477.011975885865, -187500.02235174447, 21173.829874256837, -187500.02235174447, -12624.578192779803, 0.15, 0.9520000000000001, -0.212, 192.0, 0.0, 0.0, 0.0, 0.0, 0.0, 0.0, 0.0, 0.0, 0.0, 1.741291057178625E9, 0.0, 2025-03-06 13:57:37.178
9.0, -6684.08801365948, 12534.05362773581, -5553.782648299057, -12468.831237415223, -187500.02235174447, 21174.567481823862, -187500.02235174447, -12621.985390422988, 0.15, 0.9520000000000001, -0.212, 192.0, 0.0, 0.0, 0.0, 0.0, 0.0, 0.0, 0.0, 0.0, 0.0, 1.741291057178645E9, 0.0, 2025-03-06 13:57:37.178
10.0, -6692.738138763683, 12533.852462035711, -5555.615491344392, -12438.321106233729, -187500.02235174447, 21174.05339170139, -187500.02235174447, -12617.895021187667, 0.15, 0.9520000000000001, -0.212, 192.0, 0.0, 0.0, 0.0, 0.0, 0.0, 0.0, 0.0, 0.0, 0.0, 1.741291057178664E9, 0.0, 2025-03-06 13:57:37.178
11.0, -6681.718728747217, 12515.278162393352, -5556.174284955774, -12460.717554177947, -187500.02235174447, 21174.43337135713, -187500.02235174447, -12623.728826490502, 0.152, 0.9540000000000001, -0.20800000000000002, 192.0, 4.0, 192.0, 29.0, 208.0, 249.0, 128.0, 0.0, 0.0, 0.0, 1.741291057178683E9, 0.0, 2025-03-06 13:57:37.178
12.0, -6679.4612025572305, 12518.563868828282, -5557.135409967353, -12477.727231708435, -187500.02235174447, 21176.556787080382, -187500.02235174447, -12623.907640446145, 0.152, 0.9540000000000001, -0.20800000000000002, 192.0, 0.0, 0.0, 0.0, 0.0, 0.0, 0.0, 0.0, 0.0, 0.0, 1.74129105717871E9, 0.0, 2025-03-06 13:57:37.178
13.0, -6683.931551448292, 12531.170252701075, -5555.682546577757, -12463.489170490406, -187500.02235174447, 21178.23316791453, -187500.02235174447, -12622.030093911899, 0.152, 0.9540000000000001, -0.20800000000000002, 192.0, 0.0, 0.0, 0.0, 0.0, 0.0, 0.0, 0.0, 0.0, 0.0, 1.741291057178729E9, 0.0, 2025-03-06 13:57:37.178
14.0, -6694.213353897733, 12530.81262478979, -5557.694203578735, -12447.954708093966, -187500.02235174447, 21172.466417845062, -187500.02235174447, -12634.189442895586, 0.152, 0.9540000000000001, -0.20800000000000002, 192.0, 0.0, 0.0, 0.0, 0.0, 0.0, 0.0, 0.0, 0.0, 0.0, 1.741291057178748E9, 0.0, 2025-03-06 13:57:37.178
15.0, -6705.2327639141995, 12509.109080923687, -5564.690299593246, -12455.286080275308, -187500.02235174447, 21173.00285971199, -187500.02235174447, -12630.568460293825, 0.152, 0.9540000000000001, -0.20800000000000002, 192.0, 0.0, 0.0, 0.0, 0.0, 0.0, 0.0, 0.0, 0.0, 0.0, 1.741291057178773E9, 0.0, 2025-03-06 13:57:37.178
16.0, -6684.400938081853, 12517.111005438686, -5549.133485452353, -12472.854551417178, -187500.02235174447, 21192.918264021668, -187500.02235174447, -12604.461622770026, 0.152, 0.9540000000000001, -0.20800000000000002, 192.0, 0.0, 0.0, 0.0, 0.0, 0.0, 0.0, 0.0, 0.0, 0.0, 1.741291057240163E9, 0.0, 2025-03-06 13:57:37.240
17.0, -6687.217257883222, 12531.237307934442, -5547.837084273945, -12464.852626902179, -187500.02235174447, 21185.788057540423, -187500.02235174447, -12605.847430926256, 0.152, 0.9540000000000001, -0.20800000000000002, 192.0, 0.0, 0.0, 0.0, 0.0, 0.0, 0.0, 0.0, 0.0, 0.0, 1.741291057240225E9, 0.0, 2025-03-06 13:57:37.240
18.0, -6694.436871342286, 12535.864119036689, -5550.541645353037, -12448.625260427627, -187500.02235174447, 21172.71228703407, -187500.02235174447, -12623.661771257135, 0.152, 0.9540000000000001, -0.20800000000000002, 192.0, 0.0, 0.0, 0.0, 0.0, 0.0, 0.0, 0.0, 0.0, 0.0, 1.741291057240246E9, 0.0, 2025-03-06 13:57:37.240
19.0, -6693.475746330709, 12521.179022929553, -5555.123752966375, -12451.486283717906, -187500.02235174447, 21171.304127133386, -187500.02235174447, -12625.874593958211, 0.152, 0.9540000000000001, -0.20800000000000002, 192.0, 0.0, 0.0, 0.0, 0.0, 0.0, 0.0, 0.0, 0.0, 0.0, 1.741291057240265E9, 0.0, 2025-03-06 13:57:37.240
20.0, -6681.249342113655, 12511.925400725057, -5552.262729676096, -12482.309339321773, -187500.02235174447, 21177.249691158497, -187500.02235174447, -12611.502422273448, 0.152, 0.9540000000000001, -0.20800000000000002, 192.0, 0.0, 0.0, 0.0, 0.0, 0.0, 0.0, 0.0, 0.0, 0.0, 1.741291057240284E9, 0.0, 2025-03-06 13:57:37.240
21.0, -6687.463127072231, 12520.843746762723, -5554.564959354992, -12476.90021716359, -187500.02235174447, 21165.85030148629, -187500.02235174447, -12624.801710224356, 0.148, 0.9520000000000001, -0.218, 192.0, 4.0, 160.0, 29.0, 192.0, 249.0, 48.0, 0.0, 0.0, 0.0, 1.741291057240303E9, 0.0, 2025-03-06 13:57:37.240
22.0, -6695.152127164856, 12530.76792130088, -5557.180113456263, -12453.18501629651, -187500.02235174447, 21166.878481731233, -187500.02235174447, -12635.239974884984, 0.148, 0.9520000000000001, -0.218, 192.0, 0.0, 0.0, 0.0, 0.0, 0.0, 0.0, 0.0, 0.0, 0.0, 1.741291057240331E9, 0.0, 2025-03-06 13:57:37.240
23.0, -6689.832411984493, 12527.86219452169, -5555.883712277855, -12439.550452178772, -187500.02235174447, 21170.99120271101, -187500.02235174447, -12627.841547470278, 0.148, 0.9520000000000001, -0.218, 192.0, 0.0, 0.0, 0.0, 0.0, 0.0, 0.0, 0.0, 0.0, 0.0, 1.741291057240351E9, 0.0, 2025-03-06 13:57:37.240
24.0, -6686.636112527384, 12514.115871681675, -5559.594101857437, -12455.375487253128, -187500.02235174447, 21169.203063154586, -187500.02235174447, -12632.110730661241, 0.148, 0.9520000000000001, -0.218, 192.0, 0.0, 0.0, 0.0, 0.0, 0.0, 0.0, 0.0, 0.0, 0.0, 1.741291057240369E9, 0.0, 2025-03-06 13:57:37.240
25.0, -6686.010263682636, 12516.19458391602, -5557.448334389727, -12464.494998990895, -187500.02235174447, 21170.208891655075, -187500.02235174447, -12626.366332336227, 0.148, 0.9520000000000001, -0.218, 192.0, 0.0, 0.0, 0.0, 0.0, 0.0, 0.0, 0.0, 0.0, 0.0, 1.741291057240388E9, 0.0, 2025-03-06 13:57:37.240
26.0, -6675.862571699927, 12542.882566795655, -5543.81377027199, -12453.810865141257, -187500.02235174447, 21180.602452826795, -187500.02235174447, -12616.26334384243, 0.148, 0.9520000000000001, -0.218, 192.0, 0.0, 0.0, 0.0, 0.0, 0.0, 0.0, 0.0, 0.0, 0.0, 1.741291057240407E9, 0.0, 2025-03-06 13:57:37.240
27.0, -6683.193943881267, 12546.72706684197, -5542.495017349126, -12429.112187518143, -187500.02235174447, 21179.082534203833, -187500.02235174447, -12612.865878685223, 0.148, 0.9520000000000001, -0.218, 192.0, 0.0, 0.0, 0.0, 0.0, 0.0, 0.0, 0.0, 0.0, 0.0, 1.741291057240433E9, 0.0, 2025-03-06 13:57:37.240
28.0, -6688.379548594899, 12526.834014276745, -5546.451276117716, -12457.968289609944, -187500.02235174447, 21177.294394647408, -187500.02235174447, -12621.761872978435, 0.148, 0.9520000000000001, -0.218, 192.0, 0.0, 0.0, 0.0, 0.0, 0.0, 0.0, 0.0, 0.0, 0.0, 1.741291057240452E9, 0.0, 2025-03-06 13:57:37.240
29.0, -6689.251266628656, 12532.220784690475, -5547.188883684741, -12479.358909053673, -187500.02235174447, 21177.897891747703, -187500.02235174447, -12624.332323590796, 0.148, 0.9520000000000001, -0.218, 192.0, 0.0, 0.0, 0.0, 0.0, 0.0, 0.0, 0.0, 0.0, 0.0, 1.74129105724047E9, 0.0, 2025-03-06 13:57:37.240
30.0, -6685.429118326798, 12538.09929348222, -5544.529026094559, -12470.887597905112, -187500.02235174447, 21174.343964379306, -187500.02235174447, -12626.098111402764, 0.148, 0.9520000000000001, -0.218, 192.0, 0.0, 0.0, 0.0, 0.0, 0.0, 0.0, 0.0, 0.0, 0.0, 1.741291057240495E9, 0.0, 2025-03-06 13:57:37.240
31.0, -6680.80230722455, 12546.995287775433, -5542.517369093582, -12445.317202248241, -187500.02235174447, 21171.125313177745, -187500.02235174447, -12629.942611449076, 0.15, 0.9480000000000001, -0.214, 192.0, 4.0, 176.0, 29.0, 160.0, 249.0, 80.0, 0.0, 0.0, 0.0, 1.74129105729902E9, 0.0, 2025-03-06 13:57:37.299
32.0, -6677.069565900513, 12532.511357368394, -5547.568863340481, -12461.075182089233, -187500.02235174447, 21171.058257944376, -187500.02235174447, -12643.353658122262, 0.15, 0.9480000000000001, -0.214, 192.0, 0.0, 0.0, 0.0, 0.0, 0.0, 0.0, 0.0, 0.0, 0.0, 1.741291057299079E9, 0.0, 2025-03-06 13:57:37.299
33.0, -6677.136621133879, 12536.065284736787, -5542.740886538135, -12477.727231708435, -187500.02235174447, 21181.8988540052, -187500.02235174447, -12627.483919558994, 0.15, 0.9480000000000001, -0.214, 192.0, 0.0, 0.0, 0.0, 0.0, 0.0, 0.0, 0.0, 0.0, 0.0, 1.7412910572991E9, 0.0, 2025-03-06 13:57:37.299
34.0, -6670.252283841644, 12548.001116275922, -5535.5436248235255, -12467.08780134771, -187500.02235174447, 21182.70351680559, -187500.02235174447, -12617.291524087374, 0.15, 0.9480000000000001, -0.214, 192.0, 0.0, 0.0, 0.0, 0.0, 0.0, 0.0, 0.0, 0.0, 0.0, 1.741291057299119E9, 0.0, 2025-03-06 13:57:37.299
35.0, -6679.997644424158, 12549.67749711007, -5542.204444671207, -12438.611678911648, -187500.02235174447, 21170.99120271101, -187500.02235174447, -12622.857108456745, 0.15, 0.9480000000000001, -0.214, 192.0, 0.0, 0.0, 0.0, 0.0, 0.0, 0.0, 0.0, 0.0, 0.0, 1.741291057299138E9, 0.0, 2025-03-06 13:57:37.299
36.0, -6679.192981623767, 12536.266450436886, -5540.550415581514, -12441.629164413114, -187500.02235174447, 21174.925109735144, -187500.02235174447, -12625.919297447123, 0.15, 0.9480000000000001, -0.214, 192.0, 0.0, 0.0, 0.0, 0.0, 0.0, 0.0, 0.0, 0.0, 0.0, 1.741291057299157E9, 0.0, 2025-03-06 13:57:37.299
37.0, -6674.543818777063, 12535.841767292235, -5538.739924280635, -12457.476551231928, -187500.02235174447, 21174.880406246237, -187500.02235174447, -12632.244841127973, 0.15, 0.9480000000000001, -0.214, 192.0, 0.0, 0.0, 0.0, 0.0, 0.0, 0.0, 0.0, 0.0, 0.0, 1.741291057299176E9, 0.0, 2025-03-06 13:57:37.299
38.0, -6671.056946642036, 12548.895186054133, -5535.275403890062, -12454.74963840838, -187500.02235174447, 21177.450856858595, -187500.02235174447, -12632.468358572527, 0.15, 0.9480000000000001, -0.214, 192.0, 0.0, 0.0, 0.0, 0.0, 0.0, 0.0, 0.0, 0.0, 0.0, 1.741291057299203E9, 0.0, 2025-03-06 13:57:37.299
39.0, -6677.270731600611, 12567.134209529664, -5530.648592787814, -12425.379446194107, -187500.02235174447, 21179.641327815214, -187500.02235174447, -12622.745349734469, 0.15, 0.9480000000000001, -0.214, 192.0, 0.0, 0.0, 0.0, 0.0, 0.0, 0.0, 0.0, 0.0, 0.0, 1.741291057299222E9, 0.0, 2025-03-06 13:57:37.299
40.0, -6681.495211302664, 12555.176026246076, -5530.983868954643, -12433.359018964651, -187500.02235174447, 21180.781266782436, -187500.02235174447, -12625.092282902275, 0.15, 0.9480000000000001, -0.214, 192.0, 0.0, 0.0, 0.0, 0.0, 0.0, 0.0, 0.0, 0.0, 0.0, 1.741291057299241E9, 0.0, 2025-03-06 13:57:37.299
41.0, -6684.065661915024, 12545.184796474552, -5534.604851556403, -12458.124751821131, -187500.02235174447, 21179.686031304125, -187500.02235174447, -12619.861974699734, 0.14400000000000002, 0.9460000000000001, -0.216, 192.0, 4.0, 128.0, 29.0, 144.0, 249.0, 64.0, 0.0, 0.0, 0.0, 1.74129105729926E9, 0.0, 2025-03-06 13:57:37.299
42.0, -6694.101595175457, 12542.703752840014, -5540.684526048247, -12445.294850503786, -187500.02235174447, 21166.632612542227, -187500.02235174447, -12636.894003974678, 0.14400000000000002, 0.9460000000000001, -0.216, 192.0, 0.0, 0.0, 0.0, 0.0, 0.0, 0.0, 0.0, 0.0, 0.0, 1.741291057299281E9, 0.0, 2025-03-06 13:57:37.299
43.0, -6684.08801365948, 12557.232386735963, -5535.722438779168, -12433.962516064945, -187500.02235174447, 21168.599566054294, -187500.02235174447, -12638.235108641997, 0.14400000000000002, 0.9460000000000001, -0.216, 192.0, 0.0, 0.0, 0.0, 0.0, 0.0, 0.0, 0.0, 0.0, 0.0, 1.741291057299306E9, 0.0, 2025-03-06 13:57:37.299
44.0, -6685.183249137789, 12546.615308119692, -5541.153912681808, -12434.498957931872, -187500.02235174447, 21171.058257944376, -187500.02235174447, -12622.45477705655, 0.14400000000000002, 0.9460000000000001, -0.216, 192.0, 0.0, 0.0, 0.0, 0.0, 0.0, 0.0, 0.0, 0.0, 0.0, 1.741291057299325E9, 0.0, 2025-03-06 13:57:37.299
45.0, -6690.748833507161, 12531.9078602681, -5544.774895283567, -12459.42115299954, -187500.02235174447, 21165.336211363818, -187500.02235174447, -12635.463492329538, 0.14400000000000002, 0.9460000000000001, -0.216, 192.0, 0.0, 0.0, 0.0, 0.0, 0.0, 0.0, 0.0, 0.0, 0.0, 1.74129105729935E9, 0.0, 2025-03-06 13:57:37.299
46.0, -6689.631246284395, 12536.646430092625, -5541.735058037646, -12475.648519474093, -187500.02235174447, 21161.357600850773, -187500.02235174447, -12649.858015758755, 0.14400000000000002, 0.9460000000000001, -0.216, 192.0, 0.0, 0.0, 0.0, 0.0, 0.0, 0.0, 0.0, 0.0, 0.0, 1.741291057358497E9, 0.0, 2025-03-06 13:57:37.358
47.0, -6682.545743292063, 12553.76786634539, -5536.057714945998, -12454.995507597388, -187500.02235174447, 21172.42171435615, -187500.02235174447, -12633.854166728755, 0.14400000000000002, 0.9460000000000001, -0.216, 192.0, 0.0, 0.0, 0.0, 0.0, 0.0, 0.0, 0.0, 0.0, 0.0, 1.741291057358548E9, 0.0, 2025-03-06 13:57:37.358
48.0, -6689.899467217859, 12550.705677355014, -5539.186959169741, -12434.767178865335, -187500.02235174447, 21172.533473078427, -187500.02235174447, -12615.816308953323, 0.14400000000000002, 0.9460000000000001, -0.216, 192.0, 0.0, 0.0, 0.0, 0.0, 0.0, 0.0, 0.0, 0.0, 0.0, 1.741291057358573E9, 0.0, 2025-03-06 13:57:37.358
49.0, -6692.358159107943, 12534.8582905362, -5544.327860394462, -12449.742847650392, -187500.02235174447, 21171.9970312115, -187500.02235174447, -12624.287620101884, 0.14400000000000002, 0.9460000000000001, -0.216, 192.0, 0.0, 0.0, 0.0, 0.0, 0.0, 0.0, 0.0, 0.0, 0.0, 1.741291057358593E9, 0.0, 2025-03-06 13:57:37.358
50.0, -6687.507830561141, 12532.176081201564, -5542.2938516490285, -12468.138333337109, -187500.02235174447, 21168.219586398554, -187500.02235174447, -12634.45766382905, 0.14400000000000002, 0.9460000000000001, -0.216, 192.0, 0.0, 0.0, 0.0, 0.0, 0.0, 0.0, 0.0, 0.0, 0.0, 1.741291057358612E9, 0.0, 2025-03-06 13:57:37.358
51.0, -6686.3902433383755, 12542.860215051202, -5536.638860301836, -12466.797228669791, -187500.02235174447, 21175.32744113534, -187500.02235174447, -12624.533489290892, 0.146, 0.9460000000000001, -0.212, 192.0, 4.0, 144.0, 29.0, 144.0, 249.0, 96.0, 0.0, 0.0, 0.0, 1.741291057358632E9, 0.0, 2025-03-06 13:57:37.358
52.0, -6689.139507906379, 12547.487026153449, -5534.828369000956, -12440.869205101635, -187500.02235174447, 21183.262310416976, -187500.02235174447, -12613.268210085418, 0.146, 0.9460000000000001, -0.212, 192.0, 0.0, 0.0, 0.0, 0.0, 0.0, 0.0, 0.0, 0.0, 0.0, 1.741291057358653E9, 0.0, 2025-03-06 13:57:37.358
53.0, -6684.870324715415, 12531.036142234343, -5539.030496958554, -12454.012030841355, -187500.02235174447, 21180.28952840442, -187500.02235174447, -12617.582096765293, 0.146, 0.9460000000000001, -0.212, 192.0, 0.0, 0.0, 0.0, 0.0, 0.0, 0.0, 0.0, 0.0, 0.0, 1.741291057358683E9, 0.0, 2025-03-06 13:57:37.358
54.0, -6681.025824669102, 12532.846633535222, -5539.075200447464, -12468.160685081564, -187500.02235174447, 21177.987298725522, -187500.02235174447, -12626.791015480878, 0.146, 0.9460000000000001, -0.212, 192.0, 0.0, 0.0, 0.0, 0.0, 0.0, 0.0, 0.0, 0.0, 0.0, 1.741291057358702E9, 0.0, 2025-03-06 13:57:37.358
55.0, -6682.612798525429, 12539.954488272011, -5539.410476614294, -12456.89540587609, -187500.02235174447, 21178.300223147897, -187500.02235174447, -12627.97565793701, 0.146, 0.9460000000000001, -0.212, 192.0, 0.0, 0.0, 0.0, 0.0, 0.0, 0.0, 0.0, 0.0, 0.0, 1.741291057358721E9, 0.0, 2025-03-06 13:57:37.358
56.0, -6689.564191051029, 12541.76497957289, -5542.874997004867, -12433.873109087124, -187500.02235174447, 21174.0980951903, -187500.02235174447, -12633.675352773113, 0.146, 0.9460000000000001, -0.212, 192.0, 0.0, 0.0, 0.0, 0.0, 0.0, 0.0, 0.0, 0.0, 0.0, 1.74129105735874E9, 0.0, 2025-03-06 13:57:37.358
57.0, -6682.121060147412, 12539.641563849636, -5539.879863247856, -12443.50671094736, -187500.02235174447, 21177.76378128097, -187500.02235174447, -12628.266230614929, 0.146, 0.9460000000000001, -0.212, 192.0, 0.0, 0.0, 0.0, 0.0, 0.0, 0.0, 0.0, 0.0, 0.0, 1.74129105735876E9, 0.0, 2025-03-06 13:57:37.358
58.0, -6676.644882755862, 12545.430665663562, -5532.861415488889, -12466.976042625432, -187500.02235174447, 21179.328403392843, -187500.02235174447, -12624.622896268715, 0.146, 0.9460000000000001, -0.212, 192.0, 0.0, 0.0, 0.0, 0.0, 0.0, 0.0, 0.0, 0.0, 0.0, 1.741291057358785E9, 0.0, 2025-03-06 13:57:37.358
59.0, -6678.3436153344655, 12555.846578579734, -5529.933336965244, -12468.451257759483, -187500.02235174447, 21180.155417937687, -187500.02235174447, -12627.662733514635, 0.146, 0.9460000000000001, -0.212, 192.0, 0.0, 0.0, 0.0, 0.0, 0.0, 0.0, 0.0, 0.0, 0.0, 1.741291057358805E9, 0.0, 2025-03-06 13:57:37.358
60.0, -6687.261961372133, 12561.546273415837, -5536.57180506847, -12443.685524903003, -187500.02235174447, 21173.114618434265, -187500.02235174447, -12632.69187601708, 0.146, 0.9460000000000001, -0.212, 192.0, 0.0, 0.0, 0.0, 0.0, 0.0, 0.0, 0.0, 0.0, 0.0, 1.741291057358824E9, 0.0, 2025-03-06 13:57:37.358
61.0, -6686.122022404912, 12543.374305173673, -5546.719497051179, -12458.236510543407, -187500.02235174447, 21168.197234654097, -187500.02235174447, -12637.653963286159, 0.15, 0.9480000000000001, -0.21, 192.0, 4.0, 176.0, 29.0, 160.0, 249.0, 112.0, 0.0, 0.0, 0.0, 1.741291057418117E9, 0.0, 2025-03-06 13:57:37.418
62.0, -6680.288217102077, 12553.074962267276, -5538.00231671361, -12472.765144439358, -187500.02235174447, 21176.243862658008, -187500.02235174447, -12629.719094004524, 0.15, 0.9480000000000001, -0.21, 192.0, 0.0, 0.0, 0.0, 0.0, 0.0, 0.0, 0.0, 0.0, 0.0, 1.741291057418152E9, 0.0, 2025-03-06 13:57:37.418
63.0, -6685.2279526267, 12557.277090224874, -5537.532930080049, -12455.822522142234, -187500.02235174447, 21174.0980951903, -187500.02235174447, -12629.339114348784, 0.15, 0.9480000000000001, -0.21, 192.0, 0.0, 0.0, 0.0, 0.0, 0.0, 0.0, 0.0, 0.0, 0.0, 1.741291057418195E9, 0.0, 2025-03-06 13:57:37.418
64.0, -6688.223086383711, 12562.999136805432, -5540.840988259433, -12434.230736998408, -187500.02235174447, 21173.338135878817, -187500.02235174447, -12625.651076513657, 0.15, 0.9480000000000001, -0.21, 192.0, 0.0, 0.0, 0.0, 0.0, 0.0, 0.0, 0.0, 0.0, 0.0, 1.741291057418214E9, 0.0, 2025-03-06 13:57:37.418
65.0, -6680.332920590988, 12556.047744279831, -5542.673831304769, -12438.678734145014, -187500.02235174447, 21174.23220565703, -187500.02235174447, -12622.96886717902, 0.15, 0.9480000000000001, -0.21, 192.0, 0.0, 0.0, 0.0, 0.0, 0.0, 0.0, 0.0, 0.0, 0.0, 1.741291057418234E9, 0.0, 2025-03-06 13:57:37.418
66.0, -6674.029728654591, 12559.713430370502, -5538.918738236277, -12463.13154257912, -187500.02235174447, 21181.47417086055, -187500.02235174447, -12614.408149052639, 0.15, 0.9480000000000001, -0.21, 192.0, 0.0, 0.0, 0.0, 0.0, 0.0, 0.0, 0.0, 0.0, 0.0, 1.741291057418254E9, 0.0, 2025-03-06 13:57:37.418
67.0, -6677.829525211993, 12564.943738573043, -5538.851683002911, -12465.031440857822, -187500.02235174447, 21176.400324869195, -187500.02235174447, -12625.896945702667, 0.15, 0.9480000000000001, -0.21, 192.0, 0.0, 0.0, 0.0, 0.0, 0.0, 0.0, 0.0, 0.0, 0.0, 1.741291057418273E9, 0.0, 2025-03-06 13:57:37.418
68.0, -6679.796478724061, 12576.119610800697, -5540.840988259433, -12439.79632136778, -187500.02235174447, 21173.516949834462, -187500.02235174447, -12630.8813847162, 0.15, 0.9480000000000001, -0.21, 192.0, 0.0, 0.0, 0.0, 0.0, 0.0, 0.0, 0.0, 0.0, 0.0, 1.7412910574183E9, 0.0, 2025-03-06 13:57:37.418
69.0, -6672.12983037589, 12565.055497295321, -5538.3599446248945, -12438.499920189372, -187500.02235174447, 21177.13793243622, -187500.02235174447, -12624.466434057527, 0.15, 0.9480000000000001, -0.21, 192.0, 0.0, 0.0, 0.0, 0.0, 0.0, 0.0, 0.0, 0.0, 0.0, 1.741291057418319E9, 0.0, 2025-03-06 13:57:37.418
70.0, -6672.308644331532, 12550.683325610558, -5537.555281824503, -12463.980908868421, -187500.02235174447, 21169.38187711023, -187500.02235174447, -12635.26232662944, 0.15, 0.9480000000000001, -0.21, 192.0, 0.0, 0.0, 0.0, 0.0, 0.0, 0.0, 0.0, 0.0, 0.0, 1.741291057418338E9, 0.0, 2025-03-06 13:57:37.418
71.0, -6663.211484338222, 12562.552101916326, -5529.531005565048, -12484.835086445224, -187500.02235174447, 21176.221510913554, -187500.02235174447, -12625.896945702667, 0.15, 0.9460000000000001, -0.21, 192.0, 4.0, 176.0, 29.0, 144.0, 249.0, 112.0, 0.0, 0.0, 0.0, 1.741291057418357E9, 0.0, 2025-03-06 13:57:37.418
72.0, -6661.244530826156, 12578.980634090976, -5522.311392105984, -12466.484304247417, -187500.02235174447, 21181.138894693722, -187500.02235174447, -12613.201154852051, 0.15, 0.9460000000000001, -0.21, 192.0, 0.0, 0.0, 0.0, 0.0, 0.0, 0.0, 0.0, 0.0, 0.0, 1.741291057418378E9, 0.0, 2025-03-06 13:57:37.418
73.0, -6672.800382709549, 12568.698831641535, -5528.502825320104, -12458.102400076676, -187500.02235174447, 21181.563577838373, -187500.02235174447, -12624.622896268715, 0.15, 0.9460000000000001, -0.21, 192.0, 0.0, 0.0, 0.0, 0.0, 0.0, 0.0, 0.0, 0.0, 0.0, 1.741291057418404E9, 0.0, 2025-03-06 13:57:37.418
74.0, -6677.762469978627, 12558.506436169915, -5534.336630622939, -12470.731135693924, -187500.02235174447, 21180.580101082338, -187500.02235174447, -12626.589849780781, 0.15, 0.9460000000000001, -0.21, 192.0, 0.0, 0.0, 0.0, 0.0, 0.0, 0.0, 0.0, 0.0, 0.0, 1.741291057418423E9, 0.0, 2025-03-06 13:57:37.418
75.0, -6675.259074599633, 12562.328584471774, -5529.642764287325, -12471.356984538674, -187500.02235174447, 21184.737525551027, -187500.02235174447, -12619.750215977458, 0.15, 0.9460000000000001, -0.21, 192.0, 0.0, 0.0, 0.0, 0.0, 0.0, 0.0, 0.0, 0.0, 0.0, 1.741291057418442E9, 0.0, 2025-03-06 13:57:37.418
76.0, -6679.304740346043, 12563.937910072555, -5534.962479467688, -12461.388106511606, -187500.02235174447, 21178.76960978146, -187500.02235174447, -12629.763797493435, 0.15, 0.9460000000000001, -0.21, 192.0, 0.0, 0.0, 0.0, 0.0, 0.0, 0.0, 0.0, 0.0, 0.0, 1.741291057478589E9, 0.0, 2025-03-06 13:57:37.478
77.0, -6679.37179557941, 12565.502532184426, -5536.996488213121, -12430.475643929916, -187500.02235174447, 21180.915377249166, -187500.02235174447, -12617.559745020837, 0.15, 0.9460000000000001, -0.21, 192.0, 0.0, 0.0, 0.0, 0.0, 0.0, 0.0, 0.0, 0.0, 0.0, 1.741291057478622E9, 0.0, 2025-03-06 13:57:37.478
78.0, -6672.867437942915, 12551.890319811144, -5538.628165558358, -12451.352173251174, -187500.02235174447, 21179.931900493135, -187500.02235174447, -12623.840585212778, 0.15, 0.9460000000000001, -0.21, 192.0, 0.0, 0.0, 0.0, 0.0, 0.0, 0.0, 0.0, 0.0, 0.0, 1.74129105747866E9, 0.0, 2025-03-06 13:57:37.478
79.0, -6675.7061094887395, 12549.409276176606, -5544.886654005844, -12469.255920559874, -187500.02235174447, 21172.086438189323, -187500.02235174447, -12632.110730661241, 0.15, 0.9460000000000001, -0.21, 192.0, 0.0, 0.0, 0.0, 0.0, 0.0, 0.0, 0.0, 0.0, 0.0, 1.74129105747868E9, 0.0, 2025-03-06 13:57:37.478
80.0, -6658.607024980429, 12562.976785060977, -5535.230700401152, -12469.390031026607, -187500.02235174447, 21179.529569092938, -187500.02235174447, -12630.993143438476, 0.15, 0.9460000000000001, -0.21, 192.0, 0.0, 0.0, 0.0, 0.0, 0.0, 0.0, 0.0, 0.0, 0.0, 1.741291057478699E9, 0.0, 2025-03-06 13:57:37.478
81.0, -6663.636167482873, 12576.499590456438, -5531.296793377018, -12448.334687749708, -187500.02235174447, 21187.86676977477, -187500.02235174447, -12613.648189741158, 0.152, 0.9460000000000001, -0.214, 192.0, 4.0, 192.0, 29.0, 144.0, 249.0, 80.0, 0.0, 0.0, 0.0, 1.741291057478719E9, 0.0, 2025-03-06 13:57:37.478
82.0, -6663.814981438516, 12560.719258870991, -5533.889595733834, -12468.674775204037, -187500.02235174447, 21188.04558373041, -187500.02235174447, -12616.35275082025, 0.152, 0.9460000000000001, -0.214, 192.0, 0.0, 0.0, 0.0, 0.0, 0.0, 0.0, 0.0, 0.0, 0.0, 1.74129105747874E9, 0.0, 2025-03-06 13:57:37.478
83.0, -6681.56226653603, 12552.426761678073, -5542.986755727143, -12464.427943757528, -187500.02235174447, 21177.987298725522, -187500.02235174447, -12621.046617155866, 0.152, 0.9460000000000001, -0.214, 192.0, 0.0, 0.0, 0.0, 0.0, 0.0, 0.0, 0.0, 0.0, 0.0, 1.741291057478766E9, 0.0, 2025-03-06 13:57:37.478
84.0, -6681.629321769396, 12556.405372191117, -5549.938148252743, -12462.282176289818, -187500.02235174447, 21173.539301578916, -187500.02235174447, -12630.926088205111, 0.152, 0.9460000000000001, -0.214, 192.0, 0.0, 0.0, 0.0, 0.0, 0.0, 0.0, 0.0, 0.0, 0.0, 1.741291057478785E9, 0.0, 2025-03-06 13:57:37.478
85.0, -6676.46606880022, 12573.63856716616, -5547.322994151473, -12459.644670444093, -187500.02235174447, 21173.00285971199, -187500.02235174447, -12633.585945795292, 0.152, 0.9460000000000001, -0.214, 192.0, 0.0, 0.0, 0.0, 0.0, 0.0, 0.0, 0.0, 0.0, 0.0, 1.741291057478805E9, 0.0, 2025-03-06 13:57:37.478
86.0, -6683.931551448292, 12561.233348993463, -5539.969270225677, -12463.0421356013, -187500.02235174447, 21176.53443533593, -187500.02235174447, -12625.964000936032, 0.152, 0.9460000000000001, -0.214, 192.0, 0.0, 0.0, 0.0, 0.0, 0.0, 0.0, 0.0, 0.0, 0.0, 1.741291057478824E9, 0.0, 2025-03-06 13:57:37.478
87.0, -6685.339711348976, 12549.118703498687, -5544.327860394462, -12469.859417660167, -187500.02235174447, 21170.700630033094, -187500.02235174447, -12626.187518380586, 0.152, 0.9460000000000001, -0.214, 192.0, 0.0, 0.0, 0.0, 0.0, 0.0, 0.0, 0.0, 0.0, 0.0, 1.741291057478843E9, 0.0, 2025-03-06 13:57:37.478
88.0, -6678.969464179214, 12549.319869198784, -5548.015898229587, -12477.011975885865, -187500.02235174447, 21162.721057262548, -187500.02235174447, -12638.25746038645, 0.152, 0.9460000000000001, -0.214, 192.0, 0.0, 0.0, 0.0, 0.0, 0.0, 0.0, 0.0, 0.0, 0.0, 1.741291057478862E9, 0.0, 2025-03-06 13:57:37.478
89.0, -6674.499115288153, 12557.522959413882, -5546.38422088435, -12459.0411733438, -187500.02235174447, 21159.770626994447, -187500.02235174447, -12642.839567999788, 0.152, 0.9460000000000001, -0.214, 192.0, 0.0, 0.0, 0.0, 0.0, 0.0, 0.0, 0.0, 0.0, 0.0, 1.741291057478888E9, 0.0, 2025-03-06 13:57:37.478
90.0, -6680.578789779996, 12537.00405800391, -5554.453200632715, -12467.959519381468, -187500.02235174447, 21157.870728715745, -187500.02235174447, -12642.660754044147, 0.152, 0.9460000000000001, -0.214, 192.0, 0.0, 0.0, 0.0, 0.0, 0.0, 0.0, 0.0, 0.0, 0.0, 1.741291057478907E9, 0.0, 2025-03-06 13:57:37.478
91.0, -6686.613760782929, 12526.454034621005, -5555.391973899838, -12492.501734793394, -187500.02235174447, 21160.575289794837, -187500.02235174447, -12639.68797203159, 0.148, 0.9460000000000001, -0.214, 192.0, 4.0, 160.0, 29.0, 144.0, 249.0, 80.0, 0.0, 0.0, 0.0, 1.741291057538867E9, 0.0, 2025-03-06 13:57:37.538
92.0, -6684.378586337399, 12539.373342916173, -5547.837084273945, -12484.61156900067, -187500.02235174447, 21163.279850873932, -187500.02235174447, -12635.038809184887, 0.148, 0.9460000000000001, -0.214, 192.0, 0.0, 0.0, 0.0, 0.0, 0.0, 0.0, 0.0, 0.0, 0.0, 1.741291057538903E9, 0.0, 2025-03-06 13:57:37.538
93.0, -6692.2016968967555, 12537.965183015489, -5549.289947663539, -12461.030478600322, -187500.02235174447, 21150.38289432322, -187500.02235174447, -12656.45178037307, 0.148, 0.9460000000000001, -0.214, 192.0, 0.0, 0.0, 0.0, 0.0, 0.0, 0.0, 0.0, 0.0, 0.0, 1.741291057538946E9, 0.0, 2025-03-06 13:57:37.538
94.0, -6698.1249091774125, 12518.295647894818, -5560.935206524755, -12457.901234376579, -187500.02235174447, 21143.140929119698, -187500.02235174447, -12671.002766013477, 0.148, 0.9460000000000001, -0.214, 192.0, 0.0, 0.0, 0.0, 0.0, 0.0, 0.0, 0.0, 0.0, 0.0, 1.741291057538965E9, 0.0, 2025-03-06 13:57:37.538
95.0, -6685.518525304619, 12516.395749616117, -5561.069316991487, -12478.286025319818, -187500.02235174447, 21155.590850781304, -187500.02235174447, -12633.563594050836, 0.148, 0.9460000000000001, -0.214, 192.0, 0.0, 0.0, 0.0, 0.0, 0.0, 0.0, 0.0, 0.0, 0.0, 1.741291057538985E9, 0.0, 2025-03-06 13:57:37.538
96.0, -6677.56130427853, 12525.381150887151, -5553.380316898861, -12486.779688212835, -187500.02235174447, 21163.123388662745, -187500.02235174447, -12622.790053223378, 0.148, 0.9460000000000001, -0.214, 192.0, 0.0, 0.0, 0.0, 0.0, 0.0, 0.0, 0.0, 0.0, 0.0, 1.741291057539004E9, 0.0, 2025-03-06 13:57:37.539
97.0, -6678.030690912091, 12544.089560996243, -5547.680622062758, -12467.780705425825, -187500.02235174447, 21161.022324683945, -187500.02235174447, -12632.624820783714, 0.148, 0.9460000000000001, -0.214, 192.0, 0.0, 0.0, 0.0, 0.0, 0.0, 0.0, 0.0, 0.0, 0.0, 1.741291057539023E9, 0.0, 2025-03-06 13:57:37.539
98.0, -6683.41746132582, 12545.654183108114, -5550.653404075313, -12438.79049286729, -187500.02235174447, 21154.31680134735, -187500.02235174447, -12650.059181458853, 0.148, 0.9460000000000001, -0.214, 192.0, 0.0, 0.0, 0.0, 0.0, 0.0, 0.0, 0.0, 0.0, 0.0, 1.741291057539043E9, 0.0, 2025-03-06 13:57:37.539
99.0, -6681.003472924647, 12534.634773091648, -5554.788476799546, -12463.824446657234, -187500.02235174447, 21155.38968508121, -187500.02235174447, -12654.306012905361, 0.148, 0.9460000000000001, -0.214, 192.0, 0.0, 0.0, 0.0, 0.0, 0.0, 0.0, 0.0, 0.0, 0.0, 1.741291057539071E9, 0.0, 2025-03-06 13:57:37.539
100.0, -6682.9257229478035, 12534.947697514022, -5556.777782056068, -12469.837065915712, -187500.02235174447, 21159.18948163861, -187500.02235174447, -12643.465416844538, 0.148, 0.9460000000000001, -0.214, 192.0, 0.0, 0.0, 0.0, 0.0, 0.0, 0.0, 0.0, 0.0, 0.0, 1.74129105753909E9, 0.0, 2025-03-06 13:57:37.539
101.0, -6682.076356658502, 12544.983630774455, -5560.532875124559, -12454.32495526373, -187500.02235174447, 21155.38968508121, -187500.02235174447, -12654.17190243863, 0.148, 0.9520000000000001, -0.214, 192.0, 4.0, 160.0, 29.0, 192.0, 249.0, 80.0, 0.0, 0.0, 0.0, 1.741291057539109E9, 0.0, 2025-03-06 13:57:37.539
102.0, -6681.517563047119, 12548.738723842946, -5561.695165836235, -12418.338646690685, -187500.02235174447, 21155.456740314574, -187500.02235174447, -12644.493597089482, 0.148, 0.9520000000000001, -0.214, 192.0, 0.0, 0.0, 0.0, 0.0, 0.0, 0.0, 0.0, 0.0, 0.0, 1.74129105753913E9, 0.0, 2025-03-06 13:57:37.539
103.0, -6674.163839121323, 12523.995342730921, -5560.398764657827, -12459.599966955182, -187500.02235174447, 21157.580156037828, -187500.02235174447, -12637.050466185865, 0.148, 0.9520000000000001, -0.214, 192.0, 0.0, 0.0, 0.0, 0.0, 0.0, 0.0, 0.0, 0.0, 0.0, 1.741291057539149E9, 0.0, 2025-03-06 13:57:37.539
104.0, -6672.174533864801, 12530.566755600781, -5552.866226776388, -12475.670871218548, -187500.02235174447, 21152.551013535383, -187500.02235174447, -12640.336172620795, 0.148, 0.9520000000000001, -0.214, 192.0, 0.0, 0.0, 0.0, 0.0, 0.0, 0.0, 0.0, 0.0, 0.0, 1.741291057539175E9, 0.0, 2025-03-06 13:57:37.539
105.0, -6682.098708402957, 12538.792197560335, -5557.694203578735, -12454.74963840838, -187500.02235174447, 21138.916449417648, -187500.02235174447, -12655.7365245505, 0.148, 0.9520000000000001, -0.214, 192.0, 0.0, 0.0, 0.0, 0.0, 0.0, 0.0, 0.0, 0.0, 0.0, 1.741291057539194E9, 0.0, 2025-03-06 13:57:37.539
106.0, -6680.578789779996, 12551.063305266298, -5556.889540778344, -12443.976097580922, -187500.02235174447, 21150.65111525668, -187500.02235174447, -12645.87940524571, 0.148, 0.9520000000000001, -0.214, 192.0, 0.0, 0.0, 0.0, 0.0, 0.0, 0.0, 0.0, 0.0, 0.0, 1.741291057599085E9, 0.0, 2025-03-06 13:57:37.599
107.0, -6674.253246099144, 12540.9603167725, -5553.1567994543075, -12459.219987299442, -187500.02235174447, 21155.56849903685, -187500.02235174447, -12639.956192965055, 0.148, 0.9520000000000001, -0.214, 192.0, 0.0, 0.0, 0.0, 0.0, 0.0, 0.0, 0.0, 0.0, 0.0, 1.741291057599125E9, 0.0, 2025-03-06 13:57:37.599
108.0, -6674.923798432804, 12536.042932992332, -5556.218988444685, -12472.675737461537, -187500.02235174447, 21151.455778057072, -187500.02235174447, -12634.50236731796, 0.148, 0.9520000000000001, -0.214, 192.0, 0.0, 0.0, 0.0, 0.0, 0.0, 0.0, 0.0, 0.0, 0.0, 1.741291057599145E9, 0.0, 2025-03-06 13:57:37.599
109.0, -6687.7984032390605, 12543.329601684762, -5560.644633846836, -12459.778780910825, -187500.02235174447, 21153.33332459132, -187500.02235174447, -12633.496538817471, 0.148, 0.9520000000000001, -0.214, 192.0, 0.0, 0.0, 0.0, 0.0, 0.0, 0.0, 0.0, 0.0, 0.0, 1.74129105759919E9, 0.0, 2025-03-06 13:57:37.599
110.0, -6703.265810402133, 12542.010848761898, -5566.165514727297, -12440.332763234706, -187500.02235174447, 21146.426635554628, -187500.02235174447, -12645.320611634328, 0.148, 0.9520000000000001, -0.214, 192.0, 0.0, 0.0, 0.0, 0.0, 0.0, 0.0, 0.0, 0.0, 0.0, 1.74129105759921E9, 0.0, 2025-03-06 13:57:37.599
111.0, -6691.933475963292, 12527.616325332681, -5565.047927504531, -12455.710763419958, -187500.02235174447, 21144.929068676123, -187500.02235174447, -12647.868710502233, 0.15, 0.9540000000000001, -0.21, 192.0, 4.0, 176.0, 29.0, 208.0, 249.0, 112.0, 0.0, 0.0, 0.0, 1.741291057599229E9, 0.0, 2025-03-06 13:57:37.599
112.0, -6671.593388508963, 12529.24800267792, -5559.191770457241, -12472.675737461537, -187500.02235174447, 21146.96307742156, -187500.02235174447, -12651.26617565944, 0.15, 0.9540000000000001, -0.21, 192.0, 0.0, 0.0, 0.0, 0.0, 0.0, 0.0, 0.0, 0.0, 0.0, 1.74129105759925E9, 0.0, 2025-03-06 13:57:37.599
113.0, -6675.817868211016, 12532.53370911285, -5556.643671589336, -12477.570769497248, -187500.02235174447, 21148.259478599964, -187500.02235174447, -12647.60048956877, 0.15, 0.9540000000000001, -0.21, 192.0, 0.0, 0.0, 0.0, 0.0, 0.0, 0.0, 0.0, 0.0, 0.0, 1.74129105759927E9, 0.0, 2025-03-06 13:57:37.599
