%OpenBCI Raw EXG Data
%Number of channels = 16
%Sample Rate = 125 Hz
%Board = OpenBCI_GUI$BoardCytonSerialDaisy
Sample Index, EXG Channel 0, EXG Channel 1, EXG Channel 2, EXG Channel 3, EXG Channel 4, EXG Channel 5, EXG Channel 6, EXG Channel 7, EXG Channel 8, EXG Channel 9, EXG Channel 10, EXG Channel 11, EXG Channel 12, EXG Channel 13, EXG Channel 14, EXG Channel 15, Accel Channel 0, Accel Channel 1, Accel Channel 2, Not Used, Digital Channel 0 (D11), Digital Channel 1 (D12), Digital Channel 2 (D13), Digital Channel 3 (D17), Not Used, Digital Channel 4 (D18), Analog Channel 0, Analog Channel 1, Analog Channel 2, Timestamp, Marker Channel, Timestamp (Formatted)
0.0, -22038.59651548821, -7765.9124452963415, 29921.07330811898, -18802.44389801549, -56611.13489998996, 40776.041540627666, -29294.352745336622, 55744.3566017576, 0.0, 0.0, 0.0, 0.0, 0.0, 0.0, 0.0, 0.0, -0.091, 0.47300000000000003, 0.107, 192.0, 125.0, 40.0, 14.5, 72.0, 3.0, 88.0, 0.0, 0.0, 0.0, 1.7447421280111005E9, 0.0, 2025-04-15 13:35:28.011
50.0, -22038.574163743757, -7759.1622184708385, 29915.641834216338, -18793.838476400197, -56777.38717524853, 40741.82101986659, -29284.562681265197, 55653.988498924795, -9272.755297750868, -23067.55907148827, -10558.628804520227, 7911.9587435673175, 3734.663574059436, 2990.998684286915, 10841.244261413129, -187500.02235174447, -0.091, 0.47300000000000003, 0.107, 192.0, 0.0, 0.0, 0.0, 0.0, 0.0, 0.0, 0.0, 0.0, 0.0, 1.7447421280113325E9, 0.0, 2025-04-15 13:35:28.011
0.0, -10916.390826271872, -3830.776075217256, 14990.510343374055, -9305.053568488785, -24808.849371534514, 20365.03200114155, -14620.700731361001, 28560.92495452463, -4645.228939679735, -11544.161921043626, -5266.987415193012, 3953.5989109991688, 1875.2219528224414, 1505.7923204651263, 5455.189103506697, -93750.01117587223, -0.212, 0.9380000000000001, 0.194, 192.0, 124.5, 48.0, 14.5, 40.0, 3.0, 8.0, 0.0, 0.0, 0.0, 1.7447421281212938E9, 0.0, 2025-04-15 13:35:28.121
2.0, -21831.59701008761, -7653.617281152879, 29964.055712706533, -18617.43850915891, -49539.08765781971, 40744.078546056575, -29255.773634406763, 57150.08016229632, -9087.012301327266, -22975.26871863231, -10385.67100592506, 8002.192735933392, 3814.7722261872564, 3086.015949966425, 10878.191694997751, -187500.02235174447, -0.212, 0.9380000000000001, 0.194, 192.0, 0.0, 0.0, 0.0, 0.0, 0.0, 0.0, 0.0, 0.0, 0.0, 1.7447421281283247E9, 0.0, 2025-04-15 13:35:28.128
4.0, -21836.246172934316, -7662.334461490448, 29958.31131438152, -18628.368512197558, -49672.79579315136, 40731.62862439497, -29252.510279716287, 57098.045301204365, -9088.375757739039, -22967.535015050773, -10413.543631260829, 7994.749605029775, 3791.437004975916, 3062.278397354889, 10819.451310569206, -187500.02235174447, -0.212, 0.9380000000000001, 0.194, 192.0, 0.0, 0.0, 0.0, 0.0, 0.0, 0.0, 0.0, 0.0, 0.0, 1.7447421281353376E9, 0.0, 2025-04-15 13:35:28.135
6.0, -21838.57075435767, -7666.380127236859, 29955.271477135597, -18640.08082629214, -49446.86436019711, 40768.21843006831, -29265.78721592274, 57223.93032597665, -9098.858725888578, -22992.613672329626, -10394.67875894055, 7986.166535158937, 3799.617743446558, 3071.84494398176, 10878.974006053688, -187500.02235174447, -0.212, 0.9380000000000001, 0.194, 192.0, 0.0, 0.0, 0.0, 0.0, 0.0, 0.0, 0.0, 0.0, 0.0, 1.7447421281434011E9, 0.0, 2025-04-15 13:35:28.143
8.0, -21813.022710445253, -7630.058542496985, 29959.94299172676, -18622.087672005615, -49537.67949791902, 40751.49932521574, -29257.852346641106, 57196.03534889643, -9087.928722849932, -22969.479616818386, -10413.230706838454, 7988.245247393281, 3784.619722917047, 3054.947025173548, 10824.592211793926, -187500.02235174447, -0.226, 0.936, 0.188, 192.0, 124.0, 120.0, 14.5, 32.0, 2.5, 112.0, 0.0, 0.0, 0.0, 1.7447421281514325E9, 0.0, 2025-04-15 13:35:28.151
10.0, -21804.529047552234, -7621.743693559611, 29982.227680948698, -18617.662026603466, -49240.2224827078, 40795.398151325964, -29258.277029785757, 57349.74829551558, -9070.494362174793, -22968.69730576245, -10365.777953359837, 8016.654314595976, 3809.2289935623403, 3078.5057638294415, 10879.53279966507, -187500.02235174447, -0.226, 0.936, 0.188, 192.0, 0.0, 0.0, 0.0, 0.0, 0.0, 0.0, 0.0, 0.0, 0.0, 1.744742128160468E9, 0.0, 2025-04-15 13:35:28.160
12.0, -21784.948919409388, -7592.485260067614, 29974.225756433698, -18602.641654329498, -49259.69085212837, 40761.95994162082, -29266.480120000855, 57342.439275078694, -9061.79953358168, -22958.34844807964, -10373.981043574935, 8019.604744864077, 3794.700359666391, 3064.6700340116067, 10835.388104365838, -187500.02235174447, -0.226, 0.936, 0.188, 192.0, 0.0, 0.0, 0.0, 0.0, 0.0, 0.0, 0.0, 0.0, 0.0, 1.7447421281675212E9, 0.0, 2025-04-15 13:35:28.167
14.0, -21766.64284070049, -7572.391041802292, 29997.94095730078, -18585.475514587823, -48923.744132965105, 40807.22222414282, -29257.762939663287, 57504.690588079764, -9045.102780473564, -22952.760511965815, -10340.520482125341, 8042.850559097596, 3817.2532698217956, 3086.9547232335476, 10885.880695090378, -187500.02235174447, -0.226, 0.936, 0.188, 192.0, 0.0, 0.0, 0.0, 0.0, 0.0, 0.0, 0.0, 0.0, 0.0, 1.7447421281755552E9, 0.0, 2025-04-15 13:35:28.175
16.0, -21747.822671869122, -7550.911015380742, 29979.143140213866, -18569.069334157626, -48940.37383083985, 40780.04250288517, -29260.46750074238, 57506.67989333629, -9021.946373217866, -22926.653674442015, -10338.508825124363, 8068.890341388028, 3813.4758250088485, 3090.1286709462015, 10865.697069847236, -187500.02235174447, -0.226, 0.936, 0.188, 192.0, 0.0, 0.0, 0.0, 0.0, 0.0, 0.0, 0.0, 0.0, 0.0, 1.7447421281836414E9, 0.0, 2025-04-15 13:35:28.183
18.0, -21755.869299873033, -7549.547558968969, 29986.049829250554, -18573.025592926217, -48589.42909114708, 40826.19885518537, -29254.097253572614, 57699.91072415242, -9009.831727723089, -22938.142471092044, -10317.676999292016, 8083.55308575071, 3832.0501246512085, 3099.5387553618857, 10896.073090561997, -187500.02235174447, -0.216, 0.93, 0.182, 192.0, 124.5, 32.0, 14.5, 8.0, 2.5, 88.0, 0.0, 0.0, 0.0, 1.7447421281926296E9, 0.0, 2025-04-15 13:35:28.192
20.0, -21737.49616593077, -7523.753645867544, 29962.0217039611, -18560.35215382006, -48585.22696318948, 40788.044427400164, -29260.534555975744, 57715.78046271569, -9013.564469047125, -22927.614799453593, -10330.573955842729, 8079.149792093014, 3811.1512435854966, 3096.56597334933, 10874.235436229163, -187500.02235174447, -0.216, 0.93, 0.182, 192.0, 0.0, 0.0, 0.0, 0.0, 0.0, 0.0, 0.0, 0.0, 0.0, 1.7447421281997032E9, 0.0, 2025-04-15 13:35:28.199
22.0, -21754.036456827696, -7536.807064629444, 29973.286983166574, -18567.862339957042, -48245.54750270218, 40838.49231463579, -29244.3518929901, 57900.674092849986, -9022.54987031816, -22931.906334389012, -10321.677961549516, 8082.1225741055705, 3821.5448047572145, 3105.0596362423466, 10895.290779506062, -187500.02235174447, -0.216, 0.93, 0.182, 192.0, 0.0, 0.0, 0.0, 0.0, 0.0, 0.0, 0.0, 0.0, 0.0, 1.744742128207703E9, 0.0, 2025-04-15 13:35:28.207
24.0, -21724.15217449095, -7505.58167762538, 29954.77973875758, -18556.373543307014, -48195.30078116665, 40782.255325586244, -29266.480120000855, 57932.43592172098, -9033.010486723244, -22940.98114263787, -10331.959763998957, 8062.4530389849, 3803.171670814952, 3099.9857902509916, 10892.563866682514, -187500.02235174447, -0.216, 0.93, 0.182, 192.0, 0.0, 0.0, 0.0, 0.0, 0.0, 0.0, 0.0, 0.0, 0.0, 1.744742128215754E9, 0.0, 2025-04-15 13:35:28.215
26.0, -21720.084157000085, -7511.415482928215, 29973.734018055682, -18569.38225858, -47882.55517274799, 40828.054049975166, -29249.17986979245, 58102.39858655913, -9015.35260860355, -22926.273694786276, -10316.671170791527, 8075.528809491255, 3823.1541303579966, 3105.7078368315506, 10904.656160432836, -187500.02235174447, -0.216, 0.93, 0.182, 192.0, 0.0, 0.0, 0.0, 0.0, 0.0, 0.0, 0.0, 0.0, 0.0, 1.744742128222788E9, 0.0, 2025-04-15 13:35:28.222
28.0, -21714.25035169725, -7492.528258863481, 29944.83321247497, -18577.540645306188, -47787.47085183512, 40791.59835476856, -29280.3605533076, 58171.75604960395, -9032.854024512057, -22942.29989556073, -10322.035589460802, 8059.212036038881, 3800.4447579914045, 3099.426996639609, 10915.295590793561, -187500.02235174447, -0.214, 0.9380000000000001, 0.184, 192.0, 124.5, 40.0, 14.5, 40.0, 2.5, 96.0, 0.0, 0.0, 0.0, 1.744742128231862E9, 0.0, 2025-04-15 13:35:28.231
30.0, -21707.075441727095, -7489.9131047622095, 29970.671829065304, -18587.330709377613, -47594.03885531889, 40798.10271240505, -29261.808605409697, 58269.38846938473, -9019.107701672043, -22927.793613409238, -10332.719723310438, 8062.07305932916, 3813.3417145421167, 3090.1957261795674, 10879.130468264875, -187500.02235174447, -0.214, 0.9380000000000001, 0.184, 192.0, 0.0, 0.0, 0.0, 0.0, 0.0, 0.0, 0.0, 0.0, 0.0, 1.7447421282398648E9, 0.0, 2025-04-15 13:35:28.239
32.0, -21699.498200356746, -7475.920912733187, 29949.482375321673, -18596.651386815476, -47582.57241041332, 40750.0688135706, -29289.74828597883, 58251.06003893138, -9022.192242406874, -22922.87622962907, -10327.489415107897, 8061.1119343175815, 3812.6711622084576, 3095.85071752676, 10893.748509138646, -187500.02235174447, -0.214, 0.9380000000000001, 0.184, 192.0, 0.0, 0.0, 0.0, 0.0, 0.0, 0.0, 0.0, 0.0, 0.0, 1.7447421282479405E9, 0.0, 2025-04-15 13:35:28.247
34.0, -21712.7751365632, -7496.0151309985085, 29963.631029561882, -18615.382148669025, -47514.39958982463, 40746.87251411349, -29277.343067806134, 58252.870530232256, -9018.727722016301, -22917.91414235999, -10349.304717696275, 8050.4501522124, 3802.0317318477314, 3067.307539857333, 10838.740866034135, -187500.02235174447, -0.214, 0.9380000000000001, 0.184, 192.0, 0.0, 0.0, 0.0, 0.0, 0.0, 0.0, 0.0, 0.0, 0.0, 1.7447421282549565E9, 0.0, 2025-04-15 13:35:28.254
36.0, -21723.43691866838, -7506.855727059332, 29927.734127966658, -18631.721273865853, -47502.97784840797, 40702.43724613634, -29314.022280457295, 58224.349704307286, -9043.560510106148, -22945.07151187319, -10357.686621867017, 8026.511433900766, 3790.431176475427, 3052.8683129392043, 10865.361793680406, -187500.02235174447, -0.214, 0.9380000000000001, 0.184, 192.0, 0.0, 0.0, 0.0, 0.0, 0.0, 0.0, 0.0, 0.0, 0.0, 1.744742128264026E9, 0.0, 2025-04-15 13:35:28.264
38.0, -21686.020098450197, -7475.9432644776425, 29982.8758815379, -18603.15574445197, -47596.29638150887, 40694.21180417679, -29264.26729729978, 58111.02635991888, -9018.727722016301, -22918.003549337813, -10375.612720920173, 8034.647468882498, 3788.4418712189045, 3033.176426074079, 10799.401795792795, -187500.02235174447, -0.22, 0.9420000000000001, 0.18, 192.0, 124.5, 16.0, 14.5, 56.0, 2.5, 80.0, 0.0, 0.0, 0.0, 1.7447421282710268E9, 0.0, 2025-04-15 13:35:28.271
40.0, -21675.984165189766, -7464.365060849794, 29967.631991819384, -18600.45118337288, -47657.94249271661, 40682.208917404285, -29285.054419643217, 58013.192774438, -9000.466346796316, -22912.862648113092, -10334.552566355773, 8055.188722036925, 3826.66335423748, 3062.0325281658806, 10856.376392409373, -187500.02235174447, -0.22, 0.9420000000000001, 0.18, 192.0, 0.0, 0.0, 0.0, 0.0, 0.0, 0.0, 0.0, 0.0, 0.0, 1.7447421282790847E9, 0.0, 2025-04-15 13:35:28.279
42.0, -21648.983257887754, -7446.058982140897, 29984.41815190532, -18588.850628000575, -47857.23064628013, 40672.10592891049, -29264.334352533147, 57836.03284788524, -8986.742375700758, -22898.289310728233, -10349.930566541025, 8063.838847141129, 3812.6711622084576, 3038.3173272987997, 10789.99171137711, -187500.02235174447, -0.22, 0.9420000000000001, 0.18, 192.0, 0.0, 0.0, 0.0, 0.0, 0.0, 0.0, 0.0, 0.0, 0.0, 1.7447421282871156E9, 0.0, 2025-04-15 13:35:28.287
44.0, -21625.983312843244, -7426.523557486958, 29981.177148959297, -18573.53968304869, -47913.82526324097, 40682.074806937555, -29282.439265541943, 57733.9747827023, -8974.717137183803, -22899.496304928816, -10301.092004906179, 8090.370367809578, 3826.685705981935, 3065.4299933230873, 10845.312278903995, -187500.02235174447, -0.22, 0.9420000000000001, 0.18, 192.0, 0.0, 0.0, 0.0, 0.0, 0.0, 0.0, 0.0, 0.0, 0.0, 1.7447421282962315E9, 0.0, 2025-04-15 13:35:28.296
46.0, -21591.919254293356, -7397.667455395157, 30015.710594142747, -18542.940144889373, -48199.54761261316, 40670.80952773208, -29254.141957061525, 57524.71775111172, -8944.38581995795, -22848.154347914977, -10302.544868295774, 8125.753179282329, 3841.549616044714, 3061.7419554879616, 10785.588417719415, -187500.02235174447, -0.22, 0.9420000000000001, 0.18, 192.0, 0.0, 0.0, 0.0, 0.0, 0.0, 0.0, 0.0, 0.0, 0.0, 1.7447421283032005E9, 0.0, 2025-04-15 13:35:28.303
48.0, -21580.139884965407, -7383.876429066233, 30016.917588343335, -18539.654438454443, -48231.42120020642, 40698.19041468983, -29262.903840888008, 57454.26505258859, -8932.829968074557, -22856.938583485913, -10255.852074128637, 8139.633612589075, 3856.1900086629403, 3098.3541129057544, 10863.059564001509, -187500.02235174447, -0.24, 0.9440000000000001, 0.18, 192.0, 124.0, 64.0, 14.5, 64.0, 2.5, 80.0, 0.0, 0.0, 0.0, 1.744742128311246E9, 0.0, 2025-04-15 13:35:28.311
50.0, -21558.70456203277, -7365.346832912784, 30037.771765920137, -18533.753577918244, -48520.11633159117, 40682.968876715764, -29243.45782321189, 57260.83305607236, -8905.918467750367, -22834.497432052784, -10270.470115002408, 8147.479074892888, 3858.3357761306497, 3086.7982610223607, 10816.43382506774, -187500.02235174447, -0.24, 0.9440000000000001, 0.18, 192.0, 0.0, 0.0, 0.0, 0.0, 0.0, 0.0, 0.0, 0.0, 0.0, 1.7447421283192923E9, 0.0, 2025-04-15 13:35:28.319
52.0, -21570.238062171706, -7373.773440572434, 30018.124582543922, -18556.775874707208, -48481.559572405764, 40711.40029566292, -29270.436378769446, 57236.46965461608, -8920.849433046513, -22850.680095038428, -10240.652887899028, 8150.720077838908, 3874.071404227186, 3110.4240549116203, 10890.708671892724, -187500.02235174447, -0.24, 0.9440000000000001, 0.18, 192.0, 0.0, 0.0, 0.0, 0.0, 0.0, 0.0, 0.0, 0.0, 0.0, 1.7447421283283417E9, 0.0, 2025-04-15 13:35:28.328
54.0, -21552.7366462632, -7349.007707715954, 30029.61337919395, -18543.387179778478, -48751.6580524037, 40682.74535927121, -29260.780425164754, 57060.89670191964, -8923.419883658873, -22842.812280990158, -10274.627539471096, 8140.304164922734, 3861.129744187563, 3085.367749377221, 10823.51932806007, -187500.02235174447, -0.24, 0.9440000000000001, 0.18, 192.0, 0.0, 0.0, 0.0, 0.0, 0.0, 0.0, 0.0, 0.0, 0.0, 1.7447421283353765E9, 0.0, 2025-04-15 13:35:28.335
56.0, -21567.667611559347, -7366.5314753689145, 30025.299492514074, -18559.793360208674, -48646.1801703191, 40715.53536838715, -29289.16714062299, 57076.229998615985, -8931.041828518133, -22840.957086200367, -10247.760742635815, 8151.345926683656, 3882.1627357200073, 3116.8613573147486, 10886.215971257207, -187500.02235174447, -0.24, 0.9440000000000001, 0.18, 192.0, 0.0, 0.0, 0.0, 0.0, 0.0, 0.0, 0.0, 0.0, 0.0, 1.7447421283434231E9, 0.0, 2025-04-15 13:35:28.343
58.0, -21570.97566973873, -7367.000862002476, 30003.618300392427, -18566.96827017883, -48861.5839316349, 40672.93294345534, -29305.70743151992, 56946.00873541937, -8930.48303490675, -22838.94542919939, -10283.36707155312, 8132.637516574564, 3848.232787636851, 3093.66024657014, 10819.071330913464, -187500.02235174447, -0.249, 0.9400000000000001, 0.172, 192.0, 123.5, 120.0, 14.5, 32.0, 2.5, 16.0, 0.0, 0.0, 0.0, 1.744742128352491E9, 0.0, 2025-04-15 13:35:28.352
60.0, -21575.602480840982, -7371.135934726708, 30004.17709400381, -18579.149970906972, -48668.75543221896, 40727.024165037175, -29309.864855988606, 57022.22818401196, -8959.339136998551, -22862.19124343291, -10273.420545270508, 8122.266307147302, 3850.8032382492115, 3103.5844211082963, 10860.153837222319, -187500.02235174447, -0.249, 0.9400000000000001, 0.172, 192.0, 0.0, 0.0, 0.0, 0.0, 0.0, 0.0, 0.0, 0.0, 0.0, 1.744742128358479E9, 0.0, 2025-04-15 13:35:28.358
62.0, -21578.731725064725, -7366.59853060228, 29995.482265410694, -18576.57952029461, -48805.190480374156, 40702.75017055871, -29307.249701887336, 56955.977613446434, -8949.034982804655, -22848.109644426066, -10289.1785251115, 8123.696818792441, 3846.7352207583453, 3100.2987146733662, 10832.392970608827, -187500.02235174447, -0.249, 0.9400000000000001, 0.172, 192.0, 0.0, 0.0, 0.0, 0.0, 0.0, 0.0, 0.0, 0.0, 0.0, 1.7447421283675392E9, 0.0, 2025-04-15 13:35:28.367
64.0, -21580.36340240996, -7371.471210893537, 30025.07597506952, -18567.52706379021, -48564.12691642367, 40758.696586930346, -29276.672515472477, 57075.69355674906, -8957.349831742029, -22852.15531017248, -10273.062917359224, 8132.101074707637, 3852.7925435057336, 3120.392932938687, 10875.19656124074, -187500.02235174447, -0.249, 0.9400000000000001, 0.172, 192.0, 0.0, 0.0, 0.0, 0.0, 0.0, 0.0, 0.0, 0.0, 0.0, 1.7447421283755612E9, 0.0, 2025-04-15 13:35:28.375
66.0, -21580.60927159897, -7366.17384745763, 30014.16832377533, -18558.85458694155, -48603.68950410956, 40742.98331057827, -29279.89116667404, 57080.65564401814, -8963.585968445059, -22848.71314152636, -10289.13382162259, 8117.773606511785, 3845.1258951575633, 3118.716552104539, 10872.380241439372, -187500.02235174447, -0.249, 0.9400000000000001, 0.172, 192.0, 0.0, 0.0, 0.0, 0.0, 0.0, 0.0, 0.0, 0.0, 0.0, 1.744742128383595E9, 0.0, 2025-04-15 13:35:28.383
68.0, -21592.053364760086, -7380.166039486652, 30036.676530441826, -18560.5309677757, -48298.54348880571, 40804.16003515244, -29257.762939663287, 57245.09742797583, -8963.518913211694, -22860.067827709656, -10279.097888362157, 8120.2770018907795, 3848.165732403485, 3121.108188761257, 10903.96325635472, -187500.02235174447, -0.2585, 0.9390000000000001, 0.16099999999999998, 192.0, 123.5, 80.0, 14.5, 40.0, 2.0, 88.0, 0.0, 0.0, 0.0, 1.7447421283916492E9, 0.0, 2025-04-15 13:35:28.391
70.0, -21591.807495571076, -7377.0367952629085, 30007.97689056121, -18561.648554998465, -48251.96245336085, 40786.43510179938, -29272.78331193725, 57291.23142853158, -8987.278817567685, -22870.729609814836, -10299.415624072031, 8111.4704145753885, 3796.242630033807, 3117.174281737123, 10889.613436414415, -187500.02235174447, -0.2585, 0.9390000000000001, 0.16099999999999998, 192.0, 0.0, 0.0, 0.0, 0.0, 0.0, 0.0, 0.0, 0.0, 0.0, 1.7447421283997092E9, 0.0, 2025-04-15 13:35:28.399
72.0, -21580.78808555461, -7367.693766080591, 30045.550172990585, -18547.030514124694, -47941.22850194317, 40841.50980013726, -29241.73673888883, 57451.26991883158, -8967.63163419147, -22860.291345154208, -10283.165905853022, 8128.234222916869, 3846.3552411026053, 3128.6183748982403, 10903.359759254428, -187500.02235174447, -0.2585, 0.9390000000000001, 0.16099999999999998, 192.0, 0.0, 0.0, 0.0, 0.0, 0.0, 0.0, 0.0, 0.0, 0.0, 1.7447421284077332E9, 0.0, 2025-04-15 13:35:28.407
74.0, -21584.029088500632, -7370.51008588196, 30016.04587030958, -18557.84875844106, -47876.67666395625, 40815.179445168906, -29271.241041569836, 57503.41653864581, -8984.283683810674, -22870.327278414643, -10287.055109388246, 8117.483033833866, 3818.8625954225777, 3124.885633574204, 10909.372378512906, -187500.02235174447, -0.2585, 0.9390000000000001, 0.16099999999999998, 192.0, 0.0, 0.0, 0.0, 0.0, 0.0, 0.0, 0.0, 0.0, 0.0, 1.7447421284147673E9, 0.0, 2025-04-15 13:35:28.414
76.0, -21579.98342275422, -7369.168981214641, 30053.820318439048, -18562.117941632026, -47567.3285206948, 40855.032605532724, -29252.309114016192, 57670.40642147141, -8967.676337680381, -22875.825807550646, -10280.55075175175, 8123.585060070165, 3829.792598461223, 3116.3249154478212, 10892.697977149246, -187500.02235174447, -0.2585, 0.9390000000000001, 0.16099999999999998, 192.0, 0.0, 0.0, 0.0, 0.0, 0.0, 0.0, 0.0, 0.0, 0.0, 1.7447421284228184E9, 0.0, 2025-04-15 13:35:28.422
78.0, -21580.877492532432, -7366.978510258021, 30017.677547654814, -18573.360869093045, -47429.82058880575, 40826.53413135221, -29286.954317921918, 57754.38192539, -8979.67922445288, -22888.43219142344, -10271.610053969629, 8111.515118064299, 3815.3086680541837, 3112.3910084236873, 10913.060416348031, -187500.02235174447, -0.26625, 0.9435, 0.15549999999999997, 192.0, 123.5, 56.0, 14.5, 80.0, 2.0, 88.0, 0.0, 0.0, 0.0, 1.7447421284328659E9, 0.0, 2025-04-15 13:35:28.432
80.0, -21559.30805913306, -7350.013536216443, 30059.654123741882, -18558.85458694155, -47210.21469953236, 40855.32317821064, -29246.475308713354, 57857.043487673225, -8958.802695131624, -22866.974516746344, -10274.202856326445, 8120.880498991072, 3829.3902670610273, 3105.976057765014, 10886.864171846411, -187500.02235174447, -0.26625, 0.9435, 0.15549999999999997, 192.0, 0.0, 0.0, 0.0, 0.0, 0.0, 0.0, 0.0, 0.0, 0.0, 1.744742128439895E9, 0.0, 2025-04-15 13:35:28.439
82.0, -21551.104968917964, -7337.340097110284, 30022.61728317944, -18563.25788059925, -47130.016640426715, 40823.69545980638, -29280.293498074236, 57890.34758691163, -8956.72398289728, -22874.596461605604, -10254.734486905872, 8121.774568769285, 3834.3523543301053, 3121.9575550505588, 10928.326657811005, -187500.02235174447, -0.26625, 0.9435, 0.15549999999999997, 192.0, 0.0, 0.0, 0.0, 0.0, 0.0, 0.0, 0.0, 0.0, 0.0, 1.7447421284479542E9, 0.0, 2025-04-15 13:35:28.447
84.0, -21545.002942681665, -7333.048562174865, 30045.460766012762, -18559.636897997487, -47039.22385444926, 40834.89368377849, -29252.711445416386, 57935.36400024462, -8939.870767577979, -22855.731589285326, -10269.46428650192, 8128.010705472316, 3839.0909241546306, 3110.535813633897, 10881.656215388324, -187500.02235174447, -0.26625, 0.9435, 0.15549999999999997, 192.0, 0.0, 0.0, 0.0, 0.0, 0.0, 0.0, 0.0, 0.0, 0.0, 1.7447421284549704E9, 0.0, 2025-04-15 13:35:28.454
86.0, -21545.606439781957, -7330.232242373496, 30025.880637869912, -18559.81571195313, -46976.86248741895, 40816.02881145821, -29281.478140530366, 57972.17732336251, -8955.986375330254, -22869.18733944742, -10250.152379292535, 8125.79788277124, 3832.8324357071447, 3120.884671316704, 10928.460768277737, -187500.02235174447, -0.26625, 0.9435, 0.15549999999999997, 192.0, 0.0, 0.0, 0.0, 0.0, 0.0, 0.0, 0.0, 0.0, 0.0, 1.744742128463017E9, 0.0, 2025-04-15 13:35:28.463
88.0, -21514.850439411457, -7297.866916402211, 30073.1992808818, -18521.90715335693, -47064.21310475029, 40808.16099740994, -29234.003035307294, 57901.32229343919, -8921.855261547002, -22841.67234202294, -10261.46236198692, 8144.618051602609, 3839.1803311324516, 3108.7476740774723, 10867.328747192472, -187500.02235174447, -0.265125, 0.9477500000000001, 0.15275, 192.0, 123.5, 96.0, 14.5, 96.0, 2.0, 88.0, 0.0, 0.0, 0.0, 1.7447421284720695E9, 0.0, 2025-04-15 13:35:28.472
90.0, -21516.48211675669, -7293.284808788873, 30057.888335929914, -18508.451403194835, -47120.89712868895, 40799.42146532792, -29250.811547137684, 57851.41084807049, -8911.439348630827, -22822.606304002562, -10220.983352778358, 8173.585912416686, 3861.040337209742, 3149.137276308212, 10933.7804834581, -187500.02235174447, -0.265125, 0.9477500000000001, 0.15275, 192.0, 0.0, 0.0, 0.0, 0.0, 0.0, 0.0, 0.0, 0.0, 0.0, 1.7447421284791028E9, 0.0, 2025-04-15 13:35:28.479
92.0, -21514.313997544527, -7285.551105207337, 30071.65701051438, -18499.018967034695, -47354.003471613345, 40779.371950551504, -29233.578352162644, 57715.91457318242, -8911.998142242212, -22808.56940848463, -10249.593585681152, 8176.290473495779, 3844.14241840153, 3126.114979519246, 10868.356927437417, -187500.02235174447, -0.265125, 0.9477500000000001, 0.15275, 192.0, 0.0, 0.0, 0.0, 0.0, 0.0, 0.0, 0.0, 0.0, 0.0, 1.7447421284872189E9, 0.0, 2025-04-15 13:35:28.487
94.0, -21511.20710506524, -7279.5384859488595, 30064.437397055317, -18489.98886227475, -47482.0566155978, 40771.19121208086, -29250.230401781846, 57616.2481446562, -8909.450043374305, -22812.436260275397, -10217.898812043526, 8181.587836931687, 3865.264816911795, 3144.488113461508, 10926.203242087751, -187500.02235174447, -0.265125, 0.9477500000000001, 0.15275, 192.0, 0.0, 0.0, 0.0, 0.0, 0.0, 0.0, 0.0, 0.0, 0.0, 1.7447421284952128E9, 0.0, 2025-04-15 13:35:28.495
96.0, -21505.01567185112, -7266.82034335379, 30081.268260630164, -18475.594338845534, -47834.47657042463, 40749.71118565931, -29230.806735850187, 57404.35360721989, -8900.308179892085, -22791.403268742954, -10242.418675710998, 8187.4886974678875, 3847.2716626252727, 3127.9254708201256, 10859.460933144204, -187500.02235174447, -0.265125, 0.9477500000000001, 0.15275, 192.0, 0.0, 0.0, 0.0, 0.0, 0.0, 0.0, 0.0, 0.0, 0.0, 1.7447421285042267E9, 0.0, 2025-04-15 13:35:28.504
98.0, -21513.64344521087, -7270.508381188915, 30072.171100636853, -18475.169655700884, -47954.12545849389, 40775.79567143866, -29235.12062253006, 57300.5744577139, -8900.062310703077, -22789.168094297424, -10215.261306197799, 8199.737453429396, 3874.585494349658, 3161.0954595918015, 10924.817433931523, -187500.02235174447, -0.26256250000000003, 0.945875, 0.15337499999999998, 192.0, 123.5, 112.0, 14.5, 64.0, 2.0, 104.0, 0.0, 0.0, 0.0, 1.744742128511256E9, 0.0, 2025-04-15 13:35:28.511
100.0, -21516.459765012238, -7278.197381281541, 30077.08848441702, -18479.95292901432, -48340.11773349258, 40761.78112766518, -29213.908817041975, 57069.949158424046, -8899.123537435953, -22775.242957501767, -10254.868597372604, 8190.416775991533, 3854.4689243398816, 3144.085782061313, 10858.253938943619, -187500.02235174447, -0.26256250000000003, 0.945875, 0.15337499999999998, 192.0, 0.0, 0.0, 0.0, 0.0, 0.0, 0.0, 0.0, 0.0, 0.0, 1.7447421285193012E9, 0.0, 2025-04-15 13:35:28.519
102.0, -21516.035081867587, -7278.286788259362, 30069.824167469047, -18492.447554164835, -48422.79683623277, 40789.16201462293, -29222.715404357365, 56978.30700615729, -8898.028301957644, -22789.481018719795, -10232.941536061948, 8186.348758500667, 3872.5961890931358, 3160.849590402793, 10917.933096639288, -187500.02235174447, -0.26256250000000003, 0.945875, 0.15337499999999998, 192.0, 0.0, 0.0, 0.0, 0.0, 0.0, 0.0, 0.0, 0.0, 0.0, 1.7447421285273273E9, 0.0, 2025-04-15 13:35:28.527
104.0, -21519.857230169444, -7287.182782552574, 30059.676475486336, -18505.322158971092, -48781.497631251535, 40765.826793411594, -29218.960311288873, 56763.037355308225, -8897.76008102418, -22777.612242414027, -10255.919129362002, 8187.1981247899685, 3857.6875755414458, 3143.437581472109, 10863.931282035266, -187500.02235174447, -0.26256250000000003, 0.945875, 0.15337499999999998, 192.0, 0.0, 0.0, 0.0, 0.0, 0.0, 0.0, 0.0, 0.0, 0.0, 1.7447421285353725E9, 0.0, 2025-04-15 13:35:28.535
106.0, -21524.908724416342, -7289.194439553552, 30060.458786542273, -18516.587438176568, -48742.69500287712, 40809.05506718816, -29224.145916002504, 56744.35129694358, -8898.251819402198, -22800.455725247353, -10229.588774393651, 8178.838572363684, 3866.918846001488, 3155.775744411438, 10924.437454275781, -187500.02235174447, -0.26256250000000003, 0.945875, 0.15337499999999998, 192.0, 0.0, 0.0, 0.0, 0.0, 0.0, 0.0, 0.0, 0.0, 0.0, 1.7447421285434391E9, 0.0, 2025-04-15 13:35:28.543
108.0, -21512.123526587908, -7282.421860983594, 30059.76588246416, -18510.485411940266, -49027.433875493276, 40784.22227909831, -29222.40247993499, 56578.45664959629, -8895.077871689544, -22786.619995429515, -10245.458512956919, 8172.222456004913, 3853.7089650284015, 3142.8564361162707, 10878.124639764386, -187500.02235174447, -0.25828125, 0.9409375, 0.15368749999999998, 192.0, 124.0, 8.0, 14.5, 32.0, 2.0, 104.0, 0.0, 0.0, 0.0, 1.7447421285514584E9, 0.0, 2025-04-15 13:35:28.551
110.0, -21520.34896854746, -7294.357692522728, 30074.294516360107, -18518.66615041091, -48881.05230105547, 40843.02971876022, -29220.033195022726, 56633.911327589914, -8883.767888995159, -22794.823085644613, -10208.600486350118, 8180.313787497734, 3877.200648450929, 3168.4491835175972, 10932.774654957611, -187500.02235174447, -0.25828125, 0.9409375, 0.15368749999999998, 192.0, 0.0, 0.0, 0.0, 0.0, 0.0, 0.0, 0.0, 0.0, 0.0, 1.744742128558521E9, 0.0, 2025-04-15 13:35:28.558
112.0, -21510.96123587623, -7288.546238964348, 30060.86111794247, -18512.385310218968, -49060.73797473168, 40818.24163415928, -29222.111907257073, 56538.31291655456, -8891.367482109963, -22792.342042010074, -10226.280716214265, 8174.100002539159, 3859.229845908862, 3155.440468244609, 10902.130413309385, -187500.02235174447, -0.25828125, 0.9409375, 0.15368749999999998, 192.0, 0.0, 0.0, 0.0, 0.0, 0.0, 0.0, 0.0, 0.0, 0.0, 1.7447421285665467E9, 0.0, 2025-04-15 13:35:28.566
114.0, -21527.233305839694, -7307.880497918189, 30071.388789580917, -18517.302693999136, -48845.91535877173, 40875.05976856468, -29214.087630997616, 56643.72374340579, -8895.52490657865, -22802.914417137436, -10207.102919471612, 8178.100964796658, 3868.327005902172, 3174.4394510316197, 10943.905823696354, -187500.02235174447, -0.25828125, 0.9409375, 0.15368749999999998, 192.0, 0.0, 0.0, 0.0, 0.0, 0.0, 0.0, 0.0, 0.0, 0.0, 1.744742128575591E9, 0.0, 2025-04-15 13:35:28.575
116.0, -21528.03796864009, -7299.6103524697255, 30053.03800738311, -18510.306597984625, -48922.80535969798, 40847.388308929, -29225.48702066982, 56622.9142693179, -8904.890287505423, -22801.75212642576, -10227.107730759113, 8170.702537381952, 3852.591377805636, 3166.6610439611727, 10932.26056483514, -187500.02235174447, -0.25828125, 0.9409375, 0.15368749999999998, 192.0, 0.0, 0.0, 0.0, 0.0, 0.0, 0.0, 0.0, 0.0, 0.0, 1.7447421285836318E9, 0.0, 2025-04-15 13:35:28.583
118.0, -21543.684189758802, -7315.860070688734, 30069.28772560212, -18520.789566134164, -48649.01884186493, 40897.612678720085, -29215.45108740939, 56777.83421013763, -8906.968999739767, -22810.357548041055, -10216.200079464923, 8173.5188571833205, 3862.3143866436944, 3171.9584073970805, 10956.31104186905, -187500.02235174447, -0.25828125, 0.9409375, 0.15368749999999998, 192.0, 0.0, 0.0, 0.0, 0.0, 0.0, 0.0, 0.0, 0.0, 0.0, 1.7447421285906572E9, 0.0, 2025-04-15 13:35:28.590
120.0, -21539.415006567837, -7311.7026462200465, 30051.674550971336, -18513.838173608565, -48631.2268532785, 40863.95095157039, -29236.282913241736, 56813.52994603276, -8921.38587491344, -22820.929923168413, -10229.07468427118, 8160.577197143698, 3838.8897584545325, 3157.3850700122202, 10949.247890621173, -187500.02235174447, -0.244, 0.934, 0.164, 192.0, 124.0, 48.0, 14.5, 24.0, 2.5, 16.0, 0.0, 0.0, 0.0, 1.7447421285987022E9, 0.0, 2025-04-15 13:35:28.598
122.0, -21555.17298640883, -7332.310954607839, 30076.84261522801, -18519.202592277838, -48259.78556392021, 40919.562091775195, -29222.69305261291, 57029.604259682215, -8924.179842970354, -22827.881315694012, -10220.201041722423, 8168.6461768920635, 3850.1773894044627, 3162.034232858924, 10962.524826827625, -187500.02235174447, -0.244, 0.934, 0.164, 192.0, 0.0, 0.0, 0.0, 0.0, 0.0, 0.0, 0.0, 0.0, 0.0, 1.744742128607742E9, 0.0, 2025-04-15 13:35:28.607
124.0, -21549.7862159951, -7319.5704602683145, 30058.290667330108, -18513.011159063717, -48071.8968000289, 40891.890632139526, -29246.2517912688, 57145.34159247179, -8936.249784976219, -22838.38663558801, -10217.027094009769, 8154.765743585318, 3828.719714727368, 3159.039099101913, 10981.769678803645, -187500.02235174447, -0.244, 0.934, 0.164, 192.0, 0.0, 0.0, 0.0, 0.0, 0.0, 0.0, 0.0, 0.0, 0.0, 1.7447421286147993E9, 0.0, 2025-04-15 13:35:28.614
126.0, -21562.72787603472, -7325.337210337783, 30070.80764422508, -18518.397929477447, -47633.13205637122, 40935.58829254965, -29227.230456737336, 57385.91341804426, -8945.749276369725, -22844.66747577995, -10225.386646436054, 8156.71034535293, 3826.1269123705524, 3153.8311426438268, 10968.358632130461, -187500.02235174447, -0.244, 0.934, 0.164, 192.0, 0.0, 0.0, 0.0, 0.0, 0.0, 0.0, 0.0, 0.0, 0.0, 1.744742128622841E9, 0.0, 2025-04-15 13:35:28.622
128.0, -21567.71231504826, -7325.091341148775, 30022.2373035237, -18523.248258024247, -47340.79359064026, 40919.137408630544, -29253.538459961233, 57558.08890558349, -8967.519875469194, -22852.401179361485, -10232.606259895118, 8143.276946935291, 3803.462243492871, 3157.653290945684, 10983.401356148883, -187500.02235174447, -0.244, 0.934, 0.164, 192.0, 0.0, 0.0, 0.0, 0.0, 0.0, 0.0, 0.0, 0.0, 0.0, 1.7447421286309104E9, 0.0, 2025-04-15 13:35:28.630
130.0, -21568.49462610419, -7328.935841195088, 30034.396652507385, -18526.645723181453, -46915.48459714468, 40949.53578108976, -29220.59198863411, 57783.41684143744, -8978.494581996749, -22849.450749093387, -10259.853036386137, 8134.202138686435, 3799.953019613388, 3149.1596280526674, 10948.242062120684, -187500.02235174447, -0.242, 0.9480000000000001, 0.166, 192.0, 124.0, 56.0, 14.5, 80.0, 2.5, 24.0, 0.0, 0.0, 0.0, 1.7447421286398976E9, 0.0, 2025-04-15 13:35:28.639
132.0, -21561.722047534233, -7326.007762671443, 30006.971062060722, -18529.506746471732, -46525.49135988848, 40947.54647583324, -29234.092442285117, 57986.14716364708, -8987.122355356498, -22855.061036951665, -10251.225263026388, 8130.804673529229, 3797.717845167857, 3170.371433540754, 10996.298312699595, -187500.02235174447, -0.242, 0.9480000000000001, 0.166, 192.0, 0.0, 0.0, 0.0, 0.0, 0.0, 0.0, 0.0, 0.0, 0.0, 1.74474212864697E9, 0.0, 2025-04-15 13:35:28.646
134.0, -21562.191434167795, -7337.250690132462, 30027.46761172624, -18528.031531337685, -46096.44962506886, 40965.80785105322, -29202.598834347587, 58200.54509646238, -8983.031986121177, -22846.81324324766, -10276.41567902752, 8126.915469994005, 3805.786824916223, 3161.1178113362566, 10954.768771501635, -187500.02235174447, -0.242, 0.9480000000000001, 0.166, 192.0, 0.0, 0.0, 0.0, 0.0, 0.0, 0.0, 0.0, 0.0, 0.0, 1.744742128656993E9, 0.0, 2025-04-15 13:35:28.656
136.0, -21546.589916537992, -7320.442178302072, 30006.79224810508, -18514.642836408955, -45778.49606019212, 40942.02559495278, -29218.602683377587, 58340.28820279696, -8982.272026809696, -22850.47892933833, -10265.619786455607, 8125.350847882134, 3814.7945779317115, 3173.9924161425133, 11001.282751713128, -187500.02235174447, -0.242, 0.9480000000000001, 0.166, 192.0, 0.0, 0.0, 0.0, 0.0, 0.0, 0.0, 0.0, 0.0, 0.0, 1.7447421286630647E9, 0.0, 2025-04-15 13:35:28.663
138.0, -21529.915515174333, -7310.808576441834, 30030.306283272064, -18502.975225803286, -45644.49735218255, 40928.502789557315, -29181.29762188168, 58375.60395903635, -8959.048564320632, -22821.980455157813, -10289.022062900312, 8130.648211318042, 3810.0560081071867, 3158.8602851462706, 10932.64054449088, -187500.02235174447, -0.242, 0.9480000000000001, 0.166, 192.0, 0.0, 0.0, 0.0, 0.0, 0.0, 0.0, 0.0, 0.0, 0.0, 1.7447421286710634E9, 0.0, 2025-04-15 13:35:28.671
140.0, -21528.77557620711, -7300.325608292295, 30013.430716208306, -18494.638025121454, -45482.98364674851, 40917.99746966332, -29203.805828548175, 58429.672828873736, -8955.852264863523, -22820.2370190903, -10258.578986952185, 8143.008726001826, 3831.42427580646, 3181.9496371686027, 10986.977635261732, -187500.02235174447, -0.23, 0.9580000000000001, 0.178, 192.0, 124.0, 104.0, 14.5, 120.0, 2.5, 72.0, 0.0, 0.0, 0.0, 1.7447421286791136E9, 0.0, 2025-04-15 13:35:28.679
142.0, -21516.660930712336, -7296.369349523706, 30032.362643761953, -18477.09190572404, -45562.1535256092, 40896.495091497316, -29170.792301987687, 58358.90720592823, -8939.826064089068, -22797.259425790242, -10287.591551255173, 8142.695801579453, 3825.590470503625, 3163.53179973743, 10926.11383510993, -187500.02235174447, -0.23, 0.9580000000000001, 0.178, 192.0, 0.0, 0.0, 0.0, 0.0, 0.0, 0.0, 0.0, 0.0, 0.0, 1.744742128687214E9, 0.0, 2025-04-15 13:35:28.687
144.0, -21501.26057878263, -7277.236256269963, 30031.04389083909, -18468.08415270855, -45520.288708244414, 40876.982018587834, -29198.35200290108, 58313.53316468396, -8932.964078541288, -22792.74437341027, -10255.114466561612, 8166.276891979801, 3847.2716626252727, 3188.5434017829184, 10992.409109164371, -187500.02235174447, -0.23, 0.9580000000000001, 0.178, 192.0, 0.0, 0.0, 0.0, 0.0, 0.0, 0.0, 0.0, 0.0, 0.0, 1.7447421286962306E9, 0.0, 2025-04-15 13:35:28.696
146.0, -21495.471476968705, -7269.636663155158, 30049.95346664828, -18454.606050802, -45716.91700421775, 40862.028701547235, -29154.095548879573, 58158.32265118631, -8911.662866075381, -22760.110826505523, -10272.057088858735, 8177.5645229297315, 3849.61859579308, 3176.3840527992315, 10928.483120022192, -187500.02235174447, -0.23, 0.9580000000000001, 0.178, 192.0, 0.0, 0.0, 0.0, 0.0, 0.0, 0.0, 0.0, 0.0, 0.0, 1.7447421287022376E9, 0.0, 2025-04-15 13:35:28.702
148.0, -21499.15951480383, -7265.099259030731, 30047.695940458292, -18449.59926004401, -45695.70519872966, 40871.68465515193, -29160.510499538246, 58100.02930164687, -8906.946647995312, -22757.60743112653, -10233.58973665115, 8196.183526061002, 3875.47956412787, 3205.6648380356837, 11003.875554069944, -187500.02235174447, -0.23, 0.9580000000000001, 0.178, 192.0, 0.0, 0.0, 0.0, 0.0, 0.0, 0.0, 0.0, 0.0, 0.0, 1.744742128711444E9, 0.0, 2025-04-15 13:35:28.711
150.0, -21499.427735737292, -7255.108029259209, 30048.47825151423, -18430.913201679374, -46014.44107466234, 40832.07736397712, -29142.696159207364, 57847.34283057962, -8893.468546088761, -22734.629837826473, -10257.908434618526, 8204.408968020554, 3864.817782022689, 3185.9953029150133, 10935.322753825516, -187500.02235174447, -0.222, 0.9440000000000001, 0.186, 192.0, 124.5, 8.0, 14.5, 64.0, 2.5, 104.0, 0.0, 0.0, 0.0, 1.7447421287193384E9, 0.0, 2025-04-15 13:35:28.719
152.0, -21499.40538399284, -7246.390848921639, 30056.70369347378, -18416.093995105504, -46054.316586770605, 40866.87903009403, -29126.647606688453, 57718.99911391725, -8878.001138925689, -22719.58711380805, -10212.534393374252, 8235.612003280165, 3901.228773740384, 3228.5306726134627, 11007.742405860712, -187500.02235174447, -0.222, 0.9440000000000001, 0.186, 192.0, 0.0, 0.0, 0.0, 0.0, 0.0, 0.0, 0.0, 0.0, 0.0, 1.7447421287263825E9, 0.0, 2025-04-15 13:35:28.726
154.0, -21508.033157352587, -7244.334488431751, 30034.396652507385, -18416.183402083327, -46413.7549893564, 40831.07153547663, -29132.637874202475, 57422.480871973145, -8866.154714364377, -22704.63379676745, -10229.029980782268, 8238.517730059353, 3889.516459645803, 3217.6677248081837, 10958.590919803491, -187500.02235174447, -0.222, 0.9440000000000001, 0.186, 192.0, 0.0, 0.0, 0.0, 0.0, 0.0, 0.0, 0.0, 0.0, 0.0, 1.7447421287343986E9, 0.0, 2025-04-15 13:35:28.734
156.0, -21519.41019528034, -7250.4812181569605, 30021.298530256576, -18427.381626055434, -46454.50221949843, 40865.96260857137, -29135.141269581472, 57278.06625104741, -8864.523037019138, -22702.130401388455, -10201.313817657689, 8257.024974468348, 3907.10728253213, 3243.372230931787, 11001.439213924315, -187500.02235174447, -0.222, 0.9440000000000001, 0.186, 192.0, 0.0, 0.0, 0.0, 0.0, 0.0, 0.0, 0.0, 0.0, 0.0, 1.7447421287434473E9, 0.0, 2025-04-15 13:35:28.743
158.0, -21529.848459940968, -7263.400526452127, 29983.144102471368, -18440.300934350602, -46801.6471626338, 40819.9850702268, -29155.034322146694, 57008.99595129442, -8880.392775582406, -22708.67946251386, -10238.261251242311, 8234.62852652413, 3875.1889914499516, 3216.036047462946, 10942.989402173687, -187500.02235174447, -0.222, 0.9440000000000001, 0.186, 192.0, 0.0, 0.0, 0.0, 0.0, 0.0, 0.0, 0.0, 0.0, 0.0, 1.7447421287504866E9, 0.0, 2025-04-15 13:35:28.750
160.0, -21550.50147181767, -7288.188611053063, 29983.658192593837, -18461.13276018295, -46746.52776080701, 40860.911114324466, -29161.046941405173, 56959.129209414634, -8889.869915231457, -22726.225581911276, -10224.35846619111, 8239.367096348655, 3889.0917765011523, 3224.2838411669545, 10977.969882246243, -187500.02235174447, -0.218, 0.912, 0.2, 192.0, 124.5, 24.0, 14.0, 64.0, 3.0, 32.0, 0.0, 0.0, 0.0, 1.7447421287585263E9, 0.0, 2025-04-15 13:35:28.758
162.0, -21552.982515452208, -7291.854297143734, 29956.769044014105, -18478.790638302642, -47018.32497338355, 40815.91705273593, -29173.00512468876, 56767.70886989938, -8900.576400825548, -22728.930142990368, -10247.514873446808, 8217.060055382259, 3863.8119535222, 3200.725102511061, 10934.227518347207, -187500.02235174447, -0.218, 0.912, 0.2, 192.0, 0.0, 0.0, 0.0, 0.0, 0.0, 0.0, 0.0, 0.0, 0.0, 1.7447421287665677E9, 0.0, 2025-04-15 13:35:28.766
164.0, -21583.51499837816, -7326.678315005102, 29951.49403232265, -18522.37653999049, -46882.49342232865, 40857.536000911714, -29179.956517214363, 56808.92548667497, -8920.201232457308, -22762.524814906697, -10244.743257134349, 8196.697616183474, 3861.845000010133, 3195.2489251195107, 10959.17206515933, -187500.02235174447, -0.218, 0.912, 0.2, 192.0, 0.0, 0.0, 0.0, 0.0, 0.0, 0.0, 0.0, 0.0, 0.0, 1.744742128775618E9, 0.0, 2025-04-15 13:35:28.775
166.0, -21597.484838662727, -7341.206948901052, 29909.58451146895, -18539.05094135415, -47046.756392330695, 40813.16778816793, -29196.697973811388, 56731.74491307079, -8939.893119322434, -22777.902815091948, -10273.46524875942, 8169.339080970179, 3831.8936624400217, 3168.471535262053, 10921.889355407877, -187500.02235174447, -0.218, 0.912, 0.2, 192.0, 0.0, 0.0, 0.0, 0.0, 0.0, 0.0, 0.0, 0.0, 0.0, 1.7447421287826483E9, 0.0, 2025-04-15 13:35:28.782
168.0, -21613.823963859555, -7361.234111933007, 29914.97128188268, -18553.512520016735, -46778.088423977904, 40867.43782370542, -29198.799037790184, 56907.42962448951, -8970.693823181848, -22806.870675906026, -10278.494391261864, 8149.289566193768, 3823.4447030359156, 3161.2519218029884, 10931.746474712667, -187500.02235174447, -0.218, 0.912, 0.2, 192.0, 0.0, 0.0, 0.0, 0.0, 0.0, 0.0, 0.0, 0.0, 0.0, 1.7447421287907164E9, 0.0, 2025-04-15 13:35:28.790
170.0, -21617.132022038943, -7362.396402644683, 29894.63119442835, -18548.215156580827, -46684.00993156552, 40855.25612297728, -29219.429697922435, 57009.68885537254, -8972.258445293719, -22798.28760603519, -10280.997786640857, 8152.061182506226, 3812.4252930194493, 3168.6950527066056, 10933.69107648028, -187500.02235174447, -0.222, 0.904, 0.198, 192.0, 124.5, 8.0, 14.0, 32.0, 3.0, 24.0, 0.0, 0.0, 0.0, 1.744742128798752E9, 0.0, 2025-04-15 13:35:28.798
172.0, -21638.94732462732, -7391.36426345876, 29906.321156778475, -18569.80694172465, -46196.36192278408, 40911.82838819366, -29216.68043335443, 57328.69295223868, -9011.284591112684, -22833.62571401903, -10296.956932181947, 8133.08455146367, 3796.399092244994, 3159.1955613131004, 10942.11768413993, -187500.02235174447, -0.222, 0.904, 0.198, 192.0, 0.0, 0.0, 0.0, 0.0, 0.0, 0.0, 0.0, 0.0, 0.0, 1.7447421288067636E9, 0.0, 2025-04-15 13:35:28.806
174.0, -21634.94636236982, -7383.474097666037, 29896.329927006955, -18564.62133701102, -45897.78732035009, 40890.258954794284, -29237.467555697865, 57530.88683258138, -9013.586820791581, -22835.23503961981, -10294.721757736417, 8129.977658984382, 3787.3913392295053, 3156.2227793005445, 10947.482102809205, -187500.02235174447, -0.222, 0.904, 0.198, 192.0, 0.0, 0.0, 0.0, 0.0, 0.0, 0.0, 0.0, 0.0, 0.0, 1.7447421288148048E9, 0.0, 2025-04-15 13:35:28.814
176.0, -21648.22329857627, -7398.807394362378, 29925.945988410236, -18571.080991158604, -45297.93355440302, 40950.3627956346, -29225.50937241428, 57886.83836303215, -9021.365227862028, -22845.606249047072, -10290.832554201193, 8124.724999037386, 3788.553629941181, 3154.7699159109493, 10939.480178294203, -187500.02235174447, -0.222, 0.904, 0.198, 192.0, 0.0, 0.0, 0.0, 0.0, 0.0, 0.0, 0.0, 0.0, 0.0, 1.7447421288228304E9, 0.0, 2025-04-15 13:35:28.822
178.0, -21660.315592326595, -7412.061978824375, 29895.860540373393, -18584.357927365058, -44655.298549568484, 40959.83993528366, -29259.238154797335, 58262.90646349269, -9050.400143909472, -22874.1494267165, -10284.439955286975, 8106.821251728685, 3766.1571819969636, 3163.91177939317, 10991.60444636398, -187500.02235174447, -0.222, 0.904, 0.198, 192.0, 0.0, 0.0, 0.0, 0.0, 0.0, 0.0, 0.0, 0.0, 0.0, 1.74474212883191E9, 0.0, 2025-04-15 13:35:28.831
180.0, -21666.39526681844, -7417.158176560185, 29896.419333984773, -18585.073183187626, -44005.980373141814, 40977.989551781364, -29242.139070289028, 58605.17872633681, -9056.055135256665, -22875.110551728078, -10309.451557332464, 8098.12642313557, 3758.9599202823547, 3152.825314143338, 10973.45482986627, -187500.02235174447, -0.224, 0.909, 0.2, 192.0, 124.0, 120.0, 14.0, 72.0, 3.0, 40.0, 0.0, 0.0, 0.0, 1.744742128838932E9, 0.0, 2025-04-15 13:35:28.838
182.0, -21665.94823192933, -7411.570240446358, 29853.01224625257, -18594.460915858857, -43670.21246793419, 40924.77004823328, -29276.27018407228, 58777.622434809506, -9070.98610055281, -22879.379734919043, -10328.338781397199, 8085.654149729508, 3741.8384840295894, 3147.080915818324, 10971.890207754399, -187500.02235174447, -0.224, 0.909, 0.2, 192.0, 0.0, 0.0, 0.0, 0.0, 0.0, 0.0, 0.0, 0.0, 0.0, 1.7447421288469768E9, 0.0, 2025-04-15 13:35:28.846
184.0, -21653.677124223366, -7400.37201647425, 29880.415484954774, -18593.87977050302, -43412.943889253605, 40904.8546439236, -29243.703692400897, 58910.28003815175, -9059.586710880603, -22869.299098169697, -10358.357174200675, 8079.865047915584, 3735.982326982299, 3116.1237497477237, 10898.554134196536, -187500.02235174447, -0.224, 0.909, 0.2, 192.0, 0.0, 0.0, 0.0, 0.0, 0.0, 0.0, 0.0, 0.0, 0.0, 1.7447421288550105E9, 0.0, 2025-04-15 13:35:28.855
186.0, -21653.23008933426, -7398.740339129012, 29855.828566053937, -18600.58529383961, -43081.154594559026, 40896.6515537085, -29263.775558921763, 59098.705243909986, -9055.965728278843, -22876.831636051134, -10326.99767672988, 8084.693024717931, 3747.851103288067, 3137.0449825578908, 10947.437399320293, -187500.02235174447, -0.224, 0.909, 0.2, 192.0, 0.0, 0.0, 0.0, 0.0, 0.0, 0.0, 0.0, 0.0, 0.0, 1.7447421288630743E9, 0.0, 2025-04-15 13:35:28.863
188.0, -21656.649906235925, -7404.820013620855, 29877.19683375321, -18602.284026418212, -42590.19852759821, 40940.460972840905, -29233.176020762447, 59384.38288979327, -9055.69750734538, -22881.547854131208, -10342.107455981668, 8079.194495581925, 3740.631489829003, 3127.232566742011, 10917.35195128345, -187500.02235174447, -0.224, 0.909, 0.2, 192.0, 0.0, 0.0, 0.0, 0.0, 0.0, 0.0, 0.0, 0.0, 0.0, 1.744742128873132E9, 0.0, 2025-04-15 13:35:28.873
190.0, -21658.683914981357, -7401.17667927464, 29839.42238562374, -18607.983721254317, -42106.57383281873, 40914.19767310592, -29276.672515472477, 59635.21416607072, -9073.422440698438, -22898.803400850702, -10321.521499338329, 8070.656129199998, 3737.949280494366, 3142.454104716075, 10991.827963808533, -187500.02235174447, -0.223, 0.9195, 0.202, 192.0, 124.5, 8.0, 14.5, 8.0, 3.0, 48.0, 0.0, 0.0, 0.0, 1.7447421288801234E9, 0.0, 2025-04-15 13:35:28.880
192.0, -21638.030903104653, -7382.535324398915, 29872.413560439774, -18581.47455233032, -42030.063811548214, 40869.024797561746, -29239.434509209936, 59643.68547721928, -9044.298117673174, -22854.36813287355, -10362.29108122481, 8082.390795039034, 3730.6402600574806, 3107.3842176656985, 10876.58236939697, -187500.02235174447, -0.223, 0.9195, 0.202, 192.0, 0.0, 0.0, 0.0, 0.0, 0.0, 0.0, 0.0, 0.0, 0.0, 1.7447421288872435E9, 0.0, 2025-04-15 13:35:28.887
194.0, -21642.680065951357, -7382.8482488212885, 29867.00443828159, -18581.787476752696, -41634.48263817819, 40889.789568160726, -29259.372265264068, 59818.40906362642, -9049.863702042545, -22863.979382989335, -10331.222156431933, 8085.184763095947, 3748.8345800441007, 3135.0556773013686, 10950.54429179958, -187500.02235174447, -0.223, 0.9195, 0.202, 192.0, 0.0, 0.0, 0.0, 0.0, 0.0, 0.0, 0.0, 0.0, 0.0, 1.7447421288942385E9, 0.0, 2025-04-15 13:35:28.894
196.0, -21629.76075765619, -7375.852152806778, 29892.66424091628, -18569.38225858, -41351.35309116281, 40896.89742289751, -29240.283875499237, 59938.3485243736, -9043.31464091714, -22847.148519414488, -10345.057886249768, 8089.02926314226, 3740.4079723844497, 3128.5736714093296, 10904.365587754917, -187500.02235174447, -0.223, 0.9195, 0.202, 192.0, 0.0, 0.0, 0.0, 0.0, 0.0, 0.0, 0.0, 0.0, 0.0, 1.744742128902234E9, 0.0, 2025-04-15 13:35:28.902
198.0, -21629.224315789263, -7371.962949271554, 29888.126836791856, -18558.988697408284, -40922.80309472121, 40902.5524142447, -29253.2031837944, 60108.57941014522, -9040.855949027056, -22851.70827528337, -10303.595400285174, 8102.909696449005, 3765.8889610634997, 3158.4803054905306, 10980.607388091968, -187500.02235174447, -0.223, 0.9195, 0.202, 192.0, 0.0, 0.0, 0.0, 0.0, 0.0, 0.0, 0.0, 0.0, 0.0, 1.7447421289112873E9, 0.0, 2025-04-15 13:35:28.911
200.0, -21610.89588533591, -7354.17096068513, 29900.979089853656, -18529.23852553827, -41056.06419516375, 40836.10067797908, -29239.83684061013, 59983.610806895595, -9026.081445942098, -22830.876449451025, -10344.946127527492, 8103.17791738247, 3745.9735567538214, 3118.358924193254, 10877.38703219736, -187500.02235174447, -0.2265, 0.9337500000000001, 0.20600000000000002, 192.0, 124.0, 104.0, 14.5, 80.0, 3.0, 72.0, 0.0, 0.0, 0.0, 1.7447421289183226E9, 0.0, 2025-04-15 13:35:28.918
202.0, -21607.498420178705, -7349.342983882783, 29913.473715004173, -18511.737109629765, -40905.4581410239, 40860.486431179816, -29233.243075995815, 59998.47471695837, -9015.21849813682, -22813.75501319826, -10306.523478808818, 8125.641420560053, 3775.723728623835, 3153.9876048550136, 10935.92625092581, -187500.02235174447, -0.2265, 0.9337500000000001, 0.20600000000000002, 192.0, 0.0, 0.0, 0.0, 0.0, 0.0, 0.0, 0.0, 0.0, 0.0, 1.744742128926351E9, 0.0, 2025-04-15 13:35:28.926
204.0, -21599.22827473024, -7339.418809344627, 29910.16565682479, -18508.026720050184, -41042.943721168485, 40829.28339592021, -29231.45493643939, 59887.699471437874, -9017.967762704822, -22805.060184605147, -10330.32808665372, 8122.534528080765, 3753.2825771907064, 3139.9283575926256, 10890.798078870544, -187500.02235174447, -0.2265, 0.9337500000000001, 0.20600000000000002, 192.0, 0.0, 0.0, 0.0, 0.0, 0.0, 0.0, 0.0, 0.0, 0.0, 1.7447421289353907E9, 0.0, 2025-04-15 13:35:28.935
206.0, -21589.549969381093, -7332.8920999636775, 29933.657340247315, -18504.741013615254, -40832.300881421674, 40873.91982959746, -29214.98170077583, 59939.17553891845, -9005.562544532126, -22795.292472278175, -10294.453536802952, 8144.3721824136, 3776.0366530462093, 3168.6503492176953, 10946.02923941961, -187500.02235174447, -0.2265, 0.9337500000000001, 0.20600000000000002, 192.0, 0.0, 0.0, 0.0, 0.0, 0.0, 0.0, 0.0, 0.0, 0.0, 1.744742128942428E9, 0.0, 2025-04-15 13:35:28.942
208.0, -21585.146675723397, -7330.8357394737895, 29923.084965119957, -18508.630217150476, -40909.43675153694, 40843.09677399359, -29216.16634323196, 59840.447883659355, -8995.21368684932, -22780.450913959852, -10304.109490407645, 8145.959156269927, 3769.331129709617, 3156.3568897672762, 10919.385960028883, -187500.02235174447, -0.2265, 0.9337500000000001, 0.20600000000000002, 192.0, 0.0, 0.0, 0.0, 0.0, 0.0, 0.0, 0.0, 0.0, 0.0, 1.7447421289505432E9, 0.0, 2025-04-15 13:35:28.950
210.0, -21598.17774274084, -7342.123370423719, 29929.25404658962, -18528.009179593228, -40562.49297410166, 40895.10928334109, -29216.546322887698, 59955.44760888191, -9004.176736375897, -22798.08644033509, -10281.243655829867, 8150.094228994159, 3784.686778150413, 3166.593988727807, 10969.185646675307, -187500.02235174447, -0.22925, 0.939875, 0.20700000000000002, 192.0, 124.0, 96.0, 14.5, 72.0, 3.0, 64.0, 0.0, 0.0, 0.0, 1.744742128958522E9, 0.0, 2025-04-15 13:35:28.958
212.0, -21580.676326832334, -7318.49757653446, 29912.423183014773, -18514.70989164232, -40693.8541762655, 40833.39611689998, -29220.12260200055, 59792.83866796955, -8995.884239182978, -22782.686088405382, -10297.582781026696, 8151.99412727286, 3773.4438506893935, 3149.6737181751396, 10922.716369952723, -187500.02235174447, -0.22925, 0.939875, 0.20700000000000002, 192.0, 0.0, 0.0, 0.0, 0.0, 0.0, 0.0, 0.0, 0.0, 0.0, 1.7447421289675696E9, 0.0, 2025-04-15 13:35:28.967
214.0, -21591.114591492962, -7327.237108616485, 29927.35414831092, -18527.85271738204, -40597.78637859659, 40850.51755315275, -29212.008918763273, 59742.368428989466, -8986.608265234026, -22772.98543131178, -10285.110507620635, 8168.33325246969, 3793.1804410434297, 3157.7650496679607, 10932.506434024148, -187500.02235174447, -0.22925, 0.939875, 0.20700000000000002, 192.0, 0.0, 0.0, 0.0, 0.0, 0.0, 0.0, 0.0, 0.0, 0.0, 1.7447421289746091E9, 0.0, 2025-04-15 13:35:28.974
216.0, -21582.33035592203, -7317.379989311695, 29904.667127688783, -18525.61754293651, -40849.869352563546, 40793.45354955835, -29234.807698107685, 59519.99092340362, -8992.35266355904, -22778.59571917006, -10305.584705541696, 8153.670508107008, 3770.940455310399, 3137.6484796581844, 10906.176079055796, -187500.02235174447, -0.22925, 0.939875, 0.20700000000000002, 192.0, 0.0, 0.0, 0.0, 0.0, 0.0, 0.0, 0.0, 0.0, 0.0, 1.7447421289826515E9, 0.0, 2025-04-15 13:35:28.982
218.0, -21582.21859719975, -7320.129253879697, 29931.623331501884, -18528.791490649164, -40812.27371838972, 40833.0384889887, -29217.08276475463, 59440.26225093153, -8980.483887253271, -22756.60160262604, -10293.090080391179, 8165.248711734857, 3793.1804410434297, 3149.561959452863, 10909.506488979638, -187500.02235174447, -0.22925, 0.939875, 0.20700000000000002, 192.0, 0.0, 0.0, 0.0, 0.0, 0.0, 0.0, 0.0, 0.0, 0.0, 1.7447421289906895E9, 0.0, 2025-04-15 13:35:28.990
220.0, -21578.55291110908, -7312.261439831429, 29901.560235209494, -18532.77010116221, -41019.2285203014, 40787.37387506651, -29250.900954115506, 59243.72336193602, -8984.30603555513, -22759.999067783247, -10293.470060046919, 8161.337156455178, 3777.623626902536, 3147.5055989629745, 10906.578410455992, -187500.02235174447, -0.234625, 0.9359375000000001, 0.2025, 192.0, 124.0, 64.0, 14.5, 16.0, 3.0, 24.0, 0.0, 0.0, 0.0, 1.7447421289987204E9, 0.0, 2025-04-15 13:35:28.998
222.0, -21578.038820986607, -7312.753178209446, 29926.571837254985, -18534.357075018535, -40985.410330940525, 40823.38253538401, -29234.91945682996, 59182.5689891063, -8981.10973609802, -22753.472358402298, -10290.854905945649, 8169.517894925821, 3786.586676429114, 3151.685375176117, 10896.006035328632, -187500.02235174447, -0.234625, 0.9359375000000001, 0.2025, 192.0, 0.0, 0.0, 0.0, 0.0, 0.0, 0.0, 0.0, 0.0, 0.0, 1.744742129006781E9, 0.0, 2025-04-15 13:35:29.006
224.0, -21575.356611651972, -7300.146794336652, 29889.95967983719, -18532.926563373396, -41143.03483283935, 40791.37483732401, -29265.876622900563, 59042.60236532717, -8983.657834965925, -22748.59967811104, -10289.267932089322, 8166.90274082455, 3772.527429166726, 3159.5978927132956, 10907.651294189847, -187500.02235174447, -0.234625, 0.9359375000000001, 0.2025, 192.0, 0.0, 0.0, 0.0, 0.0, 0.0, 0.0, 0.0, 0.0, 0.0, 1.7447421290148196E9, 0.0, 2025-04-15 13:35:29.014
226.0, -21572.18266393932, -7300.325608292295, 29908.198703312723, -18527.740958659764, -41178.55175477883, 40805.8811194755, -29252.89025937203, 58977.6705476845, -8984.440146021861, -22734.048692470635, -10306.143499153079, 8166.768630357818, 3774.2485134897847, 3155.6416339447064, 10875.53183740757, -187500.02235174447, -0.234625, 0.9359375000000001, 0.2025, 192.0, 0.0, 0.0, 0.0, 0.0, 0.0, 0.0, 0.0, 0.0, 0.0, 1.744742129022858E9, 0.0, 2025-04-15 13:35:29.022
228.0, -21589.46056240327, -7333.0709139193195, 29876.369819208365, -18539.09564484306, -41315.21032037858, 40784.95988666533, -29279.645297485033, 58892.823325732155, -8991.480945525283, -22762.636573628974, -10295.124089136612, 8157.269138964312, 3776.886019335511, 3160.111982835768, 10905.773747655601, -187500.02235174447, -0.234625, 0.9359375000000001, 0.2025, 192.0, 0.0, 0.0, 0.0, 0.0, 0.0, 0.0, 0.0, 0.0, 0.0, 1.744742129029904E9, 0.0, 2025-04-15 13:35:29.029
230.0, -21588.164161224864, -7328.958192939544, 29898.967432852678, -18538.738016931777, -41425.38206879879, 40787.75385472225, -29253.4043494945, 58820.26956323023, -8978.338119785562, -22761.340172450564, -10307.104624164656, 8149.826008060695, 3776.774260613234, 3140.8671308597486, 10862.05373550102, -187500.02235174447, -0.23931249999999998, 0.92596875, 0.19625, 192.0, 124.0, 48.0, 14.0, 80.0, 2.5, 120.0, 0.0, 0.0, 0.0, 1.7447421290389388E9, 0.0, 2025-04-15 13:35:29.038
232.0, -21591.405164170883, -7323.459663803538, 29877.755627364593, -18536.70400818634, -41594.83064351448, 40753.91331361691, -29274.12441660457, 58724.91702138389, -8986.787079189668, -22762.256593973234, -10291.793679212771, 8157.000918030849, 3775.6119699015585, 3160.134334580223, 10901.63867493137, -187500.02235174447, -0.23931249999999998, 0.92596875, 0.19625, 192.0, 0.0, 0.0, 0.0, 0.0, 0.0, 0.0, 0.0, 0.0, 0.0, 1.7447421290469868E9, 0.0, 2025-04-15 13:35:29.046
234.0, -21586.46542864626, -7319.525756779404, 29892.23955777163, -18541.219060566316, -41813.9224426654, 40748.95122634783, -29249.761015148288, 58610.40903453935, -8978.62869246348, -22754.478186902787, -10316.84998474717, 8156.799752330751, 3762.200923228374, 3141.3812209822204, 10847.748619049624, -187500.02235174447, -0.23931249999999998, 0.92596875, 0.19625, 192.0, 0.0, 0.0, 0.0, 0.0, 0.0, 0.0, 0.0, 0.0, 0.0, 1.7447421290540264E9, 0.0, 2025-04-15 13:35:29.054
236.0, -21586.085448990518, -7310.8756316752, 29865.886851058825, -18544.817691423617, -42025.54875916824, 40731.33805171705, -29275.733742205353, 58499.522030296575, -8981.10973609802, -22758.948535793847, -10301.449632817465, 8155.525702896799, 3759.518713893737, 3152.825314143338, 10889.904009092334, -187500.02235174447, -0.23931249999999998, 0.92596875, 0.19625, 192.0, 0.0, 0.0, 0.0, 0.0, 0.0, 0.0, 0.0, 0.0, 0.0, 1.7447421290620513E9, 0.0, 2025-04-15 13:35:29.062
238.0, -21586.443076901804, -7309.8250996858005, 29876.146301763813, -18549.44450252587, -42389.65867634519, 40709.120417728474, -29264.289649044236, 58315.47776645157, -8989.290474568663, -22753.092378746558, -10339.447598391485, 8146.94263302596, 3740.1173997065307, 3122.292831217388, 10810.979999420644, -187500.02235174447, -0.23931249999999998, 0.92596875, 0.19625, 192.0, 0.0, 0.0, 0.0, 0.0, 0.0, 0.0, 0.0, 0.0, 0.0, 1.7447421290710807E9, 0.0, 2025-04-15 13:35:29.071
240.0, -21588.32062343605, -7311.792053197868, 29857.013208510067, -18559.458084041846, -42642.21103694571, 40693.96593498778, -29295.068001159194, 58201.819145896334, -8995.079576382586, -22765.40818994143, -10320.22509815992, 8142.360525412622, 3747.2252544433186, 3132.909909833659, 10855.549377864525, -187500.02235174447, -0.23931249999999998, 0.92596875, 0.19625, 192.0, 0.0, 0.0, 0.0, 0.0, 0.0, 0.0, 0.0, 0.0, 0.0, 1.744742129078122E9, 0.0, 2025-04-15 13:35:29.078
242.0, -21568.13699819291, -7292.30133203284, 29872.72648486215, -18543.789511178675, -43152.881342516106, 40654.20218160179, -29283.579204509166, 57954.430038264996, -8990.519820513704, -22756.288678203666, -10351.450485163985, 8135.163263698014, 3724.426475098905, 3095.6719035711176, 10766.164751787754, -187500.02235174447, -0.246, 0.926, 0.192, 192.0, 124.0, 40.0, 14.0, 120.0, 3.0, 0.0, 0.0, 0.0, 0.0, 1.7447421290862324E9, 0.0, 2025-04-15 13:35:29.086
244.0, -21551.730817762713, -7277.057442314321, 29875.20752849669, -18527.271572026202, -43499.69100948465, 40662.651141005896, -29284.540329520743, 57787.30604497267, -8977.39934651844, -22750.924259534393, -10315.173603913023, 8154.877502307595, 3752.8578940460557, 3122.337534706299, 10815.450348311704, -187500.02235174447, -0.246, 0.926, 0.192, 192.0, 0.0, 0.0, 0.0, 0.0, 0.0, 0.0, 0.0, 0.0, 0.0, 1.744742129094216E9, 0.0, 2025-04-15 13:35:29.094
246.0, -21540.21966936823, -7272.967073078999, 29895.279395017555, -18504.986882804264, -44054.19308593191, 40648.167210598855, -29264.13318683305, 57531.9820680597, -8959.71911665429, -22731.053558713622, -10325.030723217813, 8167.774458858306, 3748.745173066279, 3111.161662478645, 10760.643870907292, -187500.02235174447, -0.246, 0.926, 0.192, 192.0, 0.0, 0.0, 0.0, 0.0, 0.0, 0.0, 0.0, 0.0, 0.0, 1.7447421291032784E9, 0.0, 2025-04-15 13:35:29.103
248.0, -21522.40532903735, -7263.177009007574, 29910.679746947262, -18489.251254707724, -44242.73005041243, 40695.508205355196, -29265.429588011455, 57465.686794005254, -8965.463514979305, -22746.476262387787, -10285.065804131724, 8176.223418262413, 3760.658652860958, 3143.4152297276532, 10845.848720770922, -187500.02235174447, -0.246, 0.926, 0.192, 192.0, 0.0, 0.0, 0.0, 0.0, 0.0, 0.0, 0.0, 0.0, 0.0, 1.744742129110282E9, 0.0, 2025-04-15 13:35:29.110
250.0, -21500.321805515505, -7245.139151232142, 29927.376500055376, -18471.481617865757, -44643.49682849608, 40699.79974029061, -29235.2994364857, 57298.92042862421, -8933.969907041777, -22716.033186439658, -10279.679033717995, 8194.171869060025, 3765.3525191965723, 3144.8904448617036, 10814.176298877752, -187500.02235174447, -0.246, 0.926, 0.192, 192.0, 0.0, 0.0, 0.0, 0.0, 0.0, 0.0, 0.0, 0.0, 0.0, 1.7447421291183512E9, 0.0, 2025-04-15 13:35:29.118
252.0, -21511.698843443257, -7257.72318336048, 29940.005235672623, -18477.33777491305, -44580.844888787855, 40772.30879930363, -29233.13131727354, 57378.447935396194, -8937.501482665717, -22729.980674979768, -10232.114521517102, 8203.760767431351, 3789.805327630678, 3181.9943406575135, 10906.556058711536, -187500.02235174447, -0.23800000000000002, 0.9440000000000001, 0.182, 192.0, 124.0, 72.0, 14.5, 64.0, 2.5, 88.0, 0.0, 0.0, 0.0, 1.7447421291263735E9, 0.0, 2025-04-15 13:35:29.126
254.0, -21537.224535611218, -7278.465602215005, 29918.368747039887, -18494.168638487892, -44762.877495631874, 40767.9725608793, -29243.033140067237, 57349.81535074894, -8968.123372569487, -22744.0175704977, -10269.151362079545, 8174.971720572916, 3746.822923043123, 3161.430735758631, 10867.775782081579, -187500.02235174447, -0.23800000000000002, 0.9440000000000001, 0.182, 192.0, 0.0, 0.0, 0.0, 0.0, 0.0, 0.0, 0.0, 0.0, 0.0, 1.7447421291344364E9, 0.0, 2025-04-15 13:35:29.134
0.0, -21542.141919391386, -7280.566666193804, 29939.17822112778, -18491.106449497514, -44665.043910151, 40813.860692246046, -29230.247942238802, 57437.56829948048, -8970.447953992838, -22754.344076436053, -10257.93078636298, 8171.864828093628, 3759.541065638193, 3169.499715506997, 10903.225648787697, -187500.02235174447, -0.23800000000000002, 0.9440000000000001, 0.182, 192.0, 0.0, 0.0, 0.0, 0.0, 0.0, 0.0, 0.0, 0.0, 0.0, 1.744742129142461E9, 0.0, 2025-04-15 13:35:29.142
2.0, -21539.862041456945, -7276.386889980661, 29933.1656018693, -18474.02971673366, -44927.743962734225, 40782.054159886145, -29221.26254096777, 57338.460664565646, -8967.676337680381, -22737.155584949924, -10277.153286594545, 8177.050432807259, 3750.108629478053, 3157.6756426901393, 10873.162552495307, -187500.02235174447, -0.23800000000000002, 0.9440000000000001, 0.182, 192.0, 0.0, 0.0, 0.0, 0.0, 0.0, 0.0, 0.0, 0.0, 0.0, 1.7447421291504939E9, 0.0, 2025-04-15 13:35:29.150
4.0, -21547.998076438675, -7279.516134204404, 29957.529003325584, -18474.588510345046, -44769.35950152392, 40848.863524063054, -29207.695032083397, 57451.96282290969, -8979.187486074863, -22741.02243674069, -10254.689783416961, 8191.489659725387, 3765.978368041321, 3180.496773779008, 10922.604611230447, -187500.02235174447, -0.23800000000000002, 0.9440000000000001, 0.182, 192.0, 0.0, 0.0, 0.0, 0.0, 0.0, 0.0, 0.0, 0.0, 0.0, 1.7447421291585605E9, 0.0, 2025-04-15 13:35:29.158
6.0, -21535.16817512133, -7268.25085499893, 29948.54360205455, -18468.687649808842, -44855.50312465467, 40826.40002088547, -29208.231473950324, 57428.001752853605, -8981.981454131777, -22740.17307045139, -10259.830684641682, 8183.197162532469, 3748.9016352774665, 3173.075994619846, 10908.970047112709, -187500.02235174447, -0.232, 0.9500000000000001, 0.186, 192.0, 124.0, 96.0, 14.5, 88.0, 2.5, 104.0, 0.0, 0.0, 0.0, 1.7447421291655753E9, 0.0, 2025-04-15 13:35:29.165
8.0, -21538.275067600618, -7275.671634158091, 29976.72915181269, -18472.710963810798, -44518.10354210181, 40897.85854790909, -29187.6902207959, 57606.92746721834, -8969.48682898126, -22739.055483228625, -10229.365256949099, 8201.682055197007, 3778.0036065582763, 3197.5735065428626, 10950.87956796641, -187500.02235174447, -0.232, 0.9500000000000001, 0.186, 192.0, 0.0, 0.0, 0.0, 0.0, 0.0, 0.0, 0.0, 0.0, 0.0, 1.744742129175645E9, 0.0, 2025-04-15 13:35:29.175
10.0, -21548.69098051679, -7278.5997126817365, 29944.609695030416, -18482.881007537962, -44342.06120277181, 40894.21521356287, -29213.64059610851, 57704.20225908783, -8973.465439494305, -22737.669675072393, -10227.353599948121, 8201.167965074535, 3773.488554178304, 3206.1789281581555, 10963.016565205642, -187500.02235174447, -0.232, 0.9500000000000001, 0.186, 192.0, 0.0, 0.0, 0.0, 0.0, 0.0, 0.0, 0.0, 0.0, 0.0, 1.7447421291826737E9, 0.0, 2025-04-15 13:35:29.182
12.0, -21555.709428275757, -7290.267323287407, 29967.207308674733, -18476.33194641256, -43781.501803577165, 40967.84185979865, -29192.987584231807, 57996.38426260761, -8985.311864055619, -22745.984524009767, -10227.64417262604, 8201.525592985821, 3776.528391424226, 3209.39757935972, 10977.098164212486, -187500.02235174447, -0.232, 0.9500000000000001, 0.186, 192.0, 0.0, 0.0, 0.0, 0.0, 0.0, 0.0, 0.0, 0.0, 0.0, 1.7447421291907048E9, 0.0, 2025-04-15 13:35:29.190
14.0, -21554.70359977527, -7281.34897724974, 29944.02854967458, -18470.49814110972, -43407.46771186205, 40960.44343238395, -29211.78540131872, 58177.25457873996, -8989.201067590842, -22746.632724598974, -10224.000838279824, 8202.330255786212, 3773.265036733751, 3220.171120187178, 10995.337187688016, -187500.02235174447, -0.232, 0.9500000000000001, 0.186, 192.0, 0.0, 0.0, 0.0, 0.0, 0.0, 0.0, 0.0, 0.0, 0.0, 1.74474212919777E9, 0.0, 2025-04-15 13:35:29.197
16.0, -21545.87466071542, -7278.4208987260945, 29984.462855394228, -18466.497178852223, -42795.14167250892, 41020.21199705744, -29175.799092745674, 58469.52598923755, -8978.651044207936, -22742.385893152463, -10216.602410865118, 8203.313732542245, 3787.4136909739605, 3223.9262132556696, 11002.825022080544, -187500.02235174447, -0.226, 0.9560000000000001, 0.194, 192.0, 124.0, 120.0, 14.5, 112.0, 3.0, 8.0, 0.0, 0.0, 0.0, 1.7447421292067864E9, 0.0, 2025-04-15 13:35:29.206
18.0, -21546.656971771357, -7280.030224326876, 29951.203459644734, -18471.101638210017, -42379.734501807034, 40996.92147933501, -29205.012822748762, 58645.903604734376, -8972.146686571443, -22740.955381507323, -10198.25162866731, 8207.158232588557, 3794.678007921935, 3235.325602927876, 11036.799673652611, -187500.02235174447, -0.226, 0.9560000000000001, 0.194, 192.0, 0.0, 0.0, 0.0, 0.0, 0.0, 0.0, 0.0, 0.0, 0.0, 1.7447421292148511E9, 0.0, 2025-04-15 13:35:29.214
20.0, -21556.067056187043, -7293.73184367798, 29966.581459829984, -18481.718716826286, -41906.70453389937, 41013.05943883174, -29192.697011553886, 58851.47259848984, -8968.995090603245, -22743.950515264336, -10216.222431209379, 8207.62761922212, 3790.051196819687, 3218.3829806307535, 11002.690911613812, -187500.02235174447, -0.226, 0.9560000000000001, 0.194, 192.0, 0.0, 0.0, 0.0, 0.0, 0.0, 0.0, 0.0, 0.0, 0.0, 1.7447421292218957E9, 0.0, 2025-04-15 13:35:29.221
22.0, -21562.683172545814, -7294.9164861341105, 29932.53975302455, -18489.497123896734, -41634.08030677799, 40963.8185457967, -29234.338311474123, 58942.55595714521, -8974.717137183803, -22748.376160666485, -10216.334189931655, 8199.692749940485, 3785.603199673081, 3213.8008730174156, 11021.958115334286, -187500.02235174447, -0.226, 0.9560000000000001, 0.194, 192.0, 0.0, 0.0, 0.0, 0.0, 0.0, 0.0, 0.0, 0.0, 0.0, 1.7447421292299376E9, 0.0, 2025-04-15 13:35:29.229
24.0, -21547.081654916008, -7280.9466458495435, 29964.16747142881, -18479.237673191747, -41474.95823800066, 40935.58829254965, -29212.053622252184, 58949.015611292794, -8964.278872523175, -22723.25279989872, -10239.758818120816, 8203.492546497888, 3779.8588013480667, 3198.4452245766192, 10946.252756864162, -187500.02235174447, -0.226, 0.9560000000000001, 0.194, 192.0, 0.0, 0.0, 0.0, 0.0, 0.0, 0.0, 0.0, 0.0, 0.0, 1.7447421292389674E9, 0.0, 2025-04-15 13:35:29.238
26.0, -21555.240041642195, -7284.768794151401, 29935.713700737204, -18491.106449497514, -41418.274214062, 40891.13067282804, -29237.512259186777, 58906.41318636098, -8968.324538269584, -22726.091471444546, -10226.459530169908, 8203.850174409172, 3785.893772351, 3211.6104020607954, 10972.828981021523, -187500.02235174447, -0.22, 0.936, 0.196, 192.0, 124.5, 16.0, 14.5, 32.0, 3.0, 16.0, 0.0, 0.0, 0.0, 1.7447421292460248E9, 0.0, 2025-04-15 13:35:29.246
28.0, -21550.21089913975, -7286.221657540997, 29957.104320180933, -18484.04329824964, -41515.41489546477, 40863.839192848114, -29210.31018618467, 58779.90231274394, -8954.019421818188, -22710.847581726026, -10256.41086774002, 8198.686921439996, 3780.328187981628, 3182.7990034579043, 10902.845669131955, -187500.02235174447, -0.22, 0.936, 0.196, 192.0, 0.0, 0.0, 0.0, 0.0, 0.0, 0.0, 0.0, 0.0, 0.0, 1.744742129254056E9, 0.0, 2025-04-15 13:35:29.254
30.0, -21556.35762886496, -7289.082680831276, 29926.884761677356, -18493.632196620965, -41624.2231874732, 40820.1862359269, -29240.5520964327, 58647.37881986843, -8965.172942301386, -22723.319855132086, -10240.854053599127, 8201.123261585624, 3784.4409089614046, 3188.7669192274716, 10941.558890528548, -187500.02235174447, -0.22, 0.936, 0.196, 192.0, 0.0, 0.0, 0.0, 0.0, 0.0, 0.0, 0.0, 0.0, 0.0, 1.7447421292621007E9, 0.0, 2025-04-15 13:35:29.262
32.0, -21546.54521304908, -7280.968997593999, 29939.424090316785, -18479.528245869667, -41962.539191548734, 40778.23201158429, -29217.06041301017, 58397.709834302645, -8961.507256210716, -22712.099279415525, -10283.32236806421, 8184.538267199787, 3766.4701064193378, 3153.0264798434355, 10857.29281393204, -187500.02235174447, -0.22, 0.936, 0.196, 192.0, 0.0, 0.0, 0.0, 0.0, 0.0, 0.0, 0.0, 0.0, 0.0, 1.7447421292701252E9, 0.0, 2025-04-15 13:35:29.270
34.0, -21542.007808924653, -7269.659014899614, 29922.05678487501, -18479.55059761412, -42196.78547344035, 40762.36227302102, -29227.029291037237, 58201.416814496144, -8962.848360878035, -22705.036128167645, -10261.529417220285, 8200.452709251966, 3773.9579408118657, 3176.428756288142, 10905.438471488771, -187500.02235174447, -0.22, 0.936, 0.196, 192.0, 0.0, 0.0, 0.0, 0.0, 0.0, 0.0, 0.0, 0.0, 0.0, 1.7447421292782629E9, 0.0, 2025-04-15 13:35:29.278
36.0, -21526.719215717225, -7262.126477018175, 29941.279285106575, -18474.27558592267, -42694.02238059311, 40726.040688281144, -29199.290776168204, 57875.23780765985, -8953.974718329277, -22680.359802288986, -10287.792716955271, 8205.258334309858, 3759.0269755157206, 3154.9040263776815, 10825.66509552778, -187500.02235174447, -0.226, 0.928, 0.198, 192.0, 124.0, 120.0, 14.5, 0.0, 3.0, 24.0, 0.0, 0.0, 0.0, 1.7447421292862327E9, 0.0, 2025-04-15 13:35:29.286
38.0, -21518.471422013215, -7256.695003115536, 29939.893476950347, -18481.450495892823, -42976.05669213017, 40720.67626961187, -29217.239226965816, 57671.09932554953, -8956.612224175004, -22686.90886341439, -10261.350603264644, 8212.209726835457, 3776.3272257241283, 3171.779593441438, 10888.16057302482, -187500.02235174447, -0.226, 0.928, 0.198, 192.0, 0.0, 0.0, 0.0, 0.0, 0.0, 0.0, 0.0, 0.0, 0.0, 1.744742129294249E9, 0.0, 2025-04-15 13:35:29.294
40.0, -21509.9777591202, -7251.867026313189, 29938.530020538572, -18482.23280694876, -43561.15830673675, 40678.4538243358, -29206.15276171598, 57334.57146103042, -8955.740506141246, -22667.082866082535, -10290.810202456738, 8212.47794776892, 3756.1212487365306, 3149.651366430684, 10812.566973276971, -187500.02235174447, -0.226, 0.928, 0.198, 192.0, 0.0, 0.0, 0.0, 0.0, 0.0, 0.0, 0.0, 0.0, 0.0, 1.7447421293012867E9, 0.0, 2025-04-15 13:35:29.301
42.0, -21508.144916074863, -7254.504532158916, 29933.34441582494, -18489.720641341286, -43888.87958394046, 40688.06507445158, -29214.422907164444, 57139.61954589123, -8963.183637044864, -22674.01190686368, -10268.100830090145, 8219.161119361057, 3771.0745657771313, 3170.237323074022, 10857.203406954219, -187500.02235174447, -0.226, 0.928, 0.198, 192.0, 0.0, 0.0, 0.0, 0.0, 0.0, 0.0, 0.0, 0.0, 0.0, 1.7447421293103902E9, 0.0, 2025-04-15 13:35:29.310
44.0, -21502.95931136123, -7252.559930391304, 29919.843962173938, -18487.105487240016, -44551.45234482913, 40643.696861707795, -29212.321843185648, 56793.21221032288, -8954.131180540464, -22659.77384564565, -10302.589571784685, 8209.706331456462, 3749.8627602890447, 3144.3092995058655, 10786.124859586342, -187500.02235174447, -0.226, 0.928, 0.198, 192.0, 0.0, 0.0, 0.0, 0.0, 0.0, 0.0, 0.0, 0.0, 0.0, 1.7447421293183672E9, 0.0, 2025-04-15 13:35:29.318
46.0, -21512.458802754736, -7258.751363605424, 29914.144267337833, -18497.40964143391, -44849.7363745852, 40675.928077212346, -29231.901971328494, 56660.71106919183, -8970.179733059374, -22677.744648187716, -10287.993882655368, 8209.840441923196, 3762.759716839757, 3162.525971236941, 10835.723380532669, -187500.02235174447, -0.227, 0.927, 0.198, 192.0, 124.0, 112.0, 14.0, 120.0, 3.0, 24.0, 0.0, 0.0, 0.0, 1.7447421293264203E9, 0.0, 2025-04-15 13:35:29.326
48.0, -21496.007918835632, -7245.519130887882, 29911.39500276983, -18484.75855407221, -45495.880603299214, 40639.9417686393, -29226.850477081596, 56354.98390853214, -8969.39742200344, -22662.18783404682, -10308.959818954447, 8208.946372144983, 3743.581920097103, 3145.784514639916, 10777.474734482139, -187500.02235174447, -0.227, 0.927, 0.198, 192.0, 0.0, 0.0, 0.0, 0.0, 0.0, 0.0, 0.0, 0.0, 0.0, 1.7447421293334644E9, 0.0, 2025-04-15 13:35:29.333
50.0, -21494.823276379502, -7246.234386710452, 29924.850752931925, -18490.52530414168, -45785.1568800398, 40680.08550168103, -29230.851439339098, 56241.03471529898, -8965.083535323565, -22663.01484859167, -10281.154248852044, 8220.658686239563, 3764.07846976262, 3169.745584696005, 10817.99844717961, -187500.02235174447, -0.227, 0.927, 0.198, 192.0, 0.0, 0.0, 0.0, 0.0, 0.0, 0.0, 0.0, 0.0, 0.0, 1.7447421293425066E9, 0.0, 2025-04-15 13:35:29.342
52.0, -21494.68916591277, -7246.882587299656, 29912.177313825767, -18498.48252516777, -46384.4965558644, 40640.344100039496, -29236.30526498619, 55977.261778981905, -8971.654948193425, -22659.77384564565, -10302.433109573498, 8216.009523392859, 3745.7500393092682, 3151.260692031466, 10773.98786234711, -187500.02235174447, -0.227, 0.927, 0.198, 192.0, 0.0, 0.0, 0.0, 0.0, 0.0, 0.0, 0.0, 0.0, 0.0, 1.7447421293505645E9, 0.0, 2025-04-15 13:35:29.350
54.0, -21498.824238637, -7254.213959480997, 29926.571837254985, -18511.982978818774, -46616.820587732866, 40677.06801617957, -29233.399538207002, 55907.03259790333, -8976.237055806763, -22669.362744016977, -10285.959873909937, 8219.027008894325, 3756.523580136726, 3161.587197969818, 10810.37650232035, -187500.02235174447, -0.227, 0.927, 0.198, 192.0, 0.0, 0.0, 0.0, 0.0, 0.0, 0.0, 0.0, 0.0, 0.0, 1.7447421293575609E9, 0.0, 2025-04-15 13:35:29.357
56.0, -21493.325709500994, -7249.274223956374, 29904.53301722205, -18515.358092231523, -47167.54521936717, 40626.150742310376, -29247.011750580285, 55663.219769384836, -8978.20400931883, -22676.560005731586, -10303.617752029628, 8198.57516271772, 3737.748114794268, 3142.789380882905, 10786.728356686635, -187500.02235174447, -0.2285, 0.9275, 0.196, 192.0, 124.0, 104.0, 14.5, 0.0, 3.0, 8.0, 0.0, 0.0, 0.0, 1.744742129365612E9, 0.0, 2025-04-15 13:35:29.365
58.0, -21490.911721099823, -7249.877721056667, 29937.837116460458, -18514.307560242123, -47384.29008535029, 40681.76188251518, -29220.323767700647, 55589.816640593606, -8972.459610993816, -22666.255851537688, -10286.719833221416, 8214.154328603068, 3763.810248829156, 3159.2626165464662, 10810.063577897976, -187500.02235174447, -0.2285, 0.9275, 0.196, 192.0, 0.0, 0.0, 0.0, 0.0, 0.0, 0.0, 0.0, 0.0, 0.0, 1.7447421293746505E9, 0.0, 2025-04-15 13:35:29.374
60.0, -21508.480192241692, -7263.445229941039, 29893.312441505488, -18534.29001978517, -47791.136537925784, 40651.07293737804, -29256.824166396163, 55439.32234517603, -8990.005730391233, -22678.661069710382, -10301.047301417268, 8193.344854515179, 3739.7821235397014, 3151.8641891317593, 10807.560182518982, -187500.02235174447, -0.2285, 0.9275, 0.196, 192.0, 0.0, 0.0, 0.0, 0.0, 0.0, 0.0, 0.0, 0.0, 0.0, 1.7447421293817177E9, 0.0, 2025-04-15 13:35:29.381
62.0, -21513.576389977505, -7271.737727133957, 29920.00042438512, -18536.27932504169, -47905.51041430359, 40706.81818804958, -29237.132279531037, 55438.7859033091, -8999.818146207112, -22685.612462235986, -10303.2824758628, 8189.276837024312, 3746.152370709464, 3151.7971338983934, 10802.821612694457, -187500.02235174447, -0.2285, 0.9275, 0.196, 192.0, 0.0, 0.0, 0.0, 0.0, 0.0, 0.0, 0.0, 0.0, 0.0, 1.744742129389734E9, 0.0, 2025-04-15 13:35:29.389
64.0, -21508.480192241692, -7260.450096184028, 29892.999517083113, -18536.838118653075, -48183.16378392742, 40679.3031906251, -29262.41210250999, 55359.16898955929, -9003.260314853229, -22694.86608444048, -10302.835440973693, 8184.180639288502, 3735.132960692997, 3158.145029323701, 10825.598040294415, -187500.02235174447, -0.2285, 0.9275, 0.196, 192.0, 0.0, 0.0, 0.0, 0.0, 0.0, 0.0, 0.0, 0.0, 0.0, 1.7447421293978143E9, 0.0, 2025-04-15 13:35:29.397
66.0, -21498.086631069975, -7256.203264737519, 29936.384253070864, -18522.488298712768, -48257.03629935221, 40730.511037172204, -29225.911703814472, 55387.421594550804, -8985.468326266806, -22678.169331332367, -10295.548772281263, 8198.396348762077, 3751.2262167008184, 3166.884561405726, 10818.959572191188, -187500.02235174447, -0.22825, 0.93075, 0.194, 192.0, 124.0, 112.0, 14.5, 24.0, 3.0, 0.0, 0.0, 0.0, 0.0, 1.7447421294068308E9, 0.0, 2025-04-15 13:35:29.406
68.0, -21511.028291109596, -7264.786334608357, 29901.3590695094, -18537.374560520002, -48384.95533286993, 40726.66653712589, -29262.523861232265, 55412.56730706302, -8997.672378739402, -22686.90886341439, -10278.784963939783, 8195.71413942744, 3745.079486975609, 3176.3840527992315, 10858.410401154804, -187500.02235174447, -0.22825, 0.93075, 0.194, 192.0, 0.0, 0.0, 0.0, 0.0, 0.0, 0.0, 0.0, 0.0, 0.0, 1.7447421294138594E9, 0.0, 2025-04-15 13:35:29.413
70.0, -21515.856267911946, -7271.648320156136, 29914.05486036001, -18536.65930469743, -48345.28098646176, 40775.43804352737, -29237.82518360915, 55530.29394510913, -9006.121338143508, -22696.72127923027, -10294.118260636124, 8187.913380612538, 3727.2874983891847, 3165.1858288271224, 10836.975078222165, -187500.02235174447, -0.22825, 0.93075, 0.194, 192.0, 0.0, 0.0, 0.0, 0.0, 0.0, 0.0, 0.0, 0.0, 0.0, 1.74474212942188E9, 0.0, 2025-04-15 13:35:29.421
72.0, -21499.763011904124, -7247.597843122226, 29893.826531627958, -18521.013083578717, -48355.94276856694, 40772.68877895937, -29255.25954428429, 55603.83118436709, -9005.383730576485, -22693.21205535079, -10277.332100550188, 8194.4847934824, 3731.1319984354973, 3189.7056924945946, 10886.215971257207, -187500.02235174447, -0.22825, 0.93075, 0.194, 192.0, 0.0, 0.0, 0.0, 0.0, 0.0, 0.0, 0.0, 0.0, 0.0, 1.7447421294309397E9, 0.0, 2025-04-15 13:35:29.430
74.0, -21490.040003066064, -7238.657145340103, 29930.438689045754, -18499.4660019238, -48289.379273579034, 40813.726581779316, -29216.546322887698, 55709.75610134078, -8981.847343665046, -22667.90988062738, -10278.025004628302, 8209.259296567358, 3746.6217573430254, 3193.9301721966476, 10858.231587199163, -187500.02235174447, -0.22825, 0.93075, 0.194, 192.0, 0.0, 0.0, 0.0, 0.0, 0.0, 0.0, 0.0, 0.0, 0.0, 1.7447421294379616E9, 0.0, 2025-04-15 13:35:29.437
76.0, -21511.34121553197, -7262.215883995997, 29902.051973587513, -18515.067519553606, -48048.85215149548, 40838.33585242461, -29247.570544191665, 55920.33188585423, -9002.25448635274, -22690.060459382592, -10253.773361894293, 8209.125186100626, 3751.1591614674526, 3221.3110591543987, 10935.54627127007, -187500.02235174447, -0.22712500000000002, 0.9373750000000001, 0.195, 192.0, 124.0, 120.0, 14.5, 64.0, 3.0, 16.0, 0.0, 0.0, 0.0, 1.744742129446018E9, 0.0, 2025-04-15 13:35:29.446
78.0, -21516.459765012238, -7271.022471311388, 29924.448421531728, -18515.492202698257, -47709.39620845273, 40889.52134722726, -29221.21783747886, 56178.58394129085, -9011.01637017922, -22701.88453219945, -10280.483696518386, 8192.830764392706, 3732.40604786945, 3201.8873932227366, 10892.787384127067, -187500.02235174447, -0.22712500000000002, 0.9373750000000001, 0.195, 192.0, 0.0, 0.0, 0.0, 0.0, 0.0, 0.0, 0.0, 0.0, 0.0, 1.7447421294540656E9, 0.0, 2025-04-15 13:35:29.454
80.0, -21509.530724231092, -7266.48506718696, 29922.12384010838, -18514.95576083133, -47071.18684902035, 40946.67475779948, -29234.092442285117, 56565.78321049014, -9017.967762704822, -22718.581285307562, -10236.87544308608, 8198.552810973264, 3751.986176012299, 3241.78525707546, 10991.068004497052, -187500.02235174447, -0.22712500000000002, 0.9373750000000001, 0.195, 192.0, 0.0, 0.0, 0.0, 0.0, 0.0, 0.0, 0.0, 0.0, 0.0, 1.744742129462104E9, 0.0, 2025-04-15 13:35:29.462
82.0, -21490.419982721804, -7242.702811086513, 29881.175444266257, -18497.834324578565, -47503.71545597499, 40752.39339499395, -29269.117625846582, 56317.41062610276, -8994.610189749026, -22689.92634891586, -10293.581818769195, 8183.845363121673, 3722.794797753668, 3180.7426429680163, 10876.649424630335, -187500.02235174447, -0.22712500000000002, 0.9373750000000001, 0.195, 192.0, 0.0, 0.0, 0.0, 0.0, 0.0, 0.0, 0.0, 0.0, 0.0, 1.7447421294701285E9, 0.0, 2025-04-15 13:35:29.470
84.0, -21468.716438855703, -7217.758264274391, 29860.99181902311, -18475.303766167614, -48582.880030021675, 40584.73295983469, -29278.75122770682, 55726.0505230487, -8963.340099256051, -22647.502737939685, -10330.305734909265, 8193.434261493, 3719.9337744633885, 3129.5347964209077, 10763.326080241928, -187500.02235174447, -0.22712500000000002, 0.9373750000000001, 0.195, 192.0, 0.0, 0.0, 0.0, 0.0, 0.0, 0.0, 0.0, 0.0, 0.0, 1.7447421294782407E9, 0.0, 2025-04-15 13:35:29.478
86.0, -21451.617354347392, -7201.240325121918, 29887.54569143602, -18448.280507121148, -50045.77935287706, 40476.39405445982, -29238.69690164291, 54963.274891766894, -8930.013648273189, -22608.677757820817, -10362.58165390273, 8208.789909933796, 3715.597536039059, 3099.270534428422, 10641.866700871791, -187500.02235174447, -0.2235625, 0.9426875000000001, 0.1945, 192.0, 124.5, 16.0, 14.5, 80.0, 3.0, 8.0, 0.0, 0.0, 0.0, 1.7447421294862423E9, 0.0, 2025-04-15 13:35:29.486
88.0, -21453.33843867045, -7194.959484929977, 29891.524301949063, -18440.07741690605, -51264.57527453605, 40456.56805712796, -29236.72994813084, 54349.58539600199, -8925.856223804501, -22608.029557231614, -10329.47872036442, 8219.831671694717, 3744.4536381308603, 3126.204386497067, 10700.607085300337, -187500.02235174447, -0.2235625, 0.9426875000000001, 0.1945, 192.0, 0.0, 0.0, 0.0, 0.0, 0.0, 0.0, 0.0, 0.0, 0.0, 1.7447421294932485E9, 0.0, 2025-04-15 13:35:29.493
90.0, -21458.367581172894, -7199.85451696569, 29900.77792415356, -18435.875288948453, -52718.53389960932, 40413.22802462912, -29230.382052705536, 53651.160437007005, -8913.249839931708, -22593.14329542438, -10350.936395041514, 8221.642162995597, 3735.2223676708186, 3106.0878164872906, 10630.064979799388, -187500.02235174447, -0.2235625, 0.9426875000000001, 0.1945, 192.0, 0.0, 0.0, 0.0, 0.0, 0.0, 0.0, 0.0, 0.0, 0.0, 1.7447421295033197E9, 0.0, 2025-04-15 13:35:29.503
92.0, -21462.703819597224, -7202.2908571113185, 29910.411526013795, -18435.40590231489, -53698.09910036315, 40469.688531123225, -29229.912666071974, 53208.059454925, -8910.724092808257, -22589.56701631153, -10306.411720086542, 8239.3447446042, 3759.0269755157206, 3145.8292181288266, 10698.483669577083, -187500.02235174447, -0.2235625, 0.9426875000000001, 0.1945, 192.0, 0.0, 0.0, 0.0, 0.0, 0.0, 0.0, 0.0, 0.0, 0.0, 1.7447421295103405E9, 0.0, 2025-04-15 13:35:29.510
94.0, -21463.15085448633, -7201.955580944488, 29909.226883557665, -18434.780053470142, -54756.85653172214, 40480.529127184054, -29219.31793920016, 52738.695173108004, -8922.883441791946, -22591.735135523693, -10316.022970202324, 8234.784988735317, 3742.2855189186957, 3144.2645960169552, 10675.01433789901, -187500.02235174447, -0.2235625, 0.9426875000000001, 0.1945, 192.0, 0.0, 0.0, 0.0, 0.0, 0.0, 0.0, 0.0, 0.0, 0.0, 1.744742129517364E9, 0.0, 2025-04-15 13:35:29.517
96.0, -21468.15764524432, -7202.335560600229, 29917.653491217316, -18435.584716270532, -55553.42800062037, 40522.192778848745, -29208.49969488379, 52395.14886082993, -8920.067121990576, -22589.768182011627, -10289.312635578231, 8244.73151501793, 3767.69945236438, 3168.4491835175972, 10730.737236826091, -187500.02235174447, -0.21778124999999998, 0.94034375, 0.19725, 192.0, 124.5, 48.0, 14.5, 40.0, 3.0, 32.0, 0.0, 0.0, 0.0, 1.7447421295253952E9, 0.0, 2025-04-15 13:35:29.525
98.0, -21462.346191685938, -7197.127604142142, 29913.808991171005, -18436.188213370828, -56585.743318288725, 40495.92947911376, -29207.672680338943, 51933.25006166102, -8918.278982434153, -22580.916891207326, -10307.775176498315, 8236.684887014018, 3758.7140510933464, 3155.820447900349, 10692.560457296428, -187500.02235174447, -0.21778124999999998, 0.94034375, 0.19725, 192.0, 0.0, 0.0, 0.0, 0.0, 0.0, 0.0, 0.0, 0.0, 0.0, 1.7447421295344918E9, 0.0, 2025-04-15 13:35:29.534
100.0, -21481.72515412869, -7212.572659560759, 29929.365805311896, -18451.901489722906, -57213.179136893654, 40547.137325660864, -29204.454029137378, 51693.68406458903, -8927.264383705186, -22590.32697562301, -10285.378728554098, 8246.854930741183, 3779.1658972699524, 3172.427794030642, 10751.27848998052, -187500.02235174447, -0.21778124999999998, 0.94034375, 0.19725, 192.0, 0.0, 0.0, 0.0, 0.0, 0.0, 0.0, 0.0, 0.0, 0.0, 1.7447421295424902E9, 0.0, 2025-04-15 13:35:29.542
102.0, -21483.06625879601, -7219.948735231011, 29905.181217811256, -18457.13179792545, -58158.43440990859, 40502.746761172624, -29219.45204966689, 51302.86381278799, -8942.307107723607, -22596.361946625944, -10312.781967256304, 8226.827767709228, 3751.986176012299, 3150.232511786522, 10719.471957620617, -187500.02235174447, -0.21778124999999998, 0.94034375, 0.19725, 192.0, 0.0, 0.0, 0.0, 0.0, 0.0, 0.0, 0.0, 0.0, 0.0, 1.7447421295495455E9, 0.0, 2025-04-15 13:35:29.549
104.0, -21486.150799530842, -7220.3734183756615, 29925.364843054398, -18458.830530504052, -58767.184170148874, 40540.588264535465, -29206.555093116178, 51099.23942080014, -8939.691953622336, -22601.435792617296, -10299.527382794307, 8229.845253210695, 3766.8724378195334, 3162.257750303477, 10750.674992880226, -187500.02235174447, -0.21778124999999998, 0.94034375, 0.19725, 192.0, 0.0, 0.0, 0.0, 0.0, 0.0, 0.0, 0.0, 0.0, 0.0, 1.744742129557577E9, 0.0, 2025-04-15 13:35:29.557
106.0, -21488.36362223192, -7221.1333776871425, 29901.96256660969, -18456.438893847335, -59653.34143082398, 40499.95279311571, -29220.815506078663, 50766.3325388828, -8944.38581995795, -22592.875074490916, -10312.826670745215, 8228.459445054466, 3757.17178072593, 3156.6027589562846, 10735.900489795267, -187500.02235174447, -0.215890625, 0.9401718750000001, 0.198625, 192.0, 124.5, 40.0, 14.5, 48.0, 3.0, 32.0, 0.0, 0.0, 0.0, 1.7447421295666215E9, 0.0, 2025-04-15 13:35:29.566
108.0, -21504.903913128845, -7240.177063963064, 29913.652528959818, -18471.280452165658, -60189.53742856234, 40548.29961637254, -29216.412212420968, 50643.88968275663, -8958.82504687608, -22610.600007843972, -10315.195955657478, 8217.685904227008, 3756.970615025832, 3154.9934333555025, 10747.478693423116, -187500.02235174447, -0.215890625, 0.9401718750000001, 0.198625, 192.0, 0.0, 0.0, 0.0, 0.0, 0.0, 0.0, 0.0, 0.0, 0.0, 1.744742129573647E9, 0.0, 2025-04-15 13:35:29.573
110.0, -21495.15855254633, -7224.687305055536, 29886.942194335723, -18463.658507306398, -60996.97184526585, 40501.33860127194, -29237.042872553215, 50368.091507922596, -8969.352718514529, -22615.919723024337, -10321.700313293972, 8215.920116415038, 3734.6188705705254, 3142.6776221606283, 10734.60408861686, -187500.02235174447, -0.215890625, 0.9401718750000001, 0.198625, 192.0, 0.0, 0.0, 0.0, 0.0, 0.0, 0.0, 0.0, 0.0, 0.0, 1.7447421295816944E9, 0.0, 2025-04-15 13:35:29.581
112.0, -21494.197427534753, -7225.71548530048, 29914.948930138224, -18460.596318316024, -61545.77422687701, 40539.82830522398, -29213.662947852965, 50235.0092214357, -8955.427581718872, -22601.346385639477, -10309.51861256583, 8232.303945100779, 3748.0969724770753, 3151.104229820279, 10730.021981003521, -187500.02235174447, -0.215890625, 0.9401718750000001, 0.198625, 192.0, 0.0, 0.0, 0.0, 0.0, 0.0, 0.0, 0.0, 0.0, 0.0, 1.744742129589749E9, 0.0, 2025-04-15 13:35:29.589
114.0, -21491.515218200115, -7220.909860242589, 29891.47959846015, -18457.93646072584, -62288.43328814904, 40506.188929818745, -29232.21489575087, 50001.16527094427, -8958.646232920437, -22601.011109472645, -10302.768385740326, 8229.4429218105, 3747.69464107688, 3153.160590310167, 10745.847016077878, -187500.02235174447, -0.215890625, 0.9401718750000001, 0.198625, 192.0, 0.0, 0.0, 0.0, 0.0, 0.0, 0.0, 0.0, 0.0, 0.0, 1.744742129598799E9, 0.0, 2025-04-15 13:35:29.598
116.0, -21483.803866363036, -7219.613459064181, 29925.34249130994, -18453.93549846834, -62878.96637665825, 40536.453191811226, -29205.325747171137, 49846.44649582464, -8956.701631152824, -22600.89935075037, -10311.865545733637, 8233.287421856812, 3747.5828823546035, 3141.068296559846, 10717.594411086371, -187500.02235174447, -0.215890625, 0.9401718750000001, 0.198625, 192.0, 0.0, 0.0, 0.0, 0.0, 0.0, 0.0, 0.0, 0.0, 0.0, 1.744742129605811E9, 0.0, 2025-04-15 13:35:29.605
118.0, -21472.426828435284, -7209.286953125829, 29912.44553475923, -18451.432103089348, -63620.35138849633, 40507.03829610805, -29229.97972130534, 49599.2585538934, -8954.332346240562, -22595.24435940318, -10291.905437935047, 8244.01625919536, 3756.724745836824, 3154.3228810218434, 10746.361106200351, -187500.02235174447, -0.224, 0.9380000000000001, 0.20400000000000001, 192.0, 124.5, 0.0, 14.5, 40.0, 3.0, 48.0, 0.0, 0.0, 0.0, 1.7447421296138632E9, 0.0, 2025-04-15 13:35:29.613
120.0, -21474.416133691804, -7214.338447372729, 29947.11309040941, -18449.353390855, -64253.08457053716, 40541.39292733585, -29194.88748251051, 49414.521385970285, -8937.52383441017, -22576.111266149434, -10291.793679212771, 8266.055079228292, 3772.4380221889046, 3153.2947007768994, 10720.321323909919, -187500.02235174447, -0.224, 0.9380000000000001, 0.20400000000000001, 192.0, 0.0, 0.0, 0.0, 0.0, 0.0, 0.0, 0.0, 0.0, 0.0, 1.7447421296218963E9, 0.0, 2025-04-15 13:35:29.621
122.0, -21482.239244251163, -7220.328714886751, 29919.843962173938, -18458.74112352623, -64844.71289452469, 40538.64366276785, -29224.12356425805, 49256.69571837136, -8959.137971298453, -22601.771068784128, -10276.102754605146, 8253.761619777873, 3764.9278360519215, 3165.7222706940497, 10774.412545491761, -187500.02235174447, -0.224, 0.9380000000000001, 0.20400000000000001, 192.0, 0.0, 0.0, 0.0, 0.0, 0.0, 0.0, 0.0, 0.0, 0.0, 1.7447421296289587E9, 0.0, 2025-04-15 13:35:29.628
124.0, -21483.40153496284, -7225.134339944642, 29949.46002357722, -18457.265908392183, -65360.56880480872, 40575.90402077485, -29199.246072679292, 49132.30826047758, -8943.514101924195, -22591.3328041235, -10286.295150076765, 8258.276672157845, 3767.677100619924, 3154.7699159109493, 10738.202719474164, -187500.02235174447, -0.224, 0.9380000000000001, 0.20400000000000001, 192.0, 0.0, 0.0, 0.0, 0.0, 0.0, 0.0, 0.0, 0.0, 0.0, 1.7447421296379735E9, 0.0, 2025-04-15 13:35:29.637
126.0, -21492.163418789318, -7233.2256714374635, 29926.907113421814, -18464.99961197372, -65729.14907087674, 40593.94187855028, -29225.241151480815, 49085.25783839916, -8967.25165453573, -22607.1354874534, -10267.206760311934, 8255.706221545484, 3765.5760366411255, 3177.233419088533, 10814.221002366663, -187500.02235174447, -0.224, 0.9380000000000001, 0.20400000000000001, 192.0, 0.0, 0.0, 0.0, 0.0, 0.0, 0.0, 0.0, 0.0, 0.0, 1.7447421296460278E9, 0.0, 2025-04-15 13:35:29.646
128.0, -21502.15464856084, -7239.886491285145, 29951.605791044927, -18460.752780527208, -66097.43876426683, 40622.999146342176, -29194.574558088134, 49043.728297201196, -8966.82697139108, -22595.579635570008, -10290.430222800996, 8252.733439532929, 3758.1329057375083, 3167.9797968840357, 10766.589434932404, -187500.02235174447, -0.224, 0.9420000000000001, 0.202, 192.0, 124.5, 0.0, 14.5, 56.0, 3.0, 40.0, 0.0, 0.0, 0.0, 1.744742129653052E9, 0.0, 2025-04-15 13:35:29.653
130.0, -21521.06422437003, -7256.091506015242, 29934.797279214537, -18474.36499290049, -66251.91167019746, 40657.42083280335, -29216.099287998593, 49119.65717311588, -8988.217590834807, -22619.697167837283, -10269.307824290732, 8238.405971337077, 3764.7713738407347, 3189.593933772318, 10846.631031826859, -187500.02235174447, -0.224, 0.9420000000000001, 0.202, 192.0, 0.0, 0.0, 0.0, 0.0, 0.0, 0.0, 0.0, 0.0, 0.0, 1.7447421296610975E9, 0.0, 2025-04-15 13:35:29.661
132.0, -21526.853326183955, -7261.835904340256, 29948.945933454746, -18473.068591722084, -66542.37258939417, 40661.48885029422, -29191.512369097756, 49119.76893183815, -8994.096099626553, -22617.059661991556, -10305.1823741415, 8223.989096163405, 3749.5721876111256, 3167.465706761564, 10798.217153336664, -187500.02235174447, -0.224, 0.9420000000000001, 0.202, 192.0, 0.0, 0.0, 0.0, 0.0, 0.0, 0.0, 0.0, 0.0, 0.0, 1.7447421296701424E9, 0.0, 2025-04-15 13:35:29.670
134.0, -21534.251753598663, -7265.546293919837, 29938.194744371744, -18480.84699879253, -66608.17612507059, 40688.89208899642, -29205.571616360143, 49247.10682000004, -9000.801622963147, -22630.62717087593, -10277.354452294643, 8227.923003187538, 3762.3573854395613, 3192.209087873589, 10878.236398486662, -187500.02235174447, -0.224, 0.9420000000000001, 0.202, 192.0, 0.0, 0.0, 0.0, 0.0, 0.0, 0.0, 0.0, 0.0, 0.0, 1.7447421296782641E9, 0.0, 2025-04-15 13:35:29.678
136.0, -21521.175983092307, -7247.307270444307, 29950.26468637761, -18460.819835760576, -66934.66805632926, 40677.671513279856, -29185.186825416902, 49238.836674551574, -8990.743337958258, -22614.980949757213, -10300.980246183903, 8226.134863631114, 3753.595501613081, 3174.327692309343, 10822.401740837306, -187500.02235174447, -0.224, 0.9420000000000001, 0.202, 192.0, 0.0, 0.0, 0.0, 0.0, 0.0, 0.0, 0.0, 0.0, 0.0, 1.7447421296852367E9, 0.0, 2025-04-15 13:35:29.685
138.0, -21519.723119702714, -7247.039049510843, 29947.135442153867, -18458.629364803954, -67001.49977225062, 40711.48970264074, -29193.43461912091, 49369.19204821492, -8992.73264321478, -22612.321092167032, -10265.999766111347, 8246.430247596532, 3772.661539633458, 3209.4199311041752, 10887.937055580265, -187500.02235174447, -0.222, 0.9400000000000001, 0.196, 192.0, 124.5, 8.0, 14.5, 48.0, 3.0, 16.0, 0.0, 0.0, 0.0, 1.7447421296932554E9, 0.0, 2025-04-15 13:35:29.693
140.0, -21520.617189480923, -7246.592014621737, 29936.63012225987, -18460.66337354939, -67348.75647410828, 40682.566545315574, -29196.653270322477, 49360.98895799983, -8989.648102479947, -22606.71080430875, -10292.687748990984, 8234.002677679382, 3749.6392428444915, 3184.520087780963, 10821.686485014736, -187500.02235174447, -0.222, 0.9400000000000001, 0.196, 192.0, 0.0, 0.0, 0.0, 0.0, 0.0, 0.0, 0.0, 0.0, 0.0, 1.7447421297022727E9, 0.0, 2025-04-15 13:35:29.702
142.0, -21520.237209825184, -7246.390848921639, 29937.63595076036, -18466.02779221866, -67414.00121617332, 40709.94743227332, -29202.6435378365, 49491.0314072408, -8993.604361248537, -22615.740909068696, -10267.854960901137, 8241.579919049731, 3758.8705133045332, 3207.1847566586443, 10872.134372250364, -187500.02235174447, -0.222, 0.9400000000000001, 0.196, 192.0, 0.0, 0.0, 0.0, 0.0, 0.0, 0.0, 0.0, 0.0, 0.0, 1.744742129709348E9, 0.0, 2025-04-15 13:35:29.709
144.0, -21497.34902350295, -7221.7145230429805, 29943.156831640823, -18444.815986730577, -67788.72821196655, 40682.92417322686, -29184.985659716807, 49450.68650849897, -8982.763765187712, -22595.065545447535, -10285.155211109544, 8250.945299976504, 3741.5479113516703, 3196.746491998016, 10813.930429688744, -187500.02235174447, -0.222, 0.9400000000000001, 0.196, 192.0, 0.0, 0.0, 0.0, 0.0, 0.0, 0.0, 0.0, 0.0, 0.0, 1.744742129717354E9, 0.0, 2025-04-15 13:35:29.717
146.0, -21501.34998576045, -7223.86029051069, 29955.852622491435, -18452.46028333429, -67622.27477100787, 40760.46237474232, -29185.5891568171, 49699.30496207535, -8985.356567544528, -22607.984853742702, -10243.089228044657, 8265.764506550373, 3759.9881005272987, 3233.559815115907, 10895.737814395168, -187500.02235174447, -0.222, 0.9400000000000001, 0.196, 192.0, 0.0, 0.0, 0.0, 0.0, 0.0, 0.0, 0.0, 0.0, 0.0, 1.7447421297254543E9, 0.0, 2025-04-15 13:35:29.725
148.0, -21507.20614280774, -7230.498758613916, 29939.245276361144, -18459.590489815535, -67697.39898412216, 40753.60038919454, -29190.260671408258, 49804.78284415995, -8983.009634376722, -22599.848818760973, -10254.533321205774, 8258.2990239023, 3741.9949462407767, 3225.490835367541, 10868.021651270587, -187500.02235174447, -0.216, 0.9440000000000001, 0.194, 192.0, 124.5, 32.0, 14.5, 64.0, 3.0, 8.0, 0.0, 0.0, 0.0, 1.744742129734462E9, 0.0, 2025-04-15 13:35:29.734
150.0, -21515.409233022838, -7246.81553206629, 29948.074215420987, -18470.542844598633, -67317.15110744847, 40828.50108486427, -29182.079932937617, 50138.3826301554, -8996.264218838718, -22623.966351028248, -10242.508082688819, 8250.92294823205, 3750.779181811712, 3245.4509431661304, 10924.616268231424, -187500.02235174447, -0.216, 0.9440000000000001, 0.194, 192.0, 0.0, 0.0, 0.0, 0.0, 0.0, 0.0, 0.0, 0.0, 0.0, 1.7447421297415032E9, 0.0, 2025-04-15 13:35:29.741
152.0, -21528.77557620711, -7263.489933429949, 29915.463020260697, -18491.03939426415, -67175.0610679461, 40808.07159043212, -29209.192598961905, 50334.54153949518, -9012.871564969011, -22642.47359543724, -10271.207722569434, 8219.943430416994, 3727.5780710671033, 3227.748361557527, 10908.9253436238, -187500.02235174447, -0.216, 0.9440000000000001, 0.194, 192.0, 0.0, 0.0, 0.0, 0.0, 0.0, 0.0, 0.0, 0.0, 0.0, 1.7447421297495427E9, 0.0, 2025-04-15 13:35:29.749
154.0, -21531.6813029863, -7269.6143114107035, 29941.659264762315, -18496.515571655702, -66696.53257090242, 40866.85667834958, -29185.477398094823, 50699.21025028351, -9018.191280149375, -22657.53867120012, -10264.971585866402, 8212.500299513376, 3731.3778676245056, 3226.6754778236723, 10933.221689846718, -187500.02235174447, -0.216, 0.9440000000000001, 0.194, 192.0, 0.0, 0.0, 0.0, 0.0, 0.0, 0.0, 0.0, 0.0, 0.0, 1.7447421297576067E9, 0.0, 2025-04-15 13:35:29.757
156.0, -21525.53457326109, -7260.5171514173935, 29926.884761677356, -18495.04035652165, -66500.61953075166, 40833.95491051137, -29196.787380789207, 50895.36915962329, -9013.564469047125, -22663.461883480773, -10271.431240013986, 8209.259296567358, 3724.627640799003, 3215.656067807206, 10925.7785589431, -187500.02235174447, -0.216, 0.9440000000000001, 0.194, 192.0, 0.0, 0.0, 0.0, 0.0, 0.0, 0.0, 0.0, 0.0, 0.0, 1.744742129765618E9, 0.0, 2025-04-15 13:35:29.765
158.0, -21523.522916260114, -7259.15369500562, 29962.088759194467, -18490.90528379742, -66021.82281277452, 40886.92854487045, -29173.72038051133, 51225.236204294706, -9001.338064830074, -22657.784540389126, -10255.98618459537, 8218.736436216406, 3748.052268988165, 3226.9660505015913, 10945.671611508324, -187500.02235174447, -0.216, 0.9520000000000001, 0.196, 192.0, 124.5, 32.0, 14.5, 96.0, 3.0, 16.0, 0.0, 0.0, 0.0, 1.7447421297736545E9, 0.0, 2025-04-15 13:35:29.773
160.0, -21521.243038325672, -7257.4102589381055, 29944.45323281923, -18487.12783898447, -65775.03720224347, 40857.670111378444, -29191.78059003122, 51418.668200810935, -9014.078559169599, -22654.275316509644, -10257.595510196152, 8219.697561227986, 3732.9871932252877, 3228.9553557581135, 10956.31104186905, -187500.02235174447, -0.216, 0.9520000000000001, 0.196, 192.0, 0.0, 0.0, 0.0, 0.0, 0.0, 0.0, 0.0, 0.0, 0.0, 1.7447421297816975E9, 0.0, 2025-04-15 13:35:29.781
162.0, -21527.97091340672, -7265.479238686471, 29975.79037854557, -18486.99372851774, -65311.55142921823, 40905.59225149063, -29161.24810710527, 51711.83368108675, -9007.037759666176, -22643.39001695991, -10251.64994617104, 8235.120264902147, 3745.794742798179, 3236.1079139838116, 10955.484027324204, -187500.02235174447, -0.216, 0.9520000000000001, 0.196, 192.0, 0.0, 0.0, 0.0, 0.0, 0.0, 0.0, 0.0, 0.0, 0.0, 1.7447421297887876E9, 0.0, 2025-04-15 13:35:29.788
164.0, -21541.471367057726, -7273.369404479195, 29938.50766879412, -18498.683690867867, -65017.96126579777, 40881.78764364572, -29193.032287720718, 51904.39395956921, -9020.717027272824, -22658.455092722787, -10257.03671658477, 8222.379770562622, 3730.081466446098, 3235.683230839161, 10978.79689679109, -187500.02235174447, -0.216, 0.9520000000000001, 0.196, 192.0, 0.0, 0.0, 0.0, 0.0, 0.0, 0.0, 0.0, 0.0, 0.0, 1.7447421297967863E9, 0.0, 2025-04-15 13:35:29.796
166.0, -21547.439282827294, -7281.840715627756, 29956.746692269648, -18500.85181008003, -64624.07882500635, 40914.28708008374, -29174.01095318925, 52137.52265423807, -9021.11935867302, -22659.438569478818, -10271.453591758442, 8205.012465120848, 3736.205844426852, 3220.238175420544, 10954.768771501635, -187500.02235174447, -0.216, 0.9520000000000001, 0.196, 192.0, 0.0, 0.0, 0.0, 0.0, 0.0, 0.0, 0.0, 0.0, 0.0, 1.744742129805807E9, 0.0, 2025-04-15 13:35:29.805
168.0, -21549.22742238372, -7280.119631304698, 29926.437726788252, -18499.84598157954, -64394.70522340599, 40882.3464372571, -29201.548302358187, 52262.759478421154, -9038.777236792712, -22663.90891836988, -10272.437068514475, 8200.899744141072, 3726.7734082667125, 3227.2789749239655, 10973.343071143994, -187500.02235174447, -0.216, 0.9420000000000001, 0.2, 192.0, 124.5, 32.0, 14.5, 56.0, 3.0, 32.0, 0.0, 0.0, 0.0, 1.7447421298149009E9, 0.0, 2025-04-15 13:35:29.814
170.0, -21544.39944558137, -7276.878628358678, 29952.902192223337, -18496.403812933422, -64112.20152523536, 40905.94987940191, -29173.00512468876, 52409.65514298143, -9023.801568007657, -22642.76416811516, -10283.36707155312, 8212.410892535556, 3727.600422811559, 3227.077809223868, 10928.147843855364, -187500.02235174447, -0.216, 0.9420000000000001, 0.2, 192.0, 0.0, 0.0, 0.0, 0.0, 0.0, 0.0, 0.0, 0.0, 0.0, 1.744742129821883E9, 0.0, 2025-04-15 13:35:29.821
172.0, -21553.7871782526, -7285.5287534628815, 29925.54365701004, -18507.557333416622, -63809.02246344358, 40898.462045009386, -29202.68824132541, 52569.44776409242, -9035.536233846693, -22657.941002600313, -10267.676146945494, 8212.47794776892, 3727.399257111461, 3236.845521550837, 10974.50536185567, -187500.02235174447, -0.216, 0.9420000000000001, 0.2, 192.0, 0.0, 0.0, 0.0, 0.0, 0.0, 0.0, 0.0, 0.0, 0.0, 1.744742129828941E9, 0.0, 2025-04-15 13:35:29.828
174.0, -21544.086521159, -7282.041881327854, 29957.953686470235, -18492.983996031762, -63529.78211996343, 40917.01399290729, -29172.513386310744, 52711.023713472336, -9025.142672674976, -22644.52995592713, -10285.266969831822, 8218.512918771854, 3732.3836961249945, 3222.1827771881553, 10921.285858307583, -187500.02235174447, -0.216, 0.9420000000000001, 0.2, 192.0, 0.0, 0.0, 0.0, 0.0, 0.0, 0.0, 0.0, 0.0, 0.0, 1.7447421298379617E9, 0.0, 2025-04-15 13:35:29.837
176.0, -21548.914497961345, -7283.517096461904, 29941.659264762315, -18498.124897256483, -63176.82572326967, 40920.43380980895, -29191.847645264585, 52908.09904433478, -9029.389504121484, -22650.274354252142, -10250.59941418164, 8222.715046729452, 3750.98034751181, 3249.6307193792727, 10988.98929226271, -187500.02235174447, -0.216, 0.9420000000000001, 0.2, 192.0, 0.0, 0.0, 0.0, 0.0, 0.0, 0.0, 0.0, 0.0, 0.0, 1.7447421298450232E9, 0.0, 2025-04-15 13:35:29.845
178.0, -21532.754186720158, -7270.82130561129, 29964.703913295736, -18485.94319652834, -63032.12052966601, 40904.89934741251, -29161.806900716652, 52994.53324014345, -9023.868623241022, -22636.975066301235, -10276.616844727618, 8219.272878083335, 3734.104780448053, 3222.585108588351, 10929.06426537803, -187500.02235174447, -0.219, 0.9450000000000001, 0.202, 192.0, 124.5, 8.0, 14.5, 80.0, 3.0, 48.0, 0.0, 0.0, 0.0, 1.7447421298530507E9, 0.0, 2025-04-15 13:35:29.853
180.0, -21548.534518305605, -7281.7066051610245, 29939.379386827874, -18491.28526345316, -62774.38256435187, 40905.502844512805, -29183.57749981612, 53155.33168975493, -9028.562489576638, -22648.62032516245, -10250.532358948274, 8220.681037984019, 3752.992004512788, 3243.2828239539654, 10993.16906847585, -187500.02235174447, -0.219, 0.9450000000000001, 0.202, 192.0, 0.0, 0.0, 0.0, 0.0, 0.0, 0.0, 0.0, 0.0, 0.0, 1.7447421298611505E9, 0.0, 2025-04-15 13:35:29.861
182.0, -21531.50248903066, -7267.356785220717, 29966.112073196422, -18463.457341606303, -62777.80238125353, 40884.76042565828, -29151.6815604784, 53168.027480605546, -9019.197108649863, -22628.14612724139, -10283.255312830845, 8224.592593263698, 3744.0066032417544, 3223.5685853443847, 10926.78438744359, -187500.02235174447, -0.219, 0.9450000000000001, 0.202, 192.0, 0.0, 0.0, 0.0, 0.0, 0.0, 0.0, 0.0, 0.0, 0.0, 1.7447421298701243E9, 0.0, 2025-04-15 13:35:29.870
184.0, -21535.659913499345, -7265.993328808943, 29958.93716322627, -18464.284356151147, -62573.6191956543, 40901.36777178857, -29163.4832815508, 53294.65011294486, -9019.666495283425, -22630.51541215365, -10247.60428042463, 8234.472064312944, 3756.233007458807, 3255.464524682108, 10996.99121677771, -187500.02235174447, -0.219, 0.9450000000000001, 0.202, 192.0, 0.0, 0.0, 0.0, 0.0, 0.0, 0.0, 0.0, 0.0, 0.0, 1.7447421298772469E9, 0.0, 2025-04-15 13:35:29.877
186.0, -21521.31009355904, -7250.883549557156, 29973.868128522412, -18437.574021527056, -62666.73656305511, 40875.64091392051, -29136.325912037602, 53254.841656069955, -9002.075672397099, -22613.2375136897, -10271.185370824978, 8233.555642790276, 3745.7500393092682, 3237.3372599288537, 10925.398579287361, -187500.02235174447, -0.219, 0.9450000000000001, 0.202, 192.0, 0.0, 0.0, 0.0, 0.0, 0.0, 0.0, 0.0, 0.0, 0.0, 1.7447421298852408E9, 0.0, 2025-04-15 13:35:29.885
188.0, -21523.8805441714, -7245.876758799167, 29978.65140183585, -18440.658562261888, -62458.79828438739, 40910.733152715344, -29147.680598220897, 53383.274779710155, -8999.30405608464, -22607.58252234251, -10233.254460484322, 8254.186302922524, 3769.889923321, 3275.7375569030714, 10994.040786509608, -187500.02235174447, -0.2175, 0.9465000000000001, 0.20700000000000002, 192.0, 124.5, 32.0, 14.5, 80.0, 3.0, 80.0, 0.0, 0.0, 0.0, 1.7447421298932552E9, 0.0, 2025-04-15 13:35:29.893
190.0, -21516.7279859457, -7238.143055217631, 29990.386067674885, -18427.381626055434, -62544.13724471775, 40886.973248359354, -29128.078118333593, 53347.266119392654, -8993.403195548439, -22599.96057748325, -10255.0697630727, 8252.420515110554, 3751.136809722997, 3253.005832792024, 10940.888338194889, -187500.02235174447, -0.2175, 0.9465000000000001, 0.20700000000000002, 192.0, 0.0, 0.0, 0.0, 0.0, 0.0, 0.0, 0.0, 0.0, 0.0, 1.744742129901298E9, 0.0, 2025-04-15 13:35:29.901
192.0, -21516.68328245679, -7237.6289650951585, 30001.584291646996, -18422.732463208733, -62318.69755014152, 40931.296757614225, -29118.265702517714, 53472.905274975936, -8990.855096680534, -22597.85951350445, -10221.296277200732, 8266.502114117398, 3775.120231523542, 3289.0591965984345, 11008.681179127834, -187500.02235174447, -0.2175, 0.9465000000000001, 0.20700000000000002, 192.0, 0.0, 0.0, 0.0, 0.0, 0.0, 0.0, 0.0, 0.0, 0.0, 1.744742129909331E9, 0.0, 2025-04-15 13:35:29.909
194.0, -21516.30330280105, -7237.6289650951585, 29982.51825362662, -18420.229067829736, -62401.7789842819, 40902.3065450557, -29125.418260743412, 53434.795550679635, -8989.759861202225, -22588.22591164421, -10242.105751288624, 8258.142561691113, 3761.5974261280808, 3274.4411557246635, 10962.100143682974, -187500.02235174447, -0.2175, 0.9465000000000001, 0.20700000000000002, 192.0, 0.0, 0.0, 0.0, 0.0, 0.0, 0.0, 0.0, 0.0, 0.0, 1.7447421299173915E9, 0.0, 2025-04-15 13:35:29.917
196.0, -21522.31592205953, -7240.557043618804, 29996.152817744354, -18419.469108518257, -62159.39666740855, 40956.397766637536, -29112.47660070379, 53558.15482832847, -8980.640349464458, -22587.488304077186, -10215.39541666453, 8274.369928165666, 3787.1231182960414, 3304.8171764394256, 11008.100033771996, -187500.02235174447, -0.2175, 0.9465000000000001, 0.20700000000000002, 192.0, 0.0, 0.0, 0.0, 0.0, 0.0, 0.0, 0.0, 0.0, 0.0, 1.7447421299253972E9, 0.0, 2025-04-15 13:35:29.925
198.0, -21513.866962655422, -7236.62313659467, 29987.83796880698, -18407.734442679222, -62230.139938609595, 40930.98383319186, -29112.61071117052, 53526.41535120194, -8992.576181003593, -22588.717650022227, -10241.859882099616, 8255.81798026776, 3759.0046237712654, 3282.8230598954037, 10969.342108886494, -187500.02235174447, -0.20975, 0.94825, 0.21250000000000002, 192.0, 124.5, 88.0, 14.5, 88.0, 3.0, 104.0, 0.0, 0.0, 0.0, 1.744742129932452E9, 0.0, 2025-04-15 13:35:29.932
200.0, -21511.92236088781, -7239.5065116294045, 30005.540550415582, -18403.621721699445, -61968.31160406013, 40976.53668839177, -29102.217149998804, 53667.81248662621, -8988.217590834807, -22582.302699363554, -10216.244782953832, 8275.39810841061, 3778.9647315698544, 3307.5664410074287, 11009.888173328422, -187500.02235174447, -0.20975, 0.94825, 0.21250000000000002, 192.0, 0.0, 0.0, 0.0, 0.0, 0.0, 0.0, 0.0, 0.0, 0.0, 1.744742129941491E9, 0.0, 2025-04-15 13:35:29.941
202.0, -21489.414154221315, -7218.719389285969, 29997.382163689395, -18381.761715622153, -62067.03925931922, 40931.83319948116, -29093.410562683413, 53592.97884618984, -8977.309939540619, -22572.579690525497, -10228.918222059992, 8277.052137500303, 3770.3593099545615, 3297.754025191549, 10990.375100418938, -187500.02235174447, -0.20975, 0.94825, 0.21250000000000002, 192.0, 0.0, 0.0, 0.0, 0.0, 0.0, 0.0, 0.0, 0.0, 0.0, 1.7447421299495337E9, 0.0, 2025-04-15 13:35:29.949
204.0, -21497.550189203048, -7233.873872026667, 30013.475419697217, -18384.19805576778, -61827.62972445843, 40984.13628150657, -29078.121969475982, 53727.82692048871, -8977.220532562797, -22569.33868757948, -10214.099015486123, 8287.244532971923, 3796.622609689547, 3315.367199822331, 11027.478996214748, -187500.02235174447, -0.20975, 0.94825, 0.21250000000000002, 192.0, 0.0, 0.0, 0.0, 0.0, 0.0, 0.0, 0.0, 0.0, 0.0, 1.744742129956567E9, 0.0, 2025-04-15 13:35:29.956
206.0, -21495.35971824643, -7234.119741215675, 29997.69508811177, -18374.698564374277, -61887.89002750994, 40944.84191475414, -29090.750705093233, 53699.619018986115, -8982.272026809696, -22569.718667235218, -10228.828815082172, 8281.92481779156, 3784.7761851282344, 3310.0474846419675, 11019.208850766285, -187500.02235174447, -0.20975, 0.94825, 0.21250000000000002, 192.0, 0.0, 0.0, 0.0, 0.0, 0.0, 0.0, 0.0, 0.0, 0.0, 1.7447421299646428E9, 0.0, 2025-04-15 13:35:29.964
208.0, -21504.456878239736, -7245.832055310257, 30020.56092268955, -18380.6888318883, -61665.19959750171, 40988.60663039763, -29085.31923119059, 53843.13957013364, -8984.931884399877, -22574.770161482116, -10227.130082503567, 8282.26009395839, 3792.331074754128, 3315.411903311241, 11023.7015514018, -187500.02235174447, -0.199875, 0.949125, 0.22025, 192.0, 125.0, 8.0, 14.5, 88.0, 3.5, 16.0, 0.0, 0.0, 0.0, 1.7447421299736433E9, 0.0, 2025-04-15 13:35:29.973
210.0, -21492.96808158971, -7228.844729524223, 30007.149876016367, -18373.513921918147, -61685.38322274485, 40949.692243300946, -29108.542693679658, 53845.017116667885, -8992.01738739221, -22575.932452193792, -10227.174785992478, 8283.534143392342, 3780.1493740259857, 3314.8754614443137, 11025.959077591788, -187500.02235174447, -0.199875, 0.949125, 0.22025, 192.0, 0.0, 0.0, 0.0, 0.0, 0.0, 0.0, 0.0, 0.0, 0.0, 1.74474212998073E9, 0.0, 2025-04-15 13:35:29.980
212.0, -21484.83204660798, -7224.329677144251, 30036.36360601945, -18367.389543937392, -61526.439967923165, 40987.60080189715, -29081.251213699725, 53950.74086794149, -8970.11267782601, -22562.208481098234, -10215.976562020369, 8299.247419744423, 3797.7849004012232, 3328.353563350864, 11017.688932143323, -187500.02235174447, -0.199875, 0.949125, 0.22025, 192.0, 0.0, 0.0, 0.0, 0.0, 0.0, 0.0, 0.0, 0.0, 0.0, 1.744742129988731E9, 0.0, 2025-04-15 13:35:29.988
214.0, -21486.77664837559, -7221.960392231988, 30009.04977429507, -18374.11741901844, -61529.18923249117, 40951.502734601825, -29108.654452401934, 53942.3813155152, -8975.208875561819, -22556.59819323995, -10207.862878783093, 8301.817870356783, 3798.4778044793375, 3334.165016909244, 11044.086342345041, -187500.02235174447, -0.199875, 0.949125, 0.22025, 192.0, 0.0, 0.0, 0.0, 0.0, 0.0, 0.0, 0.0, 0.0, 0.0, 1.7447421299967926E9, 0.0, 2025-04-15 13:35:29.996
216.0, -21487.804828620534, -7225.670781811569, 30036.408309508362, -18372.038706784097, -61419.64333291571, 40970.92640053349, -29084.916899790398, 53974.97015893104, -8976.594683718049, -22554.161853094323, -10224.581983635662, 8299.560344166797, 3794.8568218775777, 3318.272926601521, 11013.598562908002, -187500.02235174447, -0.199875, 0.949125, 0.22025, 192.0, 0.0, 0.0, 0.0, 0.0, 0.0, 0.0, 0.0, 0.0, 0.0, 1.7447421300058243E9, 0.0, 2025-04-15 13:35:30.005
218.0, -21485.323784985994, -7215.634848551136, 30022.282007012607, -18367.009564281652, -61410.83674560032, 40949.20050492293, -29095.466923173302, 53939.900271880666, -8974.672433694892, -22551.61375422642, -10207.818175294182, 8312.032617572859, 3807.8878888950217, 3337.0260401995233, 11056.446857028826, -187500.02235174447, -0.1969375, 0.9445625, 0.230125, 192.0, 124.5, 120.0, 14.5, 48.0, 3.5, 64.0, 0.0, 0.0, 0.0, 1.744742130012858E9, 0.0, 2025-04-15 13:35:30.012
220.0, -21496.186732791273, -7219.322886386262, 30037.79411766459, -18367.367192192938, -61344.049733167856, 40977.40840642553, -29077.69728633133, 53938.35800151325, -8955.114657296499, -22534.715835418207, -10213.607277108107, 8325.108388079214, 3820.740141956823, 3339.194159411688, 11020.32643798905, -187500.02235174447, -0.1969375, 0.9445625, 0.230125, 192.0, 0.0, 0.0, 0.0, 0.0, 0.0, 0.0, 0.0, 0.0, 0.0, 1.7447421300209024E9, 0.0, 2025-04-15 13:35:30.020
222.0, -21499.293625270562, -7220.082845697742, 30003.350079458964, -18375.413820196845, -61285.19759001704, 40953.20146718043, -29105.502856433734, 53910.887707577676, -8967.072840580087, -22544.88587914537, -10199.480974612354, 8319.095768820736, 3817.521490755259, 3355.153304952777, 11064.694650732834, -187500.02235174447, -0.1969375, 0.9445625, 0.230125, 192.0, 0.0, 0.0, 0.0, 0.0, 0.0, 0.0, 0.0, 0.0, 0.0, 1.7447421300299644E9, 0.0, 2025-04-15 13:35:30.029
224.0, -21500.791192149067, -7220.507528842393, 30020.89619885638, -18372.798666095576, -61281.30838648181, 40959.57171435019, -29079.15014972093, 53839.563291020786, -8948.878520593467, -22528.45734697072, -10212.802614307717, 8328.103521836225, 3822.4835780243375, 3338.7247727781264, 11005.551934904091, -187500.02235174447, -0.1969375, 0.9445625, 0.230125, 192.0, 0.0, 0.0, 0.0, 0.0, 0.0, 0.0, 0.0, 0.0, 0.0, 1.7447421300369663E9, 0.0, 2025-04-15 13:35:30.036
226.0, -21510.558904476038, -7230.454055125005, 29989.626108363405, -18383.54985517858, -61173.95295786297, 40955.05666197022, -29116.432859472377, 53826.5545757478, -8962.803657389124, -22546.048169857047, -10192.149602431013, 8321.129777566168, 3820.449569278904, 3354.102772963378, 11060.134894863952, -187500.02235174447, -0.1969375, 0.9445625, 0.230125, 192.0, 0.0, 0.0, 0.0, 0.0, 0.0, 0.0, 0.0, 0.0, 0.0, 1.7447421300450134E9, 0.0, 2025-04-15 13:35:30.045
228.0, -21511.050642854054, -7235.729066816458, 29994.521140399116, -18384.756849379166, -61206.58650476772, 40947.591179322146, -29097.702097618832, 53746.89295850909, -8963.273044022686, -22534.581724951473, -10227.085379014658, 8305.371797725176, 3808.066702850664, 3331.1475314077775, 10987.290559684106, -187500.02235174447, -0.19546875, 0.93628125, 0.2400625, 192.0, 124.5, 120.0, 14.5, 0.0, 3.5, 104.0, 0.0, 0.0, 0.0, 1.7447421300530446E9, 0.0, 2025-04-15 13:35:30.053
230.0, -21539.92909669031, -7260.315985717295, 29964.569802829006, -18409.991968869206, -61052.27006104828, 40952.30739740222, -29136.035339359685, 53798.12315680065, -8988.217590834807, -22561.47087353121, -10217.83175681016, 8289.658521373096, 3811.4865197523263, 3344.871502503336, 11045.159226078895, -187500.02235174447, -0.19546875, 0.93628125, 0.2400625, 192.0, 0.0, 0.0, 0.0, 0.0, 0.0, 0.0, 0.0, 0.0, 0.0, 1.744742130062117E9, 0.0, 2025-04-15 13:35:30.062
232.0, -21548.60157353897, -7274.039956812854, 29958.82540450399, -18420.206716085282, -61097.59939880364, 40934.157780904505, -29130.559161968133, 53756.39244990259, -8995.414852549417, -22564.84598694396, -10260.165960808512, 8272.268864186868, 3792.018150331754, 3310.5615747644397, 10970.191475175796, -187500.02235174447, -0.19546875, 0.93628125, 0.2400625, 192.0, 0.0, 0.0, 0.0, 0.0, 0.0, 0.0, 0.0, 0.0, 0.0, 1.7447421300681312E9, 0.0, 2025-04-15 13:35:30.068
234.0, -21548.60157353897, -7270.463677700005, 29950.756424755626, -18421.011378885672, -60943.93115567341, 40949.44637411194, -29139.14223183897, 53831.33784906124, -9005.093157898566, -22576.603004527453, -10235.780207607771, 8278.214428211979, 3798.4331009904267, 3331.32634536342, 11023.746254890711, -187500.02235174447, -0.19546875, 0.93628125, 0.2400625, 192.0, 0.0, 0.0, 0.0, 0.0, 0.0, 0.0, 0.0, 0.0, 0.0, 1.7447421300772426E9, 0.0, 2025-04-15 13:35:30.077
236.0, -21548.668628772335, -7273.101183545731, 29948.811822988013, -18418.798556184596, -61052.94061338194, 40916.969289418375, -29131.408528257434, 53784.8462205942, -8994.453727537839, -22562.543757265063, -10255.382687495076, 8278.370890423166, 3782.65276940498, 3309.198118352666, 10963.396544861382, -187500.02235174447, -0.19546875, 0.93628125, 0.2400625, 192.0, 0.0, 0.0, 0.0, 0.0, 0.0, 0.0, 0.0, 0.0, 0.0, 1.7447421300852575E9, 0.0, 2025-04-15 13:35:30.085
238.0, -21556.514091076147, -7278.465602215005, 29939.848773461435, -18424.721768465253, -60859.441561632346, 40941.53385657476, -29140.416281272923, 53903.891611563165, -9009.697617256357, -22583.46499007523, -10232.561556406208, 8278.3038351898, 3787.234877018318, 3322.4303510702075, 11025.690856658322, -187500.02235174447, -0.19546875, 0.93628125, 0.2400625, 192.0, 0.0, 0.0, 0.0, 0.0, 0.0, 0.0, 0.0, 0.0, 0.0, 1.7447421300942712E9, 0.0, 2025-04-15 13:35:30.094
240.0, -21552.088445674, -7269.167276521597, 29934.35024432543, -18420.765509696666, -60980.7444787913, 40897.47856825335, -29146.607714487043, 53841.77611372186, -9001.293361341162, -22564.644821243863, -10258.847207885648, 8279.913160790582, 3773.9355890674105, 3300.0786066149008, 10953.517073812136, -187500.02235174447, -0.198, 0.912, 0.26, 192.0, 124.5, 104.0, 14.0, 64.0, 4.0, 16.0, 0.0, 0.0, 0.0, 1.744742130101298E9, 0.0, 2025-04-15 13:35:30.101
242.0, -21564.672477802334, -7281.617198183203, 29928.49408727814, -18433.37189356946, -60750.18623473481, 40934.314243115696, -29156.107205880548, 53975.41719382015, -9015.062035925632, -22577.76529523913, -10241.88223384407, 8279.466125901476, 3785.580847928625, 3320.3739905803195, 11000.299274957095, -187500.02235174447, -0.198, 0.912, 0.26, 192.0, 0.0, 0.0, 0.0, 0.0, 0.0, 0.0, 0.0, 0.0, 0.0, 1.7447421301093352E9, 0.0, 2025-04-15 13:35:30.109
244.0, -21571.243890672195, -7288.926218620089, 29903.057802088002, -18445.64300127542, -60830.09372116253, 40882.9499343574, -29181.49878758178, 53932.85947237724, -9021.856966240044, -22577.34061209448, -10278.360280795132, 8267.26207342888, 3761.9550540393657, 3288.299237286954, 10934.562794514037, -187500.02235174447, -0.198, 0.912, 0.26, 192.0, 0.0, 0.0, 0.0, 0.0, 0.0, 0.0, 0.0, 0.0, 0.0, 1.744742130117393E9, 0.0, 2025-04-15 13:35:30.117
246.0, -21584.56553036756, -7300.839698414768, 29900.509703220097, -18458.495254337224, -60565.60552902288, 40920.254995853305, -29198.083781967616, 54089.3663870533, -9038.106684459053, -22603.201580429268, -10276.058051116235, 8255.125076189646, 3767.3194727086393, 3292.1437373332665, 10955.796951746577, -187500.02235174447, -0.198, 0.912, 0.26, 192.0, 0.0, 0.0, 0.0, 0.0, 0.0, 0.0, 0.0, 0.0, 0.0, 1.7447421301244075E9, 0.0, 2025-04-15 13:35:30.124
248.0, -21576.541254108102, -7290.289675031862, 29881.287202988533, -18454.06960893507, -60646.7647131401, 40869.51653593976, -29238.048701053704, 54049.289709244935, -9036.251489669263, -22587.80122849956, -10297.56042928224, 8252.711087788473, 3744.3865828974945, 3277.548048203951, 10901.504564464638, -187500.02235174447, -0.198, 0.912, 0.26, 192.0, 0.0, 0.0, 0.0, 0.0, 0.0, 0.0, 0.0, 0.0, 0.0, 1.744742130133464E9, 0.0, 2025-04-15 13:35:30.133
250.0, -21586.487780390715, -7302.6054862267365, 29897.1569415518, -18461.244518905227, -60373.849913340804, 40919.204463863905, -29166.277249607712, 54229.22125211016, -9043.828731039612, -22604.989719985693, -10284.439955286975, 8253.694564544507, 3752.6120248570473, 3279.6938156716606, 10936.283878837095, -187500.02235174447, -0.196, 0.912, 0.274, 192.0, 124.5, 112.0, 14.0, 64.0, 4.0, 72.0, 0.0, 0.0, 0.0, 1.7447421301414988E9, 0.0, 2025-04-15 13:35:30.141
