%OpenBCI Raw EXG Data
%Number of channels = 8
%Sample Rate = 250 Hz
%Board = OpenBCI_GUI$BoardCytonSerial
Sample Index, EXG Channel 0, EXG Channel 1, EXG Channel 2, EXG Channel 3, EXG Channel 4, EXG Channel 5, EXG Channel 6, EXG Channel 7, Accel Channel 0, Accel Channel 1, Accel Channel 2, Not Used, Digital Channel 0 (D11), Digital Channel 1 (D12), Digital Channel 2 (D13), Digital Channel 3 (D17), Not Used, Digital Channel 4 (D18), Analog Channel 0, Analog Channel 1, Analog Channel 2, Timestamp, Marker Channel, Timestamp (Formatted)
71.0, -10048.472589072298, 1049.0344225209265, -25526.38507203878, -9754.055411106994, -133793.3401815105, -17165.648003297807, -27161.683399877955, -34627.456620628436, 0.0, 0.0, 0.0, 192.0, 0.0, 0.0, 0.0, 0.0, 0.0, 0.0, 0.0, 0.0, 0.0, 1.741026571457806E9, 0.0, 2025-03-03 12:29:31.457
72.0, -10083.363662167032, 1021.2959076518903, -25560.650296288764, -9781.369242831379, -133821.45867603525, -17176.287433658534, -27188.19256880195, -34647.1261557491, 0.0, 0.0, 0.0, 192.0, 0.0, 0.0, 0.0, 0.0, 0.0, 0.0, 0.0, 0.0, 0.0, 1.741026571457859E9, 0.0, 2025-03-03 12:29:31.457
73.0, -10065.459914858331, 1072.0343675654374, -25561.946697467174, -9806.537307088054, -133780.1750040263, -17179.193160437724, -27183.7669233998, -34650.70243486195, 0.0, 0.0, 0.0, 192.0, 0.0, 0.0, 0.0, 0.0, 0.0, 0.0, 0.0, 0.0, 0.0, 1.741026571457897E9, 0.0, 2025-03-03 12:29:31.457
74.0, -10004.529059473165, 1128.0701909148922, -25547.641581015778, -9763.97958564515, -133721.3675643644, -17163.837511996928, -27172.032257560764, -34645.6285888706, -0.202, 0.9500000000000001, -0.138, 192.0, 249.0, 176.0, 29.0, 176.0, 251.0, 176.0, 0.0, 0.0, 0.0, 1.741026571457956E9, 0.0, 2025-03-03 12:29:31.457
75.0, -10084.101269734057, 1062.624283149753, -25575.290688906993, -9772.853228193908, -133744.03223324206, -17179.64019532683, -27188.885472880065, -34661.990065811886, -0.202, 0.9500000000000001, -0.138, 192.0, 0.0, 0.0, 0.0, 0.0, 0.0, 0.0, 0.0, 0.0, 0.0, 1.741026571458E9, 0.0, 2025-03-03 12:29:31.458
76.0, -10069.080897460091, 1027.2638234214573, -25574.73189529561, -9788.6112080349, -133762.22655322868, -17198.303901947012, -27196.395659017046, -34661.207754755946, -0.202, 0.9500000000000001, -0.138, 192.0, 0.0, 0.0, 0.0, 0.0, 0.0, 0.0, 0.0, 0.0, 0.0, 1.741026571458038E9, 0.0, 2025-03-03 12:29:31.458
77.0, -10030.613545252509, 1085.1324898162472, -25564.315982379438, -9753.36250702888, -133721.54637832002, -17161.11059917338, -27192.171179314995, -34648.51196390533, -0.202, 0.9500000000000001, -0.138, 192.0, 0.0, 0.0, 0.0, 0.0, 0.0, 0.0, 0.0, 0.0, 0.0, 1.741026571458076E9, 0.0, 2025-03-03 12:29:31.458
78.0, -9995.78952739114, 1158.490915118565, -25545.227592614603, -9749.808579660485, -133642.801182604, -17156.50613981559, -27177.28491750776, -34640.06300450123, -0.202, 0.9500000000000001, -0.138, 192.0, 0.0, 0.0, 0.0, 0.0, 0.0, 0.0, 0.0, 0.0, 0.0, 1.74102657145813E9, 0.0, 2025-03-03 12:29:31.458
79.0, -10123.462691719853, 1077.3093792568898, -25586.757133812564, -9777.904722440806, -133655.0946420544, -17178.902587759803, -27188.52784496878, -34655.396301197565, -0.202, 0.9500000000000001, -0.138, 192.0, 0.0, 0.0, 0.0, 0.0, 0.0, 0.0, 0.0, 0.0, 0.0, 1.741026571458176E9, 0.0, 2025-03-03 12:29:31.458
80.0, -10092.416118671432, 1032.6058903462756, -25554.86119447484, -9770.774515959563, -133677.46873825416, -17170.096000444413, -27183.409295488513, -34652.33411220719, -0.202, 0.9500000000000001, -0.138, 192.0, 0.0, 0.0, 0.0, 0.0, 0.0, 0.0, 0.0, 0.0, 0.0, 1.741026571458215E9, 0.0, 2025-03-03 12:29:31.458
81.0, -10043.868129714505, 1059.1597627591805, -25551.709598506644, -9785.638426022342, -133672.64076145182, -17201.768422337584, -27188.125513568582, -34669.96963858243, -0.202, 0.9500000000000001, -0.138, 192.0, 0.0, 0.0, 0.0, 0.0, 0.0, 0.0, 0.0, 0.0, 0.0, 1.741026571458253E9, 0.0, 2025-03-03 12:29:31.458
82.0, -10051.98181295178, 1119.7776937219733, -25558.862156732343, -9778.463516052188, -133618.14720846977, -17168.3525643769, -27185.175083300484, -34663.46528094593, -0.202, 0.9500000000000001, -0.138, 192.0, 0.0, 0.0, 0.0, 0.0, 0.0, 0.0, 0.0, 0.0, 0.0, 1.741026571458292E9, 0.0, 2025-03-03 12:29:31.458
83.0, -10074.266502173723, 1087.2112020505908, -25545.96520018163, -9783.112678898893, -133601.3834001283, -17173.001727223604, -27178.38015298607, -34649.316626705724, -0.202, 0.9500000000000001, -0.138, 192.0, 0.0, 0.0, 0.0, 0.0, 0.0, 0.0, 0.0, 0.0, 0.0, 1.741026571458337E9, 0.0, 2025-03-03 12:29:31.458
84.0, -10200.196230434924, 1003.6603812766531, -25589.34993616938, -9817.713179315708, -133649.28318849602, -17198.41566066929, -27204.57639748769, -34667.28742924779, -0.198, 0.9540000000000001, -0.138, 192.0, 249.0, 208.0, 29.0, 208.0, 251.0, 176.0, 0.0, 0.0, 0.0, 1.741026571458376E9, 0.0, 2025-03-03 12:29:31.458
85.0, -10069.594987582563, 1029.2531286779797, -25557.208127642647, -9815.120376958892, -133636.20741798967, -17214.911248077304, -27197.75911542882, -34667.28742924779, -0.198, 0.9540000000000001, -0.138, 192.0, 0.0, 0.0, 0.0, 0.0, 0.0, 0.0, 0.0, 0.0, 0.0, 1.741026571458432E9, 0.0, 2025-03-03 12:29:31.458
86.0, -9881.750927180163, 1139.2907666314563, -25510.537685219966, -9735.458759720179, -133522.8617218568, -17142.759816975573, -27177.486083207856, -34642.45464115794, -0.198, 0.9540000000000001, -0.138, 192.0, 0.0, 0.0, 0.0, 0.0, 0.0, 0.0, 0.0, 0.0, 0.0, 1.741026571458485E9, 0.0, 2025-03-03 12:29:31.458
87.0, -9996.16950704688, 1089.8934113852276, -25548.96033393864, -9775.423678806268, -133509.0036402945, -17191.151343721314, -27197.15561832853, -34662.124176278616, -0.198, 0.9540000000000001, -0.138, 192.0, 0.0, 0.0, 0.0, 0.0, 0.0, 0.0, 0.0, 0.0, 0.0, 1.741026571458532E9, 0.0, 2025-03-03 12:29:31.458
88.0, -10113.76203462625, 1007.0354946894043, -25570.708581293653, -9780.721042242176, -133553.3718530383, -17188.178561708755, -27193.84756014914, -34659.464318688435, -0.198, 0.9540000000000001, -0.138, 192.0, 0.0, 0.0, 0.0, 0.0, 0.0, 0.0, 0.0, 0.0, 0.0, 1.741026571458571E9, 0.0, 2025-03-03 12:29:31.458
89.0, -10081.553170866153, 1010.2764976354239, -25542.277162346505, -9791.338120858445, -133563.16191710974, -17197.4098321688, -27188.259624035316, -34664.29229549078, -0.198, 0.9540000000000001, -0.138, 192.0, 0.0, 0.0, 0.0, 0.0, 0.0, 0.0, 0.0, 0.0, 0.0, 1.741026571458615E9, 0.0, 2025-03-03 12:29:31.458
0.0, 0.0, 0.0, 0.0, 0.0, 0.0, 0.0, 0.0, 0.0, -0.198, 0.9540000000000001, -0.138, 192.0, 0.0, 0.0, 0.0, 0.0, 0.0, 0.0, 0.0, 0.0, 0.0, 1.741026571548186E9, 0.0, 2025-03-03 12:29:31.548
1.0, -9675.332567135401, 1598.216783787821, -25582.35384015487, -10363.967462058958, -166095.74599215342, -17010.482193289066, -27692.000888824572, -34776.72157010098, -0.074, 0.966, -0.14, 192.0, 253.0, 176.0, 30.0, 48.0, 251.0, 160.0, 0.0, 0.0, 0.0, 1.741026571607376E9, 0.0, 2025-03-03 12:29:31.607
2.0, -9615.42989199518, 1682.7957848067028, -25579.023430231027, -10363.408668447575, -166056.87630854564, -16994.634806470254, -27697.09708656038, -34783.78472134885, -0.074, 0.966, -0.14, 192.0, 0.0, 0.0, 0.0, 0.0, 0.0, 0.0, 0.0, 0.0, 0.0, 1.741026571607433E9, 0.0, 2025-03-03 12:29:31.607
3.0, -9614.71463617261, 1708.8355670971355, -25579.381058142313, -10369.756563872883, -166037.45264261396, -17004.78249845296, -27695.890092359794, -34789.79734060733, -0.074, 0.966, -0.14, 192.0, 0.0, 0.0, 0.0, 0.0, 0.0, 0.0, 0.0, 0.0, 0.0, 1.741026571607516E9, 0.0, 2025-03-03 12:29:31.607
4.0, -9683.803878283963, 1627.341106813086, -25587.852369290875, -10369.600101661696, -166084.9948030704, -17007.50941127651, -27702.126229062826, -34795.76525637689, -0.074, 0.966, -0.14, 192.0, 0.0, 0.0, 0.0, 0.0, 0.0, 0.0, 0.0, 0.0, 0.0, 1.741026571607562E9, 0.0, 2025-03-03 12:29:31.607
5.0, -9686.150811451771, 1608.7444554262706, -25588.366459413348, -10374.830409864237, -166111.28045454985, -17010.50454503352, -27701.858008129362, -34791.07139004128, -0.074, 0.966, -0.14, 192.0, 0.0, 0.0, 0.0, 0.0, 0.0, 0.0, 0.0, 0.0, 0.0, 1.7410265716076E9, 0.0, 2025-03-03 12:29:31.607
6.0, -9641.112046374326, 1665.629645065027, -25582.622061088332, -10374.316319741765, -166107.2571405479, -17008.537591521454, -27702.707374418664, -34798.40276222262, -0.074, 0.966, -0.14, 192.0, 0.0, 0.0, 0.0, 0.0, 0.0, 0.0, 0.0, 0.0, 0.0, 1.741026571607639E9, 0.0, 2025-03-03 12:29:31.607
7.0, -9617.240383296059, 1719.8773288580574, -25589.327584424926, -10375.143334286611, -166067.11340750617, -17009.588123510854, -27706.842447142895, -34799.87797735667, -0.074, 0.966, -0.14, 192.0, 0.0, 0.0, 0.0, 0.0, 0.0, 0.0, 0.0, 0.0, 0.0, 1.741026571607677E9, 0.0, 2025-03-03 12:29:31.607
8.0, -9688.229523686114, 1638.1369993849994, -25594.021450760538, -10375.411555220075, -166107.59241671473, -17009.833992699863, -27702.86383662985, -34793.28421274236, -0.012, 0.966, -0.14200000000000002, 192.0, 255.0, 160.0, 30.0, 48.0, 251.0, 144.0, 0.0, 0.0, 0.0, 1.741026571607715E9, 0.0, 2025-03-03 12:29:31.607
9.0, -9709.35192219638, 1604.3635135130303, -25599.92231129674, -10380.23953202242, -166147.2667631229, -17013.097347390336, -27707.602406454374, -34799.96738433449, -0.012, 0.966, -0.14200000000000002, 192.0, 0.0, 0.0, 0.0, 0.0, 0.0, 0.0, 0.0, 0.0, 0.0, 1.741026571607757E9, 0.0, 2025-03-03 12:29:31.607
10.0, -9659.731049505597, 1660.3546333735746, -25590.981613514617, -10366.426153949042, -166128.20072510254, -17001.765012951495, -27704.24964478608, -34796.59227092174, -0.012, 0.966, -0.14200000000000002, 192.0, 0.0, 0.0, 0.0, 0.0, 0.0, 0.0, 0.0, 0.0, 0.0, 1.741026571607802E9, 0.0, 2025-03-03 12:29:31.607
11.0, -9620.168461819705, 1724.5041399603058, -25592.166255970747, -10360.502941668385, -166092.6167479297, -17002.346158307333, -27708.116496576848, -34800.526177945874, -0.012, 0.966, -0.14200000000000002, 192.0, 0.0, 0.0, 0.0, 0.0, 0.0, 0.0, 0.0, 0.0, 0.0, 1.741026571607856E9, 0.0, 2025-03-03 12:29:31.607
12.0, -9686.799012040974, 1649.0670024236445, -25593.172084471236, -10354.870302065649, -166134.9062484391, -17007.621169998787, -27702.95324360767, -34803.25309076942, -0.012, 0.966, -0.14200000000000002, 192.0, 0.0, 0.0, 0.0, 0.0, 0.0, 0.0, 0.0, 0.0, 0.0, 1.741026571607909E9, 0.0, 2025-03-03 12:29:31.607
13.0, -9717.465605433656, 1598.1720802989103, -25582.35384015487, -10351.070505508245, -166202.85555158326, -16998.07697511637, -27694.19135978119, -34788.6126981512, -0.012, 0.966, -0.14200000000000002, 192.0, 0.0, 0.0, 0.0, 0.0, 0.0, 0.0, 0.0, 0.0, 0.0, 1.741026571607947E9, 0.0, 2025-03-03 12:29:31.607
14.0, -9676.651320058265, 1653.0232611922338, -25585.237215189605, -10361.128790513134, -166191.94790028906, -17006.861210687304, -27702.99794709658, -34792.12192203068, -0.012, 0.966, -0.14200000000000002, 192.0, 0.0, 0.0, 0.0, 0.0, 0.0, 0.0, 0.0, 0.0, 0.0, 1.741026571607985E9, 0.0, 2025-03-03 12:29:31.607
15.0, -9614.80404315043, 1750.5439222507384, -25588.92525302473, -10378.205523276989, -166119.21532383148, -17015.28781834696, -27713.570322223943, -34803.92364310308, -0.012, 0.966, -0.14200000000000002, 192.0, 0.0, 0.0, 0.0, 0.0, 0.0, 0.0, 0.0, 0.0, 0.0, 1.74102657160803E9, 0.0, 2025-03-03 12:29:31.608
16.0, -9654.366630836324, 1698.9113925589793, -25580.67745932072, -10351.249319463888, -166129.09479488074, -17004.60368449732, -27700.315737761946, -34801.28613725735, -0.012, 0.966, -0.14200000000000002, 192.0, 0.0, 0.0, 0.0, 0.0, 0.0, 0.0, 0.0, 0.0, 0.0, 1.741026571667153E9, 0.0, 2025-03-03 12:29:31.667
17.0, -9712.63762863131, 1610.666705449427, -25581.124494209827, -10353.909177054069, -166218.14414479068, -16997.22760882707, -27695.331298748413, -34799.40859072311, -0.012, 0.966, -0.14200000000000002, 192.0, 0.0, 0.0, 0.0, 0.0, 0.0, 0.0, 0.0, 0.0, 0.0, 1.741026571667208E9, 0.0, 2025-03-03 12:29:31.667
18.0, -9687.849544030374, 1635.499493539273, -25595.608424616865, -10377.557322687784, -166221.6757204146, -17011.398614811733, -27705.47899073112, -34807.85755012721, 0.024, 0.972, -0.146, 192.0, 0.0, 192.0, 30.0, 96.0, 251.0, 112.0, 0.0, 0.0, 0.0, 1.741026571667275E9, 0.0, 2025-03-03 12:29:31.667
19.0, -9644.777732464998, 1711.6295351540489, -25587.025354746027, -10367.700203382994, -166200.21804573754, -17006.23536184256, -27703.333223263413, -34810.58446295076, 0.024, 0.972, -0.146, 192.0, 0.0, 0.0, 0.0, 0.0, 0.0, 0.0, 0.0, 0.0, 0.0, 1.741026571667339E9, 0.0, 2025-03-03 12:29:31.667
20.0, -9653.181988380193, 1704.8346048396356, -25584.141979711294, -10363.252206236388, -166173.46300762452, -17004.290760074946, -27700.561606950952, -34789.484416184954, 0.024, 0.972, -0.146, 192.0, 0.0, 0.0, 0.0, 0.0, 0.0, 0.0, 0.0, 0.0, 0.0, 1.741026571667378E9, 0.0, 2025-03-03 12:29:31.667
21.0, -9698.645436602288, 1629.4198190474297, -25582.555005854967, -10358.893616067602, -166212.5338569324, -17003.284931574457, -27697.85704587186, -34795.87701509917, 0.024, 0.972, -0.146, 192.0, 0.0, 0.0, 0.0, 0.0, 0.0, 0.0, 0.0, 0.0, 0.0, 1.741026571667417E9, 0.0, 2025-03-03 12:29:31.667
22.0, -9696.499669134579, 1620.2556038207538, -25585.617194845345, -10368.638976650116, -166241.41231076865, -17005.922437420184, -27701.545083706987, -34808.729268160976, 0.024, 0.972, -0.146, 192.0, 0.0, 0.0, 0.0, 0.0, 0.0, 0.0, 0.0, 0.0, 0.0, 1.741026571667455E9, 0.0, 2025-03-03 12:29:31.667
23.0, -9641.179101607693, 1694.6869128569263, -25579.045781975485, -10367.901369083093, -166232.1810403086, -17007.978797910073, -27703.2885197745, -34813.534893218864, 0.024, 0.972, -0.146, 192.0, 0.0, 0.0, 0.0, 0.0, 0.0, 0.0, 0.0, 0.0, 0.0, 1.741026571667494E9, 0.0, 2025-03-03 12:29:31.667
24.0, -9634.831206182385, 1717.7762648792584, -25589.551101869478, -10374.852761608692, -166188.70689734304, -17016.09248114735, -27708.63058669932, -34800.70499190152, 0.024, 0.972, -0.146, 192.0, 0.0, 0.0, 0.0, 0.0, 0.0, 0.0, 0.0, 0.0, 0.0, 1.741026571667532E9, 0.0, 2025-03-03 12:29:31.667
25.0, -9701.126480236826, 1628.1010661245664, -25589.104066980373, -10362.872226580648, -166242.90987764715, -17007.755280465517, -27704.160237808257, -34793.97711682047, 0.024, 0.972, -0.146, 192.0, 0.0, 0.0, 0.0, 0.0, 0.0, 0.0, 0.0, 0.0, 0.0, 1.741026571667578E9, 0.0, 2025-03-03 12:29:31.667
26.0, -9692.364596410347, 1614.9805921293012, -25580.409238387256, -10355.630261377128, -166284.1935496561, -16995.55122799292, -27698.885226116807, -34794.111227287205, 0.024, 0.972, -0.146, 192.0, 0.0, 0.0, 0.0, 0.0, 0.0, 0.0, 0.0, 0.0, 0.0, 1.741026571667629E9, 0.0, 2025-03-03 12:29:31.667
27.0, -9629.153863090738, 1697.1232530025547, -25582.890282021795, -10371.142372029111, -166259.78544471093, -17004.64838798623, -27707.870627387838, -34804.594195436744, 0.024, 0.972, -0.146, 192.0, 0.0, 0.0, 0.0, 0.0, 0.0, 0.0, 0.0, 0.0, 0.0, 1.741026571667679E9, 0.0, 2025-03-03 12:29:31.667
28.0, -9628.460959012624, 1735.2329772988533, -25595.764886828052, -10370.963558073468, -166229.0964995738, -17008.98462641056, -27711.44690650069, -34810.65151818413, 0.042, 0.978, -0.14400000000000002, 192.0, 1.0, 80.0, 30.0, 144.0, 251.0, 128.0, 0.0, 0.0, 0.0, 1.741026571667719E9, 0.0, 2025-03-03 12:29:31.667
29.0, -9707.407320428769, 1646.2059791333652, -25605.867875321852, -10379.658386666582, -166275.8339972298, -17007.911742676704, -27713.167990823746, -34818.9663671215, 0.042, 0.978, -0.14400000000000002, 192.0, 0.0, 0.0, 0.0, 0.0, 0.0, 0.0, 0.0, 0.0, 0.0, 1.741026571667762E9, 0.0, 2025-03-03 12:29:31.667
30.0, -9706.043864016994, 1622.311964310642, -25598.44709616269, -10382.474706467952, -166305.04772723292, -17007.107079876314, -27713.52561873503, -34817.312338031814, 0.042, 0.978, -0.14400000000000002, 192.0, 0.0, 0.0, 0.0, 0.0, 0.0, 0.0, 0.0, 0.0, 0.0, 1.741026571667815E9, 0.0, 2025-03-03 12:29:31.667
31.0, -9660.870988472818, 1688.920162787457, -25595.809590316963, -10377.66908141006, -166271.9447936946, -17012.56090552341, -27725.64026422981, -34816.0159368534, 0.042, 0.978, -0.14400000000000002, 192.0, 0.0, 0.0, 0.0, 0.0, 0.0, 0.0, 0.0, 0.0, 0.0, 1.741026571727345E9, 0.0, 2025-03-03 12:29:31.727
32.0, -9632.685438714676, 1752.913207163001, -25592.345069926392, -10382.027671578846, -166213.5396854329, -17020.831050971872, -27726.713147963663, -34818.362870021214, 0.042, 0.978, -0.14400000000000002, 192.0, 0.0, 0.0, 0.0, 0.0, 0.0, 0.0, 0.0, 0.0, 0.0, 1.7410265717274E9, 0.0, 2025-03-03 12:29:31.727
33.0, -9682.574532338922, 1675.1738399474432, -25576.92236625223, -10361.173494002043, -166262.95939242357, -17009.632826999765, -27717.548932736987, -34810.65151818413, 0.042, 0.978, -0.14400000000000002, 192.0, 0.0, 0.0, 0.0, 0.0, 0.0, 0.0, 0.0, 0.0, 0.0, 1.74102657172744E9, 0.0, 2025-03-03 12:29:31.727
34.0, -9676.29369214698, 1634.7842377167033, -25574.77659878452, -10359.161837001067, -166322.45973616358, -17000.155687350714, -27722.667482217254, -34811.098553073236, 0.042, 0.978, -0.14400000000000002, 192.0, 0.0, 0.0, 0.0, 0.0, 0.0, 0.0, 0.0, 0.0, 0.0, 1.74102657172752E9, 0.0, 2025-03-03 12:29:31.727
35.0, -9643.749552220053, 1679.823002794147, -25583.717296566643, -10372.259959251876, -166324.38198618675, -17001.385033295755, -27730.892924176806, -34819.681622944074, 0.042, 0.978, -0.14400000000000002, 192.0, 0.0, 0.0, 0.0, 0.0, 0.0, 0.0, 0.0, 0.0, 0.0, 1.741026571727567E9, 0.0, 2025-03-03 12:29:31.727
36.0, -9609.931362859174, 1752.5108757628057, -25579.895148264786, -10366.113229526667, -166292.5978055713, -16998.03227162746, -27724.1426973513, -34819.86043689972, 0.042, 0.978, -0.14400000000000002, 192.0, 0.0, 0.0, 0.0, 0.0, 0.0, 0.0, 0.0, 0.0, 0.0, 1.741026571727606E9, 0.0, 2025-03-03 12:29:31.727
37.0, -9667.777677509508, 1691.4235581664514, -25587.651203590776, -10372.662290652072, -166316.9612070276, -17012.963236923606, -27724.76854619605, -34825.44837301354, 0.042, 0.978, -0.14400000000000002, 192.0, 0.0, 0.0, 0.0, 0.0, 0.0, 0.0, 0.0, 0.0, 0.0, 1.741026571727644E9, 0.0, 2025-03-03 12:29:31.727
38.0, -9698.936009280207, 1633.9795749163122, -25581.795046543488, -10374.830409864237, -166371.5665187319, -17013.298513090434, -27717.236008314612, -34822.050907856334, 0.05, 0.978, -0.14400000000000002, 192.0, 1.0, 144.0, 30.0, 144.0, 251.0, 128.0, 0.0, 0.0, 0.0, 1.741026571727683E9, 0.0, 2025-03-03 12:29:31.727
39.0, -9653.24904361356, 1673.6762730689375, -25580.856273276364, -10379.568979688762, -166362.84933839433, -17011.868001445295, -27717.884208903815, -34826.76712593641, 0.05, 0.978, -0.14400000000000002, 192.0, 0.0, 0.0, 0.0, 0.0, 0.0, 0.0, 0.0, 0.0, 0.0, 1.741026571727726E9, 0.0, 2025-03-03 12:29:31.727
40.0, -9608.61260993631, 1752.913207163001, -25590.802799558976, -10385.134564058133, -166313.78725931494, -17012.672664245685, -27724.030938629025, -34824.35313753523, 0.05, 0.978, -0.14400000000000002, 192.0, 0.0, 0.0, 0.0, 0.0, 0.0, 0.0, 0.0, 0.0, 0.0, 1.741026571727765E9, 0.0, 2025-03-03 12:29:31.727
41.0, -9667.375346109313, 1704.499328672806, -25585.281918678513, -10367.0967062827, -166324.51609665347, -17003.08376587436, -27715.313758291457, -34813.15491356312, 0.05, 0.978, -0.14400000000000002, 192.0, 0.0, 0.0, 0.0, 0.0, 0.0, 0.0, 0.0, 0.0, 0.0, 1.741026571727817E9, 0.0, 2025-03-03 12:29:31.727
42.0, -9717.666771133754, 1622.1331503549995, -25590.15459896977, -10378.67490991055, -166403.529513303, -17008.515239777, -27721.259322316568, -34825.18015208008, 0.05, 0.978, -0.14400000000000002, 192.0, 0.0, 0.0, 0.0, 0.0, 0.0, 0.0, 0.0, 0.0, 0.0, 1.741026571727868E9, 0.0, 2025-03-03 12:29:31.727
43.0, -9676.539561335989, 1659.7511362732812, -25598.603558373878, -10386.989758847923, -166388.10680962884, -17014.125527635282, -27735.363273067866, -34834.74669870695, 0.05, 0.978, -0.14400000000000002, 192.0, 0.0, 0.0, 0.0, 0.0, 0.0, 0.0, 0.0, 0.0, 0.0, 1.741026571727914E9, 0.0, 2025-03-03 12:29:31.727
44.0, -9602.689397655655, 1763.0608991457104, -25598.044764762493, -10398.277389797853, -166317.0059105165, -17016.3159985919, -27743.67812200524, -34832.08684111677, 0.05, 0.978, -0.14400000000000002, 192.0, 0.0, 0.0, 0.0, 0.0, 0.0, 0.0, 0.0, 0.0, 0.0, 1.741026571727953E9, 0.0, 2025-03-03 12:29:31.727
45.0, -9640.799121951954, 1748.4428582719397, -25598.804724073976, -10392.711805428482, -166300.68913706412, -17012.873829945784, -27727.093127619402, -34830.14223934916, 0.05, 0.978, -0.14400000000000002, 192.0, 0.0, 0.0, 0.0, 0.0, 0.0, 0.0, 0.0, 0.0, 0.0, 1.741026571727999E9, 0.0, 2025-03-03 12:29:31.727
46.0, -9693.973922011128, 1653.8726274815356, -25596.92717753973, -10380.06071806678, -166381.89302467025, -17016.07012940289, -27723.561551995463, -34828.018823625905, 0.05, 0.978, -0.14400000000000002, 192.0, 0.0, 0.0, 0.0, 0.0, 0.0, 0.0, 0.0, 0.0, 0.0, 1.741026571787754E9, 0.0, 2025-03-03 12:29:31.787
47.0, -9673.29855838997, 1657.7394792723037, -25596.14486648379, -10382.675872168049, -166402.54603654696, -17010.236324100057, -27729.998854398593, -34825.291910802356, 0.05, 0.978, -0.14400000000000002, 192.0, 0.0, 0.0, 0.0, 0.0, 0.0, 0.0, 0.0, 0.0, 0.0, 1.741026571787809E9, 0.0, 2025-03-03 12:29:31.787
48.0, -9619.050874596938, 1736.9093581330012, -25598.715317096154, -10390.476630982952, -166361.19530930463, -17009.588123510854, -27735.430328301234, -34825.18015208008, 0.048, 0.984, -0.148, 192.0, 1.0, 128.0, 30.0, 192.0, 251.0, 96.0, 0.0, 0.0, 0.0, 1.741026571787849E9, 0.0, 2025-03-03 12:29:31.787
49.0, -9660.714526261632, 1728.1251225620656, -25608.281863723027, -10395.841049652225, -166357.59667844733, -17021.300437605434, -27732.39049105531, -34831.1704195941, 0.048, 0.984, -0.148, 192.0, 0.0, 0.0, 0.0, 0.0, 0.0, 0.0, 0.0, 0.0, 0.0, 1.741026571787927E9, 0.0, 2025-03-03 12:29:31.787
50.0, -9722.226527002636, 1631.5879382595942, -25602.425706675735, -10388.934360615536, -166425.1883536802, -17016.60657126982, -27728.277770075532, -34832.86915217271, 0.048, 0.984, -0.148, 192.0, 0.0, 0.0, 0.0, 0.0, 0.0, 0.0, 0.0, 0.0, 0.0, 1.741026571787974E9, 0.0, 2025-03-03 12:29:31.787
51.0, -9701.685273848208, 1623.2060340888543, -25597.083639750916, -10389.537857715828, -166451.18343248172, -17019.60170502683, -27733.01633990006, -34832.757393450425, 0.048, 0.984, -0.148, 192.0, 0.0, 0.0, 0.0, 0.0, 0.0, 0.0, 0.0, 0.0, 0.0, 1.741026571788013E9, 0.0, 2025-03-03 12:29:31.788
52.0, -9652.444380813167, 1706.175709506954, -25602.82803807593, -10387.950883859503, -166409.8327052394, -17017.478289303577, -27746.427386573243, -34840.89342843216, 0.048, 0.984, -0.148, 192.0, 0.0, 0.0, 0.0, 0.0, 0.0, 0.0, 0.0, 0.0, 0.0, 1.741026571788052E9, 0.0, 2025-03-03 12:29:31.788
53.0, -9639.390962051268, 1737.2222825553756, -25604.54912239899, -10385.492191969419, -166374.20402457763, -17022.84270797285, -27746.62855227334, -34853.00807392694, 0.048, 0.984, -0.148, 192.0, 0.0, 0.0, 0.0, 0.0, 0.0, 0.0, 0.0, 0.0, 0.0, 1.74102657178809E9, 0.0, 2025-03-03 12:29:31.788
54.0, -9707.608486128865, 1639.634566263505, -25600.324642696934, -10381.468877967463, -166421.94735073418, -17015.153707880225, -27735.855011445885, -34851.80107972635, 0.048, 0.984, -0.148, 192.0, 0.0, 0.0, 0.0, 0.0, 0.0, 0.0, 0.0, 0.0, 0.0, 1.741026571788129E9, 0.0, 2025-03-03 12:29:31.788
55.0, -9696.343206923391, 1618.5568712421502, -25585.214863445148, -10373.601063919195, -166458.55950815196, -17000.08863211735, -27728.545991009, -34837.585370252775, 0.048, 0.984, -0.148, 192.0, 0.0, 0.0, 0.0, 0.0, 0.0, 0.0, 0.0, 0.0, 0.0, 1.741026571788167E9, 0.0, 2025-03-03 12:29:31.788
56.0, -9644.241290598071, 1687.9366860314235, -25591.898035037284, -10378.227875021443, -166436.49833637459, -17009.096385132838, -27737.039653902015, -34829.538742248864, 0.048, 0.984, -0.148, 192.0, 0.0, 0.0, 0.0, 0.0, 0.0, 0.0, 0.0, 0.0, 0.0, 1.741026571788219E9, 0.0, 2025-03-03 12:29:31.788
57.0, -9626.09167410036, 1738.786904667247, -25598.290633951503, -10389.783726904838, -166420.69565304468, -17017.634751514765, -27739.565401025466, -34835.8195824408, 0.048, 0.984, -0.148, 192.0, 0.0, 0.0, 0.0, 0.0, 0.0, 0.0, 0.0, 0.0, 0.0, 1.74102657178827E9, 0.0, 2025-03-03 12:29:31.788
58.0, -9685.614369584844, 1667.6413020660045, -25596.748363584087, -10378.764316888371, -166454.53619415002, -17013.03029215697, -27740.3477120814, -34838.479440030984, 0.052000000000000005, 0.972, -0.154, 192.0, 1.0, 160.0, 30.0, 96.0, 251.0, 48.0, 0.0, 0.0, 0.0, 1.741026571788323E9, 0.0, 2025-03-03 12:29:31.788
59.0, -9708.502555907078, 1640.2604151082535, -25593.283843193512, -10364.325089970242, -166490.1425230673, -17013.007940412517, -27740.705339992684, -34838.05475688633, 0.052000000000000005, 0.972, -0.154, 192.0, 0.0, 0.0, 0.0, 0.0, 0.0, 0.0, 0.0, 0.0, 0.0, 1.741026571788366E9, 0.0, 2025-03-03 12:29:31.788
60.0, -9672.918578734229, 1698.1290815030434, -25589.26052919156, -10371.187075518023, -166478.85489211738, -17007.64352174324, -27743.029921416037, -34844.17913486709, 0.052000000000000005, 0.972, -0.154, 192.0, 0.0, 0.0, 0.0, 0.0, 0.0, 0.0, 0.0, 0.0, 0.0, 1.741026571788405E9, 0.0, 2025-03-03 12:29:31.788
61.0, -9626.292839800459, 1770.6157887716042, -25594.669651349745, -10382.80998263478, -166442.51095563304, -17014.08082414637, -27745.175688883748, -34844.46970754501, 0.052000000000000005, 0.972, -0.154, 192.0, 0.0, 0.0, 0.0, 0.0, 0.0, 0.0, 0.0, 0.0, 0.0, 1.74102657184801E9, 0.0, 2025-03-03 12:29:31.848
62.0, -9694.555067366966, 1704.7451978618144, -25598.24593046259, -10366.157933015578, -166467.27668848954, -17013.052643901425, -27736.793784713005, -34834.27731207339, 0.052000000000000005, 0.972, -0.154, 192.0, 0.0, 0.0, 0.0, 0.0, 0.0, 0.0, 0.0, 0.0, 0.0, 1.741026571848066E9, 0.0, 2025-03-03 12:29:31.848
63.0, -9715.29748622149, 1653.2020751478763, -25595.96605252815, -10360.301775968288, -166503.93354939623, -17007.64352174324, -27741.3982440708, -34836.51248651892, 0.052000000000000005, 0.972, -0.154, 192.0, 0.0, 0.0, 0.0, 0.0, 0.0, 0.0, 0.0, 0.0, 0.0, 1.741026571848106E9, 0.0, 2025-03-03 12:29:31.848
64.0, -9678.461811359146, 1688.920162787457, -25598.000061273582, -10371.857627851681, -166489.02493584456, -17012.60560901232, -27751.3000668645, -34845.766108723416, 0.052000000000000005, 0.972, -0.154, 192.0, 0.0, 0.0, 0.0, 0.0, 0.0, 0.0, 0.0, 0.0, 0.0, 1.741026571848184E9, 0.0, 2025-03-03 12:29:31.848
65.0, -9627.09750260085, 1762.6138642566043, -25590.02048850304, -10364.481552181429, -166456.74901685107, -17012.35973982331, -27744.035749916526, -34843.84385870026, 0.052000000000000005, 0.972, -0.154, 192.0, 0.0, 0.0, 0.0, 0.0, 0.0, 0.0, 0.0, 0.0, 0.0, 1.741026571848231E9, 0.0, 2025-03-03 12:29:31.848
66.0, -9674.416145612735, 1719.8326253691466, -25596.234273461614, -10376.015052320368, -166463.25337448757, -17010.012806655504, -27741.889982448814, -34848.783594224886, 0.052000000000000005, 0.972, -0.154, 192.0, 0.0, 0.0, 0.0, 0.0, 0.0, 0.0, 0.0, 0.0, 0.0, 1.741026571848271E9, 0.0, 2025-03-03 12:29:31.848
67.0, -9710.469509419145, 1641.3556505865636, -25597.6424333623, -10383.86051462418, -166511.86841867786, -17017.545344536942, -27743.231087116135, -34858.975989696504, 0.052000000000000005, 0.972, -0.154, 192.0, 0.0, 0.0, 0.0, 0.0, 0.0, 0.0, 0.0, 0.0, 0.0, 1.741026571848315E9, 0.0, 2025-03-03 12:29:31.848
68.0, -9698.287808691002, 1639.27693835222, -25605.77846834403, -10385.536895458328, -166546.17834641677, -17033.92917322268, -27756.508023322585, -34869.36955086822, 0.058, 0.976, -0.152, 192.0, 1.0, 208.0, 30.0, 128.0, 251.0, 64.0, 0.0, 0.0, 0.0, 1.741026571848355E9, 0.0, 2025-03-03 12:29:31.848
69.0, -9658.993441938574, 1722.984221337345, -25601.06225026396, -10378.965482588468, -166529.97333168666, -17020.80869922742, -27753.177613398748, -34853.879791960695, 0.058, 0.976, -0.152, 192.0, 0.0, 0.0, 0.0, 0.0, 0.0, 0.0, 0.0, 0.0, 0.0, 1.741026571848398E9, 0.0, 2025-03-03 12:29:31.848
70.0, -9680.853448015863, 1733.2883755312414, -25603.476238665135, -10381.737098900927, -166495.81986615897, -17011.152745622723, -27752.283543620535, -34844.89439068966, 0.058, 0.976, -0.152, 192.0, 0.0, 0.0, 0.0, 0.0, 0.0, 0.0, 0.0, 0.0, 0.0, 1.741026571848437E9, 0.0, 2025-03-03 12:29:31.848
71.0, -9702.646398859788, 1659.1923426618985, -25594.222616460636, -10374.048098808302, -166537.01413119008, -17009.208143855114, -27740.3477120814, -34840.75931796543, 0.058, 0.976, -0.152, 192.0, 0.0, 0.0, 0.0, 0.0, 0.0, 0.0, 0.0, 0.0, 0.0, 1.741026571848483E9, 0.0, 2025-03-03 12:29:31.848
72.0, -9691.828154543418, 1653.7161652703483, -25603.878570065328, -10387.995587348412, -166579.70596309972, -17021.546306794444, -27746.472090062154, -34847.867172702216, 0.058, 0.976, -0.152, 192.0, 0.0, 0.0, 0.0, 0.0, 0.0, 0.0, 0.0, 0.0, 0.0, 1.741026571848538E9, 0.0, 2025-03-03 12:29:31.848
73.0, -9627.075150856394, 1756.400079298029, -25600.48110490812, -10376.417383720564, -166527.73815724114, -17010.92922817817, -27746.91912495126, -34837.40655629713, 0.058, 0.976, -0.152, 192.0, 0.0, 0.0, 0.0, 0.0, 0.0, 0.0, 0.0, 0.0, 0.0, 1.74102657184859E9, 0.0, 2025-03-03 12:29:31.848
74.0, -9631.880775914286, 1773.4544603174284, -25608.50538116758, -10384.262846024376, -166491.1483515678, -17019.445242815644, -27749.288409863522, -34830.56692249381, 0.058, 0.976, -0.152, 192.0, 0.0, 0.0, 0.0, 0.0, 0.0, 0.0, 0.0, 0.0, 0.0, 1.74102657184863E9, 0.0, 2025-03-03 12:29:31.848
75.0, -9702.914619793251, 1671.8657817680578, -25604.951453799185, -10373.95869183048, -166553.57677383148, -17021.143975394247, -27738.850145202894, -34820.821561911296, 0.058, 0.976, -0.152, 192.0, 0.0, 0.0, 0.0, 0.0, 0.0, 0.0, 0.0, 0.0, 0.0, 1.741026571848669E9, 0.0, 2025-03-03 12:29:31.848
76.0, -9697.326683679425, 1654.9902147043008, -25607.07486952244, -10383.77110764636, -166593.34052721746, -17015.2654666025, -27739.923028936748, -34808.68456467206, 0.058, 0.976, -0.152, 192.0, 0.0, 0.0, 0.0, 0.0, 0.0, 0.0, 0.0, 0.0, 0.0, 1.741026571908229E9, 0.0, 2025-03-03 12:29:31.908
77.0, -9640.687363229676, 1724.2582707712975, -25609.868837579354, -10390.186058305033, -166573.6262886079, -17017.813565470406, -27741.3982440708, -34800.0120878234, 0.058, 0.976, -0.152, 192.0, 0.0, 0.0, 0.0, 0.0, 0.0, 0.0, 0.0, 0.0, 0.0, 1.741026571908284E9, 0.0, 2025-03-03 12:29:31.908
78.0, -9625.577583977889, 1761.853904945124, -25616.97669231614, -10395.014035107379, -166541.2609626366, -17027.290705119456, -27738.559572524977, -34794.15593077611, 0.058, 0.972, -0.152, 192.0, 1.0, 208.0, 30.0, 96.0, 251.0, 64.0, 0.0, 0.0, 0.0, 1.741026571908329E9, 0.0, 2025-03-03 12:29:31.908
79.0, -9701.908791292763, 1677.1854969484207, -25622.609331918877, -10396.891581641625, -166587.30555621453, -17030.442301087656, -27733.01633990006, -34785.997544049926, 0.058, 0.972, -0.152, 192.0, 0.0, 0.0, 0.0, 0.0, 0.0, 0.0, 0.0, 0.0, 0.0, 1.7410265719084E9, 0.0, 2025-03-03 12:29:31.908
80.0, -9704.00985527156, 1652.889150725502, -25631.438270978724, -10415.152956861612, -166612.40656523785, -17041.729932037586, -27733.284560833523, -34779.33672420224, 0.058, 0.972, -0.152, 192.0, 0.0, 0.0, 0.0, 0.0, 0.0, 0.0, 0.0, 0.0, 0.0, 1.741026571908448E9, 0.0, 2025-03-03 12:29:31.908
81.0, -9653.96429943613, 1708.9920293083228, -25622.564628429966, -10399.350273531709, -166590.25598648263, -17032.476309833088, -27728.389528797812, -34768.83140430825, 0.058, 0.972, -0.152, 192.0, 0.0, 0.0, 0.0, 0.0, 0.0, 0.0, 0.0, 0.0, 0.0, 1.741026571908495E9, 0.0, 2025-03-03 12:29:31.908
82.0, -9613.172365805194, 1764.1337828795652, -25615.792049860007, -10397.137450830633, -166548.48057609567, -17033.526841822488, -27724.187400840212, -34755.442709379524, 0.058, 0.972, -0.152, 192.0, 0.0, 0.0, 0.0, 0.0, 0.0, 0.0, 0.0, 0.0, 0.0, 1.741026571908534E9, 0.0, 2025-03-03 12:29:31.908
83.0, -9657.071191915416, 1701.0348082822334, -25613.19924750319, -10403.507698000396, -166545.77601501657, -17034.063283689415, -27714.71026119116, -34739.12593592715, 0.058, 0.972, -0.152, 192.0, 0.0, 0.0, 0.0, 0.0, 0.0, 0.0, 0.0, 0.0, 0.0, 1.741026571908573E9, 0.0, 2025-03-03 12:29:31.908
84.0, -9684.5861893399, 1646.340089600097, -25615.590884159912, -10405.988741634936, -166579.817721822, -17028.922382464694, -27709.681118688717, -34725.69253750951, 0.058, 0.972, -0.152, 192.0, 0.0, 0.0, 0.0, 0.0, 0.0, 0.0, 0.0, 0.0, 0.0, 1.741026571908612E9, 0.0, 2025-03-03 12:29:31.908
85.0, -9643.57073826441, 1669.3176829001527, -25609.93589281272, -10402.658331711094, -166597.0732685415, -17029.03414118697, -27708.76469716605, -34721.91509269656, 0.058, 0.972, -0.152, 192.0, 0.0, 0.0, 0.0, 0.0, 0.0, 0.0, 0.0, 0.0, 0.0, 1.74102657190865E9, 0.0, 2025-03-03 12:29:31.908
86.0, -9594.307493484914, 1741.5138174907945, -25612.68515738072, -10418.192794107532, -166554.7167127987, -17044.009809972027, -27711.37985126732, -34719.90343569558, 0.058, 0.972, -0.152, 192.0, 0.0, 0.0, 0.0, 0.0, 0.0, 0.0, 0.0, 0.0, 0.0, 1.741026571908689E9, 0.0, 2025-03-03 12:29:31.908
87.0, -9650.633889512288, 1683.2875231847195, -25616.775526616042, -10411.643732982127, -166575.70500084222, -17040.724103537097, -27702.39444999629, -34713.39907805909, 0.058, 0.972, -0.152, 192.0, 0.0, 0.0, 0.0, 0.0, 0.0, 0.0, 0.0, 0.0, 0.0, 1.741026571908751E9, 0.0, 2025-03-03 12:29:31.908
88.0, -9676.561913080444, 1627.8999004244686, -25603.297424709493, -10406.72634920196, -166624.78943166608, -17025.971952196593, -27690.749191135073, -34700.65858371957, 0.058, 0.97, -0.15, 192.0, 1.0, 208.0, 30.0, 80.0, 251.0, 80.0, 0.0, 0.0, 0.0, 1.741026571908798E9, 0.0, 2025-03-03 12:29:31.908
89.0, -9651.170331379215, 1650.4081070909629, -25605.309081710468, -10414.415349294586, -166644.7942429536, -17028.36358885331, -27690.168045779235, -34698.64692671859, 0.058, 0.97, -0.15, 192.0, 0.0, 0.0, 0.0, 0.0, 0.0, 0.0, 0.0, 0.0, 0.0, 1.741026571908847E9, 0.0, 2025-03-03 12:29:31.908
90.0, -9591.580580661366, 1733.757762164803, -25605.912578810763, -10414.951791161513, -166595.77686736308, -17032.74453076655, -27693.76667663654, -34703.81017968776, 0.058, 0.97, -0.15, 192.0, 0.0, 0.0, 0.0, 0.0, 0.0, 0.0, 0.0, 0.0, 0.0, 1.741026571908886E9, 0.0, 2025-03-03 12:29:31.908
91.0, -9653.76313373603, 1686.8414505531134, -25613.579227158934, -10417.298724329321, -166601.56596917703, -17037.505452335532, -27688.357554478356, -34710.18042685752, 0.058, 0.97, -0.15, 192.0, 0.0, 0.0, 0.0, 0.0, 0.0, 0.0, 0.0, 0.0, 0.0, 1.74102657196714E9, 0.0, 2025-03-03 12:29:31.967
92.0, -9711.251820475081, 1618.8027404311588, -25605.912578810763, -10399.797308420815, -166651.61152501244, -17022.328617850377, -27683.887205587293, -34699.76451394135, 0.058, 0.97, -0.15, 192.0, 0.0, 0.0, 0.0, 0.0, 0.0, 0.0, 0.0, 0.0, 0.0, 1.741026571967199E9, 0.0, 2025-03-03 12:29:31.967
93.0, -9685.614369584844, 1640.4168773194406, -25607.432497433725, -10410.01205563689, -166649.4434058003, -17030.397597598745, -27690.391563223788, -34711.610938502665, 0.058, 0.97, -0.15, 192.0, 0.0, 0.0, 0.0, 0.0, 0.0, 0.0, 0.0, 0.0, 0.0, 1.741026571967239E9, 0.0, 2025-03-03 12:29:31.967
94.0, -9639.122741117804, 1717.0163055677779, -25610.40527944628, -10418.01398015189, -166625.45998399972, -17041.55111808194, -27695.085429559404, -34726.564255543264, 0.058, 0.97, -0.15, 192.0, 0.0, 0.0, 0.0, 0.0, 0.0, 0.0, 0.0, 0.0, 0.0, 1.741026571967278E9, 0.0, 2025-03-03 12:29:31.967
95.0, -9648.62223251131, 1705.4828054288396, -25603.11861075385, -10408.022750380367, -166626.64462645588, -17027.201298141634, -27690.65978415725, -34697.14935984008, 0.058, 0.97, -0.15, 192.0, 0.0, 0.0, 0.0, 0.0, 0.0, 0.0, 0.0, 0.0, 0.0, 1.74102657196735E9, 0.0, 2025-03-03 12:29:31.967
96.0, -9690.01766324254, 1629.1963016028765, -25602.716279353655, -10407.195735835521, -166680.7358480377, -17027.536574308466, -27688.826941111918, -34697.708153451465, 0.058, 0.97, -0.15, 192.0, 0.0, 0.0, 0.0, 0.0, 0.0, 0.0, 0.0, 0.0, 0.0, 1.741026571967397E9, 0.0, 2025-03-03 12:29:31.967
97.0, -9660.580415794899, 1643.2779006097198, -25591.138075725805, -10405.72052070147, -166694.61628134447, -17019.199373626634, -27683.328411975912, -34701.73146745342, 0.06, 0.968, -0.146, 192.0, 1.0, 224.0, 30.0, 64.0, 251.0, 112.0, 0.0, 0.0, 0.0, 1.741026571967437E9, 0.0, 2025-03-03 12:29:31.967
98.0, -9590.395938205236, 1733.0201545977777, -25592.50153213758, -10406.905163157602, -166641.5308882631, -17025.256696374025, -27692.649089413775, -34712.28149083632, 0.06, 0.968, -0.146, 192.0, 0.0, 0.0, 0.0, 0.0, 0.0, 0.0, 0.0, 0.0, 0.0, 1.741026571967479E9, 0.0, 2025-03-03 12:29:31.967
99.0, -9608.053816324928, 1738.8539599006128, -25601.039898519506, -10409.699131214516, -166619.04503334107, -17029.816452242907, -27693.94549059218, -34715.656604249074, 0.06, 0.968, -0.146, 192.0, 0.0, 0.0, 0.0, 0.0, 0.0, 0.0, 0.0, 0.0, 0.0, 1.741026571967518E9, 0.0, 2025-03-03 12:29:31.967
100.0, -9681.971035238628, 1640.2604151082535, -25599.810552574465, -10414.996494650424, -166678.76889452565, -17033.906821478227, -27691.285633002, -34718.808200217274, 0.06, 0.968, -0.146, 192.0, 0.0, 0.0, 0.0, 0.0, 0.0, 0.0, 0.0, 0.0, 0.0, 1.741026571967556E9, 0.0, 2025-03-03 12:29:31.967
101.0, -9683.043918972484, 1623.1613305999435, -25594.177912971725, -10406.480480012951, -166713.43645017582, -17020.3169608494, -27690.72683939062, -34714.471961792944, 0.06, 0.968, -0.146, 192.0, 0.0, 0.0, 0.0, 0.0, 0.0, 0.0, 0.0, 0.0, 0.0, 1.741026571967595E9, 0.0, 2025-03-03 12:29:31.967
102.0, -9633.467749770612, 1689.4119011654736, -25588.657032091265, -10399.886715398636, -166711.26833096365, -17020.495774805044, -27690.19039752369, -34714.91899668205, 0.06, 0.968, -0.146, 192.0, 0.0, 0.0, 0.0, 0.0, 0.0, 0.0, 0.0, 0.0, 0.0, 1.741026571967647E9, 0.0, 2025-03-03 12:29:31.967
103.0, -9614.200546050137, 1745.1795035814648, -25591.652165848278, -10408.469785269474, -166669.15764440986, -17023.356798095323, -27690.771542879527, -34710.89568268009, 0.06, 0.968, -0.146, 192.0, 0.0, 0.0, 0.0, 0.0, 0.0, 0.0, 0.0, 0.0, 0.0, 1.741026571967699E9, 0.0, 2025-03-03 12:29:31.967
104.0, -9693.951570266672, 1670.077642211633, -25600.838732819408, -10420.807948208803, -166691.41998188736, -17025.32375160739, -27693.94549059218, -34715.790714715804, 0.06, 0.968, -0.146, 192.0, 0.0, 0.0, 0.0, 0.0, 0.0, 0.0, 0.0, 0.0, 0.0, 1.741026571967745E9, 0.0, 2025-03-03 12:29:31.967
105.0, -9686.597846340877, 1641.8697407090356, -25593.239139704605, -10409.050930625312, -166724.8581915925, -17031.582240054875, -27689.989231823594, -34720.23871186241, 0.06, 0.968, -0.146, 192.0, 0.0, 0.0, 0.0, 0.0, 0.0, 0.0, 0.0, 0.0, 0.0, 1.741026571967784E9, 0.0, 2025-03-03 12:29:31.967
106.0, -9632.618383481311, 1706.3545234625965, -25591.16042747026, -10406.078148612756, -166712.43062167533, -17031.76105401052, -27692.939662091692, -34723.47971480843, 0.06, 0.968, -0.146, 192.0, 0.0, 0.0, 0.0, 0.0, 0.0, 0.0, 0.0, 0.0, 0.0, 1.74102657202742E9, 0.0, 2025-03-03 12:29:32.027
107.0, -9612.837089638364, 1766.436012558462, -25590.6910408367, -10408.805061436304, -166674.43265610133, -17028.36358885331, -27689.341031234388, -34717.6459095056, 0.064, 0.97, -0.14200000000000002, 192.0, 2.0, 0.0, 30.0, 80.0, 251.0, 144.0, 0.0, 0.0, 0.0, 1.741026572027503E9, 0.0, 2025-03-03 12:29:32.027
108.0, -9680.339357893392, 1684.0027790072895, -25586.645375090287, -10405.608761979194, -166718.17502000034, -17025.010827185015, -27677.159330506245, -34709.48752277941, 0.064, 0.97, -0.14200000000000002, 192.0, 0.0, 0.0, 0.0, 0.0, 0.0, 0.0, 0.0, 0.0, 0.0, 1.741026572027547E9, 0.0, 2025-03-03 12:29:32.027
109.0, -9672.806820011952, 1643.8813977100133, -25582.15267445477, -10412.046064382323, -166763.83963392256, -17027.80479524193, -27677.606365395353, -34711.454476291474, 0.064, 0.97, -0.14200000000000002, 192.0, 0.0, 0.0, 0.0, 0.0, 0.0, 0.0, 0.0, 0.0, 0.0, 1.741026572027587E9, 0.0, 2025-03-03 12:29:32.027
110.0, -9621.218993809103, 1698.3078954586858, -25575.134226695805, -10400.646674710117, -166754.5636599736, -17023.08857716186, -27681.517920675033, -34715.7460112269, 0.064, 0.97, -0.14200000000000002, 192.0, 0.0, 0.0, 0.0, 0.0, 0.0, 0.0, 0.0, 0.0, 0.0, 1.741026572027644E9, 0.0, 2025-03-03 12:29:32.027
111.0, -9581.32112995638, 1779.0647481757103, -25583.06909597744, -10400.57961947675, -166700.98652851422, -17028.251830131034, -27685.116551532337, -34717.48944729441, 0.064, 0.97, -0.14200000000000002, 192.0, 0.0, 0.0, 0.0, 0.0, 0.0, 0.0, 0.0, 0.0, 0.0, 1.741026572027691E9, 0.0, 2025-03-03 12:29:32.027
112.0, -9658.725221005108, 1707.4721106853617, -25590.288709436503, -10394.812869407282, -166733.79888937462, -17025.770786496494, -27677.785179350994, -34713.62259550364, 0.064, 0.97, -0.14200000000000002, 192.0, 0.0, 0.0, 0.0, 0.0, 0.0, 0.0, 0.0, 0.0, 0.0, 1.741026572027731E9, 0.0, 2025-03-03 12:29:32.027
113.0, -9690.665863831742, 1641.4227058199294, -25595.273148450036, -10393.53881997333, -166783.28565159865, -17025.301399862936, -27682.52374917552, -34720.216360117956, 0.064, 0.97, -0.14200000000000002, 192.0, 0.0, 0.0, 0.0, 0.0, 0.0, 0.0, 0.0, 0.0, 0.0, 1.74102657202777E9, 0.0, 2025-03-03 12:29:32.027
114.0, -9664.290805374481, 1673.0951277130996, -25589.372287913837, -10385.693357669516, -166776.13309337298, -17016.45010905863, -27675.728818861106, -34711.07449663574, 0.064, 0.97, -0.14200000000000002, 192.0, 0.0, 0.0, 0.0, 0.0, 0.0, 0.0, 0.0, 0.0, 0.0, 1.741026572027809E9, 0.0, 2025-03-03 12:29:32.027
115.0, -9619.006171108029, 1750.4545152729172, -25585.30427042297, -10388.621436193162, -166733.53066844115, -17011.644484000743, -27669.91736530273, -34699.71981045244, 0.064, 0.97, -0.14200000000000002, 192.0, 0.0, 0.0, 0.0, 0.0, 0.0, 0.0, 0.0, 0.0, 0.0, 1.741026572027848E9, 0.0, 2025-03-03 12:29:32.027
116.0, -9665.788372252986, 1694.4186919234626, -25592.322718181935, -10396.042215352323, -166758.02818036417, -17018.104138148326, -27669.939717047182, -34703.18433084301, 0.064, 0.97, -0.14200000000000002, 192.0, 0.0, 0.0, 0.0, 0.0, 0.0, 0.0, 0.0, 0.0, 0.0, 1.741026572027887E9, 0.0, 2025-03-03 12:29:32.027
117.0, -9691.425823143223, 1622.3790195440079, -25586.198340201183, -10398.165631075577, -166801.52467507418, -17020.384016082768, -27674.074789771414, -34706.6935547225, 0.058, 0.972, -0.15, 192.0, 1.0, 208.0, 30.0, 96.0, 251.0, 80.0, 0.0, 0.0, 0.0, 1.741026572027933E9, 0.0, 2025-03-03 12:29:32.027
118.0, -9670.705756033154, 1640.1263046415218, -25585.25956693406, -10397.0033403639, -166811.69471880136, -17014.192582868647, -27678.52278691802, -34710.15807511307, 0.058, 0.972, -0.15, 192.0, 0.0, 0.0, 0.0, 0.0, 0.0, 0.0, 0.0, 0.0, 0.0, 1.741026572027988E9, 0.0, 2025-03-03 12:29:32.027
119.0, -9607.606781435821, 1727.655735928504, -25579.693982564688, -10386.430965236541, -166779.7093724858, -17009.3646060663, -27679.416856696233, -34717.66826125005, 0.058, 0.972, -0.15, 192.0, 0.0, 0.0, 0.0, 0.0, 0.0, 0.0, 0.0, 0.0, 0.0, 1.741026572028039E9, 0.0, 2025-03-03 12:29:32.028
120.0, -9621.889546142764, 1732.729581919859, -25581.01273548755, -10387.906180370592, -166749.13218607096, -17021.121623649793, -27673.448940926664, -34708.28052857883, 0.058, 0.972, -0.15, 192.0, 0.0, 0.0, 0.0, 0.0, 0.0, 0.0, 0.0, 0.0, 0.0, 1.741026572028079E9, 0.0, 2025-03-03 12:29:32.028
121.0, -9711.20711698617, 1636.013583661745, -25586.757133812564, -10381.67004366756, -166826.73744281978, -17011.823297956384, -27666.56460363443, -34699.518644752345, 0.058, 0.972, -0.15, 192.0, 0.0, 0.0, 0.0, 0.0, 0.0, 0.0, 0.0, 0.0, 0.0, 1.741026572087712E9, 0.0, 2025-03-03 12:29:32.087
122.0, -9680.808744526952, 1641.9367959424014, -25577.905843008262, -10387.81677339277, -166861.89673684796, -17007.59881825433, -27668.509205402042, -34706.31357506676, 0.058, 0.972, -0.15, 192.0, 0.0, 0.0, 0.0, 0.0, 0.0, 0.0, 0.0, 0.0, 0.0, 1.741026572087794E9, 0.0, 2025-03-03 12:29:32.087
123.0, -9612.501813471534, 1731.2320150413532, -25576.363572640847, -10384.441659980019, -166826.6256840975, -17007.71057697661, -27667.324562945912, -34693.39426677159, 0.058, 0.972, -0.15, 192.0, 0.0, 0.0, 0.0, 0.0, 0.0, 0.0, 0.0, 0.0, 0.0, 1.741026572087834E9, 0.0, 2025-03-03 12:29:32.087
124.0, -9605.483365712567, 1753.7625734523028, -25581.839750032395, -10391.907142628092, -166798.19426515035, -17012.717367734596, -27667.793949579474, -34701.95498489797, 0.058, 0.972, -0.15, 192.0, 0.0, 0.0, 0.0, 0.0, 0.0, 0.0, 0.0, 0.0, 0.0, 1.741026572087873E9, 0.0, 2025-03-03 12:29:32.087
125.0, -9674.080869445905, 1668.8706480110466, -25596.368383928348, -10408.559192247296, -166829.10672773205, -17028.452995831132, -27677.807531095452, -34721.37865082963, 0.058, 0.972, -0.15, 192.0, 0.0, 0.0, 0.0, 0.0, 0.0, 0.0, 0.0, 0.0, 0.0, 1.74102657208792E9, 0.0, 2025-03-03 12:29:32.087
126.0, -9686.150811451771, 1651.3245286136305, -25599.385869429814, -10414.504756272407, -166852.6878181324, -17039.4724058476, -27680.17681600771, -34713.73435422592, 0.058, 0.972, -0.15, 192.0, 0.0, 0.0, 0.0, 0.0, 0.0, 0.0, 0.0, 0.0, 0.0, 1.741026572087972E9, 0.0, 2025-03-03 12:29:32.087
127.0, -9640.016810896017, 1720.2349567693423, -25591.987442015106, -10405.765224190382, -166835.78989932418, -17017.768861981494, -27677.829882839906, -34711.745048969395, 0.054, 0.97, -0.152, 192.0, 1.0, 176.0, 30.0, 80.0, 251.0, 64.0, 0.0, 0.0, 0.0, 1.741026572088012E9, 0.0, 2025-03-03 12:29:32.088
128.0, -9622.224822309592, 1757.651776987526, -25583.225558188627, -10395.326959529753, -166806.46441059883, -17006.145954864736, -27674.745342105074, -34709.10754312367, 0.054, 0.97, -0.152, 192.0, 0.0, 0.0, 0.0, 0.0, 0.0, 0.0, 0.0, 0.0, 0.0, 1.741026572088055E9, 0.0, 2025-03-03 12:29:32.088
129.0, -9690.86702953184, 1683.7345580738256, -25584.946642511684, -10386.676834425549, -166828.7714515652, -17010.99628341154, -27675.19237699418, -34706.33592681121, 0.054, 0.97, -0.152, 192.0, 0.0, 0.0, 0.0, 0.0, 0.0, 0.0, 0.0, 0.0, 0.0, 1.741026572088094E9, 0.0, 2025-03-03 12:29:32.088
130.0, -9697.058462745961, 1659.4829153398175, -25583.20320644417, -10388.219104792966, -166863.08137930412, -17017.52299279249, -27676.10879851685, -34713.86846469265, 0.054, 0.97, -0.152, 192.0, 0.0, 0.0, 0.0, 0.0, 0.0, 0.0, 0.0, 0.0, 0.0, 1.741026572088133E9, 0.0, 2025-03-03 12:29:32.088
131.0, -9645.649450498755, 1704.9463635619122, -25578.35287789737, -10391.191886805522, -166868.24463227327, -17016.919495692193, -27675.415894438735, -34720.81985721825, 0.054, 0.97, -0.152, 192.0, 0.0, 0.0, 0.0, 0.0, 0.0, 0.0, 0.0, 0.0, 0.0, 1.741026572088172E9, 0.0, 2025-03-03 12:29:32.088
132.0, -9620.5707932199, 1766.5254195362832, -25580.76686629854, -10395.952808374503, -166840.4837656598, -17017.858268959317, -27677.315792717432, -34728.3970985886, 0.054, 0.97, -0.152, 192.0, 0.0, 0.0, 0.0, 0.0, 0.0, 0.0, 0.0, 0.0, 0.0, 1.741026572088218E9, 0.0, 2025-03-03 12:29:32.088
133.0, -9669.431706599202, 1703.0017617943004, -25578.6881540642, -10400.423157265563, -166853.9395158219, -17019.668760260196, -27675.393542694277, -34724.15026714209, 0.054, 0.97, -0.152, 192.0, 0.0, 0.0, 0.0, 0.0, 0.0, 0.0, 0.0, 0.0, 0.0, 1.741026572088271E9, 0.0, 2025-03-03 12:29:32.088
134.0, -9692.409299899256, 1653.112668170055, -25585.192511700694, -10408.82741318076, -166891.1328185955, -17016.584219525364, -27680.534443918998, -34728.26298812187, 0.054, 0.97, -0.152, 192.0, 0.0, 0.0, 0.0, 0.0, 0.0, 0.0, 0.0, 0.0, 0.0, 1.741026572088332E9, 0.0, 2025-03-03 12:29:32.088
135.0, -9670.839866499886, 1686.528526130739, -25574.798950528973, -10392.734157172938, -166899.60412974408, -17019.534649793466, -27676.48877817259, -34729.17940964454, 0.054, 0.97, -0.152, 192.0, 0.0, 0.0, 0.0, 0.0, 0.0, 0.0, 0.0, 0.0, 0.0, 1.741026572088372E9, 0.0, 2025-03-03 12:29:32.088
136.0, -9634.205357337638, 1759.2834543327635, -25583.82905528892, -10399.462032253985, -166863.17078628193, -17019.109966648815, -27689.3857347233, -34733.20272364649, 0.054, 0.97, -0.152, 192.0, 0.0, 0.0, 0.0, 0.0, 0.0, 0.0, 0.0, 0.0, 0.0, 1.741026572148016E9, 0.0, 2025-03-03 12:29:32.148
137.0, -9656.892377959774, 1702.1970989939093, -25584.857235533862, -10397.91976188657, -166879.73342892333, -17013.723196235085, -27685.876510843817, -34730.699328267496, 0.06, 0.968, -0.16, 192.0, 1.0, 224.0, 30.0, 64.0, 251.0, 0.0, 0.0, 0.0, 0.0, 1.741026572148102E9, 0.0, 2025-03-03 12:29:32.148
138.0, -9684.876762017819, 1640.953319186368, -25586.86889253484, -10402.501869499907, -166936.9538947289, -17010.99628341154, -27681.137941019293, -34731.12401141215, 0.06, 0.968, -0.16, 192.0, 0.0, 0.0, 0.0, 0.0, 0.0, 0.0, 0.0, 0.0, 0.0, 1.741026572148145E9, 0.0, 2025-03-03 12:29:32.148
139.0, -9662.189741395681, 1661.695738040893, -25576.20711042966, -10398.299741542309, -166974.54952890272, -17011.666835745196, -27675.393542694277, -34730.67697652304, 0.06, 0.968, -0.16, 192.0, 0.0, 0.0, 0.0, 0.0, 0.0, 0.0, 0.0, 0.0, 0.0, 1.741026572148184E9, 0.0, 2025-03-03 12:29:32.148
140.0, -9594.32984522937, 1754.7907536972468, -25582.957337255164, -10408.670950969572, -166933.57878131614, -17024.69790276264, -27685.362420721343, -34740.288226638826, 0.06, 0.968, -0.16, 192.0, 0.0, 0.0, 0.0, 0.0, 0.0, 0.0, 0.0, 0.0, 0.0, 1.741026572148231E9, 0.0, 2025-03-03 12:29:32.148
141.0, -9633.154825348238, 1728.885081873546, -25591.16042747026, -10410.637904481639, -166921.8441154771, -17030.28583887647, -27684.96008932115, -34743.708043540486, 0.06, 0.968, -0.16, 192.0, 0.0, 0.0, 0.0, 0.0, 0.0, 0.0, 0.0, 0.0, 0.0, 1.741026572148278E9, 0.0, 2025-03-03 12:29:32.148
142.0, -9697.080814490417, 1652.1962466473874, -25584.49960762258, -10402.099538099712, -166971.19676723442, -17029.302362120434, -27677.740475862083, -34738.9024184826, 0.06, 0.968, -0.16, 192.0, 0.0, 0.0, 0.0, 0.0, 0.0, 0.0, 0.0, 0.0, 0.0, 1.741026572148328E9, 0.0, 2025-03-03 12:29:32.148
143.0, -9696.790241812498, 1655.7725257602365, -25597.35186068438, -10414.214183594488, -166990.911005844, -17032.521013322, -27690.81624636844, -34750.52532559935, 0.06, 0.968, -0.16, 192.0, 0.0, 0.0, 0.0, 0.0, 0.0, 0.0, 0.0, 0.0, 0.0, 1.741026572148367E9, 0.0, 2025-03-03 12:29:32.148
144.0, -9617.240383296059, 1751.594454240138, -25587.427686146224, -10420.316209830788, -166923.900475967, -17034.398559856243, -27693.073772558426, -34754.526287856854, 0.06, 0.968, -0.16, 192.0, 0.0, 0.0, 0.0, 0.0, 0.0, 0.0, 0.0, 0.0, 0.0, 1.741026572148406E9, 0.0, 2025-03-03 12:29:32.148
145.0, -9615.13931931726, 1755.9530444089228, -25593.35089842688, -10414.437701039042, -166888.0929813496, -17042.579298326888, -27691.799723124474, -34753.18518318953, 0.06, 0.968, -0.16, 192.0, 0.0, 0.0, 0.0, 0.0, 0.0, 0.0, 0.0, 0.0, 0.0, 1.741026572148444E9, 0.0, 2025-03-03 12:29:32.148
146.0, -9677.545389836478, 1678.0572149821778, -25601.464581664157, -10422.193756365032, -166927.94614171342, -17047.89901350725, -27691.95618533566, -34760.67301758206, 0.06, 0.968, -0.16, 192.0, 0.0, 0.0, 0.0, 0.0, 0.0, 0.0, 0.0, 0.0, 0.0, 1.741026572148482E9, 0.0, 2025-03-03 12:29:32.148
147.0, -9680.518171849033, 1665.5402380872058, -25594.98257577212, -10408.782709691848, -166965.87705205407, -17032.856289488827, -27687.485836444597, -34747.50784009789, 0.064, 0.97, -0.158, 192.0, 2.0, 0.0, 30.0, 80.0, 251.0, 16.0, 0.0, 0.0, 0.0, 1.741026572148521E9, 0.0, 2025-03-03 12:29:32.148
148.0, -9638.318078317414, 1737.110523833099, -25598.804724073976, -10423.53486103235, -166948.01800823427, -17030.84463248785, -27694.52663594802, -34747.17256393106, 0.064, 0.97, -0.158, 192.0, 0.0, 0.0, 0.0, 0.0, 0.0, 0.0, 0.0, 0.0, 0.0, 1.741026572148581E9, 0.0, 2025-03-03 12:29:32.148
149.0, -9617.396845507246, 1760.8927799335456, -25606.27020672205, -10435.247175126931, -166917.32906309713, -17042.691057049164, -27694.750153392575, -34749.16186918758, 0.064, 0.97, -0.158, 192.0, 0.0, 0.0, 0.0, 0.0, 0.0, 0.0, 0.0, 0.0, 0.0, 1.741026572148626E9, 0.0, 2025-03-03 12:29:32.148
150.0, -9689.481221375612, 1664.534409586717, -25609.958244557172, -10427.759340734405, -166981.2103487504, -17044.61330707232, -27689.832769612407, -34742.90338074009, 0.064, 0.97, -0.158, 192.0, 0.0, 0.0, 0.0, 0.0, 0.0, 0.0, 0.0, 0.0, 0.0, 1.741026572148672E9, 0.0, 2025-03-03 12:29:32.148
151.0, -9676.561913080444, 1648.1282291565217, -25588.031183246516, -10414.817680694781, -167030.7641662078, -17028.944734209148, -27676.689943872687, -34734.43206959153, 0.064, 0.97, -0.158, 192.0, 0.0, 0.0, 0.0, 0.0, 0.0, 0.0, 0.0, 0.0, 0.0, 1.741026572208205E9, 0.0, 2025-03-03 12:29:32.208
152.0, -9629.399732279746, 1719.273831757764, -25595.988404272608, -10426.68645700055, -167016.25788405634, -17032.722179022097, -27692.112647546848, -34746.0996801972, 0.064, 0.97, -0.158, 192.0, 0.0, 0.0, 0.0, 0.0, 0.0, 0.0, 0.0, 0.0, 0.0, 1.741026572208285E9, 0.0, 2025-03-03 12:29:32.208
153.0, -9613.082958827372, 1768.6041317706267, -25605.286729966014, -10432.989648936946, -166969.07335151118, -17044.345086138856, -27698.885226116807, -34746.54671508631, 0.064, 0.97, -0.158, 192.0, 0.0, 0.0, 0.0, 0.0, 0.0, 0.0, 0.0, 0.0, 0.0, 1.741026572208346E9, 0.0, 2025-03-03 12:29:32.208
154.0, -9683.24508467258, 1682.3263981731413, -25607.16427650026, -10420.718541230983, -167005.88667462906, -17050.357705397335, -27686.681173644207, -34746.412604619574, 0.064, 0.97, -0.158, 192.0, 0.0, 0.0, 0.0, 0.0, 0.0, 0.0, 0.0, 0.0, 0.0, 1.741026572208382E9, 0.0, 2025-03-03 12:29:32.208
155.0, -9707.742596595597, 1637.4217435624296, -25604.951453799185, -10420.495023786429, -167066.14697768056, -17039.785330269973, -27679.707429374153, -34750.59238083272, 0.064, 0.97, -0.158, 192.0, 0.0, 0.0, 0.0, 0.0, 0.0, 0.0, 0.0, 0.0, 0.0, 1.741026572208409E9, 0.0, 2025-03-03 12:29:32.208
156.0, -9649.33748833388, 1696.9667907913674, -25606.091392766404, -10426.462939555997, -167048.3773408386, -17041.61817331531, -27689.81041786795, -34740.914075483575, 0.064, 0.97, -0.158, 192.0, 0.0, 0.0, 0.0, 0.0, 0.0, 0.0, 0.0, 0.0, 0.0, 1.741026572208463E9, 0.0, 2025-03-03 12:29:32.208
157.0, -9619.14028157476, 1760.915131678001, -25606.605482888877, -10430.463901813497, -166999.62818618157, -17048.547214096452, -27691.933833591203, -34727.72654625494, 0.062, 0.976, -0.158, 192.0, 1.0, 240.0, 30.0, 128.0, 251.0, 16.0, 0.0, 0.0, 0.0, 1.741026572208494E9, 0.0, 2025-03-03 12:29:32.208
158.0, -9698.220753457637, 1678.3477876600966, -25610.002948046083, -10431.290916358343, -167042.20825936893, -17040.165309925713, -27683.127246275813, -34733.20272364649, 0.062, 0.976, -0.158, 192.0, 0.0, 0.0, 0.0, 0.0, 0.0, 0.0, 0.0, 0.0, 0.0, 1.741026572208525E9, 0.0, 2025-03-03 12:29:32.208
159.0, -9706.222677972637, 1637.958185429357, -25602.224540975636, -10416.516413273384, -167079.69213482048, -17030.375245854288, -27684.200130009667, -34740.265874894365, 0.062, 0.976, -0.158, 192.0, 0.0, 0.0, 0.0, 0.0, 0.0, 0.0, 0.0, 0.0, 0.0, 1.741026572208551E9, 0.0, 2025-03-03 12:29:32.208
160.0, -9666.324814119913, 1673.4304038799291, -25595.36255542786, -10422.372570320675, -167090.57743437024, -17029.011789442517, -27681.026182297013, -34734.99086320292, 0.062, 0.976, -0.158, 192.0, 0.0, 0.0, 0.0, 0.0, 0.0, 0.0, 0.0, 0.0, 0.0, 1.741026572208577E9, 0.0, 2025-03-03 12:29:32.208
161.0, -9610.959543104118, 1754.9248641639788, -25597.19539847319, -10426.865270956192, -167052.71357926293, -17028.832975486872, -27687.642298655785, -34740.08706093873, 0.062, 0.976, -0.158, 192.0, 0.0, 0.0, 0.0, 0.0, 0.0, 0.0, 0.0, 0.0, 0.0, 1.741026572208653E9, 0.0, 2025-03-03 12:29:32.208
162.0, -9656.311232603935, 1701.7053606158927, -25616.999044060594, -10430.01686692439, -167055.5298990643, -17040.679400048186, -27699.980461595114, -34750.68178781054, 0.062, 0.976, -0.158, 192.0, 0.0, 0.0, 0.0, 0.0, 0.0, 0.0, 0.0, 0.0, 0.0, 1.741026572208682E9, 0.0, 2025-03-03 12:29:32.208
163.0, -9696.656131345766, 1636.1253423840217, -25609.086526523417, -10425.792387222336, -167099.7863530858, -17040.232365159078, -27695.755981893064, -34742.12106968416, 0.062, 0.976, -0.158, 192.0, 0.0, 0.0, 0.0, 0.0, 0.0, 0.0, 0.0, 0.0, 0.0, 1.741026572208729E9, 0.0, 2025-03-03 12:29:32.208
164.0, -9685.30144516247, 1647.435325078407, -25606.516075911055, -10429.25690761291, -167128.48599296642, -17031.045798187948, -27694.750153392575, -34743.149249929105, 0.062, 0.976, -0.158, 192.0, 0.0, 0.0, 0.0, 0.0, 0.0, 0.0, 0.0, 0.0, 0.0, 1.741026572208765E9, 0.0, 2025-03-03 12:29:32.208
165.0, -9627.969220634606, 1741.1114860905989, -25619.92712258424, -10436.565928049795, -167075.7358760519, -17040.90291749274, -27709.34584252189, -34762.237639693936, 0.062, 0.976, -0.158, 192.0, 0.0, 0.0, 0.0, 0.0, 0.0, 0.0, 0.0, 0.0, 0.0, 1.741026572208797E9, 0.0, 2025-03-03 12:29:32.208
166.0, -9648.644584255766, 1720.2573085137974, -25612.104012024884, -10418.081035385256, -167071.66785856104, -17033.392731355754, -27701.00864184006, -34748.26779940937, 0.062, 0.976, -0.158, 192.0, 0.0, 0.0, 0.0, 0.0, 0.0, 0.0, 0.0, 0.0, 0.0, 1.741026572268484E9, 0.0, 2025-03-03 12:29:32.268
167.0, -9694.398605155779, 1649.8046099906696, -25609.69002362371, -10424.116006388189, -167115.5443329268, -17041.215841915113, -27699.600481939375, -34750.83825002173, 0.056, 0.968, -0.154, 192.0, 1.0, 192.0, 30.0, 64.0, 251.0, 48.0, 0.0, 0.0, 0.0, 1.741026572268536E9, 0.0, 2025-03-03 12:29:32.268
168.0, -9685.81553528494, 1650.9445489578902, -25606.314910210956, -10425.412407566597, -167138.99131286042, -17035.247926145545, -27698.259377272057, -34749.854773265695, 0.056, 0.968, -0.154, 192.0, 0.0, 0.0, 0.0, 0.0, 0.0, 0.0, 0.0, 0.0, 0.0, 1.741026572268565E9, 0.0, 2025-03-03 12:29:32.268
169.0, -9617.150976318238, 1728.2368812843422, -25605.107916010373, -10428.742817490438, -167100.76982984185, -17031.023446443494, -27700.069868572937, -34748.35720638719, 0.056, 0.968, -0.154, 192.0, 0.0, 0.0, 0.0, 0.0, 0.0, 0.0, 0.0, 0.0, 0.0, 1.741026572268591E9, 0.0, 2025-03-03 12:29:32.268
170.0, -9652.71260174663, 1713.4176747104734, -25620.552971428988, -10443.047933941834, -167094.17606522754, -17041.260545404024, -27704.04847908598, -34758.728415814454, 0.056, 0.968, -0.154, 192.0, 0.0, 0.0, 0.0, 0.0, 0.0, 0.0, 0.0, 0.0, 0.0, 1.741026572268618E9, 0.0, 2025-03-03 12:29:32.268
171.0, -9721.243050246603, 1627.8999004244686, -25614.27213123705, -10434.39780883763, -167168.5626707748, -17041.1711384262, -27694.81720862594, -34750.65943606609, 0.056, 0.968, -0.154, 192.0, 0.0, 0.0, 0.0, 0.0, 0.0, 0.0, 0.0, 0.0, 0.0, 1.741026572268655E9, 0.0, 2025-03-03 12:29:32.268
172.0, -9726.83098636043, 1629.2857085806977, -25614.40624170378, -10432.87789021467, -167212.55090386284, -17037.41604535771, -27697.655880171762, -34753.475755867454, 0.056, 0.968, -0.154, 192.0, 0.0, 0.0, 0.0, 0.0, 0.0, 0.0, 0.0, 0.0, 0.0, 1.741026572268688E9, 0.0, 2025-03-03 12:29:32.268
173.0, -9655.707735503644, 1719.8102736246913, -25620.03888130652, -10444.947832220536, -167175.6481737671, -17044.501548350043, -27710.82105765594, -34764.0034275059, 0.056, 0.968, -0.154, 192.0, 0.0, 0.0, 0.0, 0.0, 0.0, 0.0, 0.0, 0.0, 0.0, 1.741026572268715E9, 0.0, 2025-03-03 12:29:32.268
174.0, -9614.871098383797, 1760.401041555529, -25603.83386657642, -10416.985799906946, -167124.194458031, -17023.625019028786, -27697.43236272721, -34759.778947803854, 0.056, 0.968, -0.154, 192.0, 0.0, 0.0, 0.0, 0.0, 0.0, 0.0, 0.0, 0.0, 0.0, 1.741026572268742E9, 0.0, 2025-03-03 12:29:32.268
175.0, -9682.239256172092, 1674.5703428471497, -25619.860067350874, -10423.82543371027, -167153.31878105627, -17035.18087091218, -27703.57909245242, -34762.81878504977, 0.056, 0.968, -0.154, 192.0, 0.0, 0.0, 0.0, 0.0, 0.0, 0.0, 0.0, 0.0, 0.0, 1.741026572268769E9, 0.0, 2025-03-03 12:29:32.268
176.0, -9702.020550015039, 1640.7968569751808, -25617.78135511653, -10429.860404713203, -167200.972700235, -17044.009809972027, -27704.026127341527, -34762.371750160666, 0.056, 0.968, -0.154, 192.0, 0.0, 0.0, 0.0, 0.0, 0.0, 0.0, 0.0, 0.0, 0.0, 1.741026572268795E9, 0.0, 2025-03-03 12:29:32.268
177.0, -9656.71356400413, 1702.7335408608367, -25605.59965438839, -10430.374494835674, -167206.1136014597, -17030.151728409735, -27699.779295895016, -34760.337741415235, 0.05, 0.966, -0.154, 192.0, 1.0, 144.0, 30.0, 48.0, 251.0, 48.0, 0.0, 0.0, 0.0, 1.741026572268822E9, 0.0, 2025-03-03 12:29:32.268
178.0, -9611.920668115696, 1765.944274180445, -25606.314910210956, -10430.977991935968, -167153.34113280074, -17032.029274943983, -27705.76956340904, -34761.70119782701, 0.05, 0.966, -0.154, 192.0, 0.0, 0.0, 0.0, 0.0, 0.0, 0.0, 0.0, 0.0, 0.0, 1.741026572268856E9, 0.0, 2025-03-03 12:29:32.268
179.0, -9679.132363692805, 1676.3584824035745, -25610.44998293519, -10428.452244812519, -167195.6753367991, -17036.90195523524, -27705.00960409756, -34770.97717177596, 0.05, 0.966, -0.154, 192.0, 0.0, 0.0, 0.0, 0.0, 0.0, 0.0, 0.0, 0.0, 0.0, 1.741026572268893E9, 0.0, 2025-03-03 12:29:32.268
180.0, -9687.87189577483, 1641.9814994313122, -25604.616177632353, -10418.192794107532, -167243.95510482255, -17029.90585922073, -27704.49551397509, -34770.9101165426, 0.05, 0.966, -0.154, 192.0, 0.0, 0.0, 0.0, 0.0, 0.0, 0.0, 0.0, 0.0, 0.0, 1.741026572268928E9, 0.0, 2025-03-03 12:29:32.268
181.0, -9637.826339939396, 1704.275811228253, -25606.940759055706, -10425.881794200159, -167219.07761324377, -17029.145899909247, -27712.49743849009, -34772.07240725427, 0.05, 0.966, -0.154, 192.0, 0.0, 0.0, 0.0, 0.0, 0.0, 0.0, 0.0, 0.0, 0.0, 1.741026572327856E9, 0.0, 2025-03-03 12:29:32.327
182.0, -9617.799176907442, 1756.0200996422889, -25602.78333458702, -10421.947887176024, -167196.39059262164, -17024.541440551453, -27704.62962444182, -34755.82268903526, 0.05, 0.966, -0.154, 192.0, 0.0, 0.0, 0.0, 0.0, 0.0, 0.0, 0.0, 0.0, 0.0, 1.74102657232789E9, 0.0, 2025-03-03 12:29:32.327
183.0, -9675.019642713029, 1678.9065812714794, -25607.45484917818, -10425.524166288873, -167238.59068615327, -17029.727045265085, -27705.970729109136, -34761.36592166018, 0.05, 0.966, -0.154, 192.0, 0.0, 0.0, 0.0, 0.0, 0.0, 0.0, 0.0, 0.0, 0.0, 1.741026572327936E9, 0.0, 2025-03-03 12:29:32.327
184.0, -9697.10316623487, 1638.1369993849994, -25606.40431718878, -10426.619401767184, -167279.80730292885, -17030.12937666528, -27707.378889009822, -34768.78670081934, 0.05, 0.966, -0.154, 192.0, 0.0, 0.0, 0.0, 0.0, 0.0, 0.0, 0.0, 0.0, 0.0, 1.741026572327963E9, 0.0, 2025-03-03 12:29:32.327
185.0, -9662.592072795876, 1676.0232062367447, -25606.985462544617, -10431.469730313986, -167287.83157918832, -17030.28583887647, -27711.469258245143, -34770.39602642012, 0.05, 0.966, -0.154, 192.0, 0.0, 0.0, 0.0, 0.0, 0.0, 0.0, 0.0, 0.0, 0.0, 1.741026572327994E9, 0.0, 2025-03-03 12:29:32.327
186.0, -9615.631057695276, 1762.4126985565065, -25610.874666079842, -10438.801102495325, -167236.13199426318, -17043.518071594008, -27718.82298217094, -34782.085988770246, 0.05, 0.966, -0.154, 192.0, 0.0, 0.0, 0.0, 0.0, 0.0, 0.0, 0.0, 0.0, 0.0, 1.741026572328026E9, 0.0, 2025-03-03 12:29:32.328
187.0, -9665.38604085279, 1722.8277591261578, -25604.683232865722, -10429.748645990927, -167233.4274331841, -17044.41214137222, -27712.564493723454, -34769.68077059755, 0.054, 0.97, -0.154, 192.0, 1.0, 176.0, 30.0, 80.0, 251.0, 48.0, 0.0, 0.0, 0.0, 1.741026572328062E9, 0.0, 2025-03-03 12:29:32.328
188.0, -9709.463680918656, 1658.4100316059628, -25607.83482883392, -10431.939116947546, -167273.66057320364, -17038.555984324932, -27715.090240846905, -34776.45334916751, 0.054, 0.97, -0.154, 192.0, 0.0, 0.0, 0.0, 0.0, 0.0, 0.0, 0.0, 0.0, 0.0, 1.741026572328091E9, 0.0, 2025-03-03 12:29:32.328
189.0, -9706.356788439369, 1669.1835724334207, -25606.20315148868, -10424.58539302175, -167301.51084679496, -17034.51031857852, -27712.117458834346, -34789.88674758515, 0.054, 0.97, -0.154, 192.0, 0.0, 0.0, 0.0, 0.0, 0.0, 0.0, 0.0, 0.0, 0.0, 1.741026572328117E9, 0.0, 2025-03-03 12:29:32.328
190.0, -9662.927348962707, 1751.5497507512273, -25614.227427748137, -10423.557212776806, -167276.32043079383, -17036.253754646033, -27721.90752290577, -34794.379448220665, 0.054, 0.97, -0.154, 192.0, 0.0, 0.0, 0.0, 0.0, 0.0, 0.0, 0.0, 0.0, 0.0, 1.741026572328143E9, 0.0, 2025-03-03 12:29:32.328
191.0, -9683.15567769476, 1730.561462707694, -25617.31196848297, -10433.280221614865, -167270.64308770216, -17045.127397194792, -27723.33803455091, -34771.58066887625, 0.054, 0.97, -0.154, 192.0, 0.0, 0.0, 0.0, 0.0, 0.0, 0.0, 0.0, 0.0, 0.0, 1.74102657232817E9, 0.0, 2025-03-03 12:29:32.328
192.0, -9736.06225682047, 1657.7394792723037, -25607.63366313382, -10416.851689440215, -167315.81596324636, -17039.13712968077, -27719.895865904793, -34771.513613642885, 0.054, 0.97, -0.154, 192.0, 0.0, 0.0, 0.0, 0.0, 0.0, 0.0, 0.0, 0.0, 0.0, 1.741026572328196E9, 0.0, 2025-03-03 12:29:32.328
193.0, -9688.430689386212, 1675.6879300699152, -25599.318814196446, -10416.181137106554, -167328.0423674634, -17039.69592329215, -27717.973615881638, -34772.988828776935, 0.054, 0.97, -0.154, 192.0, 0.0, 0.0, 0.0, 0.0, 0.0, 0.0, 0.0, 0.0, 0.0, 1.741026572328227E9, 0.0, 2025-03-03 12:29:32.328
194.0, -9632.327810803392, 1759.3505095661294, -25596.30132869498, -10410.660256226094, -167307.50111430898, -17031.045798187948, -27718.778278682028, -34775.53692764484, 0.054, 0.97, -0.154, 192.0, 0.0, 0.0, 0.0, 0.0, 0.0, 0.0, 0.0, 0.0, 0.0, 1.741026572328263E9, 0.0, 2025-03-03 12:29:32.328
195.0, -9632.640735225767, 1765.8101637137133, -25600.838732819408, -10414.482404527951, -167282.08718086328, -17030.50935632102, -27722.77924093953, -34781.795416092325, 0.054, 0.97, -0.154, 192.0, 0.0, 0.0, 0.0, 0.0, 0.0, 0.0, 0.0, 0.0, 0.0, 1.741026572328299E9, 0.0, 2025-03-03 12:29:32.328
196.0, -9694.935047022707, 1682.885191784524, -25602.44805842019, -10420.1597476196, -167316.30770162438, -17041.059379703926, -27722.980406639625, -34788.94797431803, 0.054, 0.97, -0.154, 192.0, 0.0, 0.0, 0.0, 0.0, 0.0, 0.0, 0.0, 0.0, 0.0, 1.741026572387604E9, 0.0, 2025-03-03 12:29:32.387
197.0, -9693.146907466282, 1669.2953311556973, -25592.68034609322, -10408.559192247296, -167355.64677186572, -17029.592934798355, -27714.933778635717, -34783.65061088212, 0.052000000000000005, 0.976, -0.152, 192.0, 1.0, 160.0, 30.0, 128.0, 251.0, 64.0, 0.0, 0.0, 0.0, 1.741026572387639E9, 0.0, 2025-03-03 12:29:32.387
198.0, -9632.461921270124, 1751.5050472623168, -25597.061288006462, -10417.768110962881, -167331.01514947595, -17033.79506275595, -27719.67234846024, -34793.88770984265, 0.052000000000000005, 0.976, -0.152, 192.0, 0.0, 0.0, 0.0, 0.0, 0.0, 0.0, 0.0, 0.0, 0.0, 1.741026572387688E9, 0.0, 2025-03-03 12:29:32.387
199.0, -9625.331714788881, 1783.691559277959, -25598.804724073976, -10418.863346441192, -167293.15129436867, -17043.115740193814, -27718.62181647084, -34788.366828962186, 0.052000000000000005, 0.976, -0.152, 192.0, 0.0, 0.0, 0.0, 0.0, 0.0, 0.0, 0.0, 0.0, 0.0, 1.741026572387715E9, 0.0, 2025-03-03 12:29:32.387
200.0, -9696.29850343448, 1698.8666890700686, -25604.884398565817, -10421.746721475927, -167329.78580353092, -17045.485025106078, -27719.53823799351, -34780.968401547485, 0.052000000000000005, 0.976, -0.152, 192.0, 0.0, 0.0, 0.0, 0.0, 0.0, 0.0, 0.0, 0.0, 0.0, 1.741026572387746E9, 0.0, 2025-03-03 12:29:32.387
201.0, -9717.577364155934, 1673.1621829464655, -25597.240101962103, -10418.438663296542, -167378.1996820211, -17029.816452242907, -27716.073717602936, -34779.761407346894, 0.052000000000000005, 0.976, -0.152, 192.0, 0.0, 0.0, 0.0, 0.0, 0.0, 0.0, 0.0, 0.0, 0.0, 1.741026572387779E9, 0.0, 2025-03-03 12:29:32.387
202.0, -9666.593035053378, 1750.2757013172748, -25599.07294500744, -10415.39882605062, -167345.96846651656, -17032.118681921802, -27720.231142071625, -34784.90230857162, 0.052000000000000005, 0.976, -0.152, 192.0, 0.0, 0.0, 0.0, 0.0, 0.0, 0.0, 0.0, 0.0, 0.0, 1.741026572387811E9, 0.0, 2025-03-03 12:29:32.387
203.0, -9631.567851491911, 1805.685675821981, -25597.530674640024, -10419.131567374656, -167295.07354439184, -17035.04676044545, -27720.09703160489, -34787.808035350805, 0.052000000000000005, 0.976, -0.152, 192.0, 0.0, 0.0, 0.0, 0.0, 0.0, 0.0, 0.0, 0.0, 0.0, 1.741026572387843E9, 0.0, 2025-03-03 12:29:32.387
204.0, -9700.590038369899, 1712.9482880769121, -25596.63660486181, -10405.161727090088, -167355.49030965453, -17032.856289488827, -27715.20199956918, -34784.879956827164, 0.052000000000000005, 0.976, -0.152, 192.0, 0.0, 0.0, 0.0, 0.0, 0.0, 0.0, 0.0, 0.0, 0.0, 1.741026572387869E9, 0.0, 2025-03-03 12:29:32.387
205.0, -9732.26246026307, 1670.0105869782672, -25608.281863723027, -10414.504756272407, -167413.6719004717, -17044.814472772418, -27726.333168307923, -34797.955727333516, 0.052000000000000005, 0.976, -0.152, 192.0, 0.0, 0.0, 0.0, 0.0, 0.0, 0.0, 0.0, 0.0, 0.0, 1.741026572387894E9, 0.0, 2025-03-03 12:29:32.387
206.0, -9690.464698131645, 1730.136779563043, -25603.990328787608, -10415.44352953953, -167403.09952534433, -17043.294554149456, -27732.25638058858, -34799.58740467875, 0.052000000000000005, 0.976, -0.152, 192.0, 0.0, 0.0, 0.0, 0.0, 0.0, 0.0, 0.0, 0.0, 0.0, 1.741026572387921E9, 0.0, 2025-03-03 12:29:32.387
207.0, -9624.415293266213, 1816.2133474604307, -25588.880549535817, -10418.505718529907, -167331.1045564538, -17038.980667469583, -27730.892924176806, -34801.59906167973, 0.054, 0.972, -0.152, 192.0, 1.0, 176.0, 30.0, 96.0, 251.0, 64.0, 0.0, 0.0, 0.0, 1.741026572387947E9, 0.0, 2025-03-03 12:29:32.387
208.0, -9684.809706784452, 1734.3612592650961, -25590.109895480862, -10411.129642859656, -167367.31438247138, -17041.886394248773, -27723.20392408418, -34806.85172162673, 0.054, 0.972, -0.152, 192.0, 0.0, 0.0, 0.0, 0.0, 0.0, 0.0, 0.0, 0.0, 0.0, 1.741026572387975E9, 0.0, 2025-03-03 12:29:32.387
209.0, -9703.048730259983, 1684.919200529957, -25594.44613390519, -10410.883773670646, -167417.27053132898, -17044.680362305684, -27732.546953266497, -34808.12577106068, 0.054, 0.972, -0.152, 192.0, 0.0, 0.0, 0.0, 0.0, 0.0, 0.0, 0.0, 0.0, 0.0, 1.741026572388017E9, 0.0, 2025-03-03 12:29:32.388
210.0, -9671.644529300276, 1719.2291282688534, -25597.374212428836, -10422.73019823196, -167410.69911845913, -17040.344123881358, -27735.273866090047, -34804.6165471812, 0.054, 0.972, -0.152, 192.0, 0.0, 0.0, 0.0, 0.0, 0.0, 0.0, 0.0, 0.0, 0.0, 1.741026572388047E9, 0.0, 2025-03-03 12:29:32.388
211.0, -9636.328773060892, 1783.848021489146, -25597.19539847319, -10419.73506447495, -167390.5601967049, -17039.293591891957, -27733.664540489262, -34805.845893126236, 0.054, 0.972, -0.152, 192.0, 0.0, 0.0, 0.0, 0.0, 0.0, 0.0, 0.0, 0.0, 0.0, 1.741026572447883E9, 0.0, 2025-03-03 12:29:32.447
212.0, -9674.885532246297, 1746.207683826409, -25602.805686331474, -10422.998419165424, -167389.12968505977, -17046.71437105112, -27734.424499800745, -34806.27057627089, 0.054, 0.972, -0.152, 192.0, 0.0, 0.0, 0.0, 0.0, 0.0, 0.0, 0.0, 0.0, 0.0, 1.74102657244792E9, 0.0, 2025-03-03 12:29:32.447
213.0, -9710.737730352608, 1684.5392208742169, -25598.06711650695, -10417.119910373678, -167424.31133083242, -17036.633734301777, -27727.383700297323, -34798.78274187836, 0.054, 0.972, -0.152, 192.0, 0.0, 0.0, 0.0, 0.0, 0.0, 0.0, 0.0, 0.0, 0.0, 1.741026572447973E9, 0.0, 2025-03-03 12:29:32.447
214.0, -9683.468602117135, 1698.531412903239, -25590.042840247494, -10409.63207598115, -167447.7136072771, -17030.03996968746, -27725.05911887397, -34798.26865175589, 0.054, 0.972, -0.152, 192.0, 0.0, 0.0, 0.0, 0.0, 0.0, 0.0, 0.0, 0.0, 0.0, 1.741026572448003E9, 0.0, 2025-03-03 12:29:32.448
215.0, -9625.868156655808, 1785.59145755666, -25587.762962313052, -10410.816718437281, -167417.94108366265, -17029.749397009542, -27730.40118579879, -34801.04026806835, 0.054, 0.972, -0.152, 192.0, 0.0, 0.0, 0.0, 0.0, 0.0, 0.0, 0.0, 0.0, 0.0, 1.74102657244803E9, 0.0, 2025-03-03 12:29:32.448
216.0, -9652.24321511307, 1763.8655619461015, -25604.727936354633, -10424.674799999571, -167404.64179571174, -17048.837786774373, -27740.21360161467, -34812.99845135194, 0.054, 0.972, -0.152, 192.0, 0.0, 0.0, 0.0, 0.0, 0.0, 0.0, 0.0, 0.0, 0.0, 1.741026572448056E9, 0.0, 2025-03-03 12:29:32.448
217.0, -9731.860128862874, 1667.9765782328343, -25610.941721313207, -10427.558175034306, -167485.24218621757, -17040.925269237196, -27737.598447513396, -34815.05481184182, 0.056, 0.972, -0.156, 192.0, 1.0, 192.0, 30.0, 96.0, 251.0, 32.0, 0.0, 0.0, 0.0, 1.741026572448095E9, 0.0, 2025-03-03 12:29:32.448
218.0, -9695.15856446726, 1683.689854584915, -25602.87274156484, -10414.840032439237, -167502.8330091039, -17036.633734301777, -27739.431290558732, -34816.4182682536, 0.056, 0.972, -0.156, 192.0, 0.0, 0.0, 0.0, 0.0, 0.0, 0.0, 0.0, 0.0, 0.0, 1.74102657244813E9, 0.0, 2025-03-03 12:29:32.448
219.0, -9617.776825162986, 1775.8684487186015, -25592.345069926392, -10410.34733180372, -167465.10326446334, -17034.46561508961, -27739.498345792097, -34808.863378627706, 0.056, 0.972, -0.156, 192.0, 0.0, 0.0, 0.0, 0.0, 0.0, 0.0, 0.0, 0.0, 0.0, 1.741026572448156E9, 0.0, 2025-03-03 12:29:32.448
220.0, -9628.103331101338, 1791.201745414942, -25603.76681134305, -10423.333695332252, -167432.69323500316, -17039.673571547697, -27747.45556681819, -34816.08299208677, 0.056, 0.972, -0.156, 192.0, 0.0, 0.0, 0.0, 0.0, 0.0, 0.0, 0.0, 0.0, 0.0, 1.741026572448183E9, 0.0, 2025-03-03 12:29:32.448
221.0, -9708.122576251339, 1698.0843780141329, -25610.651148635287, -10425.68062850006, -167491.09834326486, -17041.461711104123, -27747.366159840367, -34816.552378720335, 0.056, 0.972, -0.156, 192.0, 0.0, 0.0, 0.0, 0.0, 0.0, 0.0, 0.0, 0.0, 0.0, 1.74102657244821E9, 0.0, 2025-03-03 12:29:32.448
222.0, -9700.768852325542, 1690.4847848993284, -25603.11861075385, -10419.265677841388, -167516.55698019947, -17043.383961127278, -27744.751005739094, -34810.62916643968, 0.056, 0.972, -0.156, 192.0, 0.0, 0.0, 0.0, 0.0, 0.0, 0.0, 0.0, 0.0, 0.0, 1.741026572448236E9, 0.0, 2025-03-03 12:29:32.448
223.0, -9639.48036902909, 1767.7100619924145, -25599.095296751893, -10427.44641631203, -167481.42003791573, -17049.32952515239, -27754.183441899237, -34822.475591000984, 0.056, 0.972, -0.156, 192.0, 0.0, 0.0, 0.0, 0.0, 0.0, 0.0, 0.0, 0.0, 0.0, 1.741026572448262E9, 0.0, 2025-03-03 12:29:32.448
224.0, -9637.312249816925, 1803.2940391652633, -25613.042785292004, -10436.811797238803, -167426.99354016705, -17060.550100868953, -27759.994895457614, -34828.622320726194, 0.056, 0.972, -0.156, 192.0, 0.0, 0.0, 0.0, 0.0, 0.0, 0.0, 0.0, 0.0, 0.0, 1.741026572448297E9, 0.0, 2025-03-03 12:29:32.448
225.0, -9721.757140369074, 1713.3953229660183, -25608.863009078865, -10417.276372584865, -167470.24416568808, -17043.89805124975, -27744.214563872167, -34809.757448405915, 0.056, 0.972, -0.156, 192.0, 0.0, 0.0, 0.0, 0.0, 0.0, 0.0, 0.0, 0.0, 0.0, 1.741026572448341E9, 0.0, 2025-03-03 12:29:32.448
226.0, -9734.229413775136, 1683.4886888848173, -25602.760982842563, -10417.701055729516, -167525.16240181477, -17041.841690759862, -27741.711168493173, -34814.89834963064, 0.056, 0.972, -0.156, 192.0, 0.0, 0.0, 0.0, 0.0, 0.0, 0.0, 0.0, 0.0, 0.0, 1.741026572508158E9, 0.0, 2025-03-03 12:29:32.508
227.0, -9674.952587479662, 1747.6381954715487, -25607.49955266709, -10431.000343680424, -167517.0934220664, -17049.016600730014, -27748.751967996595, -34819.972195621995, 0.05, 0.976, -0.156, 192.0, 1.0, 144.0, 30.0, 128.0, 251.0, 32.0, 0.0, 0.0, 0.0, 1.741026572508194E9, 0.0, 2025-03-03 12:29:32.508
228.0, -9645.224767354104, 1804.657495577037, -25617.446078949702, -10440.656297285115, -167469.5736133544, -17052.07878972039, -27756.329209366944, -34819.45810549952, 0.05, 0.976, -0.156, 192.0, 0.0, 0.0, 0.0, 0.0, 0.0, 0.0, 0.0, 0.0, 0.0, 1.741026572508239E9, 0.0, 2025-03-03 12:29:32.508
229.0, -9724.931088081728, 1714.4458549554176, -25627.59377093241, -10440.566890307295, -167512.10898305287, -17055.029219988493, -27756.48567157813, -34826.23068406948, 0.05, 0.976, -0.156, 192.0, 0.0, 0.0, 0.0, 0.0, 0.0, 0.0, 0.0, 0.0, 0.0, 1.741026572508265E9, 0.0, 2025-03-03 12:29:32.508
230.0, -9746.634631947833, 1680.918238272457, -25623.50340169709, -10422.439625554041, -167551.15748061627, -17044.568603583408, -27750.026017430548, -34824.19667532405, 0.05, 0.976, -0.156, 192.0, 0.0, 0.0, 0.0, 0.0, 0.0, 0.0, 0.0, 0.0, 0.0, 1.741026572508291E9, 0.0, 2025-03-03 12:29:32.508
231.0, -9676.226636913614, 1737.3787447665627, -25604.97380554364, -10413.923610916569, -167542.37324504534, -17035.113815678815, -27746.87442146235, -34812.52906471838, 0.05, 0.976, -0.156, 192.0, 0.0, 0.0, 0.0, 0.0, 0.0, 0.0, 0.0, 0.0, 0.0, 1.74102657250832E9, 0.0, 2025-03-03 12:29:32.508
232.0, -9623.387113021268, 1800.947105997456, -25596.904825795275, -10417.857517940703, -167514.25475052057, -17038.153652924735, -27743.521659794053, -34807.34346000475, 0.05, 0.976, -0.156, 192.0, 0.0, 0.0, 0.0, 0.0, 0.0, 0.0, 0.0, 0.0, 0.0, 1.741026572508354E9, 0.0, 2025-03-03 12:29:32.508
233.0, -9668.850561243364, 1742.7431634358363, -25610.807610846474, -10424.607744766206, -167512.95834934217, -17040.522937837, -27750.718921508662, -34814.49601823044, 0.05, 0.976, -0.156, 192.0, 0.0, 0.0, 0.0, 0.0, 0.0, 0.0, 0.0, 0.0, 0.0, 1.741026572508387E9, 0.0, 2025-03-03 12:29:32.508
234.0, -9727.523890438544, 1665.9649212318566, -25615.70264288219, -10423.847785454725, -167579.38773386335, -17036.03023720148, -27747.053235417992, -34817.33468977627, 0.05, 0.976, -0.156, 192.0, 0.0, 0.0, 0.0, 0.0, 0.0, 0.0, 0.0, 0.0, 0.0, 1.741026572508413E9, 0.0, 2025-03-03 12:29:32.508
235.0, -9701.864087803851, 1700.4760146708506, -25613.22159924765, -10434.911898960103, -167596.308004416, -17041.528766337487, -27751.54593605351, -34822.65440495663, 0.05, 0.976, -0.156, 192.0, 0.0, 0.0, 0.0, 0.0, 0.0, 0.0, 0.0, 0.0, 0.0, 1.741026572508439E9, 0.0, 2025-03-03 12:29:32.508
236.0, -9625.152900833238, 1799.3824838855844, -25599.385869429814, -10411.599029493216, -167545.7483584581, -17035.270277890002, -27748.81902322996, -34820.0168991109, 0.05, 0.976, -0.156, 192.0, 0.0, 0.0, 0.0, 0.0, 0.0, 0.0, 0.0, 0.0, 0.0, 1.741026572508465E9, 0.0, 2025-03-03 12:29:32.508
237.0, -9679.065308459438, 1755.9530444089228, -25615.523828926544, -10425.68062850006, -167546.7988904475, -17045.127397194792, -27751.858860475884, -34829.24816957094, 0.052000000000000005, 0.972, -0.154, 192.0, 1.0, 160.0, 30.0, 96.0, 251.0, 48.0, 0.0, 0.0, 0.0, 1.741026572508492E9, 0.0, 2025-03-03 12:29:32.508
238.0, -9743.17011155726, 1672.8716102685464, -25614.92033182625, -10431.1121024027, -167607.7744493216, -17047.586089084874, -27747.902601707294, -34814.92070137509, 0.052000000000000005, 0.972, -0.154, 192.0, 0.0, 0.0, 0.0, 0.0, 0.0, 0.0, 0.0, 0.0, 0.0, 1.741026572508521E9, 0.0, 2025-03-03 12:29:32.508
239.0, -9719.276096734537, 1695.625686124049, -25614.585055659423, -10419.578602263762, -167614.4129174248, -17032.342199366358, -27749.24370637461, -34809.623337939185, 0.052000000000000005, 0.972, -0.154, 192.0, 0.0, 0.0, 0.0, 0.0, 0.0, 0.0, 0.0, 0.0, 0.0, 1.741026572508554E9, 0.0, 2025-03-03 12:29:32.508
240.0, -9659.82045648342, 1787.0890244351656, -25619.83771560642, -10425.323000588776, -167562.91449819977, -17042.936926238173, -27758.67614253475, -34821.089782844756, 0.052000000000000005, 0.972, -0.154, 192.0, 0.0, 0.0, 0.0, 0.0, 0.0, 0.0, 0.0, 0.0, 0.0, 1.741026572508585E9, 0.0, 2025-03-03 12:29:32.508
241.0, -9657.898206460262, 1762.7926782122468, -25607.186628244715, -10415.622343495172, -167565.21672787867, -17036.141995923757, -27749.422520330256, -34812.88669262966, 0.052000000000000005, 0.972, -0.154, 192.0, 0.0, 0.0, 0.0, 0.0, 0.0, 0.0, 0.0, 0.0, 0.0, 1.741026572568346E9, 0.0, 2025-03-03 12:29:32.568
242.0, -9698.44427090219, 1687.1320232310325, -25616.239084749115, -10422.149052876122, -167613.42944066875, -17043.249850660544, -27755.43513958873, -34821.00037586693, 0.052000000000000005, 0.972, -0.154, 192.0, 0.0, 0.0, 0.0, 0.0, 0.0, 0.0, 0.0, 0.0, 0.0, 1.74102657256838E9, 0.0, 2025-03-03 12:29:32.568
243.0, -9695.091509233895, 1703.7840728502363, -25616.462602193667, -10431.849709969725, -167617.65392037082, -17046.200280928646, -27758.050293690005, -34825.38131778018, 0.052000000000000005, 0.972, -0.154, 192.0, 0.0, 0.0, 0.0, 0.0, 0.0, 0.0, 0.0, 0.0, 0.0, 1.741026572568412E9, 0.0, 2025-03-03 12:29:32.568
244.0, -9650.6785930012, 1782.8421929886572, -25608.30421546748, -10428.385189579152, -167578.67247804077, -17039.98649597007, -27757.715017523173, -34829.15876259312, 0.052000000000000005, 0.972, -0.154, 192.0, 0.0, 0.0, 0.0, 0.0, 0.0, 0.0, 0.0, 0.0, 0.0, 1.741026572568451E9, 0.0, 2025-03-03 12:29:32.568
245.0, -9672.806820011952, 1777.723643508392, -25613.86979983685, -10431.179157636067, -167565.06026566747, -17040.1206064368, -27757.044465189516, -34833.83027718429, 0.052000000000000005, 0.972, -0.154, 192.0, 0.0, 0.0, 0.0, 0.0, 0.0, 0.0, 0.0, 0.0, 0.0, 1.741026572568478E9, 0.0, 2025-03-03 12:29:32.568
246.0, -9746.813445903474, 1678.504249871284, -25617.73665162762, -10419.422140052575, -167630.75204262164, -17036.097292434846, -27750.405997086287, -34820.50863748892, 0.052000000000000005, 0.972, -0.154, 192.0, 0.0, 0.0, 0.0, 0.0, 0.0, 0.0, 0.0, 0.0, 0.0, 1.741026572568504E9, 0.0, 2025-03-03 12:29:32.568
247.0, -9723.746445625597, 1668.6247788220383, -25616.529657427032, -10423.892488943637, -167668.19121458428, -17038.4218738582, -27757.402093100798, -34831.32688180529, 0.056, 0.972, -0.15, 192.0, 1.0, 192.0, 30.0, 96.0, 251.0, 80.0, 0.0, 0.0, 0.0, 1.741026572568536E9, 0.0, 2025-03-03 12:29:32.568
248.0, -9668.96231996564, 1756.3777275535738, -25615.099145781893, -10420.360913319697, -167631.02026355508, -17040.299420392446, -27757.983238456636, -34827.3706230367, 0.056, 0.972, -0.15, 192.0, 0.0, 0.0, 0.0, 0.0, 0.0, 0.0, 0.0, 0.0, 0.0, 1.741026572568575E9, 0.0, 2025-03-03 12:29:32.568
249.0, -9661.586244295388, 1791.8052425152355, -25607.521904411544, -10413.923610916569, -167611.44013541224, -17031.962219710615, -27750.003665686094, -34812.149085062636, 0.056, 0.972, -0.15, 192.0, 0.0, 0.0, 0.0, 0.0, 0.0, 0.0, 0.0, 0.0, 0.0, 1.741026572568601E9, 0.0, 2025-03-03 12:29:32.568
250.0, -9701.685273848208, 1719.3632387355851, -25616.820230104953, -10423.803081965814, -167627.68985363125, -17041.439359359665, -27759.749026268608, -34827.236512569965, 0.056, 0.972, -0.15, 192.0, 0.0, 0.0, 0.0, 0.0, 0.0, 0.0, 0.0, 0.0, 0.0, 1.741026572568628E9, 0.0, 2025-03-03 12:29:32.568
251.0, -9714.604582143376, 1689.9036395434905, -25608.48302942312, -10420.96441041999, -167662.08918834798, -17036.767844768507, -27755.189270399726, -34823.056736356826, 0.056, 0.972, -0.15, 192.0, 0.0, 0.0, 0.0, 0.0, 0.0, 0.0, 0.0, 0.0, 0.0, 1.741026572568655E9, 0.0, 2025-03-03 12:29:32.568
252.0, -9662.592072795876, 1751.3485850511295, -25607.432497433725, -10432.028523925368, -167646.8676503739, -17040.008847714525, -27763.571174570465, -34831.438640527565, 0.056, 0.972, -0.15, 192.0, 0.0, 0.0, 0.0, 0.0, 0.0, 0.0, 0.0, 0.0, 0.0, 1.741026572568682E9, 0.0, 2025-03-03 12:29:32.568
253.0, -9634.942964904663, 1807.4514636339504, -25615.70264288219, -10438.711695517504, -167598.49847537262, -17044.792121027964, -27772.51187235259, -34832.60093123924, 0.056, 0.972, -0.15, 192.0, 0.0, 0.0, 0.0, 0.0, 0.0, 0.0, 0.0, 0.0, 0.0, 1.741026572568708E9, 0.0, 2025-03-03 12:29:32.568
254.0, -9704.032207016016, 1729.466227229384, -25605.82317183294, -10416.11408187319, -167625.72290011917, -17036.23140290158, -27760.77720651355, -34823.92845439058, 0.056, 0.972, -0.15, 192.0, 0.0, 0.0, 0.0, 0.0, 0.0, 0.0, 0.0, 0.0, 0.0, 1.741026572568739E9, 0.0, 2025-03-03 12:29:32.568
255.0, -9712.771739098042, 1695.2457064683088, -25603.006852031573, -10413.789500449837, -167648.2758102746, -17040.254716903535, -27763.43706410373, -34830.29870156034, 0.056, 0.972, -0.15, 192.0, 0.0, 0.0, 0.0, 0.0, 0.0, 0.0, 0.0, 0.0, 0.0, 1.741026572568775E9, 0.0, 2025-03-03 12:29:32.568
0.0, -9678.01477647004, 1743.0113843693, -25593.10502923787, -10404.267657311877, -167645.8171183845, -17027.089539419358, -27755.59160179992, -34828.53291374838, 0.056, 0.972, -0.15, 192.0, 0.0, 0.0, 0.0, 0.0, 0.0, 0.0, 0.0, 0.0, 0.0, 1.741026572628795E9, 0.0, 2025-03-03 12:29:32.628
1.0, -9631.277278813992, 1823.2094434749417, -25589.752267569576, -10409.900296914613, -167604.7569638201, -17028.587106297866, -27755.45749133319, -34827.08005035878, 0.056, 0.972, -0.14400000000000002, 192.0, 1.0, 192.0, 30.0, 96.0, 251.0, 128.0, 0.0, 0.0, 0.0, 1.741026572628828E9, 0.0, 2025-03-03 12:29:32.628
2.0, -9715.565707154956, 1742.0502593577219, -25607.521904411544, -10415.868212684181, -167655.316609778, -17038.533632580475, -27765.94045948273, -34829.404631782134, 0.056, 0.972, -0.14400000000000002, 192.0, 0.0, 0.0, 0.0, 0.0, 0.0, 0.0, 0.0, 0.0, 0.0, 1.741026572628857E9, 0.0, 2025-03-03 12:29:32.628
3.0, -9755.329460540946, 1675.6655783254598, -25589.305232680468, -10389.694319927015, -167735.62642760592, -17019.51229804901, -27759.16788091277, -34822.050907856334, 0.056, 0.972, -0.14400000000000002, 192.0, 0.0, 0.0, 0.0, 0.0, 0.0, 0.0, 0.0, 0.0, 0.0, 1.741026572628898E9, 0.0, 2025-03-03 12:29:32.628
4.0, -9708.234334973615, 1714.1329305330432, -25586.086581478907, -10393.829392651247, -167759.54279417312, -17017.858268959317, -27770.00847697359, -34824.6213584687, 0.056, 0.972, -0.14400000000000002, 192.0, 0.0, 0.0, 0.0, 0.0, 0.0, 0.0, 0.0, 0.0, 0.0, 1.741026572628925E9, 0.0, 2025-03-03 12:29:32.628
5.0, -9635.85938642733, 1810.9606875134334, -25594.98257577212, -10410.973180648469, -167709.65370054886, -17032.789234255462, -27782.83837829094, -34834.34436730675, 0.056, 0.972, -0.14400000000000002, 192.0, 0.0, 0.0, 0.0, 0.0, 0.0, 0.0, 0.0, 0.0, 0.0, 1.741026572628951E9, 0.0, 2025-03-03 12:29:32.628
6.0, -9670.01285195504, 1776.4048905855288, -25613.288654481014, -10428.474596556975, -167691.43702881777, -17044.70271405014, -27793.92484354077, -34853.85744021624, 0.056, 0.972, -0.14400000000000002, 192.0, 0.0, 0.0, 0.0, 0.0, 0.0, 0.0, 0.0, 0.0, 0.0, 1.741026572628982E9, 0.0, 2025-03-03 12:29:32.628
7.0, -9719.432558945724, 1704.4099216949849, -25599.00588977407, -10412.403692293608, -167725.72460481222, -17028.78827199796, -27778.368029399877, -34843.82150695581, 0.056, 0.972, -0.14400000000000002, 192.0, 0.0, 0.0, 0.0, 0.0, 0.0, 0.0, 0.0, 0.0, 0.0, 1.741026572629018E9, 0.0, 2025-03-03 12:29:32.629
8.0, -9683.937988750695, 1713.5070816882946, -25585.572491356434, -10412.046064382323, -167743.67305560983, -17026.642504530253, -27770.321401395966, -34827.392974781156, 0.056, 0.972, -0.14400000000000002, 192.0, 0.0, 0.0, 0.0, 0.0, 0.0, 0.0, 0.0, 0.0, 0.0, 1.74102657262905E9, 0.0, 2025-03-03 12:29:32.629
9.0, -9616.055740839927, 1803.8081292877353, -25590.266357692046, -10414.817680694781, -167689.62653751692, -17034.4209116007, -27775.21643343168, -34838.41238479762, 0.056, 0.972, -0.14400000000000002, 192.0, 0.0, 0.0, 0.0, 0.0, 0.0, 0.0, 0.0, 0.0, 0.0, 1.741026572629076E9, 0.0, 2025-03-03 12:29:32.629
10.0, -9661.832113484397, 1772.7392044948585, -25597.530674640024, -10417.34342781823, -167692.08522940698, -17037.147824424246, -27767.505081594598, -34837.18303885258, 0.056, 0.972, -0.14400000000000002, 192.0, 0.0, 0.0, 0.0, 0.0, 0.0, 0.0, 0.0, 0.0, 0.0, 1.741026572629102E9, 0.0, 2025-03-03 12:29:32.629
11.0, -9723.008838058573, 1693.6363808675267, -25601.643395619798, -10418.148090618623, -167742.26489570914, -17037.214879657615, -27768.30974439499, -34831.013957382915, 0.056, 0.976, -0.14200000000000002, 192.0, 1.0, 192.0, 30.0, 128.0, 251.0, 144.0, 0.0, 0.0, 0.0, 1.741026572629128E9, 0.0, 2025-03-03 12:29:32.629
12.0, -9721.310105479968, 1691.1329854885323, -25606.20315148868, -10422.819605209781, -167770.18222453384, -17037.930135480183, -27774.97056424267, -34836.73600396347, 0.056, 0.976, -0.14200000000000002, 192.0, 0.0, 0.0, 0.0, 0.0, 0.0, 0.0, 0.0, 0.0, 0.0, 1.741026572629157E9, 0.0, 2025-03-03 12:29:32.629
13.0, -9652.153808135248, 1777.9248092084897, -25607.20897998917, -10428.765169234894, -167716.85096226347, -17043.65218206074, -27780.714962567683, -34844.782631967384, 0.056, 0.976, -0.14200000000000002, 192.0, 0.0, 0.0, 0.0, 0.0, 0.0, 0.0, 0.0, 0.0, 0.0, 1.741026572629184E9, 0.0, 2025-03-03 12:29:32.629
14.0, -9644.397752809256, 1798.7566350408358, -25602.850389820385, -10423.780730221359, -167670.85107217444, -17044.166272183214, -27774.523529353566, -34847.19662036856, 0.056, 0.976, -0.14200000000000002, 192.0, 0.0, 0.0, 0.0, 0.0, 0.0, 0.0, 0.0, 0.0, 0.0, 1.741026572629224E9, 0.0, 2025-03-03 12:29:32.629
15.0, -9722.718265380654, 1711.71894213187, -25616.194381260204, -10435.291878615843, -167703.26110163465, -17049.03895247447, -27785.744105070127, -34860.38414959719, 0.056, 0.976, -0.14200000000000002, 192.0, 0.0, 0.0, 0.0, 0.0, 0.0, 0.0, 0.0, 0.0, 0.0, 1.741026572688123E9, 0.0, 2025-03-03 12:29:32.688
16.0, -9737.31395450997, 1690.0377500102222, -25615.345014970902, -10444.456093842518, -167726.4398606348, -17055.31979266641, -27788.44866614922, -34865.01096069944, 0.056, 0.976, -0.14200000000000002, 192.0, 0.0, 0.0, 0.0, 0.0, 0.0, 0.0, 0.0, 0.0, 0.0, 1.74102657268818E9, 0.0, 2025-03-03 12:29:32.688
17.0, -9679.400584626268, 1752.2873583182525, -25609.287692223515, -10441.259794385409, -167718.57204658655, -17045.865004761818, -27786.21349170369, -34863.22282114301, 0.056, 0.976, -0.14200000000000002, 192.0, 0.0, 0.0, 0.0, 0.0, 0.0, 0.0, 0.0, 0.0, 0.0, 1.741026572688207E9, 0.0, 2025-03-03 12:29:32.688
18.0, -9652.511436046534, 1798.4884141073721, -25615.25560799308, -10444.97018396499, -167672.3262873085, -17044.523900094497, -27788.895701038327, -34849.58825702527, 0.056, 0.976, -0.14200000000000002, 192.0, 0.0, 0.0, 0.0, 0.0, 0.0, 0.0, 0.0, 0.0, 0.0, 1.741026572688237E9, 0.0, 2025-03-03 12:29:32.688
19.0, -9742.87953887934, 1697.2573634692865, -25618.809535361474, -10441.148035663133, -167742.62252362043, -17042.735760538075, -27777.2057386882, -34842.74862322195, 0.056, 0.976, -0.14200000000000002, 192.0, 0.0, 0.0, 0.0, 0.0, 0.0, 0.0, 0.0, 0.0, 0.0, 1.741026572688264E9, 0.0, 2025-03-03 12:29:32.688
20.0, -9775.021347406071, 1664.981444475823, -25609.220636990147, -10422.01494240939, -167810.43771629783, -17038.75715002503, -27772.3554101414, -34842.86038194423, 0.056, 0.976, -0.14200000000000002, 192.0, 0.0, 0.0, 0.0, 0.0, 0.0, 0.0, 0.0, 0.0, 0.0, 1.741026572688291E9, 0.0, 2025-03-03 12:29:32.688
21.0, -9664.491971074578, 1745.4253727704731, -25598.603558373878, -10424.183061621556, -167775.05490482508, -17042.80281577144, -27781.96666025718, -34851.644617515165, 0.054, 0.97, -0.148, 192.0, 1.0, 176.0, 30.0, 80.0, 251.0, 96.0, 0.0, 0.0, 0.0, 1.74102657268832E9, 0.0, 2025-03-03 12:29:32.688
22.0, -9627.544537489955, 1803.3387426541738, -25599.609386874366, -10435.716561760493, -167722.95298849978, -17053.75517055454, -27782.033715490546, -34859.244210629964, 0.054, 0.97, -0.148, 192.0, 0.0, 0.0, 0.0, 0.0, 0.0, 0.0, 0.0, 0.0, 0.0, 1.741026572688358E9, 0.0, 2025-03-03 12:29:32.688
23.0, -9695.87382028983, 1731.3884772525403, -25596.480142650624, -10427.468768056486, -167741.81786082004, -17039.31594363641, -27775.886985765337, -34845.36377732322, 0.054, 0.97, -0.148, 192.0, 0.0, 0.0, 0.0, 0.0, 0.0, 0.0, 0.0, 0.0, 0.0, 1.74102657268839E9, 0.0, 2025-03-03 12:29:32.688
24.0, -9735.078780064438, 1682.147584217499, -25595.3402036834, -10413.320113816275, -167792.57867247806, -17029.816452242907, -27774.769398542572, -34840.46874528751, 0.054, 0.97, -0.148, 192.0, 0.0, 0.0, 0.0, 0.0, 0.0, 0.0, 0.0, 0.0, 0.0, 1.741026572688415E9, 0.0, 2025-03-03 12:29:32.688
25.0, -9696.812593556953, 1723.7441806488255, -25591.540407126, -10416.985799906946, -167807.82256219658, -17030.442301087656, -27777.317497410477, -34840.49109703196, 0.054, 0.97, -0.148, 192.0, 0.0, 0.0, 0.0, 0.0, 0.0, 0.0, 0.0, 0.0, 0.0, 1.741026572688442E9, 0.0, 2025-03-03 12:29:32.688
26.0, -9636.149959105249, 1807.78673980078, -25591.87568329283, -10429.547480290828, -167758.98400056173, -17039.539461080964, -27784.537110869544, -34851.75637623744, 0.054, 0.97, -0.148, 192.0, 0.0, 0.0, 0.0, 0.0, 0.0, 0.0, 0.0, 0.0, 0.0, 1.741026572688469E9, 0.0, 2025-03-03 12:29:32.688
27.0, -9680.808744526952, 1760.244579344342, -25606.985462544617, -10447.227710154977, -167744.12009049894, -17060.572452613407, -27797.2105499757, -34866.888507233685, 0.054, 0.97, -0.148, 192.0, 0.0, 0.0, 0.0, 0.0, 0.0, 0.0, 0.0, 0.0, 0.0, 1.741026572688496E9, 0.0, 2025-03-03 12:29:32.688
28.0, -9732.195405029703, 1683.823965051647, -25602.06807876445, -10442.220919396988, -167812.44937329882, -17052.883452520782, -27781.631384090353, -34858.17132689611, 0.054, 0.97, -0.148, 192.0, 0.0, 0.0, 0.0, 0.0, 0.0, 0.0, 0.0, 0.0, 0.0, 1.741026572688523E9, 0.0, 2025-03-03 12:29:32.688
29.0, -9687.849544030374, 1723.431256226451, -25591.473351892633, -10435.962430949501, -167822.79823098163, -17044.255679161033, -27778.971526500172, -34854.61739952772, 0.054, 0.97, -0.148, 192.0, 0.0, 0.0, 0.0, 0.0, 0.0, 0.0, 0.0, 0.0, 0.0, 1.741026572688557E9, 0.0, 2025-03-03 12:29:32.688
30.0, -9628.393903779257, 1815.9004230380565, -25598.804724073976, -10443.986707208956, -167764.84015760903, -17047.56373734042, -27792.092000495435, -34864.85449848825, 0.054, 0.97, -0.148, 192.0, 0.0, 0.0, 0.0, 0.0, 0.0, 0.0, 0.0, 0.0, 0.0, 1.741026572747895E9, 0.0, 2025-03-03 12:29:32.747
31.0, -9684.027395728517, 1781.076405176688, -25617.02139580505, -10445.417218854096, -167744.96945678824, -17053.196376943157, -27797.054087764514, -34869.257792145945, 0.06, 0.974, -0.148, 192.0, 1.0, 224.0, 30.0, 112.0, 251.0, 96.0, 0.0, 0.0, 0.0, 1.741026572747942E9, 0.0, 2025-03-03 12:29:32.747
32.0, -9749.138027326826, 1697.235011724831, -25611.656977135775, -10442.958526964012, -167793.33863178952, -17054.202205443646, -27790.54973012802, -34866.79910025586, 0.06, 0.974, -0.148, 192.0, 0.0, 0.0, 0.0, 0.0, 0.0, 0.0, 0.0, 0.0, 0.0, 1.741026572747971E9, 0.0, 2025-03-03 12:29:32.747
33.0, -9706.692064606199, 1696.6315146245379, -25598.26828220705, -10429.815701224292, -167828.27440837317, -17036.767844768507, -27786.325250425965, -34863.736911265485, 0.06, 0.974, -0.148, 192.0, 0.0, 0.0, 0.0, 0.0, 0.0, 0.0, 0.0, 0.0, 0.0, 1.741026572747997E9, 0.0, 2025-03-03 12:29:32.747
34.0, -9633.087770114871, 1790.3300273811851, -25605.77846834403, -10424.339523832741, -167768.70700939978, -17042.914574493716, -27795.02007901908, -34869.21308865704, 0.06, 0.974, -0.148, 192.0, 0.0, 0.0, 0.0, 0.0, 0.0, 0.0, 0.0, 0.0, 0.0, 1.741026572748028E9, 0.0, 2025-03-03 12:29:32.748
35.0, -9659.284014616493, 1782.68573077747, -25605.465543921655, -10425.367704077686, -167741.68375035332, -17050.581222841887, -27792.87431155137, -34867.20143165606, 0.06, 0.974, -0.148, 192.0, 0.0, 0.0, 0.0, 0.0, 0.0, 0.0, 0.0, 0.0, 0.0, 1.741026572748053E9, 0.0, 2025-03-03 12:29:32.748
36.0, -9713.084663520416, 1701.1018635155992, -25603.76681134305, -10425.121834888678, -167777.91592811537, -17044.18862392767, -27787.35343067091, -34859.87005947471, 0.06, 0.974, -0.148, 192.0, 0.0, 0.0, 0.0, 0.0, 0.0, 0.0, 0.0, 0.0, 0.0, 1.74102657274808E9, 0.0, 2025-03-03 12:29:32.748
37.0, -9717.219736244648, 1683.6675028404597, -25603.36447994286, -10428.564003534795, -167810.95180642031, -17041.528766337487, -27788.336907426943, -34863.22282114301, 0.06, 0.974, -0.148, 192.0, 0.0, 0.0, 0.0, 0.0, 0.0, 0.0, 0.0, 0.0, 0.0, 1.741026572748116E9, 0.0, 2025-03-03 12:29:32.748
38.0, -9661.966223951129, 1755.4613060309061, -25604.929102054728, -10442.82441649728, -167787.61658520898, -17048.837786774373, -27797.277605209067, -34872.677609047605, 0.06, 0.974, -0.148, 192.0, 0.0, 0.0, 0.0, 0.0, 0.0, 0.0, 0.0, 0.0, 0.0, 1.741026572748149E9, 0.0, 2025-03-03 12:29:32.748
39.0, -9664.514322819034, 1774.236771373364, -25604.794991587998, -10439.1140269177, -167755.54183191562, -17049.530690852487, -27798.663413365295, -34881.88652776319, 0.06, 0.974, -0.148, 192.0, 0.0, 0.0, 0.0, 0.0, 0.0, 0.0, 0.0, 0.0, 0.0, 1.741026572748176E9, 0.0, 2025-03-03 12:29:32.748
40.0, -9724.551108425989, 1694.3516366900965, -25603.744459598598, -10431.02269542488, -167782.9003671289, -17043.518071594008, -27794.327174940965, -34872.00705671395, 0.06, 0.974, -0.148, 192.0, 0.0, 0.0, 0.0, 0.0, 0.0, 0.0, 0.0, 0.0, 0.0, 1.741026572748203E9, 0.0, 2025-03-03 12:29:32.748
41.0, -9721.265401991059, 1679.1971539493984, -25590.82515130343, -10421.836128453748, -167811.17532386488, -17030.66581853221, -27783.196006202223, -34853.36570183822, 0.054, 0.97, -0.152, 192.0, 1.0, 176.0, 30.0, 80.0, 251.0, 64.0, 0.0, 0.0, 0.0, 1.74102657274823E9, 0.0, 2025-03-03 12:29:32.748
42.0, -9662.748535007064, 1740.2174163123866, -25601.55398864198, -10446.065419443301, -167797.6078149805, -17047.630792573786, -27793.65662260731, -34873.99636197047, 0.054, 0.97, -0.152, 192.0, 0.0, 0.0, 0.0, 0.0, 0.0, 0.0, 0.0, 0.0, 0.0, 1.741026572748258E9, 0.0, 2025-03-03 12:29:32.748
43.0, -9642.85548244184, 1778.8412307311573, -25610.07000327945, -10441.706829274515, -167745.01416027715, -17050.782388541986, -27798.79752383203, -34874.912783493135, 0.054, 0.97, -0.152, 192.0, 0.0, 0.0, 0.0, 0.0, 0.0, 0.0, 0.0, 0.0, 0.0, 1.741026572748285E9, 0.0, 2025-03-03 12:29:32.748
44.0, -9707.563782639954, 1688.7413488318145, -25602.179837486725, -10431.603840780717, -167787.43777125335, -17044.23332741658, -27787.755762071105, -34854.34917859425, 0.054, 0.97, -0.152, 192.0, 0.0, 0.0, 0.0, 0.0, 0.0, 0.0, 0.0, 0.0, 0.0, 1.741026572748318E9, 0.0, 2025-03-03 12:29:32.748
45.0, -9726.674524149243, 1664.668520053449, -25602.179837486725, -10434.755436748916, -167828.1626496509, -17040.835862259373, -27787.174616715267, -34854.23741987198, 0.054, 0.97, -0.152, 192.0, 0.0, 0.0, 0.0, 0.0, 0.0, 0.0, 0.0, 0.0, 0.0, 1.741026572808214E9, 0.0, 2025-03-03 12:29:32.808
46.0, -9678.953549737162, 1728.594509195627, -25591.24983444808, -10431.380323336163, -167817.5679227791, -17043.89805124975, -27784.60416610291, -34861.43468158659, 0.054, 0.97, -0.152, 192.0, 0.0, 0.0, 0.0, 0.0, 0.0, 0.0, 0.0, 0.0, 0.0, 1.741026572808276E9, 0.0, 2025-03-03 12:29:32.808
47.0, -9630.182043335682, 1800.6341815750816, -25592.30036643748, -10423.423102310075, -167760.07923604004, -17040.3217721369, -27784.73827656964, -34850.07999540329, 0.054, 0.97, -0.152, 192.0, 0.0, 0.0, 0.0, 0.0, 0.0, 0.0, 0.0, 0.0, 0.0, 1.741026572808303E9, 0.0, 2025-03-03 12:29:32.808
48.0, -9691.716395821142, 1732.4390092419399, -25601.4422299197, -10428.698114001527, -167771.65743966788, -17043.56277508292, -27785.744105070127, -34831.03630912737, 0.054, 0.97, -0.152, 192.0, 0.0, 0.0, 0.0, 0.0, 0.0, 0.0, 0.0, 0.0, 0.0, 1.741026572808334E9, 0.0, 2025-03-03 12:29:32.808
49.0, -9724.282887492525, 1683.2204679513536, -25602.44805842019, -10438.801102495325, -167812.6728907434, -17050.84944377535, -27781.74314281263, -34825.09074510226, 0.054, 0.97, -0.152, 192.0, 0.0, 0.0, 0.0, 0.0, 0.0, 0.0, 0.0, 0.0, 0.0, 1.741026572808365E9, 0.0, 2025-03-03 12:29:32.808
50.0, -9682.663939316742, 1722.6489451705154, -25602.045727019995, -10440.1645589071, -167814.5727890221, -17052.302307164944, -27780.625555589864, -34813.534893218864, 0.054, 0.97, -0.152, 192.0, 0.0, 0.0, 0.0, 0.0, 0.0, 0.0, 0.0, 0.0, 0.0, 1.741026572808391E9, 0.0, 2025-03-03 12:29:32.808
51.0, -9627.119854345305, 1798.6001728296487, -25600.346994441392, -10444.791370009349, -167767.99175357723, -17040.65704830373, -27776.11050320989, -34804.728305903474, 0.056, 0.978, -0.152, 192.0, 1.0, 192.0, 30.0, 144.0, 251.0, 64.0, 0.0, 0.0, 0.0, 1.741026572808417E9, 0.0, 2025-03-03 12:29:32.808
52.0, -9690.934084765207, 1732.9530993644119, -25609.421802690245, -10449.149960178132, -167785.91785263037, -17047.98842048507, -27769.181462428747, -34800.056791312316, 0.056, 0.978, -0.152, 192.0, 0.0, 0.0, 0.0, 0.0, 0.0, 0.0, 0.0, 0.0, 0.0, 1.74102657280845E9, 0.0, 2025-03-03 12:29:32.808
53.0, -9708.25668671807, 1669.6082555780717, -25602.716279353655, -10439.06932342879, -167834.68935903185, -17048.770731541008, -27764.129968181845, -34781.035456780846, 0.056, 0.978, -0.152, 192.0, 0.0, 0.0, 0.0, 0.0, 0.0, 0.0, 0.0, 0.0, 0.0, 1.74102657280848E9, 0.0, 2025-03-03 12:29:32.808
54.0, -9660.893340217273, 1700.3195524596636, -25596.41308741726, -10434.375457093174, -167837.28216138866, -17035.963181968116, -27753.647000032306, -34758.46019488099, 0.056, 0.978, -0.152, 192.0, 0.0, 0.0, 0.0, 0.0, 0.0, 0.0, 0.0, 0.0, 0.0, 1.741026572808512E9, 0.0, 2025-03-03 12:29:32.808
55.0, -9606.131566301772, 1792.6322570600817, -25604.41501193226, -10448.568814822294, -167772.30564025708, -17037.930135480183, -27759.16788091277, -34755.97915124645, 0.056, 0.978, -0.152, 192.0, 0.0, 0.0, 0.0, 0.0, 0.0, 0.0, 0.0, 0.0, 0.0, 1.741026572808539E9, 0.0, 2025-03-03 12:29:32.808
56.0, -9666.81655249793, 1742.1843698244536, -25608.818305589954, -10450.02167821189, -167786.58840496404, -17049.217766430113, -27751.97061919816, -34750.83825002173, 0.056, 0.978, -0.152, 192.0, 0.0, 0.0, 0.0, 0.0, 0.0, 0.0, 0.0, 0.0, 0.0, 1.741026572808566E9, 0.0, 2025-03-03 12:29:32.808
57.0, -9721.600678157887, 1672.2234096793427, -25609.891189323807, -10437.39294259464, -167832.81181249762, -17045.32856289489, -27746.472090062154, -34741.22699990594, 0.056, 0.978, -0.152, 192.0, 0.0, 0.0, 0.0, 0.0, 0.0, 0.0, 0.0, 0.0, 0.0, 1.741026572808592E9, 0.0, 2025-03-03 12:29:32.808
58.0, -9718.40437870078, 1681.7229010728481, -25609.421802690245, -10445.573681065283, -167856.39290289796, -17035.762016268018, -27741.331188837434, -34729.648796278096, 0.056, 0.978, -0.152, 192.0, 0.0, 0.0, 0.0, 0.0, 0.0, 0.0, 0.0, 0.0, 0.0, 1.741026572808623E9, 0.0, 2025-03-03 12:29:32.808
59.0, -9615.876926884286, 1772.4709835613949, -25595.250796705583, -10439.471654828985, -167803.5086755167, -17033.146862166748, -27737.084357390926, -34725.26785436486, 0.056, 0.978, -0.152, 192.0, 0.0, 0.0, 0.0, 0.0, 0.0, 0.0, 0.0, 0.0, 0.0, 1.741026572808653E9, 0.0, 2025-03-03 12:29:32.808
60.0, -9632.305459058936, 1754.9248641639788, -25599.02824151853, -10435.582451293762, -167785.4037625079, -17034.107987178326, -27731.876400932837, -34718.62938626163, 0.056, 0.978, -0.152, 192.0, 0.0, 0.0, 0.0, 0.0, 0.0, 0.0, 0.0, 0.0, 0.0, 1.741026572868402E9, 0.0, 2025-03-03 12:29:32.868
61.0, -9700.053596502972, 1664.4897060978064, -25594.55789262747, -10417.075206884767, -167827.69326301734, -17026.821318485894, -27722.645130472796, -34712.90733968107, 0.056, 0.978, -0.146, 192.0, 1.0, 192.0, 30.0, 144.0, 251.0, 112.0, 0.0, 0.0, 0.0, 1.741026572868455E9, 0.0, 2025-03-03 12:29:32.868
62.0, -9676.114878191338, 1665.7414037873036, -25585.237215189605, -10421.702017987016, -167841.75251027974, -17032.968048211103, -27723.293331062, -34718.182351372525, 0.056, 0.978, -0.146, 192.0, 0.0, 0.0, 0.0, 0.0, 0.0, 0.0, 0.0, 0.0, 0.0, 1.741026572868488E9, 0.0, 2025-03-03 12:29:32.868
63.0, -9626.494005500557, 1742.787866924747, -25587.628851846323, -10431.290916358343, -167813.29873958812, -17037.03606570197, -27724.58973224041, -34720.50693279588, 0.056, 0.978, -0.146, 192.0, 0.0, 0.0, 0.0, 0.0, 0.0, 0.0, 0.0, 0.0, 0.0, 1.741026572868515E9, 0.0, 2025-03-03 12:29:32.868
64.0, -9627.455130512135, 1768.3806143260736, -25584.00786924456, -10429.189852379544, -167787.63893695342, -17034.912649978716, -27721.996929883593, -34716.61772926065, 0.056, 0.978, -0.146, 192.0, 0.0, 0.0, 0.0, 0.0, 0.0, 0.0, 0.0, 0.0, 0.0, 1.741026572868546E9, 0.0, 2025-03-03 12:29:32.868
65.0, -9689.168296953238, 1684.4274621519403, -25587.7406105686, -10429.793349479836, -167836.45514684383, -17028.765920253507, -27717.951264137184, -34720.5963397737, 0.056, 0.978, -0.146, 192.0, 0.0, 0.0, 0.0, 0.0, 0.0, 0.0, 0.0, 0.0, 0.0, 1.741026572868573E9, 0.0, 2025-03-03 12:29:32.868
66.0, -9686.575494596422, 1674.6150463360605, -25583.940814011195, -10427.781692478859, -167861.1761762114, -17020.115795149304, -27715.24670305809, -34711.29801408029, 0.056, 0.978, -0.146, 192.0, 0.0, 0.0, 0.0, 0.0, 0.0, 0.0, 0.0, 0.0, 0.0, 1.741026572868599E9, 0.0, 2025-03-03 12:29:32.868
67.0, -9628.818586923908, 1750.9686053953894, -25581.34801165438, -10429.927459946568, -167821.50182980322, -17019.646408515742, -27716.453697258676, -34706.157112855566, 0.056, 0.978, -0.146, 192.0, 0.0, 0.0, 0.0, 0.0, 0.0, 0.0, 0.0, 0.0, 0.0, 1.741026572868625E9, 0.0, 2025-03-03 12:29:32.868
68.0, -9618.08974958536, 1775.533172551772, -25584.186683200205, -10436.565928049795, -167802.72636446077, -17021.054568416424, -27716.431345514222, -34710.82862744673, 0.056, 0.978, -0.146, 192.0, 0.0, 0.0, 0.0, 0.0, 0.0, 0.0, 0.0, 0.0, 0.0, 1.741026572868659E9, 0.0, 2025-03-03 12:29:32.868
69.0, -9685.547314351477, 1687.7131685868703, -25590.378116414326, -10449.0158497114, -167835.53872532115, -17029.70469352063, -27718.286540304012, -34718.27175835035, 0.056, 0.978, -0.146, 192.0, 0.0, 0.0, 0.0, 0.0, 0.0, 0.0, 0.0, 0.0, 0.0, 1.741026572868689E9, 0.0, 2025-03-03 12:29:32.868
70.0, -9703.58517212691, 1657.1359821720102, -25584.700773322675, -10443.53967231985, -167870.34039143808, -17034.84559474535, -27719.67234846024, -34726.02781367634, 0.056, 0.978, -0.146, 192.0, 0.0, 0.0, 0.0, 0.0, 0.0, 0.0, 0.0, 0.0, 0.0, 1.741026572868717E9, 0.0, 2025-03-03 12:29:32.868
71.0, -9643.436627797679, 1717.2174712678757, -25574.77659878452, -10430.262736113398, -167862.1596529674, -17033.906821478227, -27718.10772634837, -34730.833438734226, 0.054, 0.974, -0.14400000000000002, 192.0, 1.0, 176.0, 30.0, 112.0, 251.0, 128.0, 0.0, 0.0, 0.0, 1.741026572868743E9, 0.0, 2025-03-03 12:29:32.868
72.0, -9606.533897701967, 1788.3183703802074, -25582.420895388233, -10443.316154875298, -167802.56990224958, -17038.51128083602, -27724.455621773675, -34738.0977556822, 0.054, 0.974, -0.14400000000000002, 192.0, 0.0, 0.0, 0.0, 0.0, 0.0, 0.0, 0.0, 0.0, 0.0, 1.741026572868773E9, 0.0, 2025-03-03 12:29:32.868
73.0, -9677.321872391925, 1713.3953229660183, -25582.64441283279, -10441.103332174222, -167811.80117270962, -17036.589030812866, -27719.04649961549, -34726.65366252109, 0.054, 0.974, -0.14400000000000002, 192.0, 0.0, 0.0, 0.0, 0.0, 0.0, 0.0, 0.0, 0.0, 0.0, 1.7410265728688E9, 0.0, 2025-03-03 12:29:32.868
74.0, -9708.569611140443, 1659.818191506647, -25584.343145411392, -10452.346259635242, -167850.40263538394, -17031.89516447725, -27719.06885135995, -34731.056956178785, 0.054, 0.974, -0.14400000000000002, 192.0, 0.0, 0.0, 0.0, 0.0, 0.0, 0.0, 0.0, 0.0, 0.0, 1.741026572868827E9, 0.0, 2025-03-03 12:29:32.868
75.0, -9655.618328525821, 1701.7724158492586, -25571.647354560777, -10457.55421609333, -167832.52123981967, -17035.963181968116, -27716.20782806967, -34732.06278467927, 0.054, 0.974, -0.14400000000000002, 192.0, 0.0, 0.0, 0.0, 0.0, 0.0, 0.0, 0.0, 0.0, 0.0, 1.741026572928628E9, 0.0, 2025-03-03 12:29:32.928
76.0, -9621.397807764746, 1775.3320068516741, -25576.07299996293, -10441.349201363231, -167787.66128869788, -17036.70078953514, -27717.928912392726, -34726.363089843166, 0.054, 0.974, -0.14400000000000002, 192.0, 0.0, 0.0, 0.0, 0.0, 0.0, 0.0, 0.0, 0.0, 0.0, 1.741026572928682E9, 0.0, 2025-03-03 12:29:32.928
77.0, -9665.29663387497, 1713.0600467991885, -25568.853386503863, -10439.270489128887, -167802.83812318303, -17035.694961034653, -27709.971691366638, -34726.296034609804, 0.054, 0.974, -0.14400000000000002, 192.0, 0.0, 0.0, 0.0, 0.0, 0.0, 0.0, 0.0, 0.0, 0.0, 1.741026572928714E9, 0.0, 2025-03-03 12:29:32.928
78.0, -9700.455927903167, 1641.4450575643848, -25565.902956235765, -10442.422085097085, -167857.73400756528, -17031.55988831042, -27709.43524949971, -34727.36891834366, 0.054, 0.974, -0.14400000000000002, 192.0, 0.0, 0.0, 0.0, 0.0, 0.0, 0.0, 0.0, 0.0, 0.0, 1.741026572928741E9, 0.0, 2025-03-03 12:29:32.928
79.0, -9677.612445069844, 1667.3507293880857, -25561.76788351153, -10440.633945540661, -167874.36370544002, -17031.045798187948, -27712.273921045533, -34730.006424189385, 0.054, 0.974, -0.14400000000000002, 192.0, 0.0, 0.0, 0.0, 0.0, 0.0, 0.0, 0.0, 0.0, 0.0, 1.741026572928774E9, 0.0, 2025-03-03 12:29:32.928
80.0, -9608.925534358685, 1770.4369748159618, -25556.53757530899, -10442.287974630353, -167813.94694017732, -17038.645391302754, -27714.620854213343, -34737.11427892617, 0.054, 0.974, -0.14400000000000002, 192.0, 0.0, 0.0, 0.0, 0.0, 0.0, 0.0, 0.0, 0.0, 0.0, 1.741026572928801E9, 0.0, 2025-03-03 12:29:32.928
81.0, -9642.251985341547, 1738.563387222694, -25558.90686022125, -10427.714637245494, -167810.34830932002, -17038.377170369287, -27709.971691366638, -34740.15411617209, 0.062, 0.974, -0.15, 192.0, 1.0, 240.0, 30.0, 112.0, 251.0, 80.0, 0.0, 0.0, 0.0, 1.741026572928831E9, 0.0, 2025-03-03 12:29:32.928
82.0, -9704.881573305318, 1655.6831187824152, -25569.05455220396, -10439.315192617798, -167871.90501354993, -17038.176004669192, -27708.831752399416, -34728.531209055334, 0.062, 0.974, -0.15, 192.0, 0.0, 0.0, 0.0, 0.0, 0.0, 0.0, 0.0, 0.0, 0.0, 1.74102657292886E9, 0.0, 2025-03-03 12:29:32.928
83.0, -9695.762061567553, 1663.9979677197896, -25572.228499916615, -10427.960506434501, -167889.54053992516, -17034.242097645056, -27714.978482124625, -34723.278549108334, 0.062, 0.974, -0.15, 192.0, 0.0, 0.0, 0.0, 0.0, 0.0, 0.0, 0.0, 0.0, 0.0, 1.741026572928893E9, 0.0, 2025-03-03 12:29:32.928
84.0, -9627.09750260085, 1747.9958233828336, -25559.711523021644, -10421.523204031373, -167858.60572559902, -17032.833937744374, -27709.21173205516, -34720.48458105142, 0.062, 0.974, -0.15, 192.0, 0.0, 0.0, 0.0, 0.0, 0.0, 0.0, 0.0, 0.0, 0.0, 1.741026572928924E9, 0.0, 2025-03-03 12:29:32.928
85.0, -9640.508549274035, 1747.1017536046213, -25569.05455220396, -10423.870137199181, -167840.8137370126, -17029.056492931424, -27709.859932644362, -34723.81499097526, 0.062, 0.974, -0.15, 192.0, 0.0, 0.0, 0.0, 0.0, 0.0, 0.0, 0.0, 0.0, 0.0, 1.741026572928951E9, 0.0, 2025-03-03 12:29:32.928
86.0, -9703.294599448991, 1668.9824067333232, -25576.900014507773, -10427.848747712225, -167881.2703944767, -17026.17311789669, -27710.77635416703, -34727.123049154645, 0.062, 0.974, -0.15, 192.0, 0.0, 0.0, 0.0, 0.0, 0.0, 0.0, 0.0, 0.0, 0.0, 1.741026572928977E9, 0.0, 2025-03-03 12:29:32.928
87.0, -9708.793128584997, 1660.1534676734768, -25573.6366598173, -10431.089750658244, -167906.72903141132, -17027.648333030742, -27712.05040360098, -34730.38640384512, 0.062, 0.974, -0.15, 192.0, 0.0, 0.0, 0.0, 0.0, 0.0, 0.0, 0.0, 0.0, 0.0, 1.741026572929005E9, 0.0, 2025-03-03 12:29:32.929
88.0, -9623.14124383226, 1741.3797070240626, -25556.850499731365, -10433.146111148133, -167877.8282258306, -17032.632772044275, -27713.615025712854, -34737.606017304184, 0.062, 0.974, -0.15, 192.0, 0.0, 0.0, 0.0, 0.0, 0.0, 0.0, 0.0, 0.0, 0.0, 1.741026572929032E9, 0.0, 2025-03-03 12:29:32.929
89.0, -9613.127662316283, 1765.296073591241, -25555.68820901969, -10434.487215815452, -167845.57465858158, -17026.195469641145, -27709.256435544066, -34738.16481091557, 0.062, 0.974, -0.15, 192.0, 0.0, 0.0, 0.0, 0.0, 0.0, 0.0, 0.0, 0.0, 0.0, 1.741026572929059E9, 0.0, 2025-03-03 12:29:32.929
90.0, -9677.187761925194, 1679.9347615164236, -25558.81745324343, -10439.739875762449, -167886.7242201238, -17026.821318485894, -27707.71416517665, -34731.68280502353, 0.062, 0.974, -0.15, 192.0, 0.0, 0.0, 0.0, 0.0, 0.0, 0.0, 0.0, 0.0, 0.0, 1.741026572989103E9, 0.0, 2025-03-03 12:29:32.989
91.0, -9684.29561666198, 1663.081546197122, -25554.458863074648, -10426.418236067086, -167917.4355170054, -17019.042911415447, -27703.19911279668, -34722.786810730315, 0.052000000000000005, 0.98, -0.148, 192.0, 1.0, 160.0, 30.0, 160.0, 251.0, 96.0, 0.0, 0.0, 0.0, 1.741026572989162E9, 0.0, 2025-03-03 12:29:32.989
92.0, -9622.023656609495, 1735.9035296325123, -25541.852479201854, -10420.62913425316, -167892.15569402644, -17018.484117804066, -27697.544121449486, -34727.50302881039, 0.052000000000000005, 0.98, -0.148, 192.0, 0.0, 0.0, 0.0, 0.0, 0.0, 0.0, 0.0, 0.0, 0.0, 1.741026572989203E9, 0.0, 2025-03-03 12:29:32.989
93.0, -9589.591275404844, 1787.3125418797188, -25552.24604037357, -10431.715599502993, -167837.77389976667, -17027.17894639718, -27703.24381628559, -34727.50302881039, 0.052000000000000005, 0.98, -0.148, 192.0, 0.0, 0.0, 0.0, 0.0, 0.0, 0.0, 0.0, 0.0, 0.0, 1.74102657298923E9, 0.0, 2025-03-03 12:29:32.989
94.0, -9671.309253133448, 1704.722846117359, -25558.705694521155, -10429.726294246471, -167874.05078101764, -17025.94960045214, -27698.28172901651, -34718.8976071951, 0.052000000000000005, 0.98, -0.148, 192.0, 0.0, 0.0, 0.0, 0.0, 0.0, 0.0, 0.0, 0.0, 0.0, 1.741026572989257E9, 0.0, 2025-03-03 12:29:32.989
95.0, -9681.792221282985, 1671.9328370014236, -25550.189679883682, -10437.39294259464, -167913.00987160325, -17032.14103366626, -27696.359478993356, -34721.22218861845, 0.052000000000000005, 0.98, -0.148, 192.0, 0.0, 0.0, 0.0, 0.0, 0.0, 0.0, 0.0, 0.0, 0.0, 1.741026572989289E9, 0.0, 2025-03-03 12:29:32.989
96.0, -9656.19947388166, 1728.2592330287973, -25549.76499673903, -10435.560099549306, -167902.30338600915, -17033.5715453114, -27697.76763889404, -34727.32421485474, 0.052000000000000005, 0.98, -0.148, 192.0, 0.0, 0.0, 0.0, 0.0, 0.0, 0.0, 0.0, 0.0, 0.0, 1.741026572989319E9, 0.0, 2025-03-03 12:29:32.989
97.0, -9609.149051803239, 1795.135652439076, -25539.885525689784, -10414.705921972505, -167862.60668785652, -17015.08665264686, -27689.072810300924, -34716.081287393725, 0.052000000000000005, 0.98, -0.148, 192.0, 0.0, 0.0, 0.0, 0.0, 0.0, 0.0, 0.0, 0.0, 0.0, 1.741026572989346E9, 0.0, 2025-03-03 12:29:32.989
98.0, -9659.060497171939, 1713.820006110669, -25550.34614209487, -10425.97120117798, -167895.7319731393, -17025.033178929472, -27695.487760959597, -34731.68280502353, 0.052000000000000005, 0.98, -0.148, 192.0, 0.0, 0.0, 0.0, 0.0, 0.0, 0.0, 0.0, 0.0, 0.0, 1.741026572989378E9, 0.0, 2025-03-03 12:29:32.989
99.0, -9678.461811359146, 1667.9989299772897, -25548.20037462716, -10429.59218377974, -167932.92527591292, -17019.042911415447, -27693.05142081397, -34727.123049154645, 0.052000000000000005, 0.98, -0.148, 192.0, 0.0, 0.0, 0.0, 0.0, 0.0, 0.0, 0.0, 0.0, 0.0, 1.74102657298941E9, 0.0, 2025-03-03 12:29:32.989
100.0, -9642.453151041645, 1711.6071834095935, -25544.646447258765, -10427.669933756582, -167937.06034863717, -17016.539516036453, -27696.962976093648, -34722.786810730315, 0.052000000000000005, 0.98, -0.148, 192.0, 0.0, 0.0, 0.0, 0.0, 0.0, 0.0, 0.0, 0.0, 0.0, 1.741026572989441E9, 0.0, 2025-03-03 12:29:32.989
101.0, -9584.450374180124, 1807.6079258451375, -25539.25967684504, -10425.278297099865, -167867.94875478136, -17020.115795149304, -27699.4887232171, -34725.82664797624, 0.054, 0.98, -0.15, 192.0, 1.0, 176.0, 30.0, 160.0, 251.0, 80.0, 0.0, 0.0, 0.0, 1.741026572989467E9, 0.0, 2025-03-03 12:29:32.989
102.0, -9651.86323545733, 1744.3971925255291, -25555.934078208695, -10432.833186725758, -167879.01286828672, -17027.98360919757, -27702.05917382946, -34733.53799981332, 0.054, 0.98, -0.15, 192.0, 0.0, 0.0, 0.0, 0.0, 0.0, 0.0, 0.0, 0.0, 0.0, 1.741026572989496E9, 0.0, 2025-03-03 12:29:32.989
103.0, -9693.169259210737, 1676.8055172926806, -25544.892316447775, -10421.187927864543, -167922.6881769524, -17020.22755387158, -27695.66657491524, -34730.60992128967, 0.054, 0.98, -0.15, 192.0, 0.0, 0.0, 0.0, 0.0, 0.0, 0.0, 0.0, 0.0, 0.0, 1.741026572989522E9, 0.0, 2025-03-03 12:29:32.989
104.0, -9667.040069942483, 1694.7763198347475, -25546.881621704295, -10429.793349479836, -167949.82319472113, -17030.2187836431, -27701.679194173717, -34738.56714231576, 0.054, 0.98, -0.15, 192.0, 0.0, 0.0, 0.0, 0.0, 0.0, 0.0, 0.0, 0.0, 0.0, 1.741026572989549E9, 0.0, 2025-03-03 12:29:32.989
105.0, -9593.256961495515, 1789.2124401584197, -25547.90980194924, -10434.375457093174, -167890.6804788924, -17018.484117804066, -27706.507170976067, -34746.81493601977, 0.054, 0.98, -0.15, 192.0, 0.0, 0.0, 0.0, 0.0, 0.0, 0.0, 0.0, 0.0, 0.0, 1.741026573048426E9, 0.0, 2025-03-03 12:29:33.048
106.0, -9645.71650573212, 1750.0968873616323, -25559.711523021644, -10435.336582104754, -167900.67170866393, -17017.14301313675, -27705.143714564292, -34748.044281964816, 0.054, 0.98, -0.15, 192.0, 0.0, 0.0, 0.0, 0.0, 0.0, 0.0, 0.0, 0.0, 0.0, 1.741026573048483E9, 0.0, 2025-03-03 12:29:33.048
107.0, -9676.696023547176, 1687.3555406755854, -25550.94963919516, -10418.885698185648, -167944.1458516295, -17015.51133579151, -27698.818170883438, -34744.24448540741, 0.054, 0.98, -0.15, 192.0, 0.0, 0.0, 0.0, 0.0, 0.0, 0.0, 0.0, 0.0, 0.0, 1.74102657304852E9, 0.0, 2025-03-03 12:29:33.048
108.0, -9654.321927347413, 1695.2457064683088, -25555.30822936395, -10421.478500542462, -167966.51994782925, -17017.70180674813, -27703.132057563314, -34751.77702328885, 0.054, 0.98, -0.15, 192.0, 0.0, 0.0, 0.0, 0.0, 0.0, 0.0, 0.0, 0.0, 0.0, 1.741026573048546E9, 0.0, 2025-03-03 12:29:33.048
109.0, -9591.871153339285, 1774.102660906632, -25555.598802041866, -10428.049913412324, -167932.7464619573, -17016.159536380714, -27710.664595444752, -34754.191011690025, 0.054, 0.98, -0.15, 192.0, 0.0, 0.0, 0.0, 0.0, 0.0, 0.0, 0.0, 0.0, 0.0, 1.741026573048572E9, 0.0, 2025-03-03 12:29:33.048
110.0, -9619.676723441687, 1756.0871548756547, -25568.361648125847, -10433.727256503971, -167931.4947642678, -17030.33054236538, -27720.544066493996, -34766.05978799579, 0.054, 0.98, -0.15, 192.0, 0.0, 0.0, 0.0, 0.0, 0.0, 0.0, 0.0, 0.0, 0.0, 1.741026573048606E9, 0.0, 2025-03-03 12:29:33.048
111.0, -9668.96231996564, 1687.9590377758789, -25569.05455220396, -10434.040180926346, -167971.50438684277, -17038.2207081581, -27721.52754325003, -34769.18903221953, 0.052000000000000005, 0.976, -0.15, 192.0, 1.0, 160.0, 30.0, 128.0, 251.0, 80.0, 0.0, 0.0, 0.0, 1.741026573048631E9, 0.0, 2025-03-03 12:29:33.048
112.0, -9667.755325765052, 1689.5236598877502, -25563.556023067955, -10427.357009334208, -167995.06312549868, -17027.693036519653, -27715.11259259136, -34757.342607658225, 0.052000000000000005, 0.976, -0.15, 192.0, 0.0, 0.0, 0.0, 0.0, 0.0, 0.0, 0.0, 0.0, 0.0, 1.741026573048662E9, 0.0, 2025-03-03 12:29:33.048
113.0, -9604.276371511982, 1777.7683469973026, -25560.24796488857, -10425.725331988971, -167956.86399422455, -17019.51229804901, -27718.4430025152, -34762.59526760522, 0.052000000000000005, 0.976, -0.15, 192.0, 0.0, 0.0, 0.0, 0.0, 0.0, 0.0, 0.0, 0.0, 0.0, 1.741026573048693E9, 0.0, 2025-03-03 12:29:33.048
114.0, -9618.38032226328, 1790.6653035480147, -25566.618212058333, -10433.123759403677, -167938.35674981558, -17030.75522551003, -27711.536313478508, -34757.56612510278, 0.052000000000000005, 0.976, -0.15, 192.0, 0.0, 0.0, 0.0, 0.0, 0.0, 0.0, 0.0, 0.0, 0.0, 1.741026573048725E9, 0.0, 2025-03-03 12:29:33.048
115.0, -9680.026433471017, 1709.9308025754456, -25567.311116136447, -10428.899279701625, -167968.46454959686, -17029.90585922073, -27711.87158964534, -34750.72649129945, 0.052000000000000005, 0.976, -0.15, 192.0, 0.0, 0.0, 0.0, 0.0, 0.0, 0.0, 0.0, 0.0, 0.0, 1.741026573048759E9, 0.0, 2025-03-03 12:29:33.048
116.0, -9685.368500395834, 1692.6752558559485, -25571.714409794142, -10438.64464028414, -167977.18172993444, -17031.403426099234, -27717.660691459263, -34756.67205532456, 0.052000000000000005, 0.976, -0.15, 192.0, 0.0, 0.0, 0.0, 0.0, 0.0, 0.0, 0.0, 0.0, 0.0, 1.741026573048785E9, 0.0, 2025-03-03 12:29:33.048
117.0, -9629.153863090738, 1745.1795035814648, -25563.66778179023, -10435.493044315941, -167964.32947687263, -17026.08371091887, -27719.784107182517, -34759.73424431494, 0.052000000000000005, 0.976, -0.15, 192.0, 0.0, 0.0, 0.0, 0.0, 0.0, 0.0, 0.0, 0.0, 0.0, 1.741026573048816E9, 0.0, 2025-03-03 12:29:33.048
118.0, -9593.972217318085, 1785.300884878741, -25561.544366066977, -10440.92451821858, -167929.46075552236, -17031.112853421313, -27719.270017060044, -34761.14240421562, 0.052000000000000005, 0.976, -0.15, 192.0, 0.0, 0.0, 0.0, 0.0, 0.0, 0.0, 0.0, 0.0, 0.0, 1.741026573048843E9, 0.0, 2025-03-03 12:29:33.048
119.0, -9665.408392597246, 1696.9667907913674, -25569.30042139297, -10438.711695517504, -167968.82217750815, -17030.487004576564, -27713.190342568203, -34752.02289247786, 0.052000000000000005, 0.976, -0.15, 192.0, 0.0, 0.0, 0.0, 0.0, 0.0, 0.0, 0.0, 0.0, 0.0, 1.74102657304887E9, 0.0, 2025-03-03 12:29:33.048
120.0, -9662.703831518154, 1675.8220405366471, -25550.97199093962, -10427.893451201136, -167995.21958770987, -17022.395673083745, -27705.456638986667, -34743.88685749613, 0.052000000000000005, 0.976, -0.15, 192.0, 0.0, 0.0, 0.0, 0.0, 0.0, 0.0, 0.0, 0.0, 0.0, 1.741026573108293E9, 0.0, 2025-03-03 12:29:33.108
121.0, -9612.166537304705, 1726.7393144058365, -25560.00209569956, -10451.474541601485, -167978.56753809066, -17034.51031857852, -27717.593636225898, -34761.16475596008, 0.05, 0.976, -0.15, 192.0, 1.0, 144.0, 30.0, 128.0, 251.0, 80.0, 0.0, 0.0, 0.0, 1.741026573108371E9, 0.0, 2025-03-03 12:29:33.108
122.0, -9581.119964256282, 1796.364998384118, -25558.996267199072, -10439.82928274027, -167930.2430665783, -17035.091463934357, -27716.990139125603, -34757.83434603624, 0.05, 0.976, -0.15, 192.0, 0.0, 0.0, 0.0, 0.0, 0.0, 0.0, 0.0, 0.0, 0.0, 1.741026573108407E9, 0.0, 2025-03-03 12:29:33.108
123.0, -9657.205302382148, 1735.076515087666, -25567.266412647536, -10437.348239105731, -167938.8484881936, -17033.906821478227, -27714.196171068692, -34749.38538663214, 0.05, 0.976, -0.15, 192.0, 0.0, 0.0, 0.0, 0.0, 0.0, 0.0, 0.0, 0.0, 0.0, 1.741026573108439E9, 0.0, 2025-03-03 12:29:33.108
124.0, -9667.44240134268, 1683.0863574846219, -25560.292668377482, -10434.263698370898, -167981.6967823144, -17029.928210965183, -27709.09997333288, -34744.73622378543, 0.05, 0.976, -0.15, 192.0, 0.0, 0.0, 0.0, 0.0, 0.0, 0.0, 0.0, 0.0, 0.0, 1.741026573108465E9, 0.0, 2025-03-03 12:29:33.108
