%OpenBCI Raw EXG Data
%Number of channels = 16
%Sample Rate = 125 Hz
%Board = OpenBCI_GUI$BoardCytonSerialDaisy
Sample Index, EXG Channel 0, EXG Channel 1, EXG Channel 2, EXG Channel 3, EXG Channel 4, EXG Channel 5, EXG Channel 6, EXG Channel 7, EXG Channel 8, EXG Channel 9, EXG Channel 10, EXG Channel 11, EXG Channel 12, EXG Channel 13, EXG Channel 14, EXG Channel 15, Accel Channel 0, Accel Channel 1, Accel Channel 2, Not Used, Digital Channel 0 (D11), Digital Channel 1 (D12), Digital Channel 2 (D13), Digital Channel 3 (D17), Not Used, Digital Channel 4 (D18), Analog Channel 0, Analog Channel 1, Analog Channel 2, Timestamp, Marker Channel, Timestamp (Formatted)
0.0, -21257.78302643097, 6254.711002673031, 27501.83224699882, -14564.329631844716, -53855.8130092398, 39424.23038771515, -24881.201968336343, 55971.33856670125, 0.0, 0.0, 0.0, 0.0, 0.0, 0.0, 0.0, 0.0, 0.0, 0.0, 0.0, 192.0, 0.0, 0.0, 0.0, 0.0, 0.0, 0.0, 0.0, 0.0, 0.0, 1.7447427711092997E9, 0.0, 2025-04-15 13:46:11.109
36.0, -21262.767465444504, 6291.680788002109, 27498.457133586067, -14576.690146528501, -53651.585120151656, 39466.81046090251, -24879.68204971338, 56084.237227945, -6525.211814071156, -20834.195117258445, -10036.849681955538, 8708.507860721094, 4144.259291202938, 4232.16870214566, 12320.505061209806, -187500.02235174447, 0.0, 0.0, 0.0, 192.0, 0.0, 0.0, 0.0, 0.0, 0.0, 0.0, 0.0, 0.0, 0.0, 1.7447427711102214E9, 0.0, 2025-04-15 13:46:11.110
0.0, -10721.46126287714, 2049.1408764291855, 13599.047195797826, -7218.115892185676, -25057.892508255543, 19750.761360020802, -12436.890594588589, 28348.628085688128, -3263.0641177969123, -10410.168517848077, -5037.010316492358, 4346.944909923663, 2057.3663183887384, 2100.773406120945, 6123.953297609484, -93750.01117587223, -0.068, 0.47400000000000003, 0.057, 192.0, 125.5, 96.0, 14.5, 80.0, 1.5, 72.0, 0.0, 0.0, 0.0, 1.7447427712191727E9, 0.0, 2025-04-15 13:46:11.219
2.0, -21429.042092447533, 4060.440249495536, 27173.194548272437, -14433.594278525625, -50152.01719427314, 39460.52962071057, -24906.526494804206, 56654.76550516672, -6558.985299943126, -20925.36788289164, -10042.728190747284, 8629.874423727326, 4106.149566906639, 4209.526385012435, 11963.882978425381, -187500.02235174447, -0.068, 0.47400000000000003, 0.057, 192.0, 0.0, 0.0, 0.0, 0.0, 0.0, 0.0, 0.0, 0.0, 0.0, 1.7447427712262082E9, 0.0, 2025-04-15 13:46:11.226
4.0, -21434.138290183342, 4058.473295983469, 27198.720240440398, -14420.451452785905, -50175.59828467349, 39449.62196941638, -24877.044543867654, 56616.924001803876, -6539.136950866813, -20900.311577357243, -10056.116885676014, 8642.704325044671, 4098.818194725299, 4199.959838385563, 11911.803413844516, -187500.02235174447, -0.068, 0.47400000000000003, 0.057, 192.0, 0.0, 0.0, 0.0, 0.0, 0.0, 0.0, 0.0, 0.0, 0.0, 1.7447427712342644E9, 0.0, 2025-04-15 13:46:11.234
6.0, -21439.972095486177, 4051.7230691579666, 27181.263528020805, -14429.548612779214, -50060.553855962025, 39432.99227154163, -24910.70627101735, 56678.03367114469, -6563.030965689536, -20932.31927541724, -10037.877862200483, 8633.160130162256, 4109.47997683048, 4204.631352976722, 11968.196865105256, -187500.02235174447, -0.068, 0.47400000000000003, 0.057, 192.0, 0.0, 0.0, 0.0, 0.0, 0.0, 0.0, 0.0, 0.0, 0.0, 1.7447427712412524E9, 0.0, 2025-04-15 13:46:11.241
8.0, -21422.314217366486, 4045.397525477115, 27204.688156209966, -14413.9023916605, -50109.5265280636, 39413.926233521255, -24901.430297068393, 56644.461350972815, -6544.76959046955, -20916.47188859843, -10065.057583458136, 8629.650906282772, 4097.767662735899, 4178.9044951086635, 11899.97934102766, -187500.02235174447, -0.14, 0.9520000000000001, 0.032, 192.0, 125.5, 80.0, 14.5, 96.0, 0.5, 0.0, 0.0, 0.0, 0.0, 1.744742771250324E9, 0.0, 2025-04-15 13:46:11.250
10.0, -21403.762269468578, 4073.717185701989, 27209.806705690233, -14398.36792926406, -50022.19826247672, 39425.43738191573, -24925.816050269135, 56687.376700327004, -6536.074761876436, -20917.924751988026, -10024.98090564977, 8647.509950102562, 4119.985296724474, 4203.714931454055, 11949.242585807157, -187500.02235174447, -0.14, 0.9520000000000001, 0.032, 192.0, 0.0, 0.0, 0.0, 0.0, 0.0, 0.0, 0.0, 0.0, 0.0, 1.7447427712583385E9, 0.0, 2025-04-15 13:46:11.258
12.0, -21410.959531183187, 4047.7891621338326, 27211.684252224477, -14387.952016347888, -50105.994952439665, 39404.78437003903, -24917.21062865384, 56641.73443814927, -6525.77060768254, -20895.304786599256, -10043.398743080943, 8643.79956052298, 4102.774453493887, 4194.237791805004, 11889.78694555604, -187500.02235174447, -0.14, 0.9520000000000001, 0.032, 192.0, 0.0, 0.0, 0.0, 0.0, 0.0, 0.0, 0.0, 0.0, 0.0, 1.7447427712654033E9, 0.0, 2025-04-15 13:46:11.265
14.0, -21420.414319087784, 4050.314909257282, 27198.34026078466, -14399.440812997917, -49965.87186644934, 39408.383000896334, -24932.767442794735, 56741.73614284232, -6544.0990381358915, -20917.075385698725, -10027.573708006586, 8631.036714439, 4110.619915797701, 4210.733379213021, 11941.08419908097, -187500.02235174447, -0.14, 0.9520000000000001, 0.032, 192.0, 0.0, 0.0, 0.0, 0.0, 0.0, 0.0, 0.0, 0.0, 0.0, 1.744742771273417E9, 0.0, 2025-04-15 13:46:11.273
16.0, -21414.58051378495, 4016.094388496207, 27203.794086431753, -14382.297025000695, -50095.713149990224, 39380.89035521631, -24918.596436810072, 56679.86651419003, -6549.374049827344, -20908.04528093878, -10063.962347979827, 8622.207775379155, 4088.7152062315, 4182.59253294379, 11888.892875777827, -187500.02235174447, -0.14, 0.9520000000000001, 0.032, 192.0, 0.0, 0.0, 0.0, 0.0, 0.0, 0.0, 0.0, 0.0, 0.0, 1.7447427712814744E9, 0.0, 2025-04-15 13:46:11.281
18.0, -21422.94006621123, 4041.1506940306062, 27203.995252131852, -14387.504981458782, -49946.22468307313, 39411.13226546434, -24919.803431010656, 56771.53101820124, -6538.1758258552345, -20917.678882799017, -10027.864280684506, 8644.51481634555, 4120.231165913483, 4212.543870513901, 11948.348516028944, -187500.02235174447, -0.14, 0.96, -0.01, 192.0, 125.5, 80.0, 15.0, 0.0, 127.5, 88.0, 0.0, 0.0, 0.0, 1.7447427712905376E9, 0.0, 2025-04-15 13:46:11.290
20.0, -21430.092624436933, 3992.1780219290285, 27190.80772290322, -14384.17457153494, -50075.88715265837, 39379.43749182671, -24919.445803099374, 56709.75079652677, -6548.927014938237, -20916.09190894269, -10064.968176480315, 8622.498348057074, 4090.615104510201, 4180.536172453902, 11897.319483437477, -187500.02235174447, -0.14, 0.96, -0.01, 192.0, 0.0, 0.0, 0.0, 0.0, 0.0, 0.0, 0.0, 0.0, 0.0, 1.7447427712985487E9, 0.0, 2025-04-15 13:46:11.298
22.0, -21431.120804681876, 4027.873757824154, 27204.19641783195, -14376.507923186771, -49912.138272778786, 39420.18472196874, -24905.56536979263, 56793.368672534074, -6539.651040989285, -20924.227943924423, -10040.314202346111, 8623.951211446669, 4119.180633924083, 4204.541945998901, 11939.02783859108, -187500.02235174447, -0.14, 0.96, -0.01, 192.0, 0.0, 0.0, 0.0, 0.0, 0.0, 0.0, 0.0, 0.0, 0.0, 1.7447427713055768E9, 0.0, 2025-04-15 13:46:11.305
24.0, -21430.04792094802, 3977.649388033079, 27198.452019506934, -14376.016184808754, -50046.986347077655, 39382.27616337254, -24910.393346594974, 56710.55545932716, -6540.746276467595, -20921.769252034337, -10062.218911912312, 8610.875440940314, 4100.874555215187, 4184.738300411499, 11901.789832328539, -187500.02235174447, -0.14, 0.96, -0.01, 192.0, 0.0, 0.0, 0.0, 0.0, 0.0, 0.0, 0.0, 0.0, 0.0, 1.7447427713136203E9, 0.0, 2025-04-15 13:46:11.313
26.0, -21431.679598293256, 4020.2741647093494, 27225.05059540875, -14377.983138320822, -49882.45515614214, 39417.837788800935, -24891.79669520816, 56779.599997949605, -6532.744351952595, -20915.175487420023, -10038.03432441167, 8630.94730746118, 4121.86284325872, 4200.429225019125, 11932.903460610327, -187500.02235174447, -0.14, 0.96, -0.01, 192.0, 0.0, 0.0, 0.0, 0.0, 0.0, 0.0, 0.0, 0.0, 0.0, 1.7447427713226752E9, 0.0, 2025-04-15 13:46:11.322
28.0, -21428.505650580606, 3962.3160913367383, 27211.974824902398, -14377.826676109635, -50004.763901801576, 39381.471500572145, -24900.22330286781, 56685.96854042632, -6540.969793912148, -20912.962664718947, -10052.674717029897, 8623.481824813107, 4107.647133785144, 4184.581838200312, 11920.83351860446, -187500.02235174447, -0.146, 0.968, -0.036000000000000004, 192.0, 125.5, 56.0, 15.0, 32.0, 127.0, 112.0, 0.0, 0.0, 0.0, 1.7447427713297122E9, 0.0, 2025-04-15 13:46:11.329
30.0, -21420.9060574658, 3998.7047313099783, 27238.372235104114, -14357.754809588769, -49869.6699583137, 39423.55983538149, -24872.30597404313, 56727.587488602105, -6531.827930429928, -20912.649740296572, -10036.380295321977, 8628.198042893177, 4125.595584582757, 4200.518631996945, 11944.056981093525, -187500.02235174447, -0.146, 0.968, -0.036000000000000004, 192.0, 0.0, 0.0, 0.0, 0.0, 0.0, 0.0, 0.0, 0.0, 0.0, 1.7447427713378005E9, 0.0, 2025-04-15 13:46:11.337
32.0, -21422.76125225559, 3942.6912597049786, 27212.8241911917, -14353.12799848652, -49975.63957877631, 39389.8981082318, -24897.74225923327, 56656.24072030077, -6532.856110674872, -20907.933522216503, -10043.063466914115, 8629.561499304951, 4112.989200709963, 4198.395216273691, 11945.129864827379, -187500.02235174447, -0.146, 0.968, -0.036000000000000004, 192.0, 0.0, 0.0, 0.0, 0.0, 0.0, 0.0, 0.0, 0.0, 0.0, 1.7447427713457847E9, 0.0, 2025-04-15 13:46:11.345
34.0, -21406.645644503315, 3986.1206991816402, 27245.524793329812, -14344.03083849321, -49861.82449600989, 39424.36449818188, -24876.73161944528, 56692.47289806282, -6519.8026919129725, -20903.038490180792, -10029.227737096278, 8640.692668043694, 4121.438160114069, 4202.619695975744, 11946.672135194796, -187500.02235174447, -0.146, 0.968, -0.036000000000000004, 192.0, 0.0, 0.0, 0.0, 0.0, 0.0, 0.0, 0.0, 0.0, 0.0, 1.744742771354856E9, 0.0, 2025-04-15 13:46:11.354
36.0, -21398.017871143566, 3948.5921202411796, 27229.72210999991, -14347.07067573913, -49959.389860557305, 39393.027352455545, -24904.87246571451, 56629.66449614341, -6511.867822631339, -20893.404888320554, -10015.704931700819, 8653.343755405398, 4128.635421828678, 4207.1347483557165, 11958.518559756109, -187500.02235174447, -0.146, 0.968, -0.036000000000000004, 192.0, 0.0, 0.0, 0.0, 0.0, 0.0, 0.0, 0.0, 0.0, 0.0, 1.7447427713618555E9, 0.0, 2025-04-15 13:46:11.361
38.0, -21396.341490309416, 3990.680455050523, 27255.024284723317, -14345.774274560723, -49884.77973756549, 39416.31787017797, -24879.369125291007, 56653.0220690992, -6501.362502737344, -20890.36505107463, -10010.675789198374, 8658.976395008134, 4133.709267820032, 4205.324257054836, 11936.859719378916, -187500.02235174447, -0.14400000000000002, 0.96, -0.052000000000000005, 192.0, 125.5, 64.0, 15.0, 0.0, 127.0, 48.0, 0.0, 0.0, 0.0, 1.7447427713699093E9, 0.0, 2025-04-15 13:46:11.369
40.0, -21399.42603104425, 3958.9633296684424, 27232.851354223654, -14354.469103153839, -49975.01372993156, 39390.3451431209, -24900.64798601246, 56591.77828929166, -6493.7405578780845, -20883.61482424913, -9996.035396580148, 8667.224188712144, 4140.034811500885, 4217.796530460898, 11961.536045257575, -187500.02235174447, -0.14400000000000002, 0.96, -0.052000000000000005, 192.0, 0.0, 0.0, 0.0, 0.0, 0.0, 0.0, 0.0, 0.0, 0.0, 1.7447427713779595E9, 0.0, 2025-04-15 13:46:11.377
42.0, -21405.28218809154, 3972.843762975188, 27249.123424187117, -14365.756734103768, -49924.27527001802, 39406.81837878447, -24881.380782291984, 56614.95704829181, -6499.216735269634, -20894.18719937649, -10009.379388019966, 8662.038583998512, 4133.776323053399, 4201.5915157308, 11937.642030434852, -187500.02235174447, -0.14400000000000002, 0.96, -0.052000000000000005, 192.0, 0.0, 0.0, 0.0, 0.0, 0.0, 0.0, 0.0, 0.0, 0.0, 1.744742771385994E9, 0.0, 2025-04-15 13:46:11.385
44.0, -21405.99744391411, 3938.869111403121, 27218.30036858325, -14379.726574388334, -49966.63182576082, 39384.8466139849, -24905.900645959457, 56583.19521942082, -6514.14770056578, -20902.18912389149, -10003.344417017033, 8657.1435519628, 4134.446875387058, 4206.68771346661, 11970.812019206527, -187500.02235174447, -0.14400000000000002, 0.96, -0.052000000000000005, 192.0, 0.0, 0.0, 0.0, 0.0, 0.0, 0.0, 0.0, 0.0, 0.0, 1.744742771394036E9, 0.0, 2025-04-15 13:46:11.394
46.0, -21413.641740517825, 3952.3695650541267, 27242.730825272898, -14373.98217606332, -49961.17800011373, 39408.74062880762, -24863.231165794274, 56575.01448095018, -6502.278924260012, -20892.66728075353, -10022.432806781866, 8658.350546163387, 4125.260308415926, 4197.478794751024, 11927.449634963232, -187500.02235174447, -0.14400000000000002, 0.96, -0.052000000000000005, 192.0, 0.0, 0.0, 0.0, 0.0, 0.0, 0.0, 0.0, 0.0, 0.0, 1.744742771402082E9, 0.0, 2025-04-15 13:46:11.402
48.0, -21415.38517658534, 3938.332669536194, 27216.176952859994, -14381.291196500206, -49971.213933374165, 39398.36941938036, -24886.63344223898, 56540.97277414474, -6516.293468033489, -20900.959777946446, -10012.978018877271, 8650.66154607076, 4132.301107919348, 4217.751826971988, 11968.196865105256, -187500.02235174447, -0.14200000000000002, 0.9570000000000001, -0.052000000000000005, 192.0, 125.5, 80.0, 14.5, 104.0, 127.0, 48.0, 0.0, 0.0, 0.0, 1.7447427714101264E9, 0.0, 2025-04-15 13:46:11.410
50.0, -21408.14321138182, 3935.2704805458166, 27246.374159619114, -14369.668289383448, -50006.70850356919, 39409.00884974108, -24853.843433123046, 56493.743538110684, -6508.962095852148, -20881.647870737062, -10035.46387379931, 8654.930729261725, 4121.661677558623, 4205.950105899586, 11912.675131878274, -187500.02235174447, -0.14200000000000002, 0.9570000000000001, -0.052000000000000005, 192.0, 0.0, 0.0, 0.0, 0.0, 0.0, 0.0, 0.0, 0.0, 0.0, 1.7447427714172091E9, 0.0, 2025-04-15 13:46:11.417
52.0, -21412.0547666615, 3940.5678439817243, 27234.617142035622, -14375.680908641925, -49967.41413681676, 39400.60459382589, -24890.634404496483, 56493.22944798821, -6518.372180267833, -20898.434030823, -10010.005236864716, 8666.978319523134, 4131.652907330144, 4217.3494955717915, 11978.880998954894, -187500.02235174447, -0.14200000000000002, 0.9570000000000001, -0.052000000000000005, 192.0, 0.0, 0.0, 0.0, 0.0, 0.0, 0.0, 0.0, 0.0, 0.0, 1.7447427714261916E9, 0.0, 2025-04-15 13:46:11.426
54.0, -21398.196685099207, 3934.6669834455233, 27253.414959122536, -14363.722725358335, -50073.78608867957, 39383.997247695595, -24868.997915863743, 56406.86230741291, -6505.564630694942, -20876.641079979072, -10028.17720510688, 8666.799505567493, 4119.962944980019, 4200.228059319027, 11921.191146515745, -187500.02235174447, -0.14200000000000002, 0.9570000000000001, -0.052000000000000005, 192.0, 0.0, 0.0, 0.0, 0.0, 0.0, 0.0, 0.0, 0.0, 0.0, 1.7447427714342902E9, 0.0, 2025-04-15 13:46:11.434
56.0, -21411.741842239124, 3939.6961259479676, 27231.264380367327, -14381.402955222484, -50009.39071290383, 39388.6464105423, -24898.323404589108, 56431.62804026938, -6507.263363273545, -20887.70519348445, -9998.963475103794, 8670.688709102717, 4138.581948111289, 4219.78583571742, 11978.724536743706, -187500.02235174447, -0.14200000000000002, 0.9570000000000001, -0.052000000000000005, 192.0, 0.0, 0.0, 0.0, 0.0, 0.0, 0.0, 0.0, 0.0, 0.0, 1.7447427714412754E9, 0.0, 2025-04-15 13:46:11.441
58.0, -21403.583455512937, 3913.2763640017947, 27237.768738003822, -14373.825713852135, -50126.11152244944, 39366.16055562026, -24895.730602232292, 56352.77108583106, -6513.521851721031, -20890.40975456354, -10034.502748787732, 8655.534226362017, 4111.402226853636, 4192.024969103929, 11916.631390646862, -187500.02235174447, -0.14100000000000001, 0.9535, -0.054000000000000006, 192.0, 125.5, 80.0, 14.5, 88.0, 127.0, 32.0, 0.0, 0.0, 0.0, 1.7447427714493377E9, 0.0, 2025-04-15 13:46:11.449
60.0, -21412.010063172587, 3928.1179223201184, 27224.268284352816, -14388.019071581253, -50035.18462600525, 39381.337390105415, -24919.669320543926, 56400.58146722096, -6508.112729562847, -20899.506914556852, -9999.16464080389, 8672.588607381416, 4132.144645708161, 4217.036571149418, 11967.571016260508, -187500.02235174447, -0.14100000000000001, 0.9535, -0.054000000000000006, 192.0, 0.0, 0.0, 0.0, 0.0, 0.0, 0.0, 0.0, 0.0, 0.0, 1.7447427714584136E9, 0.0, 2025-04-15 13:46:11.458
62.0, -21403.829324701946, 3899.261820228317, 27228.984502432886, -14379.592463921603, -50178.03462481912, 39360.46086078416, -24903.777230236203, 56327.80418727448, -6506.637514428797, -20888.107524884646, -10029.227737096278, 8663.625557854839, 4106.440139584558, 4185.989998100996, 11906.103719008413, -187500.02235174447, -0.14100000000000001, 0.9535, -0.054000000000000006, 192.0, 0.0, 0.0, 0.0, 0.0, 0.0, 0.0, 0.0, 0.0, 0.0, 1.744742771465392E9, 0.0, 2025-04-15 13:46:11.465
64.0, -21405.058670646988, 3931.3812770105933, 27226.503458798346, -14382.475838956338, -50066.05238509803, 39390.903936732284, -24904.224265125307, 56394.814717151494, -6512.918354620738, -20894.74599298787, -9999.231696037257, 8680.948159807702, 4131.7646660524215, 4214.3543618147805, 11965.335841814976, -187500.02235174447, -0.14100000000000001, 0.9535, -0.054000000000000006, 192.0, 0.0, 0.0, 0.0, 0.0, 0.0, 0.0, 0.0, 0.0, 0.0, 1.7447427714734457E9, 0.0, 2025-04-15 13:46:11.473
66.0, -21394.061612374975, 3890.9469712909427, 27223.66478725252, -14381.93939708941, -50256.75746879071, 39355.051738625974, -24896.155285376943, 56284.508858264555, -6498.054444557959, -20871.74604794336, -10026.634934739463, 8674.533209149029, 4119.426503113092, 4215.650762993188, 11907.333064953455, -187500.02235174447, -0.14100000000000001, 0.9535, -0.054000000000000006, 192.0, 0.0, 0.0, 0.0, 0.0, 0.0, 0.0, 0.0, 0.0, 0.0, 1.7447427714814813E9, 0.0, 2025-04-15 13:46:11.481
68.0, -21415.921618452267, 3911.8235006121995, 27223.977711674896, -14411.846031170611, -50098.55182153605, 39392.13328267733, -24901.720869746314, 56379.235551266145, -6510.303200519467, -20897.115277900135, -10005.177260062368, 8676.522514405551, 4135.8773870321975, 4214.622582748244, 11955.277556810088, -187500.02235174447, -0.14250000000000002, 0.9477500000000001, -0.059000000000000004, 192.0, 125.5, 64.0, 14.5, 56.0, 127.0, 0.0, 0.0, 0.0, 0.0, 1.7447427714905431E9, 0.0, 2025-04-15 13:46:11.490
70.0, -21413.015891673076, 3869.4445931249375, 27208.06326962272, -14425.212374354885, -50230.494169055724, 39357.577485749425, -24904.604244781047, 56320.71868428215, -6521.076741346925, -20905.1842576485, -10037.743751733751, 8649.253386170076, 4105.076683172784, 4170.3884804711915, 11912.49631792263, -187500.02235174447, -0.14250000000000002, 0.9477500000000001, -0.059000000000000004, 192.0, 0.0, 0.0, 0.0, 0.0, 0.0, 0.0, 0.0, 0.0, 0.0, 1.7447427714975796E9, 0.0, 2025-04-15 13:46:11.497
72.0, -21402.37646131235, 3921.5241577058027, 27236.159412403038, -14422.351351064606, -50061.0679460845, 39396.581279823935, -24881.649003225448, 56428.588203023464, -6514.125348821324, -20908.648778039074, -10012.910963643904, 8665.950139278191, 4129.931823007086, 4189.856849891764, 11947.074466594991, -187500.02235174447, -0.14250000000000002, 0.9477500000000001, -0.059000000000000004, 192.0, 0.0, 0.0, 0.0, 0.0, 0.0, 0.0, 0.0, 0.0, 0.0, 1.744742771505611E9, 0.0, 2025-04-15 13:46:11.505
74.0, -21404.343414824416, 3872.19385769294, 27210.454906279436, -14434.62245877057, -50183.15317429938, 39353.4871165141, -24899.709212745336, 56384.17528679076, -6506.7716248955285, -20904.781926248306, -10025.60675449452, 8655.243653684098, 4116.565479822812, 4173.025986316918, 11923.627486661373, -187500.02235174447, -0.14250000000000002, 0.9477500000000001, -0.059000000000000004, 192.0, 0.0, 0.0, 0.0, 0.0, 0.0, 0.0, 0.0, 0.0, 0.0, 1.7447427715136404E9, 0.0, 2025-04-15 13:46:11.513
76.0, -21407.159734625788, 3913.745750635356, 27224.000063419353, -14449.95575546691, -50000.360608143885, 39377.82816622593, -24895.350622576552, 56506.126404538925, -6515.95819186666, -20916.874219998626, -10018.677713713374, 8654.863674028358, 4126.221433427505, 4176.311692751849, 11938.558451957519, -187500.02235174447, -0.14250000000000002, 0.9477500000000001, -0.059000000000000004, 192.0, 0.0, 0.0, 0.0, 0.0, 0.0, 0.0, 0.0, 0.0, 0.0, 1.7447427715217216E9, 0.0, 2025-04-15 13:46:11.521
78.0, -21391.111182106877, 3873.758479804812, 27204.107010854128, -14454.29199389124, -50073.00377762363, 39329.99543309158, -24926.665416558437, 56503.35478822646, -6515.377046510822, -20931.53696436131, -10038.995449423248, 8638.412790109252, 4105.210793639516, 4149.802523827854, 11915.871431335383, -187500.02235174447, -0.14525, 0.947875, -0.0695, 192.0, 125.5, 48.0, 14.5, 80.0, 126.5, 64.0, 0.0, 0.0, 0.0, 1.744742771529792E9, 0.0, 2025-04-15 13:46:11.529
80.0, -21389.770077439556, 3932.0294775997972, 27243.87076424012, -14433.437816314437, -49897.386121438285, 39370.83207021142, -24901.229131368298, 56627.38461820896, -6503.865898116338, -20903.686690769995, -10011.726321187774, 8672.722717848148, 4123.650982815145, 4176.758727640954, 11921.973457571681, -187500.02235174447, -0.14525, 0.947875, -0.0695, 192.0, 0.0, 0.0, 0.0, 0.0, 0.0, 0.0, 0.0, 0.0, 0.0, 1.744742771537802E9, 0.0, 2025-04-15 13:46:11.537
82.0, -21388.80895242798, 3890.2540672128284, 27216.199304604448, -14431.023827913265, -49950.38210754182, 39334.644595938276, -24939.294152175684, 56639.231042770276, -6523.24486055909, -20898.814010478738, -10016.196670078834, 8667.782982323526, 4107.602430296234, 4177.742204396988, 11927.69550415224, -187500.02235174447, -0.14525, 0.947875, -0.0695, 192.0, 0.0, 0.0, 0.0, 0.0, 0.0, 0.0, 0.0, 0.0, 0.0, 1.7447427715449011E9, 0.0, 2025-04-15 13:46:11.544
84.0, -21405.013967158076, 3936.96921312442, 27233.09722341266, -14429.593316268125, -49759.85583780478, 39371.50262254508, -24928.07357645912, 56787.087832342135, -6522.171976825235, -20889.47098129642, -10016.062559612103, 8666.95596777868, 4110.798729753343, 4184.984169600507, 11916.296114480034, -187500.02235174447, -0.14525, 0.947875, -0.0695, 192.0, 0.0, 0.0, 0.0, 0.0, 0.0, 0.0, 0.0, 0.0, 0.0, 1.744742771552866E9, 0.0, 2025-04-15 13:46:11.552
86.0, -21386.216150071163, 3909.722436633401, 27205.96220564392, -14436.56706053818, -49780.352387470295, 39331.291834269985, -24963.45638793187, 56814.066387899686, -6544.9260526807375, -20893.09196389818, -10020.21998408079, 8657.90351127428, 4092.090319644251, 4186.772309156931, 11930.534175698063, -187500.02235174447, -0.14525, 0.947875, -0.0695, 192.0, 0.0, 0.0, 0.0, 0.0, 0.0, 0.0, 0.0, 0.0, 0.0, 1.7447427715618885E9, 0.0, 2025-04-15 13:46:11.561
88.0, -21385.27737680404, 3944.4123440280373, 27230.68323501149, -14428.09574938962, -49687.97262763651, 39357.845706682885, -24928.02887297021, 56896.85724936215, -6528.475168761632, -20860.637230949073, -10021.628143981474, 8676.723680105648, 4098.6617325141115, 4192.002617359473, 11901.92394279527, -187500.02235174447, -0.146625, 0.9529375, -0.07475000000000001, 192.0, 125.5, 48.0, 14.5, 120.0, 126.5, 64.0, 0.0, 0.0, 0.0, 1.7447427715699267E9, 0.0, 2025-04-15 13:46:11.569
90.0, -21383.89156864781, 3916.2714977588057, 27196.596824717144, -14437.751702994312, -49708.87150870222, 39332.320014514924, -24960.193033241398, 56923.12054909713, -6542.534416024019, -20863.922937384003, -10015.816690423095, 8673.81795332646, 4096.694779002044, 4199.043416862895, 11935.049228078036, -187500.02235174447, -0.146625, 0.9529375, -0.07475000000000001, 192.0, 0.0, 0.0, 0.0, 0.0, 0.0, 0.0, 0.0, 0.0, 0.0, 1.744742771576984E9, 0.0, 2025-04-15 13:46:11.576
92.0, -21390.395926284305, 3927.1567973085403, 27212.354804558137, -14442.222051885374, -49641.74922010294, 39346.535723988505, -24942.333989421608, 57000.032901767845, -6547.831779459927, -20865.88989089607, -10038.794283723151, 8663.491447388107, 4085.6530172411226, 4174.612960173245, 11890.010463000592, -187500.02235174447, -0.146625, 0.9529375, -0.07475000000000001, 192.0, 0.0, 0.0, 0.0, 0.0, 0.0, 0.0, 0.0, 0.0, 0.0, 1.7447427715850232E9, 0.0, 2025-04-15 13:46:11.585
94.0, -21375.353202265884, 3913.946916335454, 27205.872798666096, -14438.71282800589, -49661.10583080123, 39332.99056684859, -24956.46029191736, 57006.38079719315, -6544.814293958461, -20861.866576894114, -10016.867222412495, 8679.316482462464, 4095.3760260791814, 4191.622637703734, 11921.079387793468, -187500.02235174447, -0.146625, 0.9529375, -0.07475000000000001, 192.0, 0.0, 0.0, 0.0, 0.0, 0.0, 0.0, 0.0, 0.0, 0.0, 1.7447427715940547E9, 0.0, 2025-04-15 13:46:11.594
96.0, -21370.011135341065, 3925.547471707758, 27227.5763425322, -14431.783787224746, -49667.520781459905, 39348.23445656711, -24922.284474645196, 57021.60233516721, -6533.839587430905, -20849.84133837716, -10031.820539453094, 8677.57304639495, 4090.324531832282, 4181.765518398943, 11878.16403843928, -187500.02235174447, -0.146625, 0.9529375, -0.07475000000000001, 192.0, 0.0, 0.0, 0.0, 0.0, 0.0, 0.0, 0.0, 0.0, 0.0, 1.7447427716010823E9, 0.0, 2025-04-15 13:46:11.601
98.0, -21371.151074308287, 3916.495015203359, 27202.497685253347, -14437.729351249856, -49639.134066001665, 39340.90308438577, -24943.60803885556, 57055.19700708354, -6539.606337500374, -20857.396228003054, -10007.680655441363, 8684.457383687184, 4104.473186072491, 4201.747977941987, 11937.820844390493, -187500.02235174447, -0.1463125, 0.95746875, -0.079375, 192.0, 125.5, 56.0, 15.0, 8.0, 126.5, 48.0, 0.0, 0.0, 0.0, 1.744742771609112E9, 0.0, 2025-04-15 13:46:11.609
100.0, -21372.13455106432, 3908.671904644001, 27214.746441214855, -14433.61663027008, -49711.26314535894, 39337.438563995194, -24922.820916512122, 57031.77237889438, -6541.841511945905, -20846.712094153416, -10041.3200308466, 8675.226113227143, 4085.9212381745865, 4177.831611374809, 11875.034794215537, -187500.02235174447, -0.1463125, 0.95746875, -0.079375, 192.0, 0.0, 0.0, 0.0, 0.0, 0.0, 0.0, 0.0, 0.0, 0.0, 1.744742771617184E9, 0.0, 2025-04-15 13:46:11.617
102.0, -21384.919748892757, 3900.647628384546, 27200.508379996823, -14441.082112918153, -49674.159249563134, 39340.45604949666, -24946.64787610148, 57076.073536404794, -6549.7987329719945, -20859.072608837203, -10015.392007278444, 8677.930674306235, 4100.360465092715, 4195.422434261136, 11930.17654778678, -187500.02235174447, -0.1463125, 0.95746875, -0.079375, 192.0, 0.0, 0.0, 0.0, 0.0, 0.0, 0.0, 0.0, 0.0, 0.0, 1.7447427716262193E9, 0.0, 2025-04-15 13:46:11.626
104.0, -21377.856597644877, 3893.718587603401, 27216.422822049004, -14429.727426734857, -49774.63034088974, 39334.51048547155, -24923.424413612418, 57052.78301868237, -6546.58008177043, -20847.89673660955, -10040.537719790664, 8670.398136424797, 4081.4061857946144, 4176.266989262937, 11874.16307618178, -187500.02235174447, -0.1463125, 0.95746875, -0.079375, 192.0, 0.0, 0.0, 0.0, 0.0, 0.0, 0.0, 0.0, 0.0, 0.0, 1.7447427716332428E9, 0.0, 2025-04-15 13:46:11.633
106.0, -21373.073324331443, 3920.071294316208, 27214.05353713674, -14426.419368555471, -49696.62275274072, 39356.25873282656, -24938.064806230643, 57121.7828538159, -6549.686974249718, -20852.858823878625, -10005.512536229198, 8684.323273220452, 4100.628686026178, 4206.777120444432, 11933.372847243887, -187500.02235174447, -0.1463125, 0.95746875, -0.079375, 192.0, 0.0, 0.0, 0.0, 0.0, 0.0, 0.0, 0.0, 0.0, 0.0, 1.7447427716412914E9, 0.0, 2025-04-15 13:46:11.641
108.0, -21378.504798234084, 3893.3162562032053, 27213.919426670007, -14430.397979068517, -49814.57290823137, 39339.45022099617, -24941.484623132306, 57096.30186513685, -6547.787075971017, -20844.812195874714, -10033.116940631502, 8674.689671360216, 4078.5675142487903, 4185.051224833873, 11874.498352348608, -187500.02235174447, -0.1463125, 0.95746875, -0.079375, 192.0, 0.0, 0.0, 0.0, 0.0, 0.0, 0.0, 0.0, 0.0, 0.0, 1.7447427716493244E9, 0.0, 2025-04-15 13:46:11.649
110.0, -21371.061667330465, 3923.4464077289595, 27222.949531429953, -14421.27846733075, -49701.36132256524, 39368.775709721536, -24949.061864502655, 57181.95374988959, -6547.228282359634, -20855.83160589118, -10001.846850138529, 8684.680901131738, 4103.780281994376, 4207.447672778091, 11923.895707594838, -187500.02235174447, -0.148, 0.968, -0.094, 192.0, 125.5, 48.0, 15.0, 32.0, 126.5, 8.0, 0.0, 0.0, 0.0, 1.7447427716573567E9, 0.0, 2025-04-15 13:46:11.657
112.0, -21368.111237062363, 3887.2142299669067, 27216.6239877491, -14420.026769641254, -49825.21233859209, 39351.922494402235, -24947.564297624147, 57142.637031392704, -6541.394477056799, -20846.153300542035, -10025.450292283333, 8675.561389393974, 4087.2399910974495, 4188.9404283690965, 11874.677166304251, -187500.02235174447, -0.148, 0.968, -0.094, 192.0, 0.0, 0.0, 0.0, 0.0, 0.0, 0.0, 0.0, 0.0, 0.0, 1.7447427716653929E9, 0.0, 2025-04-15 13:46:11.665
114.0, -21371.463998730662, 3928.7214194204116, 27220.222618606404, -14424.363008065584, -49667.69959541555, 39389.6969425317, -24946.312599934652, 57230.434683613144, -6545.015459658559, -20851.428312233485, -9993.93433260135, 8695.677959403749, 4110.150529164139, 4217.0589228938725, 11923.69454189474, -187500.02235174447, -0.148, 0.968, -0.094, 192.0, 0.0, 0.0, 0.0, 0.0, 0.0, 0.0, 0.0, 0.0, 0.0, 1.744742771673422E9, 0.0, 2025-04-15 13:46:11.673
116.0, -21383.28807154752, 3879.4358228964597, 27204.174066087493, -14438.288144861239, -49767.902465808686, 39354.157668847765, -24958.829576829623, 57178.17630507664, -6547.854131204383, -20845.706265652927, -10022.455158526322, 8686.24552324361, 4086.100052130229, 4193.343722026792, 11878.946349495214, -187500.02235174447, -0.148, 0.968, -0.094, 192.0, 0.0, 0.0, 0.0, 0.0, 0.0, 0.0, 0.0, 0.0, 0.0, 1.7447427716814847E9, 0.0, 2025-04-15 13:46:11.681
118.0, -21380.158827323776, 3922.664096673024, 27218.5238860278, -14433.728388992356, -49591.36838810067, 39387.774692508545, -24946.290248190195, 57261.32479445038, -6551.989203928614, -20856.390399502565, -10002.807975150106, 8692.794584369014, 4104.026151183385, 4205.614829732755, 11914.530326668064, -187500.02235174447, -0.148, 0.968, -0.094, 192.0, 0.0, 0.0, 0.0, 0.0, 0.0, 0.0, 0.0, 0.0, 0.0, 1.7447427716885178E9, 0.0, 2025-04-15 13:46:11.688
120.0, -21388.540731494515, 3878.4746978848816, 27204.57639748769, -14435.225955870863, -49697.94150566358, 39357.421023538234, -24952.59344012659, 57203.07614839985, -6539.427523544732, -20844.54397494125, -10013.447405510833, 8691.676997146249, 4094.549011534335, 4198.6410854627, 11888.155268210801, -187500.02235174447, -0.148, 0.966, -0.092, 192.0, 125.5, 48.0, 15.0, 24.0, 126.5, 16.0, 0.0, 0.0, 0.0, 1.7447427716975625E9, 0.0, 2025-04-15 13:46:11.697
122.0, -21386.70788844918, 3923.0887798176745, 27220.088508139674, -14435.561232037691, -49502.43079691301, 39400.60459382589, -24936.097852718576, 57298.42869024619, -6543.093209635403, -20852.99293434536, -9997.443556480832, 8701.57881993995, 4109.345866363748, 4216.701294982588, 11913.524498167575, -187500.02235174447, -0.148, 0.966, -0.092, 192.0, 0.0, 0.0, 0.0, 0.0, 0.0, 0.0, 0.0, 0.0, 0.0, 1.7447427717056017E9, 0.0, 2025-04-15 13:46:11.705
124.0, -21397.257911832086, 3877.759442062312, 27192.417048504, -14451.118046178586, -49551.78344867032, 39367.32284633194, -24957.957858795868, 57266.77862009747, -6548.882311449327, -20852.74706515635, -10013.782681677661, 8697.913133849279, 4089.7880899653546, 4205.88305066622, 11898.235904960145, -187500.02235174447, -0.148, 0.966, -0.092, 192.0, 0.0, 0.0, 0.0, 0.0, 0.0, 0.0, 0.0, 0.0, 0.0, 1.744742771712615E9, 0.0, 2025-04-15 13:46:11.712
126.0, -21400.18599035573, 3913.7010471464455, 27218.993272661362, -14447.921746721477, -49360.58662659963, 39402.50449210459, -24933.08036721711, 57352.63167055031, -6558.761782498573, -20860.100789082146, -10008.530021730665, 8698.181354782744, 4097.901773202631, 4206.285382066415, 11918.441881947743, -187500.02235174447, -0.148, 0.966, -0.092, 192.0, 0.0, 0.0, 0.0, 0.0, 0.0, 0.0, 0.0, 0.0, 0.0, 1.7447427717216692E9, 0.0, 2025-04-15 13:46:11.721
128.0, -21397.257911832086, 3863.4766773553706, 27198.00498461783, -14453.643793302035, -49437.521331014796, 39364.12654687483, -24950.80530057017, 57294.29361752196, -6567.590721558419, -20859.36318151512, -10020.421149780888, 8686.737261621627, 4086.9941219084412, 4197.657608706666, 11921.571126171486, -187500.02235174447, -0.148, 0.966, -0.092, 192.0, 0.0, 0.0, 0.0, 0.0, 0.0, 0.0, 0.0, 0.0, 0.0, 1.7447427717297251E9, 0.0, 2025-04-15 13:46:11.729
130.0, -21377.32015577795, 3905.430901697982, 27227.419880321013, -14440.545671051226, -49298.18055608041, 39395.75426527909, -24926.196029924875, 57344.674449524224, -6553.0844394069245, -20852.344733756156, -10012.463928754798, 8692.1016802909, 4101.455700571025, 4201.9714953865405, 11919.447710448232, -187500.02235174447, -0.14400000000000002, 0.974, -0.098, 192.0, 125.5, 64.0, 15.0, 56.0, 126.0, 120.0, 0.0, 0.0, 0.0, 1.744742771736792E9, 0.0, 2025-04-15 13:46:11.736
132.0, -21370.592280696903, 3875.5689711056916, 27201.067173608208, -14445.038371686742, -49384.14536525552, 39362.49486952959, -24954.359227938563, 57283.229504016585, -6542.042677646003, -20840.78888187276, -10001.3104082716, 8704.596305441417, 4104.450834328036, 4214.0637891368615, 11933.238736777155, -187500.02235174447, -0.14400000000000002, 0.974, -0.098, 192.0, 0.0, 0.0, 0.0, 0.0, 0.0, 0.0, 0.0, 0.0, 0.0, 1.744742771744801E9, 0.0, 2025-04-15 13:46:11.744
134.0, -21373.27449003154, 3906.9955238098532, 27219.172086617004, -14449.374610111072, -49274.24183776878, 39386.724160519145, -24939.540021364694, 57332.358638329344, -6554.53730279652, -20841.057102806226, -10016.911925901404, 8698.226058271654, 4097.566497035801, 4201.747977941987, 11906.170774241778, -187500.02235174447, -0.14400000000000002, 0.974, -0.098, 192.0, 0.0, 0.0, 0.0, 0.0, 0.0, 0.0, 0.0, 0.0, 0.0, 1.7447427717548428E9, 0.0, 2025-04-15 13:46:11.754
136.0, -21356.778902623522, 3873.0879274711524, 27203.32469979819, -14441.149168151518, -49363.84998129011, 39352.2354188246, -24960.17068149694, 57266.19747474164, -6538.332288066422, -20833.725730624883, -10003.679693183863, 8701.981151340146, 4105.747235506444, 4214.711989726065, 11922.398140716332, -187500.02235174447, -0.14400000000000002, 0.974, -0.098, 192.0, 0.0, 0.0, 0.0, 0.0, 0.0, 0.0, 0.0, 0.0, 0.0, 1.7447427717618928E9, 0.0, 2025-04-15 13:46:11.761
138.0, -21373.498007476093, 3878.2064769514177, 27221.742537229366, -14449.665182788991, -49314.63143999952, 39375.41417782476, -24943.295114433186, 57294.42772798869, -6532.72200020814, -20836.854974848626, -10008.060635097103, 8705.266857775076, 4108.720017518999, 4215.6954664821, 11891.73154732365, -187500.02235174447, -0.14400000000000002, 0.974, -0.098, 192.0, 0.0, 0.0, 0.0, 0.0, 0.0, 0.0, 0.0, 0.0, 0.0, 1.744742771768921E9, 0.0, 2025-04-15 13:46:11.768
140.0, -21378.66126044527, 3843.225996878862, 27191.00888860332, -14456.661278803502, -49330.61293728506, 39351.073128112934, -24975.928661337934, 57280.86021910432, -6548.569387026952, -20837.994913815848, -10000.483393726754, 8699.72362515016, 4101.790976737854, 4219.6964287395995, 11930.556527442519, -187500.02235174447, -0.146, 0.97, -0.1, 192.0, 125.5, 56.0, 15.0, 40.0, 126.0, 112.0, 0.0, 0.0, 0.0, 1.7447427717769563E9, 0.0, 2025-04-15 13:46:11.776
142.0, -21371.709867919668, 3850.0879824266417, 27209.359670801125, -14451.900357234521, -49324.2426901153, 39360.1926398507, -24948.100739491078, 57272.54537016695, -6532.811407185961, -20826.88609682156, -10020.55526024762, 8697.644912915815, 4097.611200524712, 4200.608038974767, 11883.528457108552, -187500.02235174447, -0.146, 0.97, -0.1, 192.0, 0.0, 0.0, 0.0, 0.0, 0.0, 0.0, 0.0, 0.0, 0.0, 1.744742771785989E9, 0.0, 2025-04-15 13:46:11.785
144.0, -21381.27641454654, 3827.4009618045047, 27174.80387387322, -14458.091790448641, -49298.538183991695, 39352.4365845247, -24976.778027627235, 57283.34126273886, -6545.618956758852, -20846.153300542035, -10006.875992640971, 8692.056976801989, 4105.344904106249, 4216.991867660507, 11933.17168154379, -187500.02235174447, -0.146, 0.97, -0.1, 192.0, 0.0, 0.0, 0.0, 0.0, 0.0, 0.0, 0.0, 0.0, 0.0, 1.7447427717930517E9, 0.0, 2025-04-15 13:46:11.793
146.0, -21381.70109769119, 3829.0773426386527, 27187.65612693502, -14450.134569422553, -49326.05318141618, 39363.25482884107, -24944.278591189217, 57261.74947759503, -6531.805578685472, -20817.69952985043, -10026.009085894715, 8696.1026425484, 4100.226354625983, 4209.21346059006, 11885.853038531905, -187500.02235174447, -0.146, 0.97, -0.1, 192.0, 0.0, 0.0, 0.0, 0.0, 0.0, 0.0, 0.0, 0.0, 0.0, 1.7447427718010867E9, 0.0, 2025-04-15 13:46:11.801
148.0, -21384.584472725925, 3832.4077525624934, 27159.224707987873, -14459.90228174952, -49267.75983187674, 39362.338407318406, -24971.190091513407, 57285.330567995385, -6545.976584670137, -20846.4215214755, -10004.774928662173, 8697.399043726808, 4110.597564053245, 4219.562318272868, 11940.637164191863, -187500.02235174447, -0.146, 0.97, -0.1, 192.0, 0.0, 0.0, 0.0, 0.0, 0.0, 0.0, 0.0, 0.0, 0.0, 1.744742771809172E9, 0.0, 2025-04-15 13:46:11.809
150.0, -21384.740934937112, 3811.7100371968795, 27168.6124406591, -14451.05099094522, -49328.51187330626, 39358.02452063853, -24956.8402715731, 57241.6105558408, -6536.678258976729, -20834.485689936362, -10029.875937685483, 8691.207610512687, 4094.7725289788877, 4197.814070917853, 11879.102811706402, -187500.02235174447, -0.14, 0.9580000000000001, -0.1, 192.0, 125.5, 80.0, 14.5, 120.0, 126.0, 112.0, 0.0, 0.0, 0.0, 1.7447427718181827E9, 0.0, 2025-04-15 13:46:11.818
152.0, -21390.418278028763, 3818.5049675112928, 27153.770882340777, -14459.969336982887, -49220.2176714203, 39373.156651634774, -24975.347515982096, 57286.179934284686, -6545.417791058754, -20843.001704573835, -10001.891553627438, 8695.923828592757, 4108.675314030089, 4215.6954664821, 11939.899556624838, -187500.02235174447, -0.14, 0.9580000000000001, -0.1, 192.0, 0.0, 0.0, 0.0, 0.0, 0.0, 0.0, 0.0, 0.0, 0.0, 1.7447427718251872E9, 0.0, 2025-04-15 13:46:11.825
154.0, -21380.51645523506, 3791.2805427647286, 27162.04102778924, -14447.497063576826, -49333.27279487524, 39356.75047120458, -24956.482643661817, 57206.27244785696, -6537.773494455039, -20835.379759714575, -10029.65242024093, 8695.454441959197, 4091.5091742884133, 4198.596381973789, 11882.813201285982, -187500.02235174447, -0.14, 0.9580000000000001, -0.1, 192.0, 0.0, 0.0, 0.0, 0.0, 0.0, 0.0, 0.0, 0.0, 0.0, 1.7447427718332622E9, 0.0, 2025-04-15 13:46:11.833
156.0, -21376.18021681073, 3818.3261535556503, 27156.85542307561, -14449.084037433153, -49237.49556988425, 39372.4413958122, -24966.093893777597, 57248.51724487749, -6535.963003154159, -20843.158166785022, -10001.913905371894, 8703.568125196472, 4115.403189111136, 4223.697390997099, 11944.235795049168, -187500.02235174447, -0.14, 0.9580000000000001, -0.1, 192.0, 0.0, 0.0, 0.0, 0.0, 0.0, 0.0, 0.0, 0.0, 0.0, 1.7447427718412938E9, 0.0, 2025-04-15 13:46:11.841
158.0, -21374.727353421134, 3775.231990245818, 27158.017713787285, -14448.659354288502, -49378.62448437506, 39342.60181696437, -24969.0443240457, 57169.86145613927, -6528.497520506087, -20833.88219283607, -10027.886632428961, 8698.449575716208, 4095.577191779279, 4200.250411063482, 11883.103773963901, -187500.02235174447, -0.14, 0.9580000000000001, -0.1, 192.0, 0.0, 0.0, 0.0, 0.0, 0.0, 0.0, 0.0, 0.0, 0.0, 1.7447427718493404E9, 0.0, 2025-04-15 13:46:11.849
160.0, -21367.8430161289, 3809.0278278622422, 27167.450149947425, -14445.418351342483, -49264.74234637527, 39369.35685507737, -24971.1453880245, 57228.31126788989, -6527.9610786391595, -20836.050312048235, -9994.984864590748, 8709.558392710494, 4120.298221146849, 4223.74209448601, 11933.708123410717, -187500.02235174447, -0.146, 0.962, -0.106, 192.0, 125.5, 56.0, 15.0, 8.0, 126.0, 88.0, 0.0, 0.0, 0.0, 1.7447427718573632E9, 0.0, 2025-04-15 13:46:11.857
162.0, -21362.590356181903, 3772.9968158002875, 27165.013809801796, -14441.864423974088, -49428.51357799931, 39334.39872674927, -24973.51467293676, 57146.10155178327, -6528.050485616981, -20825.321474709686, -10023.259821326712, 8701.735282151138, 4100.762796492911, 4206.9559344000745, 11880.935654751738, -187500.02235174447, -0.146, 0.962, -0.106, 192.0, 0.0, 0.0, 0.0, 0.0, 0.0, 0.0, 0.0, 0.0, 0.0, 1.7447427718654127E9, 0.0, 2025-04-15 13:46:11.865
164.0, -21367.50773996207, 3803.6410574485135, 27166.489024935847, -14446.133607165053, -49289.016340853734, 39370.854421955875, -24970.407780457474, 57235.7096953046, -6531.7161717076515, -20834.619800403096, -10001.489222227243, 8708.373750254363, 4119.158282179628, 4221.171643873649, 11925.862661106905, -187500.02235174447, -0.146, 0.962, -0.106, 192.0, 0.0, 0.0, 0.0, 0.0, 0.0, 0.0, 0.0, 0.0, 0.0, 1.7447427718724558E9, 0.0, 2025-04-15 13:46:11.872
166.0, -21356.80125436798, 3759.876341805022, 27163.89622257903, -14439.85276697311, -49450.46299105442, 39337.66208143975, -24971.614774658057, 57157.97032808904, -6529.704514706674, -20831.334093968166, -10026.590231250553, 8694.113337291878, 4099.24287786995, 4198.439919762602, 11888.06586123298, -187500.02235174447, -0.146, 0.962, -0.106, 192.0, 0.0, 0.0, 0.0, 0.0, 0.0, 0.0, 0.0, 0.0, 0.0, 1.7447427718804832E9, 0.0, 2025-04-15 13:46:11.880
168.0, -21362.27743175953, 3804.2222028043516, 27175.340315740148, -14442.602031541113, -49297.15237583547, 39372.79902372349, -24960.75182685278, 57247.33260242136, -6535.068933375947, -20840.78888187276, -10003.053844339114, 8698.069596060466, 4121.058180458329, 4217.371847316247, 11927.293172752044, -187500.02235174447, -0.146, 0.962, -0.106, 192.0, 0.0, 0.0, 0.0, 0.0, 0.0, 0.0, 0.0, 0.0, 0.0, 1.7447427718895123E9, 0.0, 2025-04-15 13:46:11.889
170.0, -21350.721579876135, 3763.6314348735136, 27167.204280758415, -14439.115159406087, -49444.87505494059, 39332.6329389373, -24967.7926263562, 57171.090802084305, -6517.858090145361, -20823.890963064547, -10010.251106053724, 8699.924790850257, 4111.603392553734, 4209.548736756889, 11903.041530018036, -187500.02235174447, -0.14500000000000002, 0.967, -0.109, 192.0, 125.5, 64.0, 15.0, 48.0, 126.0, 64.0, 0.0, 0.0, 0.0, 1.7447427718975663E9, 0.0, 2025-04-15 13:46:11.897
172.0, -21358.768207880046, 3801.204717302885, 27187.544368212744, -14433.594278525625, -49298.64994271397, 39366.875811442835, -24951.252335459274, 57255.98272752557, -6522.864880903349, -20842.465262706908, -9996.59419019153, 8700.662398417282, 4120.678200802588, 4212.9462019140965, 11918.844213347938, -187500.02235174447, -0.14500000000000002, 0.967, -0.109, 192.0, 0.0, 0.0, 0.0, 0.0, 0.0, 0.0, 0.0, 0.0, 0.0, 1.7447427719045928E9, 0.0, 2025-04-15 13:46:11.904
174.0, -21362.18802478171, 3753.081411490609, 27163.873870834577, -14439.495139061826, -49405.714798654895, 39326.195636534176, -24974.27463224824, 57206.94300019062, -6530.442122273698, -20844.856899363625, -10004.864335639993, 8692.995750069113, 4103.310895360815, 4207.112396611261, 11909.277666721067, -187500.02235174447, -0.14500000000000002, 0.967, -0.109, 192.0, 0.0, 0.0, 0.0, 0.0, 0.0, 0.0, 0.0, 0.0, 0.0, 1.74474277191263E9, 0.0, 2025-04-15 13:46:11.912
176.0, -21366.591318439405, 3790.6770456644354, 27181.57645244318, -14437.125854149564, -49274.89003835798, 39361.04200614, -24951.140576736998, 57277.842733602854, -6531.962040896659, -20834.396282958543, -10002.830326894562, 8697.779023382547, 4107.445968085047, 4209.1911088456045, 11908.920038809782, -187500.02235174447, -0.14500000000000002, 0.967, -0.109, 192.0, 0.0, 0.0, 0.0, 0.0, 0.0, 0.0, 0.0, 0.0, 0.0, 1.7447427719216692E9, 0.0, 2025-04-15 13:46:11.921
178.0, -21369.69821091869, 3738.753943294757, 27151.13337649505, -14445.172482153474, -49382.40192918801, 39333.01291859304, -24971.257146746775, 57233.18394818115, -6528.609279228363, -20835.93855332596, -10005.73605367375, 8689.57593316745, 4106.507194817924, 4210.576917001834, 11914.172698756778, -187500.02235174447, -0.14500000000000002, 0.967, -0.109, 192.0, 0.0, 0.0, 0.0, 0.0, 0.0, 0.0, 0.0, 0.0, 0.0, 1.7447427719287276E9, 0.0, 2025-04-15 13:46:11.928
180.0, -21366.546614950494, 3775.857839090567, 27184.035144333262, -14430.33092383515, -49280.09799481607, 39374.98949468011, -24939.07063473113, 57297.266399534514, -6537.2370525881115, -20840.721826639394, -10008.798242664128, 8687.854848844392, 4109.010590196918, 4211.113358868761, 11902.885067806848, -187500.02235174447, -0.14650000000000002, 0.9724999999999999, -0.1115, 192.0, 125.5, 48.0, 15.0, 72.0, 126.0, 56.0, 0.0, 0.0, 0.0, 1.74474277193681E9, 0.0, 2025-04-15 13:46:11.936
182.0, -21375.53201622153, 3726.97457396681, 27152.89916430702, -14450.782770011756, -49336.089114676615, 39340.6348634523, -24977.56033868317, 57270.57841665488, -6526.91054664976, -20843.918126096505, -10001.22100129378, 8685.95495056569, 4108.272982629894, 4211.761559457965, 11922.2640302496, -187500.02235174447, -0.14650000000000002, 0.9724999999999999, -0.1115, 192.0, 0.0, 0.0, 0.0, 0.0, 0.0, 0.0, 0.0, 0.0, 0.0, 1.744742771944813E9, 0.0, 2025-04-15 13:46:11.944
184.0, -21369.9440801077, 3750.332146922606, 27181.799969887732, -14440.858595473599, -49272.05136681216, 39361.98077940712, -24947.385483668506, 57291.879629120784, -6530.397418784788, -20853.752893656838, -10012.329818288066, 8682.065747030467, 4106.596601795745, 4199.1551755851715, 11893.899666535815, -187500.02235174447, -0.14650000000000002, 0.9724999999999999, -0.1115, 192.0, 0.0, 0.0, 0.0, 0.0, 0.0, 0.0, 0.0, 0.0, 0.0, 1.7447427719538631E9, 0.0, 2025-04-15 13:46:11.953
186.0, -21369.98878359661, 3724.2253093988074, 27162.86804233409, -14439.450435572915, -49312.55272776517, 39345.41813676574, -24972.039457802708, 57257.54734963743, -6523.066046603447, -20833.725730624883, -9991.989730833737, 8697.86843036037, 4119.404151368636, 4206.128919855228, 11933.17168154379, -187500.02235174447, -0.14650000000000002, 0.9724999999999999, -0.1115, 192.0, 0.0, 0.0, 0.0, 0.0, 0.0, 0.0, 0.0, 0.0, 0.0, 1.7447427719608877E9, 0.0, 2025-04-15 13:46:11.960
188.0, -21354.409617711262, 3738.4410188723828, 27203.52586549829, -14412.673045715457, -49343.57694906914, 39366.27231434254, -24931.627503827516, 57219.14705266322, -6522.663715203252, -20830.372968956588, -10009.669960697885, 8695.655607659293, 4109.189404152561, 4201.993847130996, 11893.832611302449, -187500.02235174447, -0.14650000000000002, 0.9724999999999999, -0.1115, 192.0, 0.0, 0.0, 0.0, 0.0, 0.0, 0.0, 0.0, 0.0, 0.0, 1.7447427719689064E9, 0.0, 2025-04-15 13:46:11.968
190.0, -21359.371704980338, 3711.3507045925508, 27190.04776359174, -14418.953885907398, -49370.756670326795, 39361.556096262466, -24957.779044840223, 57202.15972687719, -6504.759967894551, -20816.537239138754, -9967.894550310917, 8721.404817271807, 4132.189349197072, 4229.5982515333, 11948.773199173595, -187500.02235174447, -0.14725, 0.98025, -0.10975, 192.0, 125.5, 48.0, 15.0, 112.0, 126.0, 80.0, 0.0, 0.0, 0.0, 1.7447427719769723E9, 0.0, 2025-04-15 13:46:11.976
192.0, -21371.17342605274, 3707.68501850188, 27202.09535385315, -14427.961638922889, -49392.77313861527, 39367.38990156531, -24944.815033056144, 57195.85653494079, -6517.008723856059, -20836.854974848626, -9999.611675692997, 8695.968532081668, 4113.011552454419, 4199.579858729823, 11902.661550362296, -187500.02235174447, -0.14725, 0.98025, -0.10975, 192.0, 0.0, 0.0, 0.0, 0.0, 0.0, 0.0, 0.0, 0.0, 0.0, 1.7447427719850037E9, 0.0, 2025-04-15 13:46:11.985
194.0, -21374.570891209947, 3702.499413788249, 27191.18770255896, -14435.114197148587, -49366.263969691274, 39359.63384623931, -24965.42334144394, 57209.71461650308, -6522.842529158894, -20833.859841091617, -9982.937274329339, 8705.736244408638, 4123.449817115047, 4211.560393757867, 11952.528292242087, -187500.02235174447, -0.14725, 0.98025, -0.10975, 192.0, 0.0, 0.0, 0.0, 0.0, 0.0, 0.0, 0.0, 0.0, 0.0, 1.7447427719930348E9, 0.0, 2025-04-15 13:46:11.993
196.0, -21362.053914314976, 3693.849288684045, 27210.43255453498, -14425.860574944089, -49445.45620029643, 39355.25290432607, -24935.807280040655, 57159.914929856655, -6522.216680314145, -20836.474995192886, -10007.50184148572, 8696.14734603731, 4106.663657029111, 4186.392329501192, 11905.544925397031, -187500.02235174447, -0.14725, 0.98025, -0.10975, 192.0, 0.0, 0.0, 0.0, 0.0, 0.0, 0.0, 0.0, 0.0, 0.0, 1.7447427720011156E9, 0.0, 2025-04-15 13:46:12.001
198.0, -21372.581585953427, 3696.5538497631374, 27200.374269530093, -14425.882926688544, -49376.74693784081, 39363.45599454117, -24955.119187250042, 57190.49211627151, -6527.446988516687, -20849.75193139934, -9976.54467541512, 8702.763462396082, 4128.098979961751, 4209.6604954791665, 11968.219216849711, -187500.02235174447, -0.14725, 0.98025, -0.10975, 192.0, 0.0, 0.0, 0.0, 0.0, 0.0, 0.0, 0.0, 0.0, 0.0, 1.7447427720091143E9, 0.0, 2025-04-15 13:46:12.009
200.0, -21357.538861935005, 3679.9241518883887, 27226.414051820524, -14399.552571720193, -49490.49496537387, 39363.433642796714, -24925.8831055025, 57116.75371131345, -6515.265287788545, -20830.97646605688, -10002.472698983276, 8701.020026328568, 4113.927973977086, 4194.193088316094, 11908.987094043148, -187500.02235174447, -0.145625, 0.985125, -0.106875, 192.0, 125.5, 64.0, 15.0, 120.0, 126.0, 96.0, 0.0, 0.0, 0.0, 1.7447427720161557E9, 0.0, 2025-04-15 13:46:12.016
202.0, -21359.438760213707, 3699.280762586685, 27217.607464505134, -14402.972388621854, -49399.67982765196, 39380.711541260665, -24939.741187064792, 57152.985889075506, -6507.822156884928, -20836.78791961526, -9963.558311886587, 8712.9558578677, 4143.745201080465, 4233.465103324068, 11982.099650156457, -187500.02235174447, -0.145625, 0.985125, -0.106875, 192.0, 0.0, 0.0, 0.0, 0.0, 0.0, 0.0, 0.0, 0.0, 0.0, 1.7447427720252113E9, 0.0, 2025-04-15 13:46:12.025
204.0, -21367.150112050786, 3662.9815295912663, 27216.512229026823, -14408.13564159103, -49525.45309370197, 39355.543477003994, -24938.958876008855, 57083.31550160832, -6511.867822631339, -20832.518736424296, -9995.588361691041, 8700.595343183917, 4123.807445026332, 4199.825727918831, 11920.542945926542, -187500.02235174447, -0.145625, 0.985125, -0.106875, 192.0, 0.0, 0.0, 0.0, 0.0, 0.0, 0.0, 0.0, 0.0, 0.0, 1.744742772033268E9, 0.0, 2025-04-15 13:46:12.033
206.0, -21367.08305681742, 3690.0941956155534, 27220.982577917886, -14411.488403259327, -49409.67105742348, 39388.98168670913, -24937.885992275, 57140.80418834736, -6518.998029112581, -20834.46333819191, -9973.124858513458, 8704.685712419237, 4139.498369633958, 4220.009353161973, 11971.41551630682, -187500.02235174447, -0.145625, 0.985125, -0.106875, 192.0, 0.0, 0.0, 0.0, 0.0, 0.0, 0.0, 0.0, 0.0, 0.0, 1.7447427720402803E9, 0.0, 2025-04-15 13:46:12.040
208.0, -21361.7409898926, 3657.1924277773414, 27217.003967404842, -14411.778975937246, -49549.32475678024, 39368.66395099926, -24933.6838643174, 57065.00942289942, -6502.234220771101, -20826.014378787804, -9990.380405232956, 8703.00933158509, 4124.545052593357, 4206.128919855228, 11919.60417265942, -187500.02235174447, -0.145625, 0.985125, -0.106875, 192.0, 0.0, 0.0, 0.0, 0.0, 0.0, 0.0, 0.0, 0.0, 0.0, 1.7447427720482976E9, 0.0, 2025-04-15 13:46:12.048
210.0, -21366.770132395046, 3692.9328671613775, 27223.10599364114, -14411.108423603586, -49397.82463286217, 39396.40246586829, -24932.119242205532, 57138.27844122392, -6499.730825392106, -20831.334093968166, -9957.858617050484, 8717.96264862569, 4146.270948203915, 4222.959783430074, 11975.304719842045, -187500.02235174447, -0.1408125, 0.9845625, -0.1004375, 192.0, 125.5, 96.0, 15.0, 96.0, 126.5, 8.0, 0.0, 0.0, 0.0, 1.7447427720573711E9, 0.0, 2025-04-15 13:46:12.057
212.0, -21380.583510468427, 3635.3547734445065, 27206.230426577382, -14421.636095242036, -49509.82922432771, 39367.7922329655, -24948.65953310246, 57081.594417285254, -6511.063159830947, -20836.3185329817, -9989.285169754645, 8703.210497285187, 4119.538261835368, 4199.713969196555, 11936.658553678817, -187500.02235174447, -0.1408125, 0.9845625, -0.1004375, 192.0, 0.0, 0.0, 0.0, 0.0, 0.0, 0.0, 0.0, 0.0, 0.0, 1.7447427720643907E9, 0.0, 2025-04-15 13:46:12.064
214.0, -21371.1957777972, 3683.8357071680675, 27229.25272336635, -14405.967522378865, -49369.43791740393, 39408.98649799663, -24927.157154936453, 57134.85862432225, -6504.536450449998, -20838.97839057188, -9973.013099791182, 8708.798433399013, 4138.6937068335665, 4217.237736849515, 11966.878112182392, -187500.02235174447, -0.1408125, 0.9845625, -0.1004375, 192.0, 0.0, 0.0, 0.0, 0.0, 0.0, 0.0, 0.0, 0.0, 0.0, 1.7447427720724254E9, 0.0, 2025-04-15 13:46:12.072
216.0, -21375.777885410535, 3630.9961832757217, 27214.25470283684, -14411.555458492692, -49519.574584910224, 39377.22466912564, -24939.31650392014, 57034.09696031773, -6496.936857335193, -20814.436175159954, -9978.891608582928, 8715.280439291053, 4131.049410229852, 4212.45446353608, 11948.661440451318, -187500.02235174447, -0.1408125, 0.9845625, -0.1004375, 192.0, 0.0, 0.0, 0.0, 0.0, 0.0, 0.0, 0.0, 0.0, 0.0, 1.7447427720825114E9, 0.0, 2025-04-15 13:46:12.082
218.0, -21370.41346674126, 3670.3799570059728, 27239.445118837968, -14400.46899324286, -49415.080179581666, 39414.99911725511, -24917.07651818711, 57054.1688268386, -6505.229354528112, -20828.07073927769, -9965.212340976279, 8716.800357914015, 4140.459494645535, 4219.830539206331, 11962.720687713705, -187500.02235174447, -0.1408125, 0.9845625, -0.1004375, 192.0, 0.0, 0.0, 0.0, 0.0, 0.0, 0.0, 0.0, 0.0, 0.0, 1.7447427720895245E9, 0.0, 2025-04-15 13:46:12.089
220.0, -21374.593242954405, 3610.4549301212946, 27221.29550234026, -14403.240609555318, -49594.92231546907, 39379.392788337806, -24932.588628839094, 56930.518976511834, -6488.800822353462, -20821.007588029814, -9970.844980579017, 8710.586572955439, 4136.9279190215975, 4216.298963582392, 11951.902443397337, -187500.02235174447, -0.14140625, 0.98128125, -0.09421874999999999, 192.0, 125.5, 72.0, 15.0, 72.0, 126.5, 32.0, 0.0, 0.0, 0.0, 1.7447427720965908E9, 0.0, 2025-04-15 13:46:12.096
222.0, -21386.17144658225, 3639.7133636132917, 27239.556877560244, -14405.498135745303, -49490.6290758406, 39415.46850388867, -24917.814125754136, 56956.961090202465, -6499.0826248029025, -20836.452643448432, -9966.441686921322, 8711.279477033553, 4147.522645893413, 4219.450559550591, 11962.765391202616, -187500.02235174447, -0.14140625, 0.98128125, -0.09421874999999999, 192.0, 0.0, 0.0, 0.0, 0.0, 0.0, 0.0, 0.0, 0.0, 0.0, 1.7447427721046536E9, 0.0, 2025-04-15 13:46:12.104
224.0, -21387.80312392749, 3593.601714801993, 27214.120592370105, -14412.51658350427, -49618.74927505843, 39379.392788337806, -24940.098814976074, 56863.75431582383, -6505.609334183852, -20827.89192532205, -9972.431954435344, 8707.703197920704, 4133.463398631025, 4212.275649580437, 11959.45733302323, -187500.02235174447, -0.14140625, 0.98128125, -0.09421874999999999, 192.0, 0.0, 0.0, 0.0, 0.0, 0.0, 0.0, 0.0, 0.0, 0.0, 1.744742772112674E9, 0.0, 2025-04-15 13:46:12.112
226.0, -21395.156847853286, 3625.318840184074, 27243.669598540022, -14407.286275301729, -49510.81270108375, 39414.79795155501, -24916.495372831272, 56891.78340337079, -6514.438273243699, -20829.210678244912, -9976.276454481656, 8711.458290989196, 4135.475055632002, 4213.080312380828, 11952.729457942183, -187500.02235174447, -0.14140625, 0.98128125, -0.09421874999999999, 192.0, 0.0, 0.0, 0.0, 0.0, 0.0, 0.0, 0.0, 0.0, 0.0, 1.744742772120679E9, 0.0, 2025-04-15 13:46:12.120
228.0, -21399.873065933356, 3577.821383216546, 27214.545275514756, -14426.642886000025, -49573.50934428089, 39368.976875421635, -24961.42237918644, 56824.23643162685, -6517.187537811701, -20846.577983686686, -9985.68653889734, 8695.789718126025, 4124.612107826723, 4206.084216366317, 11964.866455181414, -187500.02235174447, -0.14140625, 0.98128125, -0.09421874999999999, 192.0, 0.0, 0.0, 0.0, 0.0, 0.0, 0.0, 0.0, 0.0, 0.0, 1.7447427721287227E9, 0.0, 2025-04-15 13:46:12.128
230.0, -21396.341490309416, 3620.7814360596462, 27251.380950377104, -14415.489365516827, -49481.50956410284, 39389.942811720706, -24930.018178226732, 56833.713571275905, -6501.608371926352, -20838.196079515947, -9988.838134865538, 8698.203706527198, 4128.747180550955, 4198.752844184976, 11928.187242530257, -187500.02235174447, -0.14140625, 0.98128125, -0.09421874999999999, 192.0, 0.0, 0.0, 0.0, 0.0, 0.0, 0.0, 0.0, 0.0, 0.0, 1.7447427721368105E9, 0.0, 2025-04-15 13:46:12.136
232.0, -21403.42699330175, 3590.405415344884, 27229.4762408109, -14426.441720299927, -49506.1858899815, 39365.42294805324, -24955.94620179489, 56788.67480619846, -6537.013535143559, -20847.60616393163, -9984.278378996656, 8695.610904170384, 4118.800654268343, 4205.011332632463, 11964.88880692587, -187500.02235174447, -0.156, 0.968, -0.078, 192.0, 125.5, 16.0, 15.0, 32.0, 126.5, 72.0, 0.0, 0.0, 0.0, 1.744742772144833E9, 0.0, 2025-04-15 13:46:12.144
234.0, -21410.311330593984, 3605.3363806410293, 27251.00097072136, -14423.111310376085, -49460.9236074595, 39382.79025349501, -24926.06191945814, 56773.587378691125, -6526.284697805011, -20833.83748934716, -9998.002350092214, 8698.807203627492, 4118.800654268343, 4196.025931361429, 11928.254297763622, -187500.02235174447, -0.156, 0.968, -0.078, 192.0, 0.0, 0.0, 0.0, 0.0, 0.0, 0.0, 0.0, 0.0, 0.0, 1.744742772151898E9, 0.0, 2025-04-15 13:46:12.151
236.0, -21418.983807442644, 3587.276171121141, 27223.10599364114, -14426.24055459983, -49458.1743428915, 39370.429738811225, -24948.860698802557, 56750.095695268596, -6546.401267814787, -20840.945344083946, -9990.134536043946, 8700.617694928373, 4117.906584490131, 4208.095873367295, 11969.023879650102, -187500.02235174447, -0.156, 0.968, -0.078, 192.0, 0.0, 0.0, 0.0, 0.0, 0.0, 0.0, 0.0, 0.0, 0.0, 1.7447427721608803E9, 0.0, 2025-04-15 13:46:12.160
238.0, -21421.442499332727, 3591.9700374567556, 27251.82798526621, -14412.203659081897, -49457.74965974685, 39391.1498059213, -24906.526494804206, 56720.21141293185, -6546.669488748252, -20824.986198542858, -10007.390082763444, 8705.043340330523, 4113.704456532533, 4202.977323887029, 11928.45546346372, -187500.02235174447, -0.156, 0.968, -0.078, 192.0, 0.0, 0.0, 0.0, 0.0, 0.0, 0.0, 0.0, 0.0, 0.0, 1.7447427721689339E9, 0.0, 2025-04-15 13:46:12.168
240.0, -21422.537734811038, 3581.420014073851, 27225.251761108848, -14431.247345357819, -49402.40674047551, 39387.707637275176, -24935.762576551748, 56735.45530265037, -6548.144703882302, -20834.865669592105, -9987.273512753667, 8702.182317040244, 4121.549918836346, 4217.0589228938725, 11984.75950774664, -187500.02235174447, -0.156, 0.968, -0.078, 192.0, 0.0, 0.0, 0.0, 0.0, 0.0, 0.0, 0.0, 0.0, 0.0, 1.7447427721779828E9, 0.0, 2025-04-15 13:46:12.177
242.0, -21426.76221451309, 3575.3403395820073, 27239.690988026978, -14432.588450025136, -49413.35909525861, 39392.13328267733, -24915.713061775336, 56717.46214836385, -6554.224378374145, -20842.487614451366, -10024.4668155273, 8677.640101628316, 4095.8454127127425, 4189.767442913943, 11917.905440080815, -187500.02235174447, -0.168, 0.964, -0.07200000000000001, 192.0, 125.0, 96.0, 15.0, 16.0, 126.5, 96.0, 0.0, 0.0, 0.0, 1.744742772185033E9, 0.0, 2025-04-15 13:46:12.185
244.0, -21450.589174102446, 3577.37434832744, 27214.589979003667, -14455.990726469843, -49296.593582224086, 39395.530747834535, -24949.55360288067, 56778.43770723793, -6567.970701214159, -20852.277678522787, -10000.863373382494, 8685.284398232032, 4106.95422970703, 4213.370885058747, 11968.666251738818, -187500.02235174447, -0.168, 0.964, -0.07200000000000001, 192.0, 0.0, 0.0, 0.0, 0.0, 0.0, 0.0, 0.0, 0.0, 0.0, 1.7447427721930606E9, 0.0, 2025-04-15 13:46:12.193
246.0, -21456.49003463865, 3562.1304586089204, 27214.05353713674, -14458.114142193097, -49302.18151833791, 39380.39861683829, -24948.346608680084, 56779.01885259376, -6589.048396235514, -20865.532262984787, -10046.863263471516, 8656.674165329237, 4070.610293222701, 4177.116355552239, 11901.298093950521, -187500.02235174447, -0.168, 0.964, -0.07200000000000001, 192.0, 0.0, 0.0, 0.0, 0.0, 0.0, 0.0, 0.0, 0.0, 0.0, 1.7447427722011144E9, 0.0, 2025-04-15 13:46:12.201
248.0, -21443.05663622101, 3591.835926990024, 27215.68521448198, -14443.04906643022, -49177.12350811047, 39396.82714901294, -24949.017161013744, 56828.81853924019, -6571.211704160179, -20853.194100045457, -10008.753539175217, 8680.791697596514, 4098.6617325141115, 4210.30869606837, 11955.478722510186, -187500.02235174447, -0.168, 0.964, -0.07200000000000001, 192.0, 0.0, 0.0, 0.0, 0.0, 0.0, 0.0, 0.0, 0.0, 0.0, 1.744742772208162E9, 0.0, 2025-04-15 13:46:12.208
250.0, -21438.362769885396, 3575.51915353765, 27225.274112853305, -14428.609839512092, -49262.57422716311, 39384.66780002926, -24930.442861371383, 56769.00527107779, -6559.2982243655, -20827.17666949948, -10021.561088748109, 8685.887895332324, 4091.732691732966, 4203.2008413315825, 11903.890896307337, -187500.02235174447, -0.168, 0.964, -0.07200000000000001, 192.0, 0.0, 0.0, 0.0, 0.0, 0.0, 0.0, 0.0, 0.0, 0.0, 1.7447427722161891E9, 0.0, 2025-04-15 13:46:12.216
252.0, -21450.05273223552, 3600.4637003497724, 27218.210961605426, -14434.309534348195, -49118.383123681924, 39405.879605517344, -24938.757710308757, 56833.95944046491, -6569.602378559396, -20842.867594107105, -9996.616541935986, 8693.174564024755, 4110.731674519977, 4226.983097432029, 11970.253225595145, -187500.02235174447, -0.17400000000000002, 0.962, -0.068, 192.0, 125.0, 72.0, 15.0, 8.0, 126.5, 112.0, 0.0, 0.0, 0.0, 1.7447427722252362E9, 0.0, 2025-04-15 13:46:12.225
254.0, -21455.394799160338, 3560.6552434748705, 27218.233313349883, -14433.303705847706, -49254.68406137038, 39379.862174971364, -24933.08036721711, 56742.63021262053, -6564.617939545863, -20836.139719026058, -10029.160681862913, 8682.758651108581, 4089.408110309614, 4202.463233764557, 11917.592515658442, -187500.02235174447, -0.17400000000000002, 0.962, -0.068, 192.0, 0.0, 0.0, 0.0, 0.0, 0.0, 0.0, 0.0, 0.0, 0.0, 1.7447427722322428E9, 0.0, 2025-04-15 13:46:12.232
0.0, -21461.45212190773, 3593.6240665464484, 27219.976749417398, -14439.159862894996, -49123.30050746209, 39410.37230615286, -24930.621675327027, 56800.61063773759, -6571.234055904634, -20862.112446083123, -10006.294847285133, 8682.66924413076, 4106.618953540201, 4223.764446230465, 11964.665289481318, -187500.02235174447, -0.17400000000000002, 0.962, -0.068, 192.0, 0.0, 0.0, 0.0, 0.0, 0.0, 0.0, 0.0, 0.0, 0.0, 1.7447427722403092E9, 0.0, 2025-04-15 13:46:12.240
2.0, -21459.59692711794, 3556.8777986619234, 27214.835848192677, -14433.147243636518, -49296.2359543128, 39373.31311384596, -24929.36997763753, 56698.41846208793, -6565.042622690514, -20832.384625957566, -10027.976039406782, 8677.327177205942, 4094.8842877011643, 4207.112396611261, 11914.619733645884, -187500.02235174447, -0.17400000000000002, 0.962, -0.068, 192.0, 0.0, 0.0, 0.0, 0.0, 0.0, 0.0, 0.0, 0.0, 0.0, 1.7447427722483273E9, 0.0, 2025-04-15 13:46:12.248
4.0, -21468.671735366792, 3591.3665403564623, 27223.24010410787, -14435.784749482245, -49189.484022794255, 39400.53753859252, -24921.569218822628, 56745.692401610904, -6560.7734394995505, -20841.07945455068, -10005.624294951474, 8689.642988400816, 4118.375971123693, 4225.55258578689, 11952.617699219907, -187500.02235174447, -0.17400000000000002, 0.962, -0.068, 192.0, 0.0, 0.0, 0.0, 0.0, 0.0, 0.0, 0.0, 0.0, 0.0, 1.7447427722563615E9, 0.0, 2025-04-15 13:46:12.256
6.0, -21487.91658734281, 3537.744705408181, 27189.19839730244, -14458.360011382105, -49353.85875151858, 39354.984683392606, -24947.564297624147, 56674.61385424303, -6580.957064742693, -20874.584719489183, -10034.860376699016, 8654.416639139252, 4082.52377301738, 4206.352437299781, 11910.484660921653, -187500.02235174447, -0.168, 0.964, -0.06, 192.0, 125.0, 96.0, 15.0, 16.0, 127.0, 16.0, 0.0, 0.0, 0.0, 1.7447427722643974E9, 0.0, 2025-04-15 13:46:12.264
8.0, -21487.514255942617, 3577.597865771993, 27205.82809517719, -14445.016019942286, -49253.097087514056, 39389.67459078725, -24932.70038756137, 56738.69630559639, -6578.230151919145, -20858.75968441483, -10017.537774746153, 8674.466153915662, 4090.995084165941, 4204.407835532169, 11930.422416975787, -187500.02235174447, -0.168, 0.964, -0.06, 192.0, 0.0, 0.0, 0.0, 0.0, 0.0, 0.0, 0.0, 0.0, 0.0, 1.7447427722724595E9, 0.0, 2025-04-15 13:46:12.272
10.0, -21483.423886707293, 3535.88951061839, 27192.66291769301, -14440.880947218055, -49453.90515970054, 39357.10809911586, -24947.497242390782, 56648.08233357457, -6570.384689615333, -20860.41371350452, -10029.965344663304, 8662.61972935435, 4073.672482213078, 4195.176565072127, 11905.187297485745, -187500.02235174447, -0.168, 0.964, -0.06, 192.0, 0.0, 0.0, 0.0, 0.0, 0.0, 0.0, 0.0, 0.0, 0.0, 1.7447427722814946E9, 0.0, 2025-04-15 13:46:12.281
12.0, -21491.91754960031, 3579.117784394954, 27211.550141757747, -14436.589412282636, -49394.807147360705, 39401.11868394836, -24915.623654797513, 56688.76250848323, -6557.353622597889, -20846.242707519854, -10006.965399618794, 8684.658549387283, 4102.036845926863, 4213.817919947854, 11922.018161060592, -187500.02235174447, -0.168, 0.964, -0.06, 192.0, 0.0, 0.0, 0.0, 0.0, 0.0, 0.0, 0.0, 0.0, 0.0, 1.744742772287541E9, 0.0, 2025-04-15 13:46:12.287
14.0, -21498.332500258985, 3526.8817576029014, 27178.961298341907, -14446.021848442775, -49590.31785611127, 39355.52112525953, -24940.45644288736, 56590.973626491264, -6569.512971581576, -20854.55755645723, -10025.226774838779, 8668.721755590648, 4083.484898028958, 4202.038550619906, 11912.473966178175, -187500.02235174447, -0.168, 0.964, -0.06, 192.0, 0.0, 0.0, 0.0, 0.0, 0.0, 0.0, 0.0, 0.0, 0.0, 1.7447427722965658E9, 0.0, 2025-04-15 13:46:12.296
16.0, -21500.835895637978, 3563.248045831686, 27205.738688199366, -14434.063665159187, -49558.176047584544, 39389.20520415368, -24911.51093381774, 56614.130033746966, -6563.835628489927, -20847.092073809155, -10022.812786437606, 8671.314557947464, 4094.616066767701, 4205.659533221667, 11911.222268488678, -187500.02235174447, -0.162, 0.9580000000000001, -0.056, 192.0, 125.0, 120.0, 14.5, 120.0, 127.0, 32.0, 0.0, 0.0, 0.0, 1.7447427723046672E9, 0.0, 2025-04-15 13:46:12.304
18.0, -21511.452974254247, 3515.4376644417844, 27166.489024935847, -14448.257022888307, -49725.99294495499, 39356.728119460124, -24939.562373109147, 56537.776474687635, -6570.876427993349, -20862.134797827577, -10025.204423094323, 8660.228092697633, 4086.547087019335, 4214.890803681708, 11916.631390646862, -187500.02235174447, -0.162, 0.9580000000000001, -0.056, 192.0, 0.0, 0.0, 0.0, 0.0, 0.0, 0.0, 0.0, 0.0, 0.0, 1.744742772312658E9, 0.0, 2025-04-15 13:46:12.312
20.0, -21509.508372486638, 3554.8437899164906, 27187.410257746014, -14435.963563437888, -49696.86862192972, 39386.81356749697, -24919.088175188088, 56574.38863210543, -6564.72969826814, -20860.99485886036, -10030.770007463696, 8662.91030203227, 4084.893057929642, 4193.9248673826305, 11899.442899160731, -187500.02235174447, -0.162, 0.9580000000000001, -0.056, 192.0, 0.0, 0.0, 0.0, 0.0, 0.0, 0.0, 0.0, 0.0, 0.0, 1.7447427723207042E9, 0.0, 2025-04-15 13:46:12.320
22.0, -21525.06518662753, 3518.0304667985997, 27152.876812562565, -14449.754589766811, -49801.6535999362, 39355.65523572627, -24954.113358749553, 56552.77449521715, -6582.991073488125, -20870.09201885367, -10029.898289429939, 8660.38455490882, 4078.343996804237, 4199.1551755851715, 11920.565297670997, -187500.02235174447, -0.162, 0.9580000000000001, -0.056, 192.0, 0.0, 0.0, 0.0, 0.0, 0.0, 0.0, 0.0, 0.0, 0.0, 1.7447427723287165E9, 0.0, 2025-04-15 13:46:12.328
24.0, -21511.855305654444, 3558.531827751616, 27191.38886825906, -14427.00051391131, -49776.999625802, 39387.68528553072, -24918.0823466876, 56610.64316161194, -6583.68397756624, -20872.617765977117, -10047.734981505273, 8651.466208871152, 4073.42661302407, 4184.313617266848, 11889.854000789404, -187500.02235174447, -0.162, 0.9580000000000001, -0.056, 192.0, 0.0, 0.0, 0.0, 0.0, 0.0, 0.0, 0.0, 0.0, 0.0, 1.7447427723358605E9, 0.0, 2025-04-15 13:46:12.335
26.0, -21504.479229984194, 3540.359859509452, 27172.635754661056, -14421.390226053027, -49851.83326623837, 39371.10029114489, -24938.98122775331, 56605.83753655405, -6568.2836256365335, -20858.335001270178, -10022.74573120424, 8667.492409645607, 4087.8434881977428, 4213.549699014389, 11930.712989653706, -187500.02235174447, -0.154, 0.968, -0.054, 192.0, 125.5, 24.0, 15.0, 32.0, 127.0, 40.0, 0.0, 0.0, 0.0, 1.7447427723438134E9, 0.0, 2025-04-15 13:46:12.343
28.0, -21515.6774539563, 3556.251949817175, 27187.253795534827, -14419.512679518783, -49863.187952421664, 39386.098311674396, -24908.247579127263, 56632.6149264115, -6574.609169317386, -20858.35735301463, -10042.705839002829, 8653.030830983023, 4074.2983310578265, 4193.254315048971, 11889.429317644754, -187500.02235174447, -0.154, 0.968, -0.054, 192.0, 0.0, 0.0, 0.0, 0.0, 0.0, 0.0, 0.0, 0.0, 0.0, 1.744742772352883E9, 0.0, 2025-04-15 13:46:12.352
30.0, -21521.578314492504, 3549.6134817139487, 27163.51624292329, -14427.38049356705, -49845.06068766841, 39384.08665467342, -24927.35832063655, 56687.399052071465, -6596.558582372497, -20875.590547989672, -10029.3171440741, 8647.442894869197, 4078.612217737701, 4215.539004270912, 11939.005486846625, -187500.02235174447, -0.154, 0.968, -0.054, 192.0, 0.0, 0.0, 0.0, 0.0, 0.0, 0.0, 0.0, 0.0, 0.0, 1.744742772360911E9, 0.0, 2025-04-15 13:46:12.360
32.0, -21509.620131208914, 3559.582359741016, 27190.13717056956, -14403.978217122343, -49877.649531084244, 39390.501605332094, -24897.228169110796, 56702.33001736761, -6592.468213137176, -20865.644021707063, -10052.048868185148, 8642.704325044671, 4060.350842517715, 4193.120204582239, 11888.82582054446, -187500.02235174447, -0.154, 0.968, -0.054, 192.0, 0.0, 0.0, 0.0, 0.0, 0.0, 0.0, 0.0, 0.0, 0.0, 1.7447427723679304E9, 0.0, 2025-04-15 13:46:12.367
34.0, -21522.941770904275, 3556.341356794996, 27166.46667319139, -14411.734272448335, -49808.023847105964, 39387.797044253, -24923.156192678955, 56774.57085544716, -6586.545000856519, -20867.096885096656, -10020.063521869602, 8663.75966832157, 4087.061177141807, 4214.6449344927, 11950.047248607547, -187500.02235174447, -0.154, 0.968, -0.054, 192.0, 0.0, 0.0, 0.0, 0.0, 0.0, 0.0, 0.0, 0.0, 0.0, 1.7447427723759604E9, 0.0, 2025-04-15 13:46:12.375
36.0, -21512.16823007682, 3554.1955893272866, 27184.8174553892, -14404.46995550036, -49838.69044049865, 39382.96906745066, -24901.922035446412, 56779.28707352723, -6588.511954368586, -20870.159074087034, -10051.020687940203, 8649.029868725524, 4064.32945303076, 4190.952085370074, 11892.178582212757, -187500.02235174447, -0.14400000000000002, 0.968, -0.05, 192.0, 125.5, 64.0, 15.0, 32.0, 127.0, 56.0, 0.0, 0.0, 0.0, 1.744742772385017E9, 0.0, 2025-04-15 13:46:12.385
38.0, -21526.40629129485, 3563.7174324652474, 27167.114873780596, -14428.162804622985, -49681.87060140021, 39387.05943668597, -24936.634294585503, 56886.46368819043, -6597.765576573083, -20880.977318403402, -10023.952725404826, 8655.847150784391, 4079.1710113490835, 4208.632315234222, 11954.115266098413, -187500.02235174447, -0.14400000000000002, 0.968, -0.05, 192.0, 0.0, 0.0, 0.0, 0.0, 0.0, 0.0, 0.0, 0.0, 0.0, 1.7447427723920505E9, 0.0, 2025-04-15 13:46:12.392
40.0, -21514.44810801126, 3547.7582869241583, 27188.393734502046, -14414.70705446089, -49733.95016598108, 39367.38990156531, -24924.854925257558, 56863.150818723545, -6584.645102577818, -20865.912242640527, -10054.664022286419, 8641.586737821906, 4059.702641928511, 4177.183410785605, 11888.423489144265, -187500.02235174447, -0.14400000000000002, 0.968, -0.05, 192.0, 0.0, 0.0, 0.0, 0.0, 0.0, 0.0, 0.0, 0.0, 0.0, 1.7447427724000907E9, 0.0, 2025-04-15 13:46:12.400
42.0, -21507.854343396946, 3579.475412306239, 27197.33443228417, -14407.308627046184, -49572.436460547025, 39388.55700356448, -24932.432166627907, 56951.59667153319, -6590.568314858475, -20878.27275732431, -10023.908021915917, 8656.517703118052, 4089.6539794986224, 4202.954972142574, 11951.589518974963, -187500.02235174447, -0.14400000000000002, 0.968, -0.05, 192.0, 0.0, 0.0, 0.0, 0.0, 0.0, 0.0, 0.0, 0.0, 0.0, 1.744742772408218E9, 0.0, 2025-04-15 13:46:12.408
44.0, -21502.244055538664, 3555.044955616588, 27208.845580678655, -14402.860629899578, -49653.97562431999, 39368.14986087679, -24928.230038670306, 56910.9835518579, -6583.594570588419, -20846.063893564213, -10044.382219836978, 8660.965700264656, 4076.2205810809833, 4195.601248216778, 11906.036663775047, -187500.02235174447, -0.14400000000000002, 0.968, -0.05, 192.0, 0.0, 0.0, 0.0, 0.0, 0.0, 0.0, 0.0, 0.0, 0.0, 1.7447427724171803E9, 0.0, 2025-04-15 13:46:12.417
46.0, -21490.487037955172, 3577.7766797276354, 27211.99717664685, -14399.887847887023, -49520.75922736636, 39393.56379432247, -24931.247524171773, 56975.624796822645, -6583.572218843963, -20856.92684136949, -10016.822518923584, 8669.839342813415, 4098.393511580648, 4207.02298963344, 11958.183283589278, -187500.02235174447, -0.14100000000000001, 0.971, -0.045, 192.0, 125.5, 88.0, 15.0, 56.0, 127.0, 96.0, 0.0, 0.0, 0.0, 1.7447427724232166E9, 0.0, 2025-04-15 13:46:12.423
48.0, -21484.608529163426, 3544.9866706117, 27206.744516699855, -14399.37375776455, -49673.35458676274, 39367.568715520945, -24927.425375869916, 56897.59485692917, -6576.218494918167, -20838.374893471588, -10037.050847655637, 8667.268892201053, 4084.1778021070722, 4191.779099914921, 11907.936562053748, -187500.02235174447, -0.14100000000000001, 0.971, -0.045, 192.0, 0.0, 0.0, 0.0, 0.0, 0.0, 0.0, 0.0, 0.0, 0.0, 1.7447427724322507E9, 0.0, 2025-04-15 13:46:12.432
50.0, -21482.552168673537, 3585.8009559870907, 27206.699813210944, -14402.905333388488, -49542.35101251018, 39397.29653564651, -24920.898666488967, 56976.92119800105, -6585.561524100486, -20860.145492571057, -10019.549431747131, 8661.725659576137, 4101.031017426374, 4208.185280345116, 11951.3212980415, -187500.02235174447, -0.14100000000000001, 0.971, -0.045, 192.0, 0.0, 0.0, 0.0, 0.0, 0.0, 0.0, 0.0, 0.0, 0.0, 1.7447427724403176E9, 0.0, 2025-04-15 13:46:12.440
52.0, -21484.899101841344, 3548.5853014690047, 27190.897129881043, -14398.211467052874, -49718.6839245181, 39364.03713989701, -24925.50312584676, 56899.718272652426, -6571.502276838098, -20835.826794603683, -10033.049885398137, 8666.352470678386, 4084.736595718455, 4193.902515638175, 11915.536155168553, -187500.02235174447, -0.14100000000000001, 0.971, -0.045, 192.0, 0.0, 0.0, 0.0, 0.0, 0.0, 0.0, 0.0, 0.0, 0.0, 1.744742772448344E9, 0.0, 2025-04-15 13:46:12.448
54.0, -21474.57259590299, 3591.701816523292, 27211.684252224477, -14390.410708237972, -49622.10203672672, 39401.476311859646, -24906.59355003757, 56964.024241450345, -6580.711195553684, -20844.879251108083, -10020.868184669995, 8671.314557947464, 4092.604409766723, 4212.163890858161, 11954.361135287421, -187500.02235174447, -0.14100000000000001, 0.971, -0.045, 192.0, 0.0, 0.0, 0.0, 0.0, 0.0, 0.0, 0.0, 0.0, 0.0, 1.7447427724563696E9, 0.0, 2025-04-15 13:46:12.456
56.0, -21464.447255664738, 3549.278205547119, 27199.457848007423, -14386.901484358488, -49837.37168757578, 39360.34910206188, -24909.566332050126, 56854.00895524132, -6566.8754657358495, -20828.92010556699, -10029.160681862913, 8683.920941820257, 4087.195287608539, 4214.734341470521, 11931.78587338756, -187500.02235174447, -0.1405, 0.9715, -0.0405, 192.0, 125.5, 80.0, 15.0, 48.0, 127.0, 112.0, 0.0, 0.0, 0.0, 1.744742772464418E9, 0.0, 2025-04-15 13:46:12.464
58.0, -21471.041020279055, 3588.594924044004, 27219.797935461753, -14391.260074527274, -49753.21736970155, 39403.152692693795, -24884.197102093352, 56906.08851982219, -6562.941558711715, -20821.029939774267, -10006.74188217424, 8703.881049618847, 4109.792901252854, 4231.654612023189, 11964.955862159237, -187500.02235174447, -0.1405, 0.9715, -0.0405, 192.0, 0.0, 0.0, 0.0, 0.0, 0.0, 0.0, 0.0, 0.0, 0.0, 1.7447427724724686E9, 0.0, 2025-04-15 13:46:12.472
60.0, -21481.367526217407, 3533.408466983851, 27191.277109536783, -14407.129813090542, -49930.82433114342, 39363.47834628563, -24913.433183840894, 56817.95559143491, -6579.459497864187, -20827.154317755023, -10028.825405696083, 8684.323273220452, 4086.100052130229, 4221.685733996122, 11959.770257445605, -187500.02235174447, -0.1405, 0.9715, -0.0405, 192.0, 0.0, 0.0, 0.0, 0.0, 0.0, 0.0, 0.0, 0.0, 0.0, 1.744742772479496E9, 0.0, 2025-04-15 13:46:12.479
62.0, -21479.132351771874, 3571.4511360467836, 27215.43934529297, -14402.748871177302, -49886.94785677765, 39395.19547166771, -24890.187369607374, 56838.5638998227, -6572.530457083042, -20813.54210538174, -10024.444463782844, 8691.542886679517, 4098.371159836192, 4231.095818411805, 11953.623527720396, -187500.02235174447, -0.1405, 0.9715, -0.0405, 192.0, 0.0, 0.0, 0.0, 0.0, 0.0, 0.0, 0.0, 0.0, 0.0, 1.7447427724887588E9, 0.0, 2025-04-15 13:46:12.488
64.0, -21480.29464248355, 3525.674763402315, 27189.421914746992, -14401.56422872117, -50087.107728374926, 39358.87388692783, -24915.444840841872, 56726.55930835716, -6577.2690269075665, -20822.080471763667, -10026.992562650748, 8685.95495056569, 4092.8055754668208, 4225.5078822979785, 11947.946184628749, -187500.02235174447, -0.1405, 0.9715, -0.0405, 192.0, 0.0, 0.0, 0.0, 0.0, 0.0, 0.0, 0.0, 0.0, 0.0, 1.7447427724965918E9, 0.0, 2025-04-15 13:46:12.496
66.0, -21466.458912665716, 3566.444345288795, 27212.466563280414, -14398.680853686436, -50095.80255696805, 39388.08761693092, -24894.724773731803, 56720.27846816522, -6574.698576295206, -20819.398262429033, -10024.93620216086, 8697.041415815524, 4100.986313937463, 4223.786797974921, 11930.020085575592, -187500.02235174447, -0.14425, 0.96475, -0.04025, 192.0, 125.5, 48.0, 14.5, 120.0, 127.0, 96.0, 0.0, 0.0, 0.0, 1.7447427725036132E9, 0.0, 2025-04-15 13:46:12.503
68.0, -21463.91081379781, 3524.8701006019237, 27184.504530966824, -14406.235743312329, -50280.49502140225, 39353.82239268093, -24926.017215969234, 56619.27093497169, -6558.627672031841, -20814.79380307124, -10016.330780545566, 8697.667264660271, 4103.981447694475, 4221.462216551568, 11943.453483993231, -187500.02235174447, -0.14425, 0.96475, -0.04025, 192.0, 0.0, 0.0, 0.0, 0.0, 0.0, 0.0, 0.0, 0.0, 0.0, 1.744742772511652E9, 0.0, 2025-04-15 13:46:12.511
70.0, -21468.314107455506, 3556.8107434285575, 27206.47629576639, -14404.827583411645, -50276.7175765893, 39380.711541260665, -24904.961872692333, 56631.40793221092, -6569.065936692469, -20817.25249496132, -10026.545527761642, 8699.701273405704, 4100.963962193008, 4216.947164171596, 11924.566259928497, -187500.02235174447, -0.14425, 0.96475, -0.04025, 192.0, 0.0, 0.0, 0.0, 0.0, 0.0, 0.0, 0.0, 0.0, 0.0, 1.744742772520691E9, 0.0, 2025-04-15 13:46:12.520
72.0, -21461.474473652182, 3530.1451122933763, 27184.593937944646, -14402.055967099186, -50382.4413278629, 39357.80100319398, -24929.74995729327, 56580.89298974192, -6575.391480373321, -20809.809364057706, -10017.515423001698, 8709.49133747713, 4099.153470892128, 4224.2114811195715, 11954.294080054055, -187500.02235174447, -0.14425, 0.96475, -0.04025, 192.0, 0.0, 0.0, 0.0, 0.0, 0.0, 0.0, 0.0, 0.0, 0.0, 1.7447427725277653E9, 0.0, 2025-04-15 13:46:12.527
74.0, -21449.806863046513, 3571.1158598799543, 27214.321758070204, -14389.18136229293, -50390.800880289185, 39387.95350646419, -24890.768514963213, 56597.34387366103, -6570.8093727599835, -20807.328320423167, -10031.977001664281, 8711.078311333456, 4098.482918558469, 4220.277574095438, 11924.11922503939, -187500.02235174447, -0.14425, 0.96475, -0.04025, 192.0, 0.0, 0.0, 0.0, 0.0, 0.0, 0.0, 0.0, 0.0, 0.0, 1.7447427725358534E9, 0.0, 2025-04-15 13:46:12.535
76.0, -21447.839909534447, 3560.342319052496, 27194.04872584924, -14393.383490250528, -50409.50929039828, 39385.6959802742, -24912.270893129218, 56621.327295461575, -6576.486715851631, -20799.996948241824, -10009.379388019966, 8717.940296881236, 4113.190366410061, 4243.054001695395, 11975.572940775508, -187500.02235174447, -0.145125, 0.962375, -0.040125, 192.0, 125.5, 56.0, 15.0, 0.0, 127.0, 96.0, 0.0, 0.0, 0.0, 1.7447427725438275E9, 0.0, 2025-04-15 13:46:12.543
78.0, -21436.127595439862, 3588.147889154898, 27221.00492966234, -14383.101687801087, -50414.06904626716, 39403.17504443825, -24883.21362533732, 56661.76160118123, -6570.317634381966, -20786.63060505755, -10028.22190859579, 8712.374712511863, 4098.929953447575, 4229.754713744487, 11928.03078031907, -187500.02235174447, -0.145125, 0.962375, -0.040125, 192.0, 0.0, 0.0, 0.0, 0.0, 0.0, 0.0, 0.0, 0.0, 0.0, 1.7447427725528831E9, 0.0, 2025-04-15 13:46:12.552
80.0, -21433.177165171764, 3613.5171191116715, 27194.562815971713, -14390.433059982428, -50342.074077376616, 39406.88543401783, -24910.46040182834, 56755.25894823777, -6594.099890482413, -20797.337090651643, -10000.639855937941, 8722.432997516751, 4108.630610541179, 4250.117152943272, 11986.860571725438, -187500.02235174447, -0.145125, 0.962375, -0.040125, 192.0, 0.0, 0.0, 0.0, 0.0, 0.0, 0.0, 0.0, 0.0, 0.0, 1.7447427725599566E9, 0.0, 2025-04-15 13:46:12.559
82.0, -21416.301598108006, 3627.4646076517834, 27219.552066272747, -14382.900522100988, -50354.523999038225, 39411.98163175364, -24884.577081749092, 56797.19082083593, -6576.866695507371, -20778.405163098, -10025.047960883137, 8722.745921939126, 4088.9387236760526, 4235.923795214152, 11932.702294910228, -187500.02235174447, -0.145125, 0.962375, -0.040125, 192.0, 0.0, 0.0, 0.0, 0.0, 0.0, 0.0, 0.0, 0.0, 0.0, 1.7447427725679498E9, 0.0, 2025-04-15 13:46:12.567
84.0, -21415.0051969296, 3642.239110736741, 27201.760077686322, -14390.611873938069, -50230.293003355626, 39424.073925503966, -24900.40211682345, 56912.726987925416, -6588.556657857497, -20783.34489862262, -9998.896419870427, 8736.671058734782, 4106.261325628916, 4263.505847872001, 11998.595237564474, -187500.02235174447, -0.145125, 0.962375, -0.040125, 192.0, 0.0, 0.0, 0.0, 0.0, 0.0, 0.0, 0.0, 0.0, 0.0, 1.7447427725759892E9, 0.0, 2025-04-15 13:46:12.575
86.0, -21398.554313010492, 3651.671546896881, 27213.20417084744, -14382.364080234061, -50246.14039017444, 39423.984518526144, -24880.39730553595, 56938.923232427034, -6578.252503663601, -20758.10977913258, -10024.355056805021, 8730.72549470967, 4091.6879882440558, 4236.996678948007, 11945.733361927672, -187500.02235174447, -0.1425625, 0.9681875, -0.0400625, 192.0, 125.5, 80.0, 15.0, 56.0, 127.0, 96.0, 0.0, 0.0, 0.0, 1.7447427725840304E9, 0.0, 2025-04-15 13:46:12.584
88.0, -21393.927501908245, 3692.3517218055395, 27203.10118235364, -14390.835391382623, -50044.92998658776, 39449.39845197183, -24895.998823165755, 57074.01717591491, -6589.853059035905, -20763.16127337948, -9997.622370436475, 8743.086009393455, 4113.168014665605, 4265.830429295353, 12013.369740649432, -187500.02235174447, -0.1425625, 0.9681875, -0.0400625, 192.0, 0.0, 0.0, 0.0, 0.0, 0.0, 0.0, 0.0, 0.0, 0.0, 1.7447427725920715E9, 0.0, 2025-04-15 13:46:12.592
90.0, -21376.068458088455, 3679.8794483994784, 27214.18764760347, -14384.263978512763, -50059.771544906085, 39432.67934711926, -24883.392439292962, 57078.174600383594, -6573.3351198834325, -20743.022351625248, -10024.623277738487, 8739.196805858232, 4098.102938902729, 4248.910158742686, 11960.664327223818, -187500.02235174447, -0.1425625, 0.9681875, -0.0400625, 192.0, 0.0, 0.0, 0.0, 0.0, 0.0, 0.0, 0.0, 0.0, 0.0, 1.7447427726001747E9, 0.0, 2025-04-15 13:46:12.600
92.0, -21381.142304079807, 3719.1961668963636, 27206.85627542213, -14396.266865285263, -49816.45045476562, 39465.46935623519, -24892.534302775184, 57217.157747406694, -6570.027061704048, -20757.573337265654, -9993.21907677878, 8740.873186692379, 4120.7899595248655, 4272.580656120856, 12019.270601185633, -187500.02235174447, -0.1425625, 0.9681875, -0.0400625, 192.0, 0.0, 0.0, 0.0, 0.0, 0.0, 0.0, 0.0, 0.0, 0.0, 1.7447427726081836E9, 0.0, 2025-04-15 13:46:12.608
94.0, -21349.17930950872, 3702.834689955079, 27216.735746471375, -14375.502094686282, -49848.301690614426, 39441.28476873455, -24887.59456725056, 57194.56013376238, -6574.028023961548, -20737.85909865607, -10021.918716659393, 8734.77116045608, 4089.050482398329, 4249.513655842979, 11969.180341861289, -187500.02235174447, -0.1425625, 0.9681875, -0.0400625, 192.0, 0.0, 0.0, 0.0, 0.0, 0.0, 0.0, 0.0, 0.0, 0.0, 1.744742772615206E9, 0.0, 2025-04-15 13:46:12.615
96.0, -21343.926649561723, 3756.970615025832, 27228.716281499423, -14373.535141174216, -49611.12733019917, 39483.686027966265, -24874.362334533016, 57318.09822536686, -6554.671413263251, -20737.456767255877, -9976.522323670664, 8763.247282892142, 4125.617936327211, 4287.489269672546, 12028.367761178943, -187500.02235174447, -0.14128125000000002, 0.97409375, -0.041031250000000005, 192.0, 125.5, 80.0, 15.0, 80.0, 127.0, 88.0, 0.0, 0.0, 0.0, 1.744742772624249E9, 0.0, 2025-04-15 13:46:12.624
98.0, -21342.65260012777, 3712.40123658195, 27217.96509241642, -14371.076449284132, -49666.537304703874, 39446.7609461261, -24884.621785238003, 57286.60461742934, -6548.658794004774, -20736.115662588556, -10000.59515244903, 8755.178303143777, 4097.007703424419, 4265.3610426617915, 11981.742022245173, -187500.02235174447, -0.14128125000000002, 0.97409375, -0.041031250000000005, 192.0, 0.0, 0.0, 0.0, 0.0, 0.0, 0.0, 0.0, 0.0, 0.0, 1.7447427726322708E9, 0.0, 2025-04-15 13:46:12.632
100.0, -21344.328980961916, 3752.008527756754, 27225.497630297858, -14374.764487119257, -49452.765220733316, 39471.727844682675, -24885.627613738492, 57382.135973231314, -6545.060163147469, -20739.28961030121, -9974.68948062533, 8765.482457337674, 4117.191328667561, 4273.541781132434, 12016.633095339907, -187500.02235174447, -0.14128125000000002, 0.97409375, -0.041031250000000005, 192.0, 0.0, 0.0, 0.0, 0.0, 0.0, 0.0, 0.0, 0.0, 0.0, 1.7447427726403084E9, 0.0, 2025-04-15 13:46:12.640
102.0, -21329.710940088145, 3714.7034662608467, 27212.667728980512, -14369.243606238797, -49561.528809252835, 39425.593844126925, -24885.11352361602, 57293.846582632854, -6544.411962558265, -20724.828031638626, -9998.091757070037, 8755.334765354964, 4093.029092911374, 4254.721612301065, 11981.47380131171, -187500.02235174447, -0.14128125000000002, 0.97409375, -0.041031250000000005, 192.0, 0.0, 0.0, 0.0, 0.0, 0.0, 0.0, 0.0, 0.0, 0.0, 1.744742772647369E9, 0.0, 2025-04-15 13:46:12.647
104.0, -21350.632172898313, 3754.8695510470334, 27223.463621552422, -14381.984100578322, -49372.00836801629, 39457.04274857554, -24875.234052566775, 57375.47515338363, -6545.127218380835, -20739.088444601115, -9981.797335362118, 8760.9674049577, 4116.76664552291, 4265.763374061987, 12008.407653380353, -187500.02235174447, -0.14128125000000002, 0.97409375, -0.041031250000000005, 192.0, 0.0, 0.0, 0.0, 0.0, 0.0, 0.0, 0.0, 0.0, 0.0, 1.744742772656394E9, 0.0, 2025-04-15 13:46:12.656
106.0, -21333.577791878914, 3708.8473092135564, 27210.14198185706, -14384.241626768307, -49497.37930266611, 39405.79019853952, -24896.155285376943, 57278.24506500305, -6559.544093554508, -20734.036950354213, -10010.653437453919, 8747.668117006793, 4095.4654330570024, 4246.250301152504, 11979.931530944292, -187500.02235174447, -0.14128125000000002, 0.97409375, -0.041031250000000005, 192.0, 0.0, 0.0, 0.0, 0.0, 0.0, 0.0, 0.0, 0.0, 0.0, 1.74474277266346E9, 0.0, 2025-04-15 13:46:12.663
108.0, -21324.74885281907, 3763.6314348735136, 27244.831889251698, -14370.919987072944, -49397.109377039604, 39436.6579576323, -24868.34971527454, 57293.48895472157, -6520.182671568713, -20723.53163046022, -9985.015986563682, 8766.35417537143, 4121.661677558623, 4265.741022317532, 11993.454336339753, -187500.02235174447, -0.138, 0.972, -0.046, 192.0, 125.5, 88.0, 15.0, 48.0, 127.0, 72.0, 0.0, 0.0, 0.0, 1.744742772671468E9, 0.0, 2025-04-15 13:46:12.671
110.0, -21331.94611453368, 3712.8706232155114, 27217.853333694144, -14381.805286622679, -49536.67366941854, 39395.57545132345, -24897.585797022082, 57188.12283135925, -6529.458645517665, -20711.37228147653, -9987.318216242578, 8768.388184116862, 4115.604354811234, 4265.852781039808, 11992.403804350353, -187500.02235174447, -0.138, 0.972, -0.046, 192.0, 0.0, 0.0, 0.0, 0.0, 0.0, 0.0, 0.0, 0.0, 0.0, 1.744742772679536E9, 0.0, 2025-04-15 13:46:12.679
112.0, -21332.951943034168, 3751.4497341453716, 27236.315874614225, -14381.648824411492, -49445.277386340786, 39421.5034748916, -24887.572215506105, 57211.301590359406, -6529.346886795389, -20722.749319404284, -9986.178277275358, 8770.802172518037, 4115.246726899949, 4253.581673333844, 11985.385356591387, -187500.02235174447, -0.138, 0.972, -0.046, 192.0, 0.0, 0.0, 0.0, 0.0, 0.0, 0.0, 0.0, 0.0, 0.0, 1.744742772688575E9, 0.0, 2025-04-15 13:46:12.688
114.0, -21315.919913759222, 3734.082428703598, 27220.088508139674, -14371.188208006408, -49590.07198692227, 39388.467596586655, -24911.332119862094, 57107.23186817549, -6516.204061055668, -20707.974816319325, -9966.464038665777, 8785.286102925074, 4117.593660067757, 4265.048118239417, 11995.84597299647, -187500.02235174447, -0.138, 0.972, -0.046, 192.0, 0.0, 0.0, 0.0, 0.0, 0.0, 0.0, 0.0, 0.0, 0.0, 1.7447427726955955E9, 0.0, 2025-04-15 13:46:12.695
116.0, -21305.83927700988, 3770.26990297674, 27239.7803950048, -14362.9404143024, -49569.41897504556, 39414.90971027729, -24890.209721351832, 57104.9296384966, -6515.064122088447, -20690.540455644186, -9966.106410754492, 8797.132527486388, 4118.867709501709, 4265.137525217238, 11975.192961119767, -187500.02235174447, -0.138, 0.972, -0.046, 192.0, 0.0, 0.0, 0.0, 0.0, 0.0, 0.0, 0.0, 0.0, 0.0, 1.7447427727036512E9, 0.0, 2025-04-15 13:46:12.703
118.0, -21294.55164605995, 3750.756830067257, 27225.564685531222, -14357.933623544412, -49714.86177621625, 39389.093445431405, -24911.846209984567, 57011.92402981807, -6490.790127609984, -20682.896159040472, -9948.180311701335, 8805.626190379404, 4123.963907237519, 4282.527182403467, 11996.427118352309, -187500.02235174447, -0.134, 0.97, -0.05, 192.0, 125.5, 104.0, 15.0, 40.0, 127.0, 56.0, 0.0, 0.0, 0.0, 1.7447427727116756E9, 0.0, 2025-04-15 13:46:12.711
120.0, -21293.67992802619, 3772.527429166726, 27244.228392151403, -14358.425361922427, -49719.22036638503, 39412.49572187611, -24888.86861668451, 57020.84237585573, -6500.110805047847, -20689.601682377062, -9962.284262452635, 8796.394919919363, 4116.0960931892505, 4262.410612393691, 11962.810094691527, -187500.02235174447, -0.134, 0.97, -0.05, 192.0, 0.0, 0.0, 0.0, 0.0, 0.0, 0.0, 0.0, 0.0, 0.0, 1.744742772720733E9, 0.0, 2025-04-15 13:46:12.720
122.0, -21289.276634368496, 3755.003661513765, 27227.7775082323, -14366.002603292776, -49807.57681221686, 39390.501605332094, -24910.192180894875, 56986.823020794756, -6500.714302148141, -20686.114810242034, -9946.794503545107, 8803.592181633972, 4117.839529256765, 4280.716691102587, 12003.557324833551, -187500.02235174447, -0.134, 0.97, -0.05, 192.0, 0.0, 0.0, 0.0, 0.0, 0.0, 0.0, 0.0, 0.0, 0.0, 1.7447427727278445E9, 0.0, 2025-04-15 13:46:12.727
124.0, -21289.54485530196, 3767.073603519631, 27240.29448512727, -14370.405896950471, -49864.327891388886, 39399.174082180754, -24879.83851192457, 56971.53442758733, -6491.103052032358, -20685.511313141742, -9967.983957288738, 8794.562076874028, 4117.7948257678545, 4255.682737312643, 11958.540911500564, -187500.02235174447, -0.134, 0.97, -0.05, 192.0, 0.0, 0.0, 0.0, 0.0, 0.0, 0.0, 0.0, 0.0, 0.0, 1.7447427727348237E9, 0.0, 2025-04-15 13:46:12.734
126.0, -21300.206637407144, 3749.2816149332066, 27211.438383035467, -14392.400013494494, -49887.64076085577, 39388.2440791421, -24909.767497750225, 56981.1009742142, -6504.7152644056405, -20708.04187155269, -9955.623442604952, 8789.756451816136, 4119.225337412994, 4266.970368262573, 12003.37851087791, -187500.02235174447, -0.134, 0.97, -0.05, 192.0, 0.0, 0.0, 0.0, 0.0, 0.0, 0.0, 0.0, 0.0, 0.0, 1.7447427727438314E9, 0.0, 2025-04-15 13:46:12.743
128.0, -21298.39614610626, 3753.5731498686255, 27228.00102567685, -14388.555513448182, -49942.335479537905, 39391.820358254954, -24890.008555651733, 56972.406145621084, -6526.5529187384755, -20706.946636074383, -9992.50382095621, 8770.086916695467, 4099.756967992422, 4239.567129560367, 11946.426266005787, -187500.02235174447, -0.132, 0.968, -0.05, 192.0, 125.5, 112.0, 15.0, 32.0, 127.0, 56.0, 0.0, 0.0, 0.0, 1.7447427727518938E9, 0.0, 2025-04-15 13:46:12.751
130.0, -21286.415611078217, 3775.0531762901755, 27213.450040036445, -14393.539952461715, -49887.953685278146, 39400.22461417015, -24907.532323304695, 57020.9094310891, -6524.608316970864, -20706.141973273992, -9967.335756699535, 8784.615550591416, 4117.906584490131, 4265.293987428426, 12003.870249255926, -187500.02235174447, -0.132, 0.968, -0.05, 192.0, 0.0, 0.0, 0.0, 0.0, 0.0, 0.0, 0.0, 0.0, 0.0, 1.7447427727599385E9, 0.0, 2025-04-15 13:46:12.759
132.0, -21270.45646553713, 3781.8704583490444, 27233.52190655731, -14382.185266278419, -49959.92630242423, 39396.313058890475, -24884.39826779345, 56991.27101794136, -6498.881459102805, -20693.803810334663, -9989.151059287913, 8776.92655049879, 4103.646171527645, 4249.55835933189, 11948.862606151415, -187500.02235174447, -0.132, 0.968, -0.05, 192.0, 0.0, 0.0, 0.0, 0.0, 0.0, 0.0, 0.0, 0.0, 0.0, 1.7447427727669616E9, 0.0, 2025-04-15 13:46:12.766
134.0, -21287.399087834252, 3803.395188259505, 27220.133211628585, -14400.8489728986, -49826.93342291516, 39417.12253297836, -24902.726698246803, 57081.01327192942, -6513.901831376771, -20708.66772039744, -9958.037431006125, 8785.777841303092, 4132.8822532751865, 4280.85080156932, 12013.32503716052, -187500.02235174447, -0.132, 0.968, -0.05, 192.0, 0.0, 0.0, 0.0, 0.0, 0.0, 0.0, 0.0, 0.0, 0.0, 1.7447427727759871E9, 0.0, 2025-04-15 13:46:12.775
136.0, -21273.98804116107, 3801.495289980804, 27234.751252502356, -14399.060833342175, -49838.60103352083, 39413.501550376604, -24892.087267886076, 57092.14444066816, -6523.110750092358, -20713.138069288503, -9994.806050635107, 8765.415402104307, 4100.963962193008, 4248.016088964473, 11955.813998677017, -187500.02235174447, -0.132, 0.968, -0.05, 192.0, 0.0, 0.0, 0.0, 0.0, 0.0, 0.0, 0.0, 0.0, 0.0, 1.7447427727840424E9, 0.0, 2025-04-15 13:46:12.784
138.0, -21268.958898658624, 3850.1550376600076, 27238.282828126292, -14394.23285653983, -49604.891193496136, 39450.22546651667, -24898.055183655644, 57224.42206435467, -6513.074816831925, -20709.785307620205, -9947.912090767872, 8795.79142281907, 4134.737448064977, 4282.437775425646, 12021.461072142252, -187500.02235174447, -0.136, 0.97, -0.052000000000000005, 192.0, 125.5, 96.0, 15.0, 40.0, 127.0, 48.0, 0.0, 0.0, 0.0, 1.7447427727910895E9, 0.0, 2025-04-15 13:46:12.791
140.0, -21264.175625345186, 3832.51951128477, 27244.38485436259, -14397.60796995258, -49558.243102817905, 39430.84650407392, -24903.196084880365, 57248.338430921845, -6495.416938712232, -20698.296510970176, -9963.49125665322, 8790.292893683063, 4126.243785171961, 4261.22596993756, 11979.842123966471, -187500.02235174447, -0.136, 0.97, -0.052000000000000005, 192.0, 0.0, 0.0, 0.0, 0.0, 0.0, 0.0, 0.0, 0.0, 0.0, 1.7447427727991068E9, 0.0, 2025-04-15 13:46:12.799
142.0, -21275.127980128287, 3870.428069880971, 27236.941723458975, -14406.123984590053, -49199.69877001033, 39465.9163911243, -24912.94144546288, 57441.166930337786, -6505.676389417218, -20723.598685693585, -9942.055933720581, 8787.051890737044, 4126.556709594334, 4272.9382840321405, 12039.588336895507, -187500.02235174447, -0.136, 0.97, -0.052000000000000005, 192.0, 0.0, 0.0, 0.0, 0.0, 0.0, 0.0, 0.0, 0.0, 0.0, 1.7447427728081524E9, 0.0, 2025-04-15 13:46:12.808
144.0, -21252.239793806053, 3846.2211306358736, 27236.025301936308, -14393.294083272707, -49151.82133338706, 39438.13317276635, -24912.002672195755, 57452.409857798804, -6513.3430377653885, -20704.15266801747, -9969.63798637843, 8776.88184700988, 4105.09903491724, 4258.879036769752, 11995.84597299647, -187500.02235174447, -0.136, 0.97, -0.052000000000000005, 192.0, 0.0, 0.0, 0.0, 0.0, 0.0, 0.0, 0.0, 0.0, 0.0, 1.744742772815225E9, 0.0, 2025-04-15 13:46:12.815
146.0, -21264.30973581192, 3879.8828577855656, 27237.835793237187, -14402.055967099186, -48825.1729399172, 39471.83960340495, -24911.801506495656, 57616.31519988957, -6496.355711979355, -20708.131278530513, -9936.669163306853, 8801.714635099726, 4132.368163152714, 4285.723481860577, 12043.969278808747, -187500.02235174447, -0.136, 0.97, -0.052000000000000005, 192.0, 0.0, 0.0, 0.0, 0.0, 0.0, 0.0, 0.0, 0.0, 0.0, 1.7447427728232355E9, 0.0, 2025-04-15 13:46:12.823
148.0, -21264.93558465667, 3818.1920430889186, 27224.648264008556, -14406.548667734703, -48856.39832692127, 39415.22263469966, -24930.80048928267, 57581.15590586137, -6514.19240405469, -20712.556923932665, -9972.431954435344, 8777.753565043637, 4097.790014480354, 4249.446600609613, 11998.729348031206, -187500.02235174447, -0.136, 0.978, -0.05, 192.0, 125.5, 96.0, 15.0, 72.0, 127.0, 56.0, 0.0, 0.0, 0.0, 1.744742772832278E9, 0.0, 2025-04-15 13:46:12.832
150.0, -21254.854947907323, 3850.110334171097, 27246.620028808124, -14399.597275209104, -48701.299572145894, 39428.320756950474, -24915.444840841872, 57632.54256636412, -6493.964075322638, -20710.14293553149, -9954.97524201575, 8792.013978006122, 4118.800654268343, 4255.950958246107, 12012.721540060227, -187500.02235174447, -0.136, 0.978, -0.05, 192.0, 0.0, 0.0, 0.0, 0.0, 0.0, 0.0, 0.0, 0.0, 0.0, 1.74474277284033E9, 0.0, 2025-04-15 13:46:12.840
152.0, -21257.648915964237, 3789.2912375082065, 27228.20219137695, -14405.319321789662, -48876.693710886684, 39375.21301212466, -24935.717873062837, 57518.50396615315, -6497.585057924397, -20702.543342416688, -9971.135553256936, 8780.279312167086, 4102.036845926863, 4239.544777815911, 11980.289158855578, -187500.02235174447, -0.136, 0.978, -0.05, 192.0, 0.0, 0.0, 0.0, 0.0, 0.0, 0.0, 0.0, 0.0, 0.0, 1.7447427728473568E9, 0.0, 2025-04-15 13:46:12.847
154.0, -21256.68779095266, 3824.0258483917537, 27250.01749396533, -14397.60796995258, -48817.75216075804, 39401.61042232638, -24922.79856476767, 57528.36108545794, -6489.560781664942, -20702.833915094605, -9960.362012429478, 8786.560152359027, 4114.553822821835, 4245.959728474585, 11985.877094969404, -187500.02235174447, -0.136, 0.978, -0.05, 192.0, 0.0, 0.0, 0.0, 0.0, 0.0, 0.0, 0.0, 0.0, 0.0, 1.7447427728554022E9, 0.0, 2025-04-15 13:46:12.855
156.0, -21241.354494256317, 3781.2446095042956, 27236.00295019185, -14383.36990873455, -49067.488201557186, 39357.55513400497, -24938.288323675195, 57370.80363879247, -6484.084604273392, -20689.869903310526, -9966.68755611033, 8796.953713530746, 4105.255497128427, 4241.623490050255, 11965.872283681903, -187500.02235174447, -0.136, 0.978, -0.05, 192.0, 0.0, 0.0, 0.0, 0.0, 0.0, 0.0, 0.0, 0.0, 0.0, 1.7447427728644652E9, 0.0, 2025-04-15 13:46:12.864
158.0, -21247.165947814698, 3816.873290166055, 27269.06118024125, -14379.570112177147, -49078.2840941291, 39392.89324198881, -24906.280625615196, 57346.551996058464, -6489.627836898308, -20682.292661940177, -9948.448532634799, 8818.389036463384, 4126.95904099453, 4255.168647190171, 11969.895597683859, -187500.02235174447, -0.14, 0.968, -0.058, 192.0, 125.5, 80.0, 15.0, 32.0, 127.0, 24.0, 0.0, 0.0, 0.0, 1.7447427728714745E9, 0.0, 2025-04-15 13:46:12.871
160.0, -21249.132901326764, 3774.114403023053, 27245.077758440708, -14390.32130126015, -49293.59844846707, 39354.783517692515, -24937.59541959708, 57218.074168929365, -6472.685214601185, -20686.204217219856, -9946.503930867188, 8810.588277648483, 4113.458587343524, 4251.949995988607, 11981.607911778441, -187500.02235174447, -0.14, 0.968, -0.058, 192.0, 0.0, 0.0, 0.0, 0.0, 0.0, 0.0, 0.0, 0.0, 0.0, 1.744742772879515E9, 0.0, 2025-04-15 13:46:12.879
162.0, -21243.880241379768, 3807.9102406394773, 27272.659811098554, -14382.408783722973, -49342.012326957265, 39382.27616337254, -24909.432221583396, 57169.056793338874, -6473.623987868308, -20678.179940960403, -9949.789637302118, 8807.391978191374, 4116.274907144893, 4246.473818597057, 11962.117190613413, -187500.02235174447, -0.14, 0.968, -0.058, 192.0, 0.0, 0.0, 0.0, 0.0, 0.0, 0.0, 0.0, 0.0, 0.0, 1.744742772887575E9, 0.0, 2025-04-15 13:46:12.887
164.0, -21241.801529145425, 3787.659560162969, 27244.00487470685, -14389.583693693125, -49538.97589909744, 39351.631921724314, -24936.455480629862, 57045.33988777875, -6466.806705809439, -20677.062353737638, -9933.003477216182, 8812.46582418273, 4121.48286360298, 4256.420344879669, 11984.290121113077, -187500.02235174447, -0.14, 0.968, -0.058, 192.0, 0.0, 0.0, 0.0, 0.0, 0.0, 0.0, 0.0, 0.0, 0.0, 1.744742772895613E9, 0.0, 2025-04-15 13:46:12.895
166.0, -21250.406950760716, 3800.534164969226, 27267.965944762942, -14377.916083087455, -49616.894080268634, 39371.212049867165, -24908.471096571815, 56985.07958472724, -6472.864028556827, -20676.369449659524, -9946.570986100554, 8809.113062514432, 4118.0853984457735, 4244.305699384892, 11950.762504430117, -187500.02235174447, -0.14, 0.968, -0.058, 192.0, 0.0, 0.0, 0.0, 0.0, 0.0, 0.0, 0.0, 0.0, 0.0, 1.7447427729036615E9, 0.0, 2025-04-15 13:46:12.903
168.0, -21259.660572965215, 3763.8326005736117, 27236.494688569866, -14386.543856447204, -49776.999625802, 39349.195581578686, -24940.791719054192, 56893.01274931583, -6454.13326670328, -20695.927226057916, -9933.182291171825, 8803.167498489322, 4128.523663106402, 4251.637071566233, 11985.854743224949, -187500.02235174447, -0.139, 0.9630000000000001, -0.06, 192.0, 125.5, 88.0, 14.5, 120.0, 127.0, 8.0, 0.0, 0.0, 0.0, 1.7447427729116921E9, 0.0, 2025-04-15 13:46:12.911
170.0, -21259.504110754027, 3786.1172897955526, 27250.911563743543, -14384.42044072395, -49869.93817924717, 39363.41129105226, -24918.68584378789, 56846.00703072632, -6464.325662174901, -20698.43062143691, -9952.91888152586, 8796.417271663819, 4109.457625086025, 4235.767333002965, 11938.871376379893, -187500.02235174447, -0.139, 0.9630000000000001, -0.06, 192.0, 0.0, 0.0, 0.0, 0.0, 0.0, 0.0, 0.0, 0.0, 0.0, 1.7447427729197469E9, 0.0, 2025-04-15 13:46:12.919
172.0, -21272.512826027018, 3770.918103565944, 27221.027281406794, -14400.647807198502, -49958.18286635672, 39354.492945014594, -24945.66439934545, 56814.7592919778, -6473.825153568406, -20703.61622615054, -9931.841186504505, 8806.229687479698, 4123.941555493064, 4249.357193631791, 11984.13365890189, -187500.02235174447, -0.139, 0.9630000000000001, -0.06, 192.0, 0.0, 0.0, 0.0, 0.0, 0.0, 0.0, 0.0, 0.0, 0.0, 1.7447427729268317E9, 0.0, 2025-04-15 13:46:12.926
174.0, -21254.58672697386, 3793.1580892989746, 27254.823119023218, -14386.901484358488, -50070.14275433335, 39366.33936957591, -24917.79177400968, 56768.31236699967, -6461.2187696956125, -20696.038984780193, -9958.238596706224, 8799.144184487366, 4104.1155581612065, 4232.392219590213, 11928.567222185997, -187500.02235174447, -0.139, 0.9630000000000001, -0.06, 192.0, 0.0, 0.0, 0.0, 0.0, 0.0, 0.0, 0.0, 0.0, 0.0, 1.744742772935846E9, 0.0, 2025-04-15 13:46:12.935
176.0, -21271.10466612633, 3788.7100921523684, 27229.073909410705, -14402.61476071057, -50065.225370553184, 39375.257715613574, -24943.250410944274, 56799.49305051483, -6462.358708662833, -20709.29356924219, -9926.141491668403, 8805.022693279112, 4118.845357757254, 4250.832408765842, 11993.119060172923, -187500.02235174447, -0.139, 0.9630000000000001, -0.06, 192.0, 0.0, 0.0, 0.0, 0.0, 0.0, 0.0, 0.0, 0.0, 0.0, 1.744742772943847E9, 0.0, 2025-04-15 13:46:12.943
178.0, -21266.79077944646, 3787.6819119074244, 27243.133156673095, -14397.585618208126, -50177.989921330205, 39375.50358480258, -24919.445803099374, 56750.05099177969, -6466.493781387065, -20698.341214459087, -9958.283300195135, 8796.171402474809, 4096.158337135117, 4233.286289368426, 11928.634277419362, -187500.02235174447, -0.1365, 0.9635, -0.061, 192.0, 125.5, 104.0, 15.0, 16.0, 127.0, 8.0, 0.0, 0.0, 0.0, 1.744742772952922E9, 0.0, 2025-04-15 13:46:12.952
180.0, -21269.472988781094, 3805.406845260483, 27224.91648494202, -14406.347502034605, -50112.94634496526, 39393.6979047892, -24942.490451632795, 56813.28407684375, -6475.278016958001, -20723.06224382666, -9935.484520850721, 8793.958579773735, 4108.205927396528, 4250.1618564321825, 11992.13558341689, -187500.02235174447, -0.1365, 0.9635, -0.061, 192.0, 0.0, 0.0, 0.0, 0.0, 0.0, 0.0, 0.0, 0.0, 0.0, 1.7447427729599323E9, 0.0, 2025-04-15 13:46:12.959
182.0, -21260.487587510062, 3799.1483568129966, 27229.85622046664, -14393.294083272707, -50208.902383911896, 39386.70180877469, -24924.49729734627, 56784.60678870759, -6476.820287325417, -20707.0360430522, -9968.363936944477, 8786.98483550368, 4091.442119055047, 4237.957803959585, 11931.674114665284, -187500.02235174447, -0.1365, 0.9635, -0.061, 192.0, 0.0, 0.0, 0.0, 0.0, 0.0, 0.0, 0.0, 0.0, 0.0, 1.7447427729679856E9, 0.0, 2025-04-15 13:46:12.967
184.0, -21262.43218927767, 3818.6390779780245, 27216.691042982467, -14392.243551283307, -50089.208792353726, 39407.31011716248, -24937.37190215253, 56858.27813843229, -6482.81055483944, -20718.01074957976, -9938.68082030783, 8797.065472253022, 4116.252555400438, 4256.397993135213, 11993.297874128566, -187500.02235174447, -0.1365, 0.9635, -0.061, 192.0, 0.0, 0.0, 0.0, 0.0, 0.0, 0.0, 0.0, 0.0, 0.0, 1.7447427729760084E9, 0.0, 2025-04-15 13:46:12.976
186.0, -21263.549776500437, 3791.8616881205667, 27216.53458077128, -14395.08222282913, -50175.486525951215, 39386.83591924142, -24936.32137016313, 56828.259745628806, -6488.532601419998, -20714.389766977998, -9971.359070701488, 8774.177285930788, 4092.984389422463, 4232.034591678928, 11937.373809501387, -187500.02235174447, -0.1365, 0.9635, -0.061, 192.0, 0.0, 0.0, 0.0, 0.0, 0.0, 0.0, 0.0, 0.0, 0.0, 1.7447427729830797E9, 0.0, 2025-04-15 13:46:12.983
188.0, -21259.280593309475, 3830.686668239435, 27219.90969418403, -14405.788708423222, -49991.77753827305, 39411.24402418661, -24943.22805919982, 56952.40133433358, -6479.256627471045, -20734.238116054312, -9941.497140109199, 8780.860457522924, 4115.4478926000465, 4254.542798345423, 11994.99660670717, -187500.02235174447, -0.13225, 0.96775, -0.0615, 192.0, 126.0, 0.0, 15.0, 48.0, 127.0, 8.0, 0.0, 0.0, 0.0, 1.7447427729910767E9, 0.0, 2025-04-15 13:46:12.991
190.0, -21248.708218182113, 3804.557478971181, 27225.564685531222, -14397.898542630499, -50072.780260179075, 39376.15178539178, -24946.625524357027, 56924.372246786625, -6479.681310615696, -20727.2420200398, -9966.30757645459, 8776.300701654041, 4096.76183423541, 4228.391257332713, 11951.544815486051, -187500.02235174447, -0.13225, 0.96775, -0.0615, 192.0, 0.0, 0.0, 0.0, 0.0, 0.0, 0.0, 0.0, 0.0, 0.0, 1.7447427730001173E9, 0.0, 2025-04-15 13:46:13.000
192.0, -21243.030875090466, 3858.782811019756, 27243.356674117647, -14386.253283769285, -49859.29874888644, 39415.46850388867, -24937.617771341538, 57046.2116058125, -6486.833868841394, -20722.05641532617, -9941.318326153556, 8790.35994891643, 4121.952250236542, 4252.106458199794, 12000.226914909712, -187500.02235174447, -0.13225, 0.96775, -0.0615, 192.0, 0.0, 0.0, 0.0, 0.0, 0.0, 0.0, 0.0, 0.0, 0.0, 1.744742773007156E9, 0.0, 2025-04-15 13:46:13.007
194.0, -21239.476947722073, 3829.3902670610273, 27234.5277350578, -14374.719783630346, -49911.62418265631, 39390.68041928773, -24929.392329381983, 57018.85307059921, -6465.085621486381, -20703.124487772526, -9955.668146093863, 8787.364815159419, 4109.47997683048, 4244.439809851624, 11967.660423238329, -187500.02235174447, -0.13225, 0.96775, -0.0615, 192.0, 0.0, 0.0, 0.0, 0.0, 0.0, 0.0, 0.0, 0.0, 0.0, 1.7447427730152116E9, 0.0, 2025-04-15 13:46:13.015
196.0, -21237.241773276543, 3879.1452502185407, 27241.613238050133, -14367.790742849202, -49658.53538018887, 39431.65116687431, -24917.50120133176, 57145.922737827634, -6486.744461863574, -20711.416984965443, -9940.647773819897, 8795.746719330158, 4123.762741537421, 4265.3610426617915, 12006.172478934823, -187500.02235174447, -0.13225, 0.96775, -0.0615, 192.0, 0.0, 0.0, 0.0, 0.0, 0.0, 0.0, 0.0, 0.0, 0.0, 1.7447427730232468E9, 0.0, 2025-04-15 13:46:13.023
198.0, -21252.373904272787, 3829.6137845055805, 27220.110859884127, -14373.758658618768, -49670.00182509444, 39400.11285544787, -24931.26987591623, 57141.45238893657, -6479.502496660054, -20712.780441377217, -9958.59622461751, 8786.180172703287, 4111.335171620271, 4249.491304098524, 11981.674967011806, -187500.02235174447, -0.128125, 0.977875, -0.06175, 192.0, 126.0, 16.0, 15.0, 112.0, 127.0, 8.0, 0.0, 0.0, 0.0, 1.744742773032288E9, 0.0, 2025-04-15 13:46:13.032
200.0, -21242.002694845523, 3875.5689711056916, 27244.943647973974, -14362.761600346757, -49422.50095874083, 39441.64239664583, -24913.611997796535, 57265.01283228551, -6496.66863640173, -20728.605476451576, -9950.303727424589, 8791.45518439474, 4112.251593142938, 4254.609853578789, 12000.450432354264, -187500.02235174447, -0.128125, 0.977875, -0.06175, 192.0, 0.0, 0.0, 0.0, 0.0, 0.0, 0.0, 0.0, 0.0, 0.0, 1.7447427730393183E9, 0.0, 2025-04-15 13:46:13.039
202.0, -21244.64020069125, 3830.820778706167, 27223.03893840777, -14365.957899803865, -49469.23845639687, 39402.14686419331, -24932.8344980281, 57234.74857029302, -6472.305234945445, -20708.868886097538, -9953.835303048529, 8793.466841395717, 4109.390569852659, 4249.312490142881, 11989.095746170968, -187500.02235174447, -0.128125, 0.977875, -0.06175, 192.0, 0.0, 0.0, 0.0, 0.0, 0.0, 0.0, 0.0, 0.0, 0.0, 1.744742773047368E9, 0.0, 2025-04-15 13:46:13.047
204.0, -21260.19701483214, 3858.1569621750073, 27233.879534468597, -14373.8927690855, -49269.14564003297, 39430.89120756283, -24925.950160735865, 57337.410132576246, -6503.642380671786, -20721.944656603893, -9956.584567616532, 8784.570847102505, 4104.964924450508, 4245.400934863203, 11995.577752063007, -187500.02235174447, -0.128125, 0.977875, -0.06175, 192.0, 0.0, 0.0, 0.0, 0.0, 0.0, 0.0, 0.0, 0.0, 0.0, 1.7447427730554368E9, 0.0, 2025-04-15 13:46:13.055
206.0, -21242.829709390367, 3806.2785632942396, 27228.470412310413, -14364.75090560328, -49398.62929566256, 39386.56769830796, -24941.596381854582, 57251.44532340114, -6484.352825206855, -20716.177906534424, -9957.568044372565, 8788.057719237533, 4097.633552269167, 4246.965556975074, 11983.060775168035, -187500.02235174447, -0.128125, 0.977875, -0.06175, 192.0, 0.0, 0.0, 0.0, 0.0, 0.0, 0.0, 0.0, 0.0, 0.0, 1.7447427730624638E9, 0.0, 2025-04-15 13:46:13.062
208.0, -21251.79275891695, 3830.820778706167, 27252.945572488974, -14355.60904212106, -49348.36022238257, 39419.53652137954, -24914.662529785935, 57263.62702412928, -6477.04380476997, -20703.236246494802, -9959.870274051462, 8795.567905374517, 4112.653924543134, 4245.088010440828, 11966.02874589309, -187500.02235174447, -0.1270625, 0.9769375, -0.061875, 192.0, 126.0, 8.0, 15.0, 64.0, 127.0, 8.0, 0.0, 0.0, 0.0, 1.7447427730714629E9, 0.0, 2025-04-15 13:46:13.071
210.0, -21255.458445007618, 3783.2562665052733, 27232.6278367791, -14369.243606238797, -49523.46378844545, 39377.17996563673, -24946.17848946792, 57141.74296161449, -6485.336301962889, -20709.38297622001, -9960.518474640665, 8791.768108817114, 4107.960058207519, 4246.272652896959, 11980.020937922114, -187500.02235174447, -0.1270625, 0.9769375, -0.061875, 192.0, 0.0, 0.0, 0.0, 0.0, 0.0, 0.0, 0.0, 0.0, 0.0, 1.7447427730795646E9, 0.0, 2025-04-15 13:46:13.079
212.0, -21248.574107715383, 3816.1580343434853, 27264.25555518336, -14364.79560909219, -49569.73189946794, 39389.56283206497, -24916.65183504246, 57072.47490554749, -6481.1788774942015, -20692.86503706754, -9963.49125665322, 8800.619399621415, 4115.716113533511, 4242.539911572923, 11955.121094598902, -187500.02235174447, -0.1270625, 0.9769375, -0.061875, 192.0, 0.0, 0.0, 0.0, 0.0, 0.0, 0.0, 0.0, 0.0, 0.0, 1.7447427730865521E9, 0.0, 2025-04-15 13:46:13.086
214.0, -21257.604212475326, 3782.0939757935976, 27228.492764054867, -14384.42044072395, -49700.9813429095, 39362.78544220751, -24954.336876194106, 56975.781259033836, -6474.361595435334, -20696.709537113853, -9947.06272447857, 8803.100443255955, 4110.664619286611, 4243.210463906582, 11981.630263522895, -187500.02235174447, -0.1270625, 0.9769375, -0.061875, 192.0, 0.0, 0.0, 0.0, 0.0, 0.0, 0.0, 0.0, 0.0, 0.0, 1.7447427730945969E9, 0.0, 2025-04-15 13:46:13.094
216.0, -21253.692657195646, 3798.298990523695, 27255.091339956685, -14381.782934878223, -49792.19881203161, 39375.50358480258, -24924.78787002419, 56880.56282765423, -6472.148772734257, -20697.871827825526, -9960.49612289621, 8800.485289154683, 4098.594677280746, 4222.758617729976, 11938.98313510217, -187500.02235174447, -0.1270625, 0.9769375, -0.061875, 192.0, 0.0, 0.0, 0.0, 0.0, 0.0, 0.0, 0.0, 0.0, 0.0, 1.7447427731036448E9, 0.0, 2025-04-15 13:46:13.103
218.0, -21261.940450899656, 3774.784955356712, 27229.945627444464, -14390.008376837777, -49936.032287601505, 39360.61732299535, -24945.954972023366, 56763.12676228604, -6472.774621579007, -20691.769801589227, -9939.843111019507, 8808.844841580969, 4120.700552547044, 4247.658461053188, 11977.2269698652, -187500.02235174447, -0.12853124999999999, 0.96946875, -0.06493750000000001, 192.0, 125.5, 120.0, 15.0, 8.0, 126.5, 112.0, 0.0, 0.0, 0.0, 1.7447427731116912E9, 0.0, 2025-04-15 13:46:13.111
220.0, -21256.799549674935, 3786.8996008514887, 27259.181709192006, -14378.050193554187, -50064.08543158596, 39370.20622136667, -24920.608093811046, 56658.386487768475, -6474.540409390976, -20696.307205713656, -9964.474733409255, 8792.59512336196, 4106.529546562379, 4225.530234042434, 11930.534175698063, -187500.02235174447, -0.12853124999999999, 0.96946875, -0.06493750000000001, 192.0, 0.0, 0.0, 0.0, 0.0, 0.0, 0.0, 0.0, 0.0, 0.0, 1.7447427731187537E9, 0.0, 2025-04-15 13:46:13.118
222.0, -21257.894785153247, 3785.1561647839744, 27233.09722341266, -14386.074469813642, -50149.759668083156, 39366.49583178709, -24944.65857084496, 56592.20297243631, -6473.489877401576, -20698.76589760374, -9934.590451072509, 8809.224821236709, 4122.53339559238, 4250.541836087923, 11985.94415020277, -187500.02235174447, -0.12853124999999999, 0.96946875, -0.06493750000000001, 192.0, 0.0, 0.0, 0.0, 0.0, 0.0, 0.0, 0.0, 0.0, 0.0, 1.7447427731268325E9, 0.0, 2025-04-15 13:46:13.126
224.0, -21259.124131098288, 3777.333054224617, 27242.19438340597, -14383.772240134746, -50291.20150699634, 39364.59593350839, -24921.435108355894, 56508.54039294009, -6449.864083512317, -20692.216836478336, -9957.769210072662, 8803.100443255955, 4109.748197763944, 4227.497187554502, 11932.612887932408, -187500.02235174447, -0.12853124999999999, 0.96946875, -0.06493750000000001, 192.0, 0.0, 0.0, 0.0, 0.0, 0.0, 0.0, 0.0, 0.0, 0.0, 1.7447427731358387E9, 0.0, 2025-04-15 13:46:13.135
226.0, -21260.264070065507, 3785.2232200173403, 27225.452926808946, -14386.633263425025, -50319.96820211032, 39370.27327660004, -24936.522535863227, 56496.15752651185, -6459.743554561563, -20706.454897696363, -9935.462169106266, 8806.721425857715, 4127.29431716136, 4248.463123853579, 11990.146278160368, -187500.02235174447, -0.12853124999999999, 0.96946875, -0.06493750000000001, 192.0, 0.0, 0.0, 0.0, 0.0, 0.0, 0.0, 0.0, 0.0, 0.0, 1.7447427731428642E9, 0.0, 2025-04-15 13:46:13.142
228.0, -21279.48657029707, 3762.782068584212, 27224.223580863905, -14399.597275209104, -50419.83579633663, 39364.417119552745, -24931.381634638507, 56472.44232564478, -6479.189572237679, -20714.590932678097, -9970.06266952308, 8791.276370439098, 4099.444043570047, 4224.300888097392, 11932.523480954585, -187500.02235174447, -0.12853124999999999, 0.96946875, -0.06493750000000001, 192.0, 0.0, 0.0, 0.0, 0.0, 0.0, 0.0, 0.0, 0.0, 0.0, 1.7447427731509264E9, 0.0, 2025-04-15 13:46:13.150
230.0, -21282.83933196537, 3791.5487636981925, 27221.362557573626, -14403.575885722148, -50343.92927216641, 39375.41417782476, -24950.827652314623, 56541.822140434044, -6479.547200148964, -20728.85134564058, -9947.018020989659, 8800.664103110326, 4113.682104788078, 4243.07635343985, 11981.294987356066, -187500.02235174447, -0.132, 0.9560000000000001, -0.07200000000000001, 192.0, 125.5, 112.0, 14.5, 112.0, 126.5, 96.0, 0.0, 0.0, 0.0, 1.7447427731589303E9, 0.0, 2025-04-15 13:46:13.158
232.0, -21269.338878314364, 3782.0269205602317, 27236.8299647367, -14391.505943716282, -50455.55388397621, 39358.98564565011, -24935.7849282962, 56503.15362252636, -6471.768793078518, -20706.09726978508, -9972.431954435344, 8797.199582719753, 4099.019360425396, 4221.864547951764, 11920.252373248622, -187500.02235174447, -0.132, 0.9560000000000001, -0.07200000000000001, 192.0, 0.0, 0.0, 0.0, 0.0, 0.0, 0.0, 0.0, 0.0, 0.0, 1.744742773167978E9, 0.0, 2025-04-15 13:46:13.167
234.0, -21277.273747596, 3811.7100371968795, 27227.7775082323, -14405.453432256394, -50307.71944614881, 39388.73581752012, -24940.434091142906, 56606.9104202879, -6480.687139116185, -20721.22940078132, -9943.486445365721, 8806.833184579991, 4123.226299670494, 4249.357193631791, 11985.586522291485, -187500.02235174447, -0.132, 0.9560000000000001, -0.07200000000000001, 192.0, 0.0, 0.0, 0.0, 0.0, 0.0, 0.0, 0.0, 0.0, 0.0, 1.7447427731750135E9, 0.0, 2025-04-15 13:46:13.175
236.0, -21272.758695216024, 3779.5235251812373, 27224.849429708654, -14409.94613289191, -50389.325665155135, 39363.433642796714, -24940.612905098547, 56582.43526010934, -6495.595752667875, -20729.276028785232, -9983.719585385274, 8779.340538899964, 4094.839584212254, 4214.264954836959, 11934.758655400117, -187500.02235174447, -0.132, 0.9560000000000001, -0.07200000000000001, 192.0, 0.0, 0.0, 0.0, 0.0, 0.0, 0.0, 0.0, 0.0, 0.0, 1.7447427731830592E9, 0.0, 2025-04-15 13:46:13.183
238.0, -21270.05413413693, 3827.557424015692, 27242.64141829508, -14398.680853686436, -50210.846985679505, 39403.66678281627, -24933.08036721711, 56679.754755467744, -6499.99904632557, -20740.518956246255, -9954.30468968209, 8788.884733782379, 4125.997915982952, 4240.260033638481, 11993.90137122886, -187500.02235174447, -0.132, 0.9560000000000001, -0.07200000000000001, 192.0, 0.0, 0.0, 0.0, 0.0, 0.0, 0.0, 0.0, 0.0, 0.0, 1.7447427731911073E9, 0.0, 2025-04-15 13:46:13.191
240.0, -21249.378770515774, 3802.9034498814885, 27242.19438340597, -14384.688661657414, -50320.99638235526, 39385.78538725202, -24929.079404959608, 56641.15329279343, -6490.164278765235, -20713.205124521868, -9975.315329470079, 8791.231666950187, 4106.127215162184, 4229.508844555479, 11951.433056763775, -187500.02235174447, -0.134, 0.97, -0.07200000000000001, 192.0, 125.5, 104.0, 15.0, 40.0, 126.5, 96.0, 0.0, 0.0, 0.0, 1.7447427731991177E9, 0.0, 2025-04-15 13:46:13.199
242.0, -21244.930773369168, 3854.0665929396864, 27253.213793422437, -14379.704222643879, -50140.21547320074, 39429.728916851156, -24913.611997796535, 56762.00917506328, -6481.894133316771, -20718.99422633579, -9944.022887232648, 8809.247172981164, 4130.043581729363, 4254.833371023342, 12007.178307435312, -187500.02235174447, -0.134, 0.97, -0.07200000000000001, 192.0, 0.0, 0.0, 0.0, 0.0, 0.0, 0.0, 0.0, 0.0, 0.0, 1.7447427732071598E9, 0.0, 2025-04-15 13:46:13.207
244.0, -21239.275782021974, 3822.3494675576053, 27235.757081002845, -14379.771277877246, -50227.56609053208, 39401.92334674875, -24925.011387468745, 56752.062648780666, -6509.967924352637, -20709.271217497735, -9969.928559056349, 8804.240382223175, 4117.817177512309, 4239.567129560367, 11983.641920523873, -187500.02235174447, -0.134, 0.97, -0.07200000000000001, 192.0, 0.0, 0.0, 0.0, 0.0, 0.0, 0.0, 0.0, 0.0, 0.0, 1.7447427732152004E9, 0.0, 2025-04-15 13:46:13.215
246.0, -21224.791851614937, 3875.9936542503424, 27262.199194693472, -14365.332050959118, -50046.24873951063, 39445.5092484366, -24906.884122715488, 56875.33251945169, -6460.816438295417, -20711.305226243167, -9941.228919175735, 8820.691266142281, 4135.899738776653, 4255.123943701261, 12013.749720305172, -187500.02235174447, -0.134, 0.97, -0.07200000000000001, 192.0, 0.0, 0.0, 0.0, 0.0, 0.0, 0.0, 0.0, 0.0, 0.0, 1.7447427732232437E9, 0.0, 2025-04-15 13:46:13.223
248.0, -21217.214610244588, 3834.33000258565, 27239.7803950048, -14363.365097447051, -50122.758760781144, 39410.17114045276, -24924.519649090726, 56868.045850759256, -6480.687139116185, -20710.679377398417, -9958.953852528794, 8810.677684626304, 4114.754988521932, 4249.6924697986215, 11998.751699775661, -187500.02235174447, -0.134, 0.97, -0.07200000000000001, 192.0, 0.0, 0.0, 0.0, 0.0, 0.0, 0.0, 0.0, 0.0, 0.0, 1.7447427732302804E9, 0.0, 2025-04-15 13:46:13.230
250.0, -21222.511973680495, 3882.632122353569, 27267.07187498473, -14360.057039267665, -49884.71268233212, 39466.363426013406, -24890.612052752025, 57020.66356190009, -6468.281920943489, -20698.47532492582, -9939.552538341588, 8832.872966870424, 4135.765628309921, 4268.445583396624, 12016.342522661987, -187500.02235174447, -0.132, 0.986, -0.07200000000000001, 192.0, 125.5, 112.0, 15.0, 104.0, 126.5, 96.0, 0.0, 0.0, 0.0, 1.7447427732393432E9, 0.0, 2025-04-15 13:46:13.239
