%OpenBCI Raw EXG Data
%Number of channels = 16
%Sample Rate = 125 Hz
%Board = OpenBCI_GUI$BoardCytonSerialDaisy
Sample Index, EXG Channel 0, EXG Channel 1, EXG Channel 2, EXG Channel 3, EXG Channel 4, EXG Channel 5, EXG Channel 6, EXG Channel 7, EXG Channel 8, EXG Channel 9, EXG Channel 10, EXG Channel 11, EXG Channel 12, EXG Channel 13, EXG Channel 14, EXG Channel 15, Accel Channel 0, Accel Channel 1, Accel Channel 2, Not Used, Digital Channel 0 (D11), Digital Channel 1 (D12), Digital Channel 2 (D13), Digital Channel 3 (D17), Not Used, Digital Channel 4 (D18), Analog Channel 0, Analog Channel 1, Analog Channel 2, Timestamp, Marker Channel, Timestamp (Formatted)
0.0, 19498.29840639811, -27563.16543378418, -43080.26052478082, -28275.292012130263, -25361.49625319198, 6579.168925186268, -37760.008902550806, 14206.589961837526, 0.0, 0.0, 0.0, 0.0, 0.0, 0.0, 0.0, 0.0, 0.0, 0.0, 0.0, 192.0, 0.0, 0.0, 0.0, 0.0, 0.0, 0.0, 0.0, 0.0, 0.0, 1.741808565168301E9, 0.0, 2025-03-12 14:42:45.168
50.0, 19473.063286908065, -27563.724227395564, -43092.30811504223, -28300.102448475656, -25368.82762537332, 6571.077593693447, -37763.94280957494, 14205.159450192386, 4192.181431315116, -13262.80990395664, -34839.30645457583, -5566.500790894126, -36968.354817432744, -19760.35025839213, -18299.619054748902, 7678.1594965648055, 0.0, 0.0, 0.0, 192.0, 0.0, 0.0, 0.0, 0.0, 0.0, 0.0, 0.0, 0.0, 0.0, 1.741808565168324E9, 0.0, 2025-03-12 14:42:45.168
52.0, 19479.90292071139, -27568.865128620284, -43091.45874875293, -28278.711829031927, -25362.993820070486, 6576.196143173712, -37761.10413802912, 14212.580229351548, 4185.2970940228815, -13270.074220904617, -34862.552268809355, -5596.206259275229, -36975.75324484745, -19770.14032246355, -18311.219610121207, 7674.09147907394, -0.13, 0.964, -0.128, 192.0, 125.5, 120.0, 15.0, 16.0, 126.0, 0.0, 0.0, 0.0, 0.0, 1.741808565168339E9, 0.0, 2025-03-12 14:42:45.168
54.0, 19466.961260671767, -27557.13046278125, -43087.88246964008, -28288.45718961444, -25360.02103805793, 6581.225285676156, -37754.08569027015, 14217.542316620627, 4184.559486455856, -13266.229720858302, -34856.51729780642, -5571.8205060744895, -36976.960239048036, -19762.518377604294, -18303.262389095114, 7677.0419093420405, -0.13, 0.964, -0.128, 192.0, 0.0, 0.0, 0.0, 0.0, 0.0, 0.0, 0.0, 0.0, 0.0, 1.741808565168369E9, 0.0, 2025-03-12 14:42:45.168
56.0, 19478.51711255516, -27564.7077041516, -43085.51318472781, -28289.306555903742, -25351.281505975905, 6568.417736103265, -37745.90495179951, 14220.269229444175, 4187.152288812672, -13258.451313787857, -34867.8272805008, -5594.932209841277, -36967.103119743246, -19757.332772890662, -18306.86101995242, 7680.953464621719, -0.13, 0.964, -0.128, 192.0, 0.0, 0.0, 0.0, 0.0, 0.0, 0.0, 0.0, 0.0, 0.0, 1.741808565168385E9, 0.0, 2025-03-12 14:42:45.168
58.0, 19467.676516494335, -27565.98175358555, -43085.624943450086, -28278.98004996539, -25358.277601990416, 6590.0095212470915, -37752.07403326917, 14217.855241043002, 4183.464250977547, -13257.490188776279, -34851.68932100407, -5561.650462347325, -36965.918477287116, -19751.186043165453, -18295.260464580115, 7680.461726243702, -0.13, 0.964, -0.128, 192.0, 0.0, 0.0, 0.0, 0.0, 0.0, 0.0, 0.0, 0.0, 0.0, 1.7418085651684E9, 0.0, 2025-03-12 14:42:45.168
60.0, 19481.355784100986, -27566.74171289703, -43091.27993479728, -28287.384305880583, -25365.139587538193, 6568.238922147623, -37761.551172918225, 14209.518040361172, 4187.755785912966, -13265.179188868904, -34865.346236866266, -5596.183907530774, -36969.36064593323, -19761.221976425884, -18312.158383388327, 7674.918493618786, -0.13, 0.964, -0.128, 192.0, 0.0, 0.0, 0.0, 0.0, 0.0, 0.0, 0.0, 0.0, 0.0, 1.741808565168415E9, 0.0, 2025-03-12 14:42:45.168
62.0, 19473.264452608164, -27561.42199771667, -43086.34019927266, -28282.89160524507, -25369.140549795695, 6594.345759671422, -37760.52299267328, 14207.372272893463, 4185.341797511792, -13267.392011569978, -34852.069300659816, -5575.195619487241, -36974.05451226884, -19760.551424092224, -18310.124374642895, 7660.635728911845, -0.128, 0.964, -0.128, 192.0, 126.0, 0.0, 15.0, 16.0, 126.0, 0.0, 0.0, 0.0, 0.0, 1.741808565168431E9, 0.0, 2025-03-12 14:42:45.168
64.0, 19478.96414744427, -27555.387026713735, -43080.97578060339, -28297.88962577458, -25365.519567193936, 6552.72681149564, -37759.13718451705, 14218.078758487554, 4202.932620398119, -13258.38425855449, -34862.976951954006, -5600.341331999461, -36966.253753453944, -19764.15005494953, -18318.506278813635, 7671.297511017026, -0.128, 0.964, -0.128, 192.0, 0.0, 0.0, 0.0, 0.0, 0.0, 0.0, 0.0, 0.0, 0.0, 1.741808565168447E9, 0.0, 2025-03-12 14:42:45.168
66.0, 19474.0467636641, -27558.27040174847, -43083.18860330446, -28268.0723986712, -25361.608011914257, 6590.7694805585725, -37753.929228058965, 14215.061272986088, 4204.407835532169, -13259.233624843791, -34844.84968720075, -5565.137334482352, -36961.82810805179, -19756.505758345815, -18304.6705489958, 7669.41996448278, -0.128, 0.964, -0.128, 192.0, 0.0, 0.0, 0.0, 0.0, 0.0, 0.0, 0.0, 0.0, 0.0, 1.741808565168467E9, 0.0, 2025-03-12 14:42:45.168
0.0, 8996.621846750004, -13820.664742072195, -21485.122619285896, -14210.747386306213, -12568.497665941439, 3242.679326853672, -18847.080331692738, 7049.427276781474, 2104.863775356266, -6622.844233851938, -17431.343189638043, -2793.386911557545, -18479.148266213928, -9876.38650851089, -9154.983956215854, 3838.5321305432476, -0.13, 0.962, -0.152, 192.0, 125.5, 120.0, 15.0, 8.0, 125.5, 32.0, 0.0, 0.0, 0.0, 1.741808565308867E9, 0.0, 2025-03-12 14:42:45.308
2.0, 18018.56821996787, -27667.592783879376, -42978.247163086795, -28377.595946502206, -25141.845660429677, 6534.264270575556, -37699.79330298821, 14100.240361719176, 4368.000253200562, -13539.971535202449, -34817.28998628735, -5510.017932655565, -36692.422532131975, -19597.40604131294, -18198.58916981091, 7586.427937320225, -0.13, 0.962, -0.152, 192.0, 0.0, 0.0, 0.0, 0.0, 0.0, 0.0, 0.0, 0.0, 0.0, 1.741808565308929E9, 0.0, 2025-03-12 14:42:45.308
4.0, 17948.182576678108, -27687.262319000045, -42984.61741025656, -28436.20222046402, -25145.332532564706, 6476.261493714034, -37700.77677974424, 14095.300626194552, 4342.988651155073, -13560.021049978859, -34841.631035999184, -5532.61554629988, -36715.08720100966, -19617.12027992252, -18214.16833569626, 7573.866256936343, -0.13, 0.962, -0.152, 192.0, 0.0, 0.0, 0.0, 0.0, 0.0, 0.0, 0.0, 0.0, 0.0, 1.741808565308972E9, 0.0, 2025-03-12 14:42:45.308
6.0, 17997.08819354632, -27723.20392408418, -42986.562012024166, -28376.32189706825, -25145.891326176086, 6526.619973971841, -37704.621279790554, 14099.79332683007, 4318.04410434295, -13567.330070415745, -34833.98673939547, -5529.218081142674, -36707.28644219475, -19606.54790479516, -18206.97107398165, 7581.7787744735215, -0.13, 0.962, -0.152, 192.0, 0.0, 0.0, 0.0, 0.0, 0.0, 0.0, 0.0, 0.0, 0.0, 1.741808565308987E9, 0.0, 2025-03-12 14:42:45.308
8.0, 17935.330323616305, -27720.544066493996, -42984.058616645176, -28430.882505283655, -25146.07014013173, 6485.604522896353, -37704.218948390364, 14098.854553562947, 4300.363874478802, -13577.030727509347, -34849.051815158346, -5543.724363294168, -36718.61877663359, -19615.488602577283, -18214.995350241108, 7570.960530157153, -0.13, 0.96, -0.166, 192.0, 125.5, 120.0, 15.0, 0.0, 125.0, 104.0, 0.0, 0.0, 0.0, 1.741808565311414E9, 0.0, 2025-03-12 14:42:45.311
10.0, 17992.193161510608, -27741.286485348523, -42990.94295393741, -28373.75144645589, -25153.379160568616, 6537.952308410681, -37718.16643693047, 14100.799155330558, 4299.313342489403, -13568.291195427322, -34841.74279472146, -5536.392991112828, -36710.75096258533, -19604.580951283093, -18206.144059436807, 7579.11891688334, -0.13, 0.96, -0.166, 192.0, 0.0, 0.0, 0.0, 0.0, 0.0, 0.0, 0.0, 0.0, 0.0, 1.741808565311444E9, 0.0, 2025-03-12 14:42:45.311
12.0, 17919.59469551977, -27723.852124673384, -42996.88851796252, -28432.447127395528, -25160.934050194508, 6501.384854481799, -37718.30054739721, 14090.427945903295, 4281.499002158524, -13581.612835122685, -34859.91476296363, -5543.970232483177, -36719.08816326716, -19616.06974793312, -18224.919524779263, 7567.093678366385, -0.13, 0.96, -0.166, 192.0, 0.0, 0.0, 0.0, 0.0, 0.0, 0.0, 0.0, 0.0, 0.0, 1.741808565311461E9, 0.0, 2025-03-12 14:42:45.311
14.0, 17969.327326932827, -27784.984145758648, -43004.823387244156, -28395.0526589218, -25158.654172260067, 6533.347849052889, -37720.96040498739, 14085.756431312137, 4285.9693510495845, -13585.658500869096, -34867.26848688942, -5559.2588256906065, -36723.4691051804, -19626.21743991583, -18224.003103256597, 7564.8138004319435, -0.13, 0.96, -0.166, 192.0, 0.0, 0.0, 0.0, 0.0, 0.0, 0.0, 0.0, 0.0, 0.0, 1.741808565311476E9, 0.0, 2025-03-12 14:42:45.311
16.0, 17894.225465562995, -27771.59545082992, -43007.058561689686, -28447.512203158403, -25158.385951326603, 6498.054444557959, -37718.211140419386, 14079.07325972, 4250.743001788021, -13602.154088277113, -34875.1810044266, -5564.042099004042, -36735.203771019434, -19637.929754010413, -18233.07791150545, 7547.088867078885, -0.13, 0.96, -0.166, 192.0, 0.0, 0.0, 0.0, 0.0, 0.0, 0.0, 0.0, 0.0, 0.0, 1.741808565369121E9, 0.0, 2025-03-12 14:42:45.369
18.0, 17952.340001146797, -27764.06291294848, -42987.679599246934, -28410.229493406954, -25142.426805785515, 6510.86199413085, -37705.11301816857, 14093.333672682485, 4262.2541501825035, -13597.706091130507, -34867.80492875635, -5578.682491622269, -36728.431192449476, -19632.364169641038, -18226.908830035787, 7556.0072131165525, -0.132, 0.962, -0.17, 192.0, 125.5, 112.0, 15.0, 8.0, 125.0, 88.0, 0.0, 0.0, 0.0, 1.74180856536917E9, 0.0, 2025-03-12 14:42:45.369
20.0, 17903.724956956503, -27769.96377348468, -42995.435654572924, -28435.218743707985, -25156.396646070083, 6502.681255660207, -37714.72426828436, 14081.844876032457, 4266.679795584654, -13604.165745278091, -34857.724292007006, -5555.123752966375, -36722.37386970209, -19630.307809151152, -18216.738786308622, 7558.108277095352, -0.132, 0.962, -0.17, 192.0, 0.0, 0.0, 0.0, 0.0, 0.0, 0.0, 0.0, 0.0, 0.0, 1.741808565369187E9, 0.0, 2025-03-12 14:42:45.369
22.0, 17945.254498154463, -27755.077511677446, -42982.94102942241, -28410.52006608487, -25145.153718609065, 6504.201174283168, -37710.27627113775, 14090.316187181019, 4271.03838575344, -13598.26488474189, -34865.43564384409, -5578.615436388903, -36724.98902380336, -19640.92488776742, -18225.9030015353, 7556.029564861008, -0.132, 0.962, -0.17, 192.0, 0.0, 0.0, 0.0, 0.0, 0.0, 0.0, 0.0, 0.0, 0.0, 1.741808565369202E9, 0.0, 2025-03-12 14:42:45.369
24.0, 17911.50336402695, -27729.10478462038, -42982.426939299934, -28415.415098120582, -25145.26547733134, 6500.289619003489, -37706.27530888025, 14091.79140231507, 4286.975179550073, -13581.724593844963, -34842.3239400773, -5537.756447524602, -36708.49343639534, -19623.624637559013, -18211.776699039543, 7563.718564953633, -0.132, 0.962, -0.17, 192.0, 0.0, 0.0, 0.0, 0.0, 0.0, 0.0, 0.0, 0.0, 0.0, 1.741808565369223E9, 0.0, 2025-03-12 14:42:45.369
26.0, 17940.9853149635, -27734.737424223116, -42986.98669516882, -28399.00891769039, -25144.371407553128, 6501.340150992889, -37704.46481757937, 14096.887600050879, 4304.1636710362045, -13572.269805940368, -34848.917704691616, -5551.547473853526, -36716.36125044361, -19618.68490203439, -18219.488050876625, 7565.618463232335, -0.132, 0.962, -0.17, 192.0, 0.0, 0.0, 0.0, 0.0, 0.0, 0.0, 0.0, 0.0, 0.0, 1.741808565369239E9, 0.0, 2025-03-12 14:42:45.369
28.0, 17911.68217798259, -27712.989176868105, -42989.713607992366, -28408.57546431726, -25146.673637232023, 6511.845470886883, -37700.933241955434, 14100.039196019077, 4300.855612856819, -13569.744058816917, -34852.4269285711, -5532.481435833149, -36720.250453978835, -19622.64116080298, -18223.28784743403, 7555.873102649821, -0.134, 0.96, -0.178, 192.0, 125.5, 104.0, 15.0, 0.0, 125.0, 56.0, 0.0, 0.0, 0.0, 1.741808565369254E9, 0.0, 2025-03-12 14:42:45.369
30.0, 17948.27198365593, -27701.94741510718, -42982.38223581103, -28398.986565945932, -25141.286866818296, 6489.359615964844, -37698.005163431786, 14108.1305275119, 4335.14318885126, -13559.864587767672, -34848.11304189122, -5543.344383638428, -36717.56824464419, -19606.9278844509, -18226.037112002028, 7583.11987914084, -0.134, 0.96, -0.178, 192.0, 0.0, 0.0, 0.0, 0.0, 0.0, 0.0, 0.0, 0.0, 0.0, 1.741808565429496E9, 0.0, 2025-03-12 14:42:45.429
32.0, 17932.15637590365, -27699.019336583537, -42990.495919048306, -28391.498731553405, -25154.764968724845, 6525.167110582246, -37711.86324499408, 14101.55911464204, 4338.160674352726, -13558.188206933524, -34835.12667836269, -5514.465929802172, -36712.87437830858, -19605.92205595041, -18222.438481144723, 7574.134477869807, -0.134, 0.96, -0.178, 192.0, 0.0, 0.0, 0.0, 0.0, 0.0, 0.0, 0.0, 0.0, 0.0, 1.741808565429521E9, 0.0, 2025-03-12 14:42:45.429
34.0, 17940.06889344083, -27687.75405737806, -42979.7447299653, -28405.1556474156, -25146.27130583183, 6496.892153846283, -37707.571710058655, 14103.906047809845, 4352.331680337391, -13551.370924874655, -34842.61451275522, -5539.991621970132, -36714.52840739828, -19616.337968866585, -18230.37335042636, 7574.469754036636, -0.134, 0.96, -0.178, 192.0, 0.0, 0.0, 0.0, 0.0, 0.0, 0.0, 0.0, 0.0, 0.0, 1.741808565429538E9, 0.0, 2025-03-12 14:42:45.429
36.0, 17948.60725982276, -27659.255583197544, -42971.20636358337, -28380.90400468159, -25139.342265050684, 6522.864880903349, -37700.97794544434, 14106.0294635331, 4358.4784100626, -13544.508939326875, -34820.28512004437, -5500.809013939978, -36698.77042755728, -19604.648006516458, -18216.22469618615, 7572.435745291204, -0.134, 0.96, -0.178, 192.0, 0.0, 0.0, 0.0, 0.0, 0.0, 0.0, 0.0, 0.0, 0.0, 1.741808565429553E9, 0.0, 2025-03-12 14:42:45.429
38.0, 17948.115521444743, -27666.13992048978, -42968.27828505973, -28398.472475823462, -25135.676578960014, 6483.503458917554, -37696.529948297735, 14105.157745499344, 4377.38798587179, -13532.10372115418, -34824.80017242434, -5522.087874661431, -36707.375849172575, -19617.41085260044, -18218.862202031876, 7577.464887793647, -0.132, 0.96, -0.176, 192.0, 125.5, 112.0, 15.0, 0.0, 125.0, 64.0, 0.0, 0.0, 0.0, 1.741808565429568E9, 0.0, 2025-03-12 14:42:45.429
40.0, 17966.98039376502, -27656.506318629545, -42965.70783444737, -28368.208213830974, -25136.391834782582, 6528.653982717274, -37700.91089021097, 14109.024597290112, 4374.43755560369, -13536.462311322966, -34812.059678084814, -5494.192897581208, -36698.74807581283, -19600.557637281137, -18214.861239774375, 7570.9158266682425, -0.132, 0.96, -0.176, 192.0, 0.0, 0.0, 0.0, 0.0, 0.0, 0.0, 0.0, 0.0, 0.0, 1.741808565429605E9, 0.0, 2025-03-12 14:42:45.429
42.0, 17939.9347829741, -27653.622943594808, -42968.45709901537, -28402.696955525513, -25138.291733061284, 6496.0874910458915, -37691.88078545103, 14106.744719355669, 4388.765023799542, -13526.940468185005, -34824.17432357959, -5520.299735105006, -36703.57605261517, -19606.056166417144, -18218.41516714277, 7585.399757075282, -0.132, 0.96, -0.176, 192.0, 0.0, 0.0, 0.0, 0.0, 0.0, 0.0, 0.0, 0.0, 0.0, 1.741808565429621E9, 0.0, 2025-03-12 14:42:45.429
44.0, 17967.539187376402, -27652.214783694126, -42966.6913112034, -28368.923469653546, -25138.336436550195, 6545.551901525486, -37698.22868087634, 14100.910914052834, 4375.242218404081, -13542.720799770452, -34816.66413744261, -5500.227868584141, -36709.767485829296, -19612.895800220467, -18212.827231028943, 7574.469754036636, -0.132, 0.96, -0.176, 192.0, 0.0, 0.0, 0.0, 0.0, 0.0, 0.0, 0.0, 0.0, 0.0, 1.741808565429636E9, 0.0, 2025-03-12 14:42:45.429
46.0, 17925.517907800426, -27648.1244144588, -42967.183049581414, -28414.945711487024, -25139.521079006325, 6489.829002598406, -37699.92741345494, 14094.563018627528, 4391.983675001106, -13537.91517471256, -34822.140314834156, -5518.176319381752, -36703.665459592994, -19621.948256724867, -18216.381158397337, 7577.084908137907, -0.132, 0.96, -0.176, 192.0, 0.0, 0.0, 0.0, 0.0, 0.0, 0.0, 0.0, 0.0, 0.0, 1.741808565489329E9, 0.0, 2025-03-12 14:42:45.489
48.0, 17971.02605951143, -27640.815394021916, -42965.88664840301, -28365.10132135169, -25133.68727370349, 6529.77156994004, -37702.207291389386, 14097.893428551368, 4395.358788413857, -13532.036665920814, -34809.28806177236, -5494.37171153685, -36697.98811650135, -19607.509029806737, -18212.111975206375, 7574.8497336923765, -0.134, 0.96, -0.168, 192.0, 125.5, 104.0, 15.0, 0.0, 125.0, 96.0, 0.0, 0.0, 0.0, 1.741808565489354E9, 0.0, 2025-03-12 14:42:45.489
50.0, 17930.36823634723, -27615.80379197643, -42955.962473864856, -28410.76593527388, -25126.06532884423, 6465.599711608853, -37693.1995383739, 14102.229666975698, 4407.495785653089, -13525.666418751052, -34818.34051827675, -5509.772063466557, -36698.88218627956, -19610.88414321949, -18222.125556722352, 7575.475582537125, -0.134, 0.96, -0.168, 192.0, 0.0, 0.0, 0.0, 0.0, 0.0, 0.0, 0.0, 0.0, 0.0, 1.741808565489371E9, 0.0, 2025-03-12 14:42:45.489
52.0, 17996.261179001474, -27623.962178702615, -42948.29582551668, -28350.773853155835, -25121.79614565327, 6514.237107543601, -37690.65143950599, 14112.64557989187, 4414.849509578885, -13511.450709277477, -34798.961555834, -5484.447536998694, -36682.31954363818, -19592.555712766138, -18205.875838503343, 7585.891495453298, -0.134, 0.96, -0.168, 192.0, 0.0, 0.0, 0.0, 0.0, 0.0, 0.0, 0.0, 0.0, 0.0, 1.741808565489406E9, 0.0, 2025-03-12 14:42:45.489
54.0, 17940.515928329936, -27619.067146666905, -42959.516401233246, -28405.267406137875, -25139.364616795137, 6477.401432681255, -37701.11205591107, 14095.79236457257, 4420.2139282481585, -13518.62561924763, -34810.71857341749, -5495.578705737437, -36696.043514733734, -19604.200971627353, -18216.671731075257, 7579.11891688334, -0.134, 0.96, -0.168, 192.0, 0.0, 0.0, 0.0, 0.0, 0.0, 0.0, 0.0, 0.0, 0.0, 1.741808565489422E9, 0.0, 2025-03-12 14:42:45.489
56.0, 18014.61196119928, -27612.585140774863, -42950.2404272843, -28344.582419941715, -25131.563857980236, 6525.368276282344, -37702.475512322846, 14098.340463440474, 4417.889346824807, -13508.701444709473, -34797.77691337787, -5488.135574833819, -36688.3098111522, -19595.9755296678, -18215.934123508232, 7584.103355896874, -0.134, 0.96, -0.168, 192.0, 0.0, 0.0, 0.0, 0.0, 0.0, 0.0, 0.0, 0.0, 0.0, 1.741808565489437E9, 0.0, 2025-03-12 14:42:45.489
58.0, 17975.36229793576, -27587.908814896207, -42947.625273183025, -28389.62118501916, -25133.150831836563, 6472.037014011981, -37704.88950072402, 14090.137373225376, 4433.312050498968, -13507.092119108693, -34795.34057323224, -5484.380481765328, -36686.186395428944, -19594.88029418949, -18217.409338642283, 7590.317140855449, -0.13, 0.9580000000000001, -0.178, 192.0, 125.5, 120.0, 14.5, 120.0, 125.0, 56.0, 0.0, 0.0, 0.0, 1.741808565489453E9, 0.0, 2025-03-12 14:42:45.489
60.0, 18056.34266809734, -27591.239224820045, -42944.67484291492, -28335.12763203712, -25135.11778534863, 6509.006799341059, -37708.28696588123, 14096.418213417319, 4443.236225037125, -13493.85988639115, -34781.95187830352, -5473.316368259951, -36673.8035290007, -19589.649985986947, -18208.289826904514, 7590.6971205111895, -0.13, 0.9580000000000001, -0.178, 192.0, 0.0, 0.0, 0.0, 0.0, 0.0, 0.0, 0.0, 0.0, 0.0, 1.74180856548947E9, 0.0, 2025-03-12 14:42:45.489
62.0, 17996.596455168303, -27595.396649288734, -42965.81959316965, -28389.174150130053, -25152.149814623575, 6482.922313561716, -37717.45118110791, 14083.588312099972, 4436.485998211622, -13505.281627807812, -34794.89353834314, -5474.7915833940015, -36688.77919778576, -19599.41769831392, -18209.586228082924, 7579.677710494722, -0.13, 0.9580000000000001, -0.178, 192.0, 0.0, 0.0, 0.0, 0.0, 0.0, 0.0, 0.0, 0.0, 0.0, 1.741808565550062E9, 0.0, 2025-03-12 14:42:45.550
64.0, 18071.452447349126, -27586.567710228886, -42943.06551731414, -28349.9915420999, -25123.852506143154, 6501.965999837637, -37694.22771861884, 14106.543553655572, 4447.460704739178, -13498.464345748944, -34791.29490748583, -5480.021891596543, -36685.04645646172, -19595.170866867407, -18199.930274478233, 7588.8195739769435, -0.13, 0.9580000000000001, -0.178, 192.0, 0.0, 0.0, 0.0, 0.0, 0.0, 0.0, 0.0, 0.0, 0.0, 1.741808565550111E9, 0.0, 2025-03-12 14:42:45.550
66.0, 18020.356359524296, -27585.69599219513, -42958.041186099195, -28399.85828397969, -25129.708663190446, 6482.207057739146, -37697.75929424278, 14102.207315231242, 4443.616204692866, -13502.733528939907, -34793.753599375916, -5469.069536813443, -36681.82780526016, -19588.666509230916, -18193.157695908274, 7591.702949011678, -0.13, 0.9580000000000001, -0.178, 192.0, 0.0, 0.0, 0.0, 0.0, 0.0, 0.0, 0.0, 0.0, 0.0, 1.741808565550127E9, 0.0, 2025-03-12 14:42:45.550
68.0, 18073.307642138916, -27599.866998179794, -42965.14904083598, -28370.108112109676, -25128.568724223223, 6509.923220863727, -37697.53577679823, 14105.56007689954, 4439.391724990813, -13503.448784762477, -34802.20255878002, -5486.727414933135, -36678.229174402855, -19591.527532521195, -18194.945835464696, 7596.8662019808535, -0.126, 0.9580000000000001, -0.166, 192.0, 126.0, 8.0, 14.5, 120.0, 125.0, 104.0, 0.0, 0.0, 0.0, 1.741808565550167E9, 0.0, 2025-03-12 14:42:45.550
70.0, 18016.22128680006, -27600.381088302267, -42978.515384020255, -28406.943786972024, -25142.896192419077, 6500.647246914774, -37708.24226239232, 14096.686434350782, 4428.238204507614, -13512.657703478064, -34812.99845135194, -5482.771156164546, -36693.182491443455, -19596.98135816829, -18202.299559390493, 7587.634931520812, -0.126, 0.9580000000000001, -0.166, 192.0, 0.0, 0.0, 0.0, 0.0, 0.0, 0.0, 0.0, 0.0, 0.0, 1.741808565550188E9, 0.0, 2025-03-12 14:42:45.550
72.0, 18055.940336697142, -27599.64348073524, -42970.6922734609, -28383.18388261603, -25133.01672136983, 6502.033055071003, -37701.290869866716, 14098.854553562947, 4428.461721952167, -13517.038645391303, -34821.22389331149, -5502.843022685412, -36694.6130030886, -19603.08338440459, -18207.865143759864, 7589.199553632683, -0.126, 0.9580000000000001, -0.166, 192.0, 0.0, 0.0, 0.0, 0.0, 0.0, 0.0, 0.0, 0.0, 0.0, 1.741808565550203E9, 0.0, 2025-03-12 14:42:45.550
74.0, 18015.126051321753, -27596.156608600213, -42972.659226972966, -28397.936033956536, -25132.815555669735, 6503.351807993867, -37696.46289306437, 14104.800117588058, 4428.171149274248, -13518.424453547534, -34813.08785832976, -5482.9499701201885, -36685.80641577321, -19598.36716632452, -18199.058556444474, 7589.780698988521, -0.126, 0.9580000000000001, -0.166, 192.0, 0.0, 0.0, 0.0, 0.0, 0.0, 0.0, 0.0, 0.0, 0.0, 1.741808565550223E9, 0.0, 2025-03-12 14:42:45.550
76.0, 18045.747941225523, -27596.55894000041, -42963.65147395748, -28387.52012104036, -25125.797107910766, 6497.450947457665, -37691.45610230638, 14110.36570195743, 4433.982602832628, -13516.524555268832, -34820.55334097783, -5506.419301798261, -36686.968706484884, -19604.893875705468, -18204.51238209157, 7595.346283357893, -0.125, 0.9590000000000001, -0.166, 192.0, 126.0, 16.0, 15.0, 0.0, 125.0, 104.0, 0.0, 0.0, 0.0, 1.741808565609734E9, 0.0, 2025-03-12 14:42:45.609
78.0, 18024.960818882086, -27600.381088302267, -42974.02268338474, -28386.022554161857, -25134.9836748819, 6511.9348778647045, -37694.920622696955, 14109.873963579414, 4435.144893544304, -13512.590648244697, -34804.862416370204, -5476.155039805775, -36686.74518904033, -19589.717041220312, -18191.682480774223, 7604.041111951007, -0.125, 0.9590000000000001, -0.166, 192.0, 0.0, 0.0, 0.0, 0.0, 0.0, 0.0, 0.0, 0.0, 0.0, 1.741808565609762E9, 0.0, 2025-03-12 14:42:45.609
80.0, 18044.63035400276, -27595.575463244375, -42969.66409321596, -28391.543435042317, -25133.419052770027, 6490.879534587805, -37697.11109365358, 14104.666007121326, 4437.06714356746, -13513.19414534499, -34820.75450667793, -5505.972266909154, -36694.97063099988, -19604.93857919438, -18203.148925679794, 7595.16746940225, -0.125, 0.9590000000000001, -0.166, 192.0, 0.0, 0.0, 0.0, 0.0, 0.0, 0.0, 0.0, 0.0, 0.0, 1.741808565609778E9, 0.0, 2025-03-12 14:42:45.609
82.0, 18035.9578771541, -27596.290719066947, -42975.14027060751, -28382.08864713772, -25142.49386101888, 6523.803654170472, -37706.99056470282, 14097.580504128993, 4434.988431333117, -13518.491508780899, -34804.12480880318, -5471.617635681348, -36690.947316997925, -19595.72966047879, -18189.290844117506, 7584.863315208354, -0.125, 0.9590000000000001, -0.166, 192.0, 0.0, 0.0, 0.0, 0.0, 0.0, 0.0, 0.0, 0.0, 0.0, 1.741808565609793E9, 0.0, 2025-03-12 14:42:45.609
84.0, 18042.99867665752, -27580.08570433685, -42956.90124713197, -28398.785400245837, -25128.076985845208, 6479.61425538233, -37695.39000933051, 14106.990588544679, 4445.538454716022, -13511.026026132826, -34814.60777695272, -5500.2055168396855, -36693.5624710992, -19606.704367006347, -18204.55708558048, 7585.109184397363, -0.125, 0.9590000000000001, -0.166, 192.0, 0.0, 0.0, 0.0, 0.0, 0.0, 0.0, 0.0, 0.0, 0.0, 1.741808565609832E9, 0.0, 2025-03-12 14:42:45.609
86.0, 18051.00060117252, -27587.864111407296, -42964.612598969055, -28370.8457196767, -25137.442366771982, 6518.171014567735, -37705.761218757776, 14099.972140785712, 4452.623957708354, -13506.242752819391, -34787.98684930645, -5460.039432053499, -36671.99303769982, -19589.78409645368, -18186.89920746079, 7589.020739677041, -0.1255, 0.9585000000000001, -0.167, 192.0, 126.0, 8.0, 14.5, 120.0, 125.0, 96.0, 0.0, 0.0, 0.0, 1.741808565609847E9, 0.0, 2025-03-12 14:42:45.609
88.0, 18046.843176703835, -27580.845663648328, -42958.242351799294, -28397.220778133964, -25129.932180634998, 6481.223580983113, -37695.79234073071, 14105.135393754888, 4454.009765864583, -13504.365206285145, -34804.05775356982, -5490.974246379644, -36692.93662225445, -19599.998843669753, -18195.12464942034, 7595.659207780267, -0.1255, 0.9585000000000001, -0.167, 192.0, 0.0, 0.0, 0.0, 0.0, 0.0, 0.0, 0.0, 0.0, 0.0, 1.741808565609863E9, 0.0, 2025-03-12 14:42:45.609
90.0, 18056.365019841793, -27587.618242218286, -42966.4901455033, -28362.575574228238, -25138.7834714393, 6530.91150890726, -37702.16258790047, 14102.40848093134, 4445.3372890159235, -13511.607171488664, -34792.50190168642, -5462.028737310021, -36687.70631405191, -19586.096058618554, -18182.942948692198, 7595.390986846804, -0.1255, 0.9585000000000001, -0.167, 192.0, 0.0, 0.0, 0.0, 0.0, 0.0, 0.0, 0.0, 0.0, 0.0, 1.741808565609883E9, 0.0, 2025-03-12 14:42:45.609
92.0, 18029.587629984337, -27578.051695591414, -42960.16460182245, -28409.894217240122, -25132.12265159162, 6472.171124478713, -37697.60283203159, 14105.425966432807, 4451.282853041035, -13506.890953408594, -34809.466875728, -5493.61175222537, -36694.8141687887, -19596.087288390077, -18191.324852862937, 7594.273399624039, -0.1255, 0.9585000000000001, -0.167, 192.0, 0.0, 0.0, 0.0, 0.0, 0.0, 0.0, 0.0, 0.0, 0.0, 1.741808565670109E9, 0.0, 2025-03-12 14:42:45.670
94.0, 18063.316412367396, -27582.633803204753, -42966.4901455033, -28371.337458054717, -25129.283980045795, 6512.71718892064, -37696.239375619814, 14103.995454787668, 4452.646309452809, -13505.192220829991, -34790.93727957455, -5467.840190868401, -36682.05132270471, -19585.20198884034, -18179.50078004608, 7589.870105966343, -0.1255, 0.9585000000000001, -0.167, 192.0, 0.0, 0.0, 0.0, 0.0, 0.0, 0.0, 0.0, 0.0, 0.0, 1.741808565670133E9, 0.0, 2025-03-12 14:42:45.670
96.0, 18006.252408772994, -27586.612413717798, -42979.63297124302, -28423.260560424398, -25137.799994683268, 6471.23235121159, -37703.101361167595, 14092.752527326647, 4440.397553491301, -13519.63144774812, -34822.18501832307, -5502.440691285216, -36708.7616573288, -19605.027986172197, -18203.32773963544, 7573.9109604252535, -0.12575, 0.9572500000000002, -0.1665, 192.0, 126.0, 8.0, 14.5, 112.0, 125.0, 104.0, 0.0, 0.0, 0.0, 1.741808565670168E9, 0.0, 2025-03-12 14:42:45.670
98.0, 18049.078351149365, -27597.274195822978, -42979.007122398274, -28379.317030825263, -25138.02351212782, 6524.250689059579, -37705.336535613125, 14090.65146334785, 4431.680373153731, -13526.113453640159, -34814.76423916391, -5484.112260831865, -36697.3622676566, -19602.25636985974, -18201.159620423274, 7570.178219101217, -0.12575, 0.9572500000000002, -0.1665, 192.0, 0.0, 0.0, 0.0, 0.0, 0.0, 0.0, 0.0, 0.0, 0.0, 1.741808565670184E9, 0.0, 2025-03-12 14:42:45.670
100.0, 17996.75291737949, -27589.18286433016, -42968.680616459926, -28431.24013319494, -25133.329645792204, 6463.94568251916, -37695.211195374875, 14098.832201818492, 4436.329536000435, -13524.794700717295, -34819.59221596625, -5500.987827895621, -36710.818017818696, -19608.671320518413, -18208.69215830471, 7576.816687204443, -0.12575, 0.9572500000000002, -0.1665, 192.0, 0.0, 0.0, 0.0, 0.0, 0.0, 0.0, 0.0, 0.0, 0.0, 1.7418085656702E9, 0.0, 2025-03-12 14:42:45.670
102.0, 18051.42528431717, -27595.441352777645, -42969.52998274923, -28375.360772056672, -25129.26162830134, 6517.656924445263, -37694.853567463586, 14106.543553655572, 4443.549149459499, -13516.368093057645, -34801.77787563537, -5478.971359607143, -36696.87052927858, -19591.996919154753, -18189.201437139684, 7587.053786164974, -0.12575, 0.9572500000000002, -0.1665, 192.0, 0.0, 0.0, 0.0, 0.0, 0.0, 0.0, 0.0, 0.0, 0.0, 1.741808565670215E9, 0.0, 2025-03-12 14:42:45.670
104.0, 18007.03471982893, -27582.767913671487, -42962.06450010115, -28420.62305457867, -25121.237352041884, 6467.007871509537, -37682.56010801317, 14111.013902546634, 4447.147780316804, -13514.423491290032, -34810.60681469522, -5493.678807458736, -36698.59161360164, -19596.51197153473, -18194.07411743094, 7588.372539087837, -0.12575, 0.9572500000000002, -0.1665, 192.0, 0.0, 0.0, 0.0, 0.0, 0.0, 0.0, 0.0, 0.0, 0.0, 1.74180856567023E9, 0.0, 2025-03-12 14:42:45.670
106.0, 18054.57688028537, -27609.545303528943, -42966.17722108093, -28365.32483879624, -25123.271360787316, 6520.0932645908915, -37692.327820340135, 14110.924495568812, 4440.621070935854, -13513.48471802291, -34803.23073902497, -5479.8430776409, -36690.612040831096, -19588.912378419922, -18185.871027215842, 7591.322969355938, -0.12687500000000002, 0.9556250000000002, -0.16925, 192.0, 126.0, 0.0, 14.5, 104.0, 125.0, 80.0, 0.0, 0.0, 0.0, 1.741808565730419E9, 0.0, 2025-03-12 14:42:45.730
108.0, 17987.87927483073, -27593.876730665772, -42966.80306992568, -28429.027310493864, -25122.287884031284, 6464.571531363908, -37688.70683773838, 14107.683492622793, 4430.942765586707, -13532.640163021108, -34819.88278864417, -5494.975208637144, -36704.246604948836, -19602.21166637083, -18196.89043723231, 7576.682576737711, -0.12687500000000002, 0.9556250000000002, -0.16925, 192.0, 0.0, 0.0, 0.0, 0.0, 0.0, 0.0, 0.0, 0.0, 0.0, 1.741808565730447E9, 0.0, 2025-03-12 14:42:45.730
110.0, 18041.52346152347, -27602.303338325422, -42970.11112810506, -28373.974963900444, -25126.02062535532, 6515.824081399927, -37695.72528549734, 14113.472594436716, 4433.513216199067, -13521.240773348902, -34812.37260250719, -5489.275513801041, -36700.62562234708, -19594.522666278204, -18189.26849237305, 7584.639797763801, -0.12687500000000002, 0.9556250000000002, -0.16925, 192.0, 0.0, 0.0, 0.0, 0.0, 0.0, 0.0, 0.0, 0.0, 0.0, 1.741808565730463E9, 0.0, 2025-03-12 14:42:45.730
112.0, 17985.711155618566, -27591.529797497966, -42968.90413390448, -28418.253769666408, -25130.535677735294, 6488.443194442177, -37694.11595989656, 14112.042082791577, 4431.1886347757145, -13524.280610594824, -34816.060640342315, -5488.0014643670875, -36706.63824160555, -19594.276797089195, -18201.584303567925, 7583.924541941231, -0.12687500000000002, 0.9556250000000002, -0.16925, 192.0, 0.0, 0.0, 0.0, 0.0, 0.0, 0.0, 0.0, 0.0, 0.0, 1.7418085657305E9, 0.0, 2025-03-12 14:42:45.730
114.0, 18042.79751095742, -27592.759143443007, -42964.344378035596, -28375.740751712412, -25120.030357841297, 6521.635534958307, -37687.5445470267, 14118.926420083812, 4435.703687155687, -13522.268953593846, -34811.433829240064, -5491.3989295242945, -36705.07361949368, -19595.193218611865, -18198.23154189963, 7586.092661153396, -0.12687500000000002, 0.9556250000000002, -0.16925, 192.0, 0.0, 0.0, 0.0, 0.0, 0.0, 0.0, 0.0, 0.0, 0.0, 1.741808565730516E9, 0.0, 2025-03-12 14:42:45.730
116.0, 17982.336042205818, -27590.255748064013, -42972.41335778396, -28417.33734814374, -25130.803898668757, 6493.449985200165, -37698.340439598614, 14106.968236800223, 4440.844588380407, -13519.25146809238, -34807.07523907128, -5479.105470073876, -36697.47402637888, -19594.813238956125, -18197.98567271062, 7586.182068131217, -0.1254375, 0.9568125000000001, -0.17062500000000003, 192.0, 126.0, 16.0, 14.5, 120.0, 125.0, 80.0, 0.0, 0.0, 0.0, 1.741808565730535E9, 0.0, 2025-03-12 14:42:45.730
118.0, 18029.81114742889, -27592.110942853804, -42972.05572987267, -28382.96036517148, -25129.842773657176, 6508.023322585025, -37701.26851812226, 14109.27046647912, 4442.945652359206, -13518.446805291987, -34810.94209086205, -5492.784737680524, -36701.38558165856, -19596.86959944601, -18207.395757126305, 7585.220943119639, -0.1254375, 0.9568125000000001, -0.17062500000000003, 192.0, 0.0, 0.0, 0.0, 0.0, 0.0, 0.0, 0.0, 0.0, 0.0, 1.741808565730556E9, 0.0, 2025-03-12 14:42:45.730
120.0, 17976.12225724724, -27603.51033252601, -42989.46773880336, -28424.06522322479, -25145.77956745381, 6503.485918460598, -37712.93612872793, 14086.337576667975, 4434.094361554904, -13530.606154275674, -34820.866265400204, -5482.36882476435, -36721.18922724596, -19608.917189707423, -18220.18095495474, 7561.215169574639, -0.1254375, 0.9568125000000001, -0.17062500000000003, 192.0, 0.0, 0.0, 0.0, 0.0, 0.0, 0.0, 0.0, 0.0, 0.0, 1.741808565730571E9, 0.0, 2025-03-12 14:42:45.730
122.0, 18022.926810136654, -27607.22072210559, -42971.966322894856, -28401.221740391466, -25130.289808546284, 6492.645322399774, -37702.117884411564, 14097.915780295823, 4435.994259833606, -13530.650857764585, -34819.480457243975, -5505.055845386487, -36714.03666902026, -19610.615922286026, -18219.5998095989, 7572.011062146553, -0.1254375, 0.9568125000000001, -0.17062500000000003, 192.0, 0.0, 0.0, 0.0, 0.0, 0.0, 0.0, 0.0, 0.0, 0.0, 1.741808565790735E9, 0.0, 2025-03-12 14:42:45.790
124.0, 17982.827780583833, -27606.08078313837, -42984.28213408973, -28416.53268534335, -25146.561878509747, 6495.7969183679725, -37711.639727549526, 14088.371585413408, 4425.466588195156, -13535.992924689404, -34811.81380889581, -5486.481545744127, -36712.85202656413, -19608.87248621851, -18218.571629353955, 7561.63985271929, -0.1254375, 0.9568125000000001, -0.17062500000000003, 192.0, 0.0, 0.0, 0.0, 0.0, 0.0, 0.0, 0.0, 0.0, 0.0, 1.741808565790787E9, 0.0, 2025-03-12 14:42:45.790
126.0, 18023.552658981404, -27607.6677569947, -42973.21802058435, -28401.087629924732, -25138.314084805737, 6479.927179804705, -37704.643631535015, 14099.41334717433, 4428.3723149743455, -13533.936564199515, -34818.34051827675, -5507.291019832018, -36711.33210794117, -19613.186372898384, -18225.5006701351, 7567.272492322028, -0.12671875, 0.95840625, -0.17131250000000003, 192.0, 126.0, 0.0, 15.0, 0.0, 125.0, 80.0, 0.0, 0.0, 0.0, 1.741808565790803E9, 0.0, 2025-03-12 14:42:45.790
128.0, 17996.50704819048, -27614.641501264752, -42981.644628244, -28401.62407179166, -25145.17607035352, 6492.466508444132, -37705.98473620233, 14098.78749832958, 4420.593907903899, -13533.757750243873, -34807.18699779356, -5477.362034006362, -36705.47595089387, -19603.26219836023, -18211.75434729509, 7568.993576645086, -0.12671875, 0.95840625, -0.17131250000000003, 192.0, 0.0, 0.0, 0.0, 0.0, 0.0, 0.0, 0.0, 0.0, 0.0, 1.741808565790842E9, 0.0, 2025-03-12 14:42:45.790
130.0, 18002.832591871334, -27621.65994902372, -42977.196631097395, -28401.66877528057, -25138.15762259455, 6472.3275866899, -37699.815654732665, 14106.767071100125, 4424.058428294472, -13535.992924689404, -34820.0168991109, -5506.799281454001, -36712.919081797496, -19603.843343716067, -18220.516231121568, 7575.408527303759, -0.12671875, 0.95840625, -0.17131250000000003, 192.0, 0.0, 0.0, 0.0, 0.0, 0.0, 0.0, 0.0, 0.0, 0.0, 1.741808565790857E9, 0.0, 2025-03-12 14:42:45.790
132.0, 17999.502181947493, -27608.65123375073, -42973.68740721791, -28393.890368210123, -25141.912715663042, 6497.518002691031, -37697.155797142485, 14105.98476004419, 4418.4481404361895, -13536.305849111779, -34806.13646580416, -5480.871257885845, -36709.27574745128, -19599.21653261382, -18205.875838503343, 7571.11699236834, -0.12671875, 0.95840625, -0.17131250000000003, 192.0, 0.0, 0.0, 0.0, 0.0, 0.0, 0.0, 0.0, 0.0, 0.0, 1.741808565790872E9, 0.0, 2025-03-12 14:42:45.790
134.0, 17999.43512671413, -27609.567655273397, -42976.280209574725, -28407.502580583405, -25146.383064554106, 6474.652168113252, -37703.68250652344, 14104.576600143506, 4431.322745242446, -13530.986133931416, -34810.65151818413, -5503.267705830062, -36715.02014577629, -19605.07268966111, -18214.905943263286, 7576.839038948899, -0.12671875, 0.95840625, -0.17131250000000003, 192.0, 0.0, 0.0, 0.0, 0.0, 0.0, 0.0, 0.0, 0.0, 0.0, 1.741808565790892E9, 0.0, 2025-03-12 14:42:45.790
136.0, 17990.18150450963, -27609.299434339933, -42977.73307296432, -28399.366545601675, -25146.137195365096, 6510.14673830828, -37706.677640280446, 14098.36281518493, 4416.078855523927, -13545.403009105088, -34808.79632339434, -5483.665225942758, -36713.88020680907, -19605.206800127842, -18216.4482136307, 7560.54461724098, -0.129359375, 0.958203125, -0.17265625, 192.0, 125.5, 112.0, 14.5, 120.0, 125.0, 72.0, 0.0, 0.0, 0.0, 1.741808565850707E9, 0.0, 2025-03-12 14:42:45.850
138.0, 17986.828742841335, -27599.866998179794, -42966.579552481126, -28418.8572667667, -25131.49680274687, 6463.476295885599, -37691.97019242885, 14110.052777535055, 4441.381030247335, -13532.908383954571, -34810.07037282829, -5507.447482043205, -36702.413761903495, -19601.004672170242, -18212.782527540032, 7570.289977823494, -0.129359375, 0.958203125, -0.17265625, 192.0, 0.0, 0.0, 0.0, 0.0, 0.0, 0.0, 0.0, 0.0, 0.0, 1.741808565850759E9, 0.0, 2025-03-12 14:42:45.850
140.0, 18007.504106462493, -27607.198370361137, -42972.01102638376, -28380.456969792485, -25134.06725335923, 6510.750235408573, -37697.69223900941, 14106.878829822403, 4439.190559290714, -13533.690695010508, -34796.32404998828, -5474.1433828047975, -36690.27676466427, -19593.360375566528, -18197.158658165772, 7563.942082398186, -0.129359375, 0.958203125, -0.17265625, 192.0, 0.0, 0.0, 0.0, 0.0, 0.0, 0.0, 0.0, 0.0, 0.0, 1.741808565850794E9, 0.0, 2025-03-12 14:42:45.850
142.0, 17968.679126343624, -27616.004957676527, -42981.48816603282, -28418.030252221855, -25138.984637139398, 6463.856275541339, -37702.609622789576, 14100.21800997472, 4430.674544653242, -13539.926831713537, -34823.28025380138, -5512.096644889909, -36706.347668927636, -19610.481811819292, -18211.55318159499, 7560.835189918899, -0.129359375, 0.958203125, -0.17265625, 192.0, 0.0, 0.0, 0.0, 0.0, 0.0, 0.0, 0.0, 0.0, 0.0, 1.741808565850813E9, 0.0, 2025-03-12 14:42:45.850
144.0, 17992.03669929942, -27634.601609063342, -42987.88076494703, -28380.926356426044, -25145.667808731534, 6522.395494269788, -37710.96917521586, 14098.474573907206, 4413.597811889388, -13551.974421974948, -34822.58734972326, -5501.1442901068085, -36715.757753343314, -19617.299093878162, -18210.659111816778, 7558.7117741956445, -0.129359375, 0.958203125, -0.17265625, 192.0, 0.0, 0.0, 0.0, 0.0, 0.0, 0.0, 0.0, 0.0, 0.0, 1.741808565850829E9, 0.0, 2025-03-12 14:42:45.850
146.0, 17949.143701689685, -27627.56080955992, -42976.92841016393, -28431.262484939398, -25142.73973020789, 6465.3761941643, -37706.588233302624, 14096.775841328603, 4419.453968936678, -13554.947203987504, -34838.61355049772, -5522.579613039447, -36718.574073144686, -19611.50999206424, -18217.94578050921, 7562.198646330673, -0.1286796875, 0.9581015625, -0.171328125, 192.0, 126.0, 0.0, 14.5, 120.0, 125.0, 88.0, 0.0, 0.0, 0.0, 1.741808565850843E9, 0.0, 2025-03-12 14:42:45.850
148.0, 17995.389460967715, -27628.588989804866, -42972.92744790643, -28379.60760350318, -25143.79026219729, 6508.71622666314, -37711.68443103843, 14094.428908160795, 4411.340285699402, -13558.769352289362, -34824.35313753523, -5502.2618773295735, -36709.99100327385, -19611.375881597505, -18209.51917284956, 7552.92267238172, -0.1286796875, 0.9581015625, -0.171328125, 192.0, 0.0, 0.0, 0.0, 0.0, 0.0, 0.0, 0.0, 0.0, 0.0, 1.741808565850859E9, 0.0, 2025-03-12 14:42:45.850
150.0, 17943.9357452316, -27615.960254187616, -42973.620351984544, -28432.58123786226, -25146.852451187668, 6447.986536978071, -37714.45604735089, 14085.756431312137, 4422.82908234943, -13556.176549932547, -34827.862361414715, -5517.103435647898, -36715.02014577629, -19619.48956483478, -18224.785414312533, 7545.613651944835, -0.1286796875, 0.9581015625, -0.171328125, 192.0, 0.0, 0.0, 0.0, 0.0, 0.0, 0.0, 0.0, 0.0, 0.0, 1.741808565850879E9, 0.0, 2025-03-12 14:42:45.850
152.0, 18002.56437093787, -27619.60358853383, -42971.56399149466, -28381.261632592876, -25142.91854416353, 6498.993217825082, -37715.79715201821, 14093.22191396021, 4423.142006771804, -13548.35343937319, -34812.618471696194, -5499.937295906222, -36699.39627640203, -19610.70532926385, -18223.46666138967, 7541.478579220603, -0.1286796875, 0.9581015625, -0.171328125, 192.0, 0.0, 0.0, 0.0, 0.0, 0.0, 0.0, 0.0, 0.0, 0.0, 1.741808565909973E9, 0.0, 2025-03-12 14:42:45.909
154.0, 17942.237012652997, -27614.641501264752, -42971.29577056119, -28435.15168847462, -25146.27130583183, 6450.042897467959, -37714.7019165399, 14086.829315045992, 4427.299431240491, -13549.471026595955, -34822.22972181198, -5512.56603152347, -36710.50509339632, -19613.45459383185, -18230.395702170816, 7540.137474553285, -0.1286796875, 0.9581015625, -0.171328125, 192.0, 0.0, 0.0, 0.0, 0.0, 0.0, 0.0, 0.0, 0.0, 0.0, 1.741808565910009E9, 0.0, 2025-03-12 14:42:45.910
156.0, 17995.612978412268, -27615.51321929851, -42964.27732280223, -28379.51819652536, -25134.089605103687, 6488.420842697721, -37700.866186722065, 14100.195658230265, 4423.812559105463, -13545.894747483106, -34812.350250762735, -5505.055845386487, -36706.66059335001, -19620.808317757645, -18222.259667189082, 7544.272547277516, -0.12833984375000002, 0.95505078125, -0.1716640625, 192.0, 126.0, 0.0, 14.5, 96.0, 125.0, 80.0, 0.0, 0.0, 0.0, 1.741808565910051E9, 0.0, 2025-03-12 14:42:45.910
158.0, 17936.962000961543, -27608.60653026182, -42967.67478795943, -28424.847534280725, -25135.944799893477, 6446.9583567331265, -37697.580480287135, 14102.27437046461, 4429.959288830672, -13540.955011958482, -34814.65248044163, -5504.295886075007, -36706.88411079456, -19607.531381551194, -18217.65520783129, 7559.538788740491, -0.12833984375000002, 0.95505078125, -0.1716640625, 192.0, 0.0, 0.0, 0.0, 0.0, 0.0, 0.0, 0.0, 0.0, 0.0, 1.741808565910068E9, 0.0, 2025-03-12 14:42:45.910
160.0, 17986.806391096878, -27614.552094286933, -42968.948837393385, -28372.387990044117, -25133.843735914677, 6490.007816554048, -37698.40749483198, 14108.197582745264, 4422.672620138243, -13542.564337559264, -34813.64665194114, -5501.7924906960125, -36715.2660149653, -19607.285512362185, -18215.956475252686, 7558.108277095352, -0.12833984375000002, 0.95505078125, -0.1716640625, 192.0, 0.0, 0.0, 0.0, 0.0, 0.0, 0.0, 0.0, 0.0, 0.0, 1.74180856591009E9, 0.0, 2025-03-12 14:42:45.910
162.0, 17932.7822247484, -27613.725079742086, -42969.284113560214, -28418.879618511157, -25141.35392205166, 6457.061345226925, -37699.83800647712, 14101.760280342136, 4428.349963229891, -13540.507977069376, -34813.93722461906, -5492.382406280328, -36711.24270096335, -19609.744204252267, -18214.101280462895, 7558.845884662376, -0.12833984375000002, 0.95505078125, -0.1716640625, 192.0, 0.0, 0.0, 0.0, 0.0, 0.0, 0.0, 0.0, 0.0, 0.0, 1.741808565910105E9, 0.0, 2025-03-12 14:42:45.910
164.0, 17979.966757293554, -27620.028271678482, -42967.58538098161, -28379.942879670012, -25138.135270850096, 6490.365444465333, -37704.68833502392, 14102.900219309357, 4430.965117331161, -13538.451616579488, -34811.925567618084, -5496.763348193568, -36706.43707590545, -19616.02504444421, -18216.89524851981, 7549.033468846496, -0.12833984375000002, 0.95505078125, -0.1716640625, 192.0, 0.0, 0.0, 0.0, 0.0, 0.0, 0.0, 0.0, 0.0, 0.0, 1.74180856591012E9, 0.0, 2025-03-12 14:42:45.910
166.0, 17936.090282927787, -27603.018594147994, -42959.382290766516, -28413.33638588624, -25136.54829699377, 6467.119630231814, -37698.072218665155, 14102.922571053812, 4435.726038900142, -13538.496320068398, -34808.148122805134, -5483.2405427981075, -36706.52648288327, -19619.891896234978, -18215.8000130415, 7555.850750905365, -0.129169921875, 0.956525390625, -0.17283203125000002, 192.0, 125.5, 120.0, 14.5, 120.0, 125.0, 72.0, 0.0, 0.0, 0.0, 1.741808565971532E9, 0.0, 2025-03-12 14:42:45.971
168.0, 17979.117391004253, -27616.988434432562, -42964.03145361322, -28379.875824436647, -25142.225640085417, 6496.780395124006, -37709.51631182627, 14101.402652430852, 4436.240129022614, -13542.67609628154, -34808.68456467206, -5491.175412079741, -36712.9637852864, -19617.567314811626, -18219.264533432073, 7552.430934003703, -0.129169921875, 0.956525390625, -0.17283203125000002, 192.0, 0.0, 0.0, 0.0, 0.0, 0.0, 0.0, 0.0, 0.0, 0.0, 1.741808565971552E9, 0.0, 2025-03-12 14:42:45.971
170.0, 17936.91729747263, -27602.28098658097, -42961.952741378875, -28412.934054486046, -25136.391834782582, 6474.115726246325, -37701.02264893325, 14102.587294886982, 4441.73865815862, -13538.004581690382, -34803.65542216962, -5478.412565995761, -36707.33114568367, -19613.96868395432, -18217.677559575746, 7552.766210170533, -0.129169921875, 0.956525390625, -0.17283203125000002, 192.0, 0.0, 0.0, 0.0, 0.0, 0.0, 0.0, 0.0, 0.0, 0.0, 1.741808565971567E9, 0.0, 2025-03-12 14:42:45.971
172.0, 17970.98135602252, -27608.85239945083, -42960.9916163673, -28393.19746413201, -25130.289808546284, 6478.6531303707525, -37700.84383497761, 14100.21800997472, 4445.940786116217, -13535.121206655647, -34809.2657100279, -5495.779871437535, -36710.43803816295, -19612.649931031458, -18221.946742766708, 7552.050954347963, -0.129169921875, 0.956525390625, -0.17283203125000002, 192.0, 0.0, 0.0, 0.0, 0.0, 0.0, 0.0, 0.0, 0.0, 0.0, 1.741808565971592E9, 0.0, 2025-03-12 14:42:45.971
174.0, 17927.9318962016, -27604.627919748775, -42967.58538098161, -28408.731926528446, -25141.10805286265, 6488.398490953266, -37706.40941934698, 14094.875943049901, 4437.558881945477, -13536.73053225643, -34802.359020991214, -5466.812010623456, -36709.11928524009, -19609.92301820791, -18220.60563809939, 7545.881872878298, -0.129169921875, 0.956525390625, -0.17283203125000002, 192.0, 0.0, 0.0, 0.0, 0.0, 0.0, 0.0, 0.0, 0.0, 0.0, 1.741808565971608E9, 0.0, 2025-03-12 14:42:45.971
176.0, 17955.625707581727, -27608.427716306178, -42964.545543735694, -28395.9020252111, -25136.883573160598, 6480.933008305194, -37702.58727104512, 14097.759318084636, 4442.610376192377, -13532.863680465662, -34812.149085062636, -5492.494165002605, -36708.69460209544, -19607.240808873274, -18234.307257450495, 7546.083038578397, -0.1305849609375, 0.9612626953125, -0.17141601562500003, 192.0, 125.5, 112.0, 15.0, 24.0, 125.0, 88.0, 0.0, 0.0, 0.0, 1.741808565971622E9, 0.0, 2025-03-12 14:42:45.971
178.0, 17938.146643417676, -27599.352908057324, -42966.11016584756, -28400.975871202456, -25138.82817492821, 6492.757081122051, -37704.911852468475, 14089.757393569636, 4437.692992412209, -13537.244622378901, -34801.17437853508, -5473.048147326487, -36709.02987826227, -19603.88804720498, -18234.41901617277, 7536.203567529151, -0.1305849609375, 0.9612626953125, -0.17141601562500003, 192.0, 0.0, 0.0, 0.0, 0.0, 0.0, 0.0, 0.0, 0.0, 0.0, 1.741808565971642E9, 0.0, 2025-03-12 14:42:45.971
180.0, 17964.07466698583, -27599.352908057324, -42952.05091858518, -28395.186769388532, -25128.233448056395, 6465.197380208658, -37696.30643085318, 14101.425004175308, 4457.094306599415, -13526.96281992946, -34798.961555834, -5491.80126092449, -36703.2631281928, -19599.708270991836, -18230.060426003984, 7550.6651461917345, -0.1305849609375, 0.9612626953125, -0.17141601562500003, 192.0, 0.0, 0.0, 0.0, 0.0, 0.0, 0.0, 0.0, 0.0, 0.0, 1.741808565971657E9, 0.0, 2025-03-12 14:42:45.971
182.0, 17943.89104174269, -27606.684280238664, -42958.175296565925, -28384.122655883155, -25134.335474292693, 6492.086528788392, -37701.89436696701, 14089.690338336271, 4440.554015702488, -13536.48466306742, -34791.92075633058, -5462.676937899225, -36706.50413113882, -19599.41769831392, -18223.913696278774, 7546.887701378787, -0.1305849609375, 0.9612626953125, -0.17141601562500003, 192.0, 0.0, 0.0, 0.0, 0.0, 0.0, 0.0, 0.0, 0.0, 0.0, 1.741808566030436E9, 0.0, 2025-03-12 14:42:46.030
184.0, 17943.779283020413, -27606.37135581629, -42954.464906986344, -28397.220778133964, -25130.960360879944, 6461.598749351353, -37702.72138151185, 14091.254960448143, 4453.585082719932, -13531.075540909236, -34804.862416370204, -5490.415452768261, -36705.07361949368, -19605.229151872296, -18230.64157135982, 7548.832303146399, -0.1305849609375, 0.9612626953125, -0.17141601562500003, 192.0, 0.0, 0.0, 0.0, 0.0, 0.0, 0.0, 0.0, 0.0, 0.0, 1.741808566030461E9, 0.0, 2025-03-12 14:42:46.030
186.0, 17950.283640656908, -27604.292643581946, -42951.179200551414, -28371.42686503254, -25130.870953902122, 6496.154546279257, -37705.91768096897, 14094.0265767606, 4444.845550637907, -13535.501186311387, -34792.568956919786, -5465.806182122968, -36695.55177635572, -19605.45266931685, -18221.343245666416, 7537.455265218648, -0.13029248046875, 0.9636313476562499, -0.1717080078125, 192.0, 125.5, 120.0, 15.0, 24.0, 125.0, 80.0, 0.0, 0.0, 0.0, 1.741808566030476E9, 0.0, 2025-03-12 14:42:46.030
188.0, 17939.040713195885, -27599.6658324797, -42948.42993598341, -28391.00699317539, -25136.280076060306, 6464.66093834173, -37709.13633217053, 14096.574675628504, 4458.301300800002, -13524.81705246175, -34797.35223023322, -5488.627313211837, -36695.75294205582, -19595.349680823052, -18226.014760257574, 7551.11218108084, -0.13029248046875, 0.9636313476562499, -0.1717080078125, 192.0, 0.0, 0.0, 0.0, 0.0, 0.0, 0.0, 0.0, 0.0, 0.0, 1.741808566030493E9, 0.0, 2025-03-12 14:42:46.030
190.0, 17959.850187283777, -27597.073030122883, -42949.45811622836, -28354.1936700575, -25136.615352227134, 6511.62195344233, -37712.667907794465, 14095.680605850293, 4453.674489697753, -13521.10666288217, -34785.97519230547, -5460.151190775775, -36689.695619308426, -19585.626671984992, -18223.26549568957, 7546.932404867698, -0.13029248046875, 0.9636313476562499, -0.1717080078125, 192.0, 0.0, 0.0, 0.0, 0.0, 0.0, 0.0, 0.0, 0.0, 0.0, 1.741808566030508E9, 0.0, 2025-03-12 14:42:46.030
192.0, 17930.144718902673, -27598.436486534654, -42947.87114237203, -28394.0021269324, -25135.96715163793, 6463.766868563517, -37708.73400077033, 14096.641730861871, 4461.207027579192, -13522.850098949684, -34803.051925069325, -5483.911095131766, -36700.08918048014, -19593.62859649999, -18234.307257450495, 7553.928500882209, -0.13029248046875, 0.9636313476562499, -0.1717080078125, 192.0, 0.0, 0.0, 0.0, 0.0, 0.0, 0.0, 0.0, 0.0, 0.0, 1.741808566030522E9, 0.0, 2025-03-12 14:42:46.030
194.0, 17956.27390817093, -27605.857265693816, -42950.44159298439, -28357.568783470248, -25130.423919013014, 6500.736653892595, -37706.096494924604, 14093.177210471298, 4455.149704831803, -13528.05805540777, -34787.69627662853, -5461.246426254085, -36686.186395428944, -19583.145628350452, -18219.73392006563, 7545.479541478103, -0.13029248046875, 0.9636313476562499, -0.1717080078125, 192.0, 0.0, 0.0, 0.0, 0.0, 0.0, 0.0, 0.0, 0.0, 0.0, 1.741808566030557E9, 0.0, 2025-03-12 14:42:46.030
196.0, 17904.619026734716, -27614.37328033129, -42955.671901186935, -28415.10217369821, -25136.525945249316, 6451.272243413001, -37704.621279790554, 14089.153896469343, 4446.723097172153, -13539.926831713537, -34812.79728565184, -5496.808051682478, -36701.76556131429, -19603.664529760426, -18238.41997843027, 7535.622422173313, -0.128146240234375, 0.960815673828125, -0.17185400390625, 192.0, 126.0, 8.0, 14.5, 120.0, 125.0, 80.0, 0.0, 0.0, 0.0, 1.741808566089982E9, 0.0, 2025-03-12 14:42:46.089
198.0, 17954.195195936587, -27613.456858808622, -42950.776869151225, -28368.699952208994, -25129.038110856785, 6497.04861605747, -37697.73694249832, 14100.776803586103, 4442.3421552589125, -13539.792721246806, -34799.22977676747, -5480.200705552185, -36690.522633853274, -19598.076593646598, -18227.6017341139, 7537.25409951855, -0.128146240234375, 0.960815673828125, -0.17185400390625, 192.0, 0.0, 0.0, 0.0, 0.0, 0.0, 0.0, 0.0, 0.0, 0.0, 1.741808566090003E9, 0.0, 2025-03-12 14:42:46.090
200.0, 17894.761907429925, -27622.03992867946, -42965.529020491726, -28420.131316200655, -25146.45011978747, 6455.362612648322, -37710.32097462666, 14083.767126055614, 4439.25761452408, -13550.320392885256, -34816.552378720335, -5503.2006505966965, -36706.750000327826, -19610.25829437474, -18234.620181872866, 7534.68364890619, -0.128146240234375, 0.960815673828125, -0.17185400390625, 192.0, 0.0, 0.0, 0.0, 0.0, 0.0, 0.0, 0.0, 0.0, 0.0, 1.741808566090029E9, 0.0, 2025-03-12 14:42:46.090
202.0, 17946.103864443765, -27620.65412052323, -42954.93429361991, -28370.59985048769, -25130.7815469243, 6499.149680036268, -37696.77581748674, 14099.614512874427, 4434.228472021637, -13548.576956817742, -34810.673869928585, -5496.9198104047555, -36698.233985690356, -19604.245675116264, -18233.010856272085, 7536.181215784695, -0.128146240234375, 0.960815673828125, -0.17185400390625, 192.0, 0.0, 0.0, 0.0, 0.0, 0.0, 0.0, 0.0, 0.0, 0.0, 1.741808566090044E9, 0.0, 2025-03-12 14:42:46.090
204.0, 17874.10889555322, -27622.062280423914, -42964.612598969055, -28429.20612444951, -25138.962285394944, 6454.6473568257525, -37704.710686768376, 14088.17041971331, 4429.4228469637455, -13553.919023742561, -34825.984814880474, -5509.034455899532, -36708.94047128445, -19613.856925232045, -18237.36944644087, 7532.135550038284, -0.128146240234375, 0.960815673828125, -0.17185400390625, 192.0, 0.0, 0.0, 0.0, 0.0, 0.0, 0.0, 0.0, 0.0, 0.0, 1.741808566090064E9, 0.0, 2025-03-12 14:42:46.090
206.0, 17921.271076353918, -27643.095271956357, -42971.85456417258, -28378.04298139131, -25141.778605196312, 6498.52383119152, -37711.907948482985, 14083.856533033435, 4421.867957337851, -13556.735343543929, -34828.86818991521, -5509.459139044183, -36710.236872462854, -19609.878314719, -18238.352923196904, 7529.386285470282, -0.1300731201171875, 0.9564078369140625, -0.174927001953125, 192.0, 125.5, 112.0, 14.5, 96.0, 125.0, 56.0, 0.0, 0.0, 0.0, 1.741808566090078E9, 0.0, 2025-03-12 14:42:46.090
208.0, 17857.546252911838, -27627.270236882003, -42970.04407287169, -28428.423813393572, -25136.77181443832, 6449.685269556674, -37703.79426524571, 14086.0246522456, 4414.670695623243, -13565.251358181402, -34845.699053490054, -5522.75842699509, -36719.44579117844, -19619.221343901318, -18251.540452425535, 7522.971334811608, -0.1300731201171875, 0.9564078369140625, -0.174927001953125, 192.0, 0.0, 0.0, 0.0, 0.0, 0.0, 0.0, 0.0, 0.0, 0.0, 1.741808566090094E9, 0.0, 2025-03-12 14:42:46.090
210.0, 17924.69089325558, -27632.56760031791, -42966.75836643676, -28377.148911613098, -25131.16152658004, 6493.025302055515, -37705.202425146395, 14088.326881924497, 4425.868919595351, -13554.120189442658, -34836.467783030006, -5516.94697343671, -36708.04640150624, -19611.286474619686, -18243.337362210437, 7533.610765172335, -0.1300731201171875, 0.9564078369140625, -0.174927001953125, 192.0, 0.0, 0.0, 0.0, 0.0, 0.0, 0.0, 0.0, 0.0, 0.0, 1.741808566090109E9, 0.0, 2025-03-12 14:42:46.090
212.0, 17854.640526132647, -27621.302321112435, -42973.59800024009, -28425.987473247944, -25139.364616795137, 6459.609444094831, -37705.18007340194, 14083.185980699776, 4422.404399204779, -13552.644974308609, -34843.64269300016, -5514.37652282435, -36717.61294813311, -19609.766555996724, -18250.020533802573, 7521.004381299542, -0.1300731201171875, 0.9564078369140625, -0.174927001953125, 192.0, 0.0, 0.0, 0.0, 0.0, 0.0, 0.0, 0.0, 0.0, 0.0, 1.741808566150285E9, 0.0, 2025-03-12 14:42:46.150
214.0, 17902.272093566906, -27613.79213497545, -42967.69713970389, -28380.076990136742, -25127.227619555906, 6489.940761320682, -37697.26755586476, 14099.16747798532, 4422.784378860519, -13539.904479969084, -34835.1713818516, -5512.677790245747, -36703.15136947052, -19598.7247942358, -18240.789263342533, 7532.023791316008, -0.1300731201171875, 0.9564078369140625, -0.174927001953125, 192.0, 0.0, 0.0, 0.0, 0.0, 0.0, 0.0, 0.0, 0.0, 0.0, 1.741808566150305E9, 0.0, 2025-03-12 14:42:46.150
216.0, 17842.10119749322, -27608.159495372714, -42968.144174593, -28424.445202880528, -25130.938009135487, 6468.885418043783, -37692.01489591776, 14097.848725062458, 4421.242108493103, -13542.944317215004, -34837.160687108124, -5504.631162241836, -36713.92491029798, -19601.742279737267, -18239.828138330955, 7526.435855202181, -0.13403656005859377, 0.9532039184570313, -0.1794635009765625, 192.0, 125.5, 88.0, 14.5, 88.0, 125.0, 32.0, 0.0, 0.0, 0.0, 1.741808566150354E9, 0.0, 2025-03-12 14:42:46.150
218.0, 17885.95532011453, -27609.388841317756, -42959.00231111077, -28393.28687110983, -25125.417128255027, 6486.476240930109, -37690.0479424057, 14106.901181566856, 4436.821274378452, -13529.82384321974, -34830.74573644945, -5507.80510995449, -36706.2135584609, -19592.801581955147, -18233.189670227726, 7537.410561729737, -0.13403656005859377, 0.9532039184570313, -0.1794635009765625, 192.0, 0.0, 0.0, 0.0, 0.0, 0.0, 0.0, 0.0, 0.0, 0.0, 1.741808566150371E9, 0.0, 2025-03-12 14:42:46.150
220.0, 17833.272258433375, -27608.47241979509, -42972.659226972966, -28429.876676783166, -25140.01281738434, 6479.368386193322, -37700.709724510874, 14091.143201725865, 4421.175053259737, -13541.290288125312, -34832.198599839045, -5496.8974586603, -36712.002660274826, -19608.313692607127, -18238.129405752352, 7522.770169111511, -0.13403656005859377, 0.9532039184570313, -0.1794635009765625, 192.0, 0.0, 0.0, 0.0, 0.0, 0.0, 0.0, 0.0, 0.0, 0.0, 1.741808566150386E9, 0.0, 2025-03-12 14:42:46.150
222.0, 17868.386848972663, -27617.03313792147, -42964.3890815245, -28408.128429428154, -25135.900096404566, 6485.693929874174, -37696.90992795348, 14093.959521527235, 4421.1527015152815, -13547.101741683691, -34842.27923658839, -5523.496034562116, -36720.49632316784, -19614.84040198808, -18248.76883611308, 7518.456282431636, -0.13403656005859377, 0.9532039184570313, -0.1794635009765625, 192.0, 0.0, 0.0, 0.0, 0.0, 0.0, 0.0, 0.0, 0.0, 0.0, 1.741808566150405E9, 0.0, 2025-03-12 14:42:46.150
224.0, 17831.014732243388, -27621.32467285689, -42977.01781714175, -28422.05356622381, -25152.64155300159, 6488.912581075738, -37714.65721305099, 14077.843913774957, 4422.359695715868, -13547.191148661514, -34827.81765792581, -5500.049054628498, -36716.71887835489, -19610.571218797115, -18243.47147267717, 7516.019942286008, -0.13403656005859377, 0.9532039184570313, -0.1794635009765625, 192.0, 0.0, 0.0, 0.0, 0.0, 0.0, 0.0, 0.0, 0.0, 0.0, 1.74180856615042E9, 0.0, 2025-03-12 14:42:46.150
226.0, 17864.63175590417, -27611.4675535521, -42956.230694798316, -28410.92239748507, -25131.474451002414, 6460.682327828686, -37697.871052965056, 14091.634940103882, 4437.111847056371, -13544.01720094886, -34831.97508239449, -5529.195729398219, -36716.85298882163, -19616.986169455788, -18251.94278382573, 7517.651619631246, -0.1350182800292969, 0.9546019592285158, -0.18173175048828125, 192.0, 125.5, 96.0, 14.5, 112.0, 125.0, 32.0, 0.0, 0.0, 0.0, 1.74180856621196E9, 0.0, 2025-03-12 14:42:46.211
228.0, 17846.77271208438, -27599.84464643534, -42956.230694798316, -28407.748449772414, -25133.64257021458, 6464.929159275193, -37699.83800647712, 14090.852629047946, 4435.770742389052, -13545.604174805187, -34813.37843100768, -5490.504859746082, -36702.99490725934, -19604.06686116062, -18235.782472584542, 7521.9655063111195, -0.1350182800292969, 0.9546019592285158, -0.18173175048828125, 192.0, 0.0, 0.0, 0.0, 0.0, 0.0, 0.0, 0.0, 0.0, 0.0, 1.741808566211989E9, 0.0, 2025-03-12 14:42:46.211
230.0, 17872.63368041917, -27600.02346039098, -42951.827401140625, -28399.724173512957, -25130.312160290738, 6451.585167835376, -37698.65336402099, 14097.491097151173, 4441.850416880896, -13534.294192110801, -34822.02855611188, -5510.666133244769, -36710.50509339632, -19604.424489071906, -18241.035132531542, 7530.168596526218, -0.1350182800292969, 0.9546019592285158, -0.18173175048828125, 192.0, 0.0, 0.0, 0.0, 0.0, 0.0, 0.0, 0.0, 0.0, 0.0, 1.741808566212005E9, 0.0, 2025-03-12 14:42:46.212
232.0, 17871.002003073932, -27608.003033161527, -42961.55040997868, -28388.213025118475, -25139.051692372763, 6490.678368887708, -37701.067352422164, 14091.947864526257, 4434.697858655198, -13537.892822968106, -34814.719535674994, -5481.117127074853, -36705.83357880516, -19593.740355222268, -18233.27907720555, 7533.990744828075, -0.1350182800292969, 0.9546019592285158, -0.18173175048828125, 192.0, 0.0, 0.0, 0.0, 0.0, 0.0, 0.0, 0.0, 0.0, 0.0, 1.741808566212023E9, 0.0, 2025-03-12 14:42:46.212
234.0, 17875.427648476085, -27609.858227951318, -42964.52319199123, -28406.116772427176, -25133.799032425766, 6463.968034263616, -37698.58630878762, 14093.22191396021, 4445.73962041612, -13531.924907198538, -34829.270521315404, -5514.398874568806, -36711.95795678592, -19606.011462928233, -18236.631838873844, 7543.847864132866, -0.1350182800292969, 0.9546019592285158, -0.18173175048828125, 192.0, 0.0, 0.0, 0.0, 0.0, 0.0, 0.0, 0.0, 0.0, 0.0, 1.741808566212039E9, 0.0, 2025-03-12 14:42:46.212
236.0, 17902.137983100176, -27605.343175571346, -42959.60580821107, -28381.976888415444, -25130.379215524106, 6490.611313654342, -37696.64170702001, 14094.07128024951, 4437.82710287894, -13536.43995957851, -34817.28998628735, -5487.554429477982, -36703.821921804185, -19597.629558757493, -18226.46179514668, 7538.259928019039, -0.13350914001464845, 0.9573009796142579, -0.1808658752441406, 192.0, 125.5, 112.0, 15.0, 0.0, 125.0, 48.0, 0.0, 0.0, 0.0, 1.741808566212054E9, 0.0, 2025-03-12 14:42:46.212
238.0, 17900.573360988303, -27602.4150970477, -42961.55040997868, -28413.895179497624, -25131.854430658153, 6444.119685187303, -37699.525082054744, 14090.584408114482, 4450.366431518368, -13532.126072898636, -34827.303567803334, -5509.168566366264, -36702.614927603594, -19600.64704425896, -18229.948667281707, 7540.405695486748, -0.13350914001464845, 0.9573009796142579, -0.1808658752441406, 192.0, 0.0, 0.0, 0.0, 0.0, 0.0, 0.0, 0.0, 0.0, 0.0, 1.74180856621209E9, 0.0, 2025-03-12 14:42:46.212
240.0, 17931.30700961435, -27604.60556800432, -42970.93814264991, -28379.965231414466, -25140.146927851074, 6489.583133409397, -37706.65528853599, 14089.422117402806, 4445.381992504835, -13532.595459532198, -34810.98679435096, -5479.172525307242, -36708.135808484054, -19596.55667502364, -18218.973960754152, 7535.845939617866, -0.13350914001464845, 0.9573009796142579, -0.1808658752441406, 192.0, 0.0, 0.0, 0.0, 0.0, 0.0, 0.0, 0.0, 0.0, 0.0, 1.741808566212105E9, 0.0, 2025-03-12 14:42:46.212
242.0, 17911.548067515858, -27597.22949233407, -42968.01006412626, -28422.366490646185, -25140.482204017902, 6445.527845087987, -37703.45898907888, 14088.908027280335, 4445.203178549192, -13534.987096188916, -34828.10823060373, -5508.788586710523, -36720.76454410131, -19602.792811726667, -18232.98850452763, 7536.784712884988, -0.13350914001464845, 0.9573009796142579, -0.1808658752441406, 192.0, 0.0, 0.0, 0.0, 0.0, 0.0, 0.0, 0.0, 0.0, 0.0, 1.74180856627092E9, 0.0, 2025-03-12 14:42:46.270
244.0, 17962.934728018612, -27579.63866944774, -42949.94985460638, -28374.75727495638, -25125.238314299386, 6487.035034541493, -37687.63395400452, 14103.749585598658, 4461.899931657306, -13522.648933249586, -34798.06748605579, -5472.355243248373, -36694.97063099988, -19580.798695182646, -18209.87680076084, 7552.050954347963, -0.13350914001464845, 0.9573009796142579, -0.1808658752441406, 192.0, 0.0, 0.0, 0.0, 0.0, 0.0, 0.0, 0.0, 0.0, 0.0, 1.741808566270979E9, 0.0, 2025-03-12 14:42:46.270
246.0, 17925.897887456165, -27581.158588070703, -42960.87985764502, -28421.13714470114, -25137.15179409406, 6443.002097964537, -37693.75833198528, 14099.346291940963, 4465.83383868144, -13517.977418658427, -34805.82354138178, -5487.420319011249, -36703.35253517062, -19587.88419817498, -18214.011873485073, 7557.25891080605, -0.1327545700073242, 0.957650489807129, -0.1794329376220703, 192.0, 125.5, 112.0, 14.5, 120.0, 125.0, 56.0, 0.0, 0.0, 0.0, 1.741808566271004E9, 0.0, 2025-03-12 14:42:46.271
248.0, 17983.207760239573, -27587.059448606906, -42957.25887504326, -28372.209176088476, -25132.659093458547, 6492.578267166408, -37690.47262555035, 14104.531896654595, 4459.016556622571, -13525.621715262141, -34798.715686644995, -5472.623464181836, -36699.70920082441, -19587.07953537459, -18205.764079781067, 7552.833265403899, -0.1327545700073242, 0.957650489807129, -0.1794329376220703, 192.0, 0.0, 0.0, 0.0, 0.0, 0.0, 0.0, 0.0, 0.0, 0.0, 1.74180856627104E9, 0.0, 2025-03-12 14:42:46.271
250.0, 17931.664637525635, -27590.255748064013, -42959.7399186778, -28428.20029594902, -25130.334512035195, 6438.576452562386, -37689.2432796053, 14098.385166929385, 4459.709460700687, -13528.750959485884, -34813.065506585306, -5490.057824856976, -36701.54204386974, -19599.238884358274, -18211.37436763935, 7553.079134592907, -0.1327545700073242, 0.957650489807129, -0.1794329376220703, 192.0, 0.0, 0.0, 0.0, 0.0, 0.0, 0.0, 0.0, 0.0, 0.0, 1.741808566271064E9, 0.0, 2025-03-12 14:42:46.271
252.0, 17988.840399842313, -27590.814541675394, -42953.41437499695, -28371.136292354622, -25114.375366494103, 6488.152621764258, -37679.050884133685, 14112.243248491675, 4462.615187479876, -13526.024046662336, -34797.06165755531, -5474.433955482717, -36697.49637812333, -19591.54988426565, -18194.811724997966, 7563.606806231357, -0.1327545700073242, 0.957650489807129, -0.1794329376220703, 192.0, 0.0, 0.0, 0.0, 0.0, 0.0, 0.0, 0.0, 0.0, 0.0, 1.741808566271089E9, 0.0, 2025-03-12 14:42:46.271
254.0, 17926.83666072329, -27601.677489480677, -42964.344378035596, -28423.48407786895, -25127.227619555906, 6454.334432403378, -37685.66700049245, 14101.31324545303, 4454.210931564681, -13536.238793878412, -34812.976099607484, -5488.157926578275, -36709.14163698455, -19597.92013143541, -18198.276245388537, 7564.92555915422, -0.1327545700073242, 0.957650489807129, -0.1794329376220703, 192.0, 0.0, 0.0, 0.0, 0.0, 0.0, 0.0, 0.0, 0.0, 0.0, 1.741808566271113E9, 0.0, 2025-03-12 14:42:46.271
0.0, 17991.18733301012, -27599.375259801778, -42956.18599130941, -28367.112978352667, -25120.276227030306, 6499.23908701409, -37682.51540452426, 14107.594085644972, 4459.173018833759, -13529.53327054182, -34799.31918374529, -5482.972321864644, -36698.12222696808, -19585.40315454044, -18190.98957669611, 7571.787544702, -0.1303772850036621, 0.9588252449035645, -0.17971646881103515, 192.0, 126.0, 0.0, 15.0, 0.0, 125.0, 48.0, 0.0, 0.0, 0.0, 1.74180856633043E9, 0.0, 2025-03-12 14:42:46.330
2.0, 17937.31962887283, -27581.046829348426, -42949.01108133925, -28414.878656253655, -25115.604712439148, 6451.093429457358, -37673.30648580867, 14110.544515913072, 4466.3479288039125, -13531.29905835379, -34805.24239602595, -5485.833345154923, -36695.574128100176, -19590.633462742982, -18189.827285984433, 7574.268588336538, -0.1303772850036621, 0.9588252449035645, -0.17971646881103515, 192.0, 0.0, 0.0, 0.0, 0.0, 0.0, 0.0, 0.0, 0.0, 0.0, 1.741808566330469E9, 0.0, 2025-03-12 14:42:46.330
4.0, 17986.538170163414, -27606.46076279411, -42965.4396135139, -28368.23056557543, -25122.712567175935, 6495.662807901241, -37692.752503484786, 14100.396823930363, 4456.043774610016, -13534.361247344166, -34802.85075936923, -5481.139478819308, -36691.48375886485, -19581.983337638776, -18188.26266387256, 7574.35799531436, -0.1303772850036621, 0.9588252449035645, -0.17971646881103515, 192.0, 0.0, 0.0, 0.0, 0.0, 0.0, 0.0, 0.0, 0.0, 0.0, 1.741808566330518E9, 0.0, 2025-03-12 14:42:46.330
6.0, 17930.34588460277, -27594.524931254975, -42972.27924731723, -28420.310130156297, -25132.01089286934, 6460.034127239482, -37695.23354711933, 14090.45029764775, 4445.761972160575, -13545.53711957182, -34816.08299208677, -5487.0626910999645, -36707.08527649466, -19595.126163378496, -18207.060480959473, 7558.555311984457, -0.1303772850036621, 0.9588252449035645, -0.17971646881103515, 192.0, 0.0, 0.0, 0.0, 0.0, 0.0, 0.0, 0.0, 0.0, 0.0, 1.741808566330543E9, 0.0, 2025-03-12 14:42:46.330
8.0, 17995.612978412268, -27591.485094009055, -42956.141287820494, -28370.510443509873, -25123.316064276227, 6484.241066484579, -37686.42695980394, 14101.179134986298, 4453.205103064192, -13536.618773534152, -34810.76327690641, -5488.984941123122, -36696.08821822265, -19586.051355129643, -18205.94289373671, 7565.417297532237, -0.1303772850036621, 0.9588252449035645, -0.17971646881103515, 192.0, 0.0, 0.0, 0.0, 0.0, 0.0, 0.0, 0.0, 0.0, 0.0, 1.741808566330565E9, 0.0, 2025-03-12 14:42:46.330
10.0, 17945.142739432187, -27579.593965958833, -42955.35897676456, -28412.129391685652, -25124.0313200988, 6460.883493528783, -37687.52219528225, 14099.234533218687, 4461.207027579192, -13528.996828674894, -34800.30266050132, -5470.455344969671, -36694.14361645503, -19583.749125450748, -18199.997329711598, 7566.244312077083, -0.13218864250183104, 0.9594126224517823, -0.18085823440551757, 192.0, 125.5, 104.0, 15.0, 0.0, 125.0, 40.0, 0.0, 0.0, 0.0, 1.741808566330596E9, 0.0, 2025-03-12 14:42:46.330
12.0, 17981.17375149414, -27593.183826587658, -42957.750613421274, -28385.083780894733, -25122.39964275356, 6479.346034448867, -37693.17718662944, 14098.139297740378, 4457.898969399806, -13532.215479876457, -34805.80118963733, -5485.833345154923, -36694.50124436632, -19587.571273752605, -18207.17223968175, 7558.68942245119, -0.13218864250183104, 0.9594126224517823, -0.18085823440551757, 192.0, 0.0, 0.0, 0.0, 0.0, 0.0, 0.0, 0.0, 0.0, 0.0, 1.741808566330622E9, 0.0, 2025-03-12 14:42:46.330
14.0, 17934.45860558255, -27591.12746609777, -42968.56885773765, -28418.790211533335, -25134.290770803782, 6468.840714554873, -37699.61448903257, 14092.1266784819, 4447.080725083438, -13537.646953779096, -34808.77397164988, -5475.37272874984, -36697.60813684561, -19586.565445252116, -18207.440460615213, 7552.319175281427, -0.13218864250183104, 0.9594126224517823, -0.18085823440551757, 192.0, 0.0, 0.0, 0.0, 0.0, 0.0, 0.0, 0.0, 0.0, 0.0, 1.741808566330651E9, 0.0, 2025-03-12 14:42:46.330
16.0, 17971.45074265608, -27589.853416663816, -42964.478488502325, -28398.62893803465, -25128.032282356296, 6469.623025610808, -37696.77581748674, 14097.491097151173, 4448.891216384318, -13539.099817168692, -34817.446448498544, -5501.054883128987, -36700.804436302715, -19586.185465596376, -18218.102242720397, 7554.062611348941, -0.13218864250183104, 0.9594126224517823, -0.18085823440551757, 192.0, 0.0, 0.0, 0.0, 0.0, 0.0, 0.0, 0.0, 0.0, 0.0, 1.741808566391314E9, 0.0, 2025-03-12 14:42:46.391
18.0, 17938.683085284603, -27578.722247925074, -42969.10529960458, -28415.415098120582, -25129.39573876807, 6470.293577944467, -37695.12178839705, 14093.870114549412, 4451.1487425743035, -13536.976401445438, -34804.75065764793, -5477.004406095077, -36698.83748279065, -19584.285567317675, -18207.775736782045, 7551.939195625687, -0.13218864250183104, 0.9594126224517823, -0.18085823440551757, 192.0, 0.0, 0.0, 0.0, 0.0, 0.0, 0.0, 0.0, 0.0, 0.0, 1.74180856639135E9, 0.0, 2025-03-12 14:42:46.391
20.0, 17970.064934499853, -27582.231471804556, -42956.722433176335, -28400.148856657608, -25113.68246241599, 6454.89322601476, -37682.87303243554, 14109.762204857136, 4465.140934603326, -13526.15815712907, -34808.863378627706, -5491.734205691124, -36692.86956702108, -19579.859921915522, -18202.388966368315, 7570.580550501412, -0.13309432125091553, 0.9557063112258912, -0.18142911720275878, 192.0, 125.5, 104.0, 14.5, 96.0, 125.0, 40.0, 0.0, 0.0, 0.0, 1.741808566391375E9, 0.0, 2025-03-12 14:42:46.391
22.0, 17944.11455918724, -27590.211044575102, -42972.18984033941, -28402.47343808096, -25125.171259066017, 6479.61425538233, -37695.9488029419, 14101.447355919761, 4452.065164096972, -13531.142596142603, -34803.99069833645, -5464.286263500007, -36691.796683287226, -19582.050392872145, -18189.760230751068, 7564.746745198578, -0.13309432125091553, 0.9557063112258912, -0.18142911720275878, 192.0, 0.0, 0.0, 0.0, 0.0, 0.0, 0.0, 0.0, 0.0, 0.0, 1.7418085663914E9, 0.0, 2025-03-12 14:42:46.391
24.0, 17949.74719878998, -27580.73390492605, -42962.60094196808, -28410.788287018335, -25116.297616517262, 6448.8359032673725, -37686.82929120413, 14103.771937343114, 4447.0360215945275, -13544.039552693315, -34826.76712593641, -5500.071406372954, -36712.136770741556, -19595.126163378496, -18206.278169903537, 7557.1248003393175, -0.13309432125091553, 0.9557063112258912, -0.18142911720275878, 192.0, 0.0, 0.0, 0.0, 0.0, 0.0, 0.0, 0.0, 0.0, 0.0, 1.741808566391446E9, 0.0, 2025-03-12 14:42:46.391
26.0, 17954.061085469853, -27577.381143257757, -42959.06936634414, -28388.749466985402, -25113.414241482526, 6468.371327921311, -37683.05184639119, 14111.349178713463, 4462.145800846315, -13525.91228794006, -34793.328916231265, -5457.312519229951, -36688.62273557457, -19565.174825808386, -18181.288919602506, 7568.434783033703, -0.13309432125091553, 0.9557063112258912, -0.18142911720275878, 192.0, 0.0, 0.0, 0.0, 0.0, 0.0, 0.0, 0.0, 0.0, 0.0, 1.74180856639147E9, 0.0, 2025-03-12 14:42:46.391
28.0, 17940.69474228558, -27589.495788752534, -42963.80793616867, -28406.80967650529, -25120.410337497036, 6448.210054422624, -37691.83608196212, 14102.07320476451, 4463.665719469276, -13532.081369409725, -34814.54072171936, -5486.258028299574, -36695.95410775591, -19581.49159926076, -18198.879742488833, 7561.572797485924, -0.13309432125091553, 0.9557063112258912, -0.18142911720275878, 192.0, 0.0, 0.0, 0.0, 0.0, 0.0, 0.0, 0.0, 0.0, 0.0, 1.741808566391493E9, 0.0, 2025-03-12 14:42:46.391
30.0, 17946.617954566234, -27587.595890473833, -42957.86237214356, -28379.8981761811, -25112.54252344877, 6484.8222118404165, -37680.48139577883, 14106.968236800223, 4452.266329797069, -13538.608078790676, -34805.08593381476, -5461.782868121013, -36700.55856711371, -19576.8200846696, -18192.6436057858, 7555.984861372097, -0.13154716062545777, 0.9538531556129457, -0.1817145586013794, 192.0, 125.5, 120.0, 14.5, 96.0, 125.0, 40.0, 0.0, 0.0, 0.0, 1.741808566451759E9, 0.0, 2025-03-12 14:42:46.451
32.0, 17928.378931090705, -27591.999184131528, -42964.25497105777, -28411.0565079518, -25118.577494451703, 6450.579339334887, -37680.97313415684, 14109.315169968031, 4458.614225222376, -13532.908383954571, -34819.838085155265, -5485.0063306100765, -36706.16885497199, -19579.368183537506, -18199.259722144572, 7566.244312077083, -0.13154716062545777, 0.9538531556129457, -0.1817145586013794, 192.0, 0.0, 0.0, 0.0, 0.0, 0.0, 0.0, 0.0, 0.0, 0.0, 1.741808566451789E9, 0.0, 2025-03-12 14:42:46.451
34.0, 17936.157338161152, -27596.447181278134, -42976.83900318611, -28384.56969077226, -25130.915657391033, 6496.020435812526, -37695.546471541704, 14101.760280342136, 4446.723097172153, -13540.306811369279, -34815.18892230856, -5466.812010623456, -36704.89480553804, -19579.39053528196, -18194.632911042325, 7555.627233460812, -0.13154716062545777, 0.9538531556129457, -0.1817145586013794, 192.0, 0.0, 0.0, 0.0, 0.0, 0.0, 0.0, 0.0, 0.0, 0.0, 1.741808566451804E9, 0.0, 2025-03-12 14:42:46.451
36.0, 17898.24877956495, -27590.300451552925, -42974.06738687365, -28429.496697127426, -25128.456965500947, 6440.65516479673, -37691.85843370658, 14094.853591305446, 4449.293547784513, -13543.30194512629, -34834.90316091814, -5500.026702884043, -36718.775238844784, -19592.77923021069, -18208.379233882337, 7544.5631199554355, -0.13154716062545777, 0.9538531556129457, -0.1817145586013794, 192.0, 0.0, 0.0, 0.0, 0.0, 0.0, 0.0, 0.0, 0.0, 0.0, 1.741808566451843E9, 0.0, 2025-03-12 14:42:46.451
38.0, 17923.036864165886, -27600.515198769, -42987.03139865773, -28386.80486521779, -25139.58813423969, 6495.126366034314, -37702.98960244532, 14091.210256959232, 4434.206120277181, -13548.35343937319, -34824.95663463553, -5477.160868306264, -36711.64503236354, -19581.93863414987, -18200.958454723175, 7543.311422265938, -0.13154716062545777, 0.9538531556129457, -0.1817145586013794, 192.0, 0.0, 0.0, 0.0, 0.0, 0.0, 0.0, 0.0, 0.0, 0.0, 1.741808566451858E9, 0.0, 2025-03-12 14:42:46.451
40.0, 17892.10204983974, -27590.03223061946, -42973.46388977336, -28433.944694274032, -25126.177087566506, 6435.871891483294, -37682.73892196881, 14104.062510021033, 4453.272158297558, -13539.502148568887, -34833.31618706181, -5501.524269762549, -36720.675137123486, -19588.532398764182, -18212.916638006765, 7550.821608402921, -0.1307735803127289, 0.9559265778064729, -0.18285727930068968, 192.0, 125.5, 120.0, 14.5, 120.0, 125.0, 32.0, 0.0, 0.0, 0.0, 1.741808566451874E9, 0.0, 2025-03-12 14:42:46.451
42.0, 17933.743349759978, -27610.238207607057, -42986.45025330189, -28381.596908759704, -25133.7319771924, 6493.494688689076, -37698.6980675099, 14098.340463440474, 4443.660908181776, -13546.721762027952, -34813.93722461906, -5479.8430776409, -36711.68973585245, -19582.855055672535, -18201.07021344545, 7555.984861372097, -0.1307735803127289, 0.9559265778064729, -0.18285727930068968, 192.0, 0.0, 0.0, 0.0, 0.0, 0.0, 0.0, 0.0, 0.0, 0.0, 1.74180856645189E9, 0.0, 2025-03-12 14:42:46.451
44.0, 17877.05932582132, -27614.75325998703, -42990.51827079276, -28441.276066455375, -25137.77764293881, 6435.670725783197, -37699.07804716564, 14085.354099911941, 4443.727963415142, -13561.16098894608, -34833.2714835729, -5508.855641943889, -36721.39039294606, -19599.283587847185, -18219.018664243064, 7538.461093719136, -0.1307735803127289, 0.9559265778064729, -0.18285727930068968, 192.0, 0.0, 0.0, 0.0, 0.0, 0.0, 0.0, 0.0, 0.0, 0.0, 1.741808566451905E9, 0.0, 2025-03-12 14:42:46.451
46.0, 17937.587849806292, -27616.250826865537, -42982.8963259335, -28386.04490590631, -25129.59690446817, 6474.093374501869, -37697.871052965056, 14089.623283102905, 4436.575405189444, -13571.420439651065, -34823.63788171266, -5502.552450007493, -36711.62268061908, -19595.327329078595, -18215.487088619124, 7536.471788462614, -0.1307735803127289, 0.9559265778064729, -0.18285727930068968, 192.0, 0.0, 0.0, 0.0, 0.0, 0.0, 0.0, 0.0, 0.0, 0.0, 1.741808566511103E9, 0.0, 2025-03-12 14:42:46.511
48.0, 17886.514113725916, -27600.47049528009, -42973.82151768464, -28431.553057617315, -25129.283980045795, 6421.052684909426, -37692.73015174033, 14092.84193430447, 4454.032117609038, -13560.512788356877, -34820.70980318902, -5505.9499151647, -36705.72182008289, -19589.404116797938, -18205.965245481166, 7550.754553169555, -0.1307735803127289, 0.9559265778064729, -0.18285727930068968, 192.0, 0.0, 0.0, 0.0, 0.0, 0.0, 0.0, 0.0, 0.0, 0.0, 1.741808566511127E9, 0.0, 2025-03-12 14:42:46.511
50.0, 17942.527585330914, -27614.46268730911, -42975.18497409642, -28372.075065621742, -25131.899134147065, 6486.565647907931, -37696.99933493129, 14096.731137839692, 4454.032117609038, -13554.768390031863, -34809.064544327804, -5490.974246379644, -36706.191206716445, -19583.950291150846, -18199.013852955562, 7552.497989237069, -0.13038679015636445, 0.9579632889032365, -0.18142863965034484, 192.0, 125.5, 120.0, 15.0, 0.0, 125.0, 48.0, 0.0, 0.0, 0.0, 1.741808566511143E9, 0.0, 2025-03-12 14:42:46.511
52.0, 17885.217712547506, -27605.32082382689, -42978.56008750917, -28422.299435412817, -25137.665884216534, 6457.687194071674, -37695.83704421962, 14093.445431404762, 4446.700745427697, -13560.06575346777, -34819.27929154388, -5494.304656303484, -36720.16104700101, -19592.756878466236, -18203.439498357715, 7544.227843788606, -0.13038679015636445, 0.9579632889032365, -0.18142863965034484, 192.0, 0.0, 0.0, 0.0, 0.0, 0.0, 0.0, 0.0, 0.0, 0.0, 1.741808566511176E9, 0.0, 2025-03-12 14:42:46.511
54.0, 17944.94157373209, -27604.3149953264, -42969.26176181576, -28374.310240067272, -25125.908866633043, 6485.604522896353, -37690.18205287243, 14098.094594251466, 4442.297451770002, -13557.562358088775, -34817.28998628735, -5490.929542890733, -36714.28253820926, -19587.05718363013, -18196.286940132017, 7548.005288601553, -0.13038679015636445, 0.9579632889032365, -0.18142863965034484, 192.0, 0.0, 0.0, 0.0, 0.0, 0.0, 0.0, 0.0, 0.0, 0.0, 1.741808566511191E9, 0.0, 2025-03-12 14:42:46.511
56.0, 17884.837732891767, -27603.622091248286, -42975.81082294117, -28421.226551678963, -25134.44723301497, 6448.411220122722, -37693.08777965162, 14088.393937157864, 4444.286757026524, -13562.122113957657, -34818.3181665323, -5481.474754986139, -36718.93170105597, -19587.526570263693, -18192.822419741442, 7542.6855734211895, -0.13038679015636445, 0.9579632889032365, -0.18142863965034484, 192.0, 0.0, 0.0, 0.0, 0.0, 0.0, 0.0, 0.0, 0.0, 0.0, 1.741808566511206E9, 0.0, 2025-03-12 14:42:46.511
58.0, 17942.281716141908, -27612.875713452784, -42969.082947860115, -28375.09255112321, -25128.881648645598, 6476.574418136409, -37698.496901809805, 14095.16651572782, 4448.421829750756, -13556.623584821653, -34811.63499494016, -5486.727414933135, -36711.80149457473, -19588.197122597354, -18191.54837030749, 7548.742896168577, -0.13038679015636445, 0.9579632889032365, -0.18142863965034484, 192.0, 0.0, 0.0, 0.0, 0.0, 0.0, 0.0, 0.0, 0.0, 0.0, 1.741808566511226E9, 0.0, 2025-03-12 14:42:46.511
60.0, 17883.988366602465, -27594.569634743886, -42965.75253793628, -28420.019557478376, -25125.88651488859, 6445.3713828767995, -37696.30643085318, 14092.484306393184, 4445.359640760379, -13563.597329091708, -34812.50671297392, -5481.295941030496, -36713.79079983125, -19594.992052911766, -18191.88364647432, 7540.249233275561, -0.13019339507818223, 0.9589816444516182, -0.18271431982517242, 192.0, 125.5, 120.0, 15.0, 0.0, 125.0, 32.0, 0.0, 0.0, 0.0, 1.741808566570849E9, 0.0, 2025-03-12 14:42:46.570
62.0, 17922.522774043417, -27599.375259801778, -42966.06546235865, -28386.38018207314, -25125.05950034374, 6456.8154760379175, -37694.920622696955, 14096.21704771722, 4452.556902474988, -13555.461294109977, -34806.628204182176, -5488.448499256194, -36704.47012239339, -19584.73260220678, -18186.340413849404, 7548.9664136131305, -0.13019339507818223, 0.9589816444516182, -0.18271431982517242, 192.0, 0.0, 0.0, 0.0, 0.0, 0.0, 0.0, 0.0, 0.0, 0.0, 1.741808566570873E9, 0.0, 2025-03-12 14:42:46.570
64.0, 17880.300328767342, -27594.435524277156, -42974.24620082929, -28413.42579286406, -25135.944799893477, 6455.809647537429, -37704.93420421293, 14083.811829544526, 4444.443219237712, -13555.774218532351, -34808.10341931623, -5472.042318825998, -36715.0648492652, -19589.091192375567, -18193.64943428629, 7533.96839308362, -0.13019339507818223, 0.9589816444516182, -0.18271431982517242, 192.0, 0.0, 0.0, 0.0, 0.0, 0.0, 0.0, 0.0, 0.0, 0.0, 1.741808566570888E9, 0.0, 2025-03-12 14:42:46.570
66.0, 17919.43823330858, -27597.78828594545, -42963.137383835005, -28392.929243198545, -25121.34911076416, 6450.7134498016185, -37700.06152392167, 14090.182076714287, 4456.826085665952, -13554.321355142756, -34808.59515769424, -5492.18124058023, -36715.80245683223, -19591.996919154753, -18205.451155358693, 7531.196776771161, -0.13019339507818223, 0.9589816444516182, -0.18271431982517242, 192.0, 0.0, 0.0, 0.0, 0.0, 0.0, 0.0, 0.0, 0.0, 0.0, 1.741808566570904E9, 0.0, 2025-03-12 14:42:46.570
68.0, 17890.962110872522, -27583.50552123851, -42958.91290413295, -28408.217836405976, -25119.896247374567, 6449.797028278951, -37698.98864018782, 14091.545533126062, 4460.402364778801, -13551.192110919013, -34788.83621559575, -5466.655548412269, -36704.55952937121, -19583.21268358382, -18198.723280277645, 7532.269660505017, -0.13019339507818223, 0.9589816444516182, -0.18271431982517242, 192.0, 0.0, 0.0, 0.0, 0.0, 0.0, 0.0, 0.0, 0.0, 0.0, 1.741808566570935E9, 0.0, 2025-03-12 14:42:46.570
70.0, 17917.515983285426, -27592.22270157608, -42956.297750031685, -28391.409324575583, -25117.482258973392, 6445.483141599077, -37697.60283203159, 14097.826373318003, 4467.152591604304, -13547.235852150423, -34795.40762846561, -5493.790566181013, -36705.87828229407, -19585.917244662913, -18202.679539046232, 7543.534939710491, -0.12809669753909111, 0.9584908222258091, -0.18735715991258622, 192.0, 126.0, 8.0, 14.5, 120.0, 125.0, 0.0, 0.0, 0.0, 0.0, 1.741808566570951E9, 0.0, 2025-03-12 14:42:46.570
72.0, 17888.34695677125, -27606.99720466104, -42972.52511650624, -28391.968118186967, -25133.173183581017, 6479.457793171143, -37708.8010560037, 14091.299663937052, 4449.919396629261, -13553.96372723147, -34793.21715750899, -5475.439783983205, -36705.274785193775, -19579.994032382256, -18196.018719198553, 7540.718619909123, -0.12809669753909111, 0.9584908222258091, -0.18735715991258622, 192.0, 0.0, 0.0, 0.0, 0.0, 0.0, 0.0, 0.0, 0.0, 0.0, 1.741808566570968E9, 0.0, 2025-03-12 14:42:46.570
74.0, 17899.58988423227, -27596.871864422785, -42961.21513381185, -28405.20035090451, -25122.131421820097, 6449.9534904901375, -37697.73694249832, 14102.78846058708, 4454.5015042426, -13559.81988427876, -34812.08202982927, -5506.173432609253, -36713.3661166866, -19592.131029621487, -18212.581361839933, 7539.176349541706, -0.12809669753909111, 0.9584908222258091, -0.18735715991258622, 192.0, 0.0, 0.0, 0.0, 0.0, 0.0, 0.0, 0.0, 0.0, 0.0, 1.741808566570988E9, 0.0, 2025-03-12 14:42:46.570
76.0, 17894.985424874478, -27592.98266088756, -42961.4386512564, -28389.91175769708, -25119.471564229916, 6479.144868748769, -37692.66309650697, 14107.214105989231, 4456.870789154862, -13551.437980108021, -34794.91589008759, -5473.651644426781, -36701.63145084756, -19577.64709921445, -18192.531847063525, 7546.999460101064, -0.12809669753909111, 0.9584908222258091, -0.18735715991258622, 192.0, 0.0, 0.0, 0.0, 0.0, 0.0, 0.0, 0.0, 0.0, 0.0, 1.741808566631154E9, 0.0, 2025-03-12 14:42:46.631
78.0, 17878.623947933193, -27614.775611731486, -42976.436671785916, -28417.784383032846, -25130.893305646576, 6459.251816183546, -37704.46481757937, 14094.585370371982, 4451.64048095232, -13563.932605258538, -34820.06160259982, -5508.833290199434, -36717.523541155286, -19595.282625589683, -18209.206248427185, 7544.7419339110775, -0.12809669753909111, 0.9584908222258091, -0.18735715991258622, 192.0, 0.0, 0.0, 0.0, 0.0, 0.0, 0.0, 0.0, 0.0, 0.0, 1.741808566631209E9, 0.0, 2025-03-12 14:42:46.631
80.0, 17876.09820080974, -27611.199332618635, -42974.71558746286, -28398.316013612275, -25128.054634100754, 6485.403357196255, -37703.07900942314, 14093.55719012704, 4432.887367354318, -13573.20857920749, -34818.74284967695, -5490.70602544618, -36719.53519815626, -19587.347756308052, -18210.904981005788, 7534.9965733285635, -0.12904834876954557, 0.9582454111129046, -0.18967857995629311, 192.0, 125.5, 120.0, 14.5, 120.0, 125.0, 0.0, 0.0, 0.0, 0.0, 1.741808566631234E9, 0.0, 2025-03-12 14:42:46.631
82.0, 17864.899976837634, -27600.626957491277, -42960.16460182245, -28430.18960120554, -25114.062442071732, 6430.775693747484, -37689.93618368342, 14101.581466386495, 4451.416963507768, -13559.73047730094, -34823.190846823556, -5512.387217567828, -36717.14356149954, -19583.860884173024, -18216.51526886407, 7545.814817644932, -0.12904834876954557, 0.9582454111129046, -0.18967857995629311, 192.0, 0.0, 0.0, 0.0, 0.0, 0.0, 0.0, 0.0, 0.0, 0.0, 1.741808566631251E9, 0.0, 2025-03-12 14:42:46.631
84.0, 17878.556892699828, -27610.4170215627, -42969.88761066051, -28392.325746098253, -25113.436593226983, 6476.820287325417, -37694.004201174284, 14102.07320476451, 4446.790152405519, -13556.914157499572, -34803.74482914744, -5479.9548363631775, -36695.909404267004, -19578.116485848008, -18197.60569305488, 7548.273509535016, -0.12904834876954557, 0.9582454111129046, -0.18967857995629311, 192.0, 0.0, 0.0, 0.0, 0.0, 0.0, 0.0, 0.0, 0.0, 0.0, 1.741808566631266E9, 0.0, 2025-03-12 14:42:46.631
86.0, 17846.638601617648, -27595.217835333093, -42964.7914129247, -28430.502525627915, -25114.196552538462, 6429.747513502541, -37689.77972147223, 14099.681568107793, 4447.930091372739, -13561.58567209073, -34821.022727611395, -5509.772063466557, -36709.27574745128, -19588.68886097537, -18208.26747516006, 7544.384305999793, -0.12904834876954557, 0.9582454111129046, -0.18967857995629311, 192.0, 0.0, 0.0, 0.0, 0.0, 0.0, 0.0, 0.0, 0.0, 0.0, 1.741808566631281E9, 0.0, 2025-03-12 14:42:46.631
88.0, 17880.233273533973, -27617.100193154838, -42974.894401418496, -28382.625089004647, -25122.489049731383, 6492.287694488489, -37703.861320479074, 14096.954655284246, 4448.958271617684, -13561.831541279738, -34798.62627966717, -5479.530153218527, -36702.614927603594, -19576.618918969503, -18196.465754087658, 7546.887701378787, -0.12904834876954557, 0.9582454111129046, -0.18967857995629311, 192.0, 0.0, 0.0, 0.0, 0.0, 0.0, 0.0, 0.0, 0.0, 0.0, 1.741808566631296E9, 0.0, 2025-03-12 14:42:46.631
90.0, 17832.959334011, -27611.691070996654, -42973.352131051084, -28440.806679821813, -25124.992445110376, 6438.375286862289, -37707.638765292024, 14085.488210378673, 4440.911643613773, -13579.154143232601, -34829.963425393515, -5515.404703069295, -36720.13869525656, -19596.51197153473, -18222.147908466806, 7532.671991905212, -0.1285241743847728, 0.9571227055564524, -0.18983928997814656, 192.0, 126.0, 0.0, 14.5, 112.0, 125.0, 8.0, 0.0, 0.0, 0.0, 1.74180856669145E9, 0.0, 2025-03-12 14:42:46.691
92.0, 17892.7726021734, -27606.907797683216, -42959.69521518889, -28383.317993082765, -25114.64358742757, 6487.169145008224, -37697.17814888694, 14097.55815238454, 4455.350870531902, -13563.507922113888, -34802.3143175023, -5489.476679501138, -36695.440017633446, -19579.39053528196, -18207.373405381848, 7548.318213023927, -0.1285241743847728, 0.9571227055564524, -0.18983928997814656, 192.0, 0.0, 0.0, 0.0, 0.0, 0.0, 0.0, 0.0, 0.0, 0.0, 1.741808566691472E9, 0.0, 2025-03-12 14:42:46.691
94.0, 17828.33252290875, -27610.215855862603, -42972.90509616198, -28431.62011285068, -25131.16152658004, 6444.9019962432385, -37707.03526819173, 14086.337576667975, 4446.5666349609655, -13568.671175083064, -34821.84974215624, -5502.932429663233, -36712.628509119575, -19585.380802795986, -18220.22565844365, 7540.450398975659, -0.1285241743847728, 0.9571227055564524, -0.18983928997814656, 192.0, 0.0, 0.0, 0.0, 0.0, 0.0, 0.0, 0.0, 0.0, 0.0, 1.741808566691488E9, 0.0, 2025-03-12 14:42:46.691
96.0, 17882.356689257227, -27603.599739503832, -42961.483354745316, -28380.27815583684, -25117.30344501775, 6483.883438573294, -37696.08291340863, 14095.747661083658, 4443.817370392963, -13565.653689581597, -34816.88765488716, -5488.090871344909, -36709.29809919573, -19584.77730569569, -18218.169297953762, 7536.53884369598, -0.1285241743847728, 0.9571227055564524, -0.18983928997814656, 192.0, 0.0, 0.0, 0.0, 0.0, 0.0, 0.0, 0.0, 0.0, 0.0, 1.741808566691514E9, 0.0, 2025-03-12 14:42:46.691
98.0, 17816.53080183635, -27603.867960437296, -42973.843869429096, -28429.854325038712, -25129.30633179025, 6449.3052899009335, -37705.09066642412, 14088.706861580236, 4457.027251366049, -13553.092009197713, -34814.13839031916, -5486.794470166501, -36704.60423286012, -19578.921148648402, -18216.738786308622, 7545.9712798561195, -0.1285241743847728, 0.9571227055564524, -0.18983928997814656, 192.0, 0.0, 0.0, 0.0, 0.0, 0.0, 0.0, 0.0, 0.0, 0.0, 1.74180856669153E9, 0.0, 2025-03-12 14:42:46.691
100.0, 17871.270224007396, -27606.55016977193, -42963.65147395748, -28379.697010481003, -25117.30344501775, 6486.073909529914, -37699.525082054744, 14090.562056370027, 4446.365469260868, -13565.944262259516, -34813.825465896785, -5488.917885889756, -36712.40499167502, -19588.532398764182, -18224.494841634612, 7540.606861186846, -0.1302620871923864, 0.9595613527782262, -0.18591964498907326, 192.0, 125.5, 112.0, 15.0, 8.0, 125.0, 40.0, 0.0, 0.0, 0.0, 1.741808566691545E9, 0.0, 2025-03-12 14:42:46.691
102.0, 17824.57742984026, -27600.336384813356, -42964.70200594688, -28425.786307547845, -25118.44338398497, 6442.398600864244, -37697.93810819842, 14092.707823837736, 4460.335309545435, -13552.890843497617, -34809.913910617106, -5479.261932285062, -36705.632413105064, -19579.278776559684, -18215.21886768566, 7554.375535771315, -0.1302620871923864, 0.9595613527782262, -0.18591964498907326, 192.0, 0.0, 0.0, 0.0, 0.0, 0.0, 0.0, 0.0, 0.0, 0.0, 1.741808566691566E9, 0.0, 2025-03-12 14:42:46.691
104.0, 17879.96505260051, -27605.521989526987, -42967.36186353706, -28379.987583158923, -25116.54348570627, 6481.402394938755, -37701.04500067771, 14093.154858726843, 4449.807637906985, -13562.077410468748, -34814.89834963064, -5484.8945718878, -36713.09789575313, -19580.10579110453, -18221.924391022254, 7543.758457155044, -0.1302620871923864, 0.9595613527782262, -0.18591964498907326, 192.0, 0.0, 0.0, 0.0, 0.0, 0.0, 0.0, 0.0, 0.0, 0.0, 1.74180856669158E9, 0.0, 2025-03-12 14:42:46.691
106.0, 17812.52983957885, -27598.570597001388, -42968.77002343774, -28430.10019422772, -25117.102279317653, 6442.599766564342, -37698.340439598614, 14093.601893615949, 4450.299376285002, -13562.479741868943, -34817.468800243, -5483.017025353554, -36714.55075914273, -19580.30695680463, -18223.64547534531, 7542.551462954458, -0.1302620871923864, 0.9595613527782262, -0.18591964498907326, 192.0, 0.0, 0.0, 0.0, 0.0, 0.0, 0.0, 0.0, 0.0, 0.0, 1.74180856675024E9, 0.0, 2025-03-12 14:42:46.750
108.0, 17861.524863424882, -27605.343175571346, -42966.445442014396, -28390.872882708656, -25109.279168758294, 6467.23138895409, -37700.68737276642, 14099.79332683007, 4457.295472299513, -13554.231948164934, -34809.04219258335, -5489.767252179057, -36707.44290440594, -19577.915320147913, -18223.064329989473, 7547.133570567796, -0.1302620871923864, 0.9595613527782262, -0.18591964498907326, 192.0, 0.0, 0.0, 0.0, 0.0, 0.0, 0.0, 0.0, 0.0, 0.0, 1.741808566750262E9, 0.0, 2025-03-12 14:42:46.750
110.0, 17803.633845285636, -27600.135219113257, -42978.20245959789, -28424.04287148033, -25126.087680588687, 6450.758153290529, -37704.55422455719, 14086.047003990056, 4454.188579820226, -13556.556529588286, -34808.572805949785, -5479.865429385356, -36714.19313123145, -19584.799657440148, -18221.253838688594, 7537.25409951855, -0.1311310435961932, 0.959780676389113, -0.18095982249453663, 192.0, 125.5, 112.0, 15.0, 0.0, 125.0, 64.0, 0.0, 0.0, 0.0, 1.741808566750277E9, 0.0, 2025-03-12 14:42:46.750
112.0, 17853.768808098892, -27608.159495372714, -42969.59703798259, -28393.689202510024, -25117.370500251116, 6464.370365663811, -37697.98281168733, 14095.45708840574, 4455.753201932097, -13553.740209786918, -34816.28415778687, -5497.143327849309, -36711.24270096335, -19588.197122597354, -18229.635742859333, 7536.069457062418, -0.1311310435961932, 0.959780676389113, -0.18095982249453663, 192.0, 0.0, 0.0, 0.0, 0.0, 0.0, 0.0, 0.0, 0.0, 0.0, 1.741808566750302E9, 0.0, 2025-03-12 14:42:46.750
114.0, 17805.444336586515, -27605.969024416096, -42981.35405556608, -28421.897104012623, -25127.07115734472, 6451.965147491115, -37707.5493583142, 14083.275387677597, 4445.40434424929, -13564.916082014572, -34813.89252113015, -5485.140441076808, -36718.35055570013, -19593.516837777715, -18224.02545500105, 7534.102503550352, -0.1311310435961932, 0.959780676389113, -0.18095982249453663, 192.0, 0.0, 0.0, 0.0, 0.0, 0.0, 0.0, 0.0, 0.0, 0.0, 1.741808566750317E9, 0.0, 2025-03-12 14:42:46.750
116.0, 17842.257659704406, -27602.057469136416, -42965.663130958455, -28400.37237410216, -25114.95651184994, 6444.253795654035, -37695.635878519526, 14094.719480838714, 4456.155533332292, -13555.975384232448, -34819.86043689972, -5506.37459830935, -36717.3670789441, -19587.43716328587, -18234.41901617277, 7538.505797208047, -0.1311310435961932, 0.959780676389113, -0.18095982249453663, 192.0, 0.0, 0.0, 0.0, 0.0, 0.0, 0.0, 0.0, 0.0, 0.0, 1.741808566750332E9, 0.0, 2025-03-12 14:42:46.750
118.0, 17806.204295898, -27601.811599947407, -42965.797241425185, -28405.37916486015, -25118.64454968507, 6462.314005173923, -37697.289907609214, 14089.176248213798, 4445.694916927208, -13565.49722737041, -34808.59515769424, -5475.775060150035, -36715.93656729896, -19581.513951005218, -18217.118765964362, 7541.8585588763435, -0.1311310435961932, 0.959780676389113, -0.18095982249453663, 192.0, 0.0, 0.0, 0.0, 0.0, 0.0, 0.0, 0.0, 0.0, 0.0, 1.74180856675035E9, 0.0, 2025-03-12 14:42:46.750
120.0, 17837.63084860216, -27582.6114514603, -42948.49699121678, -28391.543435042317, -25100.852561098643, 6451.272243413001, -37682.22483184634, 14099.592161129971, 4468.448992782712, -13549.739247529418, -34810.71857341749, -5493.522345247548, -36711.287404452254, -19577.11065734752, -18216.89524851981, 7548.564082212935, -0.1305655217980966, 0.9578903381945565, -0.1784799112472683, 192.0, 125.5, 120.0, 14.5, 112.0, 125.0, 64.0, 0.0, 0.0, 0.0, 1.741808566810526E9, 0.0, 2025-03-12 14:42:46.810
122.0, 17817.067243703277, -27579.236338047547, -42951.49212497379, -28384.61439426117, -25101.791334365767, 6471.23235121159, -37681.35311381258, 14099.815678574525, 4474.238094596636, -13537.266974123357, -34786.53398591685, -5454.764420362047, -36694.88122402206, -19568.572290965592, -18195.616387798356, 7557.080096850407, -0.1305655217980966, 0.9578903381945565, -0.1784799112472683, 192.0, 0.0, 0.0, 0.0, 0.0, 0.0, 0.0, 0.0, 0.0, 0.0, 1.741808566810587E9, 0.0, 2025-03-12 14:42:46.810
124.0, 17821.62699957216, -27581.18093981516, -42951.06744182914, -28388.436542563028, -25099.39969770905, 6451.696926557652, -37684.77293071424, 14104.464841421228, 4475.4450887972225, -13540.619735791654, -34801.48730295745, -5486.101566088387, -36704.939509026946, -19570.427485755383, -18208.08866120442, 7555.023736360519, -0.1305655217980966, 0.9578903381945565, -0.1784799112472683, 192.0, 0.0, 0.0, 0.0, 0.0, 0.0, 0.0, 0.0, 0.0, 0.0, 1.741808566810612E9, 0.0, 2025-03-12 14:42:46.810
126.0, 17811.166383167074, -27594.234358577058, -42962.310369290164, -28373.505577266882, -25112.72133740441, 6495.819270112428, -37695.99350643081, 14103.146088498366, 4463.330443302446, -13547.749942272896, -34794.245337753935, -5463.302786743973, -36704.1124944821, -19565.375991508485, -18202.232504157128, 7548.698192679667, -0.1305655217980966, 0.9578903381945565, -0.1784799112472683, 192.0, 0.0, 0.0, 0.0, 0.0, 0.0, 0.0, 0.0, 0.0, 0.0, 1.741808566810628E9, 0.0, 2025-03-12 14:42:46.810
128.0, 17806.42781334255, -27579.12457932527, -42943.9372353479, -28393.71155425448, -25107.15575303504, 6452.814513780417, -37687.03045690423, 14108.108175767444, 4468.381937549346, -13549.918061485061, -34811.724401917985, -5499.378502294839, -36708.3146224397, -19578.138837592465, -18213.117803706864, 7554.911977638242, -0.1305655217980966, 0.9578903381945565, -0.1784799112472683, 192.0, 0.0, 0.0, 0.0, 0.0, 0.0, 0.0, 0.0, 0.0, 0.0, 1.741808566810642E9, 0.0, 2025-03-12 14:42:46.810
130.0, 17830.522993865372, -27579.236338047547, -42944.473677214824, -28348.918658366045, -25111.939026348475, 6499.395549225277, -37689.01976216075, 14112.757338614147, 4484.274027857069, -13527.141633885103, -34777.99561953493, -5449.26589122604, -36692.08725596515, -19544.320648231584, -18189.51436156206, 7571.698137724178, -0.1302827608990483, 0.9579451690972782, -0.17723995562363415, 192.0, 125.5, 120.0, 14.5, 120.0, 125.0, 64.0, 0.0, 0.0, 0.0, 1.741808566810657E9, 0.0, 2025-03-12 14:42:46.810
132.0, 17795.296644603808, -27596.17896034467, -42959.56110472216, -28397.53370255634, -25119.717433418922, 6461.978729007093, -37702.02847743374, 14094.942998283268, 4476.942655675728, -13538.697485768496, -34809.53393096136, -5481.899438130789, -36713.74609634234, -19569.95809912182, -18210.167373438762, 7549.346393268871, -0.1302827608990483, 0.9579451690972782, -0.17723995562363415, 192.0, 0.0, 0.0, 0.0, 0.0, 0.0, 0.0, 0.0, 0.0, 0.0, 1.741808566810673E9, 0.0, 2025-03-12 14:42:46.810
134.0, 17816.553153580804, -27601.208102847115, -42954.66607268644, -28374.37729530064, -25110.508514703335, 6492.377101466311, -37694.51829129676, 14097.133469239889, 4457.429582766245, -13552.622622564153, -34803.118980302694, -5468.957778091166, -36709.54396838474, -19580.798695182646, -18209.206248427185, 7539.422218730715, -0.1302827608990483, 0.9579451690972782, -0.17723995562363415, 192.0, 0.0, 0.0, 0.0, 0.0, 0.0, 0.0, 0.0, 0.0, 0.0, 1.741808566810692E9, 0.0, 2025-03-12 14:42:46.810
136.0, 17782.310281075275, -27591.55214924242, -42950.12866856202, -28418.410231877595, -25103.154790777542, 6439.537577573965, -37686.15873887047, 14099.88273380789, 4463.97864389165, -13553.829616764739, -34819.72632643298, -5493.030606869532, -36712.58380563066, -19581.960985894322, -18222.70670207819, 7546.664183934234, -0.1302827608990483, 0.9579451690972782, -0.17723995562363415, 192.0, 0.0, 0.0, 0.0, 0.0, 0.0, 0.0, 0.0, 0.0, 0.0, 1.741808566871292E9, 0.0, 2025-03-12 14:42:46.871
138.0, 17828.936020009045, -27590.769838186487, -42950.08396507311, -28371.51627201036, -25104.630005911593, 6485.04572928497, -37686.91869818195, 14102.162611742331, 4469.968911405672, -13542.810206748272, -34802.627241924674, -5467.46021121266, -36700.49151188034, -19566.560633964615, -18210.815574027965, 7553.146189826273, -0.1302827608990483, 0.9579451690972782, -0.17723995562363415, 192.0, 0.0, 0.0, 0.0, 0.0, 0.0, 0.0, 0.0, 0.0, 0.0, 1.74180856687131E9, 0.0, 2025-03-12 14:42:46.871
140.0, 17777.392897295107, -27590.03223061946, -42952.676767429926, -28418.253769666408, -25111.06730831472, 6440.65516479673, -37692.484282551326, 14092.663120348827, 4474.260446341092, -13547.30290738379, -34818.40757351012, -5495.176374337241, -36707.7111253394, -19580.776343438192, -18227.065292246974, 7543.892567621776, -0.13114138044952417, 0.9569725845486392, -0.17761997781181707, 192.0, 125.5, 112.0, 14.5, 112.0, 125.0, 56.0, 0.0, 0.0, 0.0, 1.741808566871332E9, 0.0, 2025-03-12 14:42:46.871
142.0, 17826.96906649698, -27591.395687031232, -42949.88279937301, -28370.532795254327, -25106.440497212472, 6488.130270019802, -37696.12761689754, 14098.519277396117, 4468.381937549346, -13543.123131170647, -34803.94599484754, -5475.193914794197, -36703.44194214844, -19574.67431720189, -18222.304370677994, 7539.645736175268, -0.13114138044952417, 0.9569725845486392, -0.17761997781181707, 192.0, 0.0, 0.0, 0.0, 0.0, 0.0, 0.0, 0.0, 0.0, 0.0, 1.74180856687135E9, 0.0, 2025-03-12 14:42:46.871
144.0, 17769.525083246837, -27582.767913671487, -42949.21224703935, -28418.231417921954, -25111.29082575927, 6436.9224234726935, -37695.41236107497, 14092.573713371004, 4473.902818429807, -13541.849081736695, -34815.926529875585, -5487.04033935551, -36707.867587550594, -19574.0708201016, -18227.22175445816, 7543.557291454947, -0.13114138044952417, 0.9569725845486392, -0.17761997781181707, 192.0, 0.0, 0.0, 0.0, 0.0, 0.0, 0.0, 0.0, 0.0, 0.0, 1.741808566871365E9, 0.0, 2025-03-12 14:42:46.871
146.0, 17809.557057566293, -27594.971966144083, -42949.48046797281, -28364.18489982902, -25107.513380946326, 6491.617142154831, -37694.18301512993, 14097.491097151173, 4462.16815259077, -13550.052171951793, -34807.254053026925, -5481.117127074853, -36709.8121893182, -19577.423581769894, -18222.058501488984, 7542.126779809807, -0.13114138044952417, 0.9569725845486392, -0.17761997781181707, 192.0, 0.0, 0.0, 0.0, 0.0, 0.0, 0.0, 0.0, 0.0, 0.0, 1.741808566871385E9, 0.0, 2025-03-12 14:42:46.871
148.0, 17740.959553832956, -27594.010841132505, -42958.93525587741, -28422.14297320163, -25115.761174650335, 6445.0808101988805, -37697.647535520504, 14094.719480838714, 4461.251731068102, -13551.594442319209, -34819.50280898843, -5496.517479004559, -36716.808285332714, -19582.944462650357, -18227.668789347266, 7547.3794397568045, -0.13114138044952417, 0.9569725845486392, -0.17761997781181707, 192.0, 0.0, 0.0, 0.0, 0.0, 0.0, 0.0, 0.0, 0.0, 0.0, 1.741808566871399E9, 0.0, 2025-03-12 14:42:46.871
150.0, 17790.37926082364, -27604.18088485967, -42957.54944772118, -28374.064370878266, -25110.24029376987, 6485.3810054518, -37696.70876225338, 14098.854553562947, 4452.35573677489, -13557.87528251115, -34824.80017242434, -5502.060711629476, -36718.641128378054, -19583.25738707273, -18225.94770502421, 7548.318213023927, -0.12857069022476209, 0.9574862922743197, -0.17680998890590854, 192.0, 126.0, 8.0, 14.5, 120.0, 125.0, 64.0, 0.0, 0.0, 0.0, 1.741808566931196E9, 0.0, 2025-03-12 14:42:46.931
152.0, 17729.51546067184, -27600.82812319137, -42960.49987798928, -28421.852400523712, -25119.963302607932, 6448.299461400445, -37698.78747448772, 14091.389070914875, 4451.97575711915, -13562.613852335675, -34826.00716662493, -5501.27840057354, -36723.75967785832, -19587.481866774782, -18226.975885269152, 7546.127742067307, -0.12857069022476209, 0.9574862922743197, -0.17680998890590854, 192.0, 0.0, 0.0, 0.0, 0.0, 0.0, 0.0, 0.0, 0.0, 0.0, 1.741808566931214E9, 0.0, 2025-03-12 14:42:46.931
154.0, 17792.323862591253, -27601.02928889147, -42948.72050866133, -28371.85154817719, -25108.698023402456, 6478.541371648475, -37690.53968078371, 14104.286027465587, 4457.206065321692, -13554.67898305404, -34817.312338031814, -5498.529136005537, -36712.5167503973, -19577.177712580888, -18222.751405567098, 7552.185064814695, -0.12857069022476209, 0.9574862922743197, -0.17680998890590854, 192.0, 0.0, 0.0, 0.0, 0.0, 0.0, 0.0, 0.0, 0.0, 0.0, 1.741808566931229E9, 0.0, 2025-03-12 14:42:46.931
156.0, 17737.69619914248, -27592.110942853804, -42949.97220635083, -28416.331519643252, -25114.73299440539, 6446.9583567331265, -37689.08681739412, 14099.525105896606, 4458.346004288913, -13555.863625510172, -34814.585425208264, -5487.666188200258, -36723.49145692485, -19578.228244570284, -18223.13138522284, 7549.033468846496, -0.12857069022476209, 0.9574862922743197, -0.17680998890590854, 192.0, 0.0, 0.0, 0.0, 0.0, 0.0, 0.0, 0.0, 0.0, 0.0, 1.741808566931254E9, 0.0, 2025-03-12 14:42:46.931
158.0, 17793.933188192033, -27598.145913856737, -42942.372613236024, -28371.024533632342, -25105.993462323364, 6475.94856929166, -37687.3433813266, 14108.778728101102, 4461.83287642394, -13545.201843404991, -34812.26084378491, -5488.962589378666, -36713.92491029798, -19564.63838394146, -18224.405434656794, 7557.057745105952, -0.12857069022476209, 0.9574862922743197, -0.17680998890590854, 192.0, 0.0, 0.0, 0.0, 0.0, 0.0, 0.0, 0.0, 0.0, 0.0, 1.741808566931269E9, 0.0, 2025-03-12 14:42:46.931
160.0, 17739.014952065343, -27586.88063465126, -42945.85948537105, -28405.826199749255, -25115.02356708331, 6458.625967338797, -37692.350172084596, 14100.732100097192, 4461.1846758347365, -13547.124093428147, -34810.383297250664, -5475.752708405579, -36710.393334674045, -19568.885215387967, -18223.26549568957, 7554.464942749137, -0.12828534511238104, 0.9597431461371598, -0.17440499445295427, 192.0, 126.0, 0.0, 15.0, 8.0, 125.0, 80.0, 0.0, 0.0, 0.0, 1.741808566931284E9, 0.0, 2025-03-12 14:42:46.931
162.0, 17786.490057288418, -27586.32184103988, -42936.73997363329, -28374.064370878266, -25104.71941288941, 6470.003005266548, -37685.08585513662, 14110.030425790601, 4468.136068360337, -13543.413703848566, -34806.829369882274, -5488.247333556096, -36709.02987826227, -19568.371125265494, -18231.28977194903, 7559.359974784848, -0.12828534511238104, 0.9597431461371598, -0.17440499445295427, 192.0, 0.0, 0.0, 0.0, 0.0, 0.0, 0.0, 0.0, 0.0, 0.0, 1.741808566931304E9, 0.0, 2025-03-12 14:42:46.931
164.0, 17749.386161492606, -27583.192596816138, -42936.44940095537, -28394.873844966158, -25108.809782124732, 6456.010813237526, -37684.81763420315, 14105.31420771053, 4475.355681819401, -13541.424398592044, -34793.91006158711, -5468.8907228578, -36700.42445664698, -19565.532453719672, -18221.633818344333, 7562.06453586394, -0.12828534511238104, 0.9597431461371598, -0.17440499445295427, 192.0, 0.0, 0.0, 0.0, 0.0, 0.0, 0.0, 0.0, 0.0, 0.0, 1.74180856693132E9, 0.0, 2025-03-12 14:42:46.931
166.0, 17791.98858642442, -27595.642518477744, -42938.77398237872, -28376.52306276835, -25110.977901336897, 6465.175028464202, -37692.50663429578, 14100.93326579729, 4479.334292332446, -13542.184357903525, -34801.2637855129, -5490.437804512716, -36700.178587457965, -19569.689878188357, -18231.066254504472, 7557.7730009285215, -0.12828534511238104, 0.9597431461371598, -0.17440499445295427, 192.0, 0.0, 0.0, 0.0, 0.0, 0.0, 0.0, 0.0, 0.0, 0.0, 1.741808566991494E9, 0.0, 2025-03-12 14:42:46.991
168.0, 17759.08681858621, -27603.577387759375, -42955.22486629783, -28400.707650268992, -25124.746575921366, 6475.769755336018, -37708.823407748154, 14086.985777257178, 4457.898969399806, -13564.670212825564, -34806.85172162673, -5483.8440398984, -36709.052230006724, -19584.15145685094, -18236.743597596123, 7538.036410574486, -0.12828534511238104, 0.9597431461371598, -0.17440499445295427, 192.0, 0.0, 0.0, 0.0, 0.0, 0.0, 0.0, 0.0, 0.0, 0.0, 1.741808566991511E9, 0.0, 2025-03-12 14:42:46.991
170.0, 17794.536685292325, -27594.36846904379, -42948.56404645015, -28400.841760735722, -25117.146982806564, 6456.033164981981, -37700.39680008851, 14091.232608703687, 4452.892178641818, -13569.565244861275, -34823.59317822375, -5516.56699378097, -36726.97832905988, -19592.756878466236, -18248.478263435158, 7534.840111117377, -0.12814267255619052, 0.9638715730685798, -0.17720249722647713, 192.0, 126.0, 0.0, 15.0, 32.0, 125.0, 48.0, 0.0, 0.0, 0.0, 1.741808566991526E9, 0.0, 2025-03-12 14:42:46.991
172.0, 17786.691222988513, -27587.975870129572, -42954.73312791981, -28402.451086336507, -25123.561933465237, 6475.456830913643, -37697.62518377604, 14092.663120348827, 4461.83287642394, -13565.340765159222, -34804.102457058725, -5481.9441416197, -36711.93560504146, -19583.950291150846, -18223.64547534531, 7545.814817644932, -0.12814267255619052, 0.9638715730685798, -0.17720249722647713, 192.0, 0.0, 0.0, 0.0, 0.0, 0.0, 0.0, 0.0, 0.0, 0.0, 1.741808566991542E9, 0.0, 2025-03-12 14:42:46.991
174.0, 17812.23926690093, -27586.008916617506, -42951.7379941628, -28401.445257836018, -25114.35301474965, 6452.792162035962, -37693.28894535171, 14103.235495476187, 4477.769670220575, -13556.623584821653, -34816.59708220924, -5506.061673886976, -36711.287404452254, -19580.709288204824, -18229.61339111488, 7555.850750905365, -0.12814267255619052, 0.9638715730685798, -0.17720249722647713, 192.0, 0.0, 0.0, 0.0, 0.0, 0.0, 0.0, 0.0, 0.0, 0.0, 1.741808566991557E9, 0.0, 2025-03-12 14:42:46.991
176.0, 17827.036121730343, -27580.398628759223, -42953.39202325249, -28385.7990367173, -25112.184895537484, 6477.0661565144255, -37687.87982319353, 14105.73889085518, 4470.684167228243, -13558.165855189069, -34804.34832624773, -5474.210438038163, -36703.21842470389, -19573.087343345564, -18211.731995550632, 7561.5280939970135, -0.12814267255619052, 0.9638715730685798, -0.17720249722647713, 192.0, 0.0, 0.0, 0.0, 0.0, 0.0, 0.0, 0.0, 0.0, 0.0, 1.741808566991572E9, 0.0, 2025-03-12 14:42:46.991
178.0, 17839.9107265366, -27574.184843800645, -42947.24529352728, -28399.724173512957, -25103.579473922193, 6441.571586319397, -37680.54845101219, 14112.958504314245, 4488.520859303577, -13545.403009105088, -34809.6680414281, -5496.85275517139, -36704.35836367111, -19568.706401432326, -18209.921504249753, 7576.526114526524, -0.12814267255619052, 0.9638715730685798, -0.17720249722647713, 192.0, 0.0, 0.0, 0.0, 0.0, 0.0, 0.0, 0.0, 0.0, 0.0, 1.741808566991597E9, 0.0, 2025-03-12 14:42:46.991
180.0, 17869.638546662158, -27574.877747878763, -42949.94985460638, -28371.695085966003, -25105.613482667624, 6480.597732138363, -37684.3929510585, 14111.617399646926, 4478.283760343046, -13547.191148661514, -34795.564090676795, -5465.672071656236, -36697.5634333567, -19561.330325762072, -18194.27528313104, 7577.464887793647, -0.12907133627809525, 0.9659357865342899, -0.17660124861323856, 192.0, 125.5, 120.0, 15.0, 32.0, 125.0, 64.0, 0.0, 0.0, 0.0, 1.741808567053143E9, 0.0, 2025-03-12 14:42:47.053
182.0, 17861.86013959171, -27567.36756174178, -42941.59030218009, -28402.026403191856, -25099.176180264498, 6437.302403128434, -37679.87789867853, 14114.232553748197, 4490.711330260197, -13543.950145715493, -34800.92850934607, -5486.503897488582, -36703.665459592994, -19566.582985709072, -18196.108126176372, 7585.489164053102, -0.12907133627809525, 0.9659357865342899, -0.17660124861323856, 192.0, 0.0, 0.0, 0.0, 0.0, 0.0, 0.0, 0.0, 0.0, 0.0, 1.741808567053162E9, 0.0, 2025-03-12 14:42:47.053
184.0, 17888.81634340481, -27580.197463059125, -42951.00038659578, -28369.146987098098, -25110.843790870167, 6497.629761413308, -37693.91479419646, 14106.007111788645, 4481.1447836333255, -13549.135750429125, -34788.90327082912, -5461.64875765428, -36696.98228800086, -19558.469302471793, -18182.92059694774, 7575.475582537125, -0.12907133627809525, 0.9659357865342899, -0.17660124861323856, 192.0, 0.0, 0.0, 0.0, 0.0, 0.0, 0.0, 0.0, 0.0, 0.0, 1.741808567053188E9, 0.0, 2025-03-12 14:42:47.053
186.0, 17857.278031978374, -27577.157625813205, -42953.68259593041, -28418.924322000068, -25114.911808361034, 6450.0652492124145, -37691.7466749843, 14101.31324545303, 4479.356644076901, -13548.979288217937, -34810.36094550621, -5494.125842347842, -36709.29809919573, -19572.72971543428, -18197.78450701052, 7570.178219101217, -0.12907133627809525, 0.9659357865342899, -0.17660124861323856, 192.0, 0.0, 0.0, 0.0, 0.0, 0.0, 0.0, 0.0, 0.0, 0.0, 1.741808567053203E9, 0.0, 2025-03-12 14:42:47.053
188.0, 17903.076756367296, -27576.46472173509, -42951.29095927369, -28369.035228375822, -25109.949721091954, 6488.71141537564, -37686.8963464375, 14107.705844367249, 4475.825068452963, -13553.695506298007, -34796.14523603264, -5469.471868213638, -36702.36905841459, -19564.370163007996, -18185.40164058228, 7571.5640272574465, -0.12907133627809525, 0.9659357865342899, -0.17660124861323856, 192.0, 0.0, 0.0, 0.0, 0.0, 0.0, 0.0, 0.0, 0.0, 0.0, 1.741808567053224E9, 0.0, 2025-03-12 14:42:47.053
190.0, 17858.909709323612, -27568.887480364738, -42950.419241239935, -28412.91170274159, -25108.58626468018, 6429.300478613434, -37679.14029111151, 14109.583390901495, 4488.1855831367475, -13550.230985907434, -34807.522273960385, -5490.013121368065, -36705.05126774922, -19567.052372342634, -18192.509495319067, 7576.056727892963, -0.12653566813904762, 0.9659678932671449, -0.1753006243066193, 192.0, 126.0, 16.0, 15.0, 24.0, 125.0, 72.0, 0.0, 0.0, 0.0, 1.741808567053239E9, 0.0, 2025-03-12 14:42:47.053
192.0, 17906.518925013414, -27578.4093235027, -42952.47560172983, -28352.293771778797, -25106.17227627901, 6488.532601419998, -37680.90607892348, 14116.624190404915, 4489.07965291496, -13541.983192203426, -34785.12582601617, -5464.3980222222835, -36683.72770353886, -19552.747255891234, -18179.947814935185, 7589.735995499611, -0.12653566813904762, 0.9659678932671449, -0.1753006243066193, 192.0, 0.0, 0.0, 0.0, 0.0, 0.0, 0.0, 0.0, 0.0, 0.0, 1.741808567053255E9, 0.0, 2025-03-12 14:42:47.053
194.0, 17857.121569767187, -27565.668829163176, -42950.75451740676, -28407.122600927665, -25103.87004660011, 6441.526882830487, -37675.18403234292, 14115.640713648882, 4486.531554047055, -13548.82282600675, -34802.26961401339, -5484.8945718878, -36702.88314853706, -19565.39834325294, -18191.03428018502, 7587.679635009723, -0.12653566813904762, 0.9659678932671449, -0.1753006243066193, 192.0, 0.0, 0.0, 0.0, 0.0, 0.0, 0.0, 0.0, 0.0, 0.0, 1.74180856705327E9, 0.0, 2025-03-12 14:42:47.053
196.0, 17908.39647154766, -27574.810692645395, -42955.20251455337, -28352.13730956761, -25106.485200701383, 6498.367368980333, -37683.85650919157, 14115.730120626704, 4490.018426182082, -13543.145482915103, -34785.21523299399, -5465.60501642287, -36693.540119354744, -19552.747255891234, -18182.831189969922, 7590.607713533368, -0.12653566813904762, 0.9659678932671449, -0.1753006243066193, 192.0, 0.0, 0.0, 0.0, 0.0, 0.0, 0.0, 0.0, 0.0, 0.0, 1.741808567118199E9, 0.0, 2025-03-12 14:42:47.118
198.0, 17846.415084173095, -27567.88165186425, -42959.13642157751, -28409.87186549567, -25110.620273425615, 6444.723182287596, -37686.33755282612, 14106.945885055768, 4485.078690657459, -13549.336916129223, -34805.60002393723, -5480.2454090410965, -36708.1134567396, -19565.085418830564, -18202.679539046232, 7578.381309316315, -0.12653566813904762, 0.9659678932671449, -0.1753006243066193, 192.0, 0.0, 0.0, 0.0, 0.0, 0.0, 0.0, 0.0, 0.0, 0.0, 1.741808567118216E9, 0.0, 2025-03-12 14:42:47.118
200.0, 17905.848372679757, -27572.84373913333, -42954.464906986344, -28356.60765845867, -25103.53477043328, 6487.258551986045, -37684.7952824587, 14112.399710702863, 4488.431452325756, -13545.224195149445, -34792.4124947086, -5469.740089147102, -36695.95410775591, -19559.072799572088, -18191.21309414066, 7580.817649461944, -0.1252678340695238, 0.9659839466335725, -0.17465031215330967, 192.0, 126.0, 16.0, 15.0, 24.0, 125.0, 72.0, 0.0, 0.0, 0.0, 1.74180856711824E9, 0.0, 2025-03-12 14:42:47.118
202.0, 17844.62694461667, -27564.372427984767, -42950.21807553984, -28407.99431896142, -25105.702889645447, 6443.270318898001, -37682.71657022436, 14110.388053701885, 4487.336216847446, -13548.465198095466, -34800.14619829014, -5477.496144473093, -36701.60909910311, -19567.58881420956, -18194.007062197576, 7579.990634917097, -0.1252678340695238, 0.9659839466335725, -0.17465031215330967, 192.0, 0.0, 0.0, 0.0, 0.0, 0.0, 0.0, 0.0, 0.0, 0.0, 1.741808567118256E9, 0.0, 2025-03-12 14:42:47.118
204.0, 17891.386794017173, -27575.302431023414, -42948.7875638947, -28359.446330004495, -25105.12174428961, 6485.001025796059, -37683.27536383574, 14113.562001414539, 4487.291513358536, -13544.598346304698, -34796.83814011075, -5477.60790319537, -36693.98715424385, -19558.44695072734, -18189.849637728887, 7584.840963463898, -0.1252678340695238, 0.9659839466335725, -0.17465031215330967, 192.0, 0.0, 0.0, 0.0, 0.0, 0.0, 0.0, 0.0, 0.0, 0.0, 1.741808567118271E9, 0.0, 2025-03-12 14:42:47.118
206.0, 17834.76982531188, -27557.756311625995, -42947.35705224956, -28409.49188583993, -25108.318043746716, 6451.965147491115, -37687.7457127268, 14105.135393754888, 4488.856135470407, -13545.581823060731, -34804.97417509248, -5468.622501924337, -36697.71989556788, -19564.548976963637, -18196.644568043303, 7575.229713348117, -0.1252678340695238, 0.9659839466335725, -0.17465031215330967, 192.0, 0.0, 0.0, 0.0, 0.0, 0.0, 0.0, 0.0, 0.0, 0.0, 1.741808567118289E9, 0.0, 2025-03-12 14:42:47.118
208.0, 17895.25364580794, -27558.471567448567, -42941.970281835835, -28368.297620808797, -25103.69123264447, 6476.037976269481, -37689.71266623887, 14105.940056555279, 4494.444071584234, -13535.210613633468, -34799.207425023014, -5467.683728657214, -36695.32825891117, -19554.893023358945, -18199.349129122395, 7572.748669713577, -0.1252678340695238, 0.9659839466335725, -0.17465031215330967, 192.0, 0.0, 0.0, 0.0, 0.0, 0.0, 0.0, 0.0, 0.0, 0.0, 1.741808567118304E9, 0.0, 2025-03-12 14:42:47.118
210.0, 17844.224613216473, -27559.857375604795, -42946.708851660354, -28407.703746283503, -25113.615407182624, 6449.573510834398, -37694.83121571913, 14096.59702737296, 4490.0631296709935, -13539.233927635423, -34792.81482610879, -5458.832437852912, -36694.098912966125, -19555.317706503596, -18194.83407674242, 7568.077155122418, -0.1266339170347619, 0.9639919733167862, -0.17532515607665483, 192.0, 126.0, 0.0, 15.0, 8.0, 125.0, 64.0, 0.0, 0.0, 0.0, 1.741808567118322E9, 0.0, 2025-03-12 14:42:47.118
212.0, 17890.82800040579, -27568.485148964544, -42954.01787209724, -28379.18292035853, -25122.243180542373, 6470.114763988825, -37703.99543094581, 14094.0265767606, 4484.922228446273, -13539.72566601344, -34800.8614541127, -5479.686615429713, -36702.52552062577, -19558.0669710716, -18203.84182975791, 7567.138381855296, -0.1266339170347619, 0.9639919733167862, -0.17532515607665483, 192.0, 0.0, 0.0, 0.0, 0.0, 0.0, 0.0, 0.0, 0.0, 0.0, 1.741808567173449E9, 0.0, 2025-03-12 14:42:47.173
214.0, 17846.459787662006, -27565.98175358555, -42958.13059307702, -28407.502580583405, -25129.887477146087, 6463.051612740947, -37707.1023234251, 14084.772954556103, 4479.736623732641, -13553.762561531374, -34804.08010531427, -5467.728432146124, -36710.19216897395, -19568.438180498862, -18215.285922919025, 7543.981974599597, -0.1266339170347619, 0.9639919733167862, -0.17532515607665483, 192.0, 0.0, 0.0, 0.0, 0.0, 0.0, 0.0, 0.0, 0.0, 0.0, 1.741808567173465E9, 0.0, 2025-03-12 14:42:47.173
216.0, 17882.289634023862, -27570.295640265424, -42952.520305218735, -28382.15570237109, -25119.046881085265, 6466.627891853797, -37701.067352422164, 14090.405594158841, 4483.290551101035, -13545.671230038552, -34804.14716054763, -5481.675920686236, -36706.57118637219, -19565.934785119865, -18213.16250719577, 7554.241425304584, -0.1266339170347619, 0.9639919733167862, -0.17532515607665483, 192.0, 0.0, 0.0, 0.0, 0.0, 0.0, 0.0, 0.0, 0.0, 0.0, 1.741808567173481E9, 0.0, 2025-03-12 14:42:47.173
