%OpenBCI Raw EXG Data
%Number of channels = 8
%Sample Rate = 250 Hz
%Board = OpenBCI_GUI$BoardCytonSerial
Sample Index, EXG Channel 0, EXG Channel 1, EXG Channel 2, EXG Channel 3, EXG Channel 4, EXG Channel 5, EXG Channel 6, EXG Channel 7, Accel Channel 0, Accel Channel 1, Accel Channel 2, Not Used, Digital Channel 0 (D11), Digital Channel 1 (D12), Digital Channel 2 (D13), Digital Channel 3 (D17), Not Used, Digital Channel 4 (D18), Analog Channel 0, Analog Channel 1, Analog Channel 2, Timestamp, Marker Channel, Timestamp (Formatted)
255.0, -15940.8618141248, -627.4358186049245, -43131.758944005844, -1783.266876133308, -187500.02235174447, -33430.96773993585, -32102.245939045664, -71134.00204587007, 0.0, 0.0, 0.0, 192.0, 0.0, 0.0, 0.0, 0.0, 0.0, 0.0, 0.0, 0.0, 0.0, 1.741023131845345E9, 0.0, 2025-03-03 11:32:11.845
0.0, -15871.325537124341, -546.0978205320622, -43122.01358342333, -1750.7003844619258, -187500.02235174447, -33418.3390043186, -32064.896174060843, -71132.79505166948, 0.0, 0.0, 0.0, 192.0, 0.0, 0.0, 0.0, 0.0, 0.0, 0.0, 0.0, 0.0, 0.0, 1.741023131845395E9, 0.0, 2025-03-03 11:32:11.845
1.0, -15829.170147081632, -490.77725300517716, -43139.246778398374, -1751.2144745843977, -187500.02235174447, -33432.264141114254, -32058.861203057913, -71131.72216793563, 0.0, 0.0, 0.0, 192.0, 0.0, 0.0, 0.0, 0.0, 0.0, 0.0, 0.0, 0.0, 0.0, 1.741023131845417E9, 0.0, 2025-03-03 11:32:11.845
2.0, -15898.393499659718, -575.5127162352462, -43164.124269977125, -1769.9228846934898, -187500.02235174447, -33422.9881671653, -32042.075042971977, -71126.64832194427, 0.0, 0.0, 0.0, 192.0, 0.0, 0.0, 0.0, 0.0, 0.0, 0.0, 0.0, 0.0, 0.0, 1.741023131845453E9, 0.0, 2025-03-03 11:32:11.845
3.0, -15922.19810750462, -615.9917254438074, -43133.2788626288, -1749.7392594503474, -187500.02235174447, -33386.39836149196, -32001.32781282995, -71107.9846153241, 0.0, 0.0, 0.0, 192.0, 0.0, 0.0, 0.0, 0.0, 0.0, 0.0, 0.0, 0.0, 0.0, 1.741023131845475E9, 0.0, 2025-03-03 11:32:11.845
4.0, -15889.408098388685, -577.457318002858, -43131.46837132792, -1747.9958233828336, -187500.02235174447, -33427.391460823, -31988.00617313459, -71124.48020273211, 0.0, 0.0, 0.0, 192.0, 0.0, 0.0, 0.0, 0.0, 0.0, 0.0, 0.0, 0.0, 0.0, 1.741023131845495E9, 0.0, 2025-03-03 11:32:11.845
5.0, -15794.681405387093, -470.86184869549857, -43123.175874135006, -1717.5527474347052, -187500.02235174447, -33414.718021716835, -31950.969332572146, -71132.75034818058, 0.0, 0.0, 0.0, 192.0, 0.0, 0.0, 0.0, 0.0, 0.0, 0.0, 0.0, 0.0, 0.0, 1.741023131845516E9, 0.0, 2025-03-03 11:32:11.845
6.0, -15856.215757872555, -551.5739979236124, -43162.380833909614, -1746.587663482149, -187500.02235174447, -33429.04548991269, -31946.9907220591, -71121.95445560866, 0.0, 0.0, 0.0, 192.0, 0.0, 0.0, 0.0, 0.0, 0.0, 0.0, 0.0, 0.0, 0.0, 1.741023131845536E9, 0.0, 2025-03-03 11:32:11.845
7.0, -15944.661610682204, -652.4474206504132, -43161.84439204269, -1776.0249109297886, -187500.02235174447, -33398.40124826446, -31961.69816991069, -71115.24893227208, -0.006, 0.914, -0.364, 192.0, 255.0, 208.0, 28.0, 144.0, 244.0, 160.0, 0.0, 0.0, 0.0, 1.741023131845557E9, 0.0, 2025-03-03 11:32:11.845
8.0, -15910.038758520934, -610.3814375855253, -43129.09908641566, -1747.3252710491743, -187500.02235174447, -33413.9357106609, -31925.80126831547, -71137.82419417193, -0.006, 0.914, -0.364, 192.0, 0.0, 0.0, 0.0, 0.0, 0.0, 0.0, 0.0, 0.0, 0.0, 1.741023131845581E9, 0.0, 2025-03-03 11:32:11.845
9.0, -15787.417088439119, -479.64608426643423, -43128.31677535972, -1720.3020120027081, -187500.02235174447, -33447.73154827733, -31871.821805455904, -71153.67158099075, -0.006, 0.914, -0.364, 192.0, 0.0, 0.0, 0.0, 0.0, 0.0, 0.0, 0.0, 0.0, 0.0, 1.741023131845606E9, 0.0, 2025-03-03 11:32:11.845
10.0, -15842.268269332442, -544.7120123758331, -43163.364310665645, -1749.8286664281686, -187500.02235174447, -33428.643158512496, -31879.197881126154, -71139.81349942846, -0.006, 0.914, -0.364, 192.0, 0.0, 0.0, 0.0, 0.0, 0.0, 0.0, 0.0, 0.0, 0.0, 1.741023131845627E9, 0.0, 2025-03-03 11:32:11.845
11.0, -15929.194203519131, -648.9158450264747, -43151.54023784879, -1778.3941958420512, -187500.02235174447, -33424.48573404381, -31891.84896848786, -71132.97386562513, -0.006, 0.914, -0.364, 192.0, 0.0, 0.0, 0.0, 0.0, 0.0, 0.0, 0.0, 0.0, 0.0, 1.741023131845654E9, 0.0, 2025-03-03 11:32:11.845
12.0, -15938.447825723628, -656.2248654633601, -43139.91733073203, -1780.4729080763948, -187500.02235174447, -33417.46728628484, -31905.617643072328, -71129.06231034546, -0.006, 0.914, -0.364, 192.0, 0.0, 0.0, 0.0, 0.0, 0.0, 0.0, 0.0, 0.0, 0.0, 1.741023131845674E9, 0.0, 2025-03-03 11:32:11.845
13.0, -15830.444196515584, -533.7373058482774, -43122.57237703471, -1739.8374366566466, -187500.02235174447, -33392.52273947272, -31888.429151586195, -71147.25663033208, -0.006, 0.914, -0.364, 192.0, 0.0, 0.0, 0.0, 0.0, 0.0, 0.0, 0.0, 0.0, 0.0, 1.741023131845694E9, 0.0, 2025-03-03 11:32:11.845
14.0, -15837.70851346356, -547.6624426439337, -43173.646113115086, -1746.587663482149, -187500.02235174447, -33433.71700450385, -31888.049171930455, -71171.62003178836, -0.006, 0.914, -0.364, 192.0, 0.0, 0.0, 0.0, 0.0, 0.0, 0.0, 0.0, 0.0, 0.0, 1.741023131845715E9, 0.0, 2025-03-03 11:32:11.845
15.0, -15931.96581983159, -659.4658684093796, -43185.2913719763, -1777.9918644418556, -187500.02235174447, -33400.36820177653, -31913.64191933178, -71161.33822933891, -0.006, 0.914, -0.364, 192.0, 0.0, 0.0, 0.0, 0.0, 0.0, 0.0, 0.0, 0.0, 0.0, 1.741023131845743E9, 0.0, 2025-03-03 11:32:11.845
16.0, -15967.169817348698, -693.775796148276, -43157.99989199638, -1791.4476146039506, -187500.02235174447, -33421.87057994254, -31941.402785945273, -71168.60254628689, -0.006, 0.914, -0.364, 192.0, 0.0, 0.0, 0.0, 0.0, 0.0, 0.0, 0.0, 0.0, 0.0, 1.741023131845764E9, 0.0, 2025-03-03 11:32:11.845
0.0, 0.0, 0.0, 0.0, 0.0, 0.0, 0.0, 0.0, 0.0, 0.026000000000000002, 0.904, -0.39, 192.0, 0.0, 208.0, 28.0, 64.0, 243.0, 208.0, 0.0, 0.0, 0.0, 1.741023131936917E9, 0.0, 2025-03-03 11:32:11.936
1.0, -12266.391487883508, 5211.242164521475, -37555.11046112901, 1768.0900416481545, -187500.02235174447, -34100.536596839025, -63276.983890173906, -69273.39813392141, 0.026000000000000002, 0.904, -0.39, 192.0, 0.0, 0.0, 0.0, 0.0, 0.0, 0.0, 0.0, 0.0, 0.0, 1.741023131995403E9, 0.0, 2025-03-03 11:32:11.995
2.0, -12183.69003339887, 5308.76282557998, -37567.00158917923, 1782.8198412442018, -187500.02235174447, -34101.296556150504, -63281.52129429833, -69266.93847977382, 0.026000000000000002, 0.904, -0.39, 192.0, 0.0, 0.0, 0.0, 0.0, 0.0, 0.0, 0.0, 0.0, 0.0, 1.741023131995454E9, 0.0, 2025-03-03 11:32:11.995
3.0, -12259.507150591273, 5215.712513412537, -37578.22216489579, 1754.209608341409, -187500.02235174447, -34090.76888451206, -63271.731230226906, -69257.70720931378, 0.026000000000000002, 0.904, -0.39, 192.0, 0.0, 0.0, 0.0, 0.0, 0.0, 0.0, 0.0, 0.0, 0.0, 1.741023131995475E9, 0.0, 2025-03-03 11:32:11.995
4.0, -12315.967657085379, 5139.694230520038, -37567.761548490715, 1744.2183785698867, -187500.02235174447, -34083.5939745419, -63273.251148849864, -69256.63432557993, 0.026000000000000002, 0.904, -0.39, 192.0, 0.0, 0.0, 0.0, 0.0, 0.0, 0.0, 0.0, 0.0, 0.0, 1.741023131995496E9, 0.0, 2025-03-03 11:32:11.995
5.0, -12275.421592643452, 5183.302483952342, -37558.105594886016, 1762.7479747233363, -187500.02235174447, -34087.5949367994, -63291.60193104768, -69285.69159337183, 0.026000000000000002, 0.904, -0.39, 192.0, 0.0, 0.0, 0.0, 0.0, 0.0, 0.0, 0.0, 0.0, 0.0, 1.741023131995518E9, 0.0, 2025-03-03 11:32:11.995
6.0, -12177.677414140393, 5298.101043474799, -37567.00158917923, 1783.3562831111294, -187500.02235174447, -34102.88353000683, -63294.57471306023, -69275.32038394456, 0.026000000000000002, 0.904, -0.39, 192.0, 0.0, 0.0, 0.0, 0.0, 0.0, 0.0, 0.0, 0.0, 0.0, 1.741023131995538E9, 0.0, 2025-03-03 11:32:11.995
7.0, -12247.772484752237, 5213.566745944828, -37586.000571966244, 1752.6673379739927, -187500.02235174447, -34107.08565796443, -63290.50669556936, -69284.50695091569, 0.026000000000000002, 0.904, -0.39, 192.0, 0.0, 0.0, 0.0, 0.0, 0.0, 0.0, 0.0, 0.0, 0.0, 1.741023131995559E9, 0.0, 2025-03-03 11:32:11.995
8.0, -12339.81696841919, 5101.562154479284, -37574.48942357176, 1734.3165557761856, -187500.02235174447, -34085.56092805397, -63274.41343956154, -69258.57892734754, 0.042, 0.9, -0.402, 192.0, 1.0, 80.0, 28.0, 32.0, 243.0, 112.0, 0.0, 0.0, 0.0, 1.741023131995597E9, 0.0, 2025-03-03 11:32:11.995
9.0, -12315.05123556271, 5125.7690937243815, -37549.14254535944, 1759.3281578216743, -187500.02235174447, -34083.750436753086, -63275.933358184506, -69251.42636912184, 0.042, 0.9, -0.402, 192.0, 0.0, 0.0, 0.0, 0.0, 0.0, 0.0, 0.0, 0.0, 0.0, 1.741023131995625E9, 0.0, 2025-03-03 11:32:11.995
10.0, -12176.828047851091, 5280.800793266391, -37544.91806565739, 1807.7643880563246, -187500.02235174447, -34095.708620036676, -63292.96538745945, -69274.24750021071, 0.042, 0.9, -0.402, 192.0, 0.0, 0.0, 0.0, 0.0, 0.0, 0.0, 0.0, 0.0, 0.0, 1.741023131995646E9, 0.0, 2025-03-03 11:32:11.995
11.0, -12210.176850578411, 5241.953461403067, -37573.93062996038, 1782.8645447331126, -187500.02235174447, -34077.02256167204, -63279.822561719724, -69257.17076744685, 0.042, 0.9, -0.402, 192.0, 0.0, 0.0, 0.0, 0.0, 0.0, 0.0, 0.0, 0.0, 0.0, 1.741023131995667E9, 0.0, 2025-03-03 11:32:11.995
12.0, -12310.469127949373, 5118.057741887301, -37567.18040313487, 1750.5439222507384, -187500.02235174447, -34067.612477256356, -63277.98971867439, -69248.20771792028, 0.042, 0.9, -0.402, 192.0, 0.0, 0.0, 0.0, 0.0, 0.0, 0.0, 0.0, 0.0, 0.0, 1.741023131995688E9, 0.0, 2025-03-03 11:32:11.995
13.0, -12296.029901031245, 5124.785616968348, -37549.58958024855, 1770.8393062161574, -187500.02235174447, -34071.74754998059, -63283.823523977226, -69263.67512508335, 0.042, 0.9, -0.402, 192.0, 0.0, 0.0, 0.0, 0.0, 0.0, 0.0, 0.0, 0.0, 0.0, 1.741023131995713E9, 0.0, 2025-03-03 11:32:11.995
14.0, -12180.270216497209, 5257.0408889104, -37546.505039513715, 1803.9869432433777, -187500.02235174447, -34076.329657593924, -63289.88084672461, -69283.79169509312, 0.042, 0.9, -0.402, 192.0, 0.0, 0.0, 0.0, 0.0, 0.0, 0.0, 0.0, 0.0, 0.0, 1.741023131995738E9, 0.0, 2025-03-03 11:32:11.995
15.0, -12174.07878328309, 5261.578293034827, -37565.928705445374, 1797.2143646734196, -187500.02235174447, -34071.591087769404, -63285.05286992227, -69272.23584320972, 0.042, 0.9, -0.402, 192.0, 0.0, 0.0, 0.0, 0.0, 0.0, 0.0, 0.0, 0.0, 0.0, 1.741023131995759E9, 0.0, 2025-03-03 11:32:11.995
16.0, -12267.710240806371, 5145.013945700401, -37571.40488283693, 1764.6925764909479, -187500.02235174447, -34076.46376806066, -63292.630111292616, -69263.11633147196, 0.042, 0.9, -0.402, 192.0, 0.0, 0.0, 0.0, 0.0, 0.0, 0.0, 0.0, 0.0, 0.0, 1.741023132055677E9, 0.0, 2025-03-03 11:32:12.055
17.0, -12278.059098489179, 5120.851709944214, -37550.95303666032, 1769.1852771264646, -187500.02235174447, -34080.6435442738, -63293.90416072657, -69266.31263092907, 0.042, 0.9, -0.402, 192.0, 0.0, 0.0, 0.0, 0.0, 0.0, 0.0, 0.0, 0.0, 0.0, 1.7410231320557E9, 0.0, 2025-03-03 11:32:12.055
18.0, -12177.811524607127, 5231.55990023135, -37541.45354526681, 1798.331951896185, -187500.02235174447, -34090.970050212156, -63306.80111727728, -69281.86944506997, 0.052000000000000005, 0.902, -0.41000000000000003, 192.0, 1.0, 160.0, 28.0, 48.0, 243.0, 48.0, 0.0, 0.0, 0.0, 1.741023132055721E9, 0.0, 2025-03-03 11:32:12.055
19.0, -12155.750352829738, 5258.002013921978, -37557.56915301909, 1794.5098035943274, -187500.02235174447, -34086.43264608773, -63302.487230597406, -69278.27081421266, 0.052000000000000005, 0.902, -0.41000000000000003, 192.0, 0.0, 0.0, 0.0, 0.0, 0.0, 0.0, 0.0, 0.0, 0.0, 1.741023132055744E9, 0.0, 2025-03-03 11:32:12.055
20.0, -12249.918252219946, 5142.421143343585, -37579.47386258529, 1761.563332267205, -187500.02235174447, -34084.26452687556, -63300.743794529895, -69280.37187819146, 0.052000000000000005, 0.902, -0.41000000000000003, 192.0, 0.0, 0.0, 0.0, 0.0, 0.0, 0.0, 0.0, 0.0, 0.0, 1.741023132055765E9, 0.0, 2025-03-03 11:32:12.055
21.0, -12299.539124910729, 5081.646750169605, -37565.928705445374, 1749.9404251504452, -187500.02235174447, -34064.57264001043, -63287.735079256905, -69260.92586051534, 0.052000000000000005, 0.902, -0.41000000000000003, 192.0, 0.0, 0.0, 0.0, 0.0, 0.0, 0.0, 0.0, 0.0, 0.0, 1.741023132055787E9, 0.0, 2025-03-03 11:32:12.055
22.0, -12199.403309750953, 5192.757271856937, -37543.57696099007, 1794.8003762722465, -187500.02235174447, -34093.965183969165, -63307.53872484431, -69287.09975327252, 0.052000000000000005, 0.902, -0.41000000000000003, 192.0, 0.0, 0.0, 0.0, 0.0, 0.0, 0.0, 0.0, 0.0, 0.0, 1.741023132055808E9, 0.0, 2025-03-03 11:32:12.055
23.0, -12152.621108605994, 5251.743525474492, -37561.52541178768, 1797.169661184509, -187500.02235174447, -34090.970050212156, -63309.03629172281, -69282.852921826, 0.052000000000000005, 0.902, -0.41000000000000003, 192.0, 0.0, 0.0, 0.0, 0.0, 0.0, 0.0, 0.0, 0.0, 0.0, 1.741023132055842E9, 0.0, 2025-03-03 11:32:12.055
24.0, -12254.053324944178, 5130.261794359898, -37579.76443526321, 1758.7246607213808, -187500.02235174447, -34084.666858275756, -63308.67866381153, -69270.91709028686, 0.052000000000000005, 0.902, -0.41000000000000003, 192.0, 0.0, 0.0, 0.0, 0.0, 0.0, 0.0, 0.0, 0.0, 0.0, 1.741023132055886E9, 0.0, 2025-03-03 11:32:12.055
25.0, -12291.045462017712, 5074.360081477175, -37568.81208048011, 1753.7625734523028, -187500.02235174447, -34091.305326378984, -63311.00324523488, -69288.19498875082, 0.052000000000000005, 0.902, -0.41000000000000003, 192.0, 0.0, 0.0, 0.0, 0.0, 0.0, 0.0, 0.0, 0.0, 0.0, 1.741023132055907E9, 0.0, 2025-03-03 11:32:12.055
26.0, -12223.61024899605, 5148.478466090974, -37551.9141616719, 1777.8130504862131, -187500.02235174447, -34084.6445065313, -63320.5474401173, -69251.44872086629, 0.052000000000000005, 0.902, -0.41000000000000003, 192.0, 0.0, 0.0, 0.0, 0.0, 0.0, 0.0, 0.0, 0.0, 0.0, 1.741023132055928E9, 0.0, 2025-03-03 11:32:12.055
27.0, -12139.813559033104, 5247.608452750261, -37555.66925474039, 1800.9694577419114, -187500.02235174447, -34089.8971664783, -63312.94784700249, -69224.60427577548, 0.052000000000000005, 0.902, -0.41000000000000003, 192.0, 0.0, 0.0, 0.0, 0.0, 0.0, 0.0, 0.0, 0.0, 0.0, 1.74102313205595E9, 0.0, 2025-03-03 11:32:12.055
28.0, -12232.32742933362, 5135.8050269848145, -37573.50594681573, 1768.335910837163, -187500.02235174447, -34068.48419529011, -63309.46097486746, -69212.31081632506, 0.048, 0.904, -0.41600000000000004, 192.0, 1.0, 128.0, 28.0, 64.0, 243.0, 0.0, 0.0, 0.0, 0.0, 1.741023132055971E9, 0.0, 2025-03-03 11:32:12.055
29.0, -12305.887020336035, 5040.3630781606535, -37558.28440884166, 1758.948178165934, -187500.02235174447, -34067.83599470091, -63304.9906259764, -69197.69277545129, 0.048, 0.904, -0.41600000000000004, 192.0, 0.0, 0.0, 0.0, 0.0, 0.0, 0.0, 0.0, 0.0, 0.0, 1.741023132056E9, 0.0, 2025-03-03 11:32:12.056
30.0, -12266.61500532806, 5078.383395479131, -37538.0113766207, 1785.882030234579, -187500.02235174447, -34069.95941042416, -63311.67379756854, -69170.26718500462, 0.048, 0.904, -0.41600000000000004, 192.0, 0.0, 0.0, 0.0, 0.0, 0.0, 0.0, 0.0, 0.0, 0.0, 1.741023132056021E9, 0.0, 2025-03-03 11:32:12.056
31.0, -12127.676561793873, 5231.068161853334, -37543.12992610096, 1835.8605308366457, -187500.02235174447, -34095.37334386985, -63323.78844306331, -69182.31477526603, 0.048, 0.904, -0.41600000000000004, 192.0, 0.0, 0.0, 0.0, 0.0, 0.0, 0.0, 0.0, 0.0, 0.0, 1.74102313211593E9, 0.0, 2025-03-03 11:32:12.115
32.0, -12183.69003339887, 5164.102335465233, -37576.09874917254, 1805.6186205886152, -187500.02235174447, -34087.05849493248, -63314.020730736345, -69164.76865586861, 0.048, 0.904, -0.41600000000000004, 192.0, 0.0, 0.0, 0.0, 0.0, 0.0, 0.0, 0.0, 0.0, 0.0, 1.741023132115963E9, 0.0, 2025-03-03 11:32:12.115
33.0, -12261.80938027017, 5066.045232539801, -37574.176499149384, 1784.0715389336992, -187500.02235174447, -34087.01379144356, -63307.00228297738, -69144.49562364764, 0.048, 0.904, -0.41600000000000004, 192.0, 0.0, 0.0, 0.0, 0.0, 0.0, 0.0, 0.0, 0.0, 0.0, 1.741023132115984E9, 0.0, 2025-03-03 11:32:12.115
34.0, -12249.158292908465, 5075.276502999843, -37559.58081002007, 1790.240620403364, -187500.02235174447, -34089.137207166816, -63298.73213752892, -69130.74930080764, 0.048, 0.904, -0.41600000000000004, 192.0, 0.0, 0.0, 0.0, 0.0, 0.0, 0.0, 0.0, 0.0, 0.0, 1.741023132116005E9, 0.0, 2025-03-03 11:32:12.116
35.0, -12152.397591161442, 5191.594981145261, -37541.56530398909, 1817.912080039034, -187500.02235174447, -34077.73781749461, -63304.096556198194, -69126.1671931943, 0.048, 0.904, -0.41600000000000004, 192.0, 0.0, 0.0, 0.0, 0.0, 0.0, 0.0, 0.0, 0.0, 0.0, 1.741023132116026E9, 0.0, 2025-03-03 11:32:12.116
36.0, -12176.828047851091, 5162.0459749753445, -37570.846089225546, 1798.6672280630146, -187500.02235174447, -34091.998230457095, -63316.52412611534, -69123.77555653758, 0.048, 0.904, -0.41600000000000004, 192.0, 0.0, 0.0, 0.0, 0.0, 0.0, 0.0, 0.0, 0.0, 0.0, 1.741023132116047E9, 0.0, 2025-03-03 11:32:12.116
37.0, -12270.727726307838, 5048.186188720011, -37575.20467939433, 1767.3300823366742, -187500.02235174447, -34099.1507886828, -63318.33461741622, -69108.86694298589, 0.054, 0.896, -0.418, 192.0, 1.0, 176.0, 28.0, 0.0, 242.0, 240.0, 0.0, 0.0, 0.0, 1.741023132116068E9, 0.0, 2025-03-03 11:32:12.116
38.0, -12292.163049240477, 5021.453502351464, -37555.602199507026, 1767.4194893144954, -187500.02235174447, -34091.68530603472, -63308.835126022714, -69099.36745159238, 0.054, 0.896, -0.418, 192.0, 0.0, 0.0, 0.0, 0.0, 0.0, 0.0, 0.0, 0.0, 0.0, 1.741023132116094E9, 0.0, 2025-03-03 11:32:12.116
39.0, -12189.03210032369, 5138.420181086085, -37537.02789986466, 1805.1045304661432, -187500.02235174447, -34091.75236126809, -63312.18788769101, -69105.46947782868, 0.054, 0.896, -0.418, 192.0, 0.0, 0.0, 0.0, 0.0, 0.0, 0.0, 0.0, 0.0, 0.0, 1.741023132116116E9, 0.0, 2025-03-03 11:32:12.116
40.0, -12177.386841462476, 5151.607710314716, -37558.44087105285, 1808.6584578345369, -187500.02235174447, -34082.766959997054, -63311.47263186844, -69100.95442544871, 0.054, 0.896, -0.418, 192.0, 0.0, 0.0, 0.0, 0.0, 0.0, 0.0, 0.0, 0.0, 0.0, 1.741023132116139E9, 0.0, 2025-03-03 11:32:12.116
41.0, -12277.612063600072, 5032.51761585684, -37565.14639438944, 1777.880105719579, -187500.02235174447, -34069.11004413486, -63302.01784396385, -69075.92047165877, 0.054, 0.896, -0.418, 192.0, 0.0, 0.0, 0.0, 0.0, 0.0, 0.0, 0.0, 0.0, 0.0, 1.741023132116161E9, 0.0, 2025-03-03 11:32:12.116
42.0, -12304.925895324457, 4995.681940994495, -37558.731443730765, 1771.8898382055568, -187500.02235174447, -34084.28687862002, -63308.61160857816, -69124.58021933796, 0.054, 0.896, -0.418, 192.0, 0.0, 0.0, 0.0, 0.0, 0.0, 0.0, 0.0, 0.0, 0.0, 1.741023132116182E9, 0.0, 2025-03-03 11:32:12.116
43.0, -12207.494641243773, 5105.205488825499, -37530.41178350589, 1806.1550624555425, -187500.02235174447, -34085.62798328733, -63309.37156788964, -69108.0622801855, 0.054, 0.896, -0.418, 192.0, 0.0, 0.0, 0.0, 0.0, 0.0, 0.0, 0.0, 0.0, 0.0, 1.741023132116203E9, 0.0, 2025-03-03 11:32:12.116
44.0, -12162.232358721776, 5156.390983628152, -37548.67315872588, 1815.587498615682, -187500.02235174447, -34078.162500639264, -63316.47942262643, -69060.14014007332, 0.054, 0.896, -0.418, 192.0, 0.0, 0.0, 0.0, 0.0, 0.0, 0.0, 0.0, 0.0, 0.0, 1.741023132116228E9, 0.0, 2025-03-03 11:32:12.116
45.0, -12275.734517065826, 5026.125016942623, -37562.017150165695, 1775.1531928960317, -187500.02235174447, -34066.5395935225, -63292.25013163688, -69069.05848611098, 0.054, 0.896, -0.418, 192.0, 0.0, 0.0, 0.0, 0.0, 0.0, 0.0, 0.0, 0.0, 0.0, 1.741023132116251E9, 0.0, 2025-03-03 11:32:12.116
46.0, -12312.234915761343, 4978.404042530542, -37546.54974300262, 1778.2600853753192, -187500.02235174447, -34051.5862764819, -63297.27927413932, -69063.13527383032, 0.054, 0.896, -0.418, 192.0, 0.0, 0.0, 0.0, 0.0, 0.0, 0.0, 0.0, 0.0, 0.0, 1.741023132175603E9, 0.0, 2025-03-03 11:32:12.175
47.0, -12224.526670518717, 5071.834334353725, -37534.546856230125, 1817.241527705375, -187500.02235174447, -34067.43366330071, -63316.09944297069, -69065.32574478695, 0.058, 0.898, -0.40800000000000003, 192.0, 1.0, 208.0, 28.0, 16.0, 243.0, 64.0, 0.0, 0.0, 0.0, 1.741023132175654E9, 0.0, 2025-03-03 11:32:12.175
48.0, -12134.896175252936, 5171.031376246378, -37547.89084766994, 1843.102496040165, -187500.02235174447, -34091.864119990365, -63323.319056429755, -69092.84074221144, 0.058, 0.898, -0.40800000000000003, 192.0, 0.0, 0.0, 0.0, 0.0, 0.0, 0.0, 0.0, 0.0, 0.0, 1.741023132175679E9, 0.0, 2025-03-03 11:32:12.175
49.0, -12229.84638569908, 5058.602101636184, -37561.748929232235, 1800.790643786269, -187500.02235174447, -34070.764073224556, -63304.85651550967, -69077.93212865974, 0.058, 0.898, -0.40800000000000003, 192.0, 0.0, 0.0, 0.0, 0.0, 0.0, 0.0, 0.0, 0.0, 0.0, 1.7410231321757E9, 0.0, 2025-03-03 11:32:12.175
50.0, -12286.329243937642, 4986.003635645347, -37551.48947852725, 1791.0005797148442, -187500.02235174447, -34070.24998310208, -63301.12377418564, -69084.54824501852, 0.058, 0.898, -0.40800000000000003, 192.0, 0.0, 0.0, 0.0, 0.0, 0.0, 0.0, 0.0, 0.0, 0.0, 1.741023132175722E9, 0.0, 2025-03-03 11:32:12.175
51.0, -12218.22347858232, 5056.277520212832, -37550.39424304894, 1816.5486236272602, -187500.02235174447, -34086.49970132109, -63333.15382399009, -69106.92234121828, 0.058, 0.898, -0.40800000000000003, 192.0, 0.0, 0.0, 0.0, 0.0, 0.0, 0.0, 0.0, 0.0, 0.0, 1.741023132175743E9, 0.0, 2025-03-03 11:32:12.175
52.0, -12116.523041310673, 5173.9594547700235, -37561.68187399887, 1837.8945395820786, -187500.02235174447, -34086.81262574346, -63333.69026585702, -69114.43252735527, 0.058, 0.898, -0.40800000000000003, 192.0, 0.0, 0.0, 0.0, 0.0, 0.0, 0.0, 0.0, 0.0, 0.0, 1.741023132175764E9, 0.0, 2025-03-03 11:32:12.175
53.0, -12195.961141104835, 5084.172497293055, -37580.18911840786, 1800.3436088971628, -187500.02235174447, -34082.81166348597, -63307.20344867748, -69105.33536736196, 0.058, 0.898, -0.40800000000000003, 192.0, 0.0, 0.0, 0.0, 0.0, 0.0, 0.0, 0.0, 0.0, 0.0, 1.741023132175785E9, 0.0, 2025-03-03 11:32:12.175
54.0, -12274.326357165142, 4991.748033970361, -37557.479746041274, 1784.2950563782522, -187500.02235174447, -34081.582317540924, -63309.72919580093, -69098.74160274764, 0.058, 0.898, -0.40800000000000003, 192.0, 0.0, 0.0, 0.0, 0.0, 0.0, 0.0, 0.0, 0.0, 0.0, 1.74102313217581E9, 0.0, 2025-03-03 11:32:12.175
55.0, -12258.814246513159, 5008.7800632453045, -37538.816039421086, 1795.1803559279867, -187500.02235174447, -34078.162500639264, -63309.48332661192, -69106.09532667343, 0.058, 0.898, -0.40800000000000003, 192.0, 0.0, 0.0, 0.0, 0.0, 0.0, 0.0, 0.0, 0.0, 0.0, 1.741023132175836E9, 0.0, 2025-03-03 11:32:12.175
56.0, -12163.685222111371, 5120.292916332832, -37540.33595804405, 1823.0306295192993, -187500.02235174447, -34091.730009523635, -63331.231573966936, -69109.82806799747, 0.058, 0.898, -0.40800000000000003, 192.0, 0.0, 0.0, 0.0, 0.0, 0.0, 0.0, 0.0, 0.0, 0.0, 1.741023132175857E9, 0.0, 2025-03-03 11:32:12.175
57.0, -12225.666609485937, 5047.739153830905, -37561.77128097669, 1795.8732600061012, -187500.02235174447, -34084.91272746476, -63316.94880925999, -69102.20612313821, 0.056, 0.892, -0.41600000000000004, 192.0, 1.0, 192.0, 27.0, 224.0, 243.0, 0.0, 0.0, 0.0, 0.0, 1.741023132175878E9, 0.0, 2025-03-03 11:32:12.175
58.0, -12312.547840183717, 4938.237957744355, -37552.67412098338, 1776.695463263448, -187500.02235174447, -34078.229555872625, -63309.66214056756, -69102.02730918257, 0.056, 0.892, -0.41600000000000004, 192.0, 0.0, 0.0, 0.0, 0.0, 0.0, 0.0, 0.0, 0.0, 0.0, 1.741023132175902E9, 0.0, 2025-03-03 11:32:12.175
59.0, -12314.291276251231, 4932.158283252512, -37541.47589701127, 1783.624504044593, -187500.02235174447, -34063.142128365296, -63317.70876857147, -69092.08078289995, 0.056, 0.892, -0.41600000000000004, 192.0, 0.0, 0.0, 0.0, 0.0, 0.0, 0.0, 0.0, 0.0, 0.0, 1.741023132175926E9, 0.0, 2025-03-03 11:32:12.175
60.0, -12247.101932418578, 5014.256240636854, -37535.57503647507, 1800.5000711083499, -187500.02235174447, -34056.79423293999, -63313.81956503625, -69091.6113962664, 0.056, 0.892, -0.41600000000000004, 192.0, 0.0, 0.0, 0.0, 0.0, 0.0, 0.0, 0.0, 0.0, 0.0, 1.74102313217595E9, 0.0, 2025-03-03 11:32:12.175
61.0, -12285.122249737055, 4968.055184847735, -37558.664388497404, 1791.2240971593974, -187500.02235174447, -34057.12950910682, -63316.546477859796, -69078.17799784875, 0.056, 0.892, -0.41600000000000004, 192.0, 0.0, 0.0, 0.0, 0.0, 0.0, 0.0, 0.0, 0.0, 0.0, 1.741023132235332E9, 0.0, 2025-03-03 11:32:12.235
62.0, -12356.692535482947, 4870.333358089132, -37562.95592343282, 1785.882030234579, -187500.02235174447, -34068.21597435665, -63327.498832642894, -69102.7649167496, 0.056, 0.892, -0.41600000000000004, 192.0, 0.0, 0.0, 0.0, 0.0, 0.0, 0.0, 0.0, 0.0, 0.0, 1.741023132235389E9, 0.0, 2025-03-03 11:32:12.235
63.0, -12374.395117091552, 4840.694944941395, -37556.29510358514, 1787.4466523464505, -187500.02235174447, -34076.28495410502, -63322.983780262926, -69102.11671616038, 0.056, 0.892, -0.41600000000000004, 192.0, 0.0, 0.0, 0.0, 0.0, 0.0, 0.0, 0.0, 0.0, 0.0, 1.741023132235411E9, 0.0, 2025-03-03 11:32:12.235
64.0, -12285.077546248145, 4939.176731011478, -37535.93266438635, 1821.2424899628747, -187500.02235174447, -34078.9448116952, -63322.067358740256, -69100.68620451525, 0.056, 0.892, -0.41600000000000004, 192.0, 0.0, 0.0, 0.0, 0.0, 0.0, 0.0, 0.0, 0.0, 0.0, 1.741023132235431E9, 0.0, 2025-03-03 11:32:12.235
65.0, -12290.084337006134, 4931.30891696321, -37561.77128097669, 1809.7983968017575, -187500.02235174447, -34087.41612284376, -63322.693207585005, -69114.43252735527, 0.056, 0.892, -0.41600000000000004, 192.0, 0.0, 0.0, 0.0, 0.0, 0.0, 0.0, 0.0, 0.0, 0.0, 1.741023132235457E9, 0.0, 2025-03-03 11:32:12.235
66.0, -12441.137426035099, 4758.328766623588, -37564.14056588895, 1752.7343932073586, -187500.02235174447, -34070.808776713464, -63311.42792837953, -69095.0088614236, 0.056, 0.892, -0.41600000000000004, 192.0, 0.0, 0.0, 0.0, 0.0, 0.0, 0.0, 0.0, 0.0, 0.0, 1.741023132235479E9, 0.0, 2025-03-03 11:32:12.235
67.0, -12476.453182274483, 4710.876013144972, -37532.311681784595, 1768.3582625816182, -187500.02235174447, -34070.58525926891, -63325.15189947509, -69074.40055303581, 0.052000000000000005, 0.894, -0.422, 192.0, 1.0, 160.0, 27.0, 240.0, 242.0, 208.0, 0.0, 0.0, 0.0, 1.741023132235501E9, 0.0, 2025-03-03 11:32:12.235
68.0, -12357.474846538884, 4838.236253051312, -37525.69556542583, 1823.3882574305842, -187500.02235174447, -34093.76401826907, -63334.40552167959, -69113.78432676606, 0.052000000000000005, 0.894, -0.422, 192.0, 0.0, 0.0, 0.0, 0.0, 0.0, 0.0, 0.0, 0.0, 0.0, 1.741023132235525E9, 0.0, 2025-03-03 11:32:12.235
69.0, -12317.286410008242, 4883.275018128756, -37548.91902791489, 1829.2891179667854, -187500.02235174447, -34087.77375075504, -63324.25782969688, -69103.8601522279, 0.052000000000000005, 0.894, -0.422, 192.0, 0.0, 0.0, 0.0, 0.0, 0.0, 0.0, 0.0, 0.0, 0.0, 1.741023132235549E9, 0.0, 2025-03-03 11:32:12.235
70.0, -12425.871184572123, 4753.6796037768845, -37561.70422574332, 1791.2240971593974, -187500.02235174447, -34073.87096570384, -63315.89827727059, -69102.18377139376, 0.052000000000000005, 0.894, -0.422, 192.0, 0.0, 0.0, 0.0, 0.0, 0.0, 0.0, 0.0, 0.0, 0.0, 1.741023132235573E9, 0.0, 2025-03-03 11:32:12.235
71.0, -12480.588254998715, 4684.947989576815, -37555.62455125148, 1780.0035214428333, -187500.02235174447, -34073.826262214934, -63320.10040522819, -69099.68037601476, 0.052000000000000005, 0.894, -0.422, 192.0, 0.0, 0.0, 0.0, 0.0, 0.0, 0.0, 0.0, 0.0, 0.0, 1.741023132235595E9, 0.0, 2025-03-03 11:32:12.235
72.0, -12404.12293721711, 4766.598912072052, -37537.541989987134, 1807.8314432896905, -187500.02235174447, -34070.11587263535, -63319.966294761456, -69097.3110911025, 0.052000000000000005, 0.894, -0.422, 192.0, 0.0, 0.0, 0.0, 0.0, 0.0, 0.0, 0.0, 0.0, 0.0, 1.741023132235616E9, 0.0, 2025-03-03 11:32:12.235
73.0, -12328.037599091245, 4851.893168913504, -37547.7120337143, 1822.8071120747463, -187500.02235174447, -34072.909840692264, -63321.17328896205, -69103.25665512761, 0.052000000000000005, 0.894, -0.422, 192.0, 0.0, 0.0, 0.0, 0.0, 0.0, 0.0, 0.0, 0.0, 0.0, 1.741023132235638E9, 0.0, 2025-03-03 11:32:12.235
74.0, -12426.944068305978, 4732.423094799888, -37567.560382790616, 1782.4175098440064, -187500.02235174447, -34069.19945111268, -63322.46969014045, -69108.93399821926, 0.052000000000000005, 0.894, -0.422, 192.0, 0.0, 0.0, 0.0, 0.0, 0.0, 0.0, 0.0, 0.0, 0.0, 1.741023132235659E9, 0.0, 2025-03-03 11:32:12.235
75.0, -12476.296720063296, 4663.557370133087, -37566.39809207894, 1775.108489407121, -187500.02235174447, -34084.04100943101, -63345.44728344051, -69127.50829786161, 0.052000000000000005, 0.894, -0.422, 192.0, 0.0, 0.0, 0.0, 0.0, 0.0, 0.0, 0.0, 0.0, 0.0, 1.741023132235686E9, 0.0, 2025-03-03 11:32:12.235
76.0, -12407.296884929763, 4736.289946590656, -37552.7635279612, 1807.719684567414, -187500.02235174447, -34092.37821011284, -63345.559042162786, -69123.19441118174, 0.052000000000000005, 0.894, -0.422, 192.0, 0.0, 0.0, 0.0, 0.0, 0.0, 0.0, 0.0, 0.0, 0.0, 1.741023132295456E9, 0.0, 2025-03-03 11:32:12.295
77.0, -12321.779110643758, 4841.209035063867, -37564.78876647816, 1825.4446179204724, -187500.02235174447, -34096.93796598172, -63343.48032992844, -69135.97960901017, 0.052000000000000005, 0.89, -0.422, 192.0, 1.0, 160.0, 27.0, 208.0, 242.0, 208.0, 0.0, 0.0, 0.0, 1.741023132295507E9, 0.0, 2025-03-03 11:32:12.295
78.0, -12385.012195707823, 4767.135353938979, -37588.503967345234, 1798.2201931739085, -187500.02235174447, -34080.57648904044, -63352.51043468839, -69132.69390257525, 0.052000000000000005, 0.89, -0.422, 192.0, 0.0, 0.0, 0.0, 0.0, 0.0, 0.0, 0.0, 0.0, 0.0, 1.741023132295534E9, 0.0, 2025-03-03 11:32:12.295
79.0, -12467.914815892556, 4668.452402168799, -37587.14051093346, 1771.2416376163528, -187500.02235174447, -34091.19356765671, -63352.93511783304, -69119.75224253563, 0.052000000000000005, 0.89, -0.422, 192.0, 0.0, 0.0, 0.0, 0.0, 0.0, 0.0, 0.0, 0.0, 0.0, 1.741023132295556E9, 0.0, 2025-03-03 11:32:12.295
80.0, -12446.837120871201, 4688.16664077838, -37568.81208048011, 1781.5010883213388, -187500.02235174447, -34089.83011124493, -63355.66203065658, -69122.45680361471, 0.052000000000000005, 0.89, -0.422, 192.0, 0.0, 0.0, 0.0, 0.0, 0.0, 0.0, 0.0, 0.0, 0.0, 1.741023132295578E9, 0.0, 2025-03-03 11:32:12.295
81.0, -12327.165881057488, 4821.807720876661, -37562.84416471054, 1820.974269029411, -187500.02235174447, -34102.12357069535, -63362.322850504264, -69133.49856537564, 0.052000000000000005, 0.89, -0.422, 192.0, 0.0, 0.0, 0.0, 0.0, 0.0, 0.0, 0.0, 0.0, 0.0, 1.741023132295599E9, 0.0, 2025-03-03 11:32:12.295
82.0, -12368.136628644066, 4773.147973197458, -37591.812025524625, 1792.4757948488946, -187500.02235174447, -34086.7455705101, -63360.3558969922, -69134.3702834094, 0.052000000000000005, 0.89, -0.422, 192.0, 0.0, 0.0, 0.0, 0.0, 0.0, 0.0, 0.0, 0.0, 0.0, 1.74102313229562E9, 0.0, 2025-03-03 11:32:12.295
83.0, -12465.009089113366, 4659.511704386676, -37573.215374137806, 1760.2892828332524, -187500.02235174447, -34091.171215912254, -63351.03521955434, -69132.22451594169, 0.052000000000000005, 0.89, -0.422, 192.0, 0.0, 0.0, 0.0, 0.0, 0.0, 0.0, 0.0, 0.0, 0.0, 1.741023132295646E9, 0.0, 2025-03-03 11:32:12.295
84.0, -12459.957594866466, 4659.4670008977655, -37561.10072864303, 1769.4534980599283, -187500.02235174447, -34096.31211713697, -63353.53861493333, -69149.1224347499, 0.052000000000000005, 0.89, -0.422, 192.0, 0.0, 0.0, 0.0, 0.0, 0.0, 0.0, 0.0, 0.0, 0.0, 1.741023132295667E9, 0.0, 2025-03-03 11:32:12.295
85.0, -12364.672108253493, 4773.080917964091, -37556.94330417434, 1796.5214605953051, -187500.02235174447, -34104.47050386316, -63370.12360931917, -69168.4790454482, 0.052000000000000005, 0.89, -0.422, 192.0, 0.0, 0.0, 0.0, 0.0, 0.0, 0.0, 0.0, 0.0, 0.0, 1.741023132295691E9, 0.0, 2025-03-03 11:32:12.295
86.0, -12385.995672463856, 4755.13246716648, -37592.996667980755, 1780.562315054216, -187500.02235174447, -34113.7017743232, -63375.08569658825, -69172.32354549451, 0.052000000000000005, 0.89, -0.422, 192.0, 0.0, 0.0, 0.0, 0.0, 0.0, 0.0, 0.0, 0.0, 0.0, 1.741023132295715E9, 0.0, 2025-03-03 11:32:12.295
87.0, -12489.551304525294, 4634.589509319009, -37585.665295799416, 1753.3155385631967, -187500.02235174447, -34091.68530603472, -63362.34520224872, -69132.40332989732, 0.054, 0.896, -0.426, 192.0, 1.0, 176.0, 28.0, 0.0, 242.0, 176.0, 0.0, 0.0, 0.0, 1.741023132295736E9, 0.0, 2025-03-03 11:32:12.295
88.0, -12491.13827838162, 4624.48652082521, -37572.61187703751, 1764.2902450907525, -187500.02235174447, -34108.024431231555, -63372.604652953705, -69158.71133312123, 0.054, 0.896, -0.426, 192.0, 0.0, 0.0, 0.0, 0.0, 0.0, 0.0, 0.0, 0.0, 0.0, 1.74102313229576E9, 0.0, 2025-03-03 11:32:12.295
89.0, -12384.989843963367, 4743.062525160614, -37565.48167055627, 1797.8625652626235, -187500.02235174447, -34124.005928517094, -63406.0652144033, -69186.27103403462, 0.054, 0.896, -0.426, 192.0, 0.0, 0.0, 0.0, 0.0, 0.0, 0.0, 0.0, 0.0, 0.0, 1.741023132295781E9, 0.0, 2025-03-03 11:32:12.295
90.0, -12374.775096747291, 4751.936167709371, -37586.425255110895, 1788.944219224956, -187500.02235174447, -34123.91652153928, -63398.197400355035, -69180.37017349842, 0.054, 0.896, -0.426, 192.0, 0.0, 0.0, 0.0, 0.0, 0.0, 0.0, 0.0, 0.0, 0.0, 1.741023132295806E9, 0.0, 2025-03-03 11:32:12.295
91.0, -12461.678679189525, 4638.411657620866, -37604.48546463078, 1756.0200996422889, -187500.02235174447, -34123.55889362799, -63398.15269686612, -69179.07377232001, 0.054, 0.896, -0.426, 192.0, 0.0, 0.0, 0.0, 0.0, 0.0, 0.0, 0.0, 0.0, 0.0, 1.741023132356253E9, 0.0, 2025-03-03 11:32:12.356
92.0, -12495.228647616941, 4591.875325664917, -37600.08217097309, 1746.3641460375961, -187500.02235174447, -34123.42478316126, -63393.48118227496, -69189.51203698064, 0.054, 0.896, -0.426, 192.0, 0.0, 0.0, 0.0, 0.0, 0.0, 0.0, 0.0, 0.0, 0.0, 1.741023132356283E9, 0.0, 2025-03-03 11:32:12.356
93.0, -12391.293035899764, 4706.226850298268, -37580.43498759687, 1782.1939923994532, -187500.02235174447, -34130.19736173122, -63410.60261852773, -69201.15729584185, 0.054, 0.896, -0.426, 192.0, 0.0, 0.0, 0.0, 0.0, 0.0, 0.0, 0.0, 0.0, 0.0, 1.741023132356338E9, 0.0, 2025-03-03 11:32:12.356
94.0, -12347.237747578352, 4758.708746279329, -37595.00832498173, 1784.6303325450817, -187500.02235174447, -34126.889303551834, -63406.33343533677, -69184.48289447819, 0.054, 0.896, -0.426, 192.0, 0.0, 0.0, 0.0, 0.0, 0.0, 0.0, 0.0, 0.0, 0.0, 1.74102313235636E9, 0.0, 2025-03-03 11:32:12.356
95.0, -12452.268594773841, 4637.271718653646, -37598.74106630577, 1750.499218761828, -187500.02235174447, -34105.498684108104, -63388.38498453915, -69169.50722569315, 0.054, 0.896, -0.426, 192.0, 0.0, 0.0, 0.0, 0.0, 0.0, 0.0, 0.0, 0.0, 0.0, 1.741023132356382E9, 0.0, 2025-03-03 11:32:12.356
96.0, -12494.826316216746, 4582.465241249232, -37582.49134808676, 1747.6381954715487, -187500.02235174447, -34101.98946022862, -63389.90490316212, -69171.00479257165, 0.054, 0.896, -0.426, 192.0, 0.0, 0.0, 0.0, 0.0, 0.0, 0.0, 0.0, 0.0, 0.0, 1.741023132356403E9, 0.0, 2025-03-03 11:32:12.356
97.0, -12402.69242557197, 4683.204553509302, -37567.67214151289, 1784.6973877784478, -187500.02235174447, -34123.78241107254, -63409.59679002724, -69191.4342870038, 0.05, 0.898, -0.436, 192.0, 1.0, 144.0, 28.0, 16.0, 242.0, 96.0, 0.0, 0.0, 0.0, 1.741023132356424E9, 0.0, 2025-03-03 11:32:12.356
98.0, -12324.0589885782, 4777.975949999804, -37580.81496725261, 1798.5778210851934, -187500.02235174447, -34125.212922717685, -63405.84169695875, -69171.85415886095, 0.05, 0.898, -0.436, 192.0, 0.0, 0.0, 0.0, 0.0, 0.0, 0.0, 0.0, 0.0, 0.0, 1.741023132356448E9, 0.0, 2025-03-03 11:32:12.356
99.0, -12412.79541406577, 4676.409623194888, -37600.28333667319, 1764.469059046395, -187500.02235174447, -34108.11383820937, -63392.83298168576, -69151.69288536225, 0.05, 0.898, -0.436, 192.0, 0.0, 0.0, 0.0, 0.0, 0.0, 0.0, 0.0, 0.0, 0.0, 1.741023132356469E9, 0.0, 2025-03-03 11:32:12.356
100.0, -12484.18688585602, 4593.4846512656995, -37590.62738306849, 1746.5429599932386, -187500.02235174447, -34097.60851831538, -63392.09537411873, -69157.48198717619, 0.05, 0.898, -0.436, 192.0, 0.0, 0.0, 0.0, 0.0, 0.0, 0.0, 0.0, 0.0, 0.0, 1.741023132356494E9, 0.0, 2025-03-03 11:32:12.356
101.0, -12423.658361871048, 4660.048146253604, -37580.52439457469, 1773.432108572973, -187500.02235174447, -34113.85823653439, -63422.22552564449, -69162.24290874516, 0.05, 0.898, -0.436, 192.0, 0.0, 0.0, 0.0, 0.0, 0.0, 0.0, 0.0, 0.0, 0.0, 1.741023132356518E9, 0.0, 2025-03-03 11:32:12.356
102.0, -12338.431160262962, 4762.396784114455, -37596.95292674934, 1781.8363644881683, -187500.02235174447, -34123.670652350265, -63430.920354237605, -69173.64229841737, 0.05, 0.898, -0.436, 192.0, 0.0, 0.0, 0.0, 0.0, 0.0, 0.0, 0.0, 0.0, 0.0, 1.741023132356539E9, 0.0, 2025-03-03 11:32:12.356
103.0, -12399.65258832605, 4689.083062301047, -37613.71673509082, 1759.5516752662272, -187500.02235174447, -34106.258643419584, -63431.16622342661, -69210.16504885734, 0.05, 0.898, -0.436, 192.0, 0.0, 0.0, 0.0, 0.0, 0.0, 0.0, 0.0, 0.0, 0.0, 1.741023132356559E9, 0.0, 2025-03-03 11:32:12.356
104.0, -12461.432810000517, 4609.443796806789, -37600.41744713992, 1751.885026918057, -187500.02235174447, -34108.002079487094, -63414.73769125196, -69174.60342342895, 0.05, 0.898, -0.436, 192.0, 0.0, 0.0, 0.0, 0.0, 0.0, 0.0, 0.0, 0.0, 0.0, 1.741023132356581E9, 0.0, 2025-03-03 11:32:12.356
105.0, -12441.048019057276, 4630.812064506062, -37579.11623467401, 1763.8655619461015, -187500.02235174447, -34102.41414337327, -63412.234295872964, -69165.99800181366, 0.05, 0.898, -0.436, 192.0, 0.0, 0.0, 0.0, 0.0, 0.0, 0.0, 0.0, 0.0, 0.0, 1.741023132356605E9, 0.0, 2025-03-03 11:32:12.356
106.0, -12316.973485585868, 4771.002205729747, -37570.17553689188, 1804.4116263880285, -187500.02235174447, -34122.08367849394, -63426.45000534654, -69183.49941772217, 0.05, 0.898, -0.436, 192.0, 0.0, 0.0, 0.0, 0.0, 0.0, 0.0, 0.0, 0.0, 0.0, 1.741023132415975E9, 0.0, 2025-03-03 11:32:12.415
107.0, -12343.505006254318, 4735.887615190461, -37602.093827974066, 1785.5467540677494, -187500.02235174447, -34116.60750110239, -63430.003932714935, -69180.23606303168, 0.058, 0.892, -0.44, 192.0, 1.0, 208.0, 27.0, 224.0, 242.0, 64.0, 0.0, 0.0, 0.0, 1.74102313241602E9, 0.0, 2025-03-03 11:32:12.416
108.0, -12427.569917150728, 4631.862596495462, -37593.756627292234, 1759.3952130550401, -187500.02235174447, -34104.06817246296, -63430.58507807078, -69171.00479257165, 0.058, 0.892, -0.44, 192.0, 0.0, 0.0, 0.0, 0.0, 0.0, 0.0, 0.0, 0.0, 0.0, 1.741023132416066E9, 0.0, 2025-03-03 11:32:12.416
109.0, -12392.410623122529, 4662.037451510126, -37581.619630053, 1779.6905970204589, -187500.02235174447, -34120.60846335989, -63431.747368782446, -69185.51107472314, 0.058, 0.892, -0.44, 192.0, 0.0, 0.0, 0.0, 0.0, 0.0, 0.0, 0.0, 0.0, 0.0, 1.741023132416088E9, 0.0, 2025-03-03 11:32:12.416
110.0, -12283.758793325282, 4787.676607093407, -37575.450548583336, 1804.6798473214922, -187500.02235174447, -34127.96218728569, -63434.22841241699, -69196.6869469508, 0.058, 0.892, -0.44, 192.0, 0.0, 0.0, 0.0, 0.0, 0.0, 0.0, 0.0, 0.0, 0.0, 1.741023132416109E9, 0.0, 2025-03-03 11:32:12.416
111.0, -12283.33411018063, 4786.402557659454, -37609.53695887768, 1790.2182686589085, -187500.02235174447, -34120.586111615434, -63438.69876130805, -69181.26424327663, 0.058, 0.892, -0.44, 192.0, 0.0, 0.0, 0.0, 0.0, 0.0, 0.0, 0.0, 0.0, 0.0, 1.74102313241613E9, 0.0, 2025-03-03 11:32:12.416
112.0, -12367.600186777137, 4684.009216309692, -37619.9305200494, 1759.3505095661294, -187500.02235174447, -34113.79118130102, -63430.51802283741, -69177.77737114161, 0.058, 0.892, -0.44, 192.0, 0.0, 0.0, 0.0, 0.0, 0.0, 0.0, 0.0, 0.0, 0.0, 1.741023132416152E9, 0.0, 2025-03-03 11:32:12.416
113.0, -12368.918939700001, 4676.83430633954, -37599.702191317345, 1766.011329413811, -187500.02235174447, -34113.43355338974, -63434.630743817186, -69177.55385369704, 0.058, 0.892, -0.44, 192.0, 0.0, 0.0, 0.0, 0.0, 0.0, 0.0, 0.0, 0.0, 0.0, 1.741023132416173E9, 0.0, 2025-03-03 11:32:12.416
114.0, -12263.66457505996, 4798.383092687499, -37592.10259820254, 1792.3416843821628, -187500.02235174447, -34128.96801578617, -63445.314877666824, -69191.09901083696, 0.058, 0.892, -0.44, 192.0, 0.0, 0.0, 0.0, 0.0, 0.0, 0.0, 0.0, 0.0, 0.0, 1.741023132416194E9, 0.0, 2025-03-03 11:32:12.416
115.0, -12232.528595033717, 4835.174064060934, -37602.60791809653, 1797.7731582848023, -187500.02235174447, -34120.541408126526, -63429.17691817009, -69185.73459216769, 0.058, 0.892, -0.44, 192.0, 0.0, 0.0, 0.0, 0.0, 0.0, 0.0, 0.0, 0.0, 0.0, 1.741023132416219E9, 0.0, 2025-03-03 11:32:12.416
116.0, -12308.166898270476, 4739.46389430331, -37619.46113341584, 1772.3592248391183, -187500.02235174447, -34127.716318096675, -63448.62293584621, -69196.5304847396, 0.058, 0.892, -0.44, 192.0, 0.0, 0.0, 0.0, 0.0, 0.0, 0.0, 0.0, 0.0, 0.0, 1.741023132416243E9, 0.0, 2025-03-03 11:32:12.416
117.0, -12347.148340600532, 4693.173431536368, -37618.231787470795, 1754.5672362526939, -187500.02235174447, -34129.057422763995, -63445.85131953375, -69203.07954586501, 0.06, 0.888, -0.442, 192.0, 1.0, 224.0, 27.0, 192.0, 242.0, 48.0, 0.0, 0.0, 0.0, 1.741023132416264E9, 0.0, 2025-03-03 11:32:12.416
118.0, -12276.539179866217, 4779.495868622765, -37596.61765058251, 1771.7780794832802, -187500.02235174447, -34129.43740241974, -63449.427598646595, -69191.74721142616, 0.06, 0.888, -0.442, 192.0, 0.0, 0.0, 0.0, 0.0, 0.0, 0.0, 0.0, 0.0, 0.0, 1.741023132416288E9, 0.0, 2025-03-03 11:32:12.416
119.0, -12216.010655881246, 4854.329509059133, -37614.09671474656, 1782.395158099551, -187500.02235174447, -34127.91748379677, -63456.69191559457, -69216.95997917175, 0.06, 0.888, -0.442, 192.0, 0.0, 0.0, 0.0, 0.0, 0.0, 0.0, 0.0, 0.0, 0.0, 1.741023132416313E9, 0.0, 2025-03-03 11:32:12.416
120.0, -12301.751947611803, 4754.976004955292, -37628.35712770905, 1752.5332275072608, -187500.02235174447, -34118.19447495872, -63447.50534862344, -69199.01152837415, 0.06, 0.888, -0.442, 192.0, 0.0, 0.0, 0.0, 0.0, 0.0, 0.0, 0.0, 0.0, 0.0, 1.741023132416334E9, 0.0, 2025-03-03 11:32:12.416
121.0, -12349.092942368145, 4699.588382195042, -37617.09184850357, 1744.1289715920655, -187500.02235174447, -34112.15950395579, -63449.04761899086, -69195.52465623911, 0.06, 0.888, -0.442, 192.0, 0.0, 0.0, 0.0, 0.0, 0.0, 0.0, 0.0, 0.0, 0.0, 1.7410231324763E9, 0.0, 2025-03-03 11:32:12.476
122.0, -12293.660616118983, 4769.70580455134, -37598.29403141666, 1762.010367156311, -187500.02235174447, -34120.6531668488, -63462.168092986125, -69206.61112148895, 0.06, 0.888, -0.442, 192.0, 0.0, 0.0, 0.0, 0.0, 0.0, 0.0, 0.0, 0.0, 0.0, 1.741023132476335E9, 0.0, 2025-03-03 11:32:12.476
123.0, -12201.727891174305, 4879.385814593532, -37602.0267727407, 1790.4641378479168, -187500.02235174447, -34125.54819888451, -63454.948479527055, -69206.52171451112, 0.06, 0.888, -0.442, 192.0, 0.0, 0.0, 0.0, 0.0, 0.0, 0.0, 0.0, 0.0, 0.0, 1.741023132476374E9, 0.0, 2025-03-03 11:32:12.476
124.0, -12288.027976516245, 4781.6192843460185, -37615.66133685844, 1755.9977478978335, -187500.02235174447, -34109.81257078797, -63435.07777870629, -69168.94843208176, 0.06, 0.888, -0.442, 192.0, 0.0, 0.0, 0.0, 0.0, 0.0, 0.0, 0.0, 0.0, 0.0, 1.741023132476399E9, 0.0, 2025-03-03 11:32:12.476
125.0, -12339.72756144137, 4715.614582969497, -37603.09965647455, 1749.8957216615347, -187500.02235174447, -34101.6988875507, -63430.54037458186, -69172.01062107213, 0.06, 0.888, -0.442, 192.0, 0.0, 0.0, 0.0, 0.0, 0.0, 0.0, 0.0, 0.0, 0.0, 1.741023132476424E9, 0.0, 2025-03-03 11:32:12.476
126.0, -12289.458488161385, 4770.242246418267, -37591.96848773581, 1767.0842131476657, -187500.02235174447, -34114.12645746785, -63443.280868921385, -69204.42065053232, 0.06, 0.888, -0.442, 192.0, 0.0, 0.0, 0.0, 0.0, 0.0, 0.0, 0.0, 0.0, 0.0, 1.741023132476446E9, 0.0, 2025-03-03 11:32:12.476
127.0, -12180.717251386315, 4898.138928191534, -37599.03163898369, 1794.4427483609616, -187500.02235174447, -34127.55985588549, -63470.32647971231, -69213.69662448128, 0.054, 0.894, -0.438, 192.0, 1.0, 176.0, 27.0, 240.0, 242.0, 80.0, 0.0, 0.0, 0.0, 1.741023132476466E9, 0.0, 2025-03-03 11:32:12.476
128.0, -12238.340048592097, 4832.648316937485, -37626.16665675243, 1765.6089980136155, -187500.02235174447, -34129.28094020855, -63467.08547676629, -69217.9881594167, 0.054, 0.894, -0.438, 192.0, 0.0, 0.0, 0.0, 0.0, 0.0, 0.0, 0.0, 0.0, 0.0, 1.741023132476491E9, 0.0, 2025-03-03 11:32:12.476
129.0, -12320.952096098912, 4738.860397203016, -37605.44658964236, 1740.4856372458503, -187500.02235174447, -34116.406335402295, -63457.407171417144, -69199.34680454097, 0.054, 0.894, -0.438, 192.0, 0.0, 0.0, 0.0, 0.0, 0.0, 0.0, 0.0, 0.0, 0.0, 1.741023132476512E9, 0.0, 2025-03-03 11:32:12.476
130.0, -12304.47886043535, 4758.440525345865, -37575.04821718314, 1752.1755995959759, -187500.02235174447, -34102.70471605119, -63455.37316267171, -69190.80843815905, 0.054, 0.894, -0.438, 192.0, 0.0, 0.0, 0.0, 0.0, 0.0, 0.0, 0.0, 0.0, 0.0, 1.741023132476534E9, 0.0, 2025-03-03 11:32:12.476
131.0, -12174.123486772, 4905.783224795249, -37554.14933611743, 1803.0258182317996, -187500.02235174447, -34105.31987015246, -63466.68314536609, -69205.00179588817, 0.054, 0.894, -0.438, 192.0, 0.0, 0.0, 0.0, 0.0, 0.0, 0.0, 0.0, 0.0, 0.0, 1.741023132476557E9, 0.0, 2025-03-03 11:32:12.476
132.0, -12193.70361491485, 4882.336244861633, -37586.58171732208, 1789.882992492079, -187500.02235174447, -34110.28195742154, -63471.15349425715, -69210.54502851308, 0.054, 0.894, -0.438, 192.0, 0.0, 0.0, 0.0, 0.0, 0.0, 0.0, 0.0, 0.0, 0.0, 1.741023132476582E9, 0.0, 2025-03-03 11:32:12.476
133.0, -12291.805421329193, 4768.878790006494, -37593.890737758964, 1753.2484833298306, -187500.02235174447, -34104.0011172296, -63470.840569834785, -69215.57417101553, 0.054, 0.894, -0.438, 192.0, 0.0, 0.0, 0.0, 0.0, 0.0, 0.0, 0.0, 0.0, 0.0, 1.741023132476602E9, 0.0, 2025-03-03 11:32:12.476
134.0, -12284.474049147851, 4775.584313343085, -37582.983086464774, 1761.496277033839, -187500.02235174447, -34107.733858553634, -63476.71907862653, -69216.49059253819, 0.054, 0.894, -0.438, 192.0, 0.0, 0.0, 0.0, 0.0, 0.0, 0.0, 0.0, 0.0, 0.0, 1.741023132476624E9, 0.0, 2025-03-03 11:32:12.476
135.0, -12174.257597238731, 4906.565535851185, -37566.04046416765, 1795.202707672442, -187500.02235174447, -34112.2489109336, -63478.9319013276, -69214.21071460376, 0.054, 0.894, -0.438, 192.0, 0.0, 0.0, 0.0, 0.0, 0.0, 0.0, 0.0, 0.0, 0.0, 1.741023132476646E9, 0.0, 2025-03-03 11:32:12.476
136.0, -12177.923283329403, 4908.398378896521, -37581.01613295271, 1785.9043819790343, -187500.02235174447, -34093.965183969165, -63465.47615116551, -69204.30889181005, 0.054, 0.894, -0.438, 192.0, 0.0, 0.0, 0.0, 0.0, 0.0, 0.0, 0.0, 0.0, 0.0, 1.741023132535611E9, 0.0, 2025-03-03 11:32:12.535
137.0, -12276.38271765503, 4796.639656619985, -37582.73721727577, 1751.8403234291463, -187500.02235174447, -34087.75139901059, -63459.17295922911, -69202.1407725979, 0.054, 0.892, -0.432, 192.0, 1.0, 176.0, 27.0, 224.0, 242.0, 128.0, 0.0, 0.0, 0.0, 1.741023132535662E9, 0.0, 2025-03-03 11:32:12.535
138.0, -12304.612970902082, 4766.308339394133, -37568.67797001338, 1752.0191373847888, -187500.02235174447, -34100.31307939447, -63461.877520308204, -69198.92212139632, 0.054, 0.892, -0.432, 192.0, 0.0, 0.0, 0.0, 0.0, 0.0, 0.0, 0.0, 0.0, 0.0, 1.741023132535687E9, 0.0, 2025-03-03 11:32:12.535
139.0, -12195.044719582167, 4892.081605444147, -37556.1162896295, 1793.1463471825539, -187500.02235174447, -34116.58514935793, -63478.39545946068, -69215.99885416018, 0.054, 0.892, -0.432, 192.0, 0.0, 0.0, 0.0, 0.0, 0.0, 0.0, 0.0, 0.0, 0.0, 1.741023132535718E9, 0.0, 2025-03-03 11:32:12.535
140.0, -12161.271233710198, 4934.9969547983355, -37580.07735968559, 1792.4534431044392, -187500.02235174447, -34108.449114376206, -63478.50721818295, -69218.6363600059, 0.054, 0.892, -0.432, 192.0, 0.0, 0.0, 0.0, 0.0, 0.0, 0.0, 0.0, 0.0, 0.0, 1.741023132535739E9, 0.0, 2025-03-03 11:32:12.535
141.0, -12254.478008088829, 4829.072037824636, -37578.78095850718, 1765.7431084803472, -187500.02235174447, -34093.831073502435, -63468.49363666697, -69192.99890911566, 0.054, 0.892, -0.432, 192.0, 0.0, 0.0, 0.0, 0.0, 0.0, 0.0, 0.0, 0.0, 0.0, 1.74102313253576E9, 0.0, 2025-03-03 11:32:12.535
142.0, -12291.0007585288, 4786.536668126187, -37581.19494690835, 1760.7810212112693, -187500.02235174447, -34105.074000963454, -63483.80458161886, -69210.63443549091, 0.054, 0.892, -0.432, 192.0, 0.0, 0.0, 0.0, 0.0, 0.0, 0.0, 0.0, 0.0, 0.0, 1.741023132535781E9, 0.0, 2025-03-03 11:32:12.535
143.0, -12210.825051167614, 4883.587942551129, -37559.06671989759, 1792.7663675268136, -187500.02235174447, -34098.81551251597, -63489.928959599616, -69228.87345896644, 0.054, 0.892, -0.432, 192.0, 0.0, 0.0, 0.0, 0.0, 0.0, 0.0, 0.0, 0.0, 0.0, 1.741023132535803E9, 0.0, 2025-03-03 11:32:12.535
144.0, -12124.681428036862, 4987.143574612567, -37567.73919674625, 1825.8693010651234, -187500.02235174447, -34107.08565796443, -63477.70255538256, -69222.8384879635, 0.054, 0.892, -0.432, 192.0, 0.0, 0.0, 0.0, 0.0, 0.0, 0.0, 0.0, 0.0, 0.0, 1.741023132535824E9, 0.0, 2025-03-03 11:32:12.535
145.0, -12217.888202415492, 4879.564628549174, -37583.60893530952, 1788.0054459578332, -187500.02235174447, -34105.67749806374, -63468.15836050014, -69225.07366240904, 0.054, 0.892, -0.432, 192.0, 0.0, 0.0, 0.0, 0.0, 0.0, 0.0, 0.0, 0.0, 0.0, 1.741023132535846E9, 0.0, 2025-03-03 11:32:12.535
146.0, -12252.46635108785, 4830.2790320252225, -37569.1697083914, 1781.948123210445, -187500.02235174447, -34091.305326378984, -63471.89110182418, -69224.38075833092, 0.054, 0.892, -0.432, 192.0, 0.0, 0.0, 0.0, 0.0, 0.0, 0.0, 0.0, 0.0, 0.0, 1.74102313253587E9, 0.0, 2025-03-03 11:32:12.535
147.0, -12182.304225242642, 4910.8123672976935, -37553.769356461686, 1803.204632187442, -187500.02235174447, -34091.03710544552, -63474.72977337, -69212.64609249188, 0.052000000000000005, 0.892, -0.426, 192.0, 1.0, 160.0, 27.0, 224.0, 242.0, 176.0, 0.0, 0.0, 0.0, 1.741023132535894E9, 0.0, 2025-03-03 11:32:12.535
148.0, -12090.438555531331, 5022.258165151855, -37554.194039606344, 1826.4504464209613, -187500.02235174447, -34109.16437019877, -63487.269102009435, -69218.90458093937, 0.052000000000000005, 0.892, -0.426, 192.0, 0.0, 0.0, 0.0, 0.0, 0.0, 0.0, 0.0, 0.0, 0.0, 1.741023132535917E9, 0.0, 2025-03-03 11:32:12.535
149.0, -12181.320748486609, 4921.83177731416, -37585.508833588225, 1780.0035214428333, -187500.02235174447, -34119.51322788158, -63498.66849168164, -69241.18927016131, 0.052000000000000005, 0.892, -0.426, 192.0, 0.0, 0.0, 0.0, 0.0, 0.0, 0.0, 0.0, 0.0, 0.0, 1.741023132535938E9, 0.0, 2025-03-03 11:32:12.535
150.0, -12249.04653418619, 4843.801837420683, -37579.786787007666, 1764.11143113511, -187500.02235174447, -34105.23046317464, -63492.8346863788, -69231.17568864534, 0.052000000000000005, 0.892, -0.426, 192.0, 0.0, 0.0, 0.0, 0.0, 0.0, 0.0, 0.0, 0.0, 0.0, 1.741023132535959E9, 0.0, 2025-03-03 11:32:12.535
151.0, -12204.857135398048, 4894.853221756604, -37559.13377513096, 1788.273666891297, -187500.02235174447, -34099.30725089398, -63490.331290999806, -69209.29333082358, 0.052000000000000005, 0.892, -0.426, 192.0, 0.0, 0.0, 0.0, 0.0, 0.0, 0.0, 0.0, 0.0, 0.0, 1.741023132595416E9, 0.0, 2025-03-03 11:32:12.595
152.0, -12113.460852320297, 5009.204746389955, -37553.702301228324, 1812.815882303224, -187500.02235174447, -34102.12357069535, -63490.66656716664, -69218.47989779472, 0.052000000000000005, 0.892, -0.426, 192.0, 0.0, 0.0, 0.0, 0.0, 0.0, 0.0, 0.0, 0.0, 0.0, 1.741023132595459E9, 0.0, 2025-03-03 11:32:12.595
153.0, -12169.65313788094, 4949.749106138838, -37566.37574033448, 1794.6439140610594, -187500.02235174447, -34095.9991927146, -63480.541226928384, -69221.20681061827, 0.052000000000000005, 0.892, -0.426, 192.0, 0.0, 0.0, 0.0, 0.0, 0.0, 0.0, 0.0, 0.0, 0.0, 1.741023132595481E9, 0.0, 2025-03-03 11:32:12.595
154.0, -12256.847293001092, 4851.513189257764, -37557.88207744146, 1771.2863411052635, -187500.02235174447, -34075.34618083789, -63480.65298565066, -69213.85308669247, 0.052000000000000005, 0.892, -0.426, 192.0, 0.0, 0.0, 0.0, 0.0, 0.0, 0.0, 0.0, 0.0, 0.0, 1.741023132595513E9, 0.0, 2025-03-03 11:32:12.595
155.0, -12212.233211068298, 4897.691893302428, -37533.853952152014, 1804.4116263880285, -187500.02235174447, -34083.70573326418, -63484.51983744143, -69226.61593277645, 0.052000000000000005, 0.892, -0.426, 192.0, 0.0, 0.0, 0.0, 0.0, 0.0, 0.0, 0.0, 0.0, 0.0, 1.741023132595535E9, 0.0, 2025-03-03 11:32:12.595
156.0, -12091.556142754096, 5039.290194426799, -37540.47006851078, 1834.6088331471483, -187500.02235174447, -34098.435532860225, -63479.37893621671, -69238.6411712934, 0.052000000000000005, 0.892, -0.426, 192.0, 0.0, 0.0, 0.0, 0.0, 0.0, 0.0, 0.0, 0.0, 0.0, 1.741023132595561E9, 0.0, 2025-03-03 11:32:12.595
157.0, -12137.98071598777, 4992.865621193126, -37565.727539745276, 1803.3387426541738, -187500.02235174447, -34104.0011172296, -63493.57229394583, -69233.07558692404, 0.042, 0.894, -0.422, 192.0, 1.0, 80.0, 27.0, 240.0, 242.0, 208.0, 0.0, 0.0, 0.0, 1.741023132595582E9, 0.0, 2025-03-03 11:32:12.595
158.0, -12217.597629737573, 4897.557782835696, -37568.5662112911, 1778.9082859645232, -187500.02235174447, -34105.36457364137, -63494.4887154685, -69235.13194741392, 0.042, 0.894, -0.422, 192.0, 0.0, 0.0, 0.0, 0.0, 0.0, 0.0, 0.0, 0.0, 0.0, 1.741023132595605E9, 0.0, 2025-03-03 11:32:12.595
159.0, -12211.585010479095, 4903.346884649621, -37554.261094839705, 1788.3854256135735, -187500.02235174447, -34103.062343962476, -63495.293378268885, -69229.23108687771, 0.042, 0.894, -0.422, 192.0, 0.0, 0.0, 0.0, 0.0, 0.0, 0.0, 0.0, 0.0, 0.0, 1.741023132595626E9, 0.0, 2025-03-03 11:32:12.595
160.0, -12102.44144230383, 5034.641031580095, -37543.95694064581, 1825.198748731464, -187500.02235174447, -34116.56279761348, -63502.58004696132, -69239.15526141587, 0.042, 0.894, -0.422, 192.0, 0.0, 0.0, 0.0, 0.0, 0.0, 0.0, 0.0, 0.0, 0.0, 1.741023132595647E9, 0.0, 2025-03-03 11:32:12.595
161.0, -12091.600846243007, 5049.370831176142, -37558.79849896413, 1826.7633708433357, -187500.02235174447, -34096.692096792714, -63497.97558760353, -69233.85789797996, 0.042, 0.894, -0.422, 192.0, 0.0, 0.0, 0.0, 0.0, 0.0, 0.0, 0.0, 0.0, 0.0, 1.741023132595671E9, 0.0, 2025-03-03 11:32:12.595
162.0, -12191.468440469318, 4932.962946052903, -37561.86068795451, 1791.984056470878, -187500.02235174447, -34080.263564618064, -63486.844418864785, -69221.29621759609, 0.042, 0.894, -0.422, 192.0, 0.0, 0.0, 0.0, 0.0, 0.0, 0.0, 0.0, 0.0, 0.0, 1.741023132595695E9, 0.0, 2025-03-03 11:32:12.595
163.0, -12227.052417642168, 4894.987332223336, -37542.459373767306, 1782.886896477568, -187500.02235174447, -34076.03908491601, -63489.39251773269, -69234.03671193561, 0.042, 0.894, -0.422, 192.0, 0.0, 0.0, 0.0, 0.0, 0.0, 0.0, 0.0, 0.0, 0.0, 1.741023132595716E9, 0.0, 2025-03-03 11:32:12.595
164.0, -12120.054616934613, 5018.614830805639, -37531.01528060619, 1821.6895248519809, -187500.02235174447, -34096.759152026076, -63513.554753488876, -69261.5517093601, 0.042, 0.894, -0.422, 192.0, 0.0, 0.0, 0.0, 0.0, 0.0, 0.0, 0.0, 0.0, 0.0, 1.741023132595737E9, 0.0, 2025-03-03 11:32:12.595
165.0, -12075.842866402016, 5071.163782020067, -37562.68770249936, 1823.9023475530564, -187500.02235174447, -34103.196454429206, -63531.436149053116, -69260.47882562624, 0.042, 0.894, -0.422, 192.0, 0.0, 0.0, 0.0, 0.0, 0.0, 0.0, 0.0, 0.0, 0.0, 1.741023132595758E9, 0.0, 2025-03-03 11:32:12.595
166.0, -12170.234283236776, 4957.683975420472, -37568.54385954665, 1789.234791902875, -187500.02235174447, -34094.523977580546, -63515.67816921213, -69258.31070641408, 0.042, 0.894, -0.422, 192.0, 0.0, 0.0, 0.0, 0.0, 0.0, 0.0, 0.0, 0.0, 0.0, 1.741023132655722E9, 0.0, 2025-03-03 11:32:12.655
167.0, -12212.680245957405, 4905.962038750892, -37540.44771676633, 1786.3737686125958, -187500.02235174447, -34069.914706935255, -63492.54411370088, -69206.85699067796, 0.04, 0.896, -0.418, 192.0, 1.0, 64.0, 28.0, 0.0, 242.0, 240.0, 0.0, 0.0, 0.0, 1.741023132655784E9, 0.0, 2025-03-03 11:32:12.655
168.0, -12118.154718655911, 5012.46810108043, -37526.09789682602, 1824.1258649976094, -187500.02235174447, -34094.76984676955, -63516.57223899034, -69227.55470604356, 0.04, 0.896, -0.418, 192.0, 0.0, 0.0, 0.0, 0.0, 0.0, 0.0, 0.0, 0.0, 0.0, 1.741023132655808E9, 0.0, 2025-03-03 11:32:12.655
169.0, -12043.365781708453, 5097.896468388613, -37560.00549316472, 1833.3124319687406, -187500.02235174447, -34119.066192992475, -63516.393425034694, -69256.41080813538, 0.04, 0.896, -0.418, 192.0, 0.0, 0.0, 0.0, 0.0, 0.0, 0.0, 0.0, 0.0, 0.0, 1.741023132655834E9, 0.0, 2025-03-03 11:32:12.655
170.0, -12146.206157947321, 4980.236885575877, -37575.29408637215, 1786.2843616347745, -187500.02235174447, -34094.16634966926, -63497.48384922551, -69229.3428456, 0.04, 0.896, -0.418, 192.0, 0.0, 0.0, 0.0, 0.0, 0.0, 0.0, 0.0, 0.0, 0.0, 1.741023132655857E9, 0.0, 2025-03-03 11:32:12.655
171.0, -12205.013597609235, 4909.627724841563, -37561.99479842124, 1767.6430067590484, -187500.02235174447, -34084.868023975854, -63513.71121570006, -69238.32824687102, 0.04, 0.896, -0.418, 192.0, 0.0, 0.0, 0.0, 0.0, 0.0, 0.0, 0.0, 0.0, 0.0, 1.741023132655878E9, 0.0, 2025-03-03 11:32:12.655
172.0, -12163.1711319889, 4959.047431832246, -37537.58669347605, 1777.8577539751238, -187500.02235174447, -34080.10710240687, -63520.66260822566, -69252.58865983352, 0.04, 0.896, -0.418, 192.0, 0.0, 0.0, 0.0, 0.0, 0.0, 0.0, 0.0, 0.0, 0.0, 1.741023132655899E9, 0.0, 2025-03-03 11:32:12.655
173.0, -12058.363802237966, 5078.383395479131, -37546.12505985797, 1811.497129380361, -187500.02235174447, -34102.43649511773, -63545.830672482334, -69276.12504674496, 0.04, 0.896, -0.418, 192.0, 0.0, 0.0, 0.0, 0.0, 0.0, 0.0, 0.0, 0.0, 0.0, 1.74102313265592E9, 0.0, 2025-03-03 11:32:12.655
174.0, -12110.622180774473, 5010.344685357176, -37578.26686838471, 1792.811071015724, -187500.02235174447, -34108.292652165015, -63546.92590796065, -69277.19793047881, 0.04, 0.896, -0.418, 192.0, 0.0, 0.0, 0.0, 0.0, 0.0, 0.0, 0.0, 0.0, 0.0, 1.741023132655941E9, 0.0, 2025-03-03 11:32:12.655
175.0, -12178.102097285046, 4928.514948906297, -37584.54770857665, 1767.888875948057, -187500.02235174447, -34116.18281795774, -63539.88510845722, -69268.81602630806, 0.04, 0.896, -0.418, 192.0, 0.0, 0.0, 0.0, 0.0, 0.0, 0.0, 0.0, 0.0, 0.0, 1.741023132655963E9, 0.0, 2025-03-03 11:32:12.655
176.0, -12167.417963435408, 4947.8492078601375, -37568.27563861318, 1764.8713904465903, -187500.02235174447, -34089.96422171166, -63529.625657752236, -69271.9005670429, 0.04, 0.896, -0.418, 192.0, 0.0, 0.0, 0.0, 0.0, 0.0, 0.0, 0.0, 0.0, 0.0, 1.741023132655986E9, 0.0, 2025-03-03 11:32:12.655
177.0, -12056.352145236988, 5079.4562792129855, -37555.15516461792, 1801.7741205423024, -187500.02235174447, -34110.03608823253, -63554.167873164166, -69274.51572114417, 0.044, 0.892, -0.422, 192.0, 1.0, 96.0, 27.0, 224.0, 242.0, 208.0, 0.0, 0.0, 0.0, 1.741023132656007E9, 0.0, 2025-03-03 11:32:12.656
178.0, -12096.451174789809, 5033.769313546338, -37578.91506897391, 1786.8655069906124, -187500.02235174447, -34102.86117826238, -63542.43320732513, -69258.17659594734, 0.044, 0.892, -0.422, 192.0, 0.0, 0.0, 0.0, 0.0, 0.0, 0.0, 0.0, 0.0, 0.0, 1.741023132656033E9, 0.0, 2025-03-03 11:32:12.656
179.0, -12189.769707890715, 4929.677239617973, -37582.089016686565, 1756.3553758091184, -187500.02235174447, -34099.28489914953, -63520.37203554774, -69258.2436511807, 0.044, 0.892, -0.422, 192.0, 0.0, 0.0, 0.0, 0.0, 0.0, 0.0, 0.0, 0.0, 0.0, 1.741023132656054E9, 0.0, 2025-03-03 11:32:12.656
180.0, -12166.88152156848, 4957.639271931562, -37568.745025246746, 1773.7450329953472, -187500.02235174447, -34098.41318111577, -63538.32048634535, -69261.03761923763, 0.044, 0.892, -0.422, 192.0, 0.0, 0.0, 0.0, 0.0, 0.0, 0.0, 0.0, 0.0, 0.0, 1.741023132656076E9, 0.0, 2025-03-03 11:32:12.656
181.0, -12047.120874776945, 5102.322113790764, -37567.895658957445, 1807.78673980078, -187500.02235174447, -34109.767867299066, -63563.13092269075, -69264.01040125018, 0.044, 0.892, -0.422, 192.0, 0.0, 0.0, 0.0, 0.0, 0.0, 0.0, 0.0, 0.0, 0.0, 1.741023132715897E9, 0.0, 2025-03-03 11:32:12.715
182.0, -12076.848694902505, 5073.57777042124, -37597.66818257191, 1781.434033087973, -187500.02235174447, -34103.44232361821, -63560.381658122744, -69261.3952471489, 0.044, 0.892, -0.422, 192.0, 0.0, 0.0, 0.0, 0.0, 0.0, 0.0, 0.0, 0.0, 0.0, 1.741023132715934E9, 0.0, 2025-03-03 11:32:12.715
183.0, -12185.813449122126, 4947.960966582414, -37583.09484518705, 1748.040526871744, -187500.02235174447, -34069.66883774625, -63537.98521017852, -69246.35252313048, 0.044, 0.892, -0.422, 192.0, 0.0, 0.0, 0.0, 0.0, 0.0, 0.0, 0.0, 0.0, 0.0, 1.741023132715956E9, 0.0, 2025-03-03 11:32:12.715
184.0, -12185.522876444207, 4944.362335725109, -37568.745025246746, 1760.1775241109758, -187500.02235174447, -34092.624079301844, -63542.85789046978, -69259.65181108139, 0.044, 0.892, -0.422, 192.0, 0.0, 0.0, 0.0, 0.0, 0.0, 0.0, 0.0, 0.0, 0.0, 1.741023132715977E9, 0.0, 2025-03-03 11:32:12.715
185.0, -12078.05568910309, 5072.90721808758, -37559.06671989759, 1796.1414809395649, -187500.02235174447, -34088.19843389969, -63562.86270175728, -69259.71886631475, 0.044, 0.892, -0.422, 192.0, 0.0, 0.0, 0.0, 0.0, 0.0, 0.0, 0.0, 0.0, 0.0, 1.741023132716009E9, 0.0, 2025-03-03 11:32:12.716
186.0, -12074.546465223608, 5083.2113722814765, -37572.075435170584, 1795.4932803503611, -187500.02235174447, -34087.97491645514, -63551.84329174081, -69266.2455756957, 0.044, 0.892, -0.422, 192.0, 0.0, 0.0, 0.0, 0.0, 0.0, 0.0, 0.0, 0.0, 0.0, 1.741023132716031E9, 0.0, 2025-03-03 11:32:12.716
187.0, -12175.241073994765, 4966.199990057944, -37574.08709217156, 1763.530285779272, -187500.02235174447, -34082.27522161904, -63536.17471887764, -69263.40690414989, 0.046, 0.896, -0.424, 192.0, 1.0, 112.0, 28.0, 0.0, 242.0, 192.0, 0.0, 0.0, 0.0, 1.741023132716052E9, 0.0, 2025-03-03 11:32:12.716
188.0, -12194.396518992964, 4941.791885112749, -37566.88983045695, 1765.430184057973, -187500.02235174447, -34085.56092805397, -63549.85398648429, -69254.42150287885, 0.046, 0.896, -0.424, 192.0, 0.0, 0.0, 0.0, 0.0, 0.0, 0.0, 0.0, 0.0, 0.0, 1.741023132716076E9, 0.0, 2025-03-03 11:32:12.716
189.0, -12100.653302747405, 5052.388316677609, -37572.74598750425, 1789.2124401584197, -187500.02235174447, -34108.31500390947, -63584.72270783457, -69273.62165136596, 0.046, 0.896, -0.424, 192.0, 0.0, 0.0, 0.0, 0.0, 0.0, 0.0, 0.0, 0.0, 0.0, 1.741023132716098E9, 0.0, 2025-03-03 11:32:12.716
190.0, -12053.66993590235, 5111.732198206449, -37582.357237620025, 1802.8023007872464, -187500.02235174447, -34099.73193403863, -63556.82773075435, -69271.4982356427, 0.046, 0.896, -0.424, 192.0, 0.0, 0.0, 0.0, 0.0, 0.0, 0.0, 0.0, 0.0, 0.0, 1.741023132716119E9, 0.0, 2025-03-03 11:32:12.716
191.0, -12160.511274398717, 4995.36901657212, -37589.085112701076, 1773.0074254283222, -187500.02235174447, -34084.77861699803, -63539.549832290395, -69247.15718593088, 0.046, 0.896, -0.424, 192.0, 0.0, 0.0, 0.0, 0.0, 0.0, 0.0, 0.0, 0.0, 0.0, 1.74102313271614E9, 0.0, 2025-03-03 11:32:12.716
192.0, -12190.216742779821, 4956.253463775332, -37576.43402533937, 1775.6002277851378, -187500.02235174447, -34093.540500824514, -63560.26989940047, -69257.46134012478, 0.046, 0.896, -0.424, 192.0, 0.0, 0.0, 0.0, 0.0, 0.0, 0.0, 0.0, 0.0, 0.0, 1.741023132716169E9, 0.0, 2025-03-03 11:32:12.716
193.0, -12110.77864298566, 5044.542854373795, -37559.49140304225, 1800.0530362192437, -187500.02235174447, -34093.4957973356, -63570.931681505645, -69271.9005670429, 0.046, 0.896, -0.424, 192.0, 0.0, 0.0, 0.0, 0.0, 0.0, 0.0, 0.0, 0.0, 0.0, 1.741023132716193E9, 0.0, 2025-03-03 11:32:12.716
194.0, -12040.929441562825, 5127.601936769716, -37583.832452754075, 1812.8605857921345, -187500.02235174447, -34108.784390543035, -63583.448658400615, -69285.53513116064, 0.046, 0.896, -0.424, 192.0, 0.0, 0.0, 0.0, 0.0, 0.0, 0.0, 0.0, 0.0, 0.0, 1.741023132716214E9, 0.0, 2025-03-03 11:32:12.716
195.0, -12143.523948612685, 5011.104644668656, -37599.90335701744, 1776.0249109297886, -187500.02235174447, -34096.759152026076, -63570.328184405356, -69270.33594493102, 0.046, 0.896, -0.424, 192.0, 0.0, 0.0, 0.0, 0.0, 0.0, 0.0, 0.0, 0.0, 0.0, 1.741023132716236E9, 0.0, 2025-03-03 11:32:12.716
196.0, -12200.945580118369, 4941.031925801269, -37585.84410975505, 1768.7382422373585, -187500.02235174447, -34089.56189031147, -63564.80730352489, -69268.7489710747, 0.046, 0.896, -0.424, 192.0, 0.0, 0.0, 0.0, 0.0, 0.0, 0.0, 0.0, 0.0, 0.0, 1.741023132776444E9, 0.0, 2025-03-03 11:32:12.776
197.0, -12156.085628996567, 4993.625580504606, -37558.105594886016, 1788.6536465470372, -187500.02235174447, -34084.82332048695, -63562.415666868175, -69269.37481991945, 0.046, 0.894, -0.426, 192.0, 1.0, 112.0, 27.0, 240.0, 242.0, 176.0, 0.0, 0.0, 0.0, 1.741023132776501E9, 0.0, 2025-03-03 11:32:12.776
198.0, -12059.48138946073, 5109.34056154973, -37567.828603724076, 1815.9674782714224, -187500.02235174447, -34106.258643419584, -63575.04440248542, -69280.59539563602, 0.046, 0.894, -0.426, 192.0, 0.0, 0.0, 0.0, 0.0, 0.0, 0.0, 0.0, 0.0, 0.0, 1.74102313277653E9, 0.0, 2025-03-03 11:32:12.776
199.0, -12133.867995007991, 5028.5613570882515, -37587.63224931148, 1791.4699663484057, -187500.02235174447, -34076.352009338385, -63559.331126133344, -69268.21252920777, 0.046, 0.894, -0.426, 192.0, 0.0, 0.0, 0.0, 0.0, 0.0, 0.0, 0.0, 0.0, 0.0, 1.741023132776551E9, 0.0, 2025-03-03 11:32:12.776
200.0, -12219.318714060631, 4933.789960597749, -37577.193984650854, 1775.041434173755, -187500.02235174447, -34077.42489307224, -63560.806341267395, -69267.31845942956, 0.046, 0.894, -0.426, 192.0, 0.0, 0.0, 0.0, 0.0, 0.0, 0.0, 0.0, 0.0, 0.0, 1.741023132776595E9, 0.0, 2025-03-03 11:32:12.776
201.0, -12167.619129135506, 4990.473984536407, -37564.52054554469, 1801.751768797847, -187500.02235174447, -34091.12651242334, -63570.35053614981, -69280.32717470256, 0.046, 0.894, -0.426, 192.0, 0.0, 0.0, 0.0, 0.0, 0.0, 0.0, 0.0, 0.0, 0.0, 1.741023132776616E9, 0.0, 2025-03-03 11:32:12.776
202.0, -12057.67089815985, 5122.103407633711, -37564.878173455974, 1826.8974813100674, -187500.02235174447, -34097.83203575993, -63579.91708277668, -69271.60999436498, 0.046, 0.894, -0.426, 192.0, 0.0, 0.0, 0.0, 0.0, 0.0, 0.0, 0.0, 0.0, 0.0, 1.741023132776637E9, 0.0, 2025-03-03 11:32:12.776
203.0, -12094.283055577644, 5082.00437808089, -37585.799406266146, 1809.1725479570089, -187500.02235174447, -34081.872890218845, -63577.503094375505, -69260.9929157487, 0.046, 0.894, -0.426, 192.0, 0.0, 0.0, 0.0, 0.0, 0.0, 0.0, 0.0, 0.0, 0.0, 1.741023132776658E9, 0.0, 2025-03-03 11:32:12.776
204.0, -12164.758105845227, 4996.173679372511, -37583.74304577625, 1786.3961203570511, -187500.02235174447, -34079.615364028854, -63578.06188798689, -69263.33984891651, 0.046, 0.894, -0.426, 192.0, 0.0, 0.0, 0.0, 0.0, 0.0, 0.0, 0.0, 0.0, 0.0, 1.741023132776678E9, 0.0, 2025-03-03 11:32:12.776
205.0, -12164.914568056414, 4996.128975883601, -37570.08612991407, 1783.1327656665762, -187500.02235174447, -34073.93802093721, -63583.314547933885, -69269.33011643054, 0.046, 0.894, -0.426, 192.0, 0.0, 0.0, 0.0, 0.0, 0.0, 0.0, 0.0, 0.0, 0.0, 1.741023132776699E9, 0.0, 2025-03-03 11:32:12.776
206.0, -12059.637851671918, 5122.975125667468, -37552.20473434982, 1818.0014870168552, -187500.02235174447, -34087.05849493248, -63589.617739870286, -69278.60609037949, 0.046, 0.894, -0.426, 192.0, 0.0, 0.0, 0.0, 0.0, 0.0, 0.0, 0.0, 0.0, 0.0, 1.74102313277672E9, 0.0, 2025-03-03 11:32:12.776
207.0, -12076.58047396904, 5110.01111388339, -37573.707112515825, 1807.652629334048, -187500.02235174447, -34097.00502121509, -63589.86360905929, -69284.84222708252, 0.044, 0.9, -0.418, 192.0, 1.0, 96.0, 28.0, 32.0, 242.0, 240.0, 0.0, 0.0, 0.0, 1.741023132776744E9, 0.0, 2025-03-03 11:32:12.776
208.0, -12161.874730810492, 5012.244583635877, -37572.61187703751, 1782.7974894997467, -187500.02235174447, -34086.03031468753, -63582.17460896666, -69276.88500605643, 0.044, 0.9, -0.418, 192.0, 0.0, 0.0, 0.0, 0.0, 0.0, 0.0, 0.0, 0.0, 0.0, 1.741023132776771E9, 0.0, 2025-03-03 11:32:12.776
209.0, -12170.055469281135, 5000.062882907735, -37562.642999010444, 1785.0997191786432, -187500.02235174447, -34087.684343777226, -63583.69452758963, -69280.52834040264, 0.044, 0.9, -0.418, 192.0, 0.0, 0.0, 0.0, 0.0, 0.0, 0.0, 0.0, 0.0, 0.0, 1.741023132776792E9, 0.0, 2025-03-03 11:32:12.776
210.0, -12070.031412843635, 5117.878927931658, -37546.03565288015, 1821.5777661297043, -187500.02235174447, -34097.876739248844, -63603.27465573248, -69309.94323610583, 0.044, 0.9, -0.418, 192.0, 0.0, 0.0, 0.0, 0.0, 0.0, 0.0, 0.0, 0.0, 0.0, 1.741023132776814E9, 0.0, 2025-03-03 11:32:12.776
211.0, -12039.320115962044, 5149.0149079579005, -37572.20954563732, 1833.1559697575535, -187500.02235174447, -34105.11870445236, -63605.0627952889, -69300.5107999457, 0.044, 0.9, -0.418, 192.0, 0.0, 0.0, 0.0, 0.0, 0.0, 0.0, 0.0, 0.0, 0.0, 1.741023132836593E9, 0.0, 2025-03-03 11:32:12.836
212.0, -12141.02055323369, 5028.941336743991, -37597.19879593835, 1795.9850187283778, -187500.02235174447, -34092.71348627967, -63597.262036474, -69275.38743917792, 0.044, 0.9, -0.418, 192.0, 0.0, 0.0, 0.0, 0.0, 0.0, 0.0, 0.0, 0.0, 0.0, 1.741023132836624E9, 0.0, 2025-03-03 11:32:12.836
213.0, -12181.298396742153, 4981.712100709928, -37580.882022485974, 1783.9597802114226, -187500.02235174447, -34084.666858275756, -63591.428231171165, -69278.11435200147, 0.044, 0.9, -0.418, 192.0, 0.0, 0.0, 0.0, 0.0, 0.0, 0.0, 0.0, 0.0, 0.0, 1.741023132836665E9, 0.0, 2025-03-03 11:32:12.836
214.0, -12095.177125355856, 5082.250247269899, -37561.391301320946, 1811.720646824914, -187500.02235174447, -34105.65514631929, -63606.78387961196, -69288.351450962, 0.044, 0.9, -0.418, 192.0, 0.0, 0.0, 0.0, 0.0, 0.0, 0.0, 0.0, 0.0, 0.0, 1.741023132836687E9, 0.0, 2025-03-03 11:32:12.836
215.0, -12095.802974200604, 5091.459165985485, -37582.223127153295, 1794.8674315056123, -187500.02235174447, -34101.20714917268, -63602.13471676526, -69283.09879101501, 0.044, 0.9, -0.418, 192.0, 0.0, 0.0, 0.0, 0.0, 0.0, 0.0, 0.0, 0.0, 0.0, 1.741023132836718E9, 0.0, 2025-03-03 11:32:12.836
216.0, -12205.930019131902, 4961.9978621003465, -37585.642944054955, 1767.263027103308, -187500.02235174447, -34076.82139597194, -63590.91414104869, -69289.55844516259, 0.044, 0.9, -0.418, 192.0, 0.0, 0.0, 0.0, 0.0, 0.0, 0.0, 0.0, 0.0, 0.0, 1.74102313283674E9, 0.0, 2025-03-03 11:32:12.836
217.0, -12255.863816245059, 4897.893059002526, -37561.03367340966, 1774.102660906632, -187500.02235174447, -34069.44532030169, -63566.43898087013, -69269.66539259737, 0.04, 0.902, -0.418, 192.0, 1.0, 64.0, 28.0, 48.0, 242.0, 240.0, 0.0, 0.0, 0.0, 1.74102313283676E9, 0.0, 2025-03-03 11:32:12.836
218.0, -12182.684204898384, 4978.314635552721, -37550.43894653785, 1810.6701148355146, -187500.02235174447, -34093.58520431342, -63586.957882280105, -69285.73629686073, 0.04, 0.902, -0.418, 192.0, 0.0, 0.0, 0.0, 0.0, 0.0, 0.0, 0.0, 0.0, 0.0, 1.741023132836784E9, 0.0, 2025-03-03 11:32:12.836
219.0, -12144.015686990702, 5029.522482099829, -37560.765452476204, 1812.7041235809475, -187500.02235174447, -34089.919518222756, -63579.78297230995, -69274.0016310217, 0.04, 0.902, -0.418, 192.0, 0.0, 0.0, 0.0, 0.0, 0.0, 0.0, 0.0, 0.0, 0.0, 1.741023132836806E9, 0.0, 2025-03-03 11:32:12.836
220.0, -12232.66270550045, 4923.105826748112, -37576.277563128184, 1789.7935855142578, -187500.02235174447, -34076.82139597194, -63578.508922876, -69278.02494502366, 0.04, 0.902, -0.418, 192.0, 0.0, 0.0, 0.0, 0.0, 0.0, 0.0, 0.0, 0.0, 0.0, 1.741023132836827E9, 0.0, 2025-03-03 11:32:12.836
221.0, -12294.487630663829, 4844.852369410082, -37580.05500794113, 1779.9588179539226, -187500.02235174447, -34079.43655007322, -63594.222199228076, -69292.84415159753, 0.04, 0.902, -0.418, 192.0, 0.0, 0.0, 0.0, 0.0, 0.0, 0.0, 0.0, 0.0, 0.0, 1.741023132836848E9, 0.0, 2025-03-03 11:32:12.836
222.0, -12237.714199747348, 4904.77739629476, -37574.332961360575, 1805.4398066329727, -187500.02235174447, -34089.29366937801, -63615.50105994953, -69290.38545970744, 0.04, 0.902, -0.418, 192.0, 0.0, 0.0, 0.0, 0.0, 0.0, 0.0, 0.0, 0.0, 0.0, 1.741023132836872E9, 0.0, 2025-03-03 11:32:12.836
223.0, -12169.161399502922, 4989.266990335821, -37580.52439457469, 1817.397989916562, -187500.02235174447, -34069.624134257334, -63611.07541454738, -69281.66827936987, 0.04, 0.902, -0.418, 192.0, 0.0, 0.0, 0.0, 0.0, 0.0, 0.0, 0.0, 0.0, 0.0, 1.741023132836893E9, 0.0, 2025-03-03 11:32:12.836
224.0, -12238.340048592097, 4906.789053295738, -37597.98110699429, 1796.4097018730286, -187500.02235174447, -34069.6911894907, -63615.92574309418, -69286.07157302757, 0.04, 0.902, -0.418, 192.0, 0.0, 0.0, 0.0, 0.0, 0.0, 0.0, 0.0, 0.0, 0.0, 1.741023132836917E9, 0.0, 2025-03-03 11:32:12.836
225.0, -12308.524526181762, 4820.108988298058, -37589.1745196789, 1786.6643412905148, -187500.02235174447, -34068.08186388992, -63613.39999597073, -69309.11622156098, 0.04, 0.902, -0.418, 192.0, 0.0, 0.0, 0.0, 0.0, 0.0, 0.0, 0.0, 0.0, 0.0, 1.741023132836938E9, 0.0, 2025-03-03 11:32:12.836
226.0, -12297.706281865392, 4829.876700625026, -37568.43210082437, 1799.0695594632102, -187500.02235174447, -34058.89529691879, -63614.20465877112, -69287.88206432844, 0.04, 0.902, -0.418, 192.0, 0.0, 0.0, 0.0, 0.0, 0.0, 0.0, 0.0, 0.0, 0.0, 1.741023132896057E9, 0.0, 2025-03-03 11:32:12.896
227.0, -12163.461704666819, 4979.812202431226, -37567.7168450018, 1853.719574656436, -187500.02235174447, -34078.76599773955, -63633.091882835855, -69286.25038698321, 0.04, 0.898, -0.42, 192.0, 1.0, 64.0, 28.0, 16.0, 242.0, 224.0, 0.0, 0.0, 0.0, 1.741023132896088E9, 0.0, 2025-03-03 11:32:12.896
228.0, -12195.491754471273, 4942.373030468587, -37601.08799947357, 1835.167626758531, -187500.02235174447, -34087.661992032765, -63623.01124608651, -69298.02975631115, 0.04, 0.898, -0.42, 192.0, 0.0, 0.0, 0.0, 0.0, 0.0, 0.0, 0.0, 0.0, 0.0, 1.741023132896137E9, 0.0, 2025-03-03 11:32:12.896
229.0, -12282.708261335882, 4842.684250197917, -37603.81491229712, 1805.3727513996068, -187500.02235174447, -34084.82332048695, -63617.53506869496, -69301.22605576826, 0.04, 0.898, -0.42, 192.0, 0.0, 0.0, 0.0, 0.0, 0.0, 0.0, 0.0, 0.0, 0.0, 1.741023132896159E9, 0.0, 2025-03-03 11:32:12.896
230.0, -12290.777241084248, 4836.939851872904, -37595.14243544846, 1797.7284547958918, -187500.02235174447, -34076.37436108284, -63612.327112236875, -69307.79746863812, 0.04, 0.898, -0.42, 192.0, 0.0, 0.0, 0.0, 0.0, 0.0, 0.0, 0.0, 0.0, 0.0, 1.741023132896186E9, 0.0, 2025-03-03 11:32:12.896
231.0, -12186.707518900337, 4960.276777777288, -37579.13858641846, 1826.2716324653188, -187500.02235174447, -34080.12945415133, -63618.74206289555, -69303.08125055805, 0.04, 0.898, -0.42, 192.0, 0.0, 0.0, 0.0, 0.0, 0.0, 0.0, 0.0, 0.0, 0.0, 1.74102313289621E9, 0.0, 2025-03-03 11:32:12.896
232.0, -12171.351870459543, 4977.465269263419, -37592.52728134719, 1838.9003680825674, -187500.02235174447, -34082.11875940785, -63612.30476049242, -69289.62550039595, 0.04, 0.898, -0.42, 192.0, 0.0, 0.0, 0.0, 0.0, 0.0, 0.0, 0.0, 0.0, 0.0, 1.741023132896231E9, 0.0, 2025-03-03 11:32:12.896
233.0, -12261.876435503536, 4876.72595700335, -37599.18810119487, 1807.3173531672185, -187500.02235174447, -34068.68536099021, -63594.222199228076, -69273.10756124348, 0.04, 0.898, -0.42, 192.0, 0.0, 0.0, 0.0, 0.0, 0.0, 0.0, 0.0, 0.0, 0.0, 1.741023132896252E9, 0.0, 2025-03-03 11:32:12.896
234.0, -12280.070755490156, 4859.023375394747, -37582.75956902022, 1802.6458385760593, -187500.02235174447, -34072.26164010306, -63605.30866447791, -69278.98607003523, 0.04, 0.898, -0.42, 192.0, 0.0, 0.0, 0.0, 0.0, 0.0, 0.0, 0.0, 0.0, 0.0, 1.741023132896273E9, 0.0, 2025-03-03 11:32:12.896
235.0, -12166.926225057392, 4990.451632791953, -37577.95394396233, 1836.5087314258494, -187500.02235174447, -34088.62311704434, -63635.952906126135, -69313.25129428522, 0.04, 0.898, -0.42, 192.0, 0.0, 0.0, 0.0, 0.0, 0.0, 0.0, 0.0, 0.0, 0.0, 1.741023132896295E9, 0.0, 2025-03-03 11:32:12.896
236.0, -12156.934995285868, 5006.768406244327, -37600.752723306745, 1828.3503446996624, -187500.02235174447, -34094.9486607252, -63631.549612468436, -69310.90436111741, 0.04, 0.898, -0.42, 192.0, 0.0, 0.0, 0.0, 0.0, 0.0, 0.0, 0.0, 0.0, 0.0, 1.741023132896327E9, 0.0, 2025-03-03 11:32:12.896
237.0, -12247.101932418578, 4902.8327945271485, -37613.15794147944, 1798.3766553850955, -187500.02235174447, -34098.81551251597, -63631.750778168534, -69316.17937280887, 0.042, 0.892, -0.422, 192.0, 1.0, 80.0, 27.0, 224.0, 242.0, 208.0, 0.0, 0.0, 0.0, 1.741023132896349E9, 0.0, 2025-03-03 11:32:12.896
238.0, -12259.797723269192, 4885.06315768518, -37600.86448202902, 1803.3163909097186, -187500.02235174447, -34094.456922347184, -63633.33775202486, -69313.47481172977, 0.042, 0.892, -0.422, 192.0, 0.0, 0.0, 0.0, 0.0, 0.0, 0.0, 0.0, 0.0, 0.0, 1.741023132896375E9, 0.0, 2025-03-03 11:32:12.896
239.0, -12165.02632677869, 4998.542964284774, -37580.72556027479, 1834.0500395357658, -187500.02235174447, -34107.84561727591, -63648.98397314358, -69312.84896288502, 0.042, 0.892, -0.422, 192.0, 0.0, 0.0, 0.0, 0.0, 0.0, 0.0, 0.0, 0.0, 0.0, 1.741023132896399E9, 0.0, 2025-03-03 11:32:12.896
240.0, -12118.042959933635, 5062.066622026757, -37594.15895869243, 1842.36488847314, -187500.02235174447, -34104.35874514088, -63637.428121260185, -69300.62255866796, 0.042, 0.892, -0.422, 192.0, 0.0, 0.0, 0.0, 0.0, 0.0, 0.0, 0.0, 0.0, 0.0, 1.741023132896421E9, 0.0, 2025-03-03 11:32:12.896
241.0, -12197.816335894626, 4969.8656761486145, -37596.707057560336, 1821.8683388076233, -187500.02235174447, -34095.88743399232, -63628.64388568925, -69307.95393084931, 0.042, 0.892, -0.422, 192.0, 0.0, 0.0, 0.0, 0.0, 0.0, 0.0, 0.0, 0.0, 0.0, 1.741023132955809E9, 0.0, 2025-03-03 11:32:12.955
242.0, -12238.541214292194, 4923.239937214844, -37590.403865623935, 1811.9218125250118, -187500.02235174447, -34095.68626829222, -63626.07343507689, -69297.13568653294, 0.042, 0.892, -0.422, 192.0, 0.0, 0.0, 0.0, 0.0, 0.0, 0.0, 0.0, 0.0, 0.0, 1.741023132955839E9, 0.0, 2025-03-03 11:32:12.955
243.0, -12157.69495459735, 5019.888880239592, -37581.4184643529, 1837.1792837595087, -187500.02235174447, -34101.83299801743, -63644.69243820816, -69315.10648907501, 0.042, 0.892, -0.422, 192.0, 0.0, 0.0, 0.0, 0.0, 0.0, 0.0, 0.0, 0.0, 0.0, 1.741023132955877E9, 0.0, 2025-03-03 11:32:12.955
244.0, -12115.852488977014, 5081.065604813767, -37592.080246458085, 1825.6681353650256, -187500.02235174447, -34084.376285597835, -63642.92665039619, -69312.82661114057, 0.042, 0.892, -0.422, 192.0, 0.0, 0.0, 0.0, 0.0, 0.0, 0.0, 0.0, 0.0, 0.0, 1.741023132955902E9, 0.0, 2025-03-03 11:32:12.955
245.0, -12195.983492849291, 4988.976417657902, -37598.69636281686, 1803.4057978875398, -187500.02235174447, -34084.48804432011, -63632.466033991106, -69305.24936977022, 0.042, 0.892, -0.422, 192.0, 0.0, 0.0, 0.0, 0.0, 0.0, 0.0, 0.0, 0.0, 0.0, 1.741023132955923E9, 0.0, 2025-03-03 11:32:12.955
246.0, -12240.508167804262, 4932.270041974788, -37596.416484882415, 1800.8353472751794, -187500.02235174447, -34096.334468881425, -63637.53987998246, -69312.06665182908, 0.042, 0.892, -0.422, 192.0, 0.0, 0.0, 0.0, 0.0, 0.0, 0.0, 0.0, 0.0, 0.0, 1.741023132955953E9, 0.0, 2025-03-03 11:32:12.955
247.0, -12196.542286460673, 4982.94144665497, -37581.19494690835, 1818.493225394872, -187500.02235174447, -34102.7494195401, -63649.76628419951, -69326.72939619177, 0.042, 0.902, -0.426, 192.0, 1.0, 80.0, 28.0, 48.0, 242.0, 176.0, 0.0, 0.0, 0.0, 1.741023132955974E9, 0.0, 2025-03-03 11:32:12.955
248.0, -12100.608599258496, 5099.595200967217, -37574.82469973859, 1849.7633158878466, -187500.02235174447, -34097.58616657092, -63646.39117078677, -69322.95195137883, 0.042, 0.902, -0.426, 192.0, 0.0, 0.0, 0.0, 0.0, 0.0, 0.0, 0.0, 0.0, 0.0, 1.741023132956001E9, 0.0, 2025-03-03 11:32:12.956
249.0, -12164.579291889584, 5028.986040232902, -37598.00345873874, 1822.2036149744529, -187500.02235174447, -34091.50649207908, -63636.55640322643, -69317.29696003163, 0.042, 0.902, -0.426, 192.0, 0.0, 0.0, 0.0, 0.0, 0.0, 0.0, 0.0, 0.0, 0.0, 1.741023132956022E9, 0.0, 2025-03-03 11:32:12.956
250.0, -12261.85408375908, 4917.7414080788385, -37583.58658356507, 1790.397082614551, -187500.02235174447, -34071.43462555821, -63619.390263484755, -69297.02392781066, 0.042, 0.902, -0.426, 192.0, 0.0, 0.0, 0.0, 0.0, 0.0, 0.0, 0.0, 0.0, 0.0, 1.741023132956044E9, 0.0, 2025-03-03 11:32:12.956
251.0, -12245.671420773439, 4936.06983853219, -37556.33980707405, 1811.0500944912546, -187500.02235174447, -34078.430721572724, -63623.61474318681, -69301.22605576826, 0.042, 0.902, -0.426, 192.0, 0.0, 0.0, 0.0, 0.0, 0.0, 0.0, 0.0, 0.0, 0.0, 1.741023132956065E9, 0.0, 2025-03-03 11:32:12.956
252.0, -12121.418073346385, 5078.942189090513, -37564.319379844594, 1856.5582462022599, -187500.02235174447, -34093.42874210224, -63648.08990336537, -69330.97622763828, 0.042, 0.902, -0.426, 192.0, 0.0, 0.0, 0.0, 0.0, 0.0, 0.0, 0.0, 0.0, 0.0, 1.741023132956087E9, 0.0, 2025-03-03 11:32:12.956
253.0, -12158.141989486456, 5038.887863026603, -37587.16286267792, 1839.1909407604865, -187500.02235174447, -34082.11875940785, -63644.44656901915, -69314.70415767482, 0.042, 0.902, -0.426, 192.0, 0.0, 0.0, 0.0, 0.0, 0.0, 0.0, 0.0, 0.0, 0.0, 1.741023132956112E9, 0.0, 2025-03-03 11:32:12.956
254.0, -12227.1865281089, 4953.5489026962405, -37580.16676666341, 1825.4222661760173, -187500.02235174447, -34073.043951158994, -63642.01022887352, -69309.38444249445, 0.042, 0.902, -0.426, 192.0, 0.0, 0.0, 0.0, 0.0, 0.0, 0.0, 0.0, 0.0, 0.0, 1.741023132956136E9, 0.0, 2025-03-03 11:32:12.956
255.0, -12212.121452346022, 4966.423507502497, -37561.01132166521, 1840.2191210054305, -187500.02235174447, -34079.481253562124, -63639.75270268354, -69324.3154077906, 0.042, 0.902, -0.426, 192.0, 0.0, 0.0, 0.0, 0.0, 0.0, 0.0, 0.0, 0.0, 0.0, 1.741023132956157E9, 0.0, 2025-03-03 11:32:12.956
0.0, -12107.939971439835, 5086.34061650522, -37556.988007663254, 1862.1908858049974, -187500.02235174447, -34088.17608215524, -63654.01311564602, -69362.78275999818, 0.042, 0.902, -0.426, 192.0, 0.0, 0.0, 0.0, 0.0, 0.0, 0.0, 0.0, 0.0, 0.0, 1.741023133016092E9, 0.0, 2025-03-03 11:32:13.016
1.0, -12123.273268136176, 5069.956787819479, -37586.33584813307, 1841.3814117171064, -187500.02235174447, -34083.03518093052, -63655.77890345799, -69314.0112535967, 0.038, 0.9, -0.43, 192.0, 1.0, 48.0, 28.0, 32.0, 242.0, 144.0, 0.0, 0.0, 0.0, 1.741023133016122E9, 0.0, 2025-03-03 11:32:13.016
2.0, -12229.555813021161, 4947.603338671129, -37583.698342287345, 1804.3892746435733, -187500.02235174447, -34063.410349298756, -63637.15990032672, -69294.76640162068, 0.038, 0.9, -0.43, 192.0, 0.0, 0.0, 0.0, 0.0, 0.0, 0.0, 0.0, 0.0, 0.0, 1.741023133016166E9, 0.0, 2025-03-03 11:32:13.016
3.0, -12230.427531054918, 4942.037754301758, -37558.105594886016, 1819.1637777285312, -187500.02235174447, -34073.200413370185, -63638.14337708276, -69314.05595708561, 0.038, 0.9, -0.43, 192.0, 0.0, 0.0, 0.0, 0.0, 0.0, 0.0, 0.0, 0.0, 0.0, 1.741023133016191E9, 0.0, 2025-03-03 11:32:13.016
4.0, -12125.083759437057, 5059.7867440923155, -37558.91025768641, 1846.3211472417292, -187500.02235174447, -34103.5987858294, -63665.390153573775, -69314.03360534116, 0.038, 0.9, -0.43, 192.0, 0.0, 0.0, 0.0, 0.0, 0.0, 0.0, 0.0, 0.0, 0.0, 1.741023133016212E9, 0.0, 2025-03-03 11:32:13.016
5.0, -12097.322892823566, 5089.849840384703, -37579.45151084084, 1840.330879727707, -187500.02235174447, -34108.69498356521, -63658.259947092534, -69312.73720416275, 0.038, 0.9, -0.43, 192.0, 0.0, 0.0, 0.0, 0.0, 0.0, 0.0, 0.0, 0.0, 0.0, 1.741023133016242E9, 0.0, 2025-03-03 11:32:13.016
6.0, -12183.22064676531, 4989.781080458293, -37594.49423485926, 1805.1939374439644, -187500.02235174447, -34107.97972774264, -63649.05102837695, -69313.47481172977, 0.038, 0.9, -0.43, 192.0, 0.0, 0.0, 0.0, 0.0, 0.0, 0.0, 0.0, 0.0, 0.0, 1.741023133016262E9, 0.0, 2025-03-03 11:32:13.016
7.0, -12221.553888506161, 4945.83755085916, -37586.15703417743, 1791.7381872818694, -187500.02235174447, -34101.96710848416, -63646.61468823132, -69302.50010520221, 0.038, 0.9, -0.43, 192.0, 0.0, 0.0, 0.0, 0.0, 0.0, 0.0, 0.0, 0.0, 0.0, 1.741023133016284E9, 0.0, 2025-03-03 11:32:13.016
8.0, -12154.766876073703, 5026.773217531827, -37568.40974907992, 1812.6370683475816, -187500.02235174447, -34101.20714917268, -63665.05487740695, -69300.06376505659, 0.038, 0.9, -0.43, 192.0, 0.0, 0.0, 0.0, 0.0, 0.0, 0.0, 0.0, 0.0, 0.0, 1.741023133016308E9, 0.0, 2025-03-03 11:32:13.016
9.0, -12089.745651453215, 5098.276448044354, -37571.49428981475, 1837.559263415249, -187500.02235174447, -34099.86604450537, -63666.440685563175, -69284.5516544046, 0.038, 0.9, -0.43, 192.0, 0.0, 0.0, 0.0, 0.0, 0.0, 0.0, 0.0, 0.0, 0.0, 1.741023133016329E9, 0.0, 2025-03-03 11:32:13.016
10.0, -12163.148780244444, 5003.460348064941, -37585.933516732875, 1815.8333678046904, -187500.02235174447, -34098.5472915825, -63650.23567083308, -69263.96569776126, 0.038, 0.9, -0.43, 192.0, 0.0, 0.0, 0.0, 0.0, 0.0, 0.0, 0.0, 0.0, 0.0, 1.74102313301635E9, 0.0, 2025-03-03 11:32:13.016
11.0, -12211.540306990184, 4940.8084083567155, -37585.33001963258, 1801.59530658666, -187500.02235174447, -34096.91561423727, -63653.09669412336, -69252.81217727807, 0.048, 0.892, -0.42, 192.0, 1.0, 128.0, 27.0, 224.0, 242.0, 224.0, 0.0, 0.0, 0.0, 1.741023133016371E9, 0.0, 2025-03-03 11:32:13.016
12.0, -12147.994297503747, 5013.317467369731, -37561.79363272114, 1825.7351905983915, -187500.02235174447, -34102.302384651, -63660.986859916076, -69245.39139811891, 0.048, 0.892, -0.42, 192.0, 0.0, 0.0, 0.0, 0.0, 0.0, 0.0, 0.0, 0.0, 0.0, 1.741023133016397E9, 0.0, 2025-03-03 11:32:13.016
13.0, -12036.794368838593, 5139.515416564395, -37569.52733630268, 1863.040252094299, -187500.02235174447, -34116.115762724374, -63670.70986875414, -69241.05515969457, 0.048, 0.892, -0.42, 192.0, 0.0, 0.0, 0.0, 0.0, 0.0, 0.0, 0.0, 0.0, 0.0, 1.741023133016421E9, 0.0, 2025-03-03 11:32:13.016
14.0, -12120.747521012727, 5046.71097358596, -37591.76732203571, 1827.7244958549138, -187500.02235174447, -34096.11095143687, -63649.252194077046, -69205.94056915528, 0.048, 0.892, -0.42, 192.0, 0.0, 0.0, 0.0, 0.0, 0.0, 0.0, 0.0, 0.0, 0.0, 1.741023133016442E9, 0.0, 2025-03-03 11:32:13.016
15.0, -12177.83387635158, 4981.242714076366, -37578.22216489579, 1818.783798072791, -187500.02235174447, -34101.63183231733, -63645.34063879737, -69194.00473761615, 0.048, 0.892, -0.42, 192.0, 0.0, 0.0, 0.0, 0.0, 0.0, 0.0, 0.0, 0.0, 0.0, 1.7410231330764E9, 0.0, 2025-03-03 11:32:13.076
16.0, -12149.000126004235, 5022.548737829774, -37565.8169467231, 1822.5835946301931, -187500.02235174447, -34114.37232665686, -63657.276470336496, -69187.18745555729, 0.048, 0.892, -0.42, 192.0, 0.0, 0.0, 0.0, 0.0, 0.0, 0.0, 0.0, 0.0, 0.0, 1.741023133076434E9, 0.0, 2025-03-03 11:32:13.076
17.0, -12070.523151221652, 5124.718561734982, -37557.680911741365, 1837.6263186486149, -187500.02235174447, -34108.359707398384, -63654.66131623523, -69172.14473153887, 0.048, 0.892, -0.42, 192.0, 0.0, 0.0, 0.0, 0.0, 0.0, 0.0, 0.0, 0.0, 0.0, 1.741023133076457E9, 0.0, 2025-03-03 11:32:13.076
18.0, -12121.283962879654, 5069.219180252455, -37578.11040617352, 1822.7624085858356, -187500.02235174447, -34109.7008120657, -63658.528168025994, -69173.21761527272, 0.048, 0.892, -0.42, 192.0, 0.0, 0.0, 0.0, 0.0, 0.0, 0.0, 0.0, 0.0, 0.0, 1.741023133076497E9, 0.0, 2025-03-03 11:32:13.076
19.0, -12199.805641151148, 4976.638254718573, -37582.49134808676, 1793.749844282847, -187500.02235174447, -34111.6007103444, -63649.31924931041, -69158.86779533241, 0.048, 0.892, -0.42, 192.0, 0.0, 0.0, 0.0, 0.0, 0.0, 0.0, 0.0, 0.0, 0.0, 1.741023133076519E9, 0.0, 2025-03-03 11:32:13.076
20.0, -12195.60351319355, 4987.210629845933, -37555.64690299593, 1797.817861773713, -187500.02235174447, -34105.52103585256, -63642.9713538851, -69139.4217776563, 0.048, 0.892, -0.42, 192.0, 0.0, 0.0, 0.0, 0.0, 0.0, 0.0, 0.0, 0.0, 0.0, 1.741023133076546E9, 0.0, 2025-03-03 11:32:13.076
21.0, -12071.77484891115, 5137.369649096686, -37543.55460924561, 1844.5106559408493, -187500.02235174447, -34115.57932085745, -63661.344487827366, -69143.55685038053, 0.052000000000000005, 0.89, -0.422, 192.0, 1.0, 160.0, 27.0, 208.0, 242.0, 208.0, 0.0, 0.0, 0.0, 1.741023133076572E9, 0.0, 2025-03-03 11:32:13.076
22.0, -12110.890401707937, 5101.696264946016, -37575.83052823908, 1818.6049841171484, -187500.02235174447, -34110.30430916599, -63648.760455699026, -69158.66662963231, 0.052000000000000005, 0.89, -0.422, 192.0, 0.0, 0.0, 0.0, 0.0, 0.0, 0.0, 0.0, 0.0, 0.0, 1.741023133076595E9, 0.0, 2025-03-03 11:32:13.076
23.0, -12199.000978350758, 5000.08523465219, -37571.98602819276, 1792.5204983378053, -187500.02235174447, -34105.27516666355, -63644.31245855242, -69174.31285075103, 0.052000000000000005, 0.89, -0.422, 192.0, 0.0, 0.0, 0.0, 0.0, 0.0, 0.0, 0.0, 0.0, 0.0, 1.741023133076616E9, 0.0, 2025-03-03 11:32:13.076
24.0, -12223.319676318131, 4975.945350640458, -37561.92774318788, 1786.4408238459616, -187500.02235174447, -34086.298535621, -63650.54859525545, -69120.17692568028, 0.052000000000000005, 0.89, -0.422, 192.0, 0.0, 0.0, 0.0, 0.0, 0.0, 0.0, 0.0, 0.0, 0.0, 1.741023133076638E9, 0.0, 2025-03-03 11:32:13.076
25.0, -12133.599774074528, 5085.714767660471, -37533.8092486631, 1821.5107108963384, -187500.02235174447, -34079.280087862026, -63656.40475230274, -69110.23039939767, 0.052000000000000005, 0.89, -0.422, 192.0, 0.0, 0.0, 0.0, 0.0, 0.0, 0.0, 0.0, 0.0, 0.0, 1.74102313307666E9, 0.0, 2025-03-03 11:32:13.076
26.0, -12130.291715895142, 5091.168593307566, -37559.357292575514, 1825.914004554034, -187500.02235174447, -34079.10127390639, -63640.80323467294, -69106.63176854036, 0.052000000000000005, 0.89, -0.422, 192.0, 0.0, 0.0, 0.0, 0.0, 0.0, 0.0, 0.0, 0.0, 0.0, 1.741023133076681E9, 0.0, 2025-03-03 11:32:13.076
27.0, -12232.081560144612, 4973.956045383936, -37564.49819380024, 1796.8343850176796, -187500.02235174447, -34078.520128550546, -63622.02776933048, -69114.34312037744, 0.052000000000000005, 0.89, -0.422, 192.0, 0.0, 0.0, 0.0, 0.0, 0.0, 0.0, 0.0, 0.0, 0.0, 1.741023133076703E9, 0.0, 2025-03-03 11:32:13.076
28.0, -12261.965842481357, 4939.6908211339505, -37552.38354830546, 1797.0579024622325, -187500.02235174447, -34087.9972681996, -63637.96456312711, -69125.94367574975, 0.052000000000000005, 0.89, -0.422, 192.0, 0.0, 0.0, 0.0, 0.0, 0.0, 0.0, 0.0, 0.0, 0.0, 1.741023133076727E9, 0.0, 2025-03-03 11:32:13.076
29.0, -12157.471437152797, 5058.512694658362, -37543.37579528997, 1836.6651936370367, -187500.02235174447, -34105.163407941276, -63660.74099072707, -69149.63652487237, 0.052000000000000005, 0.89, -0.422, 192.0, 0.0, 0.0, 0.0, 0.0, 0.0, 0.0, 0.0, 0.0, 0.0, 1.741023133076753E9, 0.0, 2025-03-03 11:32:13.076
30.0, -12111.337436597043, 5108.781767938348, -37572.70128401533, 1842.3201849842294, -187500.02235174447, -34108.80674228749, -63667.44651406366, -69161.46059768923, 0.052000000000000005, 0.89, -0.422, 192.0, 0.0, 0.0, 0.0, 0.0, 0.0, 0.0, 0.0, 0.0, 0.0, 1.74102313313678E9, 0.0, 2025-03-03 11:32:13.136
31.0, -12200.051510340156, 5003.505051553851, -37582.53605157567, 1811.2959636802632, -187500.02235174447, -34079.637715773315, -63647.12877835379, -69122.0097687256, 0.042, 0.892, -0.418, 192.0, 1.0, 80.0, 27.0, 224.0, 242.0, 240.0, 0.0, 0.0, 0.0, 1.741023133136811E9, 0.0, 2025-03-03 11:32:13.136
32.0, -12212.769652935225, 4979.946312897959, -37572.366007848505, 1822.1589114855424, -187500.02235174447, -34080.77765474053, -63657.634098247785, -69126.05543447201, 0.042, 0.892, -0.418, 192.0, 0.0, 0.0, 0.0, 0.0, 0.0, 0.0, 0.0, 0.0, 0.0, 1.741023133136835E9, 0.0, 2025-03-03 11:32:13.136
33.0, -12134.739713041748, 5070.962616319968, -37568.34269384655, 1840.8002663612685, -187500.02235174447, -34091.21591940116, -63669.32406059791, -69146.61903937091, 0.042, 0.892, -0.418, 192.0, 0.0, 0.0, 0.0, 0.0, 0.0, 0.0, 0.0, 0.0, 0.0, 1.741023133136874E9, 0.0, 2025-03-03 11:32:13.136
34.0, -12079.1509245814, 5138.77780899737, -37565.10169090053, 1852.2443595223856, -187500.02235174447, -34094.7474950251, -63667.24534836356, -69140.36055092342, 0.042, 0.892, -0.418, 192.0, 0.0, 0.0, 0.0, 0.0, 0.0, 0.0, 0.0, 0.0, 0.0, 1.741023133136899E9, 0.0, 2025-03-03 11:32:13.136
35.0, -12165.920396556903, 5036.7197438144385, -37582.804272509136, 1819.07437075071, -187500.02235174447, -34084.75626525358, -63662.93146168369, -69135.71138807671, 0.042, 0.892, -0.418, 192.0, 0.0, 0.0, 0.0, 0.0, 0.0, 0.0, 0.0, 0.0, 0.0, 1.741023133136921E9, 0.0, 2025-03-03 11:32:13.136
36.0, -12221.240964083787, 4970.871504649103, -37570.399054336434, 1803.9198880100118, -187500.02235174447, -34093.38403861332, -63672.05097342146, -69148.11660624942, 0.042, 0.892, -0.418, 192.0, 0.0, 0.0, 0.0, 0.0, 0.0, 0.0, 0.0, 0.0, 0.0, 1.741023133136952E9, 0.0, 2025-03-03 11:32:13.136
37.0, -12146.228509691777, 5057.9091975580695, -37549.74604245974, 1834.809998847246, -187500.02235174447, -34097.27324214855, -63673.39207808877, -69153.63748712988, 0.042, 0.892, -0.418, 192.0, 0.0, 0.0, 0.0, 0.0, 0.0, 0.0, 0.0, 0.0, 0.0, 1.741023133136973E9, 0.0, 2025-03-03 11:32:13.136
38.0, -12068.53384596513, 5154.692251049549, -37553.23291459476, 1844.1977315184752, -187500.02235174447, -34094.658088047276, -63677.59420604637, -69157.07965577599, 0.042, 0.892, -0.418, 192.0, 0.0, 0.0, 0.0, 0.0, 0.0, 0.0, 0.0, 0.0, 0.0, 1.741023133136994E9, 0.0, 2025-03-03 11:32:13.136
39.0, -12167.93205355788, 5046.733325330416, -37579.7197317743, 1797.4602338624281, -187500.02235174447, -34083.348105352896, -63666.731258241096, -69147.8707370604, 0.042, 0.892, -0.418, 192.0, 0.0, 0.0, 0.0, 0.0, 0.0, 0.0, 0.0, 0.0, 0.0, 1.741023133137015E9, 0.0, 2025-03-03 11:32:13.137
40.0, -12222.135033862, 4982.762632699327, -37578.736255018266, 1795.2921146502633, -187500.02235174447, -34095.12747468084, -63666.17246462971, -69149.01067602762, 0.042, 0.892, -0.418, 192.0, 0.0, 0.0, 0.0, 0.0, 0.0, 0.0, 0.0, 0.0, 0.0, 1.741023133137036E9, 0.0, 2025-03-03 11:32:13.137
41.0, -12195.201181793354, 5018.771293016826, -37561.65952225441, 1808.6137543456264, -187500.02235174447, -34088.578413555435, -63661.90328143875, -69144.13799573637, 0.04, 0.89, -0.42, 192.0, 1.0, 64.0, 27.0, 208.0, 242.0, 224.0, 0.0, 0.0, 0.0, 1.741023133137056E9, 0.0, 2025-03-03 11:32:13.137
42.0, -12098.48518353524, 5137.146131652133, -37547.130888358464, 1841.783743117302, -187500.02235174447, -34094.591032813914, -63669.90520595375, -69161.5723564115, 0.04, 0.89, -0.42, 192.0, 0.0, 0.0, 0.0, 0.0, 0.0, 0.0, 0.0, 0.0, 0.0, 1.741023133137079E9, 0.0, 2025-03-03 11:32:13.137
43.0, -12121.418073346385, 5107.775939437859, -37580.81496725261, 1838.2074640044527, -187500.02235174447, -34098.167311926765, -63680.32111886992, -69171.85415886095, 0.04, 0.89, -0.42, 192.0, 0.0, 0.0, 0.0, 0.0, 0.0, 0.0, 0.0, 0.0, 0.0, 1.741023133137108E9, 0.0, 2025-03-03 11:32:13.137
44.0, -12193.211876536832, 5020.782950017804, -37584.882984743475, 1810.4913008798721, -187500.02235174447, -34090.76888451206, -63676.52132231252, -69160.49947267765, 0.04, 0.89, -0.42, 192.0, 0.0, 0.0, 0.0, 0.0, 0.0, 0.0, 0.0, 0.0, 0.0, 1.741023133137132E9, 0.0, 2025-03-03 11:32:13.137
45.0, -12180.73960313077, 5034.506921113363, -37568.14152814645, 1811.653591591548, -187500.02235174447, -34098.591995071416, -63685.41731660573, -69169.95426058225, 0.04, 0.89, -0.42, 192.0, 0.0, 0.0, 0.0, 0.0, 0.0, 0.0, 0.0, 0.0, 0.0, 1.74102313319626E9, 0.0, 2025-03-03 11:32:13.196
46.0, -12069.96435761027, 5166.829248288781, -37554.6634262399, 1846.4329059640058, -187500.02235174447, -34104.2022829297, -63695.74382254408, -69159.04660928805, 0.04, 0.89, -0.42, 192.0, 0.0, 0.0, 0.0, 0.0, 0.0, 0.0, 0.0, 0.0, 0.0, 1.74102313319629E9, 0.0, 2025-03-03 11:32:13.196
47.0, -12074.747630923704, 5162.448306375541, -37576.92576371739, 1848.623376920626, -187500.02235174447, -34107.93502425373, -63686.914883484234, -69159.24777498815, 0.04, 0.89, -0.42, 192.0, 0.0, 0.0, 0.0, 0.0, 0.0, 0.0, 0.0, 0.0, 0.0, 1.741023133196316E9, 0.0, 2025-03-03 11:32:13.196
48.0, -12166.121562257, 5059.607930136673, -37587.16286267792, 1816.9286032830005, -187500.02235174447, -34099.41900961626, -63666.23951986308, -69147.55781263803, 0.04, 0.89, -0.42, 192.0, 0.0, 0.0, 0.0, 0.0, 0.0, 0.0, 0.0, 0.0, 0.0, 1.741023133196339E9, 0.0, 2025-03-03 11:32:13.196
49.0, -12196.788155649681, 5029.6789443110165, -37566.95688569032, 1805.9762484999, -187500.02235174447, -34088.04197168851, -63668.98878443108, -69144.09329224746, 0.04, 0.89, -0.42, 192.0, 0.0, 0.0, 0.0, 0.0, 0.0, 0.0, 0.0, 0.0, 0.0, 1.741023133196377E9, 0.0, 2025-03-03 11:32:13.196
50.0, -12082.727203694249, 5165.264626176909, -37538.0113766207, 1849.3162809987405, -187500.02235174447, -34095.82037875895, -63687.496028840076, -69159.4712924327, 0.04, 0.89, -0.42, 192.0, 0.0, 0.0, 0.0, 0.0, 0.0, 0.0, 0.0, 0.0, 0.0, 1.741023133196399E9, 0.0, 2025-03-03 11:32:13.196
51.0, -12075.172314068355, 5179.435632161574, -37562.084205399064, 1845.5388361857936, -187500.02235174447, -34091.104160678886, -63683.85269449386, -69159.00190579914, 0.046, 0.89, -0.424, 192.0, 1.0, 112.0, 27.0, 208.0, 242.0, 192.0, 0.0, 0.0, 0.0, 1.741023133196435E9, 0.0, 2025-03-03 11:32:13.196
52.0, -12185.589931677572, 5052.298909699787, -37571.248420625736, 1807.1161874671207, -187500.02235174447, -34075.5920500269, -63674.621424033816, -69148.40717892733, 0.046, 0.89, -0.424, 192.0, 0.0, 0.0, 0.0, 0.0, 0.0, 0.0, 0.0, 0.0, 0.0, 1.741023133196458E9, 0.0, 2025-03-03 11:32:13.196
53.0, -12177.632710651484, 5054.824656823237, -37546.370929046985, 1832.4630656794388, -187500.02235174447, -34076.59787852739, -63679.851732236355, -69154.66566737481, 0.046, 0.89, -0.424, 192.0, 0.0, 0.0, 0.0, 0.0, 0.0, 0.0, 0.0, 0.0, 0.0, 1.74102313319648E9, 0.0, 2025-03-03 11:32:13.196
54.0, -12057.156808037378, 5191.997312545456, -37533.921007385376, 1877.747699945891, -187500.02235174447, -34092.780541513035, -63701.734090058104, -69153.48102491868, 0.046, 0.89, -0.424, 192.0, 0.0, 0.0, 0.0, 0.0, 0.0, 0.0, 0.0, 0.0, 0.0, 1.741023133196501E9, 0.0, 2025-03-03 11:32:13.196
55.0, -12029.57475537953, 5229.883519397202, -37554.28344658416, 1876.4512987674832, -187500.02235174447, -34097.58616657092, -63691.60874981985, -69154.64331563035, 0.046, 0.89, -0.424, 192.0, 0.0, 0.0, 0.0, 0.0, 0.0, 0.0, 0.0, 0.0, 0.0, 1.741023133196522E9, 0.0, 2025-03-03 11:32:13.196
56.0, -12132.25866940721, 5111.128701106156, -37554.64107449545, 1839.392106460584, -187500.02235174447, -34081.64937277429, -63672.095676910365, -69137.43247239977, 0.046, 0.89, -0.424, 192.0, 0.0, 0.0, 0.0, 0.0, 0.0, 0.0, 0.0, 0.0, 0.0, 1.741023133196544E9, 0.0, 2025-03-03 11:32:13.196
57.0, -12173.11765827151, 5061.507828415373, -37531.395260261925, 1826.4504464209613, -187500.02235174447, -34082.40933208577, -63674.263796122534, -69137.74539682215, 0.046, 0.89, -0.424, 192.0, 0.0, 0.0, 0.0, 0.0, 0.0, 0.0, 0.0, 0.0, 0.0, 1.741023133196566E9, 0.0, 2025-03-03 11:32:13.196
58.0, -12097.211134101288, 5147.807913757314, -37504.39435295991, 1849.3833362321063, -187500.02235174447, -34083.41516058626, -63674.39790658926, -69143.04276025806, 0.046, 0.89, -0.424, 192.0, 0.0, 0.0, 0.0, 0.0, 0.0, 0.0, 0.0, 0.0, 0.0, 1.74102313319659E9, 0.0, 2025-03-03 11:32:13.196
59.0, -12029.15007223488, 5227.156606573654, -37514.58674843154, 1866.4377172515055, -187500.02235174447, -34082.923422208245, -63678.823551991416, -69139.77940556758, 0.046, 0.89, -0.424, 192.0, 0.0, 0.0, 0.0, 0.0, 0.0, 0.0, 0.0, 0.0, 0.0, 1.741023133196612E9, 0.0, 2025-03-03 11:32:13.196
60.0, -12135.633782819961, 5106.792462681826, -37543.085222612055, 1821.6448213630704, -187500.02235174447, -34075.12266339334, -63677.75066825756, -69127.06126297251, 0.046, 0.89, -0.424, 192.0, 0.0, 0.0, 0.0, 0.0, 0.0, 0.0, 0.0, 0.0, 0.0, 1.741023133256575E9, 0.0, 2025-03-03 11:32:13.256
61.0, -12190.216742779821, 5041.234796194411, -37535.82090566408, 1811.877109036101, -187500.02235174447, -34077.44724481669, -63681.326947370406, -69139.08650148947, 0.044, 0.896, -0.422, 192.0, 1.0, 96.0, 28.0, 0.0, 242.0, 208.0, 0.0, 0.0, 0.0, 1.741023133256611E9, 0.0, 2025-03-03 11:32:13.256
62.0, -12118.914677967392, 5121.209337855499, -37534.39039401894, 1838.9003680825674, -187500.02235174447, -34091.52884382354, -63697.30844465595, -69148.7201033497, 0.044, 0.896, -0.422, 192.0, 0.0, 0.0, 0.0, 0.0, 0.0, 0.0, 0.0, 0.0, 0.0, 1.741023133256635E9, 0.0, 2025-03-03 11:32:13.256
63.0, -12039.990668295703, 5218.484129724995, -37543.59931273452, 1854.6583479235587, -187500.02235174447, -34089.58424205593, -63699.94595050168, -69151.75994059563, 0.044, 0.896, -0.422, 192.0, 0.0, 0.0, 0.0, 0.0, 0.0, 0.0, 0.0, 0.0, 0.0, 1.741023133256656E9, 0.0, 2025-03-03 11:32:13.256
64.0, -12098.194610857321, 5149.216073657999, -37563.47001355529, 1834.944109313978, -187500.02235174447, -34084.77861699803, -63679.53880781398, -69146.48492890417, 0.044, 0.896, -0.422, 192.0, 0.0, 0.0, 0.0, 0.0, 0.0, 0.0, 0.0, 0.0, 0.0, 1.741023133256696E9, 0.0, 2025-03-03 11:32:13.256
65.0, -12162.791152333159, 5070.694395386505, -37557.45739429681, 1816.593327116171, -187500.02235174447, -34084.532747809026, -63672.63211877729, -69148.60834462743, 0.044, 0.896, -0.422, 192.0, 0.0, 0.0, 0.0, 0.0, 0.0, 0.0, 0.0, 0.0, 0.0, 1.741023133256717E9, 0.0, 2025-03-03 11:32:13.256
66.0, -12128.704742038815, 5109.675837716561, -37546.348577302524, 1825.8245975762127, -187500.02235174447, -34097.295593893, -63687.13840092879, -69155.62679238639, 0.044, 0.896, -0.422, 192.0, 0.0, 0.0, 0.0, 0.0, 0.0, 0.0, 0.0, 0.0, 0.0, 1.741023133256739E9, 0.0, 2025-03-03 11:32:13.256
67.0, -12023.47272914323, 5235.247938066475, -37538.748984187725, 1856.4464874799835, -187500.02235174447, -34093.831073502435, -63685.90905498375, -69147.08842600447, 0.044, 0.896, -0.422, 192.0, 0.0, 0.0, 0.0, 0.0, 0.0, 0.0, 0.0, 0.0, 0.0, 1.741023133256769E9, 0.0, 2025-03-03 11:32:13.256
68.0, -12061.604805183984, 5189.40451018864, -37566.44279556785, 1844.6447664075813, -187500.02235174447, -34078.38601808382, -63687.630139306806, -69152.22932722919, 0.044, 0.896, -0.422, 192.0, 0.0, 0.0, 0.0, 0.0, 0.0, 0.0, 0.0, 0.0, 0.0, 1.74102313325679E9, 0.0, 2025-03-03 11:32:13.256
69.0, -12145.088570724556, 5092.107366574689, -37568.38739733546, 1817.4873968943832, -187500.02235174447, -34066.02550340003, -63678.48827582459, -69139.15355672283, 0.044, 0.896, -0.422, 192.0, 0.0, 0.0, 0.0, 0.0, 0.0, 0.0, 0.0, 0.0, 0.0, 1.741023133256812E9, 0.0, 2025-03-03 11:32:13.256
70.0, -12137.77955028767, 5104.892564403125, -37546.505039513715, 1827.2327574768972, -187500.02235174447, -34069.132395879315, -63678.9800142026, -69139.35472242293, 0.044, 0.896, -0.422, 192.0, 0.0, 0.0, 0.0, 0.0, 0.0, 0.0, 0.0, 0.0, 0.0, 1.741023133256833E9, 0.0, 2025-03-03 11:32:13.256
71.0, -12042.739932863706, 5223.647382694171, -37525.40499274791, 1854.881865368112, -187500.02235174447, -34079.74947449559, -63694.60388357686, -69149.01067602762, 0.036000000000000004, 0.896, -0.42, 192.0, 1.0, 32.0, 28.0, 0.0, 242.0, 224.0, 0.0, 0.0, 0.0, 1.741023133256854E9, 0.0, 2025-03-03 11:32:13.256
72.0, -12055.905110347881, 5209.834004620791, -37552.40590004992, 1848.3775077316175, -187500.02235174447, -34084.800968742486, -63697.15198244477, -69157.86196683193, 0.036000000000000004, 0.896, -0.42, 192.0, 0.0, 0.0, 0.0, 0.0, 0.0, 0.0, 0.0, 0.0, 0.0, 1.741023133256878E9, 0.0, 2025-03-03 11:32:13.256
73.0, -12146.094399225045, 5101.919782390569, -37554.752833217724, 1822.941222541478, -187500.02235174447, -34077.469596561146, -63686.73606952859, -69158.53251916559, 0.036000000000000004, 0.896, -0.42, 192.0, 0.0, 0.0, 0.0, 0.0, 0.0, 0.0, 0.0, 0.0, 0.0, 1.741023133256898E9, 0.0, 2025-03-03 11:32:13.256
74.0, -12152.084666739067, 5092.19677355251, -37543.062870867594, 1827.4562749214501, -187500.02235174447, -34078.81070122847, -63689.48533409659, -69164.25456574615, 0.036000000000000004, 0.896, -0.42, 192.0, 0.0, 0.0, 0.0, 0.0, 0.0, 0.0, 0.0, 0.0, 0.0, 1.741023133256922E9, 0.0, 2025-03-03 11:32:13.256
75.0, -12060.643680172407, 5202.0779492947995, -37534.16687657438, 1848.042231564788, -187500.02235174447, -34087.61728854386, -63706.1373837158, -69184.54994971157, 0.036000000000000004, 0.896, -0.42, 192.0, 0.0, 0.0, 0.0, 0.0, 0.0, 0.0, 0.0, 0.0, 0.0, 1.741023133316869E9, 0.0, 2025-03-03 11:32:13.316
76.0, -12035.319153704544, 5228.98944961899, -37556.58567626306, 1855.7535834018688, -187500.02235174447, -34081.42585532974, -63715.07808149792, -69165.66272564682, 0.036000000000000004, 0.896, -0.42, 192.0, 0.0, 0.0, 0.0, 0.0, 0.0, 0.0, 0.0, 0.0, 0.0, 1.7410231333169E9, 0.0, 2025-03-03 11:32:13.316
77.0, -12126.089587937546, 5122.237518100443, -37567.49332755725, 1827.8362545771904, -187500.02235174447, -34071.54638428049, -63684.16561891623, -69144.02623701408, 0.036000000000000004, 0.896, -0.42, 192.0, 0.0, 0.0, 0.0, 0.0, 0.0, 0.0, 0.0, 0.0, 0.0, 1.741023133316922E9, 0.0, 2025-03-03 11:32:13.316
78.0, -12170.07782102559, 5075.947055333502, -37561.54776353214, 1814.335800926185, -187500.02235174447, -34083.92925070873, -63698.96247374565, -69166.53444368058, 0.036000000000000004, 0.896, -0.42, 192.0, 0.0, 0.0, 0.0, 0.0, 0.0, 0.0, 0.0, 0.0, 0.0, 1.741023133316944E9, 0.0, 2025-03-03 11:32:13.316
79.0, -12082.950721138803, 5178.921542039102, -37541.02886212216, 1841.716687883936, -187500.02235174447, -34083.9963059421, -63717.9391047882, -69150.95527779523, 0.036000000000000004, 0.896, -0.42, 192.0, 0.0, 0.0, 0.0, 0.0, 0.0, 0.0, 0.0, 0.0, 0.0, 1.74102313331698E9, 0.0, 2025-03-03 11:32:13.316
80.0, -12036.794368838593, 5233.638612465694, -37554.59637100653, 1850.6797374105142, -187500.02235174447, -34085.11389316486, -63718.27438095503, -69157.23611798718, 0.036000000000000004, 0.896, -0.42, 192.0, 0.0, 0.0, 0.0, 0.0, 0.0, 0.0, 0.0, 0.0, 0.0, 1.741023133317005E9, 0.0, 2025-03-03 11:32:13.317
81.0, -12119.942858212336, 5133.592204283739, -37565.302856600625, 1826.495149909872, -187500.02235174447, -34080.62119252935, -63706.74088081609, -69147.44605391574, 0.034, 0.894, -0.422, 192.0, 1.0, 16.0, 27.0, 240.0, 242.0, 208.0, 0.0, 0.0, 0.0, 1.741023133317027E9, 0.0, 2025-03-03 11:32:13.317
82.0, -12169.787248347671, 5077.735194889927, -37548.181420347864, 1813.2629171923302, -187500.02235174447, -34078.855404717375, -63694.62623532132, -69141.74635907965, 0.034, 0.894, -0.422, 192.0, 0.0, 0.0, 0.0, 0.0, 0.0, 0.0, 0.0, 0.0, 0.0, 1.741023133317059E9, 0.0, 2025-03-03 11:32:13.317
83.0, -12094.908904422391, 5164.616425587706, -37519.9064636119, 1840.5096936833495, -187500.02235174447, -34082.85636697488, -63705.39977614878, -69149.86004231693, 0.034, 0.894, -0.422, 192.0, 0.0, 0.0, 0.0, 0.0, 0.0, 0.0, 0.0, 0.0, 0.0, 1.741023133317081E9, 0.0, 2025-03-03 11:32:13.317
84.0, -12017.661275584851, 5257.309109843864, -37534.14452482993, 1863.777859661324, -187500.02235174447, -34096.98266947063, -63714.51928788654, -69164.61219365742, 0.034, 0.894, -0.422, 192.0, 0.0, 0.0, 0.0, 0.0, 0.0, 0.0, 0.0, 0.0, 0.0, 1.741023133317102E9, 0.0, 2025-03-03 11:32:13.317
85.0, -12095.91473292288, 5169.824382045792, -37553.29996982813, 1840.2861762387963, -187500.02235174447, -34076.12849189383, -63691.56404633094, -69151.78229234008, 0.034, 0.894, -0.422, 192.0, 0.0, 0.0, 0.0, 0.0, 0.0, 0.0, 0.0, 0.0, 0.0, 1.741023133317123E9, 0.0, 2025-03-03 11:32:13.317
86.0, -12178.482076940785, 5080.283293757831, -37542.302911556115, 1813.821710803713, -187500.02235174447, -34065.31024757746, -63679.874083980816, -69134.6161525984, 0.034, 0.894, -0.422, 192.0, 0.0, 0.0, 0.0, 0.0, 0.0, 0.0, 0.0, 0.0, 0.0, 1.741023133317146E9, 0.0, 2025-03-03 11:32:13.317
87.0, -12137.801902032126, 5129.233614114954, -37530.74705967272, 1831.591347645682, -187500.02235174447, -34071.70284649168, -63696.481430111104, -69142.48396664667, 0.034, 0.894, -0.422, 192.0, 0.0, 0.0, 0.0, 0.0, 0.0, 0.0, 0.0, 0.0, 0.0, 1.741023133317167E9, 0.0, 2025-03-03 11:32:13.317
88.0, -12033.374551936931, 5249.620109751238, -37551.0647953826, 1861.7214991714359, -187500.02235174447, -34088.69017227771, -63714.89926754228, -69162.30996397854, 0.034, 0.894, -0.422, 192.0, 0.0, 0.0, 0.0, 0.0, 0.0, 0.0, 0.0, 0.0, 0.0, 1.741023133317189E9, 0.0, 2025-03-03 11:32:13.317
89.0, -12115.383102343452, 5158.5814545847725, -37574.48942357176, 1826.6963156099696, -187500.02235174447, -34080.71059950717, -63710.31715992894, -69147.04372251556, 0.034, 0.894, -0.422, 192.0, 0.0, 0.0, 0.0, 0.0, 0.0, 0.0, 0.0, 0.0, 0.0, 1.741023133317213E9, 0.0, 2025-03-03 11:32:13.317
90.0, -12166.03215527918, 5096.488308487929, -37566.37574033448, 1823.589423130682, -187500.02235174447, -34086.45499783218, -63721.64949436778, -69151.53642315108, 0.034, 0.894, -0.422, 192.0, 0.0, 0.0, 0.0, 0.0, 0.0, 0.0, 0.0, 0.0, 0.0, 1.741023133377135E9, 0.0, 2025-03-03 11:32:13.377
91.0, -12115.003122687713, 5155.675727805582, -37560.02784490918, 1840.3532314721624, -187500.02235174447, -34093.00405895759, -63722.56591589045, -69166.15446402485, 0.038, 0.902, -0.422, 192.0, 1.0, 48.0, 28.0, 48.0, 242.0, 208.0, 0.0, 0.0, 0.0, 1.741023133377166E9, 0.0, 2025-03-03 11:32:13.377
92.0, -12005.479574856708, 5284.37707237924, -37553.43408029486, 1867.3094352852627, -187500.02235174447, -34093.42874210224, -63726.29865721449, -69170.69186814927, 0.038, 0.902, -0.422, 192.0, 0.0, 0.0, 0.0, 0.0, 0.0, 0.0, 0.0, 0.0, 0.0, 1.741023133377189E9, 0.0, 2025-03-03 11:32:13.377
93.0, -12078.614482714473, 5206.816519119325, -37583.9218597319, 1825.7798940873022, -187500.02235174447, -34083.348105352896, -63717.06738675445, -69164.16515876832, 0.038, 0.902, -0.422, 192.0, 0.0, 0.0, 0.0, 0.0, 0.0, 0.0, 0.0, 0.0, 0.0, 1.74102313337721E9, 0.0, 2025-03-03 11:32:13.377
94.0, -12166.322727957098, 5103.6408667136275, -37577.462205584314, 1804.8586612771346, -187500.02235174447, -34077.33548609442, -63707.478488383116, -69136.11371947691, 0.038, 0.902, -0.422, 192.0, 0.0, 0.0, 0.0, 0.0, 0.0, 0.0, 0.0, 0.0, 0.0, 1.741023133377232E9, 0.0, 2025-03-03 11:32:13.377
95.0, -12154.342192929053, 5116.135491864145, -37563.5147170442, 1820.1025509956542, -187500.02235174447, -34094.18870141372, -63728.019741537544, -69168.56845242601, 0.038, 0.902, -0.422, 192.0, 0.0, 0.0, 0.0, 0.0, 0.0, 0.0, 0.0, 0.0, 0.0, 1.741023133377273E9, 0.0, 2025-03-03 11:32:13.377
96.0, -11999.824583509515, 5289.450918370595, -37560.072548398086, 1878.4406040240056, -187500.02235174447, -34108.292652165015, -63752.8972331163, -69182.00185084365, 0.038, 0.902, -0.422, 192.0, 0.0, 0.0, 0.0, 0.0, 0.0, 0.0, 0.0, 0.0, 0.0, 1.741023133377294E9, 0.0, 2025-03-03 11:32:13.377
97.0, -12038.515453161652, 5253.352851075274, -37575.87523172799, 1849.5174466988383, -187500.02235174447, -34082.69990476369, -63710.87595354032, -69133.31975142, 0.038, 0.902, -0.422, 192.0, 0.0, 0.0, 0.0, 0.0, 0.0, 0.0, 0.0, 0.0, 0.0, 1.741023133377324E9, 0.0, 2025-03-03 11:32:13.377
98.0, -12156.59971911904, 5121.701076233516, -37557.88207744146, 1812.525309625305, -187500.02235174447, -34072.52986103653, -63701.57762784691, -69135.71138807671, 0.038, 0.902, -0.422, 192.0, 0.0, 0.0, 0.0, 0.0, 0.0, 0.0, 0.0, 0.0, 0.0, 1.741023133377348E9, 0.0, 2025-03-03 11:32:13.377
99.0, -12156.30914644112, 5118.303611076309, -37540.7606411887, 1832.2171964904305, -187500.02235174447, -34073.468634303645, -63715.3910059203, -69147.17783298228, 0.038, 0.902, -0.422, 192.0, 0.0, 0.0, 0.0, 0.0, 0.0, 0.0, 0.0, 0.0, 0.0, 1.74102313337737E9, 0.0, 2025-03-03 11:32:13.377
100.0, -12031.966392036247, 5260.818333723347, -37544.04634762363, 1875.0654906112543, -187500.02235174447, -34092.17704441274, -63732.80301485098, -69165.26039424662, 0.038, 0.902, -0.422, 192.0, 0.0, 0.0, 0.0, 0.0, 0.0, 0.0, 0.0, 0.0, 0.0, 1.741023133377392E9, 0.0, 2025-03-03 11:32:13.377
101.0, -12020.477595386219, 5278.56561882086, -37559.75962397571, 1870.1257550866312, -187500.02235174447, -34093.87577699134, -63725.315180458456, -69160.6782866333, 0.038, 0.902, -0.424, 192.0, 1.0, 48.0, 28.0, 48.0, 242.0, 192.0, 0.0, 0.0, 0.0, 1.741023133377412E9, 0.0, 2025-03-03 11:32:13.377
102.0, -12108.029378417657, 5175.211152459521, -37562.508888543714, 1841.850798350668, -187500.02235174447, -34102.59295732891, -63721.51538390105, -69167.54027218107, 0.038, 0.902, -0.424, 192.0, 0.0, 0.0, 0.0, 0.0, 0.0, 0.0, 0.0, 0.0, 0.0, 1.741023133377435E9, 0.0, 2025-03-03 11:32:13.377
103.0, -12111.270381363676, 5168.304463422831, -37558.44087105285, 1848.6904321539919, -187500.02235174447, -34106.57156784196, -63724.48816591361, -69169.35076348195, 0.038, 0.902, -0.424, 192.0, 0.0, 0.0, 0.0, 0.0, 0.0, 0.0, 0.0, 0.0, 0.0, 1.741023133377457E9, 0.0, 2025-03-03 11:32:13.377
104.0, -12019.516470374641, 5279.23617115452, -37546.996777891734, 1872.651502210081, -187500.02235174447, -34103.44232361821, -63732.2442212396, -69176.90565310784, 0.038, 0.902, -0.424, 192.0, 0.0, 0.0, 0.0, 0.0, 0.0, 0.0, 0.0, 0.0, 0.0, 1.741023133377481E9, 0.0, 2025-03-03 11:32:13.377
105.0, -12025.2385169552, 5288.0651102143665, -37562.95592343282, 1844.6447664075813, -187500.02235174447, -34091.39473335681, -63724.13053800232, -69159.56069941053, 0.038, 0.902, -0.424, 192.0, 0.0, 0.0, 0.0, 0.0, 0.0, 0.0, 0.0, 0.0, 0.0, 1.741023133436697E9, 0.0, 2025-03-03 11:32:13.436
106.0, -12147.413152147908, 5151.49595159244, -37555.69160648485, 1806.0656554777213, -187500.02235174447, -34069.40061681278, -63704.21513369264, -69142.26044920212, 0.038, 0.902, -0.424, 192.0, 0.0, 0.0, 0.0, 0.0, 0.0, 0.0, 0.0, 0.0, 0.0, 1.741023133436745E9, 0.0, 2025-03-03 11:32:13.436
107.0, -12191.84842012506, 5096.398901510108, -37536.82673416457, 1809.3737136571067, -187500.02235174447, -34061.108119619865, -63701.9352557582, -69143.42273991379, 0.038, 0.902, -0.424, 192.0, 0.0, 0.0, 0.0, 0.0, 0.0, 0.0, 0.0, 0.0, 0.0, 1.741023133436767E9, 0.0, 2025-03-03 11:32:13.436
108.0, -12106.420052816875, 5191.371463700708, -37529.74123117224, 1848.1539902870645, -187500.02235174447, -34087.7961024995, -63729.494956671595, -69172.25649026113, 0.038, 0.902, -0.424, 192.0, 0.0, 0.0, 0.0, 0.0, 0.0, 0.0, 0.0, 0.0, 0.0, 1.741023133436788E9, 0.0, 2025-03-03 11:32:13.436
109.0, -12034.894470559891, 5276.263389141964, -37549.857801182014, 1862.8614381386565, -187500.02235174447, -34102.07886720644, -63737.47452944214, -69185.84635088997, 0.038, 0.902, -0.424, 192.0, 0.0, 0.0, 0.0, 0.0, 0.0, 0.0, 0.0, 0.0, 0.0, 1.74102313343681E9, 0.0, 2025-03-03 11:32:13.436
110.0, -12129.084721694557, 5168.080945978278, -37568.81208048011, 1826.4727981654166, -187500.02235174447, -34086.87968097683, -63720.330741444915, -69167.69673439226, 0.038, 0.902, -0.424, 192.0, 0.0, 0.0, 0.0, 0.0, 0.0, 0.0, 0.0, 0.0, 0.0, 1.741023133436838E9, 0.0, 2025-03-03 11:32:13.436
111.0, -12183.645329909961, 5099.550497478306, -37555.33397857356, 1818.3591149281401, -187500.02235174447, -34079.615364028854, -63726.41041593676, -69163.20403375675, 0.038, 0.902, -0.422, 192.0, 1.0, 48.0, 28.0, 48.0, 242.0, 208.0, 0.0, 0.0, 0.0, 1.741023133436859E9, 0.0, 2025-03-03 11:32:13.436
112.0, -12122.736826269249, 5167.92448376709, -37537.63139696496, 1845.6505949080702, -187500.02235174447, -34087.37141935485, -63742.95070683369, -69176.61508042993, 0.038, 0.902, -0.422, 192.0, 0.0, 0.0, 0.0, 0.0, 0.0, 0.0, 0.0, 0.0, 0.0, 1.741023133436882E9, 0.0, 2025-03-03 11:32:13.436
113.0, -12025.640848355395, 5285.405252624185, -37547.57792324757, 1873.3891097771061, -187500.02235174447, -34098.41318111577, -63743.397741722794, -69195.12232483891, 0.038, 0.902, -0.422, 192.0, 0.0, 0.0, 0.0, 0.0, 0.0, 0.0, 0.0, 0.0, 0.0, 1.741023133436916E9, 0.0, 2025-03-03 11:32:13.436
114.0, -12108.16348888439, 5192.936085812579, -37570.689627014355, 1841.6272809061147, -187500.02235174447, -34070.98759066911, -63724.64462812479, -69157.66080113183, 0.038, 0.902, -0.422, 192.0, 0.0, 0.0, 0.0, 0.0, 0.0, 0.0, 0.0, 0.0, 0.0, 1.741023133436938E9, 0.0, 2025-03-03 11:32:13.436
115.0, -12179.59966416355, 5102.903259146602, -37551.66829248289, 1832.17249300152, -187500.02235174447, -34067.746587723086, -63722.40945367926, -69152.9222313073, 0.038, 0.902, -0.422, 192.0, 0.0, 0.0, 0.0, 0.0, 0.0, 0.0, 0.0, 0.0, 0.0, 1.741023133436959E9, 0.0, 2025-03-03 11:32:13.436
116.0, -12138.07012296559, 5143.337564866253, -37542.52642900067, 1855.4406589794946, -187500.02235174447, -34080.91176520727, -63745.163529534766, -69170.3789437269, 0.038, 0.902, -0.422, 192.0, 0.0, 0.0, 0.0, 0.0, 0.0, 0.0, 0.0, 0.0, 0.0, 1.741023133436981E9, 0.0, 2025-03-03 11:32:13.436
117.0, -12044.036334042114, 5252.861112697257, -37543.01816737869, 1876.5407057453044, -187500.02235174447, -34079.43655007322, -63745.81173012397, -69160.43241744429, 0.038, 0.902, -0.422, 192.0, 0.0, 0.0, 0.0, 0.0, 0.0, 0.0, 0.0, 0.0, 0.0, 1.741023133437003E9, 0.0, 2025-03-03 11:32:13.437
118.0, -12086.884628162936, 5199.418091704619, -37569.706150258324, 1855.5971211906817, -187500.02235174447, -34079.68241926222, -63745.5435091905, -69182.35947875494, 0.038, 0.902, -0.422, 192.0, 0.0, 0.0, 0.0, 0.0, 0.0, 0.0, 0.0, 0.0, 0.0, 1.741023133437025E9, 0.0, 2025-03-03 11:32:13.437
119.0, -12176.2245507508, 5090.34157876272, -37568.29799035764, 1829.132655755598, -187500.02235174447, -34065.60082025538, -63725.22577348063, -69151.42466442879, 0.038, 0.902, -0.422, 192.0, 0.0, 0.0, 0.0, 0.0, 0.0, 0.0, 0.0, 0.0, 0.0, 1.741023133437046E9, 0.0, 2025-03-03 11:32:13.437
120.0, -12160.108942998522, 5099.081110844745, -37546.16976334689, 1843.5271791848159, -187500.02235174447, -34068.12656737883, -63727.05861652597, -69140.96404802371, 0.038, 0.902, -0.422, 192.0, 0.0, 0.0, 0.0, 0.0, 0.0, 0.0, 0.0, 0.0, 0.0, 1.741023133496247E9, 0.0, 2025-03-03 11:32:13.496
121.0, -12045.176273009334, 5225.524929228417, -37536.647920208925, 1875.9372086450112, -187500.02235174447, -34085.158596653775, -63751.75729414908, -69178.35851649744, 0.038, 0.896, -0.41200000000000003, 192.0, 1.0, 48.0, 28.0, 0.0, 243.0, 32.0, 0.0, 0.0, 0.0, 1.741023133496292E9, 0.0, 2025-03-03 11:32:13.496
122.0, -12061.873026117448, 5203.1284812842, -37562.374778076985, 1858.0334613363102, -187500.02235174447, -34082.498739063594, -63743.48714870062, -69173.15056003936, 0.038, 0.896, -0.41200000000000003, 192.0, 0.0, 0.0, 0.0, 0.0, 0.0, 0.0, 0.0, 0.0, 0.0, 1.741023133496319E9, 0.0, 2025-03-03 11:32:13.496
123.0, -12159.058411009122, 5083.189020537022, -37558.887905941956, 1825.4446179204724, -187500.02235174447, -34076.68728550521, -63735.21700325215, -69165.7297808802, 0.038, 0.896, -0.41200000000000003, 192.0, 0.0, 0.0, 0.0, 0.0, 0.0, 0.0, 0.0, 0.0, 0.0, 1.74102313349634E9, 0.0, 2025-03-03 11:32:13.496
124.0, -12167.842646580058, 5067.341633718209, -37543.73342320126, 1831.3454784566736, -187500.02235174447, -34078.40836982827, -63742.59307892241, -69172.77058038361, 0.038, 0.896, -0.41200000000000003, 192.0, 0.0, 0.0, 0.0, 0.0, 0.0, 0.0, 0.0, 0.0, 0.0, 1.741023133496362E9, 0.0, 2025-03-03 11:32:13.496
125.0, -12076.669880946862, 5173.601826858739, -37534.971539374776, 1856.848818880179, -187500.02235174447, -34091.70765777918, -63760.38506750883, -69190.76373467014, 0.038, 0.896, -0.41200000000000003, 192.0, 0.0, 0.0, 0.0, 0.0, 0.0, 0.0, 0.0, 0.0, 0.0, 1.741023133496387E9, 0.0, 2025-03-03 11:32:13.496
126.0, -12065.672822674851, 5188.331626454786, -37562.15126063243, 1852.5796356892154, -187500.02235174447, -34088.26548913306, -63755.1994627952, -69188.23798754669, 0.038, 0.896, -0.41200000000000003, 192.0, 0.0, 0.0, 0.0, 0.0, 0.0, 0.0, 0.0, 0.0, 0.0, 1.741023133496411E9, 0.0, 2025-03-03 11:32:13.496
127.0, -12172.514161171219, 5062.424249938042, -37570.86844097, 1819.1190742396207, -187500.02235174447, -34071.81460521396, -63742.97305857814, -69172.88233910588, 0.038, 0.896, -0.41200000000000003, 192.0, 0.0, 0.0, 0.0, 0.0, 0.0, 0.0, 0.0, 0.0, 0.0, 1.741023133496433E9, 0.0, 2025-03-03 11:32:13.496
128.0, -12217.75409194876, 5005.427301577009, -37554.551667517626, 1811.2736119358078, -187500.02235174447, -34066.22666910013, -63738.368599220354, -69166.84736810296, 0.038, 0.896, -0.41200000000000003, 192.0, 0.0, 0.0, 0.0, 0.0, 0.0, 0.0, 0.0, 0.0, 0.0, 1.741023133496464E9, 0.0, 2025-03-03 11:32:13.496
129.0, -12118.802919245116, 5113.0285993848565, -37527.72957417126, 1853.071374067232, -187500.02235174447, -34078.47542506164, -63747.15283479129, -69176.68213566329, 0.038, 0.896, -0.41200000000000003, 192.0, 0.0, 0.0, 0.0, 0.0, 0.0, 0.0, 0.0, 0.0, 0.0, 1.741023133496486E9, 0.0, 2025-03-03 11:32:13.496
