%OpenBCI Raw EXG Data
%Number of channels = 16
%Sample Rate = 125 Hz
%Board = OpenBCI_GUI$BoardCytonSerialDaisy
Sample Index, EXG Channel 0, EXG Channel 1, EXG Channel 2, EXG Channel 3, EXG Channel 4, EXG Channel 5, EXG Channel 6, EXG Channel 7, EXG Channel 8, EXG Channel 9, EXG Channel 10, EXG Channel 11, EXG Channel 12, EXG Channel 13, EXG Channel 14, EXG Channel 15, Accel Channel 0, Accel Channel 1, Accel Channel 2, Not Used, Digital Channel 0 (D11), Digital Channel 1 (D12), Digital Channel 2 (D13), Digital Channel 3 (D17), Not Used, Digital Channel 4 (D18), Analog Channel 0, Analog Channel 1, Analog Channel 2, Timestamp, Marker Channel, Timestamp (Formatted)
160.0, -29559.913821210128, -10641.151445049221, -36496.97887861477, -32025.467696841682, -17298.10444093996, -25081.585357378168, -24706.70189937376, -16761.103780401205, -28884.511159004112, -32149.430471590815, -35808.16516973557, -11054.457551772304, -35258.82634625749, -25765.459330732745, -35902.6236418037, -32159.42170136234, -0.044, 0.982, 0.256, 192.0, 127.0, 80.0, 15.0, 88.0, 4.0, 0.0, 0.0, 0.0, 0.0, 1.741627785818428E9, 0.0, 2025-03-10 12:29:45.818
162.0, -29542.568867512808, -10638.782160136958, -36493.15673031291, -32028.216961409686, -17301.61366481944, -25081.96533703391, -24720.1352977914, -16736.449806267003, -28888.087438116963, -32150.704521024767, -35817.3517367067, -11057.005650640209, -35284.88848029238, -25791.365002556446, -35964.06858731134, -32165.099044453986, -0.044, 0.982, 0.256, 192.0, 0.0, 0.0, 0.0, 0.0, 0.0, 0.0, 0.0, 0.0, 0.0, 1.741627785818535E9, 0.0, 2025-03-10 12:29:45.818
164.0, -29554.75056824095, -10649.645107942237, -36505.74076244125, -32029.53571433255, -17315.38233940391, -25079.506645143825, -24755.115777863954, -16751.13490237414, -28889.361487550916, -32157.387692616907, -35806.46643715697, -11059.151418107918, -35260.83800325847, -25777.953955883262, -35904.478836593495, -32159.622867062437, -0.044, 0.982, 0.256, 192.0, 0.0, 0.0, 0.0, 0.0, 0.0, 0.0, 0.0, 0.0, 0.0, 1.741627785818612E9, 0.0, 2025-03-10 12:29:45.818
166.0, -29543.552344268843, -10637.530462447461, -36492.486177979255, -32017.488124071137, -17297.09861243947, -25054.249173909328, -24711.75339362066, -16723.7987189053, -28897.363412065915, -32157.812375761558, -35827.41002171159, -11065.47696178877, -35298.500692665664, -25785.352383297966, -35974.819776394346, -32157.946486228288, -0.044, 0.982, 0.256, 192.0, 0.0, 0.0, 0.0, 0.0, 0.0, 0.0, 0.0, 0.0, 0.0, 1.741627785818682E9, 0.0, 2025-03-10 12:29:45.818
168.0, -29554.839975218772, -10643.163102050197, -36505.897224652435, -32027.032318953556, -17304.452336365262, -25074.835130552667, -24733.88162063141, -16750.08437038474, -28887.416885783303, -32150.07867218002, -35804.924166789555, -11056.290394817639, -35258.46871834621, -25764.85583363245, -35895.78400800038, -32140.288608108596, -0.044, 0.982, 0.256, 192.0, 0.0, 0.0, 0.0, 0.0, 0.0, 0.0, 0.0, 0.0, 0.0, 1.741627785818762E9, 0.0, 2025-03-10 12:29:45.818
170.0, -29545.049911147347, -10624.186471007642, -36499.4152187604, -32021.042051439534, -17306.553400344063, -25076.511511386816, -24747.985571382713, -16738.148538845606, -28896.111714376417, -32153.83376524851, -35828.9075885901, -11070.036717657653, -35303.21691074573, -25782.20078732977, -35975.33386651681, -32160.829861263024, -0.048, 0.982, 0.258, 192.0, 127.0, 64.0, 15.0, 88.0, 4.0, 8.0, 0.0, 0.0, 0.0, 1.741627785818836E9, 0.0, 2025-03-10 12:29:45.818
172.0, -29542.166536112614, -10645.174759051175, -36495.973050114284, -32023.746612518626, -17305.07818521001, -25076.35504917563, -24738.061396844554, -16725.542154972813, -28878.72205719019, -32151.41977684734, -35802.51017838838, -11059.151418107918, -35255.96532296721, -25773.14833082537, -35906.423438361104, -32149.9892652022, -0.048, 0.982, 0.258, 192.0, 0.0, 0.0, 0.0, 0.0, 0.0, 0.0, 0.0, 0.0, 0.0, 1.741627785818915E9, 0.0, 2025-03-10 12:29:45.818
174.0, -29553.118890895712, -10658.764619680003, -36496.822416403586, -32026.272359642073, -17299.89258049638, -25052.48338609736, -24732.22759154172, -16729.386655019123, -28903.599548768947, -32170.37405614544, -35831.634501413646, -11078.23980787275, -35302.61341364544, -25786.358211798455, -35963.6886076556, -32155.51014608266, -0.048, 0.982, 0.258, 192.0, 0.0, 0.0, 0.0, 0.0, 0.0, 0.0, 0.0, 0.0, 0.0, 1.741627785819002E9, 0.0, 2025-03-10 12:29:45.819
176.0, -29540.75837621193, -10657.311756290408, -36495.59307045854, -32032.463792856193, -17297.188019417288, -25066.363819404105, -24723.868039115434, -16732.180623076038, -28893.116580619408, -32168.22828867773, -35812.30024245981, -11062.504179776213, -35255.227715400186, -25776.76931342713, -35902.8248075038, -32150.436300091304, -0.048, 0.982, 0.258, 192.0, 0.0, 0.0, 0.0, 0.0, 0.0, 0.0, 0.0, 0.0, 0.0, 1.74162778581907E9, 0.0, 2025-03-10 12:29:45.819
178.0, -29557.388074086677, -10662.475009259584, -36495.4142565029, -32031.279150400063, -17300.831353763504, -25076.33269743117, -24711.32871047601, -16726.905611384584, -28904.20304586924, -32173.480948624725, -35831.52274269137, -11074.127086892973, -35295.68437286429, -25789.33099381101, -35956.24547675198, -32152.135032669907, -0.048, 0.982, 0.258, 192.0, 0.0, 0.0, 0.0, 0.0, 0.0, 0.0, 0.0, 0.0, 0.0, 1.741627785819143E9, 0.0, 2025-03-10 12:29:45.819
180.0, -29540.534858767376, -10661.580939481371, -36501.65039320593, -32043.840830783945, -17307.38041488891, -25089.833151082177, -24748.410254527364, -16749.83850119573, -28901.47613304569, -32177.88424228242, -35812.88138781564, -11073.23301711476, -35262.983770726176, -25785.888825164897, -35908.47979885099, -32163.13209094192, -0.056, 0.982, 0.256, 192.0, 127.0, 32.0, 15.0, 88.0, 4.0, 0.0, 0.0, 0.0, 0.0, 1.741627785819211E9, 0.0, 2025-03-10 12:29:45.819
182.0, -29560.94200145507, -10665.045459871944, -36500.59986121653, -32035.190705679743, -17309.57088584553, -25096.471619185402, -24737.212030555253, -16761.707277501497, -28909.701575005245, -32175.000867247687, -35831.99212932493, -11078.91036020641, -35304.42390494632, -25791.588520000998, -35961.49813669898, -32170.50816661217, -0.056, 0.982, 0.256, 192.0, 0.0, 0.0, 0.0, 0.0, 0.0, 0.0, 0.0, 0.0, 0.0, 1.741627785819301E9, 0.0, 2025-03-10 12:29:45.819
184.0, -29536.4221377876, -10655.791837667446, -36490.116893066996, -32036.420051624784, -17296.070432194523, -25085.00517427983, -24722.817507126038, -16741.344838302713, -28908.852208715944, -32174.956163758776, -35824.481943187944, -11074.596473526535, -35268.9740382402, -25786.268804820636, -35915.20767393204, -32163.109739197465, -0.056, 0.982, 0.256, 192.0, 0.0, 0.0, 0.0, 0.0, 0.0, 0.0, 0.0, 0.0, 0.0, 1.741627785819374E9, 0.0, 2025-03-10 12:29:45.819
186.0, -29562.19369914457, -10658.675212702181, -36491.435645989855, -32029.736880032648, -17305.61462707694, -25097.11981977461, -24720.69409140278, -16764.07656241376, -28903.264272602115, -32165.277858409627, -35828.70642289, -11069.656738001911, -35291.83987281798, -25784.882996664408, -35946.23189523601, -32166.708370054766, -0.056, 0.982, 0.256, 192.0, 0.0, 0.0, 0.0, 0.0, 0.0, 0.0, 0.0, 0.0, 0.0, 1.741627785819442E9, 0.0, 2025-03-10 12:29:45.819
188.0, -29533.35994879722, -10649.600404453327, -36491.16742505639, -32032.754365534114, -17303.446507864774, -25081.585357378168, -24745.23630681471, -16758.041591410827, -28897.60928125492, -32165.03198922062, -35817.53055066235, -11068.293281590139, -35270.40454988534, -25784.30185130857, -35921.91319726863, -32159.712274040256, -0.056, 0.982, 0.256, 192.0, 0.0, 0.0, 0.0, 0.0, 0.0, 0.0, 0.0, 0.0, 0.0, 1.74162778581951E9, 0.0, 2025-03-10 12:29:45.819
0.0, -14658.18460681255, -5182.922504296602, -18153.036314610996, -15903.176772973155, -8561.768658372004, -12470.015879871355, -12293.414746929973, -8300.901448834116, -14455.878967747567, -16086.170504828753, -17921.53929728738, -5541.757409782102, -17658.191044114952, -12890.87687622033, -17988.527475419938, -16080.157885570276, -0.052000000000000005, 0.976, 0.256, 192.0, 127.0, 48.0, 15.0, 64.0, 4.0, 0.0, 0.0, 0.0, 0.0, 1.741627785963494E9, 0.0, 2025-03-10 12:29:45.963
2.0, -29370.37102822912, -10405.362892790186, -36328.20085623275, -31811.740316360036, -17143.564479775963, -24946.98315226831, -24607.43780224774, -16588.19068529495, -28640.184240363153, -31937.491230665593, -35580.08796931362, -10834.71755203218, -35083.83453891689, -25588.031183246516, -35694.752418369346, -31946.1413557698, -0.052000000000000005, 0.976, 0.256, 192.0, 0.0, 0.0, 0.0, 0.0, 0.0, 0.0, 0.0, 0.0, 0.0, 1.741627785963627E9, 0.0, 2025-03-10 12:29:45.963
4.0, -29370.102807295658, -10412.761320204892, -36327.30678645454, -31817.68588038515, -17147.118407144357, -24954.739207594303, -24628.224924591177, -16614.699854218943, -28666.715761031603, -31946.364873214352, -35614.3084900747, -10856.9128342763, -35122.257187635565, -25605.800820088487, -35772.53648907381, -31966.90612636878, -0.052000000000000005, 0.976, 0.256, 192.0, 0.0, 0.0, 0.0, 0.0, 0.0, 0.0, 0.0, 0.0, 0.0, 1.741627785963695E9, 0.0, 2025-03-10 12:29:45.963
6.0, -29395.87436865263, -10441.349201363231, -36318.544902628055, -31801.10088599931, -17134.53437501602, -24907.889951215977, -24570.825644829947, -16522.7000740409, -28691.01210725452, -31951.46107095016, -35604.361963792086, -10849.62616558387, -35093.602251243865, -25587.762962313052, -35690.416179945016, -31943.079166779422, -0.052000000000000005, 0.976, 0.256, 192.0, 0.0, 0.0, 0.0, 0.0, 0.0, 0.0, 0.0, 0.0, 0.0, 1.741627785963781E9, 0.0, 2025-03-10 12:29:45.963
8.0, -29380.876348123118, -10438.599936795228, -36320.89183579586, -31808.2087407361, -17136.791901206005, -24922.105660689554, -24608.890665637336, -16577.640661912046, -28703.931415549687, -31947.95184707068, -35620.29875758872, -10856.599909853925, -35125.20761790367, -25590.847503047884, -35755.146831887585, -31932.104460251867, -0.052000000000000005, 0.976, 0.256, 192.0, 127.0, 48.0, 15.0, 64.0, 4.0, 0.0, 0.0, 0.0, 0.0, 1.741627785963849E9, 0.0, 2025-03-10 12:29:45.963
10.0, -29413.621653750142, -10461.801047539837, -36330.43603067828, -31809.21456923659, -17141.329305330433, -24914.953102463856, -24589.355240983397, -16536.334638158638, -28714.839066843877, -31950.18702151621, -35608.407629538495, -10851.526063862571, -35097.82673094591, -25582.845578532884, -35685.61055488713, -31934.540800397495, -0.052000000000000005, 0.976, 0.256, 192.0, 0.0, 0.0, 0.0, 0.0, 0.0, 0.0, 0.0, 0.0, 0.0, 1.74162778596392E9, 0.0, 2025-03-10 12:29:45.963
12.0, -29417.62261600764, -10459.40941088312, -36332.827667335, -31809.907473314703, -17140.926973930236, -24919.60226531056, -24594.51849395257, -16554.59601337862, -28742.666988690733, -31949.672931393736, -35638.87305723108, -10862.947805279233, -35142.37375764534, -25588.858197791364, -35757.96315168896, -31936.64186437629, -0.052000000000000005, 0.976, 0.256, 192.0, 0.0, 0.0, 0.0, 0.0, 0.0, 0.0, 0.0, 0.0, 0.0, 1.741627785963988E9, 0.0, 2025-03-10 12:29:45.963
14.0, -29415.566255517755, -10451.116913690199, -36329.9219405558, -31811.87442682677, -17141.843395452906, -24922.97737872331, -24614.076270350968, -16585.84375212714, -28734.329788008905, -31940.08403302241, -35622.466876800885, -10851.8613400294, -35105.35926882736, -25579.5375203535, -35694.90888058053, -31943.928533068723, -0.052000000000000005, 0.976, 0.256, 192.0, 0.0, 0.0, 0.0, 0.0, 0.0, 0.0, 0.0, 0.0, 0.0, 1.741627785964071E9, 0.0, 2025-03-10 12:29:45.964
16.0, -29406.357336802168, -10438.778750750871, -36311.481751380175, -31793.76951381797, -17130.287543569513, -24899.485695300784, -24575.34069720992, -16545.476501640856, -28730.217067029127, -31932.08210850741, -35632.10047866112, -10849.246185928128, -35139.311568654965, -25577.749380797075, -35757.65022726658, -31938.65352137727, -0.052000000000000005, 0.976, 0.256, 192.0, 0.0, 0.0, 0.0, 0.0, 0.0, 0.0, 0.0, 0.0, 0.0, 1.741627786026472E9, 0.0, 2025-03-10 12:29:46.026
18.0, -29392.499255239876, -10419.980933663957, -36309.96183275722, -31791.53433937244, -17130.421654036243, -24901.83262846859, -24602.96745335668, -16564.363725705593, -28707.39593594026, -31921.88971303579, -35597.74584743331, -10828.503767073604, -35087.65668721875, -25555.129415408304, -35670.38901691306, -31916.70410832216, -0.054, 0.98, 0.256, 192.0, 127.0, 40.0, 15.0, 80.0, 4.0, 0.0, 0.0, 0.0, 0.0, 1.741627786026554E9, 0.0, 2025-03-10 12:29:46.026
20.0, -29400.277662310324, -10411.442567282029, -36313.918091525804, -31795.155321974198, -17136.255459339078, -24913.857866985545, -24602.185142300743, -16594.180952808973, -28701.20450272614, -31911.093820463877, -35616.61071975359, -10830.224851396662, -35136.182324431225, -25561.87964223381, -35752.46462255295, -31931.679777107216, -0.054, 0.98, 0.256, 192.0, 0.0, 0.0, 0.0, 0.0, 0.0, 0.0, 0.0, 0.0, 0.0, 1.741627786026653E9, 0.0, 2025-03-10 12:29:46.026
22.0, -29387.514816226343, -10413.34246556073, -36320.087172995474, -31813.72962161656, -17130.980447647627, -24941.015236498744, -24574.603089642897, -16590.67172892949, -28689.06750548691, -31926.94120728269, -35605.65836497049, -10837.489168344639, -35094.47396927762, -25568.518110337034, -35690.79615960076, -31948.823565104434, -0.054, 0.98, 0.256, 192.0, 0.0, 0.0, 0.0, 0.0, 0.0, 0.0, 0.0, 0.0, 0.0, 1.74162778602673E9, 0.0, 2025-03-10 12:29:46.026
24.0, -29399.71886869894, -10403.172421833566, -36324.93750154227, -31812.120296015775, -17140.3458285744, -24933.63916082849, -24607.77307841457, -16582.289824758747, -28690.743886321055, -31935.099594008876, -35623.38329832355, -10849.357944650406, -35135.958806986666, -25588.20999720216, -35748.19543936198, -31953.383320973317, -0.054, 0.98, 0.256, 192.0, 0.0, 0.0, 0.0, 0.0, 0.0, 0.0, 0.0, 0.0, 0.0, 1.741627786026803E9, 0.0, 2025-03-10 12:29:46.026
26.0, -29357.563478656233, -10363.81099984777, -36316.37678341589, -31807.11350525779, -17120.273962053536, -24926.441899113885, -24570.46801691866, -16564.006097794307, -28657.81976673839, -31921.822657802422, -35594.86247239858, -10834.404627609805, -35093.445789032674, -25582.845578532884, -35699.1780637715, -31942.31920746794, -0.054, 0.98, 0.256, 192.0, 0.0, 0.0, 0.0, 0.0, 0.0, 0.0, 0.0, 0.0, 0.0, 1.741627786026875E9, 0.0, 2025-03-10 12:29:46.026
28.0, -29371.555670685255, -10356.993717788902, -36314.94627177075, -31792.003726006, -17122.129156843326, -24912.382651851494, -24592.35037474041, -16540.04502773822, -28644.76634797649, -31917.9334542672, -35602.395010280015, -10837.690334044735, -35127.778068516025, -25583.62788958882, -35734.315006055236, -31941.693358623193, -0.054, 0.982, 0.256, 192.0, 127.0, 40.0, 15.0, 88.0, 4.0, 0.0, 0.0, 0.0, 0.0, 1.741627786026952E9, 0.0, 2025-03-10 12:29:46.026
30.0, -29330.540219609764, -10338.888804780103, -36304.6197658324, -31793.97067951807, -17115.513040484555, -24905.475962814806, -24589.01996481657, -16547.398751664015, -28620.62646396476, -31903.06954420442, -35576.69050415642, -10818.601944279902, -35087.164948840735, -25560.516185822034, -35694.595956158155, -31924.348404925873, -0.054, 0.982, 0.256, 192.0, 0.0, 0.0, 0.0, 0.0, 0.0, 0.0, 0.0, 0.0, 0.0, 1.741627786089407E9, 0.0, 2025-03-10 12:29:46.089
32.0, -29363.41963570352, -10348.365944429153, -36311.39234440236, -31798.57513887586, -17131.472186025643, -24928.98999798179, -24590.539883439527, -16593.063365586208, -28619.844152908823, -31910.73619255259, -35588.58163220664, -10827.408531595294, -35121.11724866834, -25579.314002908948, -35720.21105530394, -31945.71667262515, -0.054, 0.982, 0.256, 192.0, 0.0, 0.0, 0.0, 0.0, 0.0, 0.0, 0.0, 0.0, 0.0, 1.7416277860895E9, 0.0, 2025-03-10 12:29:46.089
34.0, -29320.638396816066, -10318.794586514781, -36301.93755649776, -31799.446856909617, -17116.854145151872, -24924.810221768646, -24573.507854164585, -16552.763170333288, -28607.03660333593, -31902.60015757086, -35573.36009423257, -10818.37842683535, -35093.445789032674, -25579.11283720885, -35700.49681669436, -31937.13360275431, -0.054, 0.982, 0.256, 192.0, 0.0, 0.0, 0.0, 0.0, 0.0, 0.0, 0.0, 0.0, 0.0, 1.741627786089569E9, 0.0, 2025-03-10 12:29:46.089
36.0, -29354.61304838813, -10323.264935405843, -36305.335021654966, -31789.969717260567, -17127.24770632359, -24919.289340888186, -24598.139476554334, -16571.002193808818, -28605.628443435246, -31904.678869805204, -35583.75365540429, -10822.960534448688, -35116.9374724552, -25584.790180300497, -35710.465694721424, -31953.60683841787, -0.054, 0.982, 0.256, 192.0, 0.0, 0.0, 0.0, 0.0, 0.0, 0.0, 0.0, 0.0, 0.0, 1.741627786089675E9, 0.0, 2025-03-10 12:29:46.089
38.0, -29315.408088613523, -10307.551659053763, -36299.30005065203, -31797.9045865422, -17116.317703284945, -24922.35152987856, -24582.42620020225, -16562.329716960157, -28593.67026015166, -31895.201730156154, -35570.05203605319, -10814.444519811215, -35097.536158268, -25562.974877712117, -35706.19651153046, -31937.17830624322, -0.052000000000000005, 0.978, 0.258, 192.0, 127.0, 48.0, 15.0, 72.0, 4.0, 8.0, 0.0, 0.0, 0.0, 1.741627786089749E9, 0.0, 2025-03-10 12:29:46.089
40.0, -29345.51588839482, -10317.006446958358, -36308.59837634544, -31790.05912423839, -17120.85510740937, -24909.007538438742, -24564.321287193452, -16541.743760316822, -28596.911263097678, -31903.11424769333, -35573.248335510296, -10820.121862902864, -35109.38258282931, -25577.34704939688, -35693.277203235295, -31943.950884813177, -0.052000000000000005, 0.978, 0.258, 192.0, 0.0, 0.0, 0.0, 0.0, 0.0, 0.0, 0.0, 0.0, 0.0, 1.741627786089821E9, 0.0, 2025-03-10 12:29:46.089
42.0, -29309.060193188216, -10299.683845005495, -36310.67708857979, -31801.279699954954, -17120.497479498088, -24917.970587965323, -24597.535979454038, -16565.838940839643, -28586.383591459227, -31895.64876504526, -35566.408701706976, -10812.768138977068, -35103.57112927093, -25577.25764241906, -35726.87187515162, -31945.671969136238, -0.052000000000000005, 0.978, 0.258, 192.0, 0.0, 0.0, 0.0, 0.0, 0.0, 0.0, 0.0, 0.0, 0.0, 1.7416277860899E9, 0.0, 2025-03-10 12:29:46.089
44.0, -29349.24862971886, -10313.452519589964, -36317.293204938556, -31795.088266740833, -17132.00862789257, -24921.904494989456, -24604.912055124292, -16572.76798162079, -28594.02788806294, -31904.880035505303, -35574.075350055144, -10818.981923935644, -35110.61192877435, -25574.977764484618, -35697.81460735972, -31945.113175524853, -0.052000000000000005, 0.978, 0.258, 192.0, 0.0, 0.0, 0.0, 0.0, 0.0, 0.0, 0.0, 0.0, 0.0, 1.741627786113382E9, 0.0, 2025-03-10 12:29:46.113
46.0, -29315.98923396936, -10305.674112519517, -36304.55271059903, -31798.508083642493, -17112.160278816256, -24917.747070520767, -24553.301877176986, -16546.16940571897, -28590.406905461183, -31901.907253492744, -35577.96455359037, -10817.66317101278, -35114.88111196531, -25576.408276129758, -35732.72803219891, -31945.64961739178, -0.052000000000000005, 0.978, 0.258, 192.0, 0.0, 0.0, 0.0, 0.0, 0.0, 0.0, 0.0, 0.0, 0.0, 1.741627786166498E9, 0.0, 2025-03-10 12:29:46.166
48.0, -29341.872554048605, -10312.223173644921, -36311.3699926579, -31800.787961576938, -17122.687950454707, -24924.966683979834, -24580.258080990086, -16583.541522448246, -28591.122161283754, -31909.26097741854, -35573.09187329911, -10819.943048947222, -35101.291251336486, -25576.49768310758, -35676.93807803847, -31949.158841271266, -0.052000000000000005, 0.98, 0.262, 192.0, 127.0, 48.0, 15.0, 80.0, 4.0, 24.0, 0.0, 0.0, 0.0, 1.741627786166616E9, 0.0, 2025-03-10 12:29:46.166
50.0, -29309.395469355044, -10292.79950771326, -36300.574100085985, -31798.9551185316, -17111.4897264826, -24921.83743975609, -24588.86350260538, -16567.582376907158, -28586.40594320368, -31896.453427845652, -35572.689541898915, -10813.438691310726, -35112.75769624206, -25571.982630727605, -35736.30431131176, -31949.38235871582, -0.052000000000000005, 0.98, 0.262, 192.0, 0.0, 0.0, 0.0, 0.0, 0.0, 0.0, 0.0, 0.0, 0.0, 1.741627786166699E9, 0.0, 2025-03-10 12:29:46.166
52.0, -29341.202001714948, -10311.32910386671, -36311.74997231364, -31802.687859855636, -17125.414863278256, -24915.131916419497, -24589.82462761696, -16558.79814133622, -28585.400114703196, -31900.49909359206, -35564.017065050255, -10810.644723253814, -35091.94822215417, -25569.68040104871, -35677.18394722747, -31953.495079695593, -0.052000000000000005, 0.98, 0.262, 192.0, 0.0, 0.0, 0.0, 0.0, 0.0, 0.0, 0.0, 0.0, 0.0, 1.741627786166766E9, 0.0, 2025-03-10 12:29:46.166
54.0, -29318.023242714793, -10299.79560372777, -36303.658640820824, -31795.37883941875, -17115.96007537366, -24902.972567435812, -24579.274604234055, -16545.476501640856, -28587.32236472635, -31895.469951089617, -35579.21625127986, -10815.42799656725, -35121.564283557454, -25570.6862295492, -35742.67455848152, -31947.95184707068, -0.052000000000000005, 0.98, 0.262, 192.0, 0.0, 0.0, 0.0, 0.0, 0.0, 0.0, 0.0, 0.0, 0.0, 1.741627786166833E9, 0.0, 2025-03-10 12:29:46.166
56.0, -29345.426481417002, -10316.447653346975, -36318.18727471677, -31802.285528455443, -17128.409997035265, -24914.707233274847, -24589.37759272785, -16567.492969929335, -28590.541015927916, -31904.92473899421, -35572.64483841, -10818.512537302082, -35092.21644308764, -25571.28972664949, -35672.60183961414, -31946.588390658904, -0.052000000000000005, 0.98, 0.262, 192.0, 0.0, 0.0, 0.0, 0.0, 0.0, 0.0, 0.0, 0.0, 0.0, 1.741627786166911E9, 0.0, 2025-03-10 12:29:46.166
58.0, -29323.99115848436, -10301.337874095187, -36303.435123376265, -31793.456589395595, -17118.06113935246, -24916.987111209288, -24601.022851589067, -16564.922519316973, -28595.07842005234, -31902.398991870763, -35586.48056822784, -10822.692313515225, -35129.83442900592, -25568.719276037133, -35746.764927716846, -31952.399844217285, -0.05, 0.98, 0.26, 192.0, 127.0, 56.0, 15.0, 80.0, 4.0, 16.0, 0.0, 0.0, 0.0, 1.741627786166983E9, 0.0, 2025-03-10 12:29:46.166
60.0, -29330.361405654123, -10302.701330506961, -36306.27379492209, -31791.176711461154, -17113.90371488377, -24925.726643291313, -24559.42625515774, -16567.04593504023, -28577.80052158839, -31894.419419100217, -35557.6915213694, -10806.442595296216, -35076.816091157925, -25564.360685868345, -35663.68349357647, -31937.51358241005, -0.05, 0.98, 0.26, 192.0, 0.0, 0.0, 0.0, 0.0, 0.0, 0.0, 0.0, 0.0, 0.0, 1.74162778616706E9, 0.0, 2025-03-10 12:29:46.167
62.0, -29324.237027673367, -10299.37092058312, -36306.56436760001, -31786.43814163663, -17120.519831242542, -24909.78984949468, -24593.87029336337, -16551.019734265774, -28582.98612630202, -31894.419419100217, -35578.836271624124, -10815.986790178633, -35110.70133575217, -25580.051610475974, -35746.51905852784, -31947.013073803555, -0.05, 0.98, 0.26, 192.0, 0.0, 0.0, 0.0, 0.0, 0.0, 0.0, 0.0, 0.0, 0.0, 1.741627786218029E9, 0.0, 2025-03-10 12:29:46.218
64.0, -29323.342957895158, -10297.13574613759, -36308.352507156436, -31785.499368369507, -17119.357540530866, -24908.314634360628, -24573.306688464487, -16539.732103315844, -28571.340867440806, -31893.41359059973, -35557.06567252465, -10804.922676673255, -35058.75588163804, -25560.985572455596, -35676.423987915994, -31925.68950959319, -0.05, 0.98, 0.26, 192.0, 0.0, 0.0, 0.0, 0.0, 0.0, 0.0, 0.0, 0.0, 0.0, 1.741627786218148E9, 0.0, 2025-03-10 12:29:46.218
66.0, -29326.874533519094, -10293.179487369, -36303.457475120726, -31776.357504887284, -17120.96686613165, -24902.771401735714, -24592.90916835179, -16557.613498880088, -28578.56048089987, -31890.865491731824, -35577.4951669568, -10809.504784286593, -35091.501187265065, -25573.077866205917, -35738.38302354611, -31922.627320602816, -0.05, 0.98, 0.26, 192.0, 0.0, 0.0, 0.0, 0.0, 0.0, 0.0, 0.0, 0.0, 0.0, 1.741627786218225E9, 0.0, 2025-03-10 12:29:46.218
68.0, -29316.928007236485, -10288.709138477938, -36301.57992858648, -31778.033885721434, -17116.027130607024, -24909.186352394387, -24567.58464188393, -16562.62028963808, -28564.054198748378, -31882.72945675009, -35552.46121316686, -10794.484412012627, -35036.337081949365, -25562.39373235628, -35678.033313516775, -31916.435887388696, -0.046, 0.974, 0.26, 192.0, 127.0, 72.0, 15.0, 56.0, 4.0, 16.0, 0.0, 0.0, 0.0, 1.7416277862183E9, 0.0, 2025-03-10 12:29:46.218
70.0, -29326.829830030183, -10285.959873909937, -36295.00851571662, -31767.774435016447, -17118.172898074736, -24900.044488912165, -24579.118142022868, -16530.03144622224, -28559.18151845712, -31878.773197981503, -35562.407739449474, -10800.340569059917, -35067.18248929769, -25568.294592892482, -35730.179933331005, -31900.45439010315, -0.046, 0.974, 0.26, 192.0, 0.0, 0.0, 0.0, 0.0, 0.0, 0.0, 0.0, 0.0, 0.0, 1.741627786218387E9, 0.0, 2025-03-10 12:29:46.218
72.0, -29311.80945775622, -10281.824801185705, -36302.5187018536, -31782.14660670121, -17118.329360285923, -24916.763593764736, -24583.67789789175, -16564.251966983316, -28546.35161713977, -31880.181357882186, -35539.631311849516, -10796.026682380043, -35023.03779399846, -25559.130377665806, -35682.01192402982, -31904.053020960455, -0.046, 0.974, 0.26, 192.0, 0.0, 0.0, 0.0, 0.0, 0.0, 0.0, 0.0, 0.0, 0.0, 1.741627786218456E9, 0.0, 2025-03-10 12:29:46.218
74.0, -29337.648074346554, -10289.111469878135, -36305.42442863279, -31776.96100198758, -17127.940610401703, -24905.74418374827, -24596.86542712038, -16568.409391452, -28556.40990214466, -31885.344610851364, -35554.87520156804, -10811.024702909554, -35062.354512495345, -25569.322773137425, -35733.10801185465, -31908.45631461815, -0.046, 0.974, 0.26, 192.0, 0.0, 0.0, 0.0, 0.0, 0.0, 0.0, 0.0, 0.0, 0.0, 1.741627786218524E9, 0.0, 2025-03-10 12:29:46.218
76.0, -29300.052440172727, -10271.788867925272, -36290.918146481294, -31769.607278061783, -17114.373101517333, -24906.97352969331, -24579.67693563425, -16555.937118045942, -28542.954151982565, -31870.21247985512, -35529.86359952255, -10789.432917765727, -35019.841494541346, -25545.20524087015, -35696.294688736765, -31896.252262145554, -0.046, 0.974, 0.26, 192.0, 0.0, 0.0, 0.0, 0.0, 0.0, 0.0, 0.0, 0.0, 0.0, 1.741627786267702E9, 0.0, 2025-03-10 12:29:46.267
78.0, -29340.553801125745, -10292.17365886851, -36305.4691321217, -31770.43429260663, -17131.87451742584, -24902.972567435812, -24598.38534574334, -16553.56783313368, -28555.56053585536, -31874.59342176836, -35551.03070152172, -10803.55922026148, -35053.07853854639, -25560.471482333123, -35723.42970650551, -31902.73426803759, -0.048, 0.976, 0.262, 192.0, 127.0, 64.0, 15.0, 64.0, 4.0, 24.0, 0.0, 0.0, 0.0, 1.741627786267816E9, 0.0, 2025-03-10 12:29:46.267
80.0, -29307.3167571207, -10281.042490129768, -36299.83649251896, -31779.129121199745, -17124.878421411326, -24915.40013735296, -24603.749764412616, -16558.14994074702, -28548.542088096394, -31876.15804388023, -35540.12305022753, -10797.099566113899, -35025.854113799825, -25556.24700263107, -35701.9273283395, -31895.805227256446, -0.048, 0.976, 0.262, 192.0, 0.0, 0.0, 0.0, 0.0, 0.0, 0.0, 0.0, 0.0, 0.0, 1.741627786267898E9, 0.0, 2025-03-10 12:29:46.267
82.0, -29338.34097842467, -10287.300978577254, -36299.9706029857, -31768.780263516936, -17127.828851679427, -24915.936579219888, -24594.2055695302, -16579.361746235103, -28552.654809076168, -31879.086122403878, -35551.88006781102, -10806.934333674233, -35047.26708498801, -25566.95348822516, -35720.56868321523, -31909.88682626329, -0.048, 0.976, 0.262, 192.0, 0.0, 0.0, 0.0, 0.0, 0.0, 0.0, 0.0, 0.0, 0.0, 1.741627786267966E9, 0.0, 2025-03-10 12:29:46.267
84.0, -29300.186550639457, -10267.251463800843, -36286.447797590234, -31759.794862245904, -17110.081566581914, -24874.518796744203, -24575.72067686566, -16503.723442998344, -28539.713149036546, -31864.468081530107, -35531.69644256788, -10792.584513733926, -35020.42263989719, -25547.954505438152, -35703.02256381781, -31881.656573016237, -0.048, 0.976, 0.262, 192.0, 0.0, 0.0, 0.0, 0.0, 0.0, 0.0, 0.0, 0.0, 0.0, 1.741627786268032E9, 0.0, 2025-03-10 12:29:46.268
86.0, -29344.934743038983, -10287.03275764379, -36304.351544898935, -31764.466376837063, -17137.35069481739, -24907.062936671133, -24596.843075375924, -16583.720336403887, -28550.08435846381, -31868.871375187802, -35543.76638457375, -10800.787603949024, -35041.92501806319, -25555.576450297413, -35700.16154052753, -31888.764427753023, -0.048, 0.976, 0.262, 192.0, 0.0, 0.0, 0.0, 0.0, 0.0, 0.0, 0.0, 0.0, 0.0, 1.741627786327473E9, 0.0, 2025-03-10 12:29:46.327
88.0, -29307.294405376248, -10270.447763257953, -36289.50998658061, -31767.305048382885, -17112.406148005266, -24898.74808773376, -24572.52437740855, -16535.93230675844, -28547.759777040457, -31868.536099020974, -35539.92188452743, -10800.631141737837, -35030.92795979118, -25556.67168577572, -35723.38500301659, -31896.92281447921, -0.05, 0.976, 0.258, 192.0, 127.0, 56.0, 15.0, 64.0, 4.0, 8.0, 0.0, 0.0, 0.0, 1.741627786327578E9, 0.0, 2025-03-10 12:29:46.327
90.0, -29349.896830308062, -10293.51476353583, -36300.998783230636, -31768.28852513892, -17128.365293546354, -24896.714078988323, -24576.65945013278, -16514.429928592435, -28547.580963084816, -31873.16291012322, -35540.32421592763, -10801.256990582586, -35027.4187359117, -25553.05070317396, -35690.68440087848, -31882.327125349897, -0.05, 0.976, 0.258, 192.0, 0.0, 0.0, 0.0, 0.0, 0.0, 0.0, 0.0, 0.0, 0.0, 1.741627786327658E9, 0.0, 2025-03-10 12:29:46.327
92.0, -29312.770582767796, -10276.08040286069, -36298.830664018475, -31774.52466184195, -17123.738482444107, -24902.68199475789, -24587.924729338258, -16540.693228327422, -28557.058102733863, -31884.383485839786, -35548.79552707619, -10810.823537209457, -35034.50423890403, -25567.847558003374, -35726.35778502915, -31893.950032466655, -0.05, 0.976, 0.258, 192.0, 0.0, 0.0, 0.0, 0.0, 0.0, 0.0, 0.0, 0.0, 0.0, 1.741627786327739E9, 0.0, 2025-03-10 12:29:46.327
94.0, -29353.96484779893, -10294.878219947603, -36314.38747815937, -31780.0008392335, -17136.16605236126, -24919.199933910364, -24608.242465048133, -16577.4618479564, -28550.397282886184, -31876.82859621389, -35538.46902113784, -10803.916848172767, -35029.1174684903, -25557.498700320568, -35697.680496892994, -31905.12590469431, -0.05, 0.976, 0.258, 192.0, 0.0, 0.0, 0.0, 0.0, 0.0, 0.0, 0.0, 0.0, 0.0, 1.741627786327806E9, 0.0, 2025-03-10 12:29:46.327
96.0, -29325.220504429402, -10288.865600689125, -36306.743181555656, -31783.04067647942, -17127.381816790323, -24917.970587965323, -24596.083116064445, -16560.318059959183, -28565.909393538168, -31885.612831784827, -35559.85964058157, -10820.032455925042, -35047.15532626573, -25563.556023067955, -35744.038014893296, -31915.31830016593, -0.05, 0.976, 0.258, 192.0, 0.0, 0.0, 0.0, 0.0, 0.0, 0.0, 0.0, 0.0, 0.0, 1.741627786327875E9, 0.0, 2025-03-10 12:29:46.327
98.0, -29362.77143511432, -10304.869449719126, -36320.914187540315, -31780.224356678053, -17145.218508865655, -24900.379765078997, -24618.881895408857, -16549.410408664993, -28562.333114425317, -31881.41070382723, -35555.1434225015, -10817.707874501692, -35026.39055566675, -25557.47634857611, -35696.74172362587, -31902.93543373769, -0.05, 0.97, 0.258, 192.0, 127.0, 56.0, 15.0, 40.0, 4.0, 8.0, 0.0, 0.0, 0.0, 1.741627786327942E9, 0.0, 2025-03-10 12:29:46.327
100.0, -29327.343920152656, -10291.65956874604, -36307.05610597803, -31777.743313043513, -17128.700569713186, -24917.79177400968, -24585.331926981442, -16568.096467029627, -28576.74998959899, -31890.016125442522, -35577.0481320677, -10835.455159599205, -35058.73352989358, -25573.748418539577, -35758.63370402261, -31910.26680591903, -0.05, 0.97, 0.258, 192.0, 0.0, 0.0, 0.0, 0.0, 0.0, 0.0, 0.0, 0.0, 0.0, 1.741627786381408E9, 0.0, 2025-03-10 12:29:46.381
102.0, -29345.068853505716, -10290.407871056543, -36305.91616701081, -31763.862879736767, -17141.66458149726, -24900.26800635672, -24616.199686074222, -16557.814664580186, -28558.488614379003, -31882.193014883163, -35545.84509680809, -10815.517403545071, -35022.1660759647, -25553.58714504089, -35690.147959011556, -31897.101628434855, -0.05, 0.97, 0.258, 192.0, 0.0, 0.0, 0.0, 0.0, 0.0, 0.0, 0.0, 0.0, 0.0, 1.741627786381517E9, 0.0, 2025-03-10 12:29:46.381
104.0, -29325.242856173856, -10273.912283648526, -36294.986163972164, -31762.655885536184, -17118.41876726374, -24901.095020901565, -24561.86259530337, -16533.585373590635, -28555.940515511098, -31869.11724437681, -35554.49522191229, -10807.269609841063, -35043.75786110853, -25552.894240962774, -35755.88443945461, -31892.318355121417, -0.05, 0.97, 0.258, 192.0, 0.0, 0.0, 0.0, 0.0, 0.0, 0.0, 0.0, 0.0, 0.0, 1.741627786381587E9, 0.0, 2025-03-10 12:29:46.381
106.0, -29347.080510506694, -10286.831591943694, -36314.342774670455, -31778.123292699256, -17139.80938670747, -24921.83743975609, -24620.737090198647, -16564.833112339154, -28554.308838165864, -31874.906346190735, -35547.94616078689, -10813.684560499736, -35013.962985749604, -25551.86606071783, -35689.65622063354, -31898.956823224646, -0.05, 0.97, 0.258, 192.0, 0.0, 0.0, 0.0, 0.0, 0.0, 0.0, 0.0, 0.0, 0.0, 1.741627786381667E9, 0.0, 2025-03-10 12:29:46.381
108.0, -29337.066928990716, -10292.978321668903, -36311.1688269578, -31780.693743311615, -17139.049427395992, -24908.314634360628, -24585.197816514712, -16545.588260363133, -28565.70822783807, -31880.56133753793, -35573.27068725475, -10828.727284518158, -35056.94539033716, -25565.053589946463, -35772.17886116253, -31907.875169262312, -0.056, 0.982, 0.26, 192.0, 127.0, 32.0, 15.0, 88.0, 4.0, 16.0, 0.0, 0.0, 0.0, 1.74162778638174E9, 0.0, 2025-03-10 12:29:46.381
110.0, -29329.981425998383, -10285.110507620635, -36298.763608785106, -31765.80748150438, -17132.165090103757, -24909.476925072304, -24571.8985285638, -16522.655370551987, -28557.32632366733, -31881.678924760694, -35546.87327705303, -10815.271534356063, -35015.371145650286, -25554.43651133019, -35690.617345645114, -31896.028744701, -0.056, 0.982, 0.26, 192.0, 0.0, 0.0, 0.0, 0.0, 0.0, 0.0, 0.0, 0.0, 0.0, 1.741627786381822E9, 0.0, 2025-03-10 12:29:46.381
112.0, -29325.354614896136, -10274.60518772664, -36297.55661458452, -31762.030036691434, -17138.468282040154, -24913.388480351983, -24614.992691873635, -16561.301536715215, -28552.94538175409, -31864.93746816367, -35550.67307361044, -10800.429976037738, -35049.50225943354, -25553.274220618514, -35753.604561520166, -31894.397067355763, -0.056, 0.982, 0.26, 192.0, 0.0, 0.0, 0.0, 0.0, 0.0, 0.0, 0.0, 0.0, 0.0, 1.7416277863819E9, 0.0, 2025-03-10 12:29:46.381
114.0, -29331.18842019897, -10282.070670374713, -36306.43025713328, -31780.716095056072, -17138.96002041817, -24937.885992275, -24606.0072906026, -16566.844769340132, -28547.580963084816, -31868.469043787605, -35535.38448040301, -10798.172449847752, -35013.80652353841, -25547.48511880459, -35694.41714220252, -31906.60111982836, -0.056, 0.982, 0.26, 192.0, 0.0, 0.0, 0.0, 0.0, 0.0, 0.0, 0.0, 0.0, 0.0, 1.741627786381974E9, 0.0, 2025-03-10 12:29:46.381
116.0, -29338.38568191358, -10290.854905945649, -36301.42346637529, -31781.654868323192, -17130.39930229179, -24936.61194284105, -24590.852807861902, -16545.297687685215, -28561.059064991365, -31878.54968053695, -35561.647780137995, -10819.741883247123, -35053.83849785787, -25567.735799281098, -35749.98357891841, -31914.312471665442, -0.056, 0.982, 0.26, 192.0, 0.0, 0.0, 0.0, 0.0, 0.0, 0.0, 0.0, 0.0, 0.0, 1.741627786431475E9, 0.0, 2025-03-10 12:29:46.431
118.0, -29317.911483992517, -10283.232961086389, -36297.69072505125, -31777.631554321237, -17132.81329069296, -24909.387518094485, -24614.143325584333, -16548.784559820244, -28553.012436987454, -31883.243546872563, -35538.46902113784, -10813.885726199833, -35008.7103258026, -25568.3839998703, -35688.046895032756, -31909.238625674087, -0.056, 0.984, 0.256, 192.0, 127.0, 32.0, 15.0, 96.0, 4.0, 0.0, 0.0, 0.0, 0.0, 1.741627786431556E9, 0.0, 2025-03-10 12:29:46.431
120.0, -29326.293388163256, -10274.873408660103, -36293.48859709366, -31763.28173438093, -17134.892002927303, -24918.21645715433, -24624.291017567044, -16584.502647459823, -28546.038692717397, -31870.570107766405, -35533.77515480222, -10803.670978983759, -35043.28847447497, -25564.11481667934, -35755.50445979887, -31903.650689560258, -0.056, 0.984, 0.256, 192.0, 0.0, 0.0, 0.0, 0.0, 0.0, 0.0, 0.0, 0.0, 0.0, 1.741627786431651E9, 0.0, 2025-03-10 12:29:46.431
122.0, -29307.763792009806, -10253.84041712766, -36291.58869881496, -31761.91827796916, -17123.492613255097, -24912.06972742912, -24593.937348596737, -16547.309344686193, -28535.84629724578, -31855.25916281452, -35514.03856444819, -10780.581626961426, -35000.57429082088, -25543.90883969174, -35689.41035144453, -31896.632241801293, -0.056, 0.984, 0.256, 192.0, 0.0, 0.0, 0.0, 0.0, 0.0, 0.0, 0.0, 0.0, 0.0, 1.741627786431726E9, 0.0, 2025-03-10 12:29:46.431
124.0, -29344.845336061164, -10283.300016319754, -36299.523568096585, -31764.66754253716, -17116.049482351482, -24915.802468753158, -24537.096862446888, -16541.09555972762, -28548.922067752133, -31855.125052347787, -35542.67114909543, -10798.798298692502, -35041.9697215521, -25550.502604306057, -35736.72899445641, -31902.466047104128, -0.056, 0.984, 0.256, 192.0, 0.0, 0.0, 0.0, 0.0, 0.0, 0.0, 0.0, 0.0, 0.0, 1.741627786431799E9, 0.0, 2025-03-10 12:29:46.431
126.0, -29323.968806739904, -10295.235847858889, -36301.781094286576, -31782.19131019012, -17109.723938670628, -24909.231055883298, -24534.302894389977, -16529.74087354432, -28559.539146368403, -31874.79458746846, -35541.151230472475, -10812.365807576873, -35013.627709582775, -25551.843708973374, -35686.23640373188, -31887.69154401917, -0.056, 0.984, 0.256, 192.0, 0.0, 0.0, 0.0, 0.0, 0.0, 0.0, 0.0, 0.0, 0.0, 1.741627786431953E9, 0.0, 2025-03-10 12:29:46.431
128.0, -29341.693740092964, -10295.526420536808, -36296.08139945047, -31772.96003973008, -17120.89981089828, -24900.178599378898, -24573.798426842503, -16530.56788808917, -28565.28354469342, -31887.803302741446, -35547.722643342335, -10821.015932681077, -35049.479907689085, -25563.891299234787, -35721.105125082155, -31893.167721410722, -0.058, 0.976, 0.258, 192.0, 127.0, 24.0, 15.0, 64.0, 4.0, 8.0, 0.0, 0.0, 0.0, 1.741627786432033E9, 0.0, 2025-03-10 12:29:46.432
130.0, -29306.80266699823, -10274.404022026541, -36293.64505930484, -31774.077626952843, -17116.071834095936, -24903.64311976947, -24594.898473608315, -16541.050856238708, -28548.251515418473, -31878.415570070218, -35520.36410812904, -10800.117051615365, -35018.32157591839, -25550.636714772787, -35695.78059861429, -31903.449523860163, -0.058, 0.976, 0.258, 192.0, 0.0, 0.0, 0.0, 0.0, 0.0, 0.0, 0.0, 0.0, 0.0, 1.741627786487658E9, 0.0, 2025-03-10 12:29:46.487
132.0, -29350.120347752614, -10286.339853565676, -36303.99391698765, -31769.070836194856, -17135.137872116313, -24913.32142511862, -24608.890665637336, -16558.79814133622, -28553.235954432006, -31870.43599729967, -35532.99284374629, -10795.75846144658, -35048.11645127731, -25556.5822787979, -35710.08571506569, -31901.393163370274, -0.058, 0.976, 0.258, 192.0, 0.0, 0.0, 0.0, 0.0, 0.0, 0.0, 0.0, 0.0, 0.0, 1.741627786487765E9, 0.0, 2025-03-10 12:29:46.487
134.0, -29322.247722416847, -10272.660585959029, -36294.38266687187, -31772.691818796615, -17120.810403920463, -24900.558579034638, -24582.24738624661, -16548.426931908958, -28562.60133535878, -31872.49235778956, -35542.38057641752, -10806.152022618297, -35038.08051801688, -25555.48704331959, -35720.21105530394, -31903.74009653808, -0.058, 0.976, 0.258, 192.0, 0.0, 0.0, 0.0, 0.0, 0.0, 0.0, 0.0, 0.0, 0.0, 1.741627786487851E9, 0.0, 2025-03-10 12:29:46.487
136.0, -29347.080510506694, -10291.816030957227, -36287.855957490916, -31759.05725467888, -17123.559668488466, -24882.990107892765, -24603.615653945883, -16528.6009345771, -28555.493480621994, -31867.39616005375, -35537.84317229309, -10805.749691218101, -35036.627654627286, -25543.372397824813, -35707.02352607531, -31885.41166608473, -0.058, 0.976, 0.258, 192.0, 0.0, 0.0, 0.0, 0.0, 0.0, 0.0, 0.0, 0.0, 0.0, 1.741627786487918E9, 0.0, 2025-03-10 12:29:46.487
138.0, -29304.85806523062, -10282.115373863624, -36283.5644225555, -31771.976562974047, -17109.411014248253, -24892.40019230845, -24590.115200294877, -16540.246193438317, -28556.20873644456, -31878.30381134794, -35536.59147460359, -10808.208383108185, -35028.89395104575, -25548.781519982997, -35717.752363413856, -31887.177453896697, -0.054, 0.976, 0.264, 192.0, 127.0, 40.0, 15.0, 64.0, 4.0, 32.0, 0.0, 0.0, 0.0, 1.741627786487985E9, 0.0, 2025-03-10 12:29:46.487
140.0, -29338.18451621348, -10280.953083151948, -36291.74516102614, -31760.48776632402, -17115.870668395837, -24894.858884198533, -24592.618595673874, -16551.57852787716, -28551.470166620038, -31875.755712480037, -35529.483619866805, -10800.27351382655, -35024.110677732315, -25551.508432806546, -35690.70675262294, -31896.78870401248, -0.054, 0.976, 0.264, 192.0, 0.0, 0.0, 0.0, 0.0, 0.0, 0.0, 0.0, 0.0, 0.0, 1.741627786488057E9, 0.0, 2025-03-10 12:29:46.488
142.0, -29321.778335783285, -10278.762612195327, -36298.09305645145, -31776.24574616501, -17111.221505549136, -24902.749049991256, -24597.1559997983, -16569.549330419224, -28552.096015464787, -31867.418511798205, -35539.899532782976, -10801.502859771594, -35034.45953541512, -25550.14497639477, -35738.27126482383, -31907.182265184198, -0.054, 0.976, 0.264, 192.0, 0.0, 0.0, 0.0, 0.0, 0.0, 0.0, 0.0, 0.0, 0.0, 1.741627786488146E9, 0.0, 2025-03-10 12:29:46.488
144.0, -29363.643153148074, -10303.058958418245, -36307.72665831169, -31771.82010076286, -17126.06306386746, -24912.203837895853, -24573.82077858696, -16539.687399826933, -28564.635344104216, -31877.722665992103, -35548.639064865005, -10816.634990767836, -35030.615035368806, -25550.212031628136, -35684.98470604238, -31902.443695359674, -0.054, 0.976, 0.264, 192.0, 0.0, 0.0, 0.0, 0.0, 0.0, 0.0, 0.0, 0.0, 0.0, 1.741627786488219E9, 0.0, 2025-03-10 12:29:46.488
146.0, -29318.067946203704, -10280.394289540565, -36285.17374815628, -31764.399321603698, -17103.532505456507, -24900.133895889987, -24564.76832208256, -16558.976955291862, -28563.89773653719, -31875.15221537974, -35549.331968943115, -10811.829365709946, -35040.36039595132, -25541.67366524621, -35730.805782175754, -31890.463160331627, -0.054, 0.976, 0.264, 192.0, 0.0, 0.0, 0.0, 0.0, 0.0, 0.0, 0.0, 0.0, 0.0, 1.741627786542808E9, 0.0, 2025-03-10 12:29:46.542
148.0, -29345.270019205815, -10291.056071645746, -36296.2155099172, -31764.891059981714, -17120.139851586802, -24909.722794261314, -24598.899435865813, -16532.959524745886, -28553.146547454187, -31875.956878180135, -35528.500143110774, -10800.80995569348, -35013.895930516235, -25558.281011376504, -35670.32196167969, -31897.571015068417, -0.052000000000000005, 0.978, 0.268, 192.0, 127.0, 48.0, 15.0, 72.0, 4.0, 48.0, 0.0, 0.0, 0.0, 1.741627786542889E9, 0.0, 2025-03-10 12:29:46.542
150.0, -29316.011585713815, -10265.418620755509, -36281.39630334333, -31754.832774976825, -17100.09033681039, -24897.652852255447, -24571.809121585982, -16537.18400444794, -28551.470166620038, -31868.15611936523, -35531.919960012434, -10796.607827735881, -35036.22532322709, -25551.91076420674, -35730.55991298675, -31883.22119512811, -0.052000000000000005, 0.978, 0.268, 192.0, 0.0, 0.0, 0.0, 0.0, 0.0, 0.0, 0.0, 0.0, 0.0, 1.741627786543105E9, 0.0, 2025-03-10 12:29:46.543
152.0, -29350.008589030338, -10286.876295432603, -36303.18925418726, -31768.065007694368, -17123.939648144205, -24907.331157604596, -24582.940290324725, -16552.13732148854, -28551.403111386673, -31872.626468256294, -35526.488486109796, -10800.56408650447, -35015.95229100613, -25549.47442406111, -35663.77290055429, -31890.664326031725, -0.052000000000000005, 0.978, 0.268, 192.0, 0.0, 0.0, 0.0, 0.0, 0.0, 0.0, 0.0, 0.0, 0.0, 1.741627786543166E9, 0.0, 2025-03-10 12:29:46.543
154.0, -29328.394452142056, -10283.501182019852, -36292.92980348227, -31767.70737978308, -17118.91050564176, -24891.014384152222, -24594.362031741388, -16558.976955291862, -28559.628553346225, -31863.618715240806, -35548.10262299808, -10807.515479030071, -35051.91624783471, -25552.290743862482, -35741.55697125876, -31883.02002942801, -0.052000000000000005, 0.978, 0.268, 192.0, 0.0, 0.0, 0.0, 0.0, 0.0, 0.0, 0.0, 0.0, 0.0, 1.741627786543215E9, 0.0, 2025-03-10 12:29:46.543
156.0, -29336.508135379332, -10293.067728646723, -36298.94242274075, -31773.898812997202, -17124.699607455685, -24918.730547276802, -24598.608863187896, -16573.37147872108, -28558.980352757022, -31869.608982754828, -35533.0375472352, -10800.47467952665, -35019.95325326362, -25554.592973541377, -35672.06539774721, -31898.17451216871, -0.052000000000000005, 0.978, 0.268, 192.0, 0.0, 0.0, 0.0, 0.0, 0.0, 0.0, 0.0, 0.0, 0.0, 1.741627786543272E9, 0.0, 2025-03-10 12:29:46.543
158.0, -29321.398356127545, -10279.544923251262, -36283.98910570015, -31757.827908733838, -17109.075738081425, -24889.405058551438, -24573.77607509805, -16512.84295473611, -28562.534280125416, -31871.754750222535, -35546.91798054195, -10806.599057507403, -35055.425471714196, -25559.733874766098, -35739.50061076887, -31896.36402086783, -0.048, 0.978, 0.276, 192.0, 127.0, 64.0, 15.0, 72.0, 4.0, 80.0, 0.0, 0.0, 0.0, 1.741627786543318E9, 0.0, 2025-03-10 12:29:46.543
160.0, -29312.725879278885, -10269.50898999083, -36281.12808240987, -31749.446004563095, -17110.036863093002, -24882.25250032574, -24585.53309268154, -16521.582486818133, -28542.484765349003, -31864.378674552285, -35519.22416916182, -10788.918827643256, -35007.36922113529, -25534.118775620318, -35652.462917859906, -31870.525404277494, -0.048, 0.978, 0.276, 192.0, 0.0, 0.0, 0.0, 0.0, 0.0, 0.0, 0.0, 0.0, 0.0, 1.741627786600685E9, 0.0, 2025-03-10 12:29:46.600
162.0, -29322.314777650212, -10271.140667336067, -36280.47988182067, -31750.317722596854, -17108.80751714796, -24887.9745469063, -24578.62640364485, -16542.861347539587, -28543.714111294048, -31855.706197703625, -35535.04920423618, -10788.047109609499, -35047.803526854936, -25530.296627318457, -35728.39179377458, -31873.006447912034, -0.048, 0.978, 0.276, 192.0, 0.0, 0.0, 0.0, 0.0, 0.0, 0.0, 0.0, 0.0, 0.0, 1.741627786600738E9, 0.0, 2025-03-10 12:29:46.600
164.0, -29332.61893184411, -10283.389423297576, -36297.04252446205, -31768.66850479466, -17129.95226740268, -24903.196084880365, -24625.050976878523, -16566.55419666221, -28552.677160820625, -31867.21734609811, -35531.47292512333, -10792.584513733926, -35020.892026530746, -25537.24801984406, -35665.82926104418, -31881.58951778287, -0.048, 0.978, 0.276, 192.0, 0.0, 0.0, 0.0, 0.0, 0.0, 0.0, 0.0, 0.0, 0.0, 1.7416277866008E9, 0.0, 2025-03-10 12:29:46.600
166.0, -29339.23504820288, -10284.819934942716, -36287.923012724284, -31761.225373891044, -17123.62672372183, -24909.58868379458, -24590.137552039334, -16554.998344778818, -28563.40599815917, -31870.50305253304, -35552.12593700003, -10805.034435395532, -35072.12222482231, -25558.839804987885, -35747.01079690585, -31900.342631380874, -0.048, 0.978, 0.276, 192.0, 0.0, 0.0, 0.0, 0.0, 0.0, 0.0, 0.0, 0.0, 0.0, 1.741627786600853E9, 0.0, 2025-03-10 12:29:46.600
168.0, -29317.50915259232, -10281.645987230062, -36284.503195822625, -31763.214679147564, -17118.642284708298, -24897.74225923327, -24580.59335715692, -16536.55815560319, -28555.22525968853, -31871.553584522437, -35528.54484659968, -10796.831345180433, -35021.942558520146, -25544.266467603025, -35670.67958959098, -31880.002543926545, -0.056, 0.976, 0.27, 192.0, 127.0, 32.0, 15.0, 64.0, 4.0, 56.0, 0.0, 0.0, 0.0, 1.741627786600899E9, 0.0, 2025-03-10 12:29:46.600
170.0, -29331.18842019897, -10279.187295339978, -36279.02701843107, -31756.3973970887, -17110.461546237653, -24903.26314011373, -24542.70715030517, -16551.824397066164, -28555.538184110905, -31866.569145508904, -35542.38057641752, -10799.37944404834, -35053.36911122431, -25547.5298222935, -35719.428744248005, -31886.21632888512, -0.056, 0.976, 0.27, 192.0, 0.0, 0.0, 0.0, 0.0, 0.0, 0.0, 0.0, 0.0, 0.0, 1.741627786600957E9, 0.0, 2025-03-10 12:29:46.600
172.0, -29316.436268858466, -10270.157190580034, -36285.821948745484, -31766.209812904577, -17108.874572381326, -24909.052241927653, -24578.514644922572, -16555.84771106812, -28549.927896252622, -31864.624543741294, -35528.96952974433, -10791.243409066607, -35014.49942761653, -25538.276200089003, -35674.188813470464, -31890.105532420344, -0.056, 0.976, 0.27, 192.0, 0.0, 0.0, 0.0, 0.0, 0.0, 0.0, 0.0, 0.0, 0.0, 1.741627786601007E9, 0.0, 2025-03-10 12:29:46.601
174.0, -29349.896830308062, -10289.402042556054, -36293.13096918237, -31763.9969902035, -17118.82109866394, -24906.235922126285, -24575.67597337675, -16540.626173094057, -28569.776245328936, -31876.20274736914, -35560.97722780433, -10811.38233082084, -35063.56150669593, -25556.805796242454, -35719.987537859386, -31898.286270890985, -0.056, 0.976, 0.27, 192.0, 0.0, 0.0, 0.0, 0.0, 0.0, 0.0, 0.0, 0.0, 0.0, 1.741627786601056E9, 0.0, 2025-03-10 12:29:46.601
176.0, -29306.6685565315, -10275.812181927227, -36281.68687602125, -31765.248687893, -17105.611217690854, -24911.175657650907, -24586.985956071134, -16565.257795483805, -28552.654809076168, -31867.373808309298, -35535.96562575884, -10797.61365623637, -35024.78123006597, -25539.840822200877, -35684.78354034228, -31884.808168984437, -0.056, 0.976, 0.27, 192.0, 0.0, 0.0, 0.0, 0.0, 0.0, 0.0, 0.0, 0.0, 0.0, 1.741627786676072E9, 0.0, 2025-03-10 12:29:46.676
178.0, -29345.13590873908, -10294.073557147212, -36295.14262618335, -31765.718074526558, -17119.826927164428, -24896.222340610308, -24587.701211893705, -16538.23453643734, -28560.455567891073, -31874.459311301627, -35552.26004746676, -10810.935295931733, -35053.27970424649, -25553.520089807524, -35703.8272266182, -31899.06858194692, -0.064, 0.98, 0.27, 192.0, 127.0, 0.0, 15.0, 80.0, 4.0, 56.0, 0.0, 0.0, 0.0, 1.74162778667617E9, 0.0, 2025-03-10 12:29:46.676
180.0, -29309.149600166038, -10279.567274995718, -36296.64019306185, -31776.603374076294, -17111.020339849038, -24911.48858207328, -24587.120066537867, -16590.783487651766, -28559.159166712663, -31871.240660100066, -35547.9908642758, -10808.364845319373, -35032.67139585869, -25536.3763018103, -35696.80877885923, -31892.050134187954, -0.064, 0.98, 0.27, 192.0, 0.0, 0.0, 0.0, 0.0, 0.0, 0.0, 0.0, 0.0, 0.0, 1.741627786676221E9, 0.0, 2025-03-10 12:29:46.676
182.0, -29344.621818616608, -10293.760632724838, -36299.70238205223, -31765.896888482202, -17120.698645198187, -24893.428372553393, -24583.521435680563, -16532.22191717886, -28567.094035994298, -31879.06377065942, -35560.50784117077, -10818.020798924064, -35056.63246591479, -25558.34806660987, -35707.71643015342, -31904.254186660553, -0.064, 0.98, 0.27, 192.0, 0.0, 0.0, 0.0, 0.0, 0.0, 0.0, 0.0, 0.0, 0.0, 1.74162778667627E9, 0.0, 2025-03-10 12:29:46.676
184.0, -29311.60829205612, -10284.395251798065, -36290.5158150811, -31774.18938567512, -17109.20984854816, -24896.535265032682, -24590.338717739432, -16516.64275129351, -28563.920088281644, -31876.69448574716, -35553.33293120062, -10811.784662221035, -35042.416756441206, -25556.001133442063, -35713.34906975616, -31896.40872435674, -0.064, 0.98, 0.27, 192.0, 0.0, 0.0, 0.0, 0.0, 0.0, 0.0, 0.0, 0.0, 0.0, 1.741627786676319E9, 0.0, 2025-03-10 12:29:46.676
186.0, -29340.82202205921, -10289.60320825615, -36289.80055925853, -31766.343923371307, -17114.57426721743, -24903.285491858183, -24586.67303164876, -16559.33458320315, -28562.310762680863, -31877.432093314183, -35549.93546604341, -10810.33179883144, -35046.685939632174, -25554.570621796924, -35686.59403164316, -31891.759561510036, -0.064, 0.98, 0.27, 192.0, 0.0, 0.0, 0.0, 0.0, 0.0, 0.0, 0.0, 0.0, 0.0, 1.741627786676376E9, 0.0, 2025-03-10 12:29:46.676
188.0, -29308.590806554654, -10282.160077352533, -36290.80638775902, -31777.117464198767, -17108.919275870237, -24914.77428850821, -24587.72356363816, -16558.37345819157, -28559.963829513053, -31875.1745671242, -35545.17454447443, -10808.677769741747, -35048.004692555034, -25554.81649098593, -35714.86898837912, -31910.087991963388, -0.06, 0.982, 0.26, 192.0, 127.0, 16.0, 15.0, 88.0, 4.0, 16.0, 0.0, 0.0, 0.0, 1.741627786676425E9, 0.0, 2025-03-10 12:29:46.676
190.0, -29345.270019205815, -10294.386481569587, -36299.43416111877, -31770.43429260663, -17119.71516844215, -24902.279663357695, -24575.43010418774, -16559.93808030344, -28566.535242382914, -31880.136654393275, -35549.08609975411, -10814.645685511314, -35050.686901889676, -25549.832051972397, -35677.02748501629, -31901.75079128156, -0.06, 0.982, 0.26, 192.0, 0.0, 0.0, 0.0, 0.0, 0.0, 0.0, 0.0, 0.0, 0.0, 1.741627786676474E9, 0.0, 2025-03-10 12:29:46.676
192.0, -29308.27788213228, -10274.336966793177, -36290.76168427011, -31773.943516486113, -17111.24385729359, -24903.486657558282, -24580.660412390283, -16571.024545553275, -28560.992009758, -31874.883994446278, -35550.807184077166, -10812.008179665587, -35057.235963015075, -25547.842746715876, -35726.44719200697, -31905.103552949855, -0.06, 0.982, 0.26, 192.0, 0.0, 0.0, 0.0, 0.0, 0.0, 0.0, 0.0, 0.0, 0.0, 1.741627786725688E9, 0.0, 2025-03-10 12:29:46.725
194.0, -29340.24087670337, -10292.08425189069, -36297.4672076067, -31770.233126906533, -17125.571325489444, -24912.002672195755, -24590.405772972797, -16552.204376721904, -28564.23301270402, -31885.00933468453, -35548.929637542926, -10815.0033134226, -35054.03966355797, -25551.77665374001, -35684.738836853365, -31911.518503608528, -0.06, 0.982, 0.26, 192.0, 0.0, 0.0, 0.0, 0.0, 0.0, 0.0, 0.0, 0.0, 0.0, 1.741627786725747E9, 0.0, 2025-03-10 12:29:46.725
196.0, -29302.265262873803, -10274.336966793177, -36282.670352777284, -31762.253554135987, -17108.919275870237, -24894.233035353787, -24573.57490939795, -16534.770016046765, -28558.242745189997, -31871.173604866697, -35545.53217238571, -10803.223944094652, -35058.286495004475, -25536.219839599114, -35729.7328984419, -31892.720686521614, -0.06, 0.982, 0.26, 192.0, 0.0, 0.0, 0.0, 0.0, 0.0, 0.0, 0.0, 0.0, 0.0, 1.741627786725796E9, 0.0, 2025-03-10 12:29:46.725
198.0, -29333.20007719995, -10288.642083244573, -36303.032791976075, -31772.62476356325, -17135.070816882948, -24909.096945416564, -24616.28909305204, -16579.69702240193, -28556.879288778222, -31877.87912820329, -35538.64783509348, -10807.828403452446, -35048.563486166415, -25548.91563044973, -35677.832147816676, -31902.846026759868, -0.05, 0.986, 0.262, 192.0, 127.0, 56.0, 15.0, 104.0, 4.0, 24.0, 0.0, 0.0, 0.0, 1.741627786725857E9, 0.0, 2025-03-10 12:29:46.725
200.0, -29312.077678689682, -10280.573103496206, -36287.18540515726, -31765.539260570917, -17109.723938670628, -24895.149456876454, -24564.455397660186, -16527.9527339879, -28564.88121329322, -31877.63325901428, -35554.36111144556, -10812.544621532516, -35076.21259405763, -25554.794139241476, -35744.50740152686, -31906.757582039547, -0.05, 0.986, 0.262, 192.0, 0.0, 0.0, 0.0, 0.0, 0.0, 0.0, 0.0, 0.0, 0.0, 1.74162778672591E9, 0.0, 2025-03-10 12:29:46.725
202.0, -29334.675292334, -10292.151307124055, -36300.10471345243, -31774.47995835304, -17117.85997365236, -24909.722794261314, -24596.172523042267, -16573.594996165633, -28560.589678357803, -31874.59342176836, -35542.35822467306, -10802.218115594163, -35041.433279685174, -25541.852479201854, -35667.975028511886, -31898.956823224646, -0.05, 0.986, 0.262, 192.0, 0.0, 0.0, 0.0, 0.0, 0.0, 0.0, 0.0, 0.0, 0.0, 1.741627786725956E9, 0.0, 2025-03-10 12:29:46.725
204.0, -29320.99602472735, -10291.03371990129, -36295.3661436279, -31777.56449908787, -17117.077662596424, -24917.009462953745, -24590.338717739432, -16547.398751664015, -28572.70432385258, -31883.668230017214, -35568.55446917468, -10817.32789484595, -35084.4827395061, -25562.10315967836, -35745.580285260716, -31914.714803065635, -0.05, 0.986, 0.262, 192.0, 0.0, 0.0, 0.0, 0.0, 0.0, 0.0, 0.0, 0.0, 0.0, 1.741627786726002E9, 0.0, 2025-03-10 12:29:46.726
206.0, -29326.449850374443, -10293.60417051365, -36300.70821055272, -31779.7996735334, -17124.18551733321, -24916.517724575726, -24607.68367143675, -16558.57462389167, -28563.338942925806, -31884.763465495525, -35548.572009631636, -10811.337627331928, -35045.47894543158, -25549.496775805568, -35678.30153445024, -31910.669137319226, -0.05, 0.986, 0.262, 192.0, 0.0, 0.0, 0.0, 0.0, 0.0, 0.0, 0.0, 0.0, 0.0, 1.741627786786096E9, 0.0, 2025-03-10 12:29:46.786
208.0, -29326.04751897425, -10296.37578682611, -36303.301012909535, -31792.204891706097, -17127.761796446062, -24950.581783125614, -24605.716717924683, -16614.968075152407, -28569.910355795666, -31885.41166608473, -35567.50393718528, -10819.89834545831, -35085.75678894005, -25562.86311898984, -35755.37034933214, -31925.398936915273, -0.044, 0.978, 0.262, 192.0, 127.0, 80.0, 15.0, 72.0, 4.0, 24.0, 0.0, 0.0, 0.0, 1.741627786786193E9, 0.0, 2025-03-10 12:29:46.786
210.0, -29326.85218177464, -10293.067728646723, -36297.80248377353, -31776.782188031935, -17117.14471782979, -24890.16501786292, -24585.510740937083, -16538.480405626346, -28569.8433005623, -31889.88201497579, -35555.478698668325, -10815.875031456355, -35049.92694257819, -25556.358761353345, -35682.302496707736, -31929.757527084057, -0.044, 0.978, 0.262, 192.0, 0.0, 0.0, 0.0, 0.0, 0.0, 0.0, 0.0, 0.0, 0.0, 1.741627786786247E9, 0.0, 2025-03-10 12:29:46.786
212.0, -29329.444984131456, -10286.920998921514, -36290.80638775902, -31770.747217029002, -17118.82109866394, -24897.585797022082, -24578.425237944753, -16532.04310322322, -28568.345733683796, -31878.326163092395, -35568.80033836369, -10809.728301731146, -35087.36611454083, -25554.81649098593, -35747.56959051724, -31904.142427938277, -0.044, 0.978, 0.262, 192.0, 0.0, 0.0, 0.0, 0.0, 0.0, 0.0, 0.0, 0.0, 0.0, 1.741627786786297E9, 0.0, 2025-03-10 12:29:46.786
214.0, -29317.19622816995, -10283.277664575298, -36294.919108738795, -31777.16216768768, -17121.43625276521, -24911.26506462873, -24593.825589874457, -16565.861292584097, -28556.36519865575, -31875.73336073558, -35541.642968850494, -10795.825516679944, -35041.70150061864, -25539.170269867216, -35684.44826417545, -31908.299852406963, -0.044, 0.978, 0.262, 192.0, 0.0, 0.0, 0.0, 0.0, 0.0, 0.0, 0.0, 0.0, 0.0, 1.741627786786352E9, 0.0, 2025-03-10 12:29:46.786
216.0, -29326.785126541276, -10281.46717327442, -36290.24759414764, -31770.836624006824, -17113.188459061203, -24903.68782325838, -24564.47774940464, -16551.89145229953, -28564.098902237285, -31877.11916889181, -35556.05984402417, -10802.218115594163, -35084.862719161836, -25563.466616090136, -35737.22073283443, -31911.56320709744, -0.044, 0.978, 0.262, 192.0, 0.0, 0.0, 0.0, 0.0, 0.0, 0.0, 0.0, 0.0, 0.0, 1.741627786786403E9, 0.0, 2025-03-10 12:29:46.786
218.0, -29307.048536187238, -10276.37097553861, -36281.32924810997, -31769.09318793931, -17103.2866362675, -24900.245654612263, -24579.498121678607, -16564.877815828066, -28558.55566961237, -31874.951049679647, -35539.02781474922, -10793.99267363461, -35040.4721546736, -25546.903973448752, -35684.40356068654, -31904.857683760845, -0.05, 0.974, 0.26, 192.0, 127.0, 56.0, 15.0, 56.0, 4.0, 16.0, 0.0, 0.0, 0.0, 1.741627786786449E9, 0.0, 2025-03-10 12:29:46.786
220.0, -29336.306969679234, -10293.447708302463, -36293.578004071474, -31771.19425191811, -17121.212735320656, -24914.34960536356, -24604.86735163538, -16581.61927242509, -28569.08334125082, -31877.387389825275, -35559.546716159195, -10804.766214462068, -35080.41472201523, -25555.68820901969, -35733.71150895495, -31917.240550189086, -0.05, 0.974, 0.26, 192.0, 0.0, 0.0, 0.0, 0.0, 0.0, 0.0, 0.0, 0.0, 0.0, 1.741627786786507E9, 0.0, 2025-03-10 12:29:46.786
222.0, -29313.03880370126, -10286.473964032408, -36292.32630638198, -31778.659734566183, -17114.507211984066, -24913.276721629707, -24583.47673219165, -16541.252021938806, -28562.266059191952, -31878.817901470415, -35547.722643342335, -10793.9479701457, -35048.585837910876, -25542.38892106878, -35691.71258112342, -31903.74009653808, -0.05, 0.974, 0.26, 192.0, 0.0, 0.0, 0.0, 0.0, 0.0, 0.0, 0.0, 0.0, 0.0, 1.741627786852552E9, 0.0, 2025-03-10 12:29:46.852
224.0, -29342.65486510454, -10295.235847858889, -36304.083323965475, -31782.995972990513, -17133.282677326522, -24923.625579312513, -24623.44165127774, -16575.5619496777, -28569.8433005623, -31885.903404462744, -35569.046207552696, -10809.884763942333, -35094.228100088614, -25556.269354375527, -35738.517134012836, -31925.33188168191, -0.05, 0.974, 0.26, 192.0, 0.0, 0.0, 0.0, 0.0, 0.0, 0.0, 0.0, 0.0, 0.0, 1.741627786852603E9, 0.0, 2025-03-10 12:29:46.852
226.0, -29312.770582767796, -10291.234885601389, -36298.1154081959, -31789.47797888255, -17120.318665542443, -24921.882143245002, -24586.449514204207, -16581.306348002716, -28568.479844150526, -31885.59048004037, -35559.41260569246, -10812.365807576873, -35064.54498345196, -25551.687246762187, -35716.50066572436, -31923.297872936473, -0.05, 0.974, 0.26, 192.0, 0.0, 0.0, 0.0, 0.0, 0.0, 0.0, 0.0, 0.0, 0.0, 1.741627786852649E9, 0.0, 2025-03-10 12:29:46.852
228.0, -29351.304990208744, -10310.211516643943, -36305.55853909952, -31783.554766601894, -17132.05333138148, -24908.716965760825, -24597.91595910978, -16553.56783313368, -28584.84132109181, -31898.442733102172, -35575.617620422556, -10828.749636262613, -35095.16687335573, -25564.405389357256, -35733.622101977126, -31932.775012585524, -0.048, 0.986, 0.258, 192.0, 127.0, 64.0, 15.0, 104.0, 4.0, 8.0, 0.0, 0.0, 0.0, 1.741627786852709E9, 0.0, 2025-03-10 12:29:46.852
230.0, -29301.862931473606, -10280.014309884824, -36281.68687602125, -31768.154414672186, -17107.824040391926, -24896.043526654666, -24557.52635687904, -16525.248172908803, -28570.536204640415, -31881.678924760694, -35553.601152134084, -10806.867278440866, -35066.08725381938, -25550.122624650317, -35708.43168597599, -31902.17547442621, -0.048, 0.986, 0.258, 192.0, 0.0, 0.0, 0.0, 0.0, 0.0, 0.0, 0.0, 0.0, 0.0, 1.741627786852763E9, 0.0, 2025-03-10 12:29:46.852
232.0, -29339.212696458424, -10291.32429257921, -36297.780132029075, -31768.221469905555, -17133.30502907098, -24920.451631599863, -24601.671052178273, -16567.18004550696, -28568.681009850625, -31874.906346190735, -35553.869373067544, -10799.75942370408, -35078.96185862563, -25545.8310897149, -35703.67076440701, -31906.154084939255, -0.048, 0.986, 0.258, 192.0, 0.0, 0.0, 0.0, 0.0, 0.0, 0.0, 0.0, 0.0, 0.0, 1.74162778685281E9, 0.0, 2025-03-10 12:29:46.852
234.0, -29299.337184350155, -10272.347661536654, -36286.403094101326, -31768.62380130575, -17110.930932871215, -24907.711137260336, -24571.09386576341, -16545.074170240663, -28571.117349996253, -31877.297982847453, -35556.685692868916, -10800.27351382655, -35074.737378923586, -25549.809700227943, -35723.98850011689, -31912.211407686642, -0.048, 0.986, 0.258, 192.0, 0.0, 0.0, 0.0, 0.0, 0.0, 0.0, 0.0, 0.0, 0.0, 1.741627786852862E9, 0.0, 2025-03-10 12:29:46.852
236.0, -29336.374024912602, -10291.480754790397, -36294.58383257197, -31765.85218499329, -17123.894944655294, -24915.511896075237, -24581.599185657407, -16586.447249227436, -28564.970620271044, -31875.889822946767, -35550.51661139925, -10802.016949894065, -35072.50220447805, -25544.24411585857, -35692.40548520154, -31902.75661978205, -0.048, 0.986, 0.258, 192.0, 0.0, 0.0, 0.0, 0.0, 0.0, 0.0, 0.0, 0.0, 0.0, 1.741627786906765E9, 0.0, 2025-03-10 12:29:46.906
238.0, -29302.019393684794, -10274.493429004364, -36289.398227858335, -31774.412903119675, -17114.95424687317, -24927.000692725265, -24598.87708412136, -16568.588205407646, -28565.060027248866, -31874.1240351348, -35556.37276844654, -10805.70498772919, -35075.4302830017, -25550.77082523952, -35732.2362938209, -31921.129753724308, -0.046, 0.986, 0.26, 192.0, 127.0, 72.0, 15.0, 104.0, 4.0, 16.0, 0.0, 0.0, 0.0, 1.741627786906825E9, 0.0, 2025-03-10 12:29:46.906
240.0, -29335.882286534583, -10283.679995975495, -36296.77430352859, -31765.136929170723, -17123.82788942193, -24909.611035539037, -24586.002479315102, -16542.682533583946, -28568.61395461726, -31877.83442471438, -35553.42233817844, -10801.167583604763, -35071.94341086667, -25546.591049026378, -35691.6231741456, -31914.379526898807, -0.046, 0.986, 0.26, 192.0, 0.0, 0.0, 0.0, 0.0, 0.0, 0.0, 0.0, 0.0, 0.0, 1.74162778690688E9, 0.0, 2025-03-10 12:29:46.906
242.0, -29304.27691987478, -10275.275740060299, -36296.28256515057, -31776.223394420555, -17114.596618961885, -24913.254369885253, -24599.10060156591, -16556.71942910188, -28564.680047593123, -31870.16777636621, -35553.71291085636, -10794.931446901734, -35080.526480737506, -25545.33935133688, -35730.9845961314, -31914.04425073198, -0.046, 0.986, 0.26, 192.0, 0.0, 0.0, 0.0, 0.0, 0.0, 0.0, 0.0, 0.0, 0.0, 1.741627786906932E9, 0.0, 2025-03-10 12:29:46.906
244.0, -29341.47022264841, -10298.700368249461, -36312.75580081413, -31782.884214268237, -17134.020284893548, -24932.678035816913, -24608.06365109249, -16585.396717238036, -28573.486634908517, -31889.010296942033, -35554.87520156804, -10805.123842373354, -35076.61492545783, -25547.48511880459, -35690.52793866729, -31933.043233518987, -0.046, 0.986, 0.26, 192.0, 0.0, 0.0, 0.0, 0.0, 0.0, 0.0, 0.0, 0.0, 0.0, 1.741627786906979E9, 0.0, 2025-03-10 12:29:46.906
246.0, -29310.04366994425, -10287.904475677547, -36296.729600039675, -31780.313763655875, -17118.86580215285, -24911.89091347348, -24600.9557963557, -16558.820493080675, -28580.41567568966, -31890.41845684272, -35566.542812173706, -10816.23265936764, -35093.84812043287, -25565.187700413193, -35747.12255562813, -31924.32605318142, -0.046, 0.986, 0.26, 192.0, 0.0, 0.0, 0.0, 0.0, 0.0, 0.0, 0.0, 0.0, 0.0, 1.741627786907028E9, 0.0, 2025-03-10 12:29:46.907
248.0, -29333.892981278063, -10301.404929328553, -36304.66446932131, -31785.14174045822, -17130.935744158716, -24924.87727700201, -24605.82847664696, -16570.80102810872, -28569.865652306755, -31889.323221364408, -35551.924771299935, -10812.678731999247, -35067.89774512026, -25554.61532528583, -35690.05855203373, -31929.757527084057, -0.048, 0.982, 0.256, 192.0, 127.0, 64.0, 15.0, 88.0, 4.0, 0.0, 0.0, 0.0, 0.0, 1.741627786907074E9, 0.0, 2025-03-10 12:29:46.907
250.0, -29310.75892576682, -10280.953083151948, -36294.56148082751, -31774.591717075316, -17118.68698819721, -24917.12122167602, -24582.87323509136, -16568.722315874376, -28577.241727977005, -31890.463160331627, -35568.93444883042, -10818.534889046538, -35098.25141409057, -25562.170214911726, -35745.31206432725, -31927.052966004965, -0.048, 0.982, 0.256, 192.0, 0.0, 0.0, 0.0, 0.0, 0.0, 0.0, 0.0, 0.0, 0.0, 1.741627786907134E9, 0.0, 2025-03-10 12:29:46.907
252.0, -29327.85801027513, -10281.80244944125, -36296.6178413174, -31768.71320828357, -17112.584961960907, -24896.31174758813, -24564.991839527112, -16531.17138518946, -28562.154300469676, -31880.248413115554, -35543.60992236256, -10793.746804445602, -35061.63925667277, -25538.522069278013, -35669.87492679059, -31913.41840188723, -0.048, 0.982, 0.256, 192.0, 0.0, 0.0, 0.0, 0.0, 0.0, 0.0, 0.0, 0.0, 0.0, 1.74162778693465E9, 0.0, 2025-03-10 12:29:46.934
254.0, -29322.605350328133, -10283.635292486584, -36297.780132029075, -31777.13981594322, -17114.73072942862, -24904.403079080952, -24593.758534641092, -16551.93615578844, -28574.13483549772, -31886.55160505195, -35571.773120376245, -10805.682635984736, -35105.1357513828, -25554.503566563555, -35737.06427062324, -31912.59138734238, -0.048, 0.982, 0.256, 192.0, 0.0, 0.0, 0.0, 0.0, 0.0, 0.0, 0.0, 0.0, 0.0, 1.741627786934703E9, 0.0, 2025-03-10 12:29:46.934
0.0, -29332.261303932824, -10303.014254929336, -36308.53132111208, -31793.81421730688, -17115.40128176228, -24929.325274148618, -24574.96071755418, -16575.18197002196, -28575.14066399821, -31897.727477279604, -35559.90434407048, -10815.696217500714, -35068.65770443174, -25555.5317468085, -35675.19464197095, -31929.399899172775, -0.048, 0.982, 0.256, 192.0, 0.0, 0.0, 0.0, 0.0, 0.0, 0.0, 0.0, 0.0, 0.0, 1.741627786984693E9, 0.0, 2025-03-10 12:29:46.984
2.0, -29333.46829813341, -10310.479737577407, -36309.33598391247, -31790.461455638586, -17123.671427210742, -24917.590608309583, -24600.53111321105, -16569.817551352688, -28590.74218162801, -31901.571977325915, -35582.27844027024, -10834.605793309904, -35109.94137644069, -25569.076903948415, -35743.99331140439, -31933.55732364146, -0.048, 0.982, 0.26, 192.0, 127.0, 64.0, 15.0, 88.0, 4.0, 16.0, 0.0, 0.0, 0.0, 1.74162778698475E9, 0.0, 2025-03-10 12:29:46.984
4.0, -29326.04751897425, -10293.89474319157, -36303.882158265376, -31780.44787412261, -17119.178726575225, -24901.564407535127, -24582.80617985799, -16551.734990088342, -28582.628498390735, -31891.468988832115, -35563.43591969441, -10821.194746636718, -35068.85887013184, -25545.316999592425, -35676.33458093817, -31928.706995094657, -0.048, 0.982, 0.26, 192.0, 0.0, 0.0, 0.0, 0.0, 0.0, 0.0, 0.0, 0.0, 0.0, 1.741627786984803E9, 0.0, 2025-03-10 12:29:46.984
6.0, -29332.462469632923, -10286.719833221416, -36305.02209723259, -31778.883252010735, -17124.163165588758, -24912.337948362583, -24592.417429973775, -16590.17999055147, -28575.855919820777, -31873.78875896797, -35575.975248333845, -10802.66515048327, -35107.39327757279, -25541.383092568292, -35745.13325037161, -31925.33188168191, -0.048, 0.982, 0.26, 192.0, 0.0, 0.0, 0.0, 0.0, 0.0, 0.0, 0.0, 0.0, 0.0, 1.741627786984856E9, 0.0, 2025-03-10 12:29:46.984
8.0, -29323.90175150654, -10292.643045502073, -36305.08915246596, -31781.565461345373, -17117.457642252164, -24908.35933784954, -24579.498121678607, -16554.260737211793, -28577.778169843936, -31888.49620681956, -35563.68178888343, -10797.99363589211, -35072.23398354459, -25554.61532528583, -35673.54061288126, -31928.192904972188, -0.048, 0.982, 0.26, 192.0, 0.0, 0.0, 0.0, 0.0, 0.0, 0.0, 0.0, 0.0, 0.0, 1.741627786984905E9, 0.0, 2025-03-10 12:29:46.984
10.0, -29335.301141178745, -10299.66149326104, -36301.71403905321, -31773.742350786015, -17123.604371977373, -24907.889951215977, -24592.976223585156, -16536.75932130329, -28585.355411214285, -31894.821750500414, -35577.450463467896, -10814.109243644387, -35112.400068330775, -25558.72804626561, -35728.63766296359, -31920.74977406857, -0.048, 0.982, 0.26, 192.0, 0.0, 0.0, 0.0, 0.0, 0.0, 0.0, 0.0, 0.0, 0.0, 1.74162778698495E9, 0.0, 2025-03-10 12:29:46.984
12.0, -29301.527655306778, -10284.46230703143, -36294.9638122277, -31775.798711275904, -17107.131136313812, -24911.376823351005, -24571.71971460816, -16556.09358025713, -28570.0444662624, -31891.893671976766, -35548.1920299759, -10809.303618586495, -35065.148480552256, -25543.506508291546, -35672.937115780966, -31917.151143211264, -0.044, 0.982, 0.26, 192.0, 127.0, 80.0, 15.0, 88.0, 4.0, 16.0, 0.0, 0.0, 0.0, 1.741627786984998E9, 0.0, 2025-03-10 12:29:46.984
14.0, -29323.208847428425, -10276.46038251643, -36298.60714657392, -31763.728769270037, -17122.978523132628, -24919.51285833274, -24604.330909768454, -16554.41719942298, -28565.819986560346, -31875.375732824297, -35555.32223645714, -10807.269609841063, -35102.63235600381, -25544.221764114114, -35715.293671523774, -31917.642881589283, -0.044, 0.982, 0.26, 192.0, 0.0, 0.0, 0.0, 0.0, 0.0, 0.0, 0.0, 0.0, 0.0, 1.741627787038753E9, 0.0, 2025-03-10 12:29:47.038
16.0, -29294.37509708108, -10248.475998458385, -36286.89483247934, -31753.871649965247, -17106.34882525788, -24881.291375314162, -24568.90339480679, -16530.32201890016, -28547.580963084816, -31847.324293532885, -35533.37282340203, -10776.647719937291, -35067.249544531056, -25516.215028311617, -35687.15282525454, -31903.74009653808, -0.044, 0.982, 0.26, 192.0, 0.0, 0.0, 0.0, 0.0, 0.0, 0.0, 0.0, 0.0, 0.0, 1.741627787038814E9, 0.0, 2025-03-10 12:29:47.038
18.0, -29346.588772128674, -10288.351510566654, -36304.79857978804, -31774.27879265294, -17124.05140686648, -24912.807334996145, -24573.172577997757, -16568.6105571521, -28567.36225692776, -31855.415625025707, -35558.2950184697, -10782.593283962404, -35100.732457725106, -25528.62024648431, -35696.719371881416, -31909.32803265191, -0.044, 0.982, 0.26, 192.0, 0.0, 0.0, 0.0, 0.0, 0.0, 0.0, 0.0, 0.0, 0.0, 1.741627787038862E9, 0.0, 2025-03-10 12:29:47.038
20.0, -29318.313815392714, -10289.916132678525, -36303.569233843, -31783.73358055754, -17122.240915565602, -24923.625579312513, -24616.9596453857, -16588.458906228414, -28582.047353034897, -31888.339744608373, -35562.38538770502, -10802.03930163852, -35086.47204476262, -25548.20037462716, -35694.48419743588, -31923.543742125483, -0.044, 0.982, 0.26, 192.0, 0.0, 0.0, 0.0, 0.0, 0.0, 0.0, 0.0, 0.0, 0.0, 1.741627787038908E9, 0.0, 2025-03-10 12:29:47.038
22.0, -29348.645132618563, -10314.815976001737, -36308.73248681217, -31776.491615354018, -17126.66656096775, -24920.719852533326, -24574.80425534299, -16553.36666743358, -28587.568233915357, -31906.310547150442, -35569.64970465299, -10822.37938909285, -35109.270824107036, -25559.95739221065, -35714.75722965685, -31925.68950959319, -0.044, 0.98, 0.264, 192.0, 127.0, 80.0, 15.0, 80.0, 4.0, 32.0, 0.0, 0.0, 0.0, 1.741627787038962E9, 0.0, 2025-03-10 12:29:47.038
24.0, -29309.70839377742, -10290.31846407872, -36298.9200709963, -31770.501347839996, -17106.05825257996, -24903.129029647, -24574.312516964976, -16543.621306851066, -28579.745123356002, -31899.940299980677, -35558.45148068088, -10816.9032117013, -35087.67903896321, -25560.471482333123, -35704.65424116304, -31917.88875077829, -0.044, 0.98, 0.264, 192.0, 0.0, 0.0, 0.0, 0.0, 0.0, 0.0, 0.0, 0.0, 0.0, 1.741627787039014E9, 0.0, 2025-03-10 12:29:47.039
26.0, -29341.738443581875, -10289.580856511695, -36303.725696054185, -31760.778339001936, -17115.96007537366, -24884.040639882165, -24566.131778494335, -16535.32880965815, -28572.681972108123, -31882.461235816627, -35556.97626554683, -10806.397891807306, -35099.2348908466, -25547.19454612667, -35689.16448225552, -31906.154084939255, -0.044, 0.98, 0.264, 192.0, 0.0, 0.0, 0.0, 0.0, 0.0, 0.0, 0.0, 0.0, 0.0, 1.741627787039064E9, 0.0, 2025-03-10 12:29:47.039
28.0, -29314.69283279095, -10279.500219762353, -36306.944347255754, -31776.96100198758, -17117.927028885726, -24901.16207613493, -24598.653566676807, -16546.772902819266, -28569.642134862203, -31869.921907177202, -35554.49522191229, -10798.03833938102, -35098.98902165759, -25539.729063478597, -35708.54344469827, -31910.490323363585, -0.044, 0.98, 0.264, 192.0, 0.0, 0.0, 0.0, 0.0, 0.0, 0.0, 0.0, 0.0, 0.0, 1.741627787039123E9, 0.0, 2025-03-10 12:29:47.039
30.0, -29358.30108622326, -10301.449632817465, -36322.70232709674, -31783.71122881308, -17136.411921550265, -24921.233942655796, -24604.62148244637, -16593.6668626865, -28585.690687381113, -31886.70806726314, -35569.56029767517, -10811.494089543115, -35110.164893885245, -25549.72029325012, -35695.13239802509, -31933.333806196908, -0.044, 0.98, 0.264, 192.0, 0.0, 0.0, 0.0, 0.0, 0.0, 0.0, 0.0, 0.0, 0.0, 1.741627787100894E9, 0.0, 2025-03-10 12:29:47.100
32.0, -29312.770582767796, -10280.79662094076, -36305.75970479962, -31776.312801398373, -17114.753081173072, -24912.583817551593, -24570.803293085493, -16532.356027645594, -28579.007515788977, -31880.427227071195, -35563.48062318333, -10806.219077851663, -35109.18141712921, -25546.747511237565, -35722.93796812749, -31930.47278290663, -0.044, 0.978, 0.268, 192.0, 127.0, 80.0, 15.0, 72.0, 4.0, 48.0, 0.0, 0.0, 0.0, 1.741627787100948E9, 0.0, 2025-03-10 12:29:47.100
34.0, -29343.392472671567, -10301.56139153974, -36310.230053690684, -31772.110673440777, -17125.951305145183, -24920.40692811095, -24598.966491099178, -16565.660126884, -28575.051257020386, -31883.467064317116, -35552.26004746676, -10805.414415051273, -35097.37969605681, -25546.05460715945, -35680.760226340324, -31933.244399219086, -0.044, 0.978, 0.268, 192.0, 0.0, 0.0, 0.0, 0.0, 0.0, 0.0, 0.0, 0.0, 0.0, 1.741627787100997E9, 0.0, 2025-03-10 12:29:47.100
36.0, -29314.29050139076, -10290.497278034363, -36306.318498411005, -31775.19521417561, -17115.088357339904, -24922.820916512122, -24589.042316561023, -16565.90599607301, -28581.8461873348, -31890.9772504541, -35563.21240224986, -10814.198650622207, -35111.37188808583, -25553.00599968505, -35719.182875059, -31922.292044435984, -0.044, 0.978, 0.268, 192.0, 0.0, 0.0, 0.0, 0.0, 0.0, 0.0, 0.0, 0.0, 0.0, 1.741627787101059E9, 0.0, 2025-03-10 12:29:47.101
38.0, -29345.47118490591, -10299.683845005495, -36314.78980955957, -31767.886193738723, -17127.605334234875, -24903.754878491745, -24588.483522949642, -16543.733065573342, -28582.784960601923, -31892.63127954379, -35559.054977781176, -10814.66803725577, -35096.01623964503, -25548.71446474963, -35668.98085701238, -31927.79057357199, -0.044, 0.978, 0.268, 192.0, 0.0, 0.0, 0.0, 0.0, 0.0, 0.0, 0.0, 0.0, 0.0, 1.741627787101113E9, 0.0, 2025-03-10 12:29:47.101
40.0, -29316.3692136251, -10279.41081278453, -36301.915204753306, -31767.66267629417, -17116.854145151872, -24906.079459915098, -24594.78671488604, -16540.804987049698, -28583.030829790932, -31883.26589861702, -35567.77215811874, -10811.136461631831, -35119.127943411826, -25544.065301902927, -35733.040956621284, -31915.74298331058, -0.044, 0.978, 0.268, 192.0, 0.0, 0.0, 0.0, 0.0, 0.0, 0.0, 0.0, 0.0, 0.0, 1.74162778710116E9, 0.0, 2025-03-10 12:29:47.101
42.0, -29338.117460980116, -10288.552676266752, -36313.0687252365, -31780.04554272241, -17123.470261510643, -24924.430242112907, -24585.91307233728, -16582.736859647855, -28578.627536133237, -31880.11430264882, -35551.74595734429, -10797.121917858352, -35085.71208545114, -25551.86606071783, -35664.130528465575, -31924.996605515076, -0.044, 0.982, 0.262, 192.0, 127.0, 80.0, 15.0, 88.0, 4.0, 24.0, 0.0, 0.0, 0.0, 1.741627787101206E9, 0.0, 2025-03-10 12:29:47.101
44.0, -29321.621873572098, -10286.898647177059, -36304.95504199923, -31775.821063020358, -17118.99991261958, -24907.822895982612, -24569.708057607182, -16524.46586185287, -28587.635289148726, -31886.104570162843, -35571.16962327595, -10805.570877262458, -35125.29702488149, -25564.24892714607, -35737.377195045614, -31932.417384674238, -0.044, 0.982, 0.262, 192.0, 0.0, 0.0, 0.0, 0.0, 0.0, 0.0, 0.0, 0.0, 0.0, 1.741627787166043E9, 0.0, 2025-03-10 12:29:47.166
46.0, -29335.725824323395, -10287.993882655368, -36314.58864385947, -31778.682086310637, -17131.606296492373, -24920.205762410853, -24600.620520188873, -16569.41521995249, -28574.067780264355, -31881.857738716335, -35550.53896314371, -10795.400833535294, -35084.147463339265, -25543.081825146895, -35659.6154760856, -31914.714803065635, -0.044, 0.982, 0.262, 192.0, 0.0, 0.0, 0.0, 0.0, 0.0, 0.0, 0.0, 0.0, 0.0, 1.741627787166106E9, 0.0, 2025-03-10 12:29:47.166
48.0, -29329.601446342644, -10285.334025065187, -36313.56046361452, -31777.72096129906, -17131.941572659205, -24907.577026793602, -24614.523305240073, -16552.22672846636, -28583.902547824688, -31883.489416061573, -35577.718684401356, -10810.778833720546, -35134.30477789698, -25556.381113097803, -35754.1410033871, -31936.79832658748, -0.044, 0.982, 0.262, 192.0, 0.0, 0.0, 0.0, 0.0, 0.0, 0.0, 0.0, 0.0, 0.0, 1.741627787166159E9, 0.0, 2025-03-10 12:29:47.166
50.0, -29324.818173029205, -10283.903513420048, -36304.217434432205, -31767.28269663843, -17113.188459061203, -24899.888026700977, -24562.354333681385, -16530.41142587798, -28573.46428316406, -31873.855814201335, -35551.567143388645, -10796.339606802418, -35084.4827395061, -25536.488060532578, -35665.20341219943, -31916.27942517751, -0.044, 0.982, 0.262, 192.0, 0.0, 0.0, 0.0, 0.0, 0.0, 0.0, 0.0, 0.0, 0.0, 1.741627787166212E9, 0.0, 2025-03-10 12:29:47.166
52.0, -29328.550914353244, -10291.570161768219, -36308.93365251227, -31769.160243172675, -17121.883287654317, -24911.44387858437, -24571.250327974598, -16561.547405904224, -28583.18729200212, -31875.21927061311, -35570.92375408694, -10807.694292985714, -35119.01618468955, -25545.495813548067, -35730.62696822012, -31916.190018199686, -0.052000000000000005, 0.98, 0.262, 192.0, 127.0, 48.0, 15.0, 80.0, 4.0, 24.0, 0.0, 0.0, 0.0, 1.741627787166258E9, 0.0, 2025-03-10 12:29:47.166
54.0, -29326.09222246316, -10289.1785251115, -36312.68874558077, -31769.853147250793, -17124.900773155783, -24897.45168655535, -24603.59330220143, -16544.627135351555, -28584.61780364726, -31878.661439259227, -35558.362073703065, -10801.413452793771, -35083.745131939075, -25536.800984954953, -35674.79231057076, -31923.74490782558, -0.052000000000000005, 0.98, 0.262, 192.0, 0.0, 0.0, 0.0, 0.0, 0.0, 0.0, 0.0, 0.0, 0.0, 1.741627787166307E9, 0.0, 2025-03-10 12:29:47.166
56.0, -29338.72095808041, -10290.94431292347, -36310.45357113524, -31775.686952553628, -17128.119424357348, -24924.87727700201, -24591.143380539823, -16572.544464176233, -28587.300012981894, -31877.677962503192, -35578.03160882373, -10805.28030458454, -35119.77614400103, -25546.61340077083, -35745.26736083834, -31926.60593111586, -0.052000000000000005, 0.98, 0.262, 192.0, 0.0, 0.0, 0.0, 0.0, 0.0, 0.0, 0.0, 0.0, 0.0, 1.741627787166353E9, 0.0, 2025-03-10 12:29:47.166
58.0, -29318.447925859444, -10276.84036217217, -36303.63628907636, -31784.247670680008, -17126.331284800923, -24917.63531179849, -24608.77890691506, -16564.788408850243, -28574.537166897913, -31880.8742619603, -35555.32223645714, -10802.70985397218, -35069.90940212124, -25555.554098552955, -35686.146996754054, -31922.873189791822, -0.052000000000000005, 0.98, 0.262, 192.0, 0.0, 0.0, 0.0, 0.0, 0.0, 0.0, 0.0, 0.0, 0.0, 1.741627787219073E9, 0.0, 2025-03-10 12:29:47.219
60.0, -29346.007626772836, -10290.966664667925, -36308.28545192307, -31786.348734658808, -17125.459566767164, -24923.491468845783, -24582.493255435616, -16543.576603362155, -28576.995858788, -31884.137616650776, -35570.90140234249, -10819.048979169009, -35094.98805940009, -25566.72997078061, -35744.55210501577, -31932.93147479671, -0.052000000000000005, 0.98, 0.262, 192.0, 0.0, 0.0, 0.0, 0.0, 0.0, 0.0, 0.0, 0.0, 0.0, 1.741627787219149E9, 0.0, 2025-03-10 12:29:47.219
62.0, -29318.04559445925, -10276.572141238707, -36305.960870499715, -31787.332211414843, -17120.810403920463, -24927.783003781202, -24593.825589874457, -16568.163522262996, -28566.579945871825, -31882.84121547237, -35554.56227714566, -10808.566011019471, -35048.94346582216, -25556.448168331168, -35689.38799970007, -31922.113230480343, -0.052000000000000005, 0.974, 0.262, 192.0, 127.0, 48.0, 15.0, 56.0, 4.0, 24.0, 0.0, 0.0, 0.0, 1.741627787219194E9, 0.0, 2025-03-10 12:29:47.219
64.0, -29348.131042496094, -10293.89474319157, -36314.65569909283, -31784.113560213278, -17128.92408715774, -24932.767442794735, -24582.314441479975, -16560.116894259085, -28573.79955933089, -31880.136654393275, -35572.331913987626, -10814.131595388842, -35078.201899314154, -25564.33833412389, -35735.09731711118, -31926.874152049324, -0.052000000000000005, 0.974, 0.262, 192.0, 0.0, 0.0, 0.0, 0.0, 0.0, 0.0, 0.0, 0.0, 0.0, 1.741627787219249E9, 0.0, 2025-03-10 12:29:47.219
66.0, -29319.923140993495, -10281.064841874224, -36311.52645486909, -31785.655830580694, -17128.186479590713, -24941.75284406577, -24605.1579243133, -16586.5143044608, -28564.32241968184, -31875.21927061311, -35555.54575390169, -10803.536868517027, -35037.40996568322, -25556.403464842257, -35704.78835162978, -31925.197771215175, -0.052000000000000005, 0.974, 0.262, 192.0, 0.0, 0.0, 0.0, 0.0, 0.0, 0.0, 0.0, 0.0, 0.0, 1.741627787219298E9, 0.0, 2025-03-10 12:29:47.219
68.0, -29341.358463926135, -10280.662510474029, -36298.47303610719, -31758.699626767593, -17127.33711330141, -24895.50708478774, -24586.270700248566, -16542.92840277295, -28560.92495452463, -31867.507918776028, -35560.03845453721, -10804.587400506425, -35054.75491938054, -25544.221764114114, -35728.8835321526, -31894.799398755957, -0.052000000000000005, 0.974, 0.262, 192.0, 0.0, 0.0, 0.0, 0.0, 0.0, 0.0, 0.0, 0.0, 0.0, 1.741627787219351E9, 0.0, 2025-03-10 12:29:47.219
70.0, -29310.22248389989, -10273.688766203972, -36297.489559351154, -31770.277830395444, -17120.89981089828, -24906.41473608193, -24586.71773513767, -16531.17138518946, -28555.694646322092, -31869.743093221558, -35542.492335139796, -10804.497993528605, -35022.65781434272, -25537.96327566663, -35703.268433006815, -31889.278517875497, -0.052000000000000005, 0.974, 0.262, 192.0, 0.0, 0.0, 0.0, 0.0, 0.0, 0.0, 0.0, 0.0, 0.0, 1.741627787219405E9, 0.0, 2025-03-10 12:29:47.219
72.0, -29344.018321516316, -10281.936559907981, -36303.25630942063, -31761.583001802326, -17133.148566859792, -24907.197047137863, -24600.419354488775, -16550.304478443202, -28556.722826567035, -31872.604116511837, -35545.37571017453, -10813.170470377263, -35040.49450641805, -25533.29176107547, -35712.92438661151, -31884.338782350875, -0.052000000000000005, 0.974, 0.268, 192.0, 127.0, 48.0, 15.0, 56.0, 4.0, 48.0, 0.0, 0.0, 0.0, 1.741627787219457E9, 0.0, 2025-03-10 12:29:47.219
74.0, -29310.781277511272, -10271.475943502897, -36299.121236696395, -31773.921164741656, -17123.38085453282, -24923.625579312513, -24597.91595910978, -16558.619327380577, -28547.335093895806, -31867.93260192068, -35534.55746585816, -10809.817708708968, -35021.76374456451, -25543.81943271392, -35720.30046228176, -31890.574919053906, -0.052000000000000005, 0.974, 0.268, 192.0, 0.0, 0.0, 0.0, 0.0, 0.0, 0.0, 0.0, 0.0, 0.0, 1.741627787275727E9, 0.0, 2025-03-10 12:29:47.275
76.0, -29347.37108318461, -10284.194086097967, -36303.05514372053, -31764.1981559036, -17135.74136921661, -24916.45066934236, -24606.744898169625, -16537.13930095903, -28549.88319276371, -31872.514709534018, -35536.50206762577, -10809.9518191757, -35035.04068077096, -25546.367531581825, -35710.10806681014, -31894.419419100217, -0.052000000000000005, 0.974, 0.268, 192.0, 0.0, 0.0, 0.0, 0.0, 0.0, 0.0, 0.0, 0.0, 0.0, 1.741627787275785E9, 0.0, 2025-03-10 12:29:47.275
78.0, -29313.999928712838, -10275.163981338022, -36290.62757380338, -31771.283658895933, -17121.458604509666, -24918.730547276802, -24588.9529095832, -16548.114007486583, -28548.385625885207, -31867.820843198402, -35535.7868118032, -10804.877973184344, -35029.78802082396, -25539.706711734143, -35724.43553500599, -31886.1269219073, -0.052000000000000005, 0.974, 0.268, 192.0, 0.0, 0.0, 0.0, 0.0, 0.0, 0.0, 0.0, 0.0, 0.0, 1.741627787275847E9, 0.0, 2025-03-10 12:29:47.275
80.0, -29346.85699306214, -10286.60807449914, -36303.435123376265, -31776.201042676097, -17134.087340126913, -24923.580875823605, -24603.59330220143, -16579.428801468468, -28554.733521310514, -31877.320334591906, -35539.541904871694, -10813.908077944288, -35023.77540156549, -25552.00017118456, -35695.26650849182, -31901.102590692353, -0.052000000000000005, 0.974, 0.268, 192.0, 0.0, 0.0, 0.0, 0.0, 0.0, 0.0, 0.0, 0.0, 0.0, 1.741627787275902E9, 0.0, 2025-03-10 12:29:47.275
82.0, -29307.09323967615, -10262.714059676417, -36295.969640728195, -31779.084417710834, -17120.877459153828, -24919.468154843828, -24594.16086604129, -16562.955565804907, -28552.096015464787, -31873.78875896797, -35540.92771302792, -10814.623333766858, -35028.80454406793, -25555.174118897216, -35740.886418925096, -31918.246378689575, -0.052000000000000005, 0.968, 0.264, 192.0, 127.0, 48.0, 15.0, 32.0, 4.0, 32.0, 0.0, 0.0, 0.0, 1.741627787275952E9, 0.0, 2025-03-10 12:29:47.275
84.0, -29338.430385402487, -10277.488562761375, -36303.3680681429, -31772.37889437424, -17145.44202631021, -24908.35933784954, -24625.140383856346, -16570.733972875354, -28540.897791492676, -31866.323276319898, -35525.37089888703, -10806.822574951957, -35012.19719793763, -25533.895258175762, -35689.90208982254, -31896.31931737892, -0.052000000000000005, 0.968, 0.264, 192.0, 0.0, 0.0, 0.0, 0.0, 0.0, 0.0, 0.0, 0.0, 0.0, 1.741627787276007E9, 0.0, 2025-03-10 12:29:47.276
86.0, -29307.56262630971, -10265.418620755509, -36292.01338195961, -31773.988219975025, -17125.928953400726, -24913.54494256317, -24601.939273111737, -16554.23838546734, -28546.284561906406, -31866.50209027554, -35533.93161701341, -10809.549487775505, -35029.25157895703, -25540.600781512356, -35741.33345381421, -31902.06371570393, -0.052000000000000005, 0.968, 0.264, 192.0, 0.0, 0.0, 0.0, 0.0, 0.0, 0.0, 0.0, 0.0, 0.0, 1.741627787276059E9, 0.0, 2025-03-10 12:29:47.276
88.0, -29341.60433311514, -10282.361243052632, -36302.675164064785, -31775.798711275904, -17133.997933149094, -24919.959893221843, -24596.172523042267, -16552.98668777784, -28542.976503727023, -31870.547756021948, -35522.84515176358, -10808.387197063828, -35010.63257582576, -25531.905952919242, -35683.01775253031, -31908.724535551613, -0.052000000000000005, 0.968, 0.264, 192.0, 0.0, 0.0, 0.0, 0.0, 0.0, 0.0, 0.0, 0.0, 0.0, 1.74162778733469E9, 0.0, 2025-03-10 12:29:47.334
90.0, -29315.385736869066, -10266.737373678372, -36295.09792269444, -31773.585888574828, -17121.81623242095, -24925.972512480323, -24594.071459063467, -16557.658202369, -28539.891962992187, -31861.83057568438, -35536.45736413686, -10810.443557553715, -35029.922131290696, -25537.695054733165, -35745.13325037161, -31893.368887110817, -0.052000000000000005, 0.968, 0.264, 192.0, 0.0, 0.0, 0.0, 0.0, 0.0, 0.0, 0.0, 0.0, 0.0, 1.74162778733479E9, 0.0, 2025-03-10 12:29:47.334
92.0, -29342.744272082364, -10278.919074406514, -36307.70430656723, -31772.356542629786, -17136.076645383437, -24907.822895982612, -24597.714793409683, -16549.186891220437, -28545.010512472454, -31872.335895578373, -35531.33881465659, -10811.203516865196, -35006.09517170134, -25547.68628450469, -35678.949735039445, -31899.20269241365, -0.056, 0.974, 0.266, 192.0, 127.0, 32.0, 15.0, 56.0, 4.0, 40.0, 0.0, 0.0, 0.0, 1.74162778733485E9, 0.0, 2025-03-10 12:29:47.334
94.0, -29324.12526895109, -10274.336966793177, -36297.10957969542, -31773.85410950829, -17126.152470845278, -24915.757765264247, -24593.24444451862, -16557.814664580186, -28548.631495074213, -31867.97730540959, -35545.4427654079, -10816.769101234568, -35037.74524185005, -25552.178985140203, -35748.508363784356, -31899.292099391474, -0.056, 0.974, 0.266, 192.0, 0.0, 0.0, 0.0, 0.0, 0.0, 0.0, 0.0, 0.0, 0.0, 1.741627787334904E9, 0.0, 2025-03-10 12:29:47.334
96.0, -29347.460490162433, -10293.537115280285, -36312.44287639175, -31787.488673626027, -17138.82590995144, -24940.724663820823, -24593.177389285254, -16597.287845288258, -28554.152375954676, -31882.774160239, -35537.64200659299, -10823.608735037891, -35002.45183735512, -25550.435549072692, -35676.44633966045, -31905.818808772423, -0.056, 0.974, 0.266, 192.0, 0.0, 0.0, 0.0, 0.0, 0.0, 0.0, 0.0, 0.0, 0.0, 1.74162778733495E9, 0.0, 2025-03-10 12:29:47.334
98.0, -29336.172859212504, -10283.948216908959, -36299.30005065203, -31770.72486528455, -17129.90756391377, -24908.761669249736, -24605.850828391413, -16525.337579886625, -28565.88704179371, -31888.898538219757, -35562.69831212739, -10833.354095620405, -35040.22628548459, -25559.845633488374, -35751.07881439672, -31903.471875604617, -0.056, 0.974, 0.266, 192.0, 0.0, 0.0, 0.0, 0.0, 0.0, 0.0, 0.0, 0.0, 0.0, 1.741627787334996E9, 0.0, 2025-03-10 12:29:47.334
100.0, -29338.229219702393, -10285.959873909937, -36312.12995196938, -31777.452740365596, -17139.407055307278, -24915.131916419497, -24608.91301738179, -16541.833167294644, -28549.927896252622, -31880.53898579347, -35538.491372882294, -10818.423130324261, -34994.00287795101, -25542.321865835413, -35683.911822308524, -31901.281404647998, -0.056, 0.974, 0.266, 192.0, 0.0, 0.0, 0.0, 0.0, 0.0, 0.0, 0.0, 0.0, 0.0, 1.741627787335048E9, 0.0, 2025-03-10 12:29:47.335
102.0, -29336.70930107943, -10279.500219762353, -36306.43025713328, -31779.1514729442, -17131.271020325545, -24918.21645715433, -24576.771208855058, -16571.113952531094, -28557.303971922873, -31881.008372427033, -35555.1434225015, -10824.435749582739, -35035.73358484907, -25557.006961942552, -35750.16239287405, -31903.78480002699, -0.058, 0.978, 0.266, 192.0, 127.0, 24.0, 15.0, 72.0, 4.0, 40.0, 0.0, 0.0, 0.0, 1.741627787335096E9, 0.0, 2025-03-10 12:29:47.335
104.0, -29332.14954521055, -10283.74705120886, -36313.448704892246, -31783.91239451318, -17136.858956439373, -24927.715948547837, -24604.24150279063, -16562.195606493427, -28552.028960231422, -31880.717799749113, -35535.563294358646, -10818.512537302082, -34997.892081486236, -25549.697941505667, -35687.622211888105, -31912.41257338674, -0.058, 0.978, 0.266, 192.0, 0.0, 0.0, 0.0, 0.0, 0.0, 0.0, 0.0, 0.0, 0.0, 1.741627787393688E9, 0.0, 2025-03-10 12:29:47.393
106.0, -29344.71122559443, -10290.363167567632, -36307.81606528951, -31772.021266462954, -17139.02707565154, -24914.528419319206, -24609.76238367109, -16549.70098134291, -28560.723788824536, -31877.521500292005, -35556.261009724265, -10824.078121671453, -35039.95806455112, -25545.518165292524, -35758.45489006697, -31906.489361106083, -0.058, 0.978, 0.266, 192.0, 0.0, 0.0, 0.0, 0.0, 0.0, 0.0, 0.0, 0.0, 0.0, 1.741627787393745E9, 0.0, 2025-03-10 12:29:47.393
108.0, -29326.539257352266, -10278.583798239684, -36307.54784435604, -31776.178690931643, -17133.48384302662, -24916.316558875627, -24594.473790463664, -16556.630022124056, -28553.12419570973, -31875.107511890834, -35539.69836708288, -10816.791452979023, -34999.68022104266, -25542.38892106878, -35696.45115094795, -31897.861587746334, -0.058, 0.978, 0.266, 192.0, 0.0, 0.0, 0.0, 0.0, 0.0, 0.0, 0.0, 0.0, 0.0, 1.741627787393813E9, 0.0, 2025-03-10 12:29:47.393
110.0, -29345.113556994627, -10281.020138385313, -36308.397210645344, -31776.446911865107, -17136.546032017, -24930.9345997494, -24586.71773513767, -16553.523129644767, -28555.42642538863, -31873.229965356586, -35549.86841081004, -10823.698142015714, -35036.337081949365, -25555.934078208695, -35748.93304692901, -31912.256111175553, -0.058, 0.978, 0.266, 192.0, 0.0, 0.0, 0.0, 0.0, 0.0, 0.0, 0.0, 0.0, 0.0, 1.741627787393863E9, 0.0, 2025-03-10 12:29:47.393
112.0, -29318.358518881625, -10269.687803946472, -36303.099847209436, -31774.0999786973, -17134.042636638, -24895.50708478774, -24603.97328185717, -16533.652428824, -28545.345788639283, -31868.089064131866, -35529.058936722155, -10811.225868609652, -35000.41782860969, -25541.360740823835, -35700.8767963501, -31893.50299757755, -0.054, 0.98, 0.262, 192.0, 127.0, 40.0, 15.0, 80.0, 4.0, 24.0, 0.0, 0.0, 0.0, 1.741627787393909E9, 0.0, 2025-03-10 12:29:47.393
114.0, -29351.886135564582, -10285.110507620635, -36301.89285300885, -31769.67433329515, -17135.16022386077, -24911.108602417542, -24595.94900559771, -16574.93610083295, -28550.8890212642, -31867.887898431767, -35543.40875666246, -10818.423130324261, -35031.39734642474, -25549.09444440537, -35733.77856418831, -31898.39802961326, -0.054, 0.98, 0.262, 192.0, 0.0, 0.0, 0.0, 0.0, 0.0, 0.0, 0.0, 0.0, 0.0, 1.74162778739397E9, 0.0, 2025-03-10 12:29:47.393
116.0, -29332.440117888465, -10283.41177504203, -36304.55271059903, -31779.486749111027, -17132.925049415237, -24911.93561696239, -24604.330909768454, -16543.50954812879, -28552.833623031813, -31870.25718334403, -35539.22898044932, -10817.886688457333, -35002.25067165502, -25536.644522743765, -35707.045877819764, -31897.280442390496, -0.054, 0.98, 0.262, 192.0, 0.0, 0.0, 0.0, 0.0, 0.0, 0.0, 0.0, 0.0, 0.0, 1.741627787394018E9, 0.0, 2025-03-10 12:29:47.394
118.0, -29365.185423515493, -10293.13478388009, -36310.09594322395, -31772.401246118698, -17136.188404105713, -24915.668358286424, -24581.95681356869, -16557.36762969108, -28565.685876093612, -31880.091950904367, -35562.72066387185, -10832.57178456447, -35029.54215163495, -25551.48608106209, -35733.84561942168, -31907.78576228449, -0.054, 0.98, 0.262, 192.0, 0.0, 0.0, 0.0, 0.0, 0.0, 0.0, 0.0, 0.0, 0.0, 1.741627787453985E9, 0.0, 2025-03-10 12:29:47.453
120.0, -29333.781222555786, -10283.881161675592, -36313.33694616997, -31777.47509211005, -17133.416787793256, -24908.515800060726, -24603.883874879346, -16573.036202554253, -28566.445835405095, -31880.650744515748, -35558.51853591425, -10832.370618864372, -35010.25259617002, -25546.121662392816, -35722.49093323838, -31904.54475933847, -0.054, 0.98, 0.262, 192.0, 0.0, 0.0, 0.0, 0.0, 0.0, 0.0, 0.0, 0.0, 0.0, 1.741627787454054E9, 0.0, 2025-03-10 12:29:47.454
122.0, -29365.185423515493, -10291.637217001584, -36313.35929791442, -31764.80165300389, -17141.418712308256, -24899.93273018989, -24606.29786328052, -16529.003265977295, -28568.993934273, -31882.327125349897, -35563.65943713897, -10836.349229377418, -35033.1184307478, -25537.29272333297, -35721.61921520463, -31894.1288464223, -0.05, 0.974, 0.262, 192.0, 127.0, 56.0, 15.0, 56.0, 4.0, 24.0, 0.0, 0.0, 0.0, 1.74162778745413E9, 0.0, 2025-03-10 12:29:47.454
124.0, -29319.498457848844, -10271.364184780621, -36299.41180937431, -31771.708342040583, -17122.710302199164, -24910.795677995167, -24588.505874694096, -16541.632001594546, -28556.767530055946, -31874.72753223509, -35543.945198529385, -10822.982886193144, -35020.08736373036, -25539.48319428959, -35724.61434896164, -31884.249375373052, -0.05, 0.974, 0.262, 192.0, 0.0, 0.0, 0.0, 0.0, 0.0, 0.0, 0.0, 0.0, 0.0, 1.741627787454183E9, 0.0, 2025-03-10 12:29:47.454
126.0, -29359.932763568493, -10284.529362264797, -36313.82868454799, -31779.37499038875, -17146.492558299607, -24922.17271592292, -24598.67591842126, -16565.95069956192, -28553.79474804339, -31875.77806422449, -35543.185239217906, -10820.032455925042, -35027.77636382298, -25551.374322339812, -35701.12266553911, -31889.949070209157, -0.05, 0.974, 0.262, 192.0, 0.0, 0.0, 0.0, 0.0, 0.0, 0.0, 0.0, 0.0, 0.0, 1.741627787454229E9, 0.0, 2025-03-10 12:29:47.454
128.0, -29319.99019622686, -10269.777210924294, -36302.98808848716, -31782.459531123586, -17129.05819762447, -24919.088175188088, -24588.505874694096, -16541.184966705438, -28556.096977722285, -31871.173604866697, -35551.67890211092, -10819.80893848049, -35033.27489295899, -25551.843708973374, -35741.75813695886, -31903.36011688234, -0.05, 0.974, 0.262, 192.0, 0.0, 0.0, 0.0, 0.0, 0.0, 0.0, 0.0, 0.0, 0.0, 1.741627787454282E9, 0.0, 2025-03-10 12:29:47.454
130.0, -29363.86667059263, -10295.437013558987, -36313.4710566367, -31787.935708515135, -17141.932802430725, -24921.949198478367, -24594.92082535277, -16562.732048360354, -28567.9434022836, -31884.674058517703, -35557.80328009168, -10832.772950264567, -35033.967797037105, -25558.01279044304, -35702.709639395434, -31919.31926242343, -0.05, 0.974, 0.262, 192.0, 0.0, 0.0, 0.0, 0.0, 0.0, 0.0, 0.0, 0.0, 0.0, 1.741627787454333E9, 0.0, 2025-03-10 12:29:47.454
132.0, -29328.975597497894, -10282.070670374713, -36306.40790538882, -31795.02121150747, -17139.094130884903, -24928.766480537237, -24617.138459341346, -16568.722315874376, -28562.064893491854, -31880.606041026836, -35556.14925100199, -10831.43184559725, -35041.25446572954, -25557.141072409282, -35744.01566314884, -31913.865436776334, -0.058, 0.982, 0.264, 192.0, 127.0, 24.0, 15.0, 88.0, 4.0, 32.0, 0.0, 0.0, 0.0, 1.741627787454384E9, 0.0, 2025-03-10 12:29:47.454
134.0, -29354.61304838813, -10287.770365210816, -36300.90937625282, -31777.94447874361, -17131.40513079228, -24906.705308759847, -24586.650679904305, -16538.65921958199, -28559.65090509068, -31885.21050038463, -35545.82274506363, -10825.642743783324, -35028.60337836783, -25552.715427007133, -35696.96524107042, -31899.113285435833, -0.058, 0.982, 0.264, 192.0, 0.0, 0.0, 0.0, 0.0, 0.0, 0.0, 0.0, 0.0, 0.0, 1.741627787477559E9, 0.0, 2025-03-10 12:29:47.477
136.0, -29337.93864702447, -10288.88795243358, -36304.508007110126, -31794.685935340636, -17132.29920057049, -24934.041492228687, -24595.613729430883, -16569.683440885954, -28563.204832459072, -31884.65170677325, -35558.27266672524, -10826.08977867243, -35038.54990465044, -25556.425816586714, -35737.84658167918, -31894.240605144576, -0.058, 0.982, 0.264, 192.0, 0.0, 0.0, 0.0, 0.0, 0.0, 0.0, 0.0, 0.0, 0.0, 1.74162778754145E9, 0.0, 2025-03-10 12:29:47.541
138.0, -29362.458510691944, -10292.061900146235, -36314.38747815937, -31786.259327680986, -17140.614049507865, -24921.54686707817, -24599.972319599667, -16546.012943507783, -28564.32241968184, -31886.93158470769, -35553.98113178982, -10825.03924668303, -35019.72973581907, -25557.878679976307, -35691.22084274541, -31914.491285621083, -0.058, 0.982, 0.264, 192.0, 0.0, 0.0, 0.0, 0.0, 0.0, 0.0, 0.0, 0.0, 0.0, 1.741627787541504E9, 0.0, 2025-03-10 12:29:47.541
140.0, -29341.313760437224, -10280.103716862646, -36311.079419979986, -31783.308897412888, -17134.981409905125, -24907.442916326872, -24616.15498258531, -16580.70285090242, -28563.540108625904, -31877.78972122547, -35562.92182957195, -10827.47558682866, -35049.01052105553, -25557.208127642647, -35760.55595404577, -31911.451448375163, -0.058, 0.982, 0.264, 192.0, 0.0, 0.0, 0.0, 0.0, 0.0, 0.0, 0.0, 0.0, 0.0, 1.74162778754155E9, 0.0, 2025-03-10 12:29:47.541
142.0, -29362.86084209214, -10292.128955379601, -36313.82868454799, -31773.027094963443, -17137.507157028576, -24914.997805952768, -24586.851845604404, -16541.810815550187, -28560.254402190974, -31880.047247415456, -35548.59436137609, -10817.640819268325, -35017.44985788463, -25538.656179744743, -35688.78450259978, -31907.249320417563, -0.058, 0.982, 0.268, 192.0, 127.0, 24.0, 15.0, 88.0, 4.0, 48.0, 0.0, 0.0, 0.0, 1.741627787541601E9, 0.0, 2025-03-10 12:29:47.541
144.0, -29342.029016259792, -10276.885065661081, -36299.43416111877, -31762.96880995856, -17129.505232513577, -24899.530398789695, -24602.520418467575, -16536.424045136457, -28563.69657083709, -31875.241622357564, -35561.6924836269, -10815.562107033982, -35049.14463152226, -25547.976857182606, -35750.318855085236, -31886.171625396208, -0.058, 0.982, 0.268, 192.0, 0.0, 0.0, 0.0, 0.0, 0.0, 0.0, 0.0, 0.0, 0.0, 1.741627787541669E9, 0.0, 2025-03-10 12:29:47.541
146.0, -29343.839507560675, -10277.645024972562, -36300.84232101945, -31777.855071765793, -17122.263267310056, -24915.17661990841, -24568.344601195407, -16580.94872009143, -28555.672294577635, -31878.84025321487, -35537.01615774824, -10808.163679619274, -35002.07185769938, -25543.998246669562, -35668.37735991208, -31879.041418914967, -0.058, 0.982, 0.268, 192.0, 0.0, 0.0, 0.0, 0.0, 0.0, 0.0, 0.0, 0.0, 0.0, 1.741627787541719E9, 0.0, 2025-03-10 12:29:47.541
148.0, -29337.89394353556, -10274.60518772664, -36301.959908242214, -31780.58198458934, -17126.398340034288, -24911.846209984567, -24608.15305807031, -16518.9002774835, -28558.287448678908, -31879.086122403878, -35554.7410911013, -10821.015932681077, -35044.450765186644, -25565.52297658002, -35749.51419228485, -31908.590425084883, -0.058, 0.982, 0.268, 192.0, 0.0, 0.0, 0.0, 0.0, 0.0, 0.0, 0.0, 0.0, 0.0, 1.741627787541765E9, 0.0, 2025-03-10 12:29:47.541
150.0, -29331.546048110253, -10266.960891122924, -36301.199948930735, -31781.923089256656, -17124.140813844304, -24913.611997796535, -24589.645813661315, -16543.867176040076, -28546.865707262245, -31875.15221537974, -35530.44474487838, -10809.124804630854, -35004.88817750075, -25549.608534527844, -35673.80883381472, -31895.49230283407, -0.058, 0.982, 0.268, 192.0, 0.0, 0.0, 0.0, 0.0, 0.0, 0.0, 0.0, 0.0, 0.0, 1.741627787541816E9, 0.0, 2025-03-10 12:29:47.541
152.0, -29341.984312770885, -10282.495353519364, -36305.15620769933, -31779.285583410932, -17135.651962238786, -24924.69846304637, -24590.741049139626, -16543.397789406514, -28560.455567891073, -31880.78485498248, -35550.13663174351, -10817.104377401398, -35056.811279870424, -25561.745531767076, -35747.681349239516, -31914.84891353237, -0.056, 0.984, 0.27, 192.0, 127.0, 32.0, 15.0, 96.0, 4.0, 56.0, 0.0, 0.0, 0.0, 1.741627787590761E9, 0.0, 2025-03-10 12:29:47.590
154.0, -29321.823039272196, -10273.599359226151, -36297.780132029075, -31777.251574665497, -17126.152470845278, -24909.70044251686, -24578.559348411483, -16541.09555972762, -28553.16889919864, -31875.465139802116, -35524.76740178673, -10802.262819083075, -35016.17580845068, -25539.997284412064, -35678.457996661426, -31892.363058610328, -0.056, 0.984, 0.27, 192.0, 0.0, 0.0, 0.0, 0.0, 0.0, 0.0, 0.0, 0.0, 0.0, 1.741627787590821E9, 0.0, 2025-03-10 12:29:47.590
156.0, -29342.43134765999, -10287.65860648854, -36300.84232101945, -31783.085379968332, -17131.360427303367, -24910.70627101735, -24615.01504361809, -16545.051818496206, -28559.18151845712, -31875.085160146376, -35543.60992236256, -10815.316237844972, -35058.10768104884, -25549.630886272298, -35743.65803523756, -31904.097724449366, -0.056, 0.984, 0.27, 192.0, 0.0, 0.0, 0.0, 0.0, 0.0, 0.0, 0.0, 0.0, 0.0, 1.741627787590874E9, 0.0, 2025-03-10 12:29:47.590
158.0, -29326.60631258563, -10275.611016227129, -36299.255347163125, -31786.214624192075, -17120.318665542443, -24927.64889331447, -24587.075363048956, -16564.967222805884, -28559.785015557412, -31882.036552671976, -35531.96466350134, -10816.769101234568, -35015.147628205734, -25543.640618758276, -35691.08673227867, -31910.065640218934, -0.056, 0.984, 0.27, 192.0, 0.0, 0.0, 0.0, 0.0, 0.0, 0.0, 0.0, 0.0, 0.0, 1.741627787590924E9, 0.0, 2025-03-10 12:29:47.590
160.0, -29346.94640003996, -10279.589626740173, -36299.9706029857, -31773.027094963443, -17125.928953400726, -24919.60226531056, -24583.029697302547, -16549.32100168717, -28564.523585381936, -31876.672134002703, -35547.67793985343, -10814.891554700322, -35056.85598335934, -25544.15470888075, -35734.315006055236, -31906.109381450344, -0.056, 0.984, 0.27, 192.0, 0.0, 0.0, 0.0, 0.0, 0.0, 0.0, 0.0, 0.0, 0.0, 1.74162778759097E9, 0.0, 2025-03-10 12:29:47.590
162.0, -29319.65492006003, -10269.933673135482, -36300.819969275, -31772.602411818792, -17130.041674380504, -24905.45361107035, -24618.479564008663, -16549.23159470935, -28555.292314921895, -31870.21247985512, -35528.65660532196, -10800.206458593186, -35022.47900038707, -25543.752377480552, -35692.91957532401, -31899.78383776949, -0.048, 0.98, 0.262, 192.0, 127.0, 64.0, 15.0, 80.0, 4.0, 24.0, 0.0, 0.0, 0.0, 1.741627787591021E9, 0.0, 2025-03-10 12:29:47.591
164.0, -29339.23504820288, -10280.573103496206, -36297.73542854017, -31761.225373891044, -17125.504270256075, -24911.712099517837, -24568.121083750855, -16561.726219859866, -28556.36519865575, -31870.413645555218, -35534.49041062479, -10805.503822029093, -35051.51391643452, -25543.35004608036, -35729.3305670417, -31896.900462734757, -0.048, 0.98, 0.262, 192.0, 0.0, 0.0, 0.0, 0.0, 0.0, 0.0, 0.0, 0.0, 0.0, 1.741627787591076E9, 0.0, 2025-03-10 12:29:47.591
166.0, -29314.379908368577, -10272.302958047743, -36299.1659401853, -31774.23408916403, -17126.2418778231, -24922.999730467767, -24581.19685425721, -16557.837016324644, -28553.861803276755, -31879.93548869318, -35525.303843653666, -10809.32597033095, -35025.34002367735, -25543.461804802635, -35698.41810446002, -31911.98789024209, -0.048, 0.98, 0.262, 192.0, 0.0, 0.0, 0.0, 0.0, 0.0, 0.0, 0.0, 0.0, 0.0, 1.7416277876188E9, 0.0, 2025-03-10 12:29:47.618
168.0, -29340.643208103564, -10274.739298193372, -36293.64505930484, -31763.080568680834, -17121.682121954218, -24889.49446552926, -24593.222092774166, -16513.31234136967, -28552.520698609438, -31875.97922992459, -35529.953006500364, -10805.347359817906, -35045.65775938723, -25542.38892106878, -35709.05753482074, -31888.295041119465, -0.048, 0.98, 0.262, 192.0, 0.0, 0.0, 0.0, 0.0, 0.0, 0.0, 0.0, 0.0, 0.0, 1.741627787618858E9, 0.0, 2025-03-10 12:29:47.618
170.0, -29308.054364687727, -10264.74806842185, -36293.578004071474, -31780.313763655875, -17113.322569527933, -24917.300035631662, -24598.653566676807, -16567.649432140523, -28546.955114240067, -31871.419474055707, -35521.436991862895, -10794.864391668367, -35023.8648085433, -25539.39378731177, -35703.46959870691, -31899.135637180287, -0.048, 0.98, 0.262, 192.0, 0.0, 0.0, 0.0, 0.0, 0.0, 0.0, 0.0, 0.0, 0.0, 1.741627787618905E9, 0.0, 2025-03-10 12:29:47.618
172.0, -29341.269056948313, -10277.622673228107, -36294.025038960586, -31775.396379875707, -17117.949380630183, -24911.130954162, -24593.758534641092, -16556.182987234948, -28547.133928195708, -31870.145424621755, -35523.672166308424, -10796.384310291329, -35033.1184307478, -25543.305342591448, -35699.87096784961, -31913.507808865048, -0.05, 0.97, 0.262, 192.0, 127.0, 56.0, 15.0, 40.0, 4.0, 24.0, 0.0, 0.0, 0.0, 1.741627787656861E9, 0.0, 2025-03-10 12:29:47.656
174.0, -29309.70839377742, -10264.681013188483, -36294.40501861632, -31791.24376669452, -17113.613142205853, -24920.228114155307, -24585.71190663718, -16544.425969651456, -28545.50225085047, -31874.72753223509, -35525.348547142574, -10802.32987431644, -35030.21270396861, -25546.076958903905, -35707.22469177541, -31909.484494863096, -0.05, 0.97, 0.262, 192.0, 0.0, 0.0, 0.0, 0.0, 0.0, 0.0, 0.0, 0.0, 0.0, 1.741627787722983E9, 0.0, 2025-03-10 12:29:47.722
176.0, -29356.267077477823, -10293.045376902268, -36308.59837634544, -31797.546958630915, -17124.63255222232, -24929.191163681888, -24588.662336905283, -16559.245176225326, -28559.829719046324, -31890.709029520636, -35548.81787882064, -10821.373560592361, -35040.382747695774, -25561.119682922326, -35693.701886379946, -31928.774050328026, -0.05, 0.97, 0.262, 192.0, 0.0, 0.0, 0.0, 0.0, 0.0, 0.0, 0.0, 0.0, 0.0, 1.741627787723071E9, 0.0, 2025-03-10 12:29:47.723
178.0, -29310.75892576682, -10270.380708024586, -36291.29812613704, -31782.86186252378, -17115.982427118113, -24902.279663357695, -24605.91788362478, -16539.21801319337, -28561.17082371364, -31878.88495670378, -35546.44859390838, -10809.773005220057, -35037.1193930053, -25538.63382800029, -35718.73584016989, -31901.773143026014, -0.05, 0.97, 0.262, 192.0, 0.0, 0.0, 0.0, 0.0, 0.0, 0.0, 0.0, 0.0, 0.0, 1.741627787723183E9, 0.0, 2025-03-10 12:29:47.723
180.0, -29350.634437875087, -10290.251408845355, -36308.73248681217, -31789.209757949087, -17134.824947693938, -24941.46227138785, -24604.62148244637, -16588.593016695144, -28564.635344104216, -31879.175529381697, -35541.84413455059, -10809.393025564317, -35038.03581452797, -25550.659066517244, -35693.18779625747, -31914.46893387663, -0.05, 0.97, 0.262, 192.0, 0.0, 0.0, 0.0, 0.0, 0.0, 0.0, 0.0, 0.0, 0.0, 1.741627787723262E9, 0.0, 2025-03-10 12:29:47.723
182.0, -29311.205960655923, -10268.056126601236, -36288.03477144656, -31774.502310097494, -17110.796822404485, -24905.16303839243, -24583.744953125115, -16535.84289978062, -28556.946344011587, -31871.86650894481, -35540.14540197199, -10811.404682565295, -35046.79769835445, -25544.53468853649, -35734.046785121776, -31916.167666455232, -0.054, 0.976, 0.264, 192.0, 127.0, 40.0, 15.0, 64.0, 4.0, 32.0, 0.0, 0.0, 0.0, 1.741627787723332E9, 0.0, 2025-03-10 12:29:47.723
184.0, -29344.89003955007, -10285.959873909937, -36295.58966107245, -31771.976562974047, -17124.20786907767, -24936.567239352138, -24594.09381080792, -16578.065345056697, -28558.376855656727, -31881.16483463822, -35535.83151529211, -10816.85850821239, -35033.36429993681, -25545.4287583147, -35669.718464579404, -31914.02189898752, -0.054, 0.976, 0.264, 192.0, 0.0, 0.0, 0.0, 0.0, 0.0, 0.0, 0.0, 0.0, 0.0, 1.741627787723403E9, 0.0, 2025-03-10 12:29:47.723
186.0, -29316.302158391736, -10274.649891215551, -36281.2621928766, -31762.052388435888, -17104.895961868282, -24904.336023847583, -24558.509833635075, -16536.468748625368, -28559.047407990387, -31872.246488600555, -35542.134707228506, -10810.66707499827, -35048.20585825513, -25541.91953443522, -35722.04389834928, -31896.252262145554, -0.054, 0.976, 0.264, 192.0, 0.0, 0.0, 0.0, 0.0, 0.0, 0.0, 0.0, 0.0, 0.0, 1.741627787723483E9, 0.0, 2025-03-10 12:29:47.723
188.0, -29335.591713856666, -10280.103716862646, -36290.314649381005, -31759.392530845707, -17116.988255618602, -24899.93273018989, -24581.62153740186, -16512.75354775829, -28562.824852803333, -31872.380599067284, -35528.902474510964, -10799.535906259527, -35026.70348008913, -25533.49292677557, -35655.927438250474, -31881.50011080505, -0.054, 0.976, 0.264, 192.0, 0.0, 0.0, 0.0, 0.0, 0.0, 0.0, 0.0, 0.0, 0.0, 1.741627787723555E9, 0.0, 2025-03-10 12:29:47.723
190.0, -29321.174838682993, -10278.360280795132, -36296.28256515057, -31777.408036876684, -17118.91050564176, -24925.726643291313, -24602.72158416767, -16560.407466937002, -28561.12612022473, -31867.038532142466, -35535.496239125285, -10803.335702816928, -35058.33119849339, -25537.8291651999, -35732.34805254317, -31888.94324170867, -0.054, 0.976, 0.264, 192.0, 0.0, 0.0, 0.0, 0.0, 0.0, 0.0, 0.0, 0.0, 0.0, 1.741627787774687E9, 0.0, 2025-03-10 12:29:47.774
192.0, -29338.430385402487, -10283.881161675592, -36303.792751287554, -31777.72096129906, -17129.48288076912, -24916.718890275824, -24602.654528934305, -16546.929365030453, -28563.249535947984, -31884.294078861963, -35528.54484659968, -10812.276400599052, -35038.996939539546, -25542.992418169073, -35668.936153523464, -31898.532140079995, -0.05, 0.972, 0.264, 192.0, 127.0, 56.0, 15.0, 48.0, 4.0, 32.0, 0.0, 0.0, 0.0, 1.741627787774789E9, 0.0, 2025-03-10 12:29:47.774
194.0, -29323.70058580644, -10270.537170235773, -36294.76264652761, -31780.023190977958, -17120.072796353437, -24923.200896167862, -24596.53015095355, -16566.822417595675, -28566.736408083012, -31882.193014883163, -35546.7391665863, -10817.193784379218, -35072.70337017815, -25544.19941236966, -35740.84171543619, -31906.01997447252, -0.05, 0.972, 0.264, 192.0, 0.0, 0.0, 0.0, 0.0, 0.0, 0.0, 0.0, 0.0, 0.0, 1.741627787774871E9, 0.0, 2025-03-10 12:29:47.774
196.0, -29328.95324575344, -10282.450650030452, -36294.360315127415, -31781.900737512202, -17120.698645198187, -24930.018178226732, -24593.177389285254, -16548.426931908958, -28561.327285924828, -31883.40000908375, -35528.05310822166, -10808.074272641454, -35032.492581903054, -25552.3801508403, -35659.43666212996, -31913.396050142772, -0.05, 0.972, 0.264, 192.0, 0.0, 0.0, 0.0, 0.0, 0.0, 0.0, 0.0, 0.0, 0.0, 1.741627787774943E9, 0.0, 2025-03-10 12:29:47.774
198.0, -29326.80747828573, -10281.824801185705, -36289.19706215824, -31774.636420564228, -17108.271075281034, -24927.157154936453, -24563.0472377595, -16536.289934669727, -28566.065855749355, -31878.88495670378, -35541.441803150396, -10806.219077851663, -35070.46819573262, -25559.35389511036, -35730.895189153576, -31914.535989109994, -0.05, 0.972, 0.264, 192.0, 0.0, 0.0, 0.0, 0.0, 0.0, 0.0, 0.0, 0.0, 0.0, 1.741627787775014E9, 0.0, 2025-03-10 12:29:47.775
200.0, -29330.31670216521, -10286.183391354489, -36301.71403905321, -31782.48188286804, -17121.34684578739, -24923.580875823605, -24616.758479685603, -16541.006152749796, -28562.400169658682, -31880.181357882186, -35527.56136984365, -10801.458156282682, -35032.716099347606, -25540.62313325681, -35659.39195864105, -31907.60694832885, -0.05, 0.972, 0.264, 192.0, 0.0, 0.0, 0.0, 0.0, 0.0, 0.0, 0.0, 0.0, 0.0, 1.741627787775093E9, 0.0, 2025-03-10 12:29:47.775
202.0, -29343.079548249192, -10291.70427223495, -36303.74804779864, -31779.62085957776, -17125.10193885588, -24913.299073374164, -24589.422296216762, -16552.494949399825, -28579.633364633726, -31892.966555710624, -35561.2454487378, -10824.61456353838, -35084.68390520619, -25552.514261307035, -35737.377195045614, -31913.776029798515, -0.044, 0.972, 0.262, 192.0, 127.0, 80.0, 15.0, 48.0, 4.0, 24.0, 0.0, 0.0, 0.0, 1.741627787775175E9, 0.0, 2025-03-10 12:29:47.775
204.0, -29326.18162944098, -10279.36610929562, -36299.948251241236, -31780.470225867062, -17127.068892367948, -24922.575047323116, -24615.640892462838, -16587.050746327728, -28566.356428427272, -31882.21536662762, -35536.03268099221, -10806.37554006285, -35037.16409649421, -25535.95161866565, -35672.78065356978, -31909.283329162998, -0.044, 0.972, 0.262, 192.0, 0.0, 0.0, 0.0, 0.0, 0.0, 0.0, 0.0, 0.0, 0.0, 1.741627787826783E9, 0.0, 2025-03-10 12:29:47.826
206.0, -29339.77149006981, -10279.65668197354, -36295.65671630582, -31772.915336241167, -17123.447909766186, -24927.380672381005, -24574.066647775966, -16542.727237072853, -28576.481768665526, -31878.68379100368, -35554.83049807912, -10806.599057507403, -35079.65476270375, -25549.34031359438, -35735.47729676691, -31918.26873043403, -0.044, 0.972, 0.262, 192.0, 0.0, 0.0, 0.0, 0.0, 0.0, 0.0, 0.0, 0.0, 0.0, 1.741627787826874E9, 0.0, 2025-03-10 12:29:47.826
208.0, -29323.61117882862, -10279.477868017897, -36295.32144013899, -31779.173824688653, -17110.886229382304, -24917.8811809875, -24570.57977564094, -16531.149033445006, -28562.534280125416, -31873.74405547906, -35536.36795715904, -10791.243409066607, -35034.995977282044, -25537.851516944353, -35678.74856933935, -31903.829503515903, -0.044, 0.972, 0.262, 192.0, 0.0, 0.0, 0.0, 0.0, 0.0, 0.0, 0.0, 0.0, 0.0, 1.741627787826983E9, 0.0, 2025-03-10 12:29:47.826
210.0, -29349.695664607963, -10293.805336213749, -36302.5187018536, -31779.218528177564, -17123.783185933018, -24914.12608791901, -24596.418392231273, -16555.17715873446, -28578.26990822195, -31882.72945675009, -35561.26780048225, -10811.069406398465, -35081.08527434889, -25549.988514183584, -35727.810648418745, -31915.139486210286, -0.044, 0.972, 0.262, 192.0, 0.0, 0.0, 0.0, 0.0, 0.0, 0.0, 0.0, 0.0, 0.0, 1.741627787827069E9, 0.0, 2025-03-10 12:29:47.827
212.0, -29327.634492830577, -10290.385519312087, -36304.26213792111, -31787.980412004046, -17111.936761371704, -24915.17661990841, -24570.132740751833, -16541.162614960984, -28574.917146553656, -31881.74597999406, -35551.23186722182, -10808.856583697388, -35046.752994865536, -25534.744624465064, -35691.466711934416, -31903.091895948877, -0.05, 0.974, 0.262, 192.0, 127.0, 56.0, 15.0, 56.0, 4.0, 24.0, 0.0, 0.0, 0.0, 1.741627787827149E9, 0.0, 2025-03-10 12:29:47.827
214.0, -29354.233068732392, -10285.870466932114, -36316.577949115985, -31789.72384807156, -17130.734578458618, -24927.246561914275, -24599.81585738848, -16554.7077721009, -28583.053181535386, -31878.21440437012, -35568.33095173013, -10813.684560499736, -35085.689733706684, -25552.02252292902, -35720.09929658166, -31916.771163555524, -0.05, 0.974, 0.262, 192.0, 0.0, 0.0, 0.0, 0.0, 0.0, 0.0, 0.0, 0.0, 0.0, 1.741627787827243E9, 0.0, 2025-03-10 12:29:47.827
216.0, -29318.157353181527, -10277.89089416157, -36293.39919011584, -31777.989182232523, -17108.494592725587, -24917.25533214275, -24590.361069483886, -16557.010001779796, -28566.021152260444, -31875.01810491301, -35544.32517818513, -10794.059728867976, -35053.77144262451, -25547.596877526867, -35706.33062199719, -31916.592349599883, -0.05, 0.974, 0.262, 192.0, 0.0, 0.0, 0.0, 0.0, 0.0, 0.0, 0.0, 0.0, 0.0, 1.741627787827325E9, 0.0, 2025-03-10 12:29:47.827
218.0, -29358.03286528979, -10309.496260821374, -36302.56340534251, -31779.643211322214, -17124.140813844304, -24912.963797207332, -24575.564214654474, -16543.33073417315, -28582.069704779355, -31884.83052072889, -35554.47287016784, -10803.201592350197, -35071.83165214439, -25540.28785708998, -35707.87289236461, -31907.249320417563, -0.05, 0.974, 0.262, 192.0, 0.0, 0.0, 0.0, 0.0, 0.0, 0.0, 0.0, 0.0, 0.0, 1.741627787827408E9, 0.0, 2025-03-10 12:29:47.827
220.0, -29333.289484177767, -10342.107455981668, -36304.150379198836, -31800.13976098773, -17112.808479405463, -24929.191163681888, -24588.05883980499, -16548.918670286974, -28599.79463813241, -31904.477704105106, -35559.36790220355, -10821.373560592361, -35056.45365195914, -25550.4802525616, -35702.19554927296, -31916.27942517751, -0.05, 0.974, 0.262, 192.0, 0.0, 0.0, 0.0, 0.0, 0.0, 0.0, 0.0, 0.0, 0.0, 1.741627787876212E9, 0.0, 2025-03-10 12:29:47.876
222.0, -29384.3855720026, -10379.993662833413, -36321.74120208516, -31799.558615631893, -17129.43817728021, -24923.871448501523, -24598.787677143537, -16551.93615578844, -28636.831478694854, -31923.141410725286, -35585.92177461646, -10848.307412661006, -35077.441940002675, -25565.478273091114, -35700.29565099426, -31928.59523637238, -0.044, 0.974, 0.268, 192.0, 127.0, 80.0, 15.0, 56.0, 4.0, 48.0, 0.0, 0.0, 0.0, 1.74162778787632E9, 0.0, 2025-03-10 12:29:47.876
224.0, -29363.486690936887, -10395.706939185493, -36331.71008011223, -31814.042546038934, -17137.864784939862, -24930.308750904653, -24625.38625304535, -16568.834074596652, -28659.607906294812, -31931.07628000692, -35599.042248611724, -10855.504674375616, -35079.8782801483, -25568.42870335921, -35734.40441303306, -31931.299797451473, -0.044, 0.974, 0.268, 192.0, 0.0, 0.0, 0.0, 0.0, 0.0, 0.0, 0.0, 0.0, 0.0, 1.741627787876406E9, 0.0, 2025-03-10 12:29:47.876
226.0, -29392.76747617334, -10410.101462614712, -36328.558484144036, -31800.653851110204, -17127.135947601313, -24920.54103857768, -24584.68372639224, -16559.17812099196, -28675.276479157983, -31943.012111546053, -35602.126789346556, -10858.119828476885, -35088.03666687449, -25571.133264438304, -35711.15859879954, -31932.640902118794, -0.044, 0.974, 0.268, 192.0, 0.0, 0.0, 0.0, 0.0, 0.0, 0.0, 0.0, 0.0, 0.0, 1.741627787876483E9, 0.0, 2025-03-10 12:29:47.876
228.0, -29359.28456297929, -10402.188945077532, -36321.540036385064, -31809.728659359058, -17117.837621907907, -24931.35928289405, -24581.57683391295, -16569.504626930313, -28674.941202991155, -31943.548553412984, -35597.54468173321, -10851.593119095936, -35087.030838374005, -25573.457845861656, -35730.44815426447, -31926.69533809368, -0.044, 0.974, 0.268, 192.0, 0.0, 0.0, 0.0, 0.0, 0.0, 0.0, 0.0, 0.0, 0.0, 1.741627787876568E9, 0.0, 2025-03-10 12:29:47.876
