%OpenBCI Raw EXG Data
%Number of channels = 16
%Sample Rate = 125 Hz
%Board = OpenBCI_GUI$BoardCytonSerialDaisy
Sample Index, EXG Channel 0, EXG Channel 1, EXG Channel 2, EXG Channel 3, EXG Channel 4, EXG Channel 5, EXG Channel 6, EXG Channel 7, EXG Channel 8, EXG Channel 9, EXG Channel 10, EXG Channel 11, EXG Channel 12, EXG Channel 13, EXG Channel 14, EXG Channel 15, Accel Channel 0, Accel Channel 1, Accel Channel 2, Not Used, Digital Channel 0 (D11), Digital Channel 1 (D12), Digital Channel 2 (D13), Digital Channel 3 (D17), Not Used, Digital Channel 4 (D18), Analog Channel 0, Analog Channel 1, Analog Channel 2, Timestamp, Marker Channel, Timestamp (Formatted)
0.0, -29997.27040496712, -10732.570079871426, -36749.46418398192, -32333.16181101344, -17856.406313944615, -25490.778743121475, -24873.982354877277, -17077.649185377264, 0.0, 0.0, 0.0, 0.0, 0.0, 0.0, 0.0, 0.0, 0.0, 0.0, 0.0, 192.0, 0.0, 0.0, 0.0, 0.0, 0.0, 0.0, 0.0, 0.0, 0.0, 1.741627698046997E9, 0.0, 2025-03-10 12:28:18.046
46.0, -29990.14019848588, -10754.921824326733, -36756.728500929894, -32349.813860632643, -17853.120607509685, -25507.721365418598, -24894.300090587152, -17094.971787330127, -29074.65744908541, -32645.32627407626, -36180.94756376118, -10975.086507211508, -35623.31624309019, -26063.855119211094, -36405.24731937019, -32629.45653551299, 0.0, 0.0, 0.0, 192.0, 0.0, 0.0, 0.0, 0.0, 0.0, 0.0, 0.0, 0.0, 0.0, 1.741627698047049E9, 0.0, 2025-03-10 12:28:18.047
48.0, -30026.551190203572, -10784.94021713021, -36769.02196038031, -32349.657398421456, -17866.375191971685, -25521.422984769702, -24911.667396028926, -17109.411014248253, -29100.160789508915, -32651.718872990477, -36181.14872946128, -10981.680271825824, -35610.19576909492, -26057.976610419348, -36351.73724314418, -32642.21938159697, 0.0, 0.0, 0.0, 192.0, 0.0, 0.0, 0.0, 0.0, 0.0, 0.0, 0.0, 0.0, 0.0, 1.741627698047108E9, 0.0, 2025-03-10 12:28:18.047
50.0, -30020.89619885638, -10796.831345180433, -36778.76732096283, -32361.190898560395, -17862.91067158111, -25510.940016620163, -24905.40890758144, -17095.262360008044, -29125.418260743412, -32664.638181285645, -36212.55293042099, -10999.718129601257, -35644.4609933449, -26064.16804363347, -36422.92754923434, -32632.22815182545, -0.076, 0.984, 0.26, 192.0, 126.5, 80.0, 15.0, 96.0, 4.0, 16.0, 0.0, 0.0, 0.0, 1.741627698047199E9, 0.0, 2025-03-10 12:28:18.047
52.0, -30038.017635109143, -10805.570877262458, -36783.21531810943, -32358.35222701457, -17865.01173555991, -25533.53763026448, -24899.79861972316, -17104.87361012383, -29132.414356757923, -32672.6624575451, -36206.2944419735, -11000.031054023631, -35628.36773733708, -26072.169968148468, -36365.64002819539, -32646.712082232487, -0.076, 0.984, 0.26, 192.0, 0.0, 0.0, 0.0, 0.0, 0.0, 0.0, 0.0, 0.0, 0.0, 1.741627698047249E9, 0.0, 2025-03-10 12:28:18.047
54.0, -30029.032233838112, -10798.865353925867, -36789.943193190484, -32359.849793893078, -17871.20316877403, -25527.636769728277, -24915.333082119596, -17107.71228166965, -29135.767118426218, -32663.05120742932, -36224.68992766022, -11003.473222669749, -35661.761243553316, -26056.72491272985, -36428.649595814895, -32646.063881643284, -0.076, 0.984, 0.26, 192.0, 0.0, 0.0, 0.0, 0.0, 0.0, 0.0, 0.0, 0.0, 0.0, 1.741627698047275E9, 0.0, 2025-03-10 12:28:18.047
56.0, -30028.406384993363, -10778.212342049163, -36794.2347281259, -32364.5883637176, -17874.980613586977, -25538.85734544484, -24904.760706992234, -17109.232200292612, -29127.899304377952, -32667.923887720575, -36210.4965699311, -11004.07671977004, -35639.454202586916, -26068.1019506576, -36367.070539840526, -32652.344721835223, -0.076, 0.984, 0.26, 192.0, 0.0, 0.0, 0.0, 0.0, 0.0, 0.0, 0.0, 0.0, 0.0, 1.741627698047307E9, 0.0, 2025-03-10 12:28:18.047
58.0, -30006.255806238154, -10753.334850470406, -36780.19783260797, -32353.859526379056, -17864.229424503974, -25537.873868688806, -24904.648948269958, -17129.14760460229, -29106.03929830066, -32656.345684092725, -36216.37507872285, -10994.912504543365, -35664.331694165674, -26066.91730820147, -36437.23266568573, -32643.024044397363, -0.076, 0.984, 0.26, 192.0, 0.0, 0.0, 0.0, 0.0, 0.0, 0.0, 0.0, 0.0, 0.0, 1.741627698047336E9, 0.0, 2025-03-10 12:28:18.047
60.0, -30002.590120147484, -10742.270736965029, -36794.12296940362, -32360.63210494901, -17885.709450925526, -25541.405444312746, -24919.781079266202, -17115.15541257327, -29084.067533501093, -32648.07553864426, -36194.0903895009, -10983.289597426605, -35625.97610068037, -26062.469311054865, -36370.57976372001, -32663.36413185169, -0.078, 0.984, 0.252, 192.0, 126.5, 72.0, 15.0, 96.0, 3.5, 112.0, 0.0, 0.0, 0.0, 1.741627698047363E9, 0.0, 2025-03-10 12:28:18.047
62.0, -29996.599852633462, -10723.092940222376, -36786.63513501109, -32345.611732675046, -17870.018526317897, -25507.475496229592, -24913.030852440697, -17055.252737433046, -29075.730332819265, -32641.526477518855, -36210.809494353474, -10986.664710839357, -35663.68349357647, -26060.032970909237, -36432.67290981685, -32640.61005599619, -0.078, 0.984, 0.252, 192.0, 0.0, 0.0, 0.0, 0.0, 0.0, 0.0, 0.0, 0.0, 0.0, 1.741627698047391E9, 0.0, 2025-03-10 12:28:18.047
64.0, -29976.393875645863, -10698.058986432432, -36774.69930347196, -32343.085985551596, -17853.120607509685, -25525.580409238388, -24884.085343371076, -17116.38475851831, -29053.26682964168, -32631.535247747335, -36183.96504926265, -10970.370289131439, -35626.579597780656, -26047.068959125158, -36360.05209208156, -32637.07848037225, -0.078, 0.984, 0.252, 192.0, 0.0, 0.0, 0.0, 0.0, 0.0, 0.0, 0.0, 0.0, 0.0, 1.741627698047417E9, 0.0, 2025-03-10 12:28:18.047
66.0, -29995.974003788713, -10701.255285889541, -36787.39509432258, -32346.192878030884, -17869.72795363998, -25521.937074892176, -24915.802468753158, -17085.80757210345, -29045.242553382228, -32629.99297737992, -36198.44897966969, -10974.348899644483, -35653.9157812495, -26058.11072088608, -36410.96936595075, -32645.41568105408, -0.078, 0.984, 0.252, 192.0, 0.0, 0.0, 0.0, 0.0, 0.0, 0.0, 0.0, 0.0, 0.0, 1.74162769804745E9, 0.0, 2025-03-10 12:28:18.047
68.0, -29979.545471614063, -10687.240742116064, -36785.71871348843, -32351.669055422433, -17856.33925871125, -25533.582333753388, -24886.40992479443, -17087.171028515226, -29041.621570780466, -32637.771384450363, -36188.793026064996, -10979.288635169105, -35628.07716465917, -26049.751168459796, -36363.74012991669, -32637.3019978168, -0.078, 0.984, 0.252, 192.0, 0.0, 0.0, 0.0, 0.0, 0.0, 0.0, 0.0, 0.0, 0.0, 1.741627698047482E9, 0.0, 2025-03-10 12:28:18.047
70.0, -29993.314146198532, -10690.30293110644, -36789.42910306801, -32352.429014733916, -17866.0175640604, -25533.135298864283, -24911.667396028926, -17091.283749495, -29037.151221889406, -32637.99490189492, -36205.19920649519, -10981.523809614637, -35666.700979077934, -26054.646200495506, -36415.48441833072, -32658.46909981598, -0.074, 0.982, 0.26, 192.0, 126.5, 88.0, 15.0, 88.0, 4.0, 16.0, 0.0, 0.0, 0.0, 1.74162769804751E9, 0.0, 2025-03-10 12:28:18.047
72.0, -29952.432805589775, -10656.73061093457, -36768.50787025784, -32338.86150584954, -17849.544328396838, -25510.157705564226, -24872.998878121245, -17030.487004576564, -29013.078393111038, -32622.818067409764, -36173.705598557666, -10959.149713414874, -35629.440621070935, -26044.409101534977, -36368.85867939695, -32632.384614036637, -0.074, 0.982, 0.26, 192.0, 0.0, 0.0, 0.0, 0.0, 0.0, 0.0, 0.0, 0.0, 0.0, 1.741627698047539E9, 0.0, 2025-03-10 12:28:18.047
74.0, -29981.13244547039, -10654.16016032221, -36779.30376282975, -32342.750709384767, -17866.15167452713, -25540.421967556715, -24934.957913751354, -17124.878421411326, -29002.662480194867, -32610.65871842608, -36175.18081369172, -10951.460713322249, -35647.32201663518, -26051.695770227405, -36404.77793273663, -32639.894800173617, -0.074, 0.982, 0.26, 192.0, 0.0, 0.0, 0.0, 0.0, 0.0, 0.0, 0.0, 0.0, 0.0, 1.741627698047571E9, 0.0, 2025-03-10 12:28:18.047
76.0, -29957.439596347762, -10643.006639839012, -36777.53797501779, -32351.7361106558, -17855.668706377593, -25532.330636063893, -24886.432276538882, -17072.351821941356, -28995.353459757982, -32608.334137002726, -36167.80473802146, -10954.45584707926, -35633.17336239498, -26047.270124825256, -36387.45533078376, -32657.84325097123, -0.074, 0.982, 0.26, 192.0, 0.0, 0.0, 0.0, 0.0, 0.0, 0.0, 0.0, 0.0, 0.0, 1.741627698047603E9, 0.0, 2025-03-10 12:28:18.047
78.0, -29983.904061782847, -10653.82488415538, -36784.60112626566, -32349.031549576706, -17867.023392560888, -25540.44431930117, -24909.16400064993, -17096.894037353282, -28998.438000492813, -32618.772401663355, -36181.86398528385, -10962.211902405252, -35663.214106942905, -26054.512090028777, -36393.847929697986, -32657.530326548855, -0.074, 0.982, 0.26, 192.0, 0.0, 0.0, 0.0, 0.0, 0.0, 0.0, 0.0, 0.0, 0.0, 1.741627698047631E9, 0.0, 2025-03-10 12:28:18.047
80.0, -29935.914866437302, -10624.119415774276, -36767.993780135366, -32343.57772392961, -17856.182796500063, -25529.58137149589, -24897.272872599708, -17106.617046191343, -28986.07748580903, -32614.659680683577, -36167.91649674374, -10953.293556367584, -35630.33469084915, -26050.82405219365, -36388.77408370663, -32661.330123106258, -0.078, 0.98, 0.256, 192.0, 126.5, 72.0, 15.0, 80.0, 4.0, 0.0, 0.0, 0.0, 0.0, 1.741627698047661E9, 0.0, 2025-03-10 12:28:18.047
0.0, -14918.068339594405, -5296.178793451642, -18398.905503619375, -16166.837950567957, -8901.202249670298, -12767.741116016045, -12431.8838038306, -8529.82801554537, -14489.160715241518, -16302.825963834044, -18084.975252744585, -5474.299845015985, -17828.533688608848, -13026.619020297412, -18205.16058268077, -16329.290429269127, -0.076, 0.978, 0.244, 192.0, 126.5, 80.0, 15.0, 72.0, 3.5, 80.0, 0.0, 0.0, 0.0, 1.741627698164845E9, 0.0, 2025-03-10 12:28:18.164
2.0, -29876.414522697276, -10610.417796423173, -36803.46599858594, -32320.175447484908, -17818.72127279297, -25514.985682366572, -24867.612107707515, -17031.22461214359, -28945.889049278387, -32611.68689867102, -36168.519993844035, -11010.268152984161, -35621.483400044846, -26005.20414176037, -36309.40303914584, -32617.051317340294, -0.076, 0.978, 0.244, 192.0, 0.0, 0.0, 0.0, 0.0, 0.0, 0.0, 0.0, 0.0, 0.0, 1.741627698187931E9, 0.0, 2025-03-10 12:28:18.187
4.0, -29846.28437117152, -10604.986322520534, -36802.86250148565, -32332.15598251295, -17813.848592501712, -25527.614417983823, -24891.528474274695, -17016.763033481006, -28946.716063823234, -32609.384668992123, -36179.20412769367, -11014.112653030474, -35649.89246724755, -26024.24782803629, -36365.21534505074, -32626.863733156173, -0.076, 0.978, 0.244, 192.0, 0.0, 0.0, 0.0, 0.0, 0.0, 0.0, 0.0, 0.0, 0.0, 1.741627698239034E9, 0.0, 2025-03-10 12:28:18.239
6.0, -29884.86348210138, -10631.271973999974, -36808.07045794374, -32331.86540983503, -17815.10029019121, -25524.395766782258, -24866.561575718115, -17007.196486854136, -28946.91722952333, -32620.851113897697, -36172.25273516807, -11021.645190911913, -35630.9605396939, -26019.173982044937, -36312.75580081413, -32621.32050053126, -0.076, 0.978, 0.244, 192.0, 0.0, 0.0, 0.0, 0.0, 0.0, 0.0, 0.0, 0.0, 0.0, 1.741627698239095E9, 0.0, 2025-03-10 12:28:18.239
8.0, -29866.445644670206, -10631.428436211161, -36811.17735042302, -32348.808032132154, -17816.32963613625, -25547.10513914885, -24867.768569918702, -17043.60747857183, -28961.937601797297, -32634.798602437808, -36193.755113334075, -11035.346810263016, -35649.311321891706, -26039.20114507689, -36365.081234584, -32629.724756446452, -0.07, 0.98, 0.242, 192.0, 126.5, 104.0, 15.0, 80.0, 3.5, 72.0, 0.0, 0.0, 0.0, 1.741627698239135E9, 0.0, 2025-03-10 12:28:18.239
10.0, -29885.846958857415, -10631.271973999974, -36814.50776034686, -32340.649645405967, -17828.66779907558, -25541.91953443522, -24897.675203999905, -17037.728969780084, -28958.49543315118, -32641.593532752224, -36177.68420907071, -11032.910470117387, -35631.161705394, -26042.57625848964, -36308.620728089896, -32634.195105337516, -0.07, 0.98, 0.242, 192.0, 0.0, 0.0, 0.0, 0.0, 0.0, 0.0, 0.0, 0.0, 0.0, 1.741627698239163E9, 0.0, 2025-03-10 12:28:18.239
12.0, -29869.329019704943, -10626.1087210308, -36804.628289297616, -32337.609808160047, -17817.558982081293, -25520.841839413864, -24869.10967458602, -17023.826184728885, -28956.77434882812, -32628.227189567948, -36184.54619461849, -11027.32253400356, -35660.53189760827, -26031.601551962085, -36380.14631034688, -32633.301035559303, -0.07, 0.98, 0.242, 192.0, 0.0, 0.0, 0.0, 0.0, 0.0, 0.0, 0.0, 0.0, 0.0, 1.741627698239198E9, 0.0, 2025-03-10 12:28:18.239
14.0, -29878.91791807627, -10629.014447809988, -36812.42904811252, -32339.30854073865, -17829.24894443142, -25532.5765052529, -24888.376878306495, -17045.46267336162, -28955.701465094266, -32631.289378558326, -36172.54330784599, -11023.768606635167, -35627.25015011432, -26032.249752551288, -36298.22716691818, -32627.22136106746, -0.07, 0.98, 0.242, 192.0, 0.0, 0.0, 0.0, 0.0, 0.0, 0.0, 0.0, 0.0, 0.0, 1.741627698239226E9, 0.0, 2025-03-10 12:28:18.239
16.0, -29876.146301763813, -10621.0572267839, -36806.05880094276, -32334.122936025018, -17822.655179817102, -25519.43367951318, -24880.26319506922, -17017.388882325755, -28958.83070931801, -32630.149439591103, -36193.21867146715, -11030.60824043849, -35667.617400600604, -26040.877525911037, -36386.069522627535, -32633.993939637417, -0.07, 0.98, 0.242, 192.0, 0.0, 0.0, 0.0, 0.0, 0.0, 0.0, 0.0, 0.0, 0.0, 1.741627698293054E9, 0.0, 2025-03-10 12:28:18.293
18.0, -29880.214319254676, -10629.416779210183, -36808.673955044025, -32335.844020348075, -17826.298514163318, -25543.081825146895, -24900.379765078997, -17032.3198476219, -28951.097005736472, -32620.49348598641, -36168.34117988839, -11018.493594943715, -35633.75450775081, -26021.85619137957, -36305.93851875526, -32616.045488839805, -0.08, 0.98, 0.244, 192.0, 126.5, 64.0, 15.0, 80.0, 3.5, 80.0, 0.0, 0.0, 0.0, 1.74162769829313E9, 0.0, 2025-03-10 12:28:18.293
20.0, -29874.358162207387, -10618.106796515798, -36790.166710635036, -32321.985938785787, -17805.71255751998, -25515.879752144785, -24851.362389488506, -17014.684321246663, -28959.09893025147, -32623.153343576592, -36182.62394459533, -11022.27103975666, -35664.28699067676, -26030.953351372882, -36379.855737668964, -32621.856942398186, -0.08, 0.98, 0.244, 192.0, 0.0, 0.0, 0.0, 0.0, 0.0, 0.0, 0.0, 0.0, 0.0, 1.741627698293175E9, 0.0, 2025-03-10 12:28:18.293
22.0, -29864.836319069425, -10614.083482513845, -36790.74785599087, -32325.629273132003, -17812.686301790036, -25514.739813177566, -24874.29527929965, -17040.500586092545, -28941.463403876234, -32615.531398717332, -36151.08563316889, -11011.519850673658, -35622.5562837787, -26010.792077874194, -36298.98712622966, -32617.923035374053, -0.08, 0.98, 0.244, 192.0, 0.0, 0.0, 0.0, 0.0, 0.0, 0.0, 0.0, 0.0, 0.0, 1.741627698293201E9, 0.0, 2025-03-10 12:28:18.293
24.0, -29877.53210992004, -10622.331276217852, -36800.24734738438, -32327.77504059971, -17820.040025715833, -25519.567789979912, -24887.773381206203, -17037.013713957516, -28951.05230224756, -32617.945387118507, -36174.24204042459, -11018.381836221437, -35662.81177554271, -26030.796889161695, -36364.38833050589, -32611.530436459834, -0.08, 0.98, 0.244, 192.0, 0.0, 0.0, 0.0, 0.0, 0.0, 0.0, 0.0, 0.0, 0.0, 1.741627698293228E9, 0.0, 2025-03-10 12:28:18.293
26.0, -29864.34458069141, -10621.951296562112, -36797.96746944993, -32326.456287676847, -17803.52208656336, -25518.316092290414, -24833.77156660218, -16976.84281788383, -28946.716063823234, -32620.918169131062, -36156.1818309047, -11014.22441175275, -35631.832257727656, -26020.939769856905, -36305.75970479962, -32616.6489859401, -0.08, 0.98, 0.244, 192.0, 0.0, 0.0, 0.0, 0.0, 0.0, 0.0, 0.0, 0.0, 0.0, 1.741627698293256E9, 0.0, 2025-03-10 12:28:18.293
28.0, -29891.85957811589, -10625.43816869714, -36805.72352477593, -32326.836267332586, -17821.694054805525, -25528.553191250943, -24881.69370671436, -17038.13130118028, -28956.86375580594, -32618.303015029793, -36175.89606951429, -11018.940629832821, -35676.82631931619, -26012.82608661963, -36350.57495243251, -32607.55182594679, -0.084, 0.982, 0.25, 192.0, 126.5, 48.0, 15.0, 88.0, 3.5, 104.0, 0.0, 0.0, 0.0, 1.741627698325097E9, 0.0, 2025-03-10 12:28:18.325
30.0, -29862.95877253518, -10618.285610471441, -36801.45434158496, -32327.17154349942, -17810.160554666585, -25512.683452687677, -24865.958078617823, -17007.688225232152, -28954.44976740477, -32617.02896559584, -36162.082691440904, -11013.956190819286, -35638.269560130786, -26026.52770597073, -36315.08038223748, -32622.393384265113, -0.084, 0.982, 0.25, 192.0, 0.0, 0.0, 0.0, 0.0, 0.0, 0.0, 0.0, 0.0, 0.0, 1.741627698366128E9, 0.0, 2025-03-10 12:28:18.366
32.0, -29885.95871757969, -10628.410950709695, -36806.32702187622, -32329.183200500396, -17817.693092548026, -25528.173211595204, -24880.039677624667, -17033.236269144567, -28958.45072966227, -32621.298148786802, -36173.59383983539, -11016.504289687193, -35668.109138978616, -26027.2429617933, -36352.47485071121, -32618.303015029793, -0.084, 0.982, 0.25, 192.0, 0.0, 0.0, 0.0, 0.0, 0.0, 0.0, 0.0, 0.0, 0.0, 1.741627698413299E9, 0.0, 2025-03-10 12:28:18.413
34.0, -29864.14341499131, -10623.29240122943, -36809.1880451665, -32336.15694477045, -17811.166383167074, -25528.732005206588, -24896.825837710603, -17044.45684486113, -28956.19320347228, -32622.97452962095, -36163.46849959713, -11013.866783841466, -35630.04411817123, -26019.129278556025, -36319.103696239436, -32626.774326178354, -0.084, 0.982, 0.25, 192.0, 0.0, 0.0, 0.0, 0.0, 0.0, 0.0, 0.0, 0.0, 0.0, 1.741627698413359E9, 0.0, 2025-03-10 12:28:18.413
36.0, -29894.54178745053, -10634.58003217936, -36813.3901731241, -32328.266778977726, -17818.408348370594, -25524.5745807379, -24879.63734622447, -17021.479251561075, -28964.30688670956, -32630.97645413595, -36182.4898341286, -11021.511080445182, -35668.734987823365, -26030.86394439506, -36349.77028963212, -32632.8540006702, -0.084, 0.982, 0.25, 192.0, 0.0, 0.0, 0.0, 0.0, 0.0, 0.0, 0.0, 0.0, 0.0, 1.741627698413388E9, 0.0, 2025-03-10 12:28:18.413
38.0, -29856.320304431953, -10618.665590127182, -36805.07532418672, -32329.563180156136, -17808.61828429917, -25520.10423184684, -24871.63542170947, -17026.50839406352, -28957.40019767287, -32620.6499481976, -36169.861098511356, -11010.424615195348, -35648.23843815785, -26010.00976681826, -36322.99289977466, -32618.928863874542, -0.082, 0.982, 0.242, 192.0, 126.5, 56.0, 15.0, 88.0, 3.5, 72.0, 0.0, 0.0, 0.0, 1.741627698413419E9, 0.0, 2025-03-10 12:28:18.413
40.0, -29892.932461849745, -10623.560622162893, -36809.925652733524, -32327.037433032685, -17818.09542394822, -25514.20337131064, -24865.086360584064, -17018.528821292977, -28954.516822638136, -32617.83362839623, -36171.738645045596, -11014.514984430669, -35668.2208977009, -26020.269217523244, -36330.19016148927, -32624.717965688465, -0.082, 0.982, 0.242, 192.0, 0.0, 0.0, 0.0, 0.0, 0.0, 0.0, 0.0, 0.0, 0.0, 1.741627698413452E9, 0.0, 2025-03-10 12:28:18.413
42.0, -29861.260039956578, -10619.649066883216, -36807.46696084344, -32334.681729636402, -17818.922438493068, -25500.591158937357, -24895.484733043282, -17014.23728635756, -28954.49447089368, -32621.11933483116, -36165.97189497613, -11018.225374010251, -35647.8137550132, -26018.14580179999, -36341.72366162821, -32617.252483040393, -0.082, 0.982, 0.242, 192.0, 0.0, 0.0, 0.0, 0.0, 0.0, 0.0, 0.0, 0.0, 0.0, 1.741627698445327E9, 0.0, 2025-03-10 12:28:18.445
44.0, -29899.43681948624, -10633.440093212139, -36808.31632713274, -32331.999520301764, -17821.62699957216, -25514.94097887766, -24841.035883550154, -17016.539516036453, -28957.288438950593, -32629.389480279624, -36173.482081113114, -11026.674333414358, -35644.50569683382, -26032.67443569594, -36332.67120512381, -32620.426430753047, -0.082, 0.982, 0.242, 192.0, 0.0, 0.0, 0.0, 0.0, 0.0, 0.0, 0.0, 0.0, 0.0, 1.741627698493304E9, 0.0, 2025-03-10 12:28:18.493
46.0, -29865.551574891997, -10622.554793662404, -36811.31146088975, -32341.58841867309, -17827.796081041823, -25528.32967380639, -24899.709212745336, -17056.415028144722, -28950.895840036374, -32624.002709865894, -36173.01269447955, -11018.627705410447, -35616.454257542406, -26032.227400806834, -36351.580780933, -32617.83362839623, -0.082, 0.982, 0.242, 192.0, 0.0, 0.0, 0.0, 0.0, 0.0, 0.0, 0.0, 0.0, 0.0, 1.741627698564996E9, 0.0, 2025-03-10 12:28:18.564
48.0, -29898.520397963573, -10635.988192080045, -36814.127780691124, -32329.898456322964, -17824.15274669561, -25522.697034203655, -24849.104863298522, -16992.109059346803, -28956.43907266129, -32631.043509369316, -36175.650200325275, -11023.075702557053, -35604.89840565901, -26031.2439240508, -36331.35245220095, -32622.661605198577, -0.084, 0.98, 0.244, 192.0, 126.5, 48.0, 15.0, 80.0, 3.5, 80.0, 0.0, 0.0, 0.0, 1.741627698565057E9, 0.0, 2025-03-10 12:28:18.565
50.0, -29860.924763789746, -10618.933811060646, -36803.644812541585, -32329.786697600688, -17811.32284537826, -25505.15091480624, -24863.052351838633, -17009.632826999765, -28945.084386477996, -32625.723794188954, -36171.738645045596, -11018.538298432624, -35583.37367574855, -26025.700691425885, -36357.14636530237, -32601.516854943857, -0.084, 0.98, 0.244, 192.0, 0.0, 0.0, 0.0, 0.0, 0.0, 0.0, 0.0, 0.0, 0.0, 1.741627698565086E9, 0.0, 2025-03-10 12:28:18.565
52.0, -29895.59231943993, -10623.225345996065, -36811.87025450114, -32321.40479342995, -17832.378188655162, -25510.33651951987, -24880.844340425057, -17009.02932989947, -28942.469232376723, -32625.343814533215, -36162.8873542413, -11015.453757697793, -35563.458271438874, -26019.19633378939, -36321.338870684966, -32597.44883745299, -0.084, 0.98, 0.244, 192.0, 0.0, 0.0, 0.0, 0.0, 0.0, 0.0, 0.0, 0.0, 0.0, 1.741627698565122E9, 0.0, 2025-03-10 12:28:18.565
54.0, -29865.886851058825, -10600.001883507, -36795.687591515496, -32318.856694562044, -17816.03906345833, -25516.259731800525, -24870.674296697893, -17026.79896674144, -28935.853116017952, -32610.83753238172, -36164.3849211198, -11007.228315738239, -35560.26197198176, -26019.285740767213, -36368.165775318834, -32588.061104781762, -0.084, 0.98, 0.244, 192.0, 0.0, 0.0, 0.0, 0.0, 0.0, 0.0, 0.0, 0.0, 0.0, 1.741627698565151E9, 0.0, 2025-03-10 12:28:18.565
56.0, -29894.072400816967, -10615.268124969974, -36804.85180674217, -32323.751726597755, -17835.39567415663, -25541.6289617573, -24906.705308759847, -17061.913557280728, -28931.606284571444, -32615.486695228425, -36152.62790353631, -11002.55680114708, -35533.84221003559, -26023.91255186946, -36314.1192572259, -32599.97458457644, -0.084, 0.98, 0.244, 192.0, 0.0, 0.0, 0.0, 0.0, 0.0, 0.0, 0.0, 0.0, 0.0, 1.741627698565204E9, 0.0, 2025-03-10 12:28:18.565
58.0, -29876.19100525272, -10607.266200454975, -36797.81100723875, -32323.01411903073, -17818.922438493068, -25512.303473031938, -24871.83658740957, -17007.71057697661, -28932.857982260943, -32617.766573162866, -36166.77655777652, -11008.569420405558, -35552.77413758924, -26025.38776700351, -36383.92375515983, -32598.45466595348, -0.082, 0.984, 0.244, 192.0, 126.5, 56.0, 15.0, 96.0, 3.5, 80.0, 0.0, 0.0, 0.0, 1.741627698565236E9, 0.0, 2025-03-10 12:28:18.565
60.0, -29890.317307748475, -10615.424587181162, -36794.8829287151, -32317.381479427993, -17822.923400750566, -25500.345289748348, -24863.901718127934, -17004.246056586035, -28925.616017057422, -32618.817105152266, -36150.79506049098, -11011.475147184748, -35514.95498597086, -26023.845496636095, -36313.024021747595, -32578.651020366076, -0.082, 0.984, 0.244, 192.0, 0.0, 0.0, 0.0, 0.0, 0.0, 0.0, 0.0, 0.0, 0.0, 1.741627698586501E9, 0.0, 2025-03-10 12:28:18.586
62.0, -29873.061761028977, -10603.62286610876, -36784.28820184329, -32317.023851516708, -17815.882601247144, -25519.187810324172, -24863.16411056091, -17020.585181782866, -28927.314749636025, -32614.391459750113, -36159.89222048428, -11014.358522219483, -35538.20080020437, -26026.34889201509, -36377.84408066799, -32582.786093090308, -0.082, 0.984, 0.244, 192.0, 0.0, 0.0, 0.0, 0.0, 0.0, 0.0, 0.0, 0.0, 0.0, 1.741627698586581E9, 0.0, 2025-03-10 12:28:18.586
62.0, -29921.520343008084, -10671.885093675268, -36797.073399671724, -32309.044278746165, -17820.15178443811, -25505.66500492871, -24848.031979564665, -17031.045798187948, -28927.314749636025, -32614.391459750113, -36159.89222048428, -11014.358522219483, -35538.20080020437, -26026.34889201509, -36377.84408066799, -32582.786093090308, -0.082, 0.984, 0.244, 192.0, 0.0, 0.0, 0.0, 0.0, 0.0, 0.0, 0.0, 0.0, 0.0, 1.74162769861662E9, 0.0, 2025-03-10 12:28:18.616
66.0, -29875.565156407974, -10612.116529001776, -36790.56904203523, -32322.857656819542, -17822.63282807265, -25530.833069185384, -24860.213680292807, -17027.827146986383, -28927.359453124936, -32615.576102206243, -36152.60555179186, -11013.486804185726, -35534.26689318024, -26027.19825830439, -36378.76050219065, -32596.59947116369, -0.082, 0.984, 0.244, 192.0, 0.0, 0.0, 0.0, 0.0, 0.0, 0.0, 0.0, 0.0, 0.0, 1.741627698616657E9, 0.0, 2025-03-10 12:28:18.616
74.0, -29892.44072347173, -10614.597572636316, -36798.48155957241, -32314.721621837813, -17829.517165364883, -25512.86226664332, -24877.625689223492, -17009.610475255307, -28932.72387179421, -32612.536264960323, -36158.372301861324, -11013.822080352555, -35540.659492094455, -26014.368356987045, -36382.783816192605, -32579.992125033397, -0.082, 0.984, 0.244, 192.0, 0.0, 0.0, 0.0, 0.0, 0.0, 0.0, 0.0, 0.0, 0.0, 1.741627698667621E9, 0.0, 2025-03-10 12:28:18.667
74.0, -29889.803217626002, -10668.73349770707, -36783.97527742091, -32299.969470497308, -17805.913723220077, -25496.925472846684, -24860.25838378172, -16986.11879183278, -28932.72387179421, -32612.536264960323, -36158.372301861324, -11013.822080352555, -35540.659492094455, -26014.368356987045, -36382.783816192605, -32579.992125033397, -0.082, 0.984, 0.244, 192.0, 0.0, 0.0, 0.0, 0.0, 0.0, 0.0, 0.0, 0.0, 0.0, 1.741627698667679E9, 0.0, 2025-03-10 12:28:18.667
74.0, -29883.365915222876, -10628.813282109892, -36799.71090551745, -32319.996633529263, -17825.851479274213, -25525.24513307156, -24883.951232904343, -17026.150766152237, -28932.72387179421, -32612.536264960323, -36158.372301861324, -11013.822080352555, -35540.659492094455, -26014.368356987045, -36382.783816192605, -32579.992125033397, -0.082, 0.984, 0.244, 192.0, 0.0, 0.0, 0.0, 0.0, 0.0, 0.0, 0.0, 0.0, 0.0, 1.74162769866771E9, 0.0, 2025-03-10 12:28:18.667
74.0, -29920.514514507595, -10678.188285611664, -36791.50781530235, -32296.460246617826, -17821.20231642751, -25489.214121009605, -24873.937651388365, -16979.480323729556, -28932.72387179421, -32612.536264960323, -36158.372301861324, -11013.822080352555, -35540.659492094455, -26014.368356987045, -36382.783816192605, -32579.992125033397, -0.082, 0.984, 0.244, 192.0, 0.0, 0.0, 0.0, 0.0, 0.0, 0.0, 0.0, 0.0, 0.0, 1.741627698667736E9, 0.0, 2025-03-10 12:28:18.667
90.0, -29926.2142093437, -10686.257265360031, -36793.54182404779, -32299.075400719095, -17819.883563504645, -25498.445391469646, -24867.29918328514, -17001.161515851203, -28987.01625907615, -32621.78988716482, -36153.72313901462, -11011.810423351577, -35524.90151225347, -26003.39365045949, -36316.13091422688, -32554.68995030999, -0.082, 0.984, 0.244, 192.0, 0.0, 0.0, 0.0, 0.0, 0.0, 0.0, 0.0, 0.0, 0.0, 1.741627698667774E9, 0.0, 2025-03-10 12:28:18.667
96.0, -29888.59622342542, -10671.572169252893, -36788.57973677871, -32303.031659487686, -17816.843726258725, -25505.374432250792, -24885.269985827206, -17005.073071130882, -28973.806378103065, -32603.304994500282, -36133.070127137915, -10986.88822828391, -35503.24267187627, -25988.641499118985, -36312.12995196938, -32527.82315347471, -0.082, 0.984, 0.244, 192.0, 0.0, 0.0, 0.0, 0.0, 0.0, 0.0, 0.0, 0.0, 0.0, 1.741627698735813E9, 0.0, 2025-03-10 12:28:18.735
94.0, -29878.359124464885, -10640.167968293186, -36770.13954760308, -32275.047275429642, -17797.688281260525, -25494.8691123568, -24868.05914259662, -16982.296643530924, -28984.065828808052, -32618.705346429986, -36143.88837145428, -11002.623856380445, -35510.663451035434, -26004.33242372661, -36310.83355079097, -32549.414938618535, -0.082, 0.984, 0.244, 192.0, 0.0, 0.0, 0.0, 0.0, 0.0, 0.0, 0.0, 0.0, 0.0, 1.741627698735868E9, 0.0, 2025-03-10 12:28:18.735
98.0, -29862.511737646073, -10607.221496966064, -36753.62160845061, -32255.735368220256, -17781.393859552605, -25468.494053899536, -24837.48195618176, -16972.998317837515, -28963.926907053818, -32590.989183305406, -36120.95548164314, -10977.567550846046, -35493.51966303821, -25979.72315308132, -36283.18444289976, -32538.5296390688, -0.082, 0.982, 0.254, 192.0, 126.5, 56.0, 15.0, 88.0, 3.5, 120.0, 0.0, 0.0, 0.0, 1.741627698735896E9, 0.0, 2025-03-10 12:28:18.735
102.0, -29896.1064095624, -10620.096101772322, -36762.808175421735, -32260.071606644586, -17799.09644116121, -25475.93718480315, -24866.87450014049, -16983.749506920518, -28934.40025262836, -32575.25355520887, -36101.50946396702, -10959.820265748533, -35479.907450664934, -25965.19451918537, -36263.06787288998, -32523.82219121721, -0.082, 0.982, 0.254, 192.0, 0.0, 0.0, 0.0, 0.0, 0.0, 0.0, 0.0, 0.0, 0.0, 1.7416276987999E9, 0.0, 2025-03-10 12:28:18.799
104.0, -29857.795519566003, -10590.055357224388, -36745.30675951323, -32252.38260655196, -17779.33749906272, -25483.55912966241, -24855.78803489066, -17021.389844583256, -28927.895894991863, -32568.6374388501, -36104.19167330166, -10954.075867423519, -35505.701363766355, -25964.18869068488, -36318.969585772706, -32524.738612739875, -0.082, 0.982, 0.254, 192.0, 0.0, 0.0, 0.0, 0.0, 0.0, 0.0, 0.0, 0.0, 0.0, 1.741627698879084E9, 0.0, 2025-03-10 12:28:18.879
106.0, -29875.76632210807, -10578.052470451888, -36744.993835090856, -32237.31753078908, -17772.27434781484, -25449.94210600163, -24805.63072033295, -16924.763253302965, -28909.701575005245, -32556.031054977306, -36080.923507323685, -10942.02827716211, -35472.77724418369, -25949.257725388736, -36242.280750546546, -32518.77069697031, -0.082, 0.982, 0.254, 192.0, 0.0, 0.0, 0.0, 0.0, 0.0, 0.0, 0.0, 0.0, 0.0, 1.741627698879126E9, 0.0, 2025-03-10 12:28:18.879
108.0, -29853.9957230086, -10559.679336509626, -36744.1221170571, -32244.268923314685, -17770.933243147523, -25470.639821367244, -24851.20592727732, -16962.87297759926, -28895.44116204276, -32539.513115824833, -36086.77966437097, -10933.735779969189, -35494.97252642781, -25944.31798986411, -36303.12219895389, -32507.036031131272, -0.084, 0.976, 0.252, 192.0, 126.5, 48.0, 15.0, 64.0, 3.5, 112.0, 0.0, 0.0, 0.0, 1.741627698879153E9, 0.0, 2025-03-10 12:28:18.879
158.0, -29753.815204359915, -10355.227929976933, -36682.073674449166, -32195.340954702016, -17732.734111873404, -25422.605922532788, -24800.176894685854, -16926.417282392656, -28696.935319535176, -32420.579483578145, -35990.801273679885, -10821.150043147809, -35487.194119357366, -25892.88662587245, -36283.877346977875, -32477.487024961356, -0.084, 0.978, 0.23800000000000002, 192.0, 126.5, 48.0, 15.0, 72.0, 3.5, 56.0, 0.0, 0.0, 0.0, 1.741627698879207E9, 0.0, 2025-03-10 12:28:18.879
158.0, -29835.08614719941, -10493.36171071073, -36733.035651807266, -32227.125135317463, -17755.734056917914, -25442.007236719997, -24837.43725269285, -16958.961422319582, -28696.935319535176, -32420.579483578145, -35990.801273679885, -10821.150043147809, -35487.194119357366, -25892.88662587245, -36283.877346977875, -32477.487024961356, -0.084, 0.978, 0.23800000000000002, 192.0, 63.25, 24.0, 7.5, 36.0, 1.75, 28.0, 0.0, 0.0, 0.0, 1.741627698879239E9, 0.0, 2025-03-10 12:28:18.879
122.0, -29762.688846908673, -10367.320223727254, -36686.09698845112, -32202.18058850534, -17739.0373038098, -25430.764309258975, -24802.38971738693, -16951.384180949233, -28765.532823268513, -32475.743588893845, -36011.9013204457, -10869.429811171272, -35463.59067721256, -25929.007044912225, -36218.02910781254, -32494.85433040313, -0.084, 0.978, 0.23800000000000002, 192.0, 0.0, 0.0, 0.0, 0.0, 0.0, 0.0, 0.0, 0.0, 0.0, 1.741627698934479E9, 0.0, 2025-03-10 12:28:18.934
152.0, -29797.870492681326, -10389.984892604934, -36692.93662225445, -32192.256413967185, -17741.51834744434, -25431.591323803823, -24804.44607787682, -16937.950782531596, -28700.511598648027, -32433.677605828954, -35987.090884100304, -10831.52125257507, -35475.660619218426, -25892.663108427896, -36229.8531806294, -32487.679420432978, -0.084, 0.978, 0.23800000000000002, 192.0, 0.0, 0.0, 0.0, 0.0, 0.0, 0.0, 0.0, 0.0, 0.0, 1.741627698934542E9, 0.0, 2025-03-10 12:28:18.934
152.0, -29761.437149219175, -10349.52823514083, -36684.97940122836, -32195.40800993538, -17748.156815547565, -25437.916867484673, -24832.184592745853, -16950.78068384894, -28700.511598648027, -32433.677605828954, -35987.090884100304, -10831.52125257507, -35475.660619218426, -25892.663108427896, -36229.8531806294, -32487.679420432978, -0.084, 0.978, 0.23800000000000002, 192.0, 0.0, 0.0, 0.0, 0.0, 0.0, 0.0, 0.0, 0.0, 0.0, 1.74162769893457E9, 0.0, 2025-03-10 12:28:18.934
152.0, -29774.736437170082, -10376.283273253832, -36690.477930364366, -32200.548911160102, -17737.875013098124, -25435.36876861677, -24806.256569177698, -16939.738922088018, -28700.511598648027, -32433.677605828954, -35987.090884100304, -10831.52125257507, -35475.660619218426, -25892.663108427896, -36229.8531806294, -32487.679420432978, -0.084, 0.978, 0.23800000000000002, 192.0, 0.0, 0.0, 0.0, 0.0, 0.0, 0.0, 0.0, 0.0, 0.0, 1.741627698934601E9, 0.0, 2025-03-10 12:28:18.934
152.0, -29772.36715225782, -10362.67106088055, -36685.80641577321, -32201.37592570495, -17753.767103405848, -25452.378446147257, -24869.556709475128, -16982.676623186664, -28700.511598648027, -32433.677605828954, -35987.090884100304, -10831.52125257507, -35475.660619218426, -25892.663108427896, -36229.8531806294, -32487.679420432978, -0.084, 0.978, 0.23800000000000002, 192.0, 0.0, 0.0, 0.0, 0.0, 0.0, 0.0, 0.0, 0.0, 0.0, 1.74162769893463E9, 0.0, 2025-03-10 12:28:18.934
140.0, -29763.98524808708, -10350.66817410805, -36679.95025872591, -32186.534367386626, -17748.51444345885, -25439.213268663083, -24823.221543219275, -16945.84094832432, -28707.9770812961, -32437.969140764373, -35997.95383190559, -10843.971174236676, -35476.21941282981, -25911.975015637283, -36251.19909658421, -32490.786312912267, -0.084, 0.978, 0.23800000000000002, 192.0, 0.0, 0.0, 0.0, 0.0, 0.0, 0.0, 0.0, 0.0, 0.0, 1.741627698934657E9, 0.0, 2025-03-10 12:28:18.934
144.0, -29757.860870106328, -10347.404819417576, -36676.17281391297, -32197.531425658635, -17739.685504399004, -25434.27353313846, -24821.47810715176, -16958.447332197113, -28712.559188909436, -32443.80294606721, -35998.020887138955, -10845.848720770922, -35470.966752882814, -25922.010948897714, -36249.83564017244, -32510.612310244123, -0.084, 0.978, 0.23800000000000002, 192.0, 0.0, 0.0, 0.0, 0.0, 0.0, 0.0, 0.0, 0.0, 0.0, 1.741627698934688E9, 0.0, 2025-03-10 12:28:18.934
146.0, -29748.137861268267, -10336.743037312393, -36676.7092557799, -32187.18256797583, -17745.251088768375, -25438.36390237378, -24828.47420316627, -16965.10815204479, -28711.508656920036, -32445.12169899007, -35998.780846450434, -10843.390028880838, -35473.58190698408, -25920.31221631911, -36284.637306289354, -32510.76877245531, -0.084, 0.978, 0.23800000000000002, 192.0, 0.0, 0.0, 0.0, 0.0, 0.0, 0.0, 0.0, 0.0, 0.0, 1.741627698934715E9, 0.0, 2025-03-10 12:28:18.934
172.0, -29759.06786430691, -10362.29108122481, -36677.89389823603, -32204.214597250775, -17723.234620479896, -25449.696236812622, -24774.159464139877, -16963.007088065995, -28714.97317731061, -32443.33355943365, -36001.03837264042, -10841.244261413129, -35474.87830816249, -25912.0644226151, -36228.020337584065, -32486.80770239922, -0.084, 0.978, 0.23800000000000002, 192.0, 0.0, 0.0, 0.0, 0.0, 0.0, 0.0, 0.0, 0.0, 0.0, 1.741627698985176E9, 0.0, 2025-03-10 12:28:18.985
174.0, -29779.542062227974, -10366.71672662696, -36677.804491258205, -32190.445922666306, -17729.582515905204, -25419.65549226469, -24788.419877102362, -16922.863355024263, -28727.333691994394, -32451.111966504097, -36021.49021881702, -10857.404572654315, -35516.340794127085, -25920.602788997032, -36270.309838093504, -32492.082714090673, -0.084, 0.978, 0.23800000000000002, 192.0, 0.0, 0.0, 0.0, 0.0, 0.0, 0.0, 0.0, 0.0, 0.0, 1.741627698985235E9, 0.0, 2025-03-10 12:28:18.985
176.0, -29759.51489919602, -10360.81586609076, -36677.44686334692, -32192.770504089654, -17729.537812416293, -25421.22011437656, -24825.72493859827, -16927.06548298186, -28713.699127876658, -32437.879733786554, -35999.56315750637, -10838.226775911662, -35478.96867739781, -25902.676689943873, -36215.726878133646, -32462.779577109766, -0.084, 0.978, 0.23800000000000002, 192.0, 0.0, 0.0, 0.0, 0.0, 0.0, 0.0, 0.0, 0.0, 0.0, 1.741627699040449E9, 0.0, 2025-03-10 12:28:19.040
178.0, -29788.795684432473, -10374.763354630872, -36688.53332859675, -32197.196149491807, -17742.09949280018, -25427.322140612858, -24816.314854182587, -16957.419151952166, -28730.239418773584, -32446.462803657392, -36026.58641655283, -10852.28602317405, -35533.37282340203, -25917.071213373092, -36270.60041077142, -32483.656106431023, -0.084, 0.984, 0.24, 192.0, 126.5, 48.0, 15.0, 96.0, 3.5, 64.0, 0.0, 0.0, 0.0, 1.741627699040506E9, 0.0, 2025-03-10 12:28:19.040
186.0, -29757.056207305934, -10358.37952594513, -36681.73839828234, -32199.498379170705, -17729.18018450501, -25432.910076726686, -24791.43736260383, -16958.715553130576, -28727.043119316473, -32441.679530343954, -36008.146227377205, -10841.825406768967, -35514.105619681555, -25902.20730331031, -36243.77831742505, -32486.137150065562, -0.084, 0.984, 0.24, 192.0, 0.0, 0.0, 0.0, 0.0, 0.0, 0.0, 0.0, 0.0, 0.0, 1.741627699040578E9, 0.0, 2025-03-10 12:28:19.040
182.0, -29792.908405412247, -10370.248302250899, -36685.53819483974, -32197.03968728062, -17740.333704988207, -25422.807088232887, -24796.8017812731, -16946.131521002237, -28733.8827531198, -32445.38991992354, -36020.730259505544, -10852.956575507711, -35519.80531451766, -25913.76315519371, -36251.26615181758, -32478.24698427284, -0.084, 0.984, 0.24, 192.0, 0.0, 0.0, 0.0, 0.0, 0.0, 0.0, 0.0, 0.0, 0.0, 1.741627699040623E9, 0.0, 2025-03-10 12:28:19.040
182.0, -29782.872472151816, -10372.639938907616, -36684.26414540579, -32194.066905268064, -17740.04313231029, -25433.692387782623, -24819.80172631761, -16963.27530899946, -28733.8827531198, -32445.38991992354, -36020.730259505544, -10852.956575507711, -35519.80531451766, -25913.76315519371, -36251.26615181758, -32478.24698427284, -0.084, 0.984, 0.24, 192.0, 0.0, 0.0, 0.0, 0.0, 0.0, 0.0, 0.0, 0.0, 0.0, 1.741627699040672E9, 0.0, 2025-03-10 12:28:19.040
188.0, -29744.919210066702, -10356.658441622072, -36680.15142442601, -32200.57126290456, -17731.661228139546, -25429.758480758486, -24816.895999538425, -16940.25301221049, -28725.8808286048, -32441.210143710396, -36001.150131362694, -10841.110150946397, -35509.25529113475, -25912.198533081835, -36248.360425038394, -32487.590013455156, -0.078, 0.982, 0.242, 192.0, 126.5, 72.0, 15.0, 88.0, 3.5, 72.0, 0.0, 0.0, 0.0, 1.741627699040722E9, 0.0, 2025-03-10 12:28:19.040
190.0, -29787.61104197634, -10369.309528983777, -36689.8073780307, -32200.168931504362, -17743.574707934225, -25429.26674238047, -24830.0611770226, -16959.07318104186, -28723.73506113709, -32444.38409142305, -36001.150131362694, -10841.579537579959, -35519.917073239936, -25910.589207481054, -36237.76569816658, -32487.85823438862, -0.078, 0.982, 0.242, 192.0, 0.0, 0.0, 0.0, 0.0, 0.0, 0.0, 0.0, 0.0, 0.0, 1.74162769904077E9, 0.0, 2025-03-10 12:28:19.040
192.0, -29748.137861268267, -10359.653575379083, -36678.229174402855, -32199.99011754872, -17721.17825999001, -25437.55923957339, -24792.756115526692, -16941.01297152197, -28726.35021523836, -32446.41810016848, -36003.36295406377, -10844.19469168123, -35520.319404640126, -25922.368576809, -36250.01445412808, -32488.797007655743, -0.078, 0.982, 0.242, 192.0, 0.0, 0.0, 0.0, 0.0, 0.0, 0.0, 0.0, 0.0, 0.0, 1.741627699040814E9, 0.0, 2025-03-10 12:28:19.040
194.0, -29785.107646597346, -10379.323110499754, -36689.337991397144, -32196.682059369334, -17735.863356097147, -25423.92467545565, -24814.86199079299, -16952.16649200517, -28729.30064550646, -32447.84861181362, -36003.675878486145, -10849.536758606047, -35518.866541250536, -25914.277245316178, -36222.67827065924, -32489.489911733857, -0.078, 0.982, 0.242, 192.0, 0.0, 0.0, 0.0, 0.0, 0.0, 0.0, 0.0, 0.0, 0.0, 1.741627699107323E9, 0.0, 2025-03-10 12:28:19.107
196.0, -29759.336085240375, -10370.114191784167, -36683.99592447233, -32200.99594604921, -17725.715664114436, -25418.627312019744, -24808.91642676788, -16949.5513379039, -28740.49886947857, -32452.542478149237, -36015.52230304746, -10852.889520274344, -35524.432125619904, -25910.298634803134, -36250.5061925061, -32472.502585947823, -0.078, 0.982, 0.242, 192.0, 0.0, 0.0, 0.0, 0.0, 0.0, 0.0, 0.0, 0.0, 0.0, 1.741627699107378E9, 0.0, 2025-03-10 12:28:19.107
196.0, -29759.760768385026, -10365.24151149291, -36679.16794766998, -32195.005678535188, -17727.28028622631, -25428.84205923582, -24810.793973302123, -16957.285041485437, -28740.49886947857, -32452.542478149237, -36015.52230304746, -10852.889520274344, -35524.432125619904, -25910.298634803134, -36250.5061925061, -32472.502585947823, -0.078, 0.982, 0.242, 192.0, 0.0, 0.0, 0.0, 0.0, 0.0, 0.0, 0.0, 0.0, 0.0, 1.741627699107409E9, 0.0, 2025-03-10 12:28:19.107
196.0, -29791.61200423384, -10375.702127897994, -36689.762674541795, -32198.067867525562, -17729.60486764966, -25431.92659997065, -24787.39169685742, -16926.26082018147, -28740.49886947857, -32452.542478149237, -36015.52230304746, -10852.889520274344, -35524.432125619904, -25910.298634803134, -36250.5061925061, -32472.502585947823, -0.078, 0.982, 0.242, 192.0, 0.0, 0.0, 0.0, 0.0, 0.0, 0.0, 0.0, 0.0, 0.0, 1.741627699107436E9, 0.0, 2025-03-10 12:28:19.107
200.0, -29756.072730549902, -10357.843084078204, -36673.22238364487, -32191.22823372224, -17718.85367856666, -25416.16862012966, -24806.167162199876, -16939.470701154554, -28735.87205837632, -32443.825297811665, -36016.28226235894, -10845.62520332637, -35536.189143203395, -25903.347242277534, -36251.40026228431, -32461.99726605383, -0.078, 0.982, 0.242, 192.0, 0.0, 0.0, 0.0, 0.0, 0.0, 0.0, 0.0, 0.0, 0.0, 1.741627699107469E9, 0.0, 2025-03-10 12:28:19.107
202.0, -29781.821940162416, -10377.937302343524, -36681.872508749075, -32192.859911067477, -17729.850736838667, -25426.27160862346, -24794.56660682757, -16934.978000519037, -28729.792383884476, -32446.23928621284, -36002.37947730774, -10843.837063769945, -35500.11342765253, -25909.248102813734, -36201.801741337986, -32475.832995871664, -0.078, 0.982, 0.242, 192.0, 0.0, 0.0, 0.0, 0.0, 0.0, 0.0, 0.0, 0.0, 0.0, 1.741627699107496E9, 0.0, 2025-03-10 12:28:19.107
202.0, -29776.457521493143, -10374.316319741765, -36687.371037885074, -32197.03968728062, -17736.533908430803, -25430.4513848366, -24817.655958849904, -16952.97115480556, -28729.792383884476, -32446.23928621284, -36002.37947730774, -10843.837063769945, -35500.11342765253, -25909.248102813734, -36201.801741337986, -32475.832995871664, -0.078, 0.982, 0.242, 192.0, 0.0, 0.0, 0.0, 0.0, 0.0, 0.0, 0.0, 0.0, 0.0, 1.741627699107527E9, 0.0, 2025-03-10 12:28:19.107
202.0, -29778.290364538476, -10379.501924455397, -36690.27676466427, -32202.068829783064, -17741.585402677705, -25432.708911026588, -24822.081604252053, -16959.11788453077, -28729.792383884476, -32446.23928621284, -36002.37947730774, -10843.837063769945, -35500.11342765253, -25909.248102813734, -36201.801741337986, -32475.832995871664, -0.078, 0.982, 0.242, 192.0, 0.0, 0.0, 0.0, 0.0, 0.0, 0.0, 0.0, 0.0, 0.0, 1.741627699107552E9, 0.0, 2025-03-10 12:28:19.107
208.0, -29762.1747567862, -10368.258996994377, -36681.62663956006, -32198.313736714572, -17738.769082876337, -25430.31727436987, -24832.273999723675, -16950.423055937656, -28735.469726976127, -32449.055606014208, -36021.69138451712, -10853.224796441174, -35544.012253762754, -25912.399698781934, -36280.65869577631, -32486.76299891031, -0.08, 0.972, 0.25, 192.0, 126.5, 64.0, 15.0, 48.0, 3.5, 104.0, 0.0, 0.0, 0.0, 1.741627699107582E9, 0.0, 2025-03-10 12:28:19.107
212.0, -29774.31175402543, -10368.460162694475, -36689.11447395259, -32200.12422801545, -17735.550431674772, -25435.391120361226, -24801.0039092307, -16952.12178851626, -28739.381282255803, -32444.56290537869, -36023.01013743998, -10848.28506091655, -35545.30865494116, -25909.18104758037, -36272.50030905012, -32482.58322269717, -0.08, 0.972, 0.25, 192.0, 0.0, 0.0, 0.0, 0.0, 0.0, 0.0, 0.0, 0.0, 0.0, 1.741627699107611E9, 0.0, 2025-03-10 12:28:19.107
214.0, -29770.489605723575, -10365.710898126472, -36688.19805242992, -32194.17866399034, -17731.214193250442, -25411.854733449785, -24783.56954855556, -16922.55043060189, -28736.855535132356, -32448.496812402824, -36010.42610531165, -10848.9109097613, -35517.391326116485, -25905.872989400985, -36201.04178202651, -32487.14297856605, -0.08, 0.972, 0.25, 192.0, 0.0, 0.0, 0.0, 0.0, 0.0, 0.0, 0.0, 0.0, 0.0, 1.74162769913535E9, 0.0, 2025-03-10 12:28:19.135
216.0, -29778.290364538476, -10378.496095954908, -36694.70241006642, -32205.868626340467, -17736.600963664172, -25435.36876861677, -24813.789107059136, -16969.578500935855, -28736.050872331965, -32446.23928621284, -36023.77009675147, -10851.8613400294, -35554.51757365675, -25904.17425682238, -36270.48865204914, -32482.33735350816, -0.08, 0.972, 0.25, 192.0, 0.0, 0.0, 0.0, 0.0, 0.0, 0.0, 0.0, 0.0, 0.0, 1.741627699180449E9, 0.0, 2025-03-10 12:28:19.180
218.0, -29771.47308247961, -10379.144296544111, -36698.2116339459, -32208.975518819752, -17743.194728278486, -25435.45817559459, -24831.49168866774, -16965.48813170053, -28743.628113702314, -32461.103196275617, -36016.79635248141, -10859.706802333212, -35530.06476522264, -25921.340396564057, -36221.69479390321, -32515.775563213298, -0.08, 0.974, 0.258, 192.0, 126.5, 64.0, 15.0, 56.0, 4.0, 8.0, 0.0, 0.0, 0.0, 1.741627699180527E9, 0.0, 2025-03-10 12:28:19.180
220.0, -29776.345762770867, -10372.103497040689, -36691.32729665367, -32197.486722169728, -17738.79143462079, -25433.714739527077, -24813.319720425574, -16960.034306053436, -28734.240381031083, -32443.735890833843, -36021.020832183465, -10849.492055117138, -35550.874239310535, -25920.871009930495, -36278.82585273097, -32487.65706868852, -0.08, 0.974, 0.258, 192.0, 0.0, 0.0, 0.0, 0.0, 0.0, 0.0, 0.0, 0.0, 0.0, 1.74162769918058E9, 0.0, 2025-03-10 12:28:19.180
222.0, -29764.812262631927, -10371.142372029111, -36695.64118333354, -32211.747135132213, -17737.092702042188, -25434.56410581638, -24824.853220564513, -16942.644648867208, -28733.860401375343, -32452.69894036042, -36009.46498030007, -10852.867168529889, -35514.35148887056, -25916.98180639527, -36221.158352036284, -32497.827112415685, -0.08, 0.974, 0.258, 192.0, 0.0, 0.0, 0.0, 0.0, 0.0, 0.0, 0.0, 0.0, 0.0, 1.741627699180625E9, 0.0, 2025-03-10 12:28:19.180
224.0, -29783.788893674482, -10375.411555220075, -36695.50707286681, -32206.69564088531, -17741.540699188794, -25437.08985293983, -24839.091281782545, -16967.723306146065, -28740.476517734114, -32453.32478920517, -36027.301672375404, -10859.930319777766, -35552.93059980042, -25919.68636747436, -36272.545012539034, -32494.027315858286, -0.08, 0.974, 0.258, 192.0, 0.0, 0.0, 0.0, 0.0, 0.0, 0.0, 0.0, 0.0, 0.0, 1.741627699180681E9, 0.0, 2025-03-10 12:28:19.180
226.0, -29756.519765439007, -10356.85960732217, -36692.422532131975, -32206.69564088531, -17732.108263028655, -25440.152041930207, -24820.941665284834, -16968.93030034665, -28736.721424665622, -32450.173193236973, -36011.18606462313, -10853.895348774833, -35526.823762276625, -25912.824381926584, -36229.272035273556, -32498.967051382908, -0.08, 0.974, 0.258, 192.0, 0.0, 0.0, 0.0, 0.0, 0.0, 0.0, 0.0, 0.0, 0.0, 1.741627699287629E9, 0.0, 2025-03-10 12:28:19.287
228.0, -29786.89578615377, -10376.86441860967, -36695.663535078, -32196.302079713594, -17741.361885233153, -25433.044187193416, -24814.504362881704, -16940.856509310783, -28744.857459647355, -32451.51429790429, -36027.83811424233, -10856.979889509665, -35568.621524408045, -25916.020681383692, -36263.112576378895, -32495.23431005887, -0.076, 0.976, 0.254, 192.0, 126.5, 80.0, 15.0, 64.0, 3.5, 120.0, 0.0, 0.0, 0.0, 1.741627699287708E9, 0.0, 2025-03-10 12:28:19.287
230.0, -29751.2224020031, -10358.960671300969, -36691.17083444248, -32205.578053662546, -17743.0382660673, -25436.441652350626, -24836.990217803745, -16964.996393322515, -28733.59218044188, -32444.27233270077, -36005.50872153148, -10848.106246960908, -35526.756707043256, -25905.045974856137, -36238.34684352241, -32492.90972863552, -0.076, 0.976, 0.254, 192.0, 0.0, 0.0, 0.0, 0.0, 0.0, 0.0, 0.0, 0.0, 0.0, 1.741627699287764E9, 0.0, 2025-03-10 12:28:19.287
230.0, -29769.50612896754, -10373.556360430284, -36677.156290669, -32190.155349988385, -17728.12965251561, -25421.980073688042, -24798.701679551803, -16938.01783776496, -28733.59218044188, -32444.27233270077, -36005.50872153148, -10848.106246960908, -35526.756707043256, -25905.045974856137, -36238.34684352241, -32492.90972863552, -0.076, 0.976, 0.254, 192.0, 0.0, 0.0, 0.0, 0.0, 0.0, 0.0, 0.0, 0.0, 0.0, 1.741627699287806E9, 0.0, 2025-03-10 12:28:19.287
230.0, -29781.352553528854, -10375.00922381988, -36691.81903503168, -32198.26903322566, -17743.75352188987, -25433.31240812688, -24837.236086992754, -16961.151893276205, -28733.59218044188, -32444.27233270077, -36005.50872153148, -10848.106246960908, -35526.756707043256, -25905.045974856137, -36238.34684352241, -32492.90972863552, -0.076, 0.976, 0.254, 192.0, 0.0, 0.0, 0.0, 0.0, 0.0, 0.0, 0.0, 0.0, 0.0, 1.741627699287849E9, 0.0, 2025-03-10 12:28:19.287
236.0, -29791.94728040067, -10380.95478784499, -36702.12318922558, -32207.500303685705, -17748.357981247664, -25459.352190417314, -24824.942627542332, -16973.26653877098, -28740.96825611213, -32442.864172800088, -36025.26766362997, -10854.700011575223, -35561.58072490463, -25913.025547626683, -36238.48095398914, -32507.326603809193, -0.076, 0.976, 0.254, 192.0, 0.0, 0.0, 0.0, 0.0, 0.0, 0.0, 0.0, 0.0, 0.0, 1.741627699383759E9, 0.0, 2025-03-10 12:28:19.383
240.0, -29794.51773101303, -10376.104459298189, -36705.632413105064, -32206.539178674124, -17754.79528365079, -25447.57282108937, -24833.123366012976, -16999.194562339137, -28743.203430557664, -32448.385053680548, -36021.17729439465, -10851.704877818212, -35555.344588201595, -25922.32387332009, -36239.37502376736, -32508.71241196542, -0.07200000000000001, 0.982, 0.25, 192.0, 0.0, 0.0, 0.0, 0.0, 0.0, 0.0, 0.0, 0.0, 0.0, 1.741627699413814E9, 0.0, 2025-03-10 12:28:19.413
8.0, -29784.593556474872, -10375.411555220075, -36690.58968908664, -32192.882262811934, -17737.584440420203, -25438.676826796156, -24813.8561622925, -16970.02553582496, -28748.009055615552, -32460.924382319976, -36008.21328261057, -10855.81759879799, -35549.8907625545, -25923.46381228731, -36212.64233739881, -32506.700754964444, -0.07200000000000001, 0.982, 0.25, 192.0, 0.0, 0.0, 0.0, 0.0, 0.0, 0.0, 0.0, 0.0, 0.0, 1.741627699450857E9, 0.0, 2025-03-10 12:28:19.450
252.0, -29773.90942262524, -10373.109325541178, -36686.63343031805, -32191.876434311445, -17732.018856050832, -25422.09183241032, -24791.973804470756, -16941.594116877808, -28738.375453755314, -32450.933152548452, -36011.52134078996, -10853.425962141271, -35548.25908520926, -25918.524076762686, -36211.70356413169, -32507.505417764834, -0.07200000000000001, 0.982, 0.25, 192.0, 0.0, 0.0, 0.0, 0.0, 0.0, 0.0, 0.0, 0.0, 0.0, 1.741627699498997E9, 0.0, 2025-03-10 12:28:19.498
0.0, -29766.868623121816, -10357.127828255634, -36685.89582275103, -32186.444960408804, -17743.08296955621, -25432.708911026588, -24851.742369144245, -16996.60175998232, -28728.227761772607, -32446.261637957294, -35995.852767926786, -10843.457084114205, -35535.36212865855, -25904.375422522477, -36209.93777631972, -32509.874702677098, -0.07200000000000001, 0.982, 0.25, 192.0, 0.0, 0.0, 0.0, 0.0, 0.0, 0.0, 0.0, 0.0, 0.0, 1.741627699525965E9, 0.0, 2025-03-10 12:28:19.525
36.0, -29740.15828849772, -10352.568072386752, -36681.31371513769, -32195.56447214657, -17726.341512959185, -25420.88483820973, -24805.273092421663, -16935.894422041707, -28870.27309778608, -32490.451036745435, -36074.10622526482, -10897.235381273673, -35599.37752477855, -25932.65037925844, -36272.14268113884, -32507.25954857583, -0.07200000000000001, 0.982, 0.25, 192.0, 0.0, 0.0, 0.0, 0.0, 0.0, 0.0, 0.0, 0.0, 0.0, 1.7416276995901E9, 0.0, 2025-03-10 12:28:19.590
22.0, -29789.063905365936, -10391.415404250074, -36705.78887531625, -32212.7529636327, -17747.285097513806, -25452.780777547454, -24812.44800239182, -16948.344343703313, -28744.32101778043, -32451.7601670933, -36015.16467513617, -10861.114962233898, -35585.51944321626, -25929.1188036345, -36257.90461992081, -32508.555949754234, -0.076, 0.98, 0.254, 192.0, 126.5, 80.0, 15.0, 80.0, 3.5, 120.0, 0.0, 0.0, 0.0, 1.741627699656222E9, 0.0, 2025-03-10 12:28:19.656
56.0, -29890.96550833768, -10618.57618314936, -36740.81405887772, -32240.782051179656, -17752.403646994073, -25447.19284143363, -24833.14571775743, -16960.41428570918, -29035.31837884407, -32568.838604550197, -36155.3324646154, -10965.519960584637, -35651.52414459278, -25963.71930405132, -36305.98322224417, -32542.44119434848, -0.076, 0.98, 0.254, 192.0, 0.0, 0.0, 0.0, 0.0, 0.0, 0.0, 0.0, 0.0, 0.0, 1.74162769965629E9, 0.0, 2025-03-10 12:28:19.656
54.0, -29844.473879870642, -10537.215833332042, -36726.531294170774, -32225.985196350244, -17749.587327192705, -25438.07332969586, -24830.083528767056, -16965.868111356274, -29015.671195467854, -32566.40226440457, -36124.53176075599, -10949.225538876717, -35609.92754816145, -25955.404455113945, -36231.7530789081, -32539.021377446817, -0.076, 0.98, 0.254, 192.0, 0.0, 0.0, 0.0, 0.0, 0.0, 0.0, 0.0, 0.0, 0.0, 1.741627699656323E9, 0.0, 2025-03-10 12:28:19.656
52.0, -29897.648679929818, -10650.673288187181, -36745.88790486907, -32249.990969895243, -17762.327821532228, -25449.47271936807, -24831.15641250091, -16956.167454262668, -29009.300948298092, -32552.119499697626, -36130.18675210318, -10939.8825096944, -35656.32976965067, -25955.4268068584, -36306.27379492209, -32538.082604179694, -0.07200000000000001, 0.98, 0.258, 192.0, 126.5, 96.0, 15.0, 80.0, 4.0, 8.0, 0.0, 0.0, 0.0, 1.74162769965635E9, 0.0, 2025-03-10 12:28:19.656
52.0, -29923.44259303124, -10678.21063735612, -36758.89662014206, -32262.48559504576, -17765.188844822507, -25469.835158566853, -24846.73557838626, -16990.96912037958, -29009.300948298092, -32552.119499697626, -36130.18675210318, -10939.8825096944, -35656.32976965067, -25955.4268068584, -36306.27379492209, -32538.082604179694, -0.07200000000000001, 0.98, 0.258, 192.0, 63.25, 48.0, 7.5, 40.0, 2.0, 4.0, 0.0, 0.0, 0.0, 1.741627699692245E9, 0.0, 2025-03-10 12:28:19.692
58.0, -29853.883964286324, -10479.83890531527, -36723.62556739159, -32213.8034956221, -17766.99933612339, -25429.154983658194, -24833.77156660218, -16958.581442663843, -29027.98700666273, -32580.573270389235, -36141.183810375194, -10965.251739651172, -35617.080106387155, -25958.198423170856, -36244.2030005697, -32546.419804861525, -0.07200000000000001, 0.98, 0.258, 192.0, 0.0, 0.0, 0.0, 0.0, 0.0, 0.0, 0.0, 0.0, 0.0, 1.741627699692277E9, 0.0, 2025-03-10 12:28:19.692
58.0, -29829.18528666321, -10485.31508270682, -36721.23393073487, -32223.81707713808, -17750.391989993095, -25437.46983259557, -24814.68317683735, -16966.806884623395, -29027.98700666273, -32580.573270389235, -36141.183810375194, -10965.251739651172, -35617.080106387155, -25958.198423170856, -36244.2030005697, -32546.419804861525, -0.07200000000000001, 0.98, 0.258, 192.0, 0.0, 0.0, 0.0, 0.0, 0.0, 0.0, 0.0, 0.0, 0.0, 1.74162769969231E9, 0.0, 2025-03-10 12:28:19.692
58.0, -29899.995613097624, -10590.9494270026, -36742.15516354504, -32229.89675162992, -17771.112057103164, -25440.643780308223, -24845.39447371894, -16970.539625947433, -29027.98700666273, -32580.573270389235, -36141.183810375194, -10965.251739651172, -35617.080106387155, -25958.198423170856, -36244.2030005697, -32546.419804861525, -0.07200000000000001, 0.98, 0.258, 192.0, 0.0, 0.0, 0.0, 0.0, 0.0, 0.0, 0.0, 0.0, 0.0, 1.74162769969234E9, 0.0, 2025-03-10 12:28:19.692
66.0, -29877.19683375321, -10605.478060898551, -36740.36702398861, -32246.481746015757, -17764.987679122412, -25469.52223414448, -24837.705473626313, -17000.714480962095, -28975.080427537017, -32557.886249767096, -36109.936071626675, -10941.156559128352, -35550.22603872133, -25944.452100330844, -36253.85895417439, -32535.62391228961, -0.07200000000000001, 0.98, 0.258, 192.0, 0.0, 0.0, 0.0, 0.0, 0.0, 0.0, 0.0, 0.0, 0.0, 1.741627699749357E9, 0.0, 2025-03-10 12:28:19.749
66.0, -29782.26897505152, -10378.67490991055, -36698.59161360164, -32211.255396754193, -17764.115961088653, -25440.80024251941, -24873.423561265896, -16998.278140816466, -28975.080427537017, -32557.886249767096, -36109.936071626675, -10941.156559128352, -35550.22603872133, -25944.452100330844, -36253.85895417439, -32535.62391228961, -0.07200000000000001, 0.98, 0.258, 192.0, 0.0, 0.0, 0.0, 0.0, 0.0, 0.0, 0.0, 0.0, 0.0, 1.741627699765384E9, 0.0, 2025-03-10 12:28:19.765
90.0, -29793.198978090168, -10385.693357669516, -36698.94924151293, -32208.684946141835, -17761.7913796653, -25431.524268570458, -24839.873592838478, -16972.238358526036, -28745.12568058082, -32466.020580055785, -36018.60684378229, -10875.509485663115, -35482.41084604393, -25921.787431453162, -36277.64121027484, -32474.536594693258, -0.07200000000000001, 0.98, 0.258, 192.0, 0.0, 0.0, 0.0, 0.0, 0.0, 0.0, 0.0, 0.0, 0.0, 1.741627699809464E9, 0.0, 2025-03-10 12:28:19.809
102.0, -29779.162082572235, -10377.177343032045, -36695.32825891117, -32212.060059554587, -17747.307449258264, -25434.497050583013, -24815.264322193187, -16968.907948602195, -28740.811793900943, -32461.885507331554, -36025.26766362997, -10874.77187809609, -35492.20091011535, -25922.32387332009, -36296.77430352859, -32489.489911733857, -0.076, 0.978, 0.242, 192.0, 126.5, 80.0, 15.0, 72.0, 3.5, 72.0, 0.0, 0.0, 0.0, 1.741627699809518E9, 0.0, 2025-03-10 12:28:19.809
102.0, -29785.532329741996, -10379.233703521932, -36695.32825891117, -32206.494475185216, -17748.134463803108, -25422.98590218853, -24822.036900763145, -16968.729134646554, -28740.811793900943, -32461.885507331554, -36025.26766362997, -10874.77187809609, -35492.20091011535, -25922.32387332009, -36296.77430352859, -32489.489911733857, -0.076, 0.978, 0.242, 192.0, 63.25, 40.0, 7.5, 36.0, 1.75, 36.0, 0.0, 0.0, 0.0, 1.741627699809547E9, 0.0, 2025-03-10 12:28:19.809
102.0, -29804.643071251285, -10387.414441992574, -36705.498302638334, -32209.020222308664, -17771.46968501445, -25440.867297752775, -24859.34196225905, -16959.96725082007, -28740.811793900943, -32461.885507331554, -36025.26766362997, -10874.77187809609, -35492.20091011535, -25922.32387332009, -36296.77430352859, -32489.489911733857, -0.076, 0.978, 0.242, 192.0, 31.625, 20.0, 3.75, 18.0, 0.875, 18.0, 0.0, 0.0, 0.0, 1.74162769980958E9, 0.0, 2025-03-10 12:28:19.809
98.0, -29794.785951946495, -10382.541761701317, -36703.464293892896, -32212.261225254682, -17752.001315593876, -25420.147230642706, -24829.994121789234, -16971.366640492277, -28739.180116555708, -32464.813585855198, -36020.864369972274, -10874.660119373813, -35483.43902628887, -25930.99635016875, -36290.49346333664, -32489.71342917841, -0.076, 0.978, 0.242, 192.0, 0.0, 0.0, 0.0, 0.0, 0.0, 0.0, 0.0, 0.0, 0.0, 1.741627699857531E9, 0.0, 2025-03-10 12:28:19.857
140.0, -29787.499283254063, -10373.48930519692, -36691.372000142575, -32200.414800693372, -17761.85843489867, -25429.22203889156, -24826.37313918747, -16942.957573289583, -28733.525125208515, -32463.561888165703, -36012.750686735, -10873.006090284121, -35497.83354971809, -25932.98565542527, -36289.241765647144, -32491.61332745711, -0.076, 0.978, 0.242, 192.0, 0.0, 0.0, 0.0, 0.0, 0.0, 0.0, 0.0, 0.0, 0.0, 1.741627699924643E9, 0.0, 2025-03-10 12:28:19.924
114.0, -29790.1814925887, -10373.57871217474, -36692.556642598705, -32195.676230868845, -17760.51733023135, -25435.61463780578, -24841.68408413936, -16952.188843749624, -28717.610683156334, -32446.082824001653, -35999.09377087281, -10860.466761644693, -35474.69949420685, -25915.908922661416, -36285.08434117846, -32482.09148431915, -0.08, 0.972, 0.242, 192.0, 0.0, 0.0, 0.0, 0.0, 0.0, 0.0, 0.0, 0.0, 0.0, 1.741627699924683E9, 0.0, 2025-03-10 12:28:19.924
134.0, -29764.02995157599, -10362.022860291347, -36689.695619308426, -32199.9007105709, -17752.7389231609, -25438.94504772962, -24832.564572401592, -16946.757369846986, -28720.69522389117, -32456.454033428912, -35991.36006729127, -10860.9137965338, -35481.29325882116, -25916.668881972895, -36222.67827065924, -32482.471463974893, -0.08, 0.972, 0.242, 192.0, 0.0, 0.0, 0.0, 0.0, 0.0, 0.0, 0.0, 0.0, 0.0, 1.741627699924732E9, 0.0, 2025-03-10 12:28:19.924
134.0, -29758.062035806423, -10358.737153856417, -36687.952183240915, -32197.21850123626, -17751.286059771308, -25415.855695707287, -24816.91835128288, -16954.334611217335, -28720.69522389117, -32456.454033428912, -35991.36006729127, -10860.9137965338, -35481.29325882116, -25916.668881972895, -36222.67827065924, -32482.471463974893, -0.08, 0.972, 0.242, 192.0, 0.0, 0.0, 0.0, 0.0, 0.0, 0.0, 0.0, 0.0, 0.0, 1.74162769995667E9, 0.0, 2025-03-10 12:28:19.956
180.0, -29760.721893396607, -10363.47572368094, -36694.34478215513, -32208.7520013752, -17746.055751568765, -25423.812916733375, -24845.640342907947, -16962.02361130996, -28731.49111646308, -32450.46376591489, -35991.98591613602, -10852.867168529889, -35498.01236367373, -25906.588245223553, -36226.03103232754, -32472.390827225547, -0.078, 0.98, 0.244, 192.0, 0.0, 0.0, 0.0, 0.0, 0.0, 0.0, 0.0, 0.0, 0.0, 1.741627699956705E9, 0.0, 2025-03-10 12:28:19.956
180.0, -29794.763600202037, -10375.05392730879, -36682.766578527284, -32194.893919812912, -17753.029495838822, -25430.429033092147, -24821.791031574136, -16977.669832428674, -28731.49111646308, -32450.46376591489, -35991.98591613602, -10852.867168529889, -35498.01236367373, -25906.588245223553, -36226.03103232754, -32472.390827225547, -0.078, 0.98, 0.244, 192.0, 0.0, 0.0, 0.0, 0.0, 0.0, 0.0, 0.0, 0.0, 0.0, 1.741627700019677E9, 0.0, 2025-03-10 12:28:20.019
180.0, -29804.397202062275, -10388.86730538217, -36702.97255551488, -32210.584844420537, -17758.170397063543, -25444.600039076813, -24821.05342400711, -16972.93126260415, -28731.49111646308, -32450.46376591489, -35991.98591613602, -10852.867168529889, -35498.01236367373, -25906.588245223553, -36226.03103232754, -32472.390827225547, -0.078, 0.98, 0.244, 192.0, 0.0, 0.0, 0.0, 0.0, 0.0, 0.0, 0.0, 0.0, 0.0, 1.741627700019713E9, 0.0, 2025-03-10 12:28:20.019
150.0, -29764.544041698464, -10366.962595815969, -36686.007581473306, -32205.84627459601, -17747.687428914003, -25431.479565081547, -24848.456662709315, -16982.58721620884, -28740.074186333917, -32470.42387371348, -36005.37461106475, -10879.421040942794, -35468.35159878154, -25931.398681568942, -36213.69286938821, -32497.693001948955, -0.078, 0.98, 0.244, 192.0, 0.0, 0.0, 0.0, 0.0, 0.0, 0.0, 0.0, 0.0, 0.0, 1.741627700019759E9, 0.0, 2025-03-10 12:28:20.019
150.0, -29787.27576580951, -10381.446526223008, -36687.34868614062, -32203.812265850578, -17750.74961790438, -25429.02087319146, -24833.682159624357, -16978.45214348461, -28740.074186333917, -32470.42387371348, -36005.37461106475, -10879.421040942794, -35468.35159878154, -25931.398681568942, -36213.69286938821, -32497.693001948955, -0.078, 0.98, 0.244, 192.0, 0.0, 0.0, 0.0, 0.0, 0.0, 0.0, 0.0, 0.0, 0.0, 1.741627700019789E9, 0.0, 2025-03-10 12:28:20.019
150.0, -29804.307795084453, -10391.683625183538, -36696.3117356672, -32203.633451894937, -17758.908004630568, -25408.88195143723, -24814.459659392796, -16953.798169350408, -28740.074186333917, -32470.42387371348, -36005.37461106475, -10879.421040942794, -35468.35159878154, -25931.398681568942, -36213.69286938821, -32497.693001948955, -0.078, 0.98, 0.244, 192.0, 0.0, 0.0, 0.0, 0.0, 0.0, 0.0, 0.0, 0.0, 0.0, 1.741627700019815E9, 0.0, 2025-03-10 12:28:20.019
150.0, -29794.02599263501, -10387.459145481485, -36700.536215369255, -32216.284539256638, -17756.806940651768, -25434.072367438363, -24835.112671269497, -16963.87880609975, -28740.074186333917, -32470.42387371348, -36005.37461106475, -10879.421040942794, -35468.35159878154, -25931.398681568942, -36213.69286938821, -32497.693001948955, -0.078, 0.98, 0.244, 192.0, 0.0, 0.0, 0.0, 0.0, 0.0, 0.0, 0.0, 0.0, 0.0, 1.741627700019841E9, 0.0, 2025-03-10 12:28:20.019
150.0, -29759.55960268493, -10368.817790605759, -36683.817110516684, -32201.442980938315, -17740.914850344045, -25423.03060567744, -24817.611255360993, -16950.378352448744, -28740.074186333917, -32470.42387371348, -36005.37461106475, -10879.421040942794, -35468.35159878154, -25931.398681568942, -36213.69286938821, -32497.693001948955, -0.078, 0.98, 0.244, 192.0, 0.0, 0.0, 0.0, 0.0, 0.0, 0.0, 0.0, 0.0, 0.0, 1.741627700019868E9, 0.0, 2025-03-10 12:28:20.019
150.0, -29781.71018144014, -10382.675872168049, -36690.388523386544, -32203.365230961474, -17754.862338884155, -25415.87804745174, -24857.844395380547, -16966.203387523103, -28740.074186333917, -32470.42387371348, -36005.37461106475, -10879.421040942794, -35468.35159878154, -25931.398681568942, -36213.69286938821, -32497.693001948955, -0.078, 0.98, 0.244, 192.0, 0.0, 0.0, 0.0, 0.0, 0.0, 0.0, 0.0, 0.0, 0.0, 1.741627700019894E9, 0.0, 2025-03-10 12:28:20.019
150.0, -29795.076524624412, -10386.72153791446, -36688.53332859675, -32199.967765804264, -17751.397818493584, -25424.282303366937, -24834.0621392801, -16957.754428118995, -28740.074186333917, -32470.42387371348, -36005.37461106475, -10879.421040942794, -35468.35159878154, -25931.398681568942, -36213.69286938821, -32497.693001948955, -0.078, 0.98, 0.244, 192.0, 0.0, 0.0, 0.0, 0.0, 0.0, 0.0, 0.0, 0.0, 0.0, 1.741627700019923E9, 0.0, 2025-03-10 12:28:20.019
150.0, -29789.823864677415, -10381.401822734097, -36683.88416575005, -32199.118399514962, -17743.8876323566, -25417.286207352427, -24803.37319414296, -16929.054788238383, -28740.074186333917, -32470.42387371348, -36005.37461106475, -10879.421040942794, -35468.35159878154, -25931.398681568942, -36213.69286938821, -32497.693001948955, -0.078, 0.98, 0.244, 192.0, 0.0, 0.0, 0.0, 0.0, 0.0, 0.0, 0.0, 0.0, 0.0, 1.741627700019953E9, 0.0, 2025-03-10 12:28:20.019
150.0, -29761.54890794145, -10377.445563965508, -36687.0581134627, -32206.807399607587, -17746.41337948005, -25410.156000871182, -24828.138926999443, -16946.6009076358, -28740.074186333917, -32470.42387371348, -36005.37461106475, -10879.421040942794, -35468.35159878154, -25931.398681568942, -36213.69286938821, -32497.693001948955, -0.078, 0.98, 0.244, 192.0, 0.0, 0.0, 0.0, 0.0, 0.0, 0.0, 0.0, 0.0, 0.0, 1.741627700019978E9, 0.0, 2025-03-10 12:28:20.019
150.0, -29778.156254071746, -10372.818752863259, -36689.203880930414, -32211.545969432114, -17747.66507716955, -25436.352245372804, -24816.985406516244, -16988.331614533858, -28740.074186333917, -32470.42387371348, -36005.37461106475, -10879.421040942794, -35468.35159878154, -25931.398681568942, -36213.69286938821, -32497.693001948955, -0.078, 0.98, 0.244, 192.0, 0.0, 0.0, 0.0, 0.0, 0.0, 0.0, 0.0, 0.0, 0.0, 1.741627700020011E9, 0.0, 2025-03-10 12:28:20.020
160.0, -29794.65184147976, -10385.91687511407, -36691.19318618694, -32200.258338482185, -17747.508614958362, -25427.143326657217, -24809.028185490155, -16948.45610242559, -28745.237439303095, -32462.131376520563, -36020.529093805446, -10886.081860790475, -35519.9841284733, -25929.901114690438, -36281.10573066542, -32500.8222461727, -0.078, 0.98, 0.244, 192.0, 0.0, 0.0, 0.0, 0.0, 0.0, 0.0, 0.0, 0.0, 0.0, 1.741627700020037E9, 0.0, 2025-03-10 12:28:20.020
160.0, -29796.819960691926, -10380.48540121143, -36681.31371513769, -32190.557681388582, -17752.113074316156, -25421.957721943585, -24834.57622940257, -16946.73501810253, -28745.237439303095, -32462.131376520563, -36020.529093805446, -10886.081860790475, -35519.9841284733, -25929.901114690438, -36281.10573066542, -32500.8222461727, -0.078, 0.98, 0.244, 192.0, 0.0, 0.0, 0.0, 0.0, 0.0, 0.0, 0.0, 0.0, 0.0, 1.741627700040789E9, 0.0, 2025-03-10 12:28:20.040
182.0, -29766.84627137736, -10367.543741171807, -36677.62567730256, -32196.61500413597, -17745.38519923511, -25424.774041744953, -24824.741461842237, -16965.13050378925, -28738.420157244225, -32450.195544981427, -36007.43097155463, -10858.365697665895, -35510.37287835752, -25918.971111651794, -36269.59458227093, -32480.795083140743, -0.078, 0.982, 0.24, 192.0, 126.5, 72.0, 15.0, 88.0, 3.5, 64.0, 0.0, 0.0, 0.0, 1.741627700103689E9, 0.0, 2025-03-10 12:28:20.103
186.0, -29763.56056494243, -10368.482514438929, -36676.64220054653, -32199.14075125942, -17744.669943412537, -25404.992747902008, -24839.225392249275, -16937.839023809316, -28736.967293854632, -32451.31313220419, -36005.26285234247, -10859.81856105549, -35516.36314587154, -25921.586265753063, -36273.12615789487, -32491.94860362394, -0.078, 0.982, 0.24, 192.0, 0.0, 0.0, 0.0, 0.0, 0.0, 0.0, 0.0, 0.0, 0.0, 1.741627700103729E9, 0.0, 2025-03-10 12:28:20.103
188.0, -29762.1747567862, -10370.762392373372, -36676.552793568706, -32202.627623394448, -17732.264725239842, -25444.063597209883, -24806.256569177698, -16993.94190239214, -28732.251075774562, -32450.106138003608, -35993.28231731443, -10855.370563908884, -35496.917128195426, -25902.743745177242, -36216.35272697839, -32476.52589994978, -0.078, 0.982, 0.24, 192.0, 0.0, 0.0, 0.0, 0.0, 0.0, 0.0, 0.0, 0.0, 0.0, 1.741627700103756E9, 0.0, 2025-03-10 12:28:20.103
188.0, -29767.338009755375, -10377.1996947765, -36683.21361341639, -32202.918196072365, -17746.1898620355, -25432.194820904115, -24847.987276075757, -16968.55032069091, -28732.251075774562, -32450.106138003608, -35993.28231731443, -10855.370563908884, -35496.917128195426, -25902.743745177242, -36216.35272697839, -32476.52589994978, -0.078, 0.982, 0.24, 192.0, 0.0, 0.0, 0.0, 0.0, 0.0, 0.0, 0.0, 0.0, 0.0, 1.741627700103783E9, 0.0, 2025-03-10 12:28:20.103
188.0, -29781.061980850936, -10378.473744210452, -36685.89582275103, -32208.70729788629, -17738.03147530931, -25436.240486650528, -24822.66274960789, -16971.791323636928, -28732.251075774562, -32450.106138003608, -35993.28231731443, -10855.370563908884, -35496.917128195426, -25902.743745177242, -36216.35272697839, -32476.52589994978, -0.078, 0.982, 0.24, 192.0, 0.0, 0.0, 0.0, 0.0, 0.0, 0.0, 0.0, 0.0, 0.0, 1.741627700103809E9, 0.0, 2025-03-10 12:28:20.103
194.0, -29775.60815520384, -10374.159857530578, -36690.813206531195, -32212.03770781013, -17742.591231178194, -25425.869277223264, -24823.802688575113, -16953.954631561595, -28747.696131193177, -32458.46569042989, -36024.731221763046, -10875.44243042975, -35538.60313160457, -25928.224733856292, -36281.642172532345, -32485.600708198635, -0.078, 0.982, 0.24, 192.0, 0.0, 0.0, 0.0, 0.0, 0.0, 0.0, 0.0, 0.0, 0.0, 1.74162770010385E9, 0.0, 2025-03-10 12:28:20.103
200.0, -29771.741303413073, -10382.139430301122, -36691.14848269802, -32212.32828048805, -17749.430864981518, -25429.400852847204, -24824.987331031243, -16960.391933964722, -28731.647578674267, -32459.538574163747, -35994.15403534818, -10863.350136679428, -35494.525491538705, -25917.160620350915, -36223.617043926366, -32491.322754779194, -0.078, 0.982, 0.24, 192.0, 0.0, 0.0, 0.0, 0.0, 0.0, 0.0, 0.0, 0.0, 0.0, 1.741627700103888E9, 0.0, 2025-03-10 12:28:20.103
202.0, -29779.69852443916, -10384.329901257743, -36693.5624710992, -32216.597463679012, -17751.37546674913, -25424.37171034476, -24827.781299088158, -16965.465779956077, -28742.287009034993, -32463.24896374333, -36019.41150658268, -10874.749526351634, -35544.41458516295, -25917.69706221784, -36292.058085448516, -32491.18864431246, -0.08, 0.98, 0.246, 192.0, 126.5, 64.0, 15.0, 80.0, 3.5, 88.0, 0.0, 0.0, 0.0, 1.741627700103915E9, 0.0, 2025-03-10 12:28:20.103
204.0, -29771.718951668616, -10380.753622144894, -36696.55760485621, -32225.784030650146, -17753.253013283374, -25447.148137944718, -24844.880383596468, -17000.155687350714, -28736.29674152097, -32464.970048066385, -36001.77598020744, -10874.369546695894, -35508.96471845683, -25934.729091492783, -36224.46641021567, -32499.123513594095, -0.08, 0.98, 0.246, 192.0, 0.0, 0.0, 0.0, 0.0, 0.0, 0.0, 0.0, 0.0, 0.0, 1.741627700131973E9, 0.0, 2025-03-10 12:28:20.131
206.0, -29780.592594217374, -10383.480534968441, -36690.29911640872, -32213.557626433092, -17748.04505682529, -25436.307541883893, -24821.522810640672, -16971.25488177, -28740.767090412035, -32463.159556765506, -36021.6019775393, -10880.739793865658, -35546.806221819665, -25942.596905541053, -36293.62270756039, -32509.91940616601, -0.08, 0.98, 0.246, 192.0, 0.0, 0.0, 0.0, 0.0, 0.0, 0.0, 0.0, 0.0, 0.0, 1.741627700132011E9, 0.0, 2025-03-10 12:28:20.132
208.0, -29763.694675409162, -10379.0995930552, -36692.64604957653, -32219.65965266939, -17740.378408477118, -25434.18412616064, -24828.273037466173, -16982.520160975477, -28732.698110663667, -32458.75626310781, -35999.74197146201, -10870.48034316067, -35505.857825977546, -25922.837963442562, -36222.99119508162, -32488.506434977822, -0.08, 0.98, 0.246, 192.0, 0.0, 0.0, 0.0, 0.0, 0.0, 0.0, 0.0, 0.0, 0.0, 1.741627700162031E9, 0.0, 2025-03-10 12:28:20.162
220.0, -29786.51580649803, -10387.1015175702, -36699.552738613216, -32220.9560538478, -17749.22969928142, -25450.813824035387, -24832.743386357237, -17007.64352174324, -28744.54453522498, -32464.075978288172, -36010.96254717858, -10877.096459519442, -35524.230959919805, -25933.70091124784, -36257.03290188705, -32510.567606755212, -0.08, 0.98, 0.246, 192.0, 0.0, 0.0, 0.0, 0.0, 0.0, 0.0, 0.0, 0.0, 0.0, 1.741627700162076E9, 0.0, 2025-03-10 12:28:20.162
218.0, -29763.068826564413, -10374.137505786122, -36690.477930364366, -32220.41961198087, -17737.60679216466, -25446.835213522343, -24811.844505291523, -16951.49593967151, -28747.629075959812, -32465.171213766484, -36020.171465894164, -10883.064375289008, -35553.42233817844, -25934.75144323724, -36261.771471711574, -32505.80668518623, -0.08, 0.98, 0.246, 192.0, 0.0, 0.0, 0.0, 0.0, 0.0, 0.0, 0.0, 0.0, 0.0, 1.741627700185085E9, 0.0, 2025-03-10 12:28:20.185
214.0, -29788.169835587723, -10371.477648195942, -36691.997848987325, -32210.696603142813, -17746.458082968962, -25419.61078877578, -24819.309987939596, -16930.261782438967, -28740.476517734114, -32457.99630379633, -36020.28322461644, -10876.738831608156, -35543.83343980711, -25924.871972187993, -36268.32053283698, -32489.355801267127, -0.08, 0.98, 0.246, 192.0, 0.0, 0.0, 0.0, 0.0, 0.0, 0.0, 0.0, 0.0, 0.0, 1.741627700185123E9, 0.0, 2025-03-10 12:28:20.185
216.0, -29761.638314919273, -10380.127773300144, -36697.00463974531, -32229.89675162992, -17753.163606305552, -25436.978094217553, -24865.712209428813, -16958.469683941566, -28739.11306132234, -32458.935077063452, -36007.81095121038, -10878.035232786564, -35521.07936395161, -25913.76315519371, -36235.351709765404, -32496.441304259457, -0.08, 0.98, 0.246, 192.0, 0.0, 0.0, 0.0, 0.0, 0.0, 0.0, 0.0, 0.0, 0.0, 1.741627700251168E9, 0.0, 2025-03-10 12:28:20.251
222.0, -29787.90161465426, -10382.564113445773, -36691.237889675846, -32215.94926308981, -17743.865280612146, -25431.56897205937, -24813.610293103495, -16970.27140501397, -28744.36572126934, -32465.014751555296, -36017.48925655952, -10877.521142664093, -35548.25908520926, -25935.533754293177, -36254.84243093043, -32494.496702491848, -0.08, 0.984, 0.252, 192.0, 126.5, 64.0, 15.0, 96.0, 3.5, 112.0, 0.0, 0.0, 0.0, 1.741627700251229E9, 0.0, 2025-03-10 12:28:20.251
224.0, -29752.295285736953, -10367.588444660718, -36681.04549420423, -32218.832638124546, -17730.387178705594, -25431.010178447985, -24810.34693841302, -16963.92350958866, -28729.613569928835, -32453.391844438538, -36002.51358777447, -10867.038174514553, -35530.13182045601, -25927.397719311444, -36247.91339014928, -32493.177949568984, -0.08, 0.984, 0.252, 192.0, 0.0, 0.0, 0.0, 0.0, 0.0, 0.0, 0.0, 0.0, 0.0, 1.741627700251264E9, 0.0, 2025-03-10 12:28:20.251
226.0, -29791.343783300377, -10380.910084356081, -36689.44975011942, -32215.636338667435, -17747.79918763628, -25434.541754071925, -24833.793918346637, -16985.112963332293, -28741.325884023416, -32462.489004431845, -36011.81191346788, -10877.811715342012, -35540.30186418317, -25933.790318225663, -36234.74821266511, -32496.53071123728, -0.08, 0.984, 0.252, 192.0, 0.0, 0.0, 0.0, 0.0, 0.0, 0.0, 0.0, 0.0, 0.0, 1.741627700251291E9, 0.0, 2025-03-10 12:28:20.251
228.0, -29749.322503724397, -10367.029651049335, -36675.077578434655, -32211.456562454292, -17722.027626279312, -25413.41935556166, -24791.169141670365, -16940.25301221049, -28734.39684324227, -32449.41323392549, -36004.05585814189, -10865.942939036244, -35526.15320994297, -25924.04495764315, -36258.88809667684, -32489.244042544848, -0.08, 0.984, 0.252, 192.0, 0.0, 0.0, 0.0, 0.0, 0.0, 0.0, 0.0, 0.0, 0.0, 1.741627700251324E9, 0.0, 2025-03-10 12:28:20.251
230.0, -29788.66157396574, -10388.979064104446, -36690.14265419754, -32216.441001467825, -17739.99842882138, -25426.78569874593, -24808.379984900952, -16948.344343703313, -28743.426948002216, -32461.907859076007, -36002.4465325411, -10870.010956527109, -35527.9860529883, -25926.213076855314, -36217.42561071225, -32489.646373945045, -0.08, 0.984, 0.252, 192.0, 0.0, 0.0, 0.0, 0.0, 0.0, 0.0, 0.0, 0.0, 0.0, 1.74162770025135E9, 0.0, 2025-03-10 12:28:20.251
232.0, -29755.759806127528, -10375.657424409083, -36685.80641577321, -32223.168876548873, -17736.958591575454, -25437.805108762397, -24832.028130534665, -16980.195579552124, -28744.32101778043, -32460.85732708661, -36008.280337843935, -10872.447296672737, -35539.22898044932, -25925.788393710664, -36272.32149509448, -32502.85625491813, -0.082, 0.98, 0.25, 192.0, 126.5, 56.0, 15.0, 80.0, 3.5, 104.0, 0.0, 0.0, 0.0, 1.741627700251382E9, 0.0, 2025-03-10 12:28:20.251
234.0, -29787.141655342777, -10392.823564150758, -36699.99977350233, -32226.991024850733, -17738.947896831978, -25445.18118443265, -24805.742479055225, -16982.18488480865, -28745.662122447746, -32467.361684723102, -36005.86634944277, -10877.029404286075, -35528.61190183305, -25943.93801020837, -36222.81238112597, -32505.96314739742, -0.082, 0.98, 0.25, 192.0, 0.0, 0.0, 0.0, 0.0, 0.0, 0.0, 0.0, 0.0, 0.0, 1.741627700302252E9, 0.0, 2025-03-10 12:28:20.302
234.0, -29756.36330322782, -10370.829447606737, -36684.510014594794, -32214.451696211305, -17739.46198695445, -25416.816820718865, -24848.099034798033, -16964.527006688953, -28745.662122447746, -32467.361684723102, -36005.86634944277, -10877.029404286075, -35528.61190183305, -25943.93801020837, -36222.81238112597, -32505.96314739742, -0.082, 0.98, 0.25, 192.0, 0.0, 0.0, 0.0, 0.0, 0.0, 0.0, 0.0, 0.0, 0.0, 1.741627700302301E9, 0.0, 2025-03-10 12:28:20.302
234.0, -29761.437149219175, -10375.120982542156, -36684.733532039354, -32220.866646869978, -17732.443539195483, -25426.584533045832, -24825.255551964707, -16971.903082359207, -28745.662122447746, -32467.361684723102, -36005.86634944277, -10877.029404286075, -35528.61190183305, -25943.93801020837, -36222.81238112597, -32505.96314739742, -0.082, 0.98, 0.25, 192.0, 0.0, 0.0, 0.0, 0.0, 0.0, 0.0, 0.0, 0.0, 0.0, 1.741627700302327E9, 0.0, 2025-03-10 12:28:20.302
238.0, -29785.711143697637, -10390.543686216317, -36693.78598854375, -32219.547893947114, -17740.758388132857, -25425.109317911785, -24813.699700081313, -16965.10815204479, -28747.047930603974, -32469.149824279528, -36007.878006443745, -10881.902084577332, -35530.869428023034, -25934.84085021506, -36215.16808452226, -32500.151693839038, -0.082, 0.98, 0.25, 192.0, 0.0, 0.0, 0.0, 0.0, 0.0, 0.0, 0.0, 0.0, 0.0, 1.741627700302354E9, 0.0, 2025-03-10 12:28:20.302
238.0, -29772.635373191282, -10380.999491333901, -36687.68396230745, -32212.305928743594, -17734.946934574476, -25425.35518710079, -24826.216676976288, -16983.4589342426, -28747.047930603974, -32469.149824279528, -36007.878006443745, -10881.902084577332, -35530.869428023034, -25934.84085021506, -36215.16808452226, -32500.151693839038, -0.082, 0.98, 0.25, 192.0, 0.0, 0.0, 0.0, 0.0, 0.0, 0.0, 0.0, 0.0, 0.0, 1.741627700302381E9, 0.0, 2025-03-10 12:28:20.302
238.0, -29767.248602777556, -10355.652613121583, -36675.61402030158, -32199.76660010417, -17731.482414183905, -25416.414489318668, -24823.132136241453, -16964.21408226658, -28747.047930603974, -32469.149824279528, -36007.878006443745, -10881.902084577332, -35530.869428023034, -25934.84085021506, -36215.16808452226, -32500.151693839038, -0.082, 0.98, 0.25, 192.0, 0.0, 0.0, 0.0, 0.0, 0.0, 0.0, 0.0, 0.0, 0.0, 1.741627700302413E9, 0.0, 2025-03-10 12:28:20.302
246.0, -29777.865681393825, -10381.379470989641, -36692.5119391098, -32217.312719501584, -17737.383274720105, -25425.668111523166, -24821.031072262656, -16969.489093958033, -28745.12568058082, -32463.919516076985, -36002.40182905219, -10880.181000254273, -35523.113372697044, -25926.011911155216, -36202.67345937174, -32488.752304166832, -0.082, 0.98, 0.25, 192.0, 0.0, 0.0, 0.0, 0.0, 0.0, 0.0, 0.0, 0.0, 0.0, 1.741627700302443E9, 0.0, 2025-03-10 12:28:20.302
246.0, -29758.46436720662, -10366.38145046013, -36682.96774422738, -32208.483780441737, -17738.1879375205, -25422.404756832693, -24835.939685814345, -16967.320974745868, -28745.12568058082, -32463.919516076985, -36002.40182905219, -10880.181000254273, -35523.113372697044, -25926.011911155216, -36202.67345937174, -32488.752304166832, -0.082, 0.98, 0.25, 192.0, 0.0, 0.0, 0.0, 0.0, 0.0, 0.0, 0.0, 0.0, 0.0, 1.74162770030247E9, 0.0, 2025-03-10 12:28:20.302
246.0, -29773.372980758308, -10382.80998263478, -36690.43322687545, -32212.551797932603, -17734.90223108557, -25401.72939321153, -24811.263359935685, -16940.565936632865, -28745.12568058082, -32463.919516076985, -36002.40182905219, -10880.181000254273, -35523.113372697044, -25926.011911155216, -36202.67345937174, -32488.752304166832, -0.082, 0.98, 0.25, 192.0, 0.0, 0.0, 0.0, 0.0, 0.0, 0.0, 0.0, 0.0, 0.0, 1.741627700351339E9, 0.0, 2025-03-10 12:28:20.351
252.0, -29773.194166802667, -10380.910084356081, -36682.297191893726, -32207.165027518873, -17734.27638224082, -25404.277492079436, -24805.518961610673, -16944.857471568284, -28749.126642838317, -32463.494832932334, -36022.13841940623, -10887.825296857989, -35560.88782082651, -25926.056614644127, -36271.87446020538, -32482.605574441623, -0.08, 0.98, 0.254, 192.0, 126.5, 64.0, 15.0, 80.0, 3.5, 120.0, 0.0, 0.0, 0.0, 1.741627700351376E9, 0.0, 2025-03-10 12:28:20.351
2.0, -29765.952201599146, -10375.411555220075, -36685.985229728845, -32222.09599281502, -17734.432844452007, -25439.481489596546, -24805.161333699387, -16981.581387708353, -28732.273427519016, -32448.250943213818, -35989.23665156802, -10866.904064047822, -35523.15807618595, -25916.914751161905, -36204.43924718371, -32490.80866465672, -0.08, 0.98, 0.254, 192.0, 0.0, 0.0, 0.0, 0.0, 0.0, 0.0, 0.0, 0.0, 0.0, 1.741627700351423E9, 0.0, 2025-03-10 12:28:20.351
4.0, -29792.57312924542, -10395.796346163315, -36694.74711355533, -32221.179571292352, -17741.339533488695, -25427.07627142385, -24832.00577879021, -16956.25686124049, -28756.8379946754, -32473.91074584851, -36023.9042072182, -10894.642578916857, -35568.57682091914, -25937.18778338287, -36259.17866935476, -32503.303289807238, -0.08, 0.98, 0.254, 192.0, 0.0, 0.0, 0.0, 0.0, 0.0, 0.0, 0.0, 0.0, 0.0, 1.741627700351454E9, 0.0, 2025-03-10 12:28:20.351
6.0, -29764.052303320444, -10380.641863422617, -36686.94635474042, -32219.03380382464, -17727.012065292845, -25428.529134813445, -24810.793973302123, -16957.329744974344, -28750.7359684391, -32477.19645228344, -36008.302689588396, -10891.356872481927, -35538.424317648925, -25933.343283336555, -36221.82890436994, -32498.20709207143, -0.076, 0.978, 0.254, 192.0, 126.5, 80.0, 15.0, 72.0, 3.5, 120.0, 0.0, 0.0, 0.0, 1.741627700351482E9, 0.0, 2025-03-10 12:28:20.351
8.0, -29792.483722267596, -10393.896447884614, -36695.842349033635, -32218.47501021326, -17740.020780565832, -25427.523306312956, -24818.304159439107, -16977.22279753957, -28752.635866717803, -32472.94962083693, -36017.53396004844, -10890.44045095926, -35571.05786455367, -25929.94581817935, -36252.36138729589, -32502.744496195854, -0.076, 0.978, 0.254, 192.0, 0.0, 0.0, 0.0, 0.0, 0.0, 0.0, 0.0, 0.0, 0.0, 1.74162770038338E9, 0.0, 2025-03-10 12:28:20.383
10.0, -29755.156309027236, -10372.908159841081, -36685.69465705093, -32218.60912067999, -17726.386216448096, -25422.672977766157, -24813.744403570225, -16955.049867039903, -28747.20439281516, -32470.915612091496, -36002.53593951892, -10880.918607821299, -35536.09973622557, -25934.349111837044, -36225.919273605265, -32497.916519393508, -0.076, 0.978, 0.254, 192.0, 0.0, 0.0, 0.0, 0.0, 0.0, 0.0, 0.0, 0.0, 0.0, 1.741627700466681E9, 0.0, 2025-03-10 12:28:20.466
12.0, -29795.255338580057, -10390.364872260676, -36695.75294205582, -32220.061984069587, -17745.295792257286, -25431.390158103724, -24815.130211726453, -16958.4026287082, -28749.21604981614, -32471.742626636344, -36015.54465479191, -10886.260674746118, -35565.15700401748, -25934.349111837044, -36243.37598602486, -32504.644394474555, -0.076, 0.978, 0.254, 192.0, 0.0, 0.0, 0.0, 0.0, 0.0, 0.0, 0.0, 0.0, 0.0, 1.741627700466716E9, 0.0, 2025-03-10 12:28:20.466
14.0, -29757.994980573058, -10385.62630243615, -36686.11934019558, -32227.505114973203, -17728.375521704616, -25431.613675548277, -24823.020377519177, -16972.283062014947, -28753.10525335136, -32475.877699360575, -36014.91880594716, -10892.496811449148, -35551.12010849954, -25937.031321171682, -36232.557741708486, -32501.49279850636, -0.076, 0.978, 0.254, 192.0, 0.0, 0.0, 0.0, 0.0, 0.0, 0.0, 0.0, 0.0, 0.0, 1.741627700466761E9, 0.0, 2025-03-10 12:28:20.466
16.0, -29790.74028620008, -10399.05970085379, -36697.42932288996, -32227.7062806733, -17745.765178890848, -25452.065521724886, -24842.86872659549, -17007.308245576412, -28756.54742199748, -32481.95737385242, -36021.33375660584, -10900.074052819498, -35563.90530632798, -25938.774757239196, -36234.07766033145, -32511.506380022336, -0.078, 0.98, 0.25, 192.0, 126.5, 72.0, 15.0, 80.0, 3.5, 104.0, 0.0, 0.0, 0.0, 1.741627700466793E9, 0.0, 2025-03-10 12:28:20.466
18.0, -29751.69178863666, -10378.38433723263, -36688.3098111522, -32229.025033596165, -17728.420225193528, -25442.163698931185, -24816.270150693676, -16962.78357062144, -28753.149956840272, -32476.19062378295, -36017.84688447081, -10894.866096361411, -35559.77023360375, -25938.774757239196, -36256.09412861993, -32524.090412150672, -0.078, 0.98, 0.25, 192.0, 0.0, 0.0, 0.0, 0.0, 0.0, 0.0, 0.0, 0.0, 0.0, 1.741627700466821E9, 0.0, 2025-03-10 12:28:20.466
24.0, -29783.967707630123, -10383.793459390816, -36697.384619401055, -32224.19705679382, -17740.445463710483, -25432.038358692927, -24805.943644755323, -16959.11788453077, -28748.858421904853, -32472.010847569807, -36012.01307916798, -10892.452107960238, -35567.21336450736, -25930.370501324, -36209.58014840843, -32511.305214322238, -0.078, 0.98, 0.25, 192.0, 0.0, 0.0, 0.0, 0.0, 0.0, 0.0, 0.0, 0.0, 0.0, 1.741627700504565E9, 0.0, 2025-03-10 12:28:20.504
46.0, -29795.188283346688, -10382.072375067757, -36704.49247413784, -32223.884132371444, -17751.733094660412, -25454.904193270708, -24820.20405771781, -16984.59887320982, -28753.35112254037, -32468.412216712502, -36036.97997772455, -10895.201372528241, -35564.55350691718, -25923.03912914266, -36271.69564624973, -32504.71144970792, -0.08, 0.98, 0.25, 192.0, 126.5, 64.0, 15.0, 80.0, 3.5, 104.0, 0.0, 0.0, 0.0, 1.741627700554646E9, 0.0, 2025-03-10 12:28:20.554
46.0, -29776.32341102641, -10381.446526223008, -36695.75294205582, -32223.839428882533, -17729.11312927164, -25406.914997925163, -24800.936853997333, -16907.91003798366, -28753.35112254037, -32468.412216712502, -36036.97997772455, -10895.201372528241, -35564.55350691718, -25923.03912914266, -36271.69564624973, -32504.71144970792, -0.08, 0.98, 0.25, 192.0, 63.25, 32.0, 7.5, 40.0, 1.75, 52.0, 0.0, 0.0, 0.0, 1.741627700554697E9, 0.0, 2025-03-10 12:28:20.554
44.0, -29759.403140473743, -10362.067563780256, -36701.67615433647, -32233.04834759812, -17746.8380626247, -25439.95087623011, -24855.318648257096, -16989.583312223353, -28752.144128339783, -32469.32863823517, -36018.18216063764, -10893.793212627555, -35536.6361780925, -25923.240294842755, -36205.60153789539, -32491.903900135032, -0.08, 0.98, 0.25, 192.0, 0.0, 0.0, 0.0, 0.0, 0.0, 0.0, 0.0, 0.0, 0.0, 1.741627700612875E9, 0.0, 2025-03-10 12:28:20.612
56.0, -29765.371056243308, -10367.566092916262, -36694.858872277604, -32226.253417283708, -17744.625239923625, -25449.22685017906, -24835.805575347615, -16984.665928443184, -28732.34048275238, -32466.847594600633, -36003.00532615249, -10886.774764868589, -35466.697569691845, -25937.433652571875, -36245.924084892766, -32503.70562120743, -0.08, 0.984, 0.254, 192.0, 126.5, 64.0, 15.0, 96.0, 3.5, 120.0, 0.0, 0.0, 0.0, 1.741627700612914E9, 0.0, 2025-03-10 12:28:20.612
58.0, -29802.989042161593, -10389.515505971374, -36708.292270695245, -32236.870495899977, -17764.674754700038, -25458.145196216727, -24865.48869198426, -17011.35391132282, -28736.92259036572, -32475.52007144929, -36019.38915483822, -10906.936038367277, -35488.26700309122, -25948.05073118815, -36270.28748634905, -32504.353821796638, -0.08, 0.984, 0.254, 192.0, 0.0, 0.0, 0.0, 0.0, 0.0, 0.0, 0.0, 0.0, 0.0, 1.741627700612942E9, 0.0, 2025-03-10 12:28:20.612
60.0, -29766.399236488254, -10372.975215074446, -36701.989078758845, -32241.29614130213, -17751.822501638235, -25454.814786292885, -24832.028130534665, -16979.256806285, -28731.334654251892, -32480.996248840842, -36008.25798609948, -10905.952561611242, -35467.99397087026, -25948.45306258834, -36260.76564321109, -32520.134153382085, -0.08, 0.984, 0.254, 192.0, 0.0, 0.0, 0.0, 0.0, 0.0, 0.0, 0.0, 0.0, 0.0, 1.741627700612969E9, 0.0, 2025-03-10 12:28:20.612
62.0, -29794.070696123923, -10360.882921324126, -36708.62754686207, -32220.91135035889, -17768.049868112786, -25432.79831800441, -24865.846319895547, -17011.063338644904, -28730.9323228517, -32473.24019351485, -36007.16275062117, -10893.323825993995, -35487.68585773538, -25936.36076883802, -36261.03386414455, -32500.554025239235, -0.08, 0.984, 0.254, 192.0, 0.0, 0.0, 0.0, 0.0, 0.0, 0.0, 0.0, 0.0, 0.0, 1.741627700613012E9, 0.0, 2025-03-10 12:28:20.613
64.0, -29761.861832363826, -10356.256110221877, -36700.513863624794, -32214.250530511206, -17753.208309794463, -25422.89649521071, -24837.280790481662, -16943.717532601062, -28722.371604725315, -32454.017693283284, -35996.65743072718, -10872.402593183828, -35467.83750865907, -25938.99827468375, -36270.98039042716, -32506.119609608606, -0.08, 0.984, 0.254, 192.0, 0.0, 0.0, 0.0, 0.0, 0.0, 0.0, 0.0, 0.0, 0.0, 1.741627700613043E9, 0.0, 2025-03-10 12:28:20.613
66.0, -29797.669326981228, -10376.305624998287, -36698.45750313491, -32201.733553616235, -17759.198577308485, -25422.22594287705, -24854.424578478884, -16957.06152404088, -28724.49502044857, -32458.845670085633, -36001.306593573885, -10876.828238585978, -35474.69949420685, -25925.922504177393, -36245.38764302583, -32470.17800452447, -0.08600000000000001, 0.98, 0.256, 192.0, 126.5, 40.0, 15.0, 80.0, 4.0, 0.0, 0.0, 0.0, 0.0, 1.74162770061307E9, 0.0, 2025-03-10 12:28:20.613
70.0, -29793.60130949036, -10375.545665686806, -36702.07848573667, -32222.923007359866, -17765.03238261132, -25445.851736766308, -24878.050372368143, -16997.585236738352, -28726.327863493905, -32476.972934838886, -36001.150131362694, -10898.800003385544, -35460.26026728872, -25935.578457782085, -36242.303102291, -32490.026353600784, -0.08600000000000001, 0.98, 0.256, 192.0, 0.0, 0.0, 0.0, 0.0, 0.0, 0.0, 0.0, 0.0, 0.0, 1.741627700641789E9, 0.0, 2025-03-10 12:28:20.641
78.0, -29758.062035806423, -10348.589461873706, -36699.061000235204, -32224.487629471736, -17743.641763167594, -25446.924620500162, -24826.95428454331, -16978.02746033996, -28721.11990703582, -32470.446225457938, -35994.33284930383, -10890.976892826187, -35459.992046355255, -25950.12944342249, -36225.67340441625, -32503.95149039644, -0.08600000000000001, 0.98, 0.256, 192.0, 0.0, 0.0, 0.0, 0.0, 0.0, 0.0, 0.0, 0.0, 0.0, 1.741627700641866E9, 0.0, 2025-03-10 12:28:20.641
76.0, -29788.46040826564, -10364.749773114894, -36721.54685515724, -32234.94824587682, -17764.965327377955, -25458.41341715019, -24854.603392434525, -16994.478344259067, -28721.790459369477, -32451.827222326665, -36007.520378532456, -10879.44339268725, -35474.63243897348, -25942.95453345234, -36282.49153882165, -32498.34120253816, -0.076, 0.976, 0.252, 192.0, 126.5, 80.0, 15.0, 64.0, 3.5, 112.0, 0.0, 0.0, 0.0, 1.741627700677807E9, 0.0, 2025-03-10 12:28:20.677
82.0, -29785.577033230908, -10364.123924270145, -36709.633375362566, -32228.399184751415, -17758.12569357463, -25443.37069313177, -24852.144700544442, -16985.559998221397, -28723.466840203626, -32481.800911641232, -35992.768227191955, -10896.274256262095, -35455.812270142116, -25947.111957921024, -36222.25358751459, -32513.652147490044, -0.076, 0.976, 0.252, 192.0, 0.0, 0.0, 0.0, 0.0, 0.0, 0.0, 0.0, 0.0, 0.0, 1.741627700693847E9, 0.0, 2025-03-10 12:28:20.693
86.0, -29794.383620546298, -10364.90623532608, -36708.716953839896, -32224.7558504052, -17761.16553082055, -25439.32502738536, -24856.97267734679, -16970.807846880896, -28730.865267618334, -32459.47151893038, -36002.491236030015, -10887.020634057599, -35445.84339211504, -25929.722300734797, -36214.586939166424, -32487.075923332683, -0.076, 0.974, 0.248, 192.0, 126.5, 80.0, 15.0, 56.0, 3.5, 96.0, 0.0, 0.0, 0.0, 1.741627700725908E9, 0.0, 2025-03-10 12:28:20.725
92.0, -29786.582861731396, -10362.425191691542, -36716.87534056608, -32225.67227192787, -17766.909929145568, -25444.734149543543, -24860.72777041528, -16973.020669581972, -28731.692282163178, -32474.13426329306, -36019.545617049414, -10899.850535374944, -35497.11829389552, -25952.722245779307, -36303.83745477646, -32505.851388675143, -0.076, 0.974, 0.248, 192.0, 0.0, 0.0, 0.0, 0.0, 0.0, 0.0, 0.0, 0.0, 0.0, 1.741627700782088E9, 0.0, 2025-03-10 12:28:20.782
94.0, -29784.012411119034, -10363.140447514112, -36715.37777368758, -32229.539123718638, -17757.94687961899, -25445.158832688194, -24839.314799227097, -16979.4579719851, -28730.7311571516, -32470.401521969026, -36005.10639013128, -10894.977855083687, -35453.24181952975, -25934.12559439249, -36229.67436667375, -32495.815455414708, -0.076, 0.974, 0.248, 192.0, 0.0, 0.0, 0.0, 0.0, 0.0, 0.0, 0.0, 0.0, 0.0, 1.74162770078213E9, 0.0, 2025-03-10 12:28:20.782
96.0, -29787.47693150961, -10356.770200344348, -36706.057096249715, -32222.09599281502, -17759.46679824195, -25460.17920496216, -24858.403188991928, -16999.2616175725, -28733.39101474178, -32461.013789297795, -36025.08884967433, -10898.867058618911, -35494.74900898326, -25934.52792579269, -36293.108617437916, -32504.10795260763, -0.078, 0.98, 0.246, 192.0, 126.5, 72.0, 15.0, 80.0, 3.5, 88.0, 0.0, 0.0, 0.0, 1.74162770081205E9, 0.0, 2025-03-10 12:28:20.812
98.0, -29770.22138479011, -10359.47476142344, -36702.50316888132, -32228.689757429336, -17750.213176037454, -25446.343475144324, -24821.72397634077, -16980.08382082985, -28720.605816913347, -32462.779577109766, -35996.88094817173, -10887.15474452433, -35439.45079320083, -25936.204306626834, -36228.31091026198, -32497.71535369341, -0.078, 0.98, 0.246, 192.0, 0.0, 0.0, 0.0, 0.0, 0.0, 0.0, 0.0, 0.0, 0.0, 1.741627700904221E9, 0.0, 2025-03-10 12:28:20.904
100.0, -29796.439981036187, -10378.831372121736, -36719.31168071171, -32233.942417376333, -17772.184940837018, -25458.100492727815, -24862.15828206042, -16992.332576791356, -28731.647578674267, -32475.5647749382, -36017.91393970417, -10897.68241616278, -35488.13289262449, -25951.358789367532, -36282.13391091036, -32500.934004894974, -0.078, 0.98, 0.246, 192.0, 0.0, 0.0, 0.0, 0.0, 0.0, 0.0, 0.0, 0.0, 0.0, 1.74162770090428E9, 0.0, 2025-03-10 12:28:20.904
106.0, -29767.963858600124, -10359.541816656807, -36712.695564352936, -32231.707242930803, -17752.269536527343, -25443.79537627642, -24836.49847942573, -16978.65330918471, -28732.072261818917, -32469.507452190814, -36011.23076811204, -10897.190677784763, -35464.50709873523, -25943.55803055263, -36244.56062848099, -32495.90486239253, -0.078, 0.978, 0.246, 192.0, 126.5, 72.0, 15.0, 72.0, 3.5, 88.0, 0.0, 0.0, 0.0, 1.74162770096733E9, 0.0, 2025-03-10 12:28:20.967
118.0, -29804.88894044029, -10388.91200887108, -36718.52936965578, -32234.836487154545, -17767.8934059016, -25454.32304791487, -24862.471206482795, -16994.07601285887, -28719.421174457217, -32470.42387371348, -36003.65352674169, -10888.428793958283, -35481.00268614324, -25936.94191419386, -36268.499346792625, -32499.950528138943, -0.078, 0.978, 0.246, 192.0, 0.0, 0.0, 0.0, 0.0, 0.0, 0.0, 0.0, 0.0, 0.0, 1.7416277009674E9, 0.0, 2025-03-10 12:28:20.967
118.0, -29776.9269081267, -10378.183171532533, -36710.0133550183, -32242.972522136275, -17751.50957721586, -25469.008144022006, -24859.386665747963, -17012.918533434695, -28719.421174457217, -32470.42387371348, -36003.65352674169, -10888.428793958283, -35481.00268614324, -25936.94191419386, -36268.499346792625, -32499.950528138943, -0.078, 0.978, 0.246, 192.0, 0.0, 0.0, 0.0, 0.0, 0.0, 0.0, 0.0, 0.0, 0.0, 1.741627700967428E9, 0.0, 2025-03-10 12:28:20.967
122.0, -29812.71205099965, -10379.01018607738, -36708.38167767307, -32228.779164407155, -17750.190824292997, -25455.32887641536, -24824.070909508577, -17003.486097274556, -28734.01686358653, -32459.270353230284, -36015.38819258072, -10889.434622458772, -35491.03861940368, -25943.33451310808, -36280.39047484285, -32510.29938582175, -0.076, 0.982, 0.252, 192.0, 0.0, 0.0, 0.0, 0.0, 0.0, 0.0, 0.0, 0.0, 0.0, 1.741627701023404E9, 0.0, 2025-03-10 12:28:21.023
122.0, -29788.90744315475, -10377.266750009865, -36710.16981722949, -32229.33795801854, -17747.66507716955, -25449.316257156883, -24809.34110991253, -16955.25103274, -28734.01686358653, -32459.270353230284, -36015.38819258072, -10889.434622458772, -35491.03861940368, -25943.33451310808, -36280.39047484285, -32510.29938582175, -0.076, 0.982, 0.252, 192.0, 0.0, 0.0, 0.0, 0.0, 0.0, 0.0, 0.0, 0.0, 0.0, 1.741627701023457E9, 0.0, 2025-03-10 12:28:21.023
122.0, -29757.927925339693, -10346.577804872728, -36693.69658156593, -32231.282559786152, -17745.69812365748, -25453.116053714282, -24823.28859845264, -16973.60181493781, -28734.01686358653, -32459.270353230284, -36015.38819258072, -10889.434622458772, -35491.03861940368, -25943.33451310808, -36280.39047484285, -32510.29938582175, -0.076, 0.982, 0.252, 192.0, 0.0, 0.0, 0.0, 0.0, 0.0, 0.0, 0.0, 0.0, 0.0, 1.741627701023483E9, 0.0, 2025-03-10 12:28:21.023
122.0, -29779.60911746134, -10354.825598576737, -36704.42541890447, -32230.030862096653, -17748.313277758753, -25456.669981082676, -24854.849261623534, -16975.36760274978, -28734.01686358653, -32459.270353230284, -36015.38819258072, -10889.434622458772, -35491.03861940368, -25943.33451310808, -36280.39047484285, -32510.29938582175, -0.076, 0.982, 0.252, 192.0, 0.0, 0.0, 0.0, 0.0, 0.0, 0.0, 0.0, 0.0, 0.0, 1.74162770102351E9, 0.0, 2025-03-10 12:28:21.023
144.0, -29775.56345171493, -10375.322148242254, -36714.416648676, -32240.37971977946, -17747.307449258264, -25463.889594541743, -24842.19817426183, -16994.657158214708, -28748.232573060108, -32478.828129628677, -36017.26573911497, -10908.25479129014, -35484.73542746728, -25945.882611975983, -36231.3507475079, -32511.126400366596, -0.076, 0.982, 0.252, 192.0, 0.0, 0.0, 0.0, 0.0, 0.0, 0.0, 0.0, 0.0, 0.0, 1.741627701075612E9, 0.0, 2025-03-10 12:28:21.075
150.0, -29773.775312158505, -10356.613738133161, -36717.68000336648, -32237.250475555717, -17764.22771981093, -25447.17048968917, -24867.50034898524, -16976.932224861648, -28732.8322211304, -32469.41804521299, -36020.864369972274, -10889.7698986256, -35528.81306753315, -25947.71545502132, -36300.149416941334, -32507.68423172048, -0.076, 0.982, 0.252, 192.0, 0.0, 0.0, 0.0, 0.0, 0.0, 0.0, 0.0, 0.0, 0.0, 1.741627701075653E9, 0.0, 2025-03-10 12:28:21.075
146.0, -29796.46233278064, -10367.409630705075, -36716.5177126548, -32237.272827300174, -17752.403646994073, -25452.736074058543, -24833.548049157627, -16978.228626040058, -28744.008093358054, -32473.463710959404, -36029.8050677544, -10901.795137142557, -35519.7829627732, -25955.002123713748, -36295.053219205525, -32510.94758641095, -0.076, 0.98, 0.244, 192.0, 126.5, 80.0, 15.0, 80.0, 3.5, 80.0, 0.0, 0.0, 0.0, 1.741627701075698E9, 0.0, 2025-03-10 12:28:21.075
146.0, -29810.70039399867, -10372.304662740788, -36727.380660460076, -32232.04251909763, -17771.64849897009, -25440.286152396937, -24864.728732672782, -16984.084783087346, -28744.008093358054, -32473.463710959404, -36029.8050677544, -10901.795137142557, -35519.7829627732, -25955.002123713748, -36295.053219205525, -32510.94758641095, -0.076, 0.98, 0.244, 192.0, 63.25, 40.0, 7.5, 40.0, 1.75, 40.0, 0.0, 0.0, 0.0, 1.741627701075731E9, 0.0, 2025-03-10 12:28:21.075
146.0, -29799.345707815377, -10359.00537478988, -36714.439000420454, -32219.95022534731, -17764.808865166768, -25428.59619004681, -24837.794880604135, -16942.73405584503, -28744.008093358054, -32473.463710959404, -36029.8050677544, -10901.795137142557, -35519.7829627732, -25955.002123713748, -36295.053219205525, -32510.94758641095, -0.076, 0.98, 0.244, 192.0, 31.625, 20.0, 3.75, 20.0, 0.875, 20.0, 0.0, 0.0, 0.0, 1.741627701075759E9, 0.0, 2025-03-10 12:28:21.075
146.0, -29761.3253904969, -10356.211406732966, -36704.04543924874, -32227.885094628942, -17750.682562671016, -25454.054826981406, -24843.472223695782, -17001.563847251397, -28744.008093358054, -32473.463710959404, -36029.8050677544, -10901.795137142557, -35519.7829627732, -25955.002123713748, -36295.053219205525, -32510.94758641095, -0.076, 0.98, 0.244, 192.0, 15.8125, 10.0, 1.875, 10.0, 0.4375, 10.0, 0.0, 0.0, 0.0, 1.741627701075795E9, 0.0, 2025-03-10 12:28:21.075
180.0, -29805.38067881831, -10386.252151280898, -36729.21350350541, -32241.027920368666, -17768.966289635457, -25452.579611847355, -24865.06400883961, -16998.501658261022, -28757.06151211995, -32477.084693561163, -36042.6573208162, -10906.220782544708, -35547.38736717551, -25953.146928923958, -36304.03862047656, -32512.892188178565, -0.076, 0.98, 0.244, 192.0, 0.0, 0.0, 0.0, 0.0, 0.0, 0.0, 0.0, 0.0, 0.0, 1.741627701075822E9, 0.0, 2025-03-10 12:28:21.075
176.0, -29781.218443062124, -10385.156915802589, -36724.54198891425, -32251.555592007113, -17756.203443551476, -25475.557205147412, -24858.313782014106, -17005.564809508898, -28757.374436542326, -32479.163405795505, -36041.94206499363, -10907.114852322919, -35548.97434103183, -25946.75433000974, -36307.23491993367, -32526.459697062935, -0.08, 0.986, 0.244, 192.0, 126.5, 64.0, 15.0, 104.0, 3.5, 80.0, 0.0, 0.0, 0.0, 1.741627701123571E9, 0.0, 2025-03-10 12:28:21.123
176.0, -29782.581899473895, -10375.81388662027, -36719.959881300914, -32243.95599889231, -17752.470702227438, -25452.534908358444, -24849.037808065154, -16989.78447792345, -28757.374436542326, -32479.163405795505, -36041.94206499363, -10907.114852322919, -35548.97434103183, -25946.75433000974, -36307.23491993367, -32526.459697062935, -0.08, 0.986, 0.244, 192.0, 63.25, 32.0, 7.5, 52.0, 1.75, 40.0, 0.0, 0.0, 0.0, 1.741627701123626E9, 0.0, 2025-03-10 12:28:21.123
176.0, -29772.36715225782, -10363.699241125494, -36711.22034921889, -32240.111498845996, -17757.835120896714, -25460.358018917803, -24856.659752924414, -16981.93901561964, -28757.374436542326, -32479.163405795505, -36041.94206499363, -10907.114852322919, -35548.97434103183, -25946.75433000974, -36307.23491993367, -32526.459697062935, -0.08, 0.986, 0.244, 192.0, 31.625, 16.0, 3.75, 26.0, 0.875, 20.0, 0.0, 0.0, 0.0, 1.741627701123655E9, 0.0, 2025-03-10 12:28:21.123
176.0, -29789.354478043853, -10385.067508824768, -36718.93170105597, -32245.252400070716, -17760.98671686491, -25459.12867297276, -24872.596546721048, -17016.830088714374, -28757.374436542326, -32479.163405795505, -36041.94206499363, -10907.114852322919, -35548.97434103183, -25946.75433000974, -36307.23491993367, -32526.459697062935, -0.08, 0.986, 0.244, 192.0, 15.8125, 8.0, 1.875, 13.0, 0.4375, 10.0, 0.0, 0.0, 0.0, 1.741627701123683E9, 0.0, 2025-03-10 12:28:21.123
190.0, -29782.380733773796, -10376.998529076402, -36715.84716032114, -32235.976426121764, -17760.7408476759, -25448.444539123124, -24868.97556411929, -16978.87682662926, -28742.30936077945, -32475.90005110503, -36016.48342805904, -10897.548305696047, -35517.34662262757, -25938.327722350088, -36225.02520382705, -32520.40237431555, -0.08, 0.986, 0.244, 192.0, 0.0, 0.0, 0.0, 0.0, 0.0, 0.0, 0.0, 0.0, 0.0, 1.741627701183471E9, 0.0, 2025-03-10 12:28:21.183
192.0, -29766.75686439954, -10384.195790791011, -36720.76454410131, -32255.310685075605, -17753.253013283374, -25475.28898421395, -24859.67723842588, -16997.585236738352, -28751.652389961768, -32480.929193607473, -36037.874047502766, -10910.758186669134, -35548.907285798465, -25957.259649903735, -36293.28743139356, -32530.773583742808, -0.08, 0.986, 0.244, 192.0, 0.0, 0.0, 0.0, 0.0, 0.0, 0.0, 0.0, 0.0, 0.0, 1.741627701183514E9, 0.0, 2025-03-10 12:28:21.183
202.0, -29760.721893396607, -10376.57384593175, -36717.81411383321, -32248.314589061094, -17736.846832853178, -25448.37748388976, -24823.020377519177, -16961.755390376497, -28755.340427796895, -32487.411199499515, -36029.42508809866, -10913.395692514861, -35537.26202693725, -25953.303391135145, -36256.87643967586, -32536.29446462327, -0.08, 0.986, 0.244, 192.0, 0.0, 0.0, 0.0, 0.0, 0.0, 0.0, 0.0, 0.0, 0.0, 1.741627701183545E9, 0.0, 2025-03-10 12:28:21.183
208.0, -29791.634355978294, -10386.788593147827, -36728.61000640512, -32244.58184773706, -17763.110132588165, -25464.60485036431, -24873.669430454902, -17014.147879379736, -28746.31032303695, -32477.822301128188, -36029.64860554321, -10903.426814487793, -35562.072463282646, -25942.731016007783, -36281.977448699174, -32534.10399366665, -0.08, 0.986, 0.244, 192.0, 0.0, 0.0, 0.0, 0.0, 0.0, 0.0, 0.0, 0.0, 0.0, 1.741627701183571E9, 0.0, 2025-03-10 12:28:21.183
206.0, -29755.089253793867, -10360.055906779278, -36722.08329702417, -32238.77039417868, -17744.37937073462, -25440.107338441296, -24849.104863298522, -16984.375355765267, -28745.885639892298, -32477.665838917, -36022.67486127315, -10905.550230211047, -35539.31838742714, -25934.594981026054, -36273.08145440596, -32534.34986285566, -0.076, 0.976, 0.256, 192.0, 126.5, 80.0, 15.0, 64.0, 4.0, 0.0, 0.0, 0.0, 0.0, 1.741627701183598E9, 0.0, 2025-03-10 12:28:21.183
206.0, -29771.36132375733, -10370.762392373372, -36713.388468431054, -32235.864667399488, -17741.02660906632, -25440.688483797134, -24835.49265092524, -16957.01682055197, -28745.885639892298, -32477.665838917, -36022.67486127315, -10905.550230211047, -35539.31838742714, -25934.594981026054, -36273.08145440596, -32534.34986285566, -0.076, 0.976, 0.256, 192.0, 63.25, 40.0, 7.5, 32.0, 2.0, 0.0, 0.0, 0.0, 0.0, 1.741627701183634E9, 0.0, 2025-03-10 12:28:21.183
206.0, -29801.737344472094, -10391.281293783342, -36737.729518142885, -32242.771356436177, -17766.08291460072, -25452.914888014187, -24874.764665933213, -17000.759184451006, -28745.885639892298, -32477.665838917, -36022.67486127315, -10905.550230211047, -35539.31838742714, -25934.594981026054, -36273.08145440596, -32534.34986285566, -0.076, 0.976, 0.256, 192.0, 31.625, 20.0, 3.75, 16.0, 1.0, 0.0, 0.0, 0.0, 0.0, 1.741627701183664E9, 0.0, 2025-03-10 12:28:21.183
214.0, -29767.60623068884, -10377.780840132338, -36728.81117210522, -32245.76649019319, -17748.9391266035, -25458.41341715019, -24852.92701160038, -17000.625073984276, -28758.469672020638, -32479.67749591798, -36036.13061143525, -10902.376282498393, -35561.647780137995, -25945.502632320244, -36284.68200977826, -32525.118592395618, -0.076, 0.976, 0.256, 192.0, 0.0, 0.0, 0.0, 0.0, 0.0, 0.0, 0.0, 0.0, 0.0, 1.741627701237593E9, 0.0, 2025-03-10 12:28:21.237
214.0, -29797.781085703504, -10377.870247110159, -36722.2174074909, -32231.975463864266, -17760.85260639818, -25446.410530377692, -24848.613124920503, -16977.982756851048, -28758.469672020638, -32479.67749591798, -36036.13061143525, -10902.376282498393, -35561.647780137995, -25945.502632320244, -36284.68200977826, -32525.118592395618, -0.076, 0.976, 0.256, 192.0, 0.0, 0.0, 0.0, 0.0, 0.0, 0.0, 0.0, 0.0, 0.0, 1.741627701237634E9, 0.0, 2025-03-10 12:28:21.237
214.0, -29792.461370523142, -10377.847895365703, -36725.637224392565, -32228.89092312943, -17749.52027195934, -25452.93723975864, -24831.268171223186, -16974.294719015925, -28758.469672020638, -32479.67749591798, -36036.13061143525, -10902.376282498393, -35561.647780137995, -25945.502632320244, -36284.68200977826, -32525.118592395618, -0.076, 0.976, 0.256, 192.0, 0.0, 0.0, 0.0, 0.0, 0.0, 0.0, 0.0, 0.0, 0.0, 1.74162770123766E9, 0.0, 2025-03-10 12:28:21.237
214.0, -29772.635373191282, -10371.544703429307, -36722.28446272427, -32248.783975694656, -17752.89538537209, -25472.293850456936, -24872.596546721048, -16998.255789072013, -28758.469672020638, -32479.67749591798, -36036.13061143525, -10902.376282498393, -35561.647780137995, -25945.502632320244, -36284.68200977826, -32525.118592395618, -0.076, 0.976, 0.256, 192.0, 0.0, 0.0, 0.0, 0.0, 0.0, 0.0, 0.0, 0.0, 0.0, 1.741627701237685E9, 0.0, 2025-03-10 12:28:21.237
214.0, -29761.146576541258, -10366.068526037756, -36722.28446272427, -32245.85589717101, -17746.681600413514, -25458.23460319455, -24854.513985456706, -16985.40353601021, -28758.469672020638, -32479.67749591798, -36036.13061143525, -10902.376282498393, -35561.647780137995, -25945.502632320244, -36284.68200977826, -32525.118592395618, -0.076, 0.976, 0.256, 192.0, 0.0, 0.0, 0.0, 0.0, 0.0, 0.0, 0.0, 0.0, 0.0, 1.74162770123771E9, 0.0, 2025-03-10 12:28:21.237
230.0, -29772.545966213464, -10370.203598761987, -36715.51188415431, -32234.590617965536, -17741.719513144435, -25459.03926599494, -24836.945514314833, -16985.44823949912, -28753.418177773736, -32478.939888350953, -36041.96441673808, -10907.226611045196, -35579.37271349105, -25943.222754385803, -36293.868576749395, -32520.983519671387, -0.08, 0.978, 0.256, 192.0, 0.0, 0.0, 0.0, 0.0, 0.0, 0.0, 0.0, 0.0, 0.0, 1.741627701237742E9, 0.0, 2025-03-10 12:28:21.237
232.0, -29771.450730735152, -10366.783781860326, -36712.02501201928, -32230.477896985758, -17747.732132402914, -25434.22882964955, -24830.619970633983, -16963.677640399652, -28750.7359684391, -32474.13426329306, -36024.932387463145, -10896.855401617933, -35550.67307361044, -25942.149870651945, -36223.482933459636, -32520.782353971288, -0.08, 0.978, 0.256, 192.0, 0.0, 0.0, 0.0, 0.0, 0.0, 0.0, 0.0, 0.0, 0.0, 1.741627701237777E9, 0.0, 2025-03-10 12:28:21.237
238.0, -29790.539120499983, -10378.943130844013, -36717.05415452173, -32238.74804243422, -17762.551338976784, -25412.614692761268, -24843.24870625123, -16974.02649808246, -28749.21604981614, -32473.016676070296, -36032.88960848923, -10903.605628443436, -35577.31635300116, -25944.98854219777, -36286.13487316786, -32508.779467198787, -0.08, 0.978, 0.256, 192.0, 0.0, 0.0, 0.0, 0.0, 0.0, 0.0, 0.0, 0.0, 0.0, 1.741627701252773E9, 0.0, 2025-03-10 12:28:21.252
240.0, -29765.21459403212, -10361.57582540224, -36704.47012239339, -32229.069737085076, -17747.37450449163, -25431.658379037188, -24824.38383393095, -16980.106172574302, -28748.947828882676, -32480.07982731817, -36021.49021881702, -10896.654235917835, -35539.49720138278, -25936.36076883802, -36223.84056137092, -32521.855237705142, -0.08, 0.978, 0.256, 192.0, 0.0, 0.0, 0.0, 0.0, 0.0, 0.0, 0.0, 0.0, 0.0, 1.741627701309819E9, 0.0, 2025-03-10 12:28:21.309
242.0, -29759.112567795823, -10353.305679953775, -36686.23109891786, -32218.318548002073, -17731.99650430638, -25415.587474773823, -24831.648150878926, -16983.905969131705, -28734.665064175733, -32454.129452005564, -36021.24434962802, -10876.828238585978, -35572.62248666555, -25934.796146726152, -36279.13877715335, -32510.746420710853, -0.08, 0.978, 0.256, 192.0, 0.0, 0.0, 0.0, 0.0, 0.0, 0.0, 0.0, 0.0, 0.0, 1.74162770130985E9, 0.0, 2025-03-10 12:28:21.309
244.0, -29747.288494978966, -10349.841159563204, -36689.3603431416, -32233.38362376495, -17734.365789218642, -25433.401815104702, -24840.052406794122, -17014.63961775775, -28725.59025592688, -32454.598838639122, -35997.17152084965, -10872.559055395015, -35518.7324307838, -25929.27526584569, -36215.21278801117, -32521.58701677168, -0.08, 0.978, 0.256, 192.0, 0.0, 0.0, 0.0, 0.0, 0.0, 0.0, 0.0, 0.0, 0.0, 1.741627701309885E9, 0.0, 2025-03-10 12:28:21.309
246.0, -29765.125187054302, -10358.223063733943, -36687.41574137399, -32232.42249875337, -17749.430864981518, -25433.13359417124, -24832.318703212586, -17024.60849578482, -28726.953712338654, -32454.151803750017, -36013.108314646284, -10879.644558387346, -35565.358169717576, -25933.142117636457, -36269.549878782025, -32529.141906397574, -0.07600000000000001, 0.976, 0.254, 192.0, 126.5, 96.0, 15.0, 56.0, 3.5, 112.0, 0.0, 0.0, 0.0, 1.741627701309916E9, 0.0, 2025-03-10 12:28:21.309
248.0, -29755.13395728278, -10362.872226580648, -36693.07073272118, -32252.203792596316, -17757.835120896714, -25423.209419633084, -24858.0679128251, -17028.18477489767, -28724.897351848766, -32465.95352482242, -36001.32894531834, -10880.96331131021, -35541.017120005745, -25933.678559503387, -36239.08445108944, -32540.809517003243, -0.07600000000000001, 0.976, 0.254, 192.0, 0.0, 0.0, 0.0, 0.0, 0.0, 0.0, 0.0, 0.0, 0.0, 1.741627701309944E9, 0.0, 2025-03-10 12:28:21.309
250.0, -29793.288385067986, -10383.212314034978, -36696.3117356672, -32258.752853721722, -17769.56978673575, -25428.28326562444, -24840.14181377194, -17048.27899316299, -28738.509564222048, -32479.588088940156, -36026.2064368971, -10894.933151594776, -35581.0490943252, -25961.506481350243, -36299.881196007875, -32560.970790501928, -0.07600000000000001, 0.976, 0.254, 192.0, 0.0, 0.0, 0.0, 0.0, 0.0, 0.0, 0.0, 0.0, 0.0, 1.741627701309971E9, 0.0, 2025-03-10 12:28:21.309
252.0, -29760.587782929873, -10369.555398172784, -36683.03479946075, -32264.92193519139, -17767.200501823485, -25434.60880930529, -24847.696703397836, -17073.134132997293, -28738.643674688778, -32480.973897096384, -36019.74678274951, -10893.167363782808, -35559.92669581493, -25960.500652849754, -36269.974561926676, -32567.810424305255, -0.07600000000000001, 0.976, 0.254, 192.0, 0.0, 0.0, 0.0, 0.0, 0.0, 0.0, 0.0, 0.0, 0.0, 1.741627701309997E9, 0.0, 2025-03-10 12:28:21.309
254.0, -29790.025030377514, -10375.188037775522, -36674.36232261209, -32254.103690875017, -17753.074199327733, -25407.74201247001, -24789.537464325127, -17019.37818758228, -28744.723349180622, -32480.124530807083, -36027.9051694757, -10894.709634150224, -35587.933431617435, -25961.305315650145, -36284.97258245618, -32563.518889369836, -0.07600000000000001, 0.976, 0.254, 192.0, 0.0, 0.0, 0.0, 0.0, 0.0, 0.0, 0.0, 0.0, 0.0, 1.741627701349888E9, 0.0, 2025-03-10 12:28:21.349
0.0, -29759.26903000701, -10368.86249409467, -36669.73551150984, -32262.798519468135, -17754.70587667297, -25404.053974634884, -24821.411051918396, -17054.202205443646, -28734.35213975336, -32473.173138281483, -36012.08013440134, -10886.43948870176, -35563.19005050541, -25956.790263270173, -36266.241820602634, -32557.953305000465, -0.07400000000000001, 0.98, 0.25, 192.0, 126.5, 96.0, 15.0, 96.0, 3.5, 88.0, 0.0, 0.0, 0.0, 1.741627701349954E9, 0.0, 2025-03-10 12:28:21.349
2.0, -29789.063905365936, -10366.582616160229, -36669.132014409544, -32246.682911715856, -17756.13638831811, -25390.911148895164, -24799.685156307838, -17015.51133579151, -28735.760299654045, -32472.70375164792, -36020.12676240525, -10884.24901774514, -35594.25897529828, -25948.4754143328, -36278.04354167504, -32563.228316691915, -0.07400000000000001, 0.98, 0.25, 192.0, 0.0, 0.0, 0.0, 0.0, 0.0, 0.0, 0.0, 0.0, 0.0, 1.741627701349987E9, 0.0, 2025-03-10 12:28:21.349
4.0, -29756.85504160584, -10358.625395134139, -36666.09217716363, -32257.76937696569, -17754.817635395248, -25403.852808934786, -24812.403298902907, -17028.318885364402, -28724.11504079283, -32461.460824186903, -36006.0004599095, -10870.05566001602, -35572.980114576836, -25949.794167255663, -36280.301067865024, -32558.15447070056, -0.07400000000000001, 0.98, 0.25, 192.0, 0.0, 0.0, 0.0, 0.0, 0.0, 0.0, 0.0, 0.0, 0.0, 1.741627701350014E9, 0.0, 2025-03-10 12:28:21.350
6.0, -29783.073637851914, -10366.71672662696, -36659.073729404656, -32243.598370981024, -17760.98671686491, -25407.294977580903, -24806.167162199876, -17054.157501954734, -28729.859439117845, -32468.74749287933, -36012.70598324609, -10876.96234905271, -35588.0004868508, -25947.64839978795, -36275.02605617357, -32568.12334872763, -0.07400000000000001, 0.98, 0.25, 192.0, 0.0, 0.0, 0.0, 0.0, 0.0, 0.0, 0.0, 0.0, 0.0, 1.741627701425045E9, 0.0, 2025-03-10 12:28:21.425
8.0, -29748.920172324204, -10357.15018000009, -36654.62573225805, -32251.95792340731, -17756.494016229393, -25418.80612597539, -24825.680235109357, -17065.199263715658, -28724.53972393748, -32459.158594508004, -36006.87217794325, -10870.279177460574, -35581.80905363668, -25945.010893942224, -36294.40501861632, -32557.662732322544, -0.07400000000000001, 0.98, 0.25, 192.0, 0.0, 0.0, 0.0, 0.0, 0.0, 0.0, 0.0, 0.0, 0.0, 1.741627701425115E9, 0.0, 2025-03-10 12:28:21.425
10.0, -29788.438056521187, -10374.092802297211, -36668.77438649826, -32249.23101058376, -17774.107190860177, -25406.46796303606, -24822.95332228581, -17025.3684550963, -28727.914837350232, -32463.539536421245, -36005.843997698306, -10873.274311217585, -35583.28426877073, -25947.71545502132, -36258.284599576546, -32570.40322666207, -0.07700000000000001, 0.983, 0.249, 192.0, 126.5, 64.0, 15.0, 104.0, 3.5, 96.0, 0.0, 0.0, 0.0, 1.741627701425154E9, 0.0, 2025-03-10 12:28:21.425
12.0, -29757.03385556148, -10362.224025991443, -36664.12522365156, -32248.783975694656, -17768.049868112786, -25385.412619759158, -24840.72295912778, -17036.074940690392, -28735.670892676222, -32462.086673031652, -36019.187989138125, -10876.917645563799, -35598.684620700435, -25939.288847361666, -36303.14455069835, -32554.846412521176, -0.07700000000000001, 0.983, 0.249, 192.0, 0.0, 0.0, 0.0, 0.0, 0.0, 0.0, 0.0, 0.0, 0.0, 1.741627701425187E9, 0.0, 2025-03-10 12:28:21.425
14.0, -29778.22330930511, -10368.817790605759, -36660.906572449996, -32244.559495992602, -17759.42209475304, -25394.35331754128, -24796.600615573003, -17030.956391210126, -28727.62426467231, -32463.51718467679, -36005.1957971091, -10876.224741485685, -35582.92664085944, -25942.060463674126, -36255.37887279736, -32560.88138352411, -0.07700000000000001, 0.983, 0.249, 192.0, 0.0, 0.0, 0.0, 0.0, 0.0, 0.0, 0.0, 0.0, 0.0, 1.741627701425214E9, 0.0, 2025-03-10 12:28:21.425
16.0, -29752.98818981507, -10350.377601430131, -36656.771499725764, -32249.90156291742, -17752.873033627635, -25409.97718691554, -24817.924179783367, -17035.091463934357, -28730.39588098477, -32461.729045120366, -36012.95185243509, -10874.816581585, -35601.38918177953, -25942.50749856323, -36303.591585587455, -32556.321627655227, -0.07700000000000001, 0.983, 0.249, 192.0, 0.0, 0.0, 0.0, 0.0, 0.0, 0.0, 0.0, 0.0, 0.0, 1.74162770142524E9, 0.0, 2025-03-10 12:28:21.425
18.0, -29785.532329741996, -10373.28813949682, -36676.68690403544, -32255.109519375506, -17765.345307033695, -25414.89457069571, -24835.805575347615, -17061.734743325083, -28732.943979852676, -32470.066245802194, -36005.17344536465, -10880.113945020908, -35576.62344892305, -25960.254783660745, -36243.57715172495, -32570.91731678454, -0.07700000000000001, 0.983, 0.249, 192.0, 0.0, 0.0, 0.0, 0.0, 0.0, 0.0, 0.0, 0.0, 0.0, 1.74162770144107E9, 0.0, 2025-03-10 12:28:21.441
20.0, -29766.108663810333, -10369.108363283678, -36671.32248536617, -32245.632379726456, -17749.60967893716, -25397.728430954034, -24831.35757820101, -17007.2635420875, -28738.263695033038, -32466.89229808954, -36025.71469851908, -10879.689261876258, -35609.21229233889, -25955.873841747507, -36318.343736927956, -32553.326493898214, -0.07950000000000002, 0.9835, 0.2495, 192.0, 126.5, 56.0, 15.0, 96.0, 3.5, 104.0, 0.0, 0.0, 0.0, 1.741627701475101E9, 0.0, 2025-03-10 12:28:21.475
