%OpenBCI Raw EXG Data
%Number of channels = 16
%Sample Rate = 125 Hz
%Board = OpenBCI_GUI$BoardCytonSerialDaisy
Sample Index, EXG Channel 0, EXG Channel 1, EXG Channel 2, EXG Channel 3, EXG Channel 4, EXG Channel 5, EXG Channel 6, EXG Channel 7, EXG Channel 8, EXG Channel 9, EXG Channel 10, EXG Channel 11, EXG Channel 12, EXG Channel 13, EXG Channel 14, EXG Channel 15, Accel Channel 0, Accel Channel 1, Accel Channel 2, Not Used, Digital Channel 0 (D11), Digital Channel 1 (D12), Digital Channel 2 (D13), Digital Channel 3 (D17), Not Used, Digital Channel 4 (D18), Analog Channel 0, Analog Channel 1, Analog Channel 2, Timestamp, Marker Channel, Timestamp (Formatted)
208.0, -29696.34886936532, -10625.974610564066, -36580.2838301997, -32156.337160627507, -17536.53049904472, -25422.494163810512, -24840.83471785006, -16893.38140408771, -29035.273675355158, -32182.04166675111, -35901.01431620292, -10793.769156190057, -35566.0957772846, -26027.086499582114, -36177.125415459326, -32422.859361512586, 0.0, 0.0, 0.0, 192.0, 0.0, 0.0, 0.0, 0.0, 0.0, 0.0, 0.0, 0.0, 0.0, 1.741627750731437E9, 0.0, 2025-03-10 12:29:10.731
210.0, -29662.195403837613, -10615.536345903438, -36571.92427777342, -32157.7900240171, -17520.347836059074, -25418.78377423093, -24828.965941544287, -16870.895549165674, -29027.27175084016, -32177.437207393315, -35889.81609223081, -10784.761403174569, -35545.37571017453, -26012.781383130718, -36149.789231990486, -32411.616434051568, -0.062, 0.982, 0.264, 192.0, 127.0, 8.0, 15.0, 88.0, 4.0, 32.0, 0.0, 0.0, 0.0, 1.741627750731527E9, 0.0, 2025-03-10 12:29:10.731
212.0, -29696.192407154133, -10629.86381409929, -36575.612315608545, -32153.90082048188, -17523.208859349354, -25426.897457468207, -24826.216676976288, -16891.325043597823, -29032.25618985369, -32176.252564937186, -35898.55562431284, -10786.661301453269, -35563.860602839064, -26018.615188433552, -36159.422833850724, -32422.009995223285, -0.062, 0.982, 0.264, 192.0, 0.0, 0.0, 0.0, 0.0, 0.0, 0.0, 0.0, 0.0, 0.0, 1.741627750731588E9, 0.0, 2025-03-10 12:29:10.731
214.0, -29663.849432927305, -10618.777348849459, -36574.628838852506, -32162.841518264, -17514.961065645348, -25431.256047636994, -24830.508211911707, -16888.66518600764, -29025.88594268393, -32174.822053292046, -35891.96185969852, -10785.99074911961, -35543.386404918005, -26014.994205831794, -36158.70757802815, -32425.385108636037, -0.062, 0.982, 0.264, 192.0, 0.0, 0.0, 0.0, 0.0, 0.0, 0.0, 0.0, 0.0, 0.0, 1.741627750731658E9, 0.0, 2025-03-10 12:29:10.731
216.0, -29700.215721156088, -10631.160215277698, -36584.86593781304, -32158.54998332858, -17529.601458263573, -25430.294922625417, -24849.19427027634, -16899.259912879457, -29034.871343954965, -32184.56741387456, -35902.6236418037, -10795.981978891132, -35558.31737021415, -26025.074842581136, -36145.49769705507, -32425.832143525142, -0.062, 0.982, 0.264, 192.0, 0.0, 0.0, 0.0, 0.0, 0.0, 0.0, 0.0, 0.0, 0.0, 1.741627750731715E9, 0.0, 2025-03-10 12:29:10.731
218.0, -29665.324648061356, -10618.620886638271, -36573.779472563205, -32153.923172226332, -17515.676321467916, -25411.58651251632, -24821.880438551958, -16871.879025921706, -29030.89273344192, -32174.062093980563, -35903.80828425983, -10789.455269510183, -35559.189088247906, -26017.788173888704, -36171.29161015649, -32416.198541664904, -0.062, 0.982, 0.264, 192.0, 0.0, 0.0, 0.0, 0.0, 0.0, 0.0, 0.0, 0.0, 0.0, 1.741627750731771E9, 0.0, 2025-03-10 12:29:10.731
220.0, -29696.72884902106, -10633.462444956594, -36577.26634469823, -32150.905686724866, -17535.65878101096, -25423.94702720011, -24844.388645218452, -16898.432898334613, -29033.93257068784, -32179.38180916093, -35903.76358077092, -10789.589379976915, -35550.53896314371, -26011.663795907953, -36135.43941205018, -32413.426925352447, -0.06, 0.982, 0.264, 192.0, 127.0, 16.0, 15.0, 88.0, 4.0, 32.0, 0.0, 0.0, 0.0, 1.741627750731827E9, 0.0, 2025-03-10 12:29:10.731
222.0, -29647.24208679701, -10601.611209107783, -36553.797013020165, -32136.77938422911, -17504.858077151548, -25411.497105538503, -24837.48195618176, -16867.632194475198, -29023.762526960676, -32165.23315492072, -35896.70042952304, -10778.435859493717, -35546.69446309739, -25992.888330565493, -36170.554002589466, -32410.588253806625, -0.06, 0.982, 0.264, 192.0, 0.0, 0.0, 0.0, 0.0, 0.0, 0.0, 0.0, 0.0, 0.0, 1.741627750731897E9, 0.0, 2025-03-10 12:29:10.731
224.0, -29684.234223870546, -10617.168023248676, -36571.6337050955, -32145.474212822228, -17526.740434973293, -25429.02087319146, -24852.63643892246, -16890.140401141693, -29018.33105305804, -32163.668532808846, -35885.99394392895, -10774.904283869779, -35536.971454259336, -25993.156551498956, -36117.08862985237, -32411.929358473943, -0.06, 0.982, 0.264, 192.0, 0.0, 0.0, 0.0, 0.0, 0.0, 0.0, 0.0, 0.0, 0.0, 1.74162775073196E9, 0.0, 2025-03-10 12:29:10.731
226.0, -29654.126424089245, -10600.203049207097, -36557.932085744396, -32140.26625636414, -17504.679263195903, -25406.132686869227, -24820.516982140183, -16873.689517222585, -29016.900541412895, -32154.638428048904, -35890.59840328675, -10772.534998957515, -35554.47287016784, -26003.32659522612, -36174.91259275825, -32413.09164918562, -0.06, 0.982, 0.264, 192.0, 0.0, 0.0, 0.0, 0.0, 0.0, 0.0, 0.0, 0.0, 0.0, 1.741627750732017E9, 0.0, 2025-03-10 12:29:10.732
228.0, -29696.617090298783, -10634.065942056888, -36584.66477211294, -32165.61313457646, -17529.847327452582, -25442.320161142372, -24843.896906840433, -16918.661227066663, -29032.010320664685, -32176.587841104014, -35890.24077537546, -10783.08502234042, -35555.12107075704, -26012.24494126379, -36117.692126952665, -32421.540608589723, -0.06, 0.982, 0.264, 192.0, 0.0, 0.0, 0.0, 0.0, 0.0, 0.0, 0.0, 0.0, 0.0, 1.741627750732085E9, 0.0, 2025-03-10 12:29:10.732
230.0, -29666.3528283063, -10620.163157005687, -36563.587077091586, -32152.44795709228, -17504.545152729173, -25425.779870245442, -24818.57238037257, -16873.220130589027, -29042.13566090294, -32181.751094073188, -35907.09399069476, -10793.053900367488, -35564.508803428274, -26021.789136146206, -36188.14482547579, -32426.21212318088, -0.066, 0.984, 0.262, 192.0, 126.5, 120.0, 15.0, 96.0, 4.0, 24.0, 0.0, 0.0, 0.0, 1.741627750732155E9, 0.0, 2025-03-10 12:29:10.732
232.0, -29692.034982685447, -10629.685000143649, -36575.47820514181, -32151.129204169418, -17521.666588981938, -25423.12001265526, -24853.374046489484, -16874.181255600604, -29035.31837884407, -32177.638373093414, -35893.32531611029, -10785.119031085853, -35540.14540197199, -26009.3392144846, -36109.734905926576, -32418.813695766177, -0.066, 0.984, 0.262, 192.0, 0.0, 0.0, 0.0, 0.0, 0.0, 0.0, 0.0, 0.0, 0.0, 1.741627750732221E9, 0.0, 2025-03-10 12:29:10.732
234.0, -29672.58896500933, -10621.43720643964, -36565.37521664801, -32145.45186107777, -17506.154478329954, -25423.544695799912, -24820.71814784028, -16889.469848808032, -29039.252285868202, -32175.179681203328, -35909.15035118465, -10789.388214276816, -35574.41062622197, -26014.122487798035, -36179.40529339377, -32414.879788742044, -0.066, 0.984, 0.262, 192.0, 0.0, 0.0, 0.0, 0.0, 0.0, 0.0, 0.0, 0.0, 0.0, 1.741627750732283E9, 0.0, 2025-03-10 12:29:10.732
236.0, -29679.070970901368, -10626.689866386636, -36568.79503354967, -32143.574314543526, -17511.787117932694, -25414.872218951252, -24814.28084543715, -16857.14922632566, -29028.881076440943, -32171.692809068303, -35887.96089744102, -10779.821667649945, -35526.756707043256, -26002.432525447908, -36096.52502495349, -32411.482323584834, -0.066, 0.984, 0.262, 192.0, 0.0, 0.0, 0.0, 0.0, 0.0, 0.0, 0.0, 0.0, 0.0, 1.741627750732344E9, 0.0, 2025-03-10 12:29:10.732
240.0, -29674.3547528213, -10623.404159951706, -36572.97480976282, -32144.870715721932, -17515.475155767817, -25432.775966259953, -24835.269133480684, -16882.138476626693, -29028.79166946312, -32174.307963169573, -35887.223289874, -10778.882894382823, -35541.307692683666, -26002.90191208147, -36104.281080279485, -32421.89823650101, -0.064, 0.984, 0.258, 192.0, 127.0, 0.0, 15.0, 96.0, 4.0, 8.0, 0.0, 0.0, 0.0, 1.741627750732403E9, 0.0, 2025-03-10 12:29:10.732
242.0, -29674.332401076845, -10623.538270418438, -36581.960211033846, -32152.06797743654, -17519.02908313621, -25431.345454614813, -24850.378912732474, -16905.563104815854, -29033.30672184309, -32171.491643368205, -35904.478836593495, -10781.833324650923, -35590.369771763064, -26007.171095272435, -36172.18567993471, -32414.477457341847, -0.064, 0.984, 0.258, 192.0, 0.0, 0.0, 0.0, 0.0, 0.0, 0.0, 0.0, 0.0, 0.0, 1.741627750732461E9, 0.0, 2025-03-10 12:29:10.732
246.0, -29684.21187212609, -10625.214651252587, -36577.914545287436, -32143.8872389659, -17517.79973719117, -25419.677844009144, -24816.426612904863, -16866.604014230255, -29038.98406493474, -32178.666553338357, -35913.03955471987, -10791.80220267799, -35588.67103918446, -26016.67058666594, -36175.15846194726, -32418.500771343803, -0.064, 0.984, 0.258, 192.0, 0.0, 0.0, 0.0, 0.0, 0.0, 0.0, 0.0, 0.0, 0.0, 1.741627750732518E9, 0.0, 2025-03-10 12:29:10.732
248.0, -29666.419883539664, -10622.15246226221, -36576.70755108685, -32152.40325360337, -17517.03977787969, -25434.474698838556, -24833.905677068913, -16883.52428478292, -29028.74696597421, -32175.537309114614, -35892.85592947673, -10781.56510371746, -35544.07930899612, -26006.411135960956, -36113.89233039526, -32415.863265498076, -0.064, 0.984, 0.258, 192.0, 0.0, 0.0, 0.0, 0.0, 0.0, 0.0, 0.0, 0.0, 0.0, 1.741627750732583E9, 0.0, 2025-03-10 12:29:10.732
252.0, -29663.06712187137, -10623.985305307544, -36572.6842370849, -32159.64521880689, -17510.378958032008, -25433.73709127153, -24851.183575532865, -16922.17045094615, -29034.826640466054, -32184.589765619014, -35898.24269989046, -10793.925618401245, -35543.676977595926, -26016.692938410397, -36125.314071811925, -32431.576541850158, -0.06, 0.988, 0.26, 192.0, 0.0, 0.0, 0.0, 0.0, 0.0, 0.0, 0.0, 0.0, 0.0, 1.741627750732646E9, 0.0, 2025-03-10 12:29:10.732
0.0, -14832.818786241865, -5286.768709035959, -18272.729906169166, -16029.084149489898, -8734.122959866878, -12679.205856228573, -12399.071442970211, -8395.695197069073, -14509.366692229116, -16087.08692635142, -17938.683085284603, -5389.072643407899, -17763.08778084371, -13001.562714763013, -18042.685752235146, -16203.025424841098, -0.064, 0.98, 0.252, 192.0, 127.0, 0.0, 15.0, 80.0, 3.5, 112.0, 0.0, 0.0, 0.0, 1.741627750884673E9, 0.0, 2025-03-10 12:29:10.884
2.0, -29631.729976145027, -10564.574368545338, -36542.55408555914, -32063.778586838078, -17459.953422540835, -25354.723674622022, -24790.029202703143, -16789.401088881623, -28972.331162969014, -32176.252564937186, -35832.08153630275, -10856.376392409373, -35389.874623998956, -25896.999346852226, -36086.06440854841, -32257.52350777668, -0.064, 0.98, 0.252, 192.0, 0.0, 0.0, 0.0, 0.0, 0.0, 0.0, 0.0, 0.0, 0.0, 1.74162775088478E9, 0.0, 2025-03-10 12:29:10.884
4.0, -29677.953383678603, -10578.834781507825, -36556.099242699056, -32065.074988016488, -17487.334309498587, -25368.604107928768, -24831.7599096012, -16836.563269682323, -28969.02310478963, -32174.576184103036, -35829.08640254574, -10855.77289530908, -35408.85125504151, -25923.03912914266, -36089.14894928324, -32270.53222304967, -0.064, 0.98, 0.252, 192.0, 0.0, 0.0, 0.0, 0.0, 0.0, 0.0, 0.0, 0.0, 0.0, 1.741627750884845E9, 0.0, 2025-03-10 12:29:10.884
6.0, -29641.229467538535, -10567.345984857797, -36548.477297839796, -32073.367485209405, -17470.615204646016, -25383.535073224914, -24803.7531737987, -16828.717807378507, -28977.561471171557, -32181.639335350912, -35838.85411487271, -10859.90796803331, -35405.185568950845, -25927.911809433917, -36118.09445835286, -32282.11042667752, -0.064, 0.98, 0.252, 192.0, 0.0, 0.0, 0.0, 0.0, 0.0, 0.0, 0.0, 0.0, 0.0, 1.741627750884911E9, 0.0, 2025-03-10 12:29:10.884
8.0, -29680.76970347997, -10587.060223467377, -36554.5793240761, -32066.68431361727, -17480.98641407328, -25353.337866465794, -24805.8542377775, -16802.14158322115, -28981.048343306586, -32185.260317952674, -35845.58198995376, -10864.601834368925, -35403.48683637224, -25929.78935596816, -36083.33749572486, -32283.362124367017, -0.064, 0.978, 0.246, 192.0, 127.0, 0.0, 15.0, 72.0, 3.5, 88.0, 0.0, 0.0, 0.0, 1.741627750884978E9, 0.0, 2025-03-10 12:29:10.884
10.0, -29641.54239196091, -10573.313900627363, -36544.94572221586, -32068.96419155171, -17463.820274331603, -25343.570154138823, -24794.231330660743, -16780.92977773306, -28983.68584915231, -32182.89103304041, -35851.348740023226, -10868.401630926328, -35400.067019470574, -25922.99442565375, -36113.60175771735, -32262.642057256948, -0.064, 0.978, 0.246, 192.0, 0.0, 0.0, 0.0, 0.0, 0.0, 0.0, 0.0, 0.0, 0.0, 1.741627750938718E9, 0.0, 2025-03-10 12:29:10.938
12.0, -29683.228395370057, -10590.055357224388, -36559.98844623428, -32068.897136318345, -17478.08068729409, -25369.07349456233, -24795.728897539248, -16802.23099019897, -28985.5410439421, -32183.673344096347, -35847.72775742147, -10869.698032104736, -35401.564586349086, -25922.055652386625, -36068.11595775079, -32268.699380004335, -0.064, 0.978, 0.246, 192.0, 0.0, 0.0, 0.0, 0.0, 0.0, 0.0, 0.0, 0.0, 0.0, 1.741627750938789E9, 0.0, 2025-03-10 12:29:10.938
14.0, -29651.175993821147, -10566.787191246414, -36554.40051012045, -32067.33251420647, -17469.855245334536, -25355.707151378054, -24791.9514527263, -16801.627493098676, -28986.233948020217, -32179.98530626122, -35856.89197264814, -10869.630976871369, -35411.19818820932, -25927.196553611346, -36120.843722920865, -32267.805310226122, -0.064, 0.978, 0.246, 192.0, 0.0, 0.0, 0.0, 0.0, 0.0, 0.0, 0.0, 0.0, 0.0, 1.741627750938845E9, 0.0, 2025-03-10 12:29:10.938
16.0, -29683.138988392235, -10589.42950837964, -36569.19736494987, -32070.282944474573, -17486.75316414275, -25358.814043857343, -24822.796860074624, -16817.296065961847, -28989.273785266138, -32184.925041785842, -35851.0134638564, -10869.586273382458, -35400.20112993731, -25924.89432393245, -36062.99740827053, -32274.801406240633, -0.064, 0.978, 0.246, 192.0, 0.0, 0.0, 0.0, 0.0, 0.0, 0.0, 0.0, 0.0, 0.0, 1.741627750938927E9, 0.0, 2025-03-10 12:29:10.938
18.0, -29656.67452295715, -10575.23615065052, -36556.658036310444, -32072.763988109113, -17470.16816975691, -25362.613840414746, -24799.931025496844, -16799.4146703976, -28985.40693347537, -32177.727780071236, -35858.34483603774, -10867.060526259009, -35417.23315921225, -25924.98373091027, -36139.26156035204, -32273.259135873217, -0.068, 0.988, 0.248, 192.0, 126.5, 112.0, 15.0, 112.0, 3.5, 96.0, 0.0, 0.0, 0.0, 1.741627751005223E9, 0.0, 2025-03-10 12:29:11.005
20.0, -29678.758046478993, -10583.550999587895, -36562.69300731338, -32072.428711942284, -17481.20993151783, -25365.094884049286, -24793.89605449391, -16810.501135647435, -28985.272823008636, -32183.181605718328, -35848.3089027773, -10869.407459426817, -35386.320696630566, -25914.277245316178, -36068.339475195346, -32274.62259228499, -0.068, 0.988, 0.248, 192.0, 0.0, 0.0, 0.0, 0.0, 0.0, 0.0, 0.0, 0.0, 0.0, 1.741627751005328E9, 0.0, 2025-03-10 12:29:11.005
22.0, -29657.814461924372, -10570.56463605936, -36555.29457989867, -32067.44427292875, -17484.49563795276, -25352.287334476394, -24828.29538921063, -16791.166876693595, -28981.87535785143, -32173.346838157995, -35856.40023427013, -10869.9662530382, -35423.290481959644, -25923.37440530949, -36138.76982197402, -32265.413673569405, -0.068, 0.988, 0.248, 192.0, 0.0, 0.0, 0.0, 0.0, 0.0, 0.0, 0.0, 0.0, 0.0, 1.741627751005384E9, 0.0, 2025-03-10 12:29:11.005
24.0, -29670.845528941816, -10578.90183674119, -36558.80380377815, -32070.707627619224, -17477.343079727063, -25336.97638952451, -24787.57051081306, -16794.94432150654, -28974.901613581376, -32177.57131786005, -35837.490658460934, -10863.037212257053, -35387.12535943095, -25919.798126196638, -36076.43080668817, -32274.264964373706, -0.068, 0.988, 0.248, 192.0, 0.0, 0.0, 0.0, 0.0, 0.0, 0.0, 0.0, 0.0, 0.0, 1.741627751005453E9, 0.0, 2025-03-10 12:29:11.005
26.0, -29664.2517643275, -10579.482982097028, -36555.18282117639, -32073.47924393168, -17473.967966314314, -25372.135683552708, -24796.220635917263, -16820.22414448549, -28984.065828808052, -32176.230213192728, -35855.64027495865, -10871.083840260964, -35423.60340638202, -25928.358844323022, -36138.613359762836, -32274.935516707366, -0.068, 0.988, 0.248, 192.0, 0.0, 0.0, 0.0, 0.0, 0.0, 0.0, 0.0, 0.0, 0.0, 1.741627751005514E9, 0.0, 2025-03-10 12:29:11.005
28.0, -29669.616182996775, -10583.66275831017, -36560.90486775695, -32073.25572648713, -17472.962137813825, -25361.049218302873, -24782.876644477445, -16801.113402976203, -28977.896747338385, -32176.118454470452, -35837.08832706074, -10861.24907270063, -35382.20797565079, -25916.42301278389, -36062.23744895905, -32269.23582187126, -0.06, 0.99, 0.246, 192.0, 127.0, 16.0, 15.0, 120.0, 3.5, 88.0, 0.0, 0.0, 0.0, 1.741627751005579E9, 0.0, 2025-03-10 12:29:11.005
30.0, -29676.746389478016, -10587.261389167475, -36559.027321222704, -32071.154662508332, -17462.568576642105, -25362.099750292273, -24792.353784126495, -16795.726632562477, -28996.56045395857, -32185.103855741487, -35868.17960359807, -10879.376337453883, -35441.35069147953, -25935.578457782085, -36131.10317362585, -32268.654676515423, -0.06, 0.99, 0.246, 192.0, 0.0, 0.0, 0.0, 0.0, 0.0, 0.0, 0.0, 0.0, 0.0, 1.741627751005648E9, 0.0, 2025-03-10 12:29:11.005
32.0, -29670.06321788588, -10583.23807516552, -36563.11769045803, -32072.384008453373, -17463.30618420913, -25355.86361358924, -24783.167217155366, -16770.804437494808, -28992.02304983414, -32184.612117363467, -35849.09121383324, -10870.68150886077, -35379.883394227436, -25923.776736709686, -36054.19082095514, -32267.53708929266, -0.06, 0.99, 0.246, 192.0, 0.0, 0.0, 0.0, 0.0, 0.0, 0.0, 0.0, 0.0, 0.0, 1.741627751028851E9, 0.0, 2025-03-10 12:29:11.028
34.0, -29680.188558124133, -10594.682168326637, -36568.01272249374, -32077.994296311655, -17469.676431378895, -25367.754741639466, -24803.663766820882, -16823.778071853885, -28996.73926791421, -32180.32058242805, -35863.10575760672, -10871.799096083534, -35431.15829600791, -25924.447289043343, -36125.09055436737, -32271.113368405506, -0.06, 0.99, 0.246, 192.0, 0.0, 0.0, 0.0, 0.0, 0.0, 0.0, 0.0, 0.0, 0.0, 1.741627751028924E9, 0.0, 2025-03-10 12:29:11.028
36.0, -29649.141985075712, -10574.90087448369, -36554.02053046472, -32069.791206096557, -17457.204157972832, -25353.851956588263, -24779.34506885351, -16782.60615856721, -28986.63627942041, -32190.51297789967, -35838.72000440598, -10870.43563967176, -35395.596670579514, -25922.055652386625, -36066.37252168328, -32283.563290067115, -0.06, 0.99, 0.246, 192.0, 0.0, 0.0, 0.0, 0.0, 0.0, 0.0, 0.0, 0.0, 0.0, 1.741627751097598E9, 0.0, 2025-03-10 12:29:11.097
38.0, -29675.137063877235, -10581.651101309193, -36556.74744328826, -32064.136214749364, -17474.929091325892, -25351.460319931546, -24791.124438181454, -16800.71107157601, -28985.921023597843, -32181.28170743963, -35847.88421963265, -10869.742735593645, -35429.54897040713, -25917.98763489576, -36113.154722828236, -32264.944286935843, -0.058, 0.99, 0.246, 192.0, 127.0, 24.0, 15.0, 120.0, 3.5, 88.0, 0.0, 0.0, 0.0, 1.7416277510977E9, 0.0, 2025-03-10 12:29:11.097
40.0, -29650.48308974303, -10578.700671041093, -36550.444251351866, -32072.071084031, -17460.780437085683, -25357.36118046775, -24793.91840623837, -16811.32815019228, -28982.612965418455, -32178.197166704795, -35833.512047947894, -10864.9147587913, -35396.155464190895, -25910.566855736597, -36069.54646939594, -32267.559441037112, -0.058, 0.99, 0.246, 192.0, 0.0, 0.0, 0.0, 0.0, 0.0, 0.0, 0.0, 0.0, 0.0, 1.741627751097768E9, 0.0, 2025-03-10 12:29:11.097
42.0, -29686.69291576063, -10600.471270140562, -36564.39173989198, -32075.20032825474, -17475.51023668173, -25368.64881141768, -24819.935836784345, -16849.974316355507, -29000.27084353815, -32187.450788909293, -35864.64802797414, -10880.091593276453, -35447.07273806009, -25936.159603137923, -36114.696993195656, -32280.657563287925, -0.058, 0.99, 0.246, 192.0, 0.0, 0.0, 0.0, 0.0, 0.0, 0.0, 0.0, 0.0, 0.0, 1.741627751097824E9, 0.0, 2025-03-10 12:29:11.097
44.0, -29656.808633423883, -10590.815316535869, -36557.015664221726, -32083.001087069642, -17459.01464927371, -25380.96462261255, -24790.543292825616, -16804.443812900045, -28992.02304983414, -32181.37111441745, -35848.95710336651, -10870.8156193275, -35407.17487420736, -25926.235428599768, -36084.90211783673, -32286.759589524223, -0.058, 0.99, 0.246, 192.0, 0.0, 0.0, 0.0, 0.0, 0.0, 0.0, 0.0, 0.0, 0.0, 1.741627751097879E9, 0.0, 2025-03-10 12:29:11.097
46.0, -29686.625860527263, -10598.101985228299, -36557.95443748885, -32068.53950840706, -17470.346983712552, -25338.093976747274, -24788.732801524737, -16764.635356025145, -29003.98123311773, -32191.98819303372, -35864.78213844087, -10882.416174699805, -35438.69083388935, -25935.444347315355, -36109.13140882628, -32278.19887139784, -0.058, 0.99, 0.246, 192.0, 0.0, 0.0, 0.0, 0.0, 0.0, 0.0, 0.0, 0.0, 0.0, 1.741627751097951E9, 0.0, 2025-03-10 12:29:11.097
48.0, -29648.29261878641, -10585.38384263323, -36554.378158376, -32078.620145156405, -17451.705628836826, -25378.796503400386, -24772.818359472556, -16830.573002168298, -28987.08331430952, -32185.640297608414, -35842.117469563185, -10868.558093137515, -35399.99996423721, -25927.732995478273, -36082.599888157834, -32272.454473072827, -0.054, 0.986, 0.244, 192.0, 127.0, 40.0, 15.0, 104.0, 3.5, 80.0, 0.0, 0.0, 0.0, 1.741627751098013E9, 0.0, 2025-03-10 12:29:11.098
50.0, -29684.368334337276, -10596.492659627516, -36558.66969331142, -32062.19161298175, -17462.54622489765, -25346.341770451283, -24770.985516427223, -16758.332164088748, -28989.944337599798, -32188.568376132058, -35847.28072253236, -10872.179075739274, -35425.30213896062, -25925.743690221752, -36085.08093179237, -32272.968563195296, -0.054, 0.986, 0.244, 192.0, 0.0, 0.0, 0.0, 0.0, 0.0, 0.0, 0.0, 0.0, 0.0, 1.741627751160011E9, 0.0, 2025-03-10 12:29:11.160
52.0, -29651.01953160996, -10581.47228735355, -36557.55210608865, -32071.266421230608, -17462.45681791983, -25356.78003511191, -24793.001984715702, -16808.735347835463, -28990.324317255538, -32185.32737318604, -35843.21270504149, -10867.596968125936, -35416.69671734532, -25924.000254154238, -36087.74078938255, -32263.156147379417, -0.054, 0.986, 0.244, 192.0, 0.0, 0.0, 0.0, 0.0, 0.0, 0.0, 0.0, 0.0, 0.0, 1.741627751160113E9, 0.0, 2025-03-10 12:29:11.160
54.0, -29689.084552417346, -10593.363415403774, -36563.452966624856, -32061.275191459084, -17463.1720737424, -25361.5856601698, -24799.104010952, -16818.793632840352, -28987.396238731893, -32178.264221938163, -35844.084423075255, -10865.942939036244, -35421.748211592225, -25913.494934260245, -36080.7670451125, -32264.966638680296, -0.054, 0.986, 0.244, 192.0, 0.0, 0.0, 0.0, 0.0, 0.0, 0.0, 0.0, 0.0, 0.0, 1.741627751160176E9, 0.0, 2025-03-10 12:29:11.160
56.0, -29654.10407234479, -10576.800772762392, -36554.355806631545, -32071.758159608624, -17449.671620091394, -25358.322305479327, -24783.748362511204, -16801.403975654124, -28995.174645802337, -32185.640297608414, -35854.43328075806, -10873.475476917682, -35417.99311852374, -25924.022605898692, -36107.65619369223, -32278.936478964864, -0.054, 0.986, 0.244, 192.0, 0.0, 0.0, 0.0, 0.0, 0.0, 0.0, 0.0, 0.0, 0.0, 1.741627751160231E9, 0.0, 2025-03-10 12:29:11.160
58.0, -29687.810502983393, -10599.443089895618, -36562.737710802285, -32065.47731941668, -17455.483073649775, -25356.556517667355, -24778.674516519848, -16794.631397084166, -28989.83257887752, -32178.97947776073, -35850.05233884482, -10868.312223948506, -35399.53057760365, -25919.70871921882, -36059.93521928015, -32264.34078983555, -0.06, 0.986, 0.246, 192.0, 127.0, 16.0, 15.0, 104.0, 3.5, 88.0, 0.0, 0.0, 0.0, 1.741627751160286E9, 0.0, 2025-03-10 12:29:11.160
60.0, -29654.975790378547, -10583.081612954333, -36554.10993744254, -32070.595868896948, -17445.089512478055, -25351.862651331743, -24782.80958924408, -16787.210617925004, -28989.653764921877, -32177.280745182128, -35854.47798424697, -10870.234473971663, -35415.69088884484, -25920.066347130105, -36105.75629541353, -32275.76253125221, -0.06, 0.986, 0.246, 192.0, 0.0, 0.0, 0.0, 0.0, 0.0, 0.0, 0.0, 0.0, 0.0, 1.741627751160358E9, 0.0, 2025-03-10 12:29:11.160
62.0, -29686.558805293895, -10596.76088056098, -36568.79503354967, -32071.512290419614, -17469.408210445432, -25359.77516886892, -24801.89797900891, -16803.058004743816, -28994.571148702045, -32185.059152252576, -35850.029987100366, -10874.034270529064, -35406.370211406975, -25913.1149546045, -36058.012969257, -32272.655638772925, -0.06, 0.986, 0.246, 192.0, 0.0, 0.0, 0.0, 0.0, 0.0, 0.0, 0.0, 0.0, 0.0, 1.74162775116042E9, 0.0, 2025-03-10 12:29:11.160
64.0, -29654.372293278255, -10583.215723421064, -36560.167260189926, -32069.18770899626, -17463.79792258715, -25353.44962518807, -24807.843543034025, -16808.444775157546, -28990.771352144642, -32175.51495737016, -35849.69471093353, -10867.664023359303, -35426.66559537239, -25916.490068017254, -36131.84078119288, -32277.48361557527, -0.06, 0.986, 0.246, 192.0, 0.0, 0.0, 0.0, 0.0, 0.0, 0.0, 0.0, 0.0, 0.0, 1.741627751160475E9, 0.0, 2025-03-10 12:29:11.160
66.0, -29681.68612500264, -10596.179735205144, -36568.03507423819, -32070.126482263386, -17469.341155212063, -25365.83249161631, -24802.59088308703, -16813.585676382267, -28989.519654455147, -32181.952259773287, -35836.931864849554, -10865.741773336145, -35405.945528262324, -25911.729146448273, -36061.008103014006, -32268.63232477097, -0.06, 0.986, 0.246, 192.0, 0.0, 0.0, 0.0, 0.0, 0.0, 0.0, 0.0, 0.0, 0.0, 1.741627751216222E9, 0.0, 2025-03-10 12:29:11.216
68.0, -29659.37908403624, -10586.657892067182, -36562.29067591318, -32072.339304964462, -17463.037963275667, -25359.752817124467, -24801.450944119806, -16819.687702618565, -28996.73926791421, -32186.042629008607, -35855.327350536274, -10877.476439175181, -35440.03193855667, -25918.07704187358, -36126.34225205687, -32273.616763784503, -0.052000000000000005, 0.982, 0.248, 192.0, 127.0, 48.0, 15.0, 88.0, 3.5, 96.0, 0.0, 0.0, 0.0, 1.741627751216316E9, 0.0, 2025-03-10 12:29:11.216
70.0, -29675.382933066245, -10591.798793291902, -36566.80572829315, -32074.52977592108, -17468.08945752257, -25371.666296919146, -24812.939740769834, -16825.856784088228, -28987.93268059882, -32187.316678442563, -35837.915341605585, -10874.146029251342, -35396.89307175792, -25920.803954697127, -36057.99061751254, -32285.887871490464, -0.052000000000000005, 0.982, 0.248, 192.0, 0.0, 0.0, 0.0, 0.0, 0.0, 0.0, 0.0, 0.0, 0.0, 1.741627751216387E9, 0.0, 2025-03-10 12:29:11.216
72.0, -29661.122520103756, -10585.450897866594, -36564.212925936336, -32074.35096196544, -17468.424733689397, -25372.381552741714, -24828.697720610824, -16834.305743492336, -28989.005564332674, -32180.968783017255, -35848.822992899775, -10874.749526351634, -35434.86868558749, -25928.291789089657, -36132.60074050436, -32276.030752185674, -0.052000000000000005, 0.982, 0.248, 192.0, 0.0, 0.0, 0.0, 0.0, 0.0, 0.0, 0.0, 0.0, 0.0, 1.741627751216457E9, 0.0, 2025-03-10 12:29:11.216
74.0, -29669.23620334103, -10593.363415403774, -36565.732844559294, -32066.796072339544, -17467.061277277622, -25352.44379668758, -24796.131228939445, -16773.620757296176, -28990.413724233356, -32189.440094165817, -35837.20008578302, -10872.000261783633, -35407.46544688528, -25923.12853612048, -36060.94104778064, -32283.7197522783, -0.052000000000000005, 0.982, 0.248, 192.0, 0.0, 0.0, 0.0, 0.0, 0.0, 0.0, 0.0, 0.0, 0.0, 1.741627751216514E9, 0.0, 2025-03-10 12:29:11.216
76.0, -29665.257592827988, -10588.244865923509, -36558.893210755974, -32058.570630379993, -17454.901928293937, -25348.375779196715, -24774.85236821799, -16792.41857438309, -28991.17368354484, -32185.103855741487, -35851.43814700105, -10872.223779228185, -35445.97750258178, -25928.716472234308, -36120.66490896522, -32260.94332467834, -0.052000000000000005, 0.982, 0.248, 192.0, 0.0, 0.0, 0.0, 0.0, 0.0, 0.0, 0.0, 0.0, 0.0, 1.741627751216571E9, 0.0, 2025-03-10 12:29:11.216
78.0, -29668.722113218562, -10585.339139144318, -36565.464623625834, -32064.516194405103, -17465.02726853219, -25364.379628226714, -24785.245929389708, -16815.306760705324, -28987.86562536545, -32177.616021348957, -35832.327405491764, -10858.946843021733, -35406.88430152945, -25912.399698781934, -36051.486259876045, -32263.37966482397, -0.054, 0.982, 0.25, 192.0, 127.0, 40.0, 15.0, 88.0, 3.5, 104.0, 0.0, 0.0, 0.0, 1.741627751216627E9, 0.0, 2025-03-10 12:29:11.216
80.0, -29682.937822692136, -10597.923171272656, -36563.85529802505, -32068.517156662605, -17463.909681309426, -25362.59148867029, -24793.47137134926, -16818.81598458481, -28998.460352237267, -32181.66168709537, -35855.126184836176, -10873.229607728674, -35447.49742120474, -25929.632893756974, -36126.45401077915, -32283.67504878939, -0.054, 0.982, 0.25, 192.0, 0.0, 0.0, 0.0, 0.0, 0.0, 0.0, 0.0, 0.0, 0.0, 1.741627751247219E9, 0.0, 2025-03-10 12:29:11.247
82.0, -29668.319781818365, -10591.687034569626, -36563.14004220248, -32069.701799118735, -17458.45585566233, -25368.984087584508, -24798.835790018536, -16824.448624187546, -28993.65472717938, -32181.482873139725, -35839.591722439734, -10866.300566947528, -35409.18653120834, -25913.584341238064, -36062.6621321037, -32269.01230442671, -0.054, 0.982, 0.25, 192.0, 0.0, 0.0, 0.0, 0.0, 0.0, 0.0, 0.0, 0.0, 0.0, 1.741627751247318E9, 0.0, 2025-03-10 12:29:11.247
84.0, -29681.484959302543, -10593.43047063714, -36558.110899700034, -32058.816499569002, -17459.327573696086, -25352.77907285441, -24790.63269980344, -16767.496379315424, -28995.73343941372, -32175.537309114614, -35853.941542380046, -10869.228645471174, -35457.958037609824, -25919.28403607417, -36127.281025323995, -32275.67312427439, -0.054, 0.982, 0.25, 192.0, 0.0, 0.0, 0.0, 0.0, 0.0, 0.0, 0.0, 0.0, 0.0, 1.741627751247382E9, 0.0, 2025-03-10 12:29:11.247
86.0, -29664.475281772055, -10585.80852577788, -36558.73674854478, -32064.49384266065, -17466.860111577524, -25364.5360904379, -24811.173952957866, -16811.976350781482, -28989.78787538861, -32173.972687002744, -35838.47413521697, -10860.176188966774, -35411.08642948704, -25912.198533081835, -36072.385140941755, -32270.554574794125, -0.054, 0.982, 0.25, 192.0, 0.0, 0.0, 0.0, 0.0, 0.0, 0.0, 0.0, 0.0, 0.0, 1.741627751308325E9, 0.0, 2025-03-10 12:29:11.308
88.0, -29696.125351920768, -10597.409081150185, -36558.401472377955, -32057.1177669904, -17467.418905188908, -25371.599241685777, -24801.76386854218, -16819.6206473852, -28995.666384180357, -32169.904669511878, -35860.60236222772, -10862.634880856858, -35455.231124786274, -25902.69904168833, -36131.17022885921, -32273.974391695785, -0.06, 0.986, 0.256, 192.0, 127.0, 16.0, 15.0, 104.0, 4.0, 0.0, 0.0, 0.0, 0.0, 1.741627751308425E9, 0.0, 2025-03-10 12:29:11.308
90.0, -29668.163319607178, -10591.1505927027, -36558.73674854478, -32069.500633418636, -17467.418905188908, -25376.606032443768, -24787.81638000207, -16813.295103704346, -28992.98417484572, -32175.961992259265, -35850.208801056004, -10861.517293634093, -35427.24674072823, -25918.45702152932, -36096.32385925339, -32282.982144711277, -0.06, 0.986, 0.256, 192.0, 0.0, 0.0, 0.0, 0.0, 0.0, 0.0, 0.0, 0.0, 0.0, 1.741627751308492E9, 0.0, 2025-03-10 12:29:11.308
92.0, -29679.473302301565, -10591.865848525269, -36558.51323110023, -32059.10707224692, -17469.967004056813, -25362.569136925835, -24799.998080730213, -16812.646903115143, -28991.21838703375, -32171.73751255721, -35856.84726915923, -10862.746639579134, -35450.09022356156, -25923.642626242952, -36123.16830434422, -32273.929688206877, -0.06, 0.986, 0.256, 192.0, 0.0, 0.0, 0.0, 0.0, 0.0, 0.0, 0.0, 0.0, 0.0, 1.741627751308555E9, 0.0, 2025-03-10 12:29:11.308
94.0, -29654.841679911817, -10586.9484647451, -36558.557934589146, -32072.384008453373, -17468.603547645038, -25373.34267775329, -24806.9047697669, -16832.986990569472, -28986.748038142687, -32172.832748035522, -35845.15730680911, -10858.790380810546, -35422.95520579281, -25911.527980748175, -36100.078952321885, -32283.071551689096, -0.06, 0.986, 0.256, 192.0, 0.0, 0.0, 0.0, 0.0, 0.0, 0.0, 0.0, 0.0, 0.0, 1.741627751308623E9, 0.0, 2025-03-10 12:29:11.308
96.0, -29691.342078607333, -10602.326464930353, -36560.52488810121, -32067.041941528554, -17459.975774285293, -25353.673142632622, -24782.876644477445, -16799.727594819975, -28996.26988128065, -32178.197166704795, -35855.461461003004, -10866.85936055891, -35448.30208400513, -25918.546428507143, -36117.51331299702, -32291.095827948553, -0.06, 0.986, 0.256, 192.0, 0.0, 0.0, 0.0, 0.0, 0.0, 0.0, 0.0, 0.0, 0.0, 1.74162775130868E9, 0.0, 2025-03-10 12:29:11.308
98.0, -29657.479185757544, -10589.09423221281, -36564.19057419188, -32078.195462011754, -17464.289660965165, -25366.39128522769, -24808.871723278968, -16830.86357484622, -29002.371907516947, -32185.32737318604, -35853.00276911292, -10870.43563967176, -35432.70056637532, -25923.2179430983, -36088.277231249485, -32284.61382205651, -0.064, 0.978, 0.252, 192.0, 127.0, 0.0, 15.0, 72.0, 3.5, 112.0, 0.0, 0.0, 0.0, 1.741627751308736E9, 0.0, 2025-03-10 12:29:11.308
100.0, -29691.58794779634, -10603.19818296411, -36566.20223119286, -32068.33834270696, -17465.809579588127, -25372.225090530526, -24781.446132832305, -16779.298100387823, -29000.762581916166, -32182.443998151306, -35859.23890581595, -10870.368584438394, -35452.01247358471, -25919.619312240997, -36095.94387959765, -32287.00545871323, -0.064, 0.978, 0.252, 192.0, 0.0, 0.0, 0.0, 0.0, 0.0, 0.0, 0.0, 0.0, 0.0, 1.74162775136021E9, 0.0, 2025-03-10 12:29:11.360
102.0, -29653.992313622515, -10584.825049021847, -36560.56959159012, -32071.422883441795, -17463.529701653686, -25364.603145671266, -24788.911615480378, -16793.625568583677, -28997.7450964147, -32183.71804758526, -35855.95319938102, -10865.317090191495, -35442.40122346893, -25922.256818086724, -36108.66202219272, -32284.926746478886, -0.064, 0.978, 0.252, 192.0, 0.0, 0.0, 0.0, 0.0, 0.0, 0.0, 0.0, 0.0, 0.0, 1.74162775136032E9, 0.0, 2025-03-10 12:29:11.360
104.0, -29685.68708726014, -10595.33036891584, -36564.972885247815, -32064.270325216097, -17474.28089073669, -25357.763511867943, -24811.24100819123, -16817.072548517295, -28994.392334746404, -32180.812320806068, -35853.69567319103, -10861.182017467263, -35446.73746189326, -25914.70192846083, -36084.85741434782, -32277.349505108537, -0.064, 0.978, 0.252, 192.0, 0.0, 0.0, 0.0, 0.0, 0.0, 0.0, 0.0, 0.0, 0.0, 1.741627751360384E9, 0.0, 2025-03-10 12:29:11.360
106.0, -29650.57249672085, -10590.323578157851, -36556.54627758817, -32073.143967764852, -17461.2721754637, -25377.947137111085, -24803.172028442867, -16848.543804710367, -28998.058020837074, -32179.582974861027, -35860.75882443891, -10867.216988470196, -35444.27877000318, -25922.18976285336, -36128.51037126903, -32292.48163610478, -0.064, 0.978, 0.252, 192.0, 0.0, 0.0, 0.0, 0.0, 0.0, 0.0, 0.0, 0.0, 0.0, 1.741627751360447E9, 0.0, 2025-03-10 12:29:11.360
108.0, -29684.614203526286, -10600.67243584066, -36565.62108583702, -32066.661961872815, -17472.336288969076, -25373.74500915349, -24784.776542756146, -16803.058004743816, -29001.813113905566, -32184.925041785842, -35858.277780804376, -10869.116886748898, -35434.265188487196, -25912.98084413777, -36073.63683863125, -32286.6701825464, -0.058, 0.982, 0.252, 192.0, 127.0, 24.0, 15.0, 88.0, 3.5, 112.0, 0.0, 0.0, 0.0, 1.741627751360503E9, 0.0, 2025-03-10 12:29:11.360
110.0, -29646.30331352989, -10581.0476042089, -36553.46173685333, -32065.365560694405, -17460.60162313004, -25351.482671676004, -24788.464580591273, -16809.76352808041, -29000.807285405077, -32181.88520453992, -35858.79187092684, -10870.279177460574, -35452.72772940728, -25925.721338477295, -36128.62212999131, -32282.557461566626, -0.058, 0.982, 0.252, 192.0, 0.0, 0.0, 0.0, 0.0, 0.0, 0.0, 0.0, 0.0, 0.0, 1.741627751360578E9, 0.0, 2025-03-10 12:29:11.360
112.0, -29677.05931390039, -10596.71617707207, -36563.54237360268, -32067.265458973106, -17470.950480812848, -25373.74500915349, -24797.29351965112, -16825.052121287838, -28991.620718433944, -32180.36528591696, -35845.604341698214, -10866.457029158715, -35440.63543565696, -25920.200457596835, -36074.39679794273, -32287.11721743551, -0.058, 0.982, 0.252, 192.0, 0.0, 0.0, 0.0, 0.0, 0.0, 0.0, 0.0, 0.0, 0.0, 1.741627751360641E9, 0.0, 2025-03-10 12:29:11.360
114.0, -29657.188613079623, -10594.413947393174, -36563.922353258415, -32075.15562476583, -17460.132236496476, -25365.228994516016, -24798.925196996355, -16810.009397269416, -29001.03080284963, -32187.115512742464, -35861.205859328016, -10872.760221095112, -35454.02413058569, -25927.665940244908, -36131.7290224706, -32280.746970265744, -0.058, 0.982, 0.252, 192.0, 0.0, 0.0, 0.0, 0.0, 0.0, 0.0, 0.0, 0.0, 0.0, 1.741627751360697E9, 0.0, 2025-03-10 12:29:11.360
116.0, -29674.600622010308, -10596.537363116428, -36564.92818175891, -32068.78537759607, -17465.720172610305, -25357.91997407913, -24785.737667767724, -16805.874324545184, -28994.45938997977, -32186.310849942074, -35849.940580122544, -10867.641671614847, -35430.15246750742, -25909.449268513832, -36070.08291126286, -32287.854825002534, -0.058, 0.982, 0.252, 192.0, 0.0, 0.0, 0.0, 0.0, 0.0, 0.0, 0.0, 0.0, 0.0, 1.741627751401464E9, 0.0, 2025-03-10 12:29:11.401
118.0, -29661.234278826032, -10594.458650882085, -36564.12351895851, -32075.803825355033, -17465.139027254467, -25374.34850625378, -24794.164275427374, -16840.921859851107, -29004.6964889403, -32185.08150399703, -35867.79962394233, -10877.25292173063, -35462.49544173425, -25927.33066407808, -36133.11483062683, -32288.503025591737, -0.06, 0.984, 0.256, 192.0, 127.0, 16.0, 15.0, 96.0, 4.0, 0.0, 0.0, 0.0, 0.0, 1.741627751401535E9, 0.0, 2025-03-10 12:29:11.401
120.0, -29678.981563923546, -10605.85804055429, -36573.913583029935, -32074.95445906573, -17480.584082673086, -25365.11723579374, -24833.57040090208, -16802.70037683253, -29008.719802942254, -32196.23502448023, -35857.204897070515, -10880.33746246546, -35435.5615896656, -25926.3695390665, -36071.24520197454, -32298.270737918705, -0.06, 0.984, 0.256, 192.0, 0.0, 0.0, 0.0, 0.0, 0.0, 0.0, 0.0, 0.0, 0.0, 1.741627751401594E9, 0.0, 2025-03-10 12:29:11.401
122.0, -29670.577308008353, -10604.449880653607, -36564.32468465861, -32074.887403832367, -17454.410189915918, -25376.49427372149, -24771.410199571874, -16842.978220340996, -29010.820866921054, -32190.8482540665, -35872.33702806676, -10882.304415977529, -35472.1737470834, -25929.096451890047, -36138.948635929664, -32292.973374482797, -0.06, 0.984, 0.256, 192.0, 0.0, 0.0, 0.0, 0.0, 0.0, 0.0, 0.0, 0.0, 0.0, 1.74162775140165E9, 0.0, 2025-03-10 12:29:11.401
124.0, -29674.22064235457, -10610.507203400994, -36569.21971669432, -32074.01568579861, -17461.205120230334, -25371.532186452412, -24789.828037003048, -16799.90640877562, -29007.40105001939, -32196.27972796914, -35854.969722624985, -10875.15185775183, -35435.9639210658, -25922.346225064546, -36055.44251864464, -32288.48067384728, -0.06, 0.984, 0.256, 192.0, 0.0, 0.0, 0.0, 0.0, 0.0, 0.0, 0.0, 0.0, 0.0, 1.741627751457749E9, 0.0, 2025-03-10 12:29:11.457
126.0, -29676.43346505564, -10615.603401136805, -36567.364521904536, -32073.367485209405, -17459.796960329648, -25377.03071558842, -24774.897071706902, -16815.932609550073, -29020.476820525746, -32199.99011754872, -35876.38269381317, -10885.523067179092, -35480.39918904295, -25929.454079801333, -36129.24797883606, -32287.519548835702, -0.06, 0.984, 0.256, 192.0, 0.0, 0.0, 0.0, 0.0, 0.0, 0.0, 0.0, 0.0, 0.0, 1.741627751457846E9, 0.0, 2025-03-10 12:29:11.457
128.0, -29669.68323823014, -10610.395444678717, -36562.55889684664, -32066.840775828456, -17454.54430038265, -25358.456415946057, -24774.360629839975, -16787.210617925004, -29014.620663478454, -32197.732591358734, -35855.886144147655, -10874.302491462528, -35436.45565944382, -25922.815611698104, -36054.146117466225, -32288.43597035837, -0.066, 0.984, 0.256, 192.0, 126.5, 120.0, 15.0, 96.0, 4.0, 0.0, 0.0, 0.0, 0.0, 1.741627751457904E9, 0.0, 2025-03-10 12:29:11.457
130.0, -29681.708476747095, -10619.961991305589, -36560.10020495656, -32058.168298979796, -17463.1720737424, -25356.042427544886, -24808.827019790057, -16804.644978600143, -29014.88888441192, -32185.215614463763, -35866.27970531937, -10869.00512802662, -35463.23304930128, -25916.758288950718, -36115.948690885154, -32270.688685260855, -0.066, 0.984, 0.256, 192.0, 0.0, 0.0, 0.0, 0.0, 0.0, 0.0, 0.0, 0.0, 0.0, 1.741627751457978E9, 0.0, 2025-03-10 12:29:11.457
132.0, -29677.43929355613, -10643.386619494751, -36578.69685634338, -32089.058409817033, -17466.63659413297, -25395.02386987494, -24799.9533772413, -16860.569043227322, -29035.6536550109, -32199.52073091516, -35865.3632837967, -10879.398689198339, -35437.72970887777, -25915.640701727953, -36072.98863804205, -32291.520511093204, -0.066, 0.984, 0.256, 192.0, 0.0, 0.0, 0.0, 0.0, 0.0, 0.0, 0.0, 0.0, 0.0, 1.741627751458041E9, 0.0, 2025-03-10 12:29:11.458
134.0, -29712.866808517792, -10673.0697361314, -36590.16330124895, -32090.35481099544, -17479.80177161715, -25370.325192251825, -24804.155505198898, -16810.74700483644, -29056.530184332158, -32211.09893454301, -35899.360287113224, -10904.454994732738, -35484.62366874501, -25941.255800873736, -36138.23338010709, -32316.710927094333, -0.066, 0.984, 0.256, 192.0, 0.0, 0.0, 0.0, 0.0, 0.0, 0.0, 0.0, 0.0, 0.0, 1.741627751458107E9, 0.0, 2025-03-10 12:29:11.458
136.0, -29700.238072900545, -10691.68873926267, -36579.76974007723, -32086.73382839368, -17462.233300475276, -25374.952003354076, -24785.022411945156, -16808.489478646457, -29081.89941428893, -32224.509981216193, -35891.69363876506, -10901.549267953547, -35449.62083692799, -25927.151850122435, -36087.94195508265, -32296.080266962086, -0.066, 0.984, 0.256, 192.0, 0.0, 0.0, 0.0, 0.0, 0.0, 0.0, 0.0, 0.0, 0.0, 1.741627751458182E9, 0.0, 2025-03-10 12:29:11.458
138.0, -29739.30892220842, -10718.153204697754, -36589.448045426376, -32085.772703382103, -17469.408210445432, -25373.7897126424, -24791.079734692543, -16810.724653091987, -29103.357088966026, -32229.89675162992, -35917.10757221074, -10913.596858214958, -35486.344753068064, -25935.019664170704, -36122.05071712145, -32300.505912364235, -0.062, 0.98, 0.256, 192.0, 127.0, 8.0, 15.0, 80.0, 4.0, 0.0, 0.0, 0.0, 0.0, 1.741627751458239E9, 0.0, 2025-03-10 12:29:11.458
140.0, -29725.98728251306, -10740.393190430785, -36591.2361849828, -32099.474322733204, -17467.776533100194, -25379.26589003395, -24810.19047620183, -16840.89950810665, -29124.5241909652, -32240.022091868177, -35918.26986292242, -10921.554079241048, -35465.021188857696, -25929.476431545787, -36097.508501709526, -32304.52922636619, -0.062, 0.98, 0.256, 192.0, 0.0, 0.0, 0.0, 0.0, 0.0, 0.0, 0.0, 0.0, 0.0, 1.741627751506773E9, 0.0, 2025-03-10 12:29:11.506
142.0, -29772.501262724552, -10785.923693886245, -36601.45093219887, -32098.20027329925, -17485.970853086812, -25387.156055826672, -24815.085508237542, -16820.6711793746, -29167.841871719585, -32261.56917352309, -35944.39905219067, -10941.536538784092, -35497.99001192928, -25944.94383870886, -36121.2237025766, -32301.66820307591, -0.062, 0.98, 0.256, 192.0, 0.0, 0.0, 0.0, 0.0, 0.0, 0.0, 0.0, 0.0, 0.0, 1.741627751506844E9, 0.0, 2025-03-10 12:29:11.506
144.0, -29760.0736928074, -10811.80701396549, -36598.43344669741, -32102.268290790118, -17467.21773948881, -25367.01713407244, -24777.75809499718, -16799.928760520073, -29194.708668554864, -32271.605106783525, -35948.48942142599, -10947.817378976033, -35487.395285057464, -25939.713530506317, -36108.21498730362, -32295.990859984264, -0.062, 0.98, 0.256, 192.0, 0.0, 0.0, 0.0, 0.0, 0.0, 0.0, 0.0, 0.0, 0.0, 1.741627751506901E9, 0.0, 2025-03-10 12:29:11.506
146.0, -29815.841295223392, -10851.213139440197, -36612.20212128188, -32103.140008823873, -17480.65113790645, -25378.014192344453, -24790.2527201477, -16813.518621148898, -29245.871811613062, -32285.329077879083, -35976.38439850621, -10963.351841372472, -35512.630404547504, -25944.22858288629, -36108.70672568163, -32297.711944307324, -0.062, 0.98, 0.256, 192.0, 0.0, 0.0, 0.0, 0.0, 0.0, 0.0, 0.0, 0.0, 0.0, 1.74162775150698E9, 0.0, 2025-03-10 12:29:11.506
148.0, -29787.94631814317, -10862.120790734387, -36601.607394410064, -32103.989375113175, -17470.704611623838, -25386.843131404297, -24781.066153176565, -16802.49921113243, -29269.36349503559, -32283.116255178007, -35975.44562523909, -10958.814437248044, -35493.58671827158, -25938.126556649993, -36116.66394670772, -32301.10940946453, -0.058, 0.982, 0.254, 192.0, 127.0, 24.0, 15.0, 88.0, 3.5, 120.0, 0.0, 0.0, 0.0, 1.741627751507043E9, 0.0, 2025-03-10 12:29:11.507
150.0, -29831.956902975668, -10895.603703928437, -36608.82700786913, -32098.759066910636, -17484.383879230485, -25383.82564590283, -24799.66280456338, -16807.260132701413, -29293.74924823633, -32294.403886127937, -35985.21333756606, -10971.353765887472, -35507.26598587823, -25946.888440476472, -36105.68924018017, -32307.993746756765, -0.058, 0.982, 0.254, 192.0, 0.0, 0.0, 0.0, 0.0, 0.0, 0.0, 0.0, 0.0, 0.0, 1.741627751507103E9, 0.0, 2025-03-10 12:29:11.507
152.0, -29798.60810024835, -10890.753375381635, -36599.10399903107, -32103.028250101597, -17471.79984710215, -25384.004459858475, -24787.861083490978, -16806.097841989736, -29302.622890785085, -32299.075400719095, -35982.88875614271, -10968.380983874917, -35503.84616897657, -25945.79320499816, -36115.97104262961, -32298.471903618803, -0.058, 0.982, 0.254, 192.0, 0.0, 0.0, 0.0, 0.0, 0.0, 0.0, 0.0, 0.0, 0.0, 1.741627751507173E9, 0.0, 2025-03-10 12:29:11.507
154.0, -29821.228065637122, -10897.034215573576, -36601.406228709966, -32090.667735417814, -17479.35473672804, -25374.77318939843, -24796.555912084095, -16810.70230134753, -29295.693850003943, -32294.58270008358, -35969.81298563635, -10960.446114593282, -35494.90547119445, -25937.880687460984, -36082.71164688011, -32290.514682592715, -0.058, 0.982, 0.254, 192.0, 0.0, 0.0, 0.0, 0.0, 0.0, 0.0, 0.0, 0.0, 0.0, 1.741627751556241E9, 0.0, 2025-03-10 12:29:11.556
156.0, -29776.837501148882, -10867.52991289257, -36590.09624601558, -32090.73479065118, -17469.98935580127, -25380.11525632325, -24812.515057625184, -16809.115327491203, -29285.792027210242, -32295.11914195051, -35968.56128794685, -10960.110838426452, -35500.91809045292, -25945.547335809155, -36127.03515613498, -32296.683764062378, -0.058, 0.982, 0.254, 192.0, 0.0, 0.0, 0.0, 0.0, 0.0, 0.0, 0.0, 0.0, 0.0, 1.741627751556339E9, 0.0, 2025-03-10 12:29:11.556
158.0, -29792.75194320106, -10860.645575600336, -36590.699743115874, -32085.39272372636, -17476.963100071323, -25393.392192529704, -24807.396508144917, -16825.499156176946, -29260.04281759773, -32286.089037190563, -35951.50690692746, -10947.862082464944, -35480.77916869869, -25934.796146726152, -36071.625181630276, -32292.995726227255, -0.054, 0.98, 0.25, 192.0, 127.0, 40.0, 15.0, 80.0, 3.5, 104.0, 0.0, 0.0, 0.0, 1.741627751556409E9, 0.0, 2025-03-10 12:29:11.556
160.0, -29751.736492125572, -10817.350246590406, -36575.634667353, -32081.72703763569, -17464.60258538754, -25400.164771099662, -24823.802688575113, -16881.691441737585, -29238.965122576374, -32269.682856760366, -35951.77512786092, -10939.21195736074, -35492.8267589601, -25930.258742601723, -36130.4773247811, -32297.890758262965, -0.054, 0.98, 0.25, 192.0, 0.0, 0.0, 0.0, 0.0, 0.0, 0.0, 0.0, 0.0, 0.0, 1.741627751556471E9, 0.0, 2025-03-10 12:29:11.556
162.0, -29770.444902234663, -10815.673865756258, -36577.19928946487, -32073.1216160204, -17458.724076595794, -25374.30380276487, -24755.920440664344, -16780.88507424415, -29216.233398465327, -32264.988990424754, -35932.95495902955, -10931.92528866831, -35473.98423838428, -25926.32483557759, -36053.028530243464, -32294.381534383483, -0.054, 0.98, 0.25, 192.0, 0.0, 0.0, 0.0, 0.0, 0.0, 0.0, 0.0, 0.0, 0.0, 1.741627751556528E9, 0.0, 2025-03-10 12:29:11.556
164.0, -29721.718099322094, -10766.008289576566, -36558.535582844685, -32057.207173968218, -17437.087587963055, -25347.660523374147, -24725.09738506048, -16751.045495396316, -29190.17126443044, -32254.416615297392, -35929.31162468334, -10924.526861253604, -35488.75874146924, -25923.6202744985, -36095.65330691973, -32256.987065909754, -0.054, 0.98, 0.25, 192.0, 0.0, 0.0, 0.0, 0.0, 0.0, 0.0, 0.0, 0.0, 0.0, 1.741627751556584E9, 0.0, 2025-03-10 12:29:11.556
166.0, -29709.78226778296, -10724.299934422963, -36554.80284152065, -32049.317008175494, -17442.697875821337, -25363.86553810424, -24757.820338943045, -16786.294196402338, -29138.13640333848, -32237.876324400466, -35887.17858638508, -10899.448203974749, -35438.28850248915, -25908.4657917578, -36026.29584387491, -32259.937496177852, -0.054, 0.98, 0.25, 192.0, 0.0, 0.0, 0.0, 0.0, 0.0, 0.0, 0.0, 0.0, 0.0, 1.741627751556645E9, 0.0, 2025-03-10 12:29:11.556
168.0, -29672.72307547606, -10667.72766920658, -36537.74846050125, -32034.542505090536, -17428.03513145866, -25348.621648385724, -24751.204222584274, -16770.17858865006, -29091.108333004515, -32210.584844420537, -35871.420606544096, -10877.05175603053, -35462.718959178805, -25902.564931221597, -36090.937088839666, -32254.036635641653, -0.06, 0.978, 0.252, 192.0, 127.0, 16.0, 15.0, 72.0, 3.5, 112.0, 0.0, 0.0, 0.0, 1.741627751556707E9, 0.0, 2025-03-10 12:29:11.556
170.0, -29657.076854357347, -10624.05236054091, -36530.75236448674, -32019.633891538848, -17422.514250578195, -25326.15814520814, -24735.80387065457, -16745.36815230467, -29038.626437023457, -32187.517844142658, -35829.175809523564, -10846.541624849036, -35420.563569136095, -25883.096561801027, -36005.26285234247, -32242.10080410252, -0.06, 0.978, 0.252, 192.0, 0.0, 0.0, 0.0, 0.0, 0.0, 0.0, 0.0, 0.0, 0.0, 1.741627751586759E9, 0.0, 2025-03-10 12:29:11.586
172.0, -29634.85922036877, -10589.116583957266, -36521.85637019353, -32013.755382747102, -17421.486070333252, -25333.623627856214, -24752.634734229414, -16757.37103907717, -29011.424364021346, -32177.481910882227, -35833.04266131433, -10839.903156745811, -35457.265133531706, -25885.59995718002, -36069.099434506825, -32228.443888240326, -0.06, 0.978, 0.252, 192.0, 0.0, 0.0, 0.0, 0.0, 0.0, 0.0, 0.0, 0.0, 0.0, 1.74162775158683E9, 0.0, 2025-03-10 12:29:11.586
174.0, -29623.81745860785, -10559.254653364975, -36524.69504173935, -32014.492990314127, -17429.82327101508, -25335.52352613491, -24767.05160940309, -16792.865609272198, -28971.615907146446, -32164.003808975674, -35801.03496325433, -10817.529060546049, -35402.01162123819, -25865.5057389147, -35997.529148760936, -32240.402071523917, -0.06, 0.978, 0.252, 192.0, 0.0, 0.0, 0.0, 0.0, 0.0, 0.0, 0.0, 0.0, 0.0, 1.741627751648447E9, 0.0, 2025-03-10 12:29:11.648
176.0, -29616.173162004136, -10525.592926215282, -36520.78348645967, -32001.931309930245, -17427.655151802915, -25318.91618000462, -24785.11181892298, -16760.857911212195, -28951.186412714294, -32146.949427956275, -35812.680222115545, -10815.562107033982, -35448.34678749404, -25879.430875710354, -36064.360864682305, -32234.27769354316, -0.06, 0.978, 0.252, 192.0, 0.0, 0.0, 0.0, 0.0, 0.0, 0.0, 0.0, 0.0, 0.0, 1.741627751648544E9, 0.0, 2025-03-10 12:29:11.648
178.0, -29584.210167433044, -10479.1236494927, -36496.241271047744, -31985.167501588763, -17394.082831631047, -25314.222313669005, -24706.18780925129, -16745.815187193773, -28909.96979593871, -32126.8328579465, -35777.76679727636, -10790.952836388688, -35400.29053691513, -25859.917802800872, -35997.77501794994, -32230.56730396358, -0.058, 0.976, 0.252, 192.0, 127.0, 24.0, 15.0, 64.0, 3.5, 112.0, 0.0, 0.0, 0.0, 1.741627751648601E9, 0.0, 2025-03-10 12:29:11.648
180.0, -29592.346202414778, -10461.197550439543, -36501.002192616725, -31984.116969599363, -17403.33645383554, -25327.29808417536, -24731.333521763507, -16790.42926912657, -28882.343039791947, -32103.385878012883, -35774.05640769678, -10775.910112370268, -35426.93381630586, -25857.21324172178, -36026.34054736383, -32210.741306631724, -0.058, 0.976, 0.252, 192.0, 0.0, 0.0, 0.0, 0.0, 0.0, 0.0, 0.0, 0.0, 0.0, 1.741627751648673E9, 0.0, 2025-03-10 12:29:11.648
182.0, -29567.89339398067, -10435.582451293762, -36498.85642514902, -31987.872062667855, -17397.16737236588, -25320.54785734986, -24731.60174269697, -16782.31558588929, -28862.71820816019, -32103.989375113175, -35759.39366333409, -10769.830437878423, -35385.91836523037, -25858.487291155732, -35980.340657274806, -32230.835524897044, -0.058, 0.976, 0.252, 192.0, 0.0, 0.0, 0.0, 0.0, 0.0, 0.0, 0.0, 0.0, 0.0, 1.74162775164873E9, 0.0, 2025-03-10 12:29:11.648
184.0, -29577.504644096454, -10421.389093564641, -36493.55906171311, -31968.046065336, -17399.64841600042, -25295.983290193475, -24739.67072244534, -16725.698617184, -28855.409187723304, -32092.701744163245, -35768.53552681631, -10769.428106478228, -35424.18455173785, -25855.17923297635, -36020.77496299445, -32215.792800878622, -0.058, 0.976, 0.252, 192.0, 0.0, 0.0, 0.0, 0.0, 0.0, 0.0, 0.0, 0.0, 0.0, 1.741627751648786E9, 0.0, 2025-03-10 12:29:11.648
186.0, -29545.295780336357, -10400.087881098734, -36486.87589012097, -31968.783672903024, -17382.81755242557, -25291.647051769145, -24703.818524339025, -16728.760806174374, -28829.056481010495, -32079.91654633481, -35739.99234914689, -10753.536016170505, -35376.08359767003, -25838.773052546152, -35980.78769216391, -32199.543082659613, -0.058, 0.976, 0.252, 192.0, 0.0, 0.0, 0.0, 0.0, 0.0, 0.0, 0.0, 0.0, 0.0, 1.741627751648842E9, 0.0, 2025-03-10 12:29:11.648
188.0, -29573.95071672806, -10396.668064197072, -36497.47061699279, -31969.878908381335, -17399.670767744872, -25298.933720461577, -24736.250905543675, -16764.635356025145, -28824.31791118597, -32077.524909678094, -35751.03411090781, -10758.833379606413, -35409.81238005309, -25846.17147996086, -36003.45236104159, -32206.427419951848, -0.056, 0.976, 0.254, 192.0, 127.0, 32.0, 15.0, 64.0, 3.5, 120.0, 0.0, 0.0, 0.0, 1.741627751663894E9, 0.0, 2025-03-10 12:29:11.663
190.0, -29531.817678429805, -10371.745869129405, -36483.4113697304, -31961.362893743863, -17376.693174444816, -25279.711220230012, -24701.918626060324, -16720.55771595928, -28808.872855767353, -32072.898098575846, -35735.723165955926, -10749.22212949063, -35387.48298734224, -25841.477613625244, -35987.40380852268, -32212.775315377155, -0.056, 0.976, 0.254, 192.0, 0.0, 0.0, 0.0, 0.0, 0.0, 0.0, 0.0, 0.0, 0.0, 1.741627751724806E9, 0.0, 2025-03-10 12:29:11.724
192.0, -29555.577582785798, -10367.789610360815, -36486.831186632066, -31950.052911049475, -17394.86514268698, -25282.549891775834, -24708.80296335256, -16741.702466214, -28795.26064339407, -32059.39764492484, -35732.012776376345, -10741.108446253354, -35406.079638729054, -25827.530125085133, -35984.60984046577, -32188.143692987407, -0.056, 0.976, 0.254, 192.0, 0.0, 0.0, 0.0, 0.0, 0.0, 0.0, 0.0, 0.0, 0.0, 1.741627751724876E9, 0.0, 2025-03-10 12:29:11.724
194.0, -29512.394012498145, -10348.008316517868, -36474.00128531471, -31951.37166397234, -17377.564892478575, -25273.497435271434, -24724.09155655999, -16725.720968928454, -28776.37341932934, -32042.09739471643, -35716.85829363565, -10727.585640857893, -35380.62100179446, -25806.094802152493, -35986.15211083319, -32187.696658098303, -0.056, 0.976, 0.254, 192.0, 0.0, 0.0, 0.0, 0.0, 0.0, 0.0, 0.0, 0.0, 0.0, 1.741627751724963E9, 0.0, 2025-03-10 12:29:11.724
196.0, -29565.434702090588, -10371.410592962575, -36498.11881758199, -31974.125739827843, -17399.894285189424, -25308.120287432706, -24744.543402736595, -16755.31467858728, -28791.684364281224, -32063.532717649072, -35735.52200025583, -10747.881024823311, -35394.702600801305, -25828.26773265216, -35988.76726493445, -32208.774353119657, -0.056, 0.976, 0.254, 192.0, 0.0, 0.0, 0.0, 0.0, 0.0, 0.0, 0.0, 0.0, 0.0, 1.741627751725026E9, 0.0, 2025-03-10 12:29:11.725
198.0, -29535.975102898494, -10370.337709228721, -36497.89530013744, -31985.055742866487, -17387.10908736099, -25315.943397992065, -24740.45303350127, -16760.41087632309, -28797.428762606236, -32071.467586930707, -35743.8368491932, -10757.827551105924, -35395.19433917932, -25855.31334344308, -36017.712774004074, -32231.86370514199, -0.058, 0.98, 0.25, 192.0, 127.0, 24.0, 15.0, 80.0, 3.5, 104.0, 0.0, 0.0, 0.0, 1.74162775172509E9, 0.0, 2025-03-10 12:29:11.725
200.0, -29570.03916144838, -10381.692395412016, -36504.2655473072, -31972.18113806023, -17390.21597984028, -25295.022165181897, -24703.84087608348, -16744.630544737644, -28802.726126042144, -32075.602659654938, -35750.050634151776, -10757.447571450182, -35408.69479283033, -25855.15688123189, -35989.37076203475, -32227.66157718439, -0.058, 0.98, 0.25, 192.0, 0.0, 0.0, 0.0, 0.0, 0.0, 0.0, 0.0, 0.0, 0.0, 1.741627751725163E9, 0.0, 2025-03-10 12:29:11.725
202.0, -29530.74479469595, -10358.021898033847, -36489.893375622436, -31965.43091123473, -17382.303462303098, -25297.68202277208, -24710.524047675615, -16738.88614641263, -28794.63479454932, -32067.511328162116, -35748.8883434401, -10751.45730393616, -35404.22444393927, -25846.283238683136, -36014.47177105806, -32218.206789279797, -0.058, 0.98, 0.25, 192.0, 0.0, 0.0, 0.0, 0.0, 0.0, 0.0, 0.0, 0.0, 0.0, 1.741627751725226E9, 0.0, 2025-03-10 12:29:11.725
204.0, -29561.858422977737, -10368.52721792784, -36495.72718092527, -31962.435777477716, -17402.01770091268, -25293.323432603294, -24729.701844418272, -16750.866681440675, -28777.938041441208, -32060.269362958596, -35730.1352298421, -10742.22603347612, -35390.58987982153, -25830.078223953038, -35972.428139737625, -32208.282614741638, -0.058, 0.98, 0.25, 192.0, 0.0, 0.0, 0.0, 0.0, 0.0, 0.0, 0.0, 0.0, 0.0, 1.741627751755033E9, 0.0, 2025-03-10 12:29:11.755
206.0, -29532.17530634109, -10359.00537478988, -36490.385114000455, -31971.04119909301, -17394.216942097777, -25291.28942385786, -24739.335446278506, -16768.16693164908, -28791.639660792312, -32072.518118920103, -35745.62498874962, -10756.039411549498, -35416.27203420067, -25845.5009276272, -36026.98874795303, -32220.799591636613, -0.058, 0.98, 0.25, 192.0, 0.0, 0.0, 0.0, 0.0, 0.0, 0.0, 0.0, 0.0, 0.0, 1.741627751755108E9, 0.0, 2025-03-10 12:29:11.755
208.0, -29561.76901599992, -10368.258996994377, -36500.666916449896, -31971.443530493205, -17407.985616682246, -25316.457488114534, -24772.974821683743, -16788.32820514777, -28784.80002698899, -32065.007932783123, -35732.996253132376, -10745.556443399959, -35399.48587411474, -25835.599104833498, -35981.61470670876, -32226.81221089509, -0.056, 0.984, 0.248, 192.0, 127.0, 32.0, 15.0, 96.0, 3.5, 96.0, 0.0, 0.0, 0.0, 1.741627751780062E9, 0.0, 2025-03-10 12:29:11.780
210.0, -29531.236533073967, -10357.32899395573, -36485.60184068702, -31963.240440278107, -17384.538636748628, -25286.39439182215, -24731.132356063412, -16724.60338170569, -28789.8962247248, -32062.571592637494, -35747.14490737259, -10750.429123691216, -35421.23412146975, -25838.527183357142, -36035.840038757335, -32223.839428882533, -0.056, 0.984, 0.248, 192.0, 0.0, 0.0, 0.0, 0.0, 0.0, 0.0, 0.0, 0.0, 0.0, 1.741627751805108E9, 0.0, 2025-03-10 12:29:11.805
212.0, -29555.42112057461, -10372.95286332999, -36498.18587281536, -31974.48336773913, -17393.188761852834, -25306.19803740955, -24703.617358638927, -16747.6033267502, -28786.02937293403, -32065.656133372326, -35732.32570079872, -10750.429123691216, -35384.95724021879, -25830.279389653137, -35964.42621522262, -32215.546931689612, -0.056, 0.984, 0.248, 192.0, 0.0, 0.0, 0.0, 0.0, 0.0, 0.0, 0.0, 0.0, 0.0, 1.741627751838198E9, 0.0, 2025-03-10 12:29:11.838
214.0, -29526.922646394094, -10348.969441529447, -36481.62323017397, -31959.351236742885, -17384.87391291546, -25290.887092457666, -24706.36662320693, -16723.93282937203, -28783.302460110484, -32063.644476371348, -35737.600712490166, -10752.016097547543, -35417.121400489974, -25835.464994366765, -36023.501875818, -32209.958995575787, -0.056, 0.984, 0.248, 192.0, 0.0, 0.0, 0.0, 0.0, 0.0, 0.0, 0.0, 0.0, 0.0, 1.74162775183827E9, 0.0, 2025-03-10 12:29:11.838
216.0, -29541.540687267865, -10345.102589738679, -36490.675686678376, -31958.635980920313, -17402.576494524063, -25279.95708941902, -24736.899106132878, -16748.586803506234, -28773.758265228065, -32060.82815656998, -35717.77471515831, -10739.901452052767, -35385.6501442969, -25825.183191917324, -35951.372796460724, -32204.549873417604, -0.056, 0.984, 0.248, 192.0, 0.0, 0.0, 0.0, 0.0, 0.0, 0.0, 0.0, 0.0, 0.0, 1.74162775186924E9, 0.0, 2025-03-10 12:29:11.869
218.0, -29530.253056317935, -10347.516578139852, -36485.73595115375, -31963.95569610068, -17395.848619443015, -25288.540159289856, -24740.94477187929, -16771.22912063946, -28772.283050094018, -32049.9652087647, -35730.55991298675, -10739.40971367475, -35416.987290023244, -25834.660331566374, -36035.72828003505, -32210.56249267608, -0.062, 0.982, 0.248, 192.0, 127.0, 8.0, 15.0, 88.0, 3.5, 96.0, 0.0, 0.0, 0.0, 1.741627751869333E9, 0.0, 2025-03-10 12:29:11.869
220.0, -29536.89152442116, -10352.836293320215, -36489.60280294452, -31969.387170003316, -17390.238331584733, -25290.90944420212, -24717.65425415686, -16740.942506902516, -28777.938041441208, -32061.38695018136, -35723.74263092788, -10743.164806743242, -35384.93488847434, -25834.25800016618, -35960.604066920765, -32223.079469571054, -0.062, 0.982, 0.248, 192.0, 0.0, 0.0, 0.0, 0.0, 0.0, 0.0, 0.0, 0.0, 0.0, 1.741627751869403E9, 0.0, 2025-03-10 12:29:11.869
222.0, -29545.09461463626, -10362.536950413818, -36496.73300942576, -31976.875004395846, -17392.942892663825, -25293.457543070024, -24722.817507126038, -16731.443015509012, -28781.93900369871, -32057.385987923863, -35739.43355553551, -10745.690553866692, -35423.9610342933, -25837.141375200914, -36025.44647758561, -32211.47891419875, -0.062, 0.982, 0.248, 192.0, 0.0, 0.0, 0.0, 0.0, 0.0, 0.0, 0.0, 0.0, 0.0, 1.741627751929487E9, 0.0, 2025-03-10 12:29:11.929
224.0, -29527.83906791676, -10351.428133419531, -36489.826320389075, -31973.589297960916, -17386.974976894257, -25300.945377462554, -24712.1333732764, -16763.785989735843, -28778.65329726378, -32067.0195897841, -35724.97197687292, -10745.399981188773, -35390.232251910245, -25838.30366591259, -35966.907258857165, -32233.137754575942, -0.062, 0.982, 0.248, 192.0, 0.0, 0.0, 0.0, 0.0, 0.0, 0.0, 0.0, 0.0, 0.0, 1.741627751929557E9, 0.0, 2025-03-10 12:29:11.929
226.0, -29536.869172676707, -10354.33386019872, -36490.854500634014, -31970.102425825888, -17389.97011065127, -25293.412839581113, -24719.621207668926, -16751.55958551879, -28774.45116930618, -32056.782490823567, -35728.4812007524, -10739.990859030588, -35417.09904874552, -25841.432910136333, -36022.71956476207, -32225.359347505495, -0.062, 0.982, 0.248, 192.0, 0.0, 0.0, 0.0, 0.0, 0.0, 0.0, 0.0, 0.0, 0.0, 1.741627751929613E9, 0.0, 2025-03-10 12:29:11.929
228.0, -29523.055794603326, -10350.467008407952, -36489.22282328878, -31973.388132260818, -17391.422974040863, -25302.28648212987, -24736.80969915506, -16759.65091701161, -28769.60084075938, -32063.82329032699, -35717.14886631356, -10739.879100308312, -35377.60351629299, -25835.800270533597, -35959.553534931365, -32228.265074284685, -0.06, 0.984, 0.244, 192.0, 127.0, 16.0, 15.0, 96.0, 3.5, 80.0, 0.0, 0.0, 0.0, 1.741627751929668E9, 0.0, 2025-03-10 12:29:11.929
230.0, -29540.400748300643, -10349.505883396374, -36481.48911970724, -31960.558230943472, -17389.433668784342, -25301.928854218586, -24728.94188510679, -16776.437077097544, -28774.674686750735, -32063.19744148224, -35735.09731711118, -10744.908242810756, -35415.98146152276, -25843.3998636484, -36018.763305993474, -32226.47693472826, -0.06, 0.984, 0.244, 192.0, 0.0, 0.0, 0.0, 0.0, 0.0, 0.0, 0.0, 0.0, 0.0, 1.741627751929755E9, 0.0, 2025-03-10 12:29:11.929
240.0, -29517.959596867517, -10339.894633280592, -36468.860384089996, -31952.980989573123, -17366.701944673296, -25262.030990365864, -24675.051829225045, -16698.697709881988, -28759.833128432412, -32046.076005229475, -35718.55702621425, -10735.207585717153, -35343.83003042103, -25824.40088086139, -35982.50877648697, -32182.354591173484, -0.06, 0.984, 0.244, 192.0, 0.0, 0.0, 0.0, 0.0, 0.0, 0.0, 0.0, 0.0, 0.0, 1.741627751929818E9, 0.0, 2025-03-10 12:29:11.929
246.0, -29538.858477933227, -10344.47674089393, -36469.687398634844, -31944.50967842456, -17383.085773359035, -25272.446903282038, -24723.331597248507, -16742.015390636374, -28748.6349044603, -32038.990502237142, -35704.27426150731, -10734.60408861686, -35320.740678398695, -25830.05587220858, -35979.58069796332, -32172.251602679684, -0.06, 0.984, 0.244, 192.0, 0.0, 0.0, 0.0, 0.0, 0.0, 0.0, 0.0, 0.0, 0.0, 1.741627751929882E9, 0.0, 2025-03-10 12:29:11.929
236.0, -29506.806076384317, -10331.199804687478, -36467.83220384505, -31949.583524415917, -17370.658203441883, -25286.95318543353, -24707.46185868524, -16753.727704730954, -28755.720407452634, -32039.169316192787, -35708.789313887275, -10719.78488204299, -35351.206106091275, -25812.286235366613, -35973.322209515834, -32192.70344885629, -0.06, 0.984, 0.244, 192.0, 0.0, 0.0, 0.0, 0.0, 0.0, 0.0, 0.0, 0.0, 0.0, 1.741627751980914E9, 0.0, 2025-03-10 12:29:11.980
244.0, -29511.924625864584, -10330.417493631541, -36471.229669002256, -31945.671969136238, -17375.419125010863, -25267.99890613543, -24704.26555922813, -16730.727759686444, -28750.87007890583, -32044.176106950774, -35709.19164528747, -10735.878138050812, -35325.70276566777, -25824.803212261584, -35999.80902669537, -32170.731684056722, -0.06, 0.984, 0.244, 192.0, 0.0, 0.0, 0.0, 0.0, 0.0, 0.0, 0.0, 0.0, 0.0, 1.74162775198352E9, 0.0, 2025-03-10 12:29:11.983
248.0, -29508.415401985098, -10330.551604098273, -36466.401692199914, -31950.65640814977, -17386.080907116044, -25292.33995584726, -24714.83793435549, -16754.621774509167, -28739.001302600063, -32032.9108277453, -35697.5240346818, -10730.9831060151, -35319.265463264644, -25820.422270348343, -35997.48444527202, -32159.064073451053, -0.058, 0.99, 0.254, 192.0, 127.0, 24.0, 15.0, 120.0, 3.5, 120.0, 0.0, 0.0, 0.0, 1.741627751983594E9, 0.0, 2025-03-10 12:29:11.983
250.0, -29508.30364326282, -10325.075426706724, -36465.418215443875, -31939.94992255568, -17377.095505845013, -25267.775388690876, -24702.74564060517, -16721.83176539323, -28739.381282255803, -32038.319949903485, -35696.6746683925, -10734.447626405672, -35309.676564893314, -25822.00924420467, -35980.49711948599, -32175.179681203328, -0.058, 0.99, 0.254, 192.0, 0.0, 0.0, 0.0, 0.0, 0.0, 0.0, 0.0, 0.0, 0.0, 1.741627751983661E9, 0.0, 2025-03-10 12:29:11.983
250.0, -29518.965425368006, -10331.646839576584, -36474.5600789261, -31948.778861615523, -17391.64649148542, -25275.598499250234, -24727.086690317, -16765.060039169795, -28739.381282255803, -32038.319949903485, -35696.6746683925, -10734.447626405672, -35309.676564893314, -25822.00924420467, -35980.49711948599, -32175.179681203328, -0.058, 0.99, 0.254, 192.0, 0.0, 0.0, 0.0, 0.0, 0.0, 0.0, 0.0, 0.0, 0.0, 1.741627751983727E9, 0.0, 2025-03-10 12:29:11.983
250.0, -29536.735062209973, -10335.312525667254, -36475.18592777085, -31937.334768454406, -17402.040052657136, -25251.61507744969, -24726.50554496116, -16720.11068107017, -28739.381282255803, -32038.319949903485, -35696.6746683925, -10734.447626405672, -35309.676564893314, -25822.00924420467, -35980.49711948599, -32175.179681203328, -0.058, 0.99, 0.254, 192.0, 0.0, 0.0, 0.0, 0.0, 0.0, 0.0, 0.0, 0.0, 0.0, 1.741627751983781E9, 0.0, 2025-03-10 12:29:11.983
0.0, -29512.058736331313, -10328.204670930467, -36473.37543646996, -31946.23076274762, -17393.50168627521, -25298.620796039202, -24718.45891695725, -16750.799626207307, -28736.475555476616, -32031.34620563343, -35694.70771488044, -10726.669219335225, -35329.92724536982, -25823.797383761095, -36026.09467817482, -32155.532497827116, -0.058, 0.99, 0.254, 192.0, 0.0, 0.0, 0.0, 0.0, 0.0, 0.0, 0.0, 0.0, 0.0, 1.741627751983837E9, 0.0, 2025-03-10 12:29:11.983
6.0, -29531.817678429805, -10335.983078000912, -36480.2597737622, -31946.32016972544, -17400.766003223183, -25285.20974936602, -24733.009902597656, -16756.36521057668, -28734.843878131378, -32031.43561261125, -35680.40259842904, -10721.416559388228, -35296.466683920225, -25825.33965412851, -35962.48161345501, -32165.881355509922, -0.058, 0.99, 0.254, 192.0, 0.0, 0.0, 0.0, 0.0, 0.0, 0.0, 0.0, 0.0, 0.0, 1.741627751983891E9, 0.0, 2025-03-10 12:29:11.983
8.0, -29518.585445712262, -10332.80913028826, -36477.28699174964, -31950.41053896076, -17400.743651478726, -25289.233063367974, -24727.690187417295, -16758.466274555478, -28740.275352034016, -32029.692176543736, -35690.68440087848, -10725.037541989988, -35323.06525982205, -25829.2959128971, -36030.520323576966, -32157.7900240171, -0.058, 0.99, 0.254, 192.0, 0.0, 0.0, 0.0, 0.0, 0.0, 0.0, 0.0, 0.0, 0.0, 1.741627752030757E9, 0.0, 2025-03-10 12:29:12.030
10.0, -29530.163649340113, -10335.13371171161, -36482.919631352386, -31951.818698861447, -17404.4093375694, -25290.082429657275, -24756.09925461999, -16740.27195456886, -28734.82152638692, -32031.413260866793, -35674.613496615115, -10723.450568133661, -35285.55903262604, -25821.83043024903, -35964.98500883401, -32160.9416199853, -0.058, 0.99, 0.254, 192.0, 0.0, 0.0, 0.0, 0.0, 0.0, 0.0, 0.0, 0.0, 0.0, 1.741627752030846E9, 0.0, 2025-03-10 12:29:12.030
12.0, -29531.95178889654, -10346.130769983623, -36478.002247572214, -31952.601009917384, -17395.58039850955, -25295.42449658209, -24736.407367754862, -16762.489588557433, -28749.707788194155, -32035.8612580134, -35705.25773826334, -10740.594356130881, -35325.211027289755, -25833.63215132143, -36043.03730047194, -32157.924134483834, -0.066, 0.982, 0.254, 192.0, 126.5, 120.0, 15.0, 88.0, 3.5, 120.0, 0.0, 0.0, 0.0, 1.741627752030902E9, 0.0, 2025-03-10 12:29:12.030
14.0, -29532.242361574456, -10350.779932830326, -36488.32875351057, -31959.999437332088, -17401.749479979215, -25290.73063024648, -24730.260638029653, -16743.535309259332, -28747.003227115063, -32041.806822038514, -35693.65718289104, -10739.02973401901, -35288.73298033869, -25827.284255896124, -35965.49909895648, -32163.51207059766, -0.066, 0.982, 0.254, 192.0, 0.0, 0.0, 0.0, 0.0, 0.0, 0.0, 0.0, 0.0, 0.0, 1.741627752030962E9, 0.0, 2025-03-10 12:29:12.030
16.0, -29530.163649340113, -10334.552566355773, -36469.66504689038, -31939.27937022202, -17385.85738967149, -25271.99986839293, -24697.202407980254, -16723.105814827184, -28750.288933549993, -32041.896229016333, -35708.29757550926, -10742.22603347612, -35329.547265714085, -25834.21329667727, -36025.781753752446, -32152.157384414364, -0.066, 0.982, 0.254, 192.0, 0.0, 0.0, 0.0, 0.0, 0.0, 0.0, 0.0, 0.0, 0.0, 1.741627752031035E9, 0.0, 2025-03-10 12:29:12.031
18.0, -29519.345405023745, -10320.560374326751, -36471.65435214691, -31940.41930918924, -17397.21207585479, -25280.29236558585, -24715.352024477965, -16725.005713105886, -28733.703939164156, -32027.76992652058, -35675.84284256015, -10718.890812264779, -35290.185843728286, -25804.77604922963, -35954.99377906248, -32145.630675033415, -0.066, 0.982, 0.254, 192.0, 0.0, 0.0, 0.0, 0.0, 0.0, 0.0, 0.0, 0.0, 0.0, 1.741627752031098E9, 0.0, 2025-03-10 12:29:12.031
20.0, -29531.281236562878, -10318.235792903399, -36465.86525033299, -31933.266750963543, -17385.2538925712, -25261.58395547676, -24699.906969059346, -16735.198108577504, -28730.26177051804, -32018.583359549448, -35688.98566829988, -10721.9306495107, -35316.02446031862, -25817.941226713807, -36019.63502402724, -32139.148669141374, -0.066, 0.982, 0.254, 192.0, 0.0, 0.0, 0.0, 0.0, 0.0, 0.0, 0.0, 0.0, 0.0, 1.741627752031166E9, 0.0, 2025-03-10 12:29:12.031
22.0, -29519.524218979386, -10317.341723125188, -36468.011017800694, -31938.295893465984, -17378.458962256787, -25285.835598210764, -24724.806812382558, -16751.537233774332, -28730.17236354022, -32016.9069787153, -35673.16063322552, -10714.17459418471, -35271.991523741664, -25810.565151043553, -35953.83148835081, -32139.863924963945, -0.058, 0.978, 0.256, 192.0, 127.0, 24.0, 15.0, 72.0, 4.0, 0.0, 0.0, 0.0, 0.0, 1.74162775208088E9, 0.0, 2025-03-10 12:29:12.080
24.0, -29538.99258839996, -10328.85287151967, -36470.89439283543, -31931.143335240286, -17388.405488539396, -25280.9182144306, -24724.315074004542, -16743.870585426164, -28743.046968346476, -32024.707737530203, -35697.926366082, -10729.865518792334, -35318.483152208704, -25825.987854717718, -36008.86148319978, -32149.519878568637, -0.058, 0.978, 0.256, 192.0, 0.0, 0.0, 0.0, 0.0, 0.0, 0.0, 0.0, 0.0, 0.0, 1.741627752080959E9, 0.0, 2025-03-10 12:29:12.080
26.0, -29513.712765421005, -10319.889821993092, -36462.19956424231, -31934.36198644185, -17375.77675292215, -25284.695659243545, -24704.64553888387, -16746.93277441654, -28736.430851987705, -32018.918635716276, -35678.5697553837, -10719.382550642795, -35286.967192526725, -25812.465049322254, -35960.44760470958, -32141.652064520367, -0.058, 0.978, 0.256, 192.0, 0.0, 0.0, 0.0, 0.0, 0.0, 0.0, 0.0, 0.0, 0.0, 1.741627752081016E9, 0.0, 2025-03-10 12:29:12.081
28.0, -29544.26760009141, -10329.344609897687, -36470.29089573513, -31930.293968950984, -17393.792258953126, -25277.72191497349, -24719.285931502098, -16720.200088047994, -28742.488174735092, -32019.544484561025, -35690.550290411746, -10726.333943168396, -35311.42000096083, -25817.829467991527, -35988.5437474899, -32134.812430717044, -0.058, 0.978, 0.256, 192.0, 0.0, 0.0, 0.0, 0.0, 0.0, 0.0, 0.0, 0.0, 0.0, 1.741627752081071E9, 0.0, 2025-03-10 12:29:12.081
30.0, -29507.07429731778, -10312.647856789572, -36467.36281721149, -31936.552457398473, -17382.705793703295, -25285.99206042195, -24729.81360314055, -16742.373018547656, -28734.083918819895, -32016.43759208174, -35677.36276118312, -10720.969524499122, -35285.290811692576, -25811.749793499686, -35974.93153511662, -32143.8872389659, -0.058, 0.978, 0.256, 192.0, 0.0, 0.0, 0.0, 0.0, 0.0, 0.0, 0.0, 0.0, 0.0, 1.741627752081161E9, 0.0, 2025-03-10 12:29:12.081
32.0, -29541.026597145392, -10315.441824846486, -36472.03433180265, -31929.735175339603, -17392.07117463007, -25280.87351094169, -24723.42100422633, -16748.989134906427, -28738.509564222048, -32019.320967116473, -35692.718409623914, -10728.993800758577, -35311.12942828291, -25815.236665634715, -35991.82945392483, -32147.642332034393, -0.062, 0.974, 0.254, 192.0, 127.0, 8.0, 15.0, 56.0, 3.5, 120.0, 0.0, 0.0, 0.0, 1.741627752081227E9, 0.0, 2025-03-10 12:29:12.081
34.0, -29498.424172213578, -10307.238734631388, -36457.14806999541, -31928.79640207248, -17380.783543680136, -25274.995002149943, -24695.906006801848, -16744.585841248732, -28726.171401282718, -32006.04403091002, -35678.74856933935, -10717.572059341916, -35282.65330584685, -25803.993738173693, -35983.6934189431, -32136.622922017927, -0.062, 0.974, 0.254, 192.0, 0.0, 0.0, 0.0, 0.0, 0.0, 0.0, 0.0, 0.0, 0.0, 1.741627752081286E9, 0.0, 2025-03-10 12:29:12.081
36.0, -29547.821527459804, -10335.960726256459, -36479.343352239535, -31933.17734398572, -17398.977863666758, -25273.363324804704, -24732.160536308354, -16721.720006670952, -28737.59314269938, -32013.017775180077, -35687.91278456602, -10724.858728034345, -35295.66202111984, -25806.407726574867, -35974.48450022751, -32147.12824191192, -0.062, 0.974, 0.254, 192.0, 0.0, 0.0, 0.0, 0.0, 0.0, 0.0, 0.0, 0.0, 0.0, 1.741627752081354E9, 0.0, 2025-03-10 12:29:12.081
38.0, -29510.583521197263, -10319.196917914978, -36471.609648658, -31941.17926850072, -17376.80493316709, -25274.123284116184, -24700.21989348172, -16735.220460321958, -28743.046968346476, -32021.779659006555, -35694.41714220252, -10731.787768815491, -35298.09836126547, -25795.656537491865, -35991.293012057904, -32145.36245409995, -0.062, 0.974, 0.254, 192.0, 0.0, 0.0, 0.0, 0.0, 0.0, 0.0, 0.0, 0.0, 0.0, 1.741627752130056E9, 0.0, 2025-03-10 12:29:12.130
40.0, -29543.66410299112, -10329.456368619964, -36475.275334748665, -31936.59716088738, -17387.48906701673, -25269.787045691854, -24703.70676561675, -16727.464404995968, -28736.564962454435, -32020.0585746835, -35687.890432821565, -10729.9325740257, -35291.2810792066, -25817.248322635693, -35967.93543910211, -32145.518916311135, -0.062, 0.974, 0.254, 192.0, 0.0, 0.0, 0.0, 0.0, 0.0, 0.0, 0.0, 0.0, 0.0, 1.741627752130151E9, 0.0, 2025-03-10 12:29:12.130
42.0, -29507.566035695796, -10318.593420814685, -36471.8108143581, -31947.37070171484, -17383.10812510349, -25298.441982083557, -24735.669760187837, -16766.69171651503, -28740.320055522927, -32021.019699695076, -35695.89235733657, -10734.715847339136, -35297.383105442896, -25817.74006101371, -36005.44166629812, -32162.32742814153, -0.06, 0.972, 0.25, 192.0, 127.0, 16.0, 15.0, 48.0, 3.5, 104.0, 0.0, 0.0, 0.0, 1.741627752130221E9, 0.0, 2025-03-10 12:29:12.130
44.0, -29539.730195966986, -10331.490377365397, -36478.06930280558, -31939.74875685558, -17394.194590353323, -25281.454656297527, -24731.735853163704, -16738.662628968075, -28739.090709577886, -32021.891417728835, -35688.35981945513, -10727.384475157794, -35298.59009964349, -25805.223084118737, -35965.7896716344, -32158.41587286185, -0.06, 0.972, 0.25, 192.0, 0.0, 0.0, 0.0, 0.0, 0.0, 0.0, 0.0, 0.0, 0.0, 1.741627752130281E9, 0.0, 2025-03-10 12:29:12.130
46.0, -29505.241454272447, -10313.765444012339, -36462.624247386964, -31939.905219066768, -17376.424953511352, -25283.53336853187, -24718.45891695725, -16747.782140705844, -28736.810831643445, -32017.152847904308, -35692.45018869045, -10727.40682690225, -35307.240224747686, -25810.654558021375, -36004.592300008815, -32156.001884460675, -0.06, 0.972, 0.25, 192.0, 0.0, 0.0, 0.0, 0.0, 0.0, 0.0, 0.0, 0.0, 0.0, 1.741627752130336E9, 0.0, 2025-03-10 12:29:12.130
48.0, -29539.909009922627, -10333.636144833106, -36475.09652079303, -31945.89548658079, -17393.836962442037, -25289.456580812526, -24732.89814387538, -16774.715992774487, -28740.007131100552, -32024.37246136337, -35689.87973807809, -10732.659486849248, -35304.7815328576, -25814.387299345413, -35946.45541268056, -32155.97953271622, -0.06, 0.972, 0.25, 192.0, 0.0, 0.0, 0.0, 0.0, 0.0, 0.0, 0.0, 0.0, 0.0, 1.741627752130392E9, 0.0, 2025-03-10 12:29:12.130
50.0, -29511.79051539785, -10318.928696981513, -36457.5056979067, -31938.362948699352, -17376.4026017669, -25281.164083619606, -24713.966216321733, -16719.775404903343, -28746.198564314673, -32020.23738863914, -35703.49195045137, -10734.469978150128, -35316.49384695219, -25821.02576744864, -36018.27156761546, -32158.23705890621, -0.06, 0.972, 0.25, 192.0, 0.0, 0.0, 0.0, 0.0, 0.0, 0.0, 0.0, 0.0, 0.0, 1.741627752130453E9, 0.0, 2025-03-10 12:29:12.130
52.0, -29534.298722064344, -10324.315467395243, -36469.776805612666, -31946.32016972544, -17390.081869373545, -25297.570264049802, -24728.919533362336, -16771.564396806287, -28736.721424665622, -32015.72233625917, -35685.14116825356, -10722.64590533327, -35291.21402397323, -25807.570017286544, -35943.32616845681, -32150.97274195823, -0.062, 0.976, 0.248, 192.0, 127.0, 8.0, 15.0, 64.0, 3.5, 96.0, 0.0, 0.0, 0.0, 1.741627752179234E9, 0.0, 2025-03-10 12:29:12.179
54.0, -29518.630149201173, -10324.1366534396, -36465.86525033299, -31945.828431347425, -17376.760229678184, -25283.354554576228, -24703.438544683286, -16722.569372960257, -28747.874945148822, -32023.99248170763, -35703.22372951791, -10736.83926306239, -35327.04387033509, -25824.333825628022, -36018.919768204665, -32172.005733490674, -0.062, 0.976, 0.248, 192.0, 0.0, 0.0, 0.0, 0.0, 0.0, 0.0, 0.0, 0.0, 0.0, 1.741627752179337E9, 0.0, 2025-03-10 12:29:12.179
56.0, -29530.633035973675, -10328.942278497492, -36470.49206143523, -31944.46497493565, -17386.974976894257, -25265.18258633406, -24730.66296942985, -16735.712198699977, -28741.8846776348, -32022.897246229324, -35689.11977876661, -10727.451530391161, -35291.370486184416, -25803.054964906572, -35943.86261032374, -32148.26818087914, -0.062, 0.976, 0.248, 192.0, 0.0, 0.0, 0.0, 0.0, 0.0, 0.0, 0.0, 0.0, 0.0, 1.741627752179394E9, 0.0, 2025-03-10 12:29:12.179
58.0, -29518.02665210088, -10320.47096734893, -36457.036311273136, -31936.485402165104, -17369.80883715258, -25279.085371385263, -24689.021669509613, -16762.310774601792, -28747.74083468209, -32019.790353750035, -35705.61536617463, -10732.16774847123, -35320.092477809485, -25804.10549689597, -36015.634061769735, -32150.950390213777, -0.062, 0.976, 0.248, 192.0, 0.0, 0.0, 0.0, 0.0, 0.0, 0.0, 0.0, 0.0, 0.0, 1.741627752179472E9, 0.0, 2025-03-10 12:29:12.179
60.0, -29517.020823600393, -10314.234830645899, -36458.7573955962, -31930.115154995343, -17375.419125010863, -25267.976554390974, -24704.243207483676, -16707.683111153023, -28742.465822990638, -32016.9069787153, -35685.34233395366, -10721.26009717704, -35273.399683642354, -25796.77412471463, -35930.56332237284, -32144.066052921542, -0.062, 0.976, 0.248, 192.0, 0.0, 0.0, 0.0, 0.0, 0.0, 0.0, 0.0, 0.0, 0.0, 1.741627752179534E9, 0.0, 2025-03-10 12:29:12.179
62.0, -29506.917835106593, -10310.971475955424, -36452.49890714871, -31925.533047382007, -17370.88172088644, -25274.65972598311, -24708.40063195236, -16733.320562043256, -28737.74960491057, -32002.445400052715, -35695.91470908102, -10721.237745432585, -35309.74362012668, -25794.71776422474, -36002.37947730774, -32134.99124467269, -0.064, 0.986, 0.252, 192.0, 127.0, 0.0, 15.0, 104.0, 3.5, 112.0, 0.0, 0.0, 0.0, 1.741627752179596E9, 0.0, 2025-03-10 12:29:12.179
64.0, -29508.84008512975, -10320.85094700467, -36467.2063550003, -31943.883829579812, -17380.940005891323, -25282.86281619821, -24724.404480982364, -16741.993038891917, -28729.54651469547, -32009.9555861897, -35676.40163617154, -10723.539975111482, -35264.3248753935, -25793.644880490887, -35933.73727008549, -32142.21085813175, -0.064, 0.986, 0.252, 192.0, 0.0, 0.0, 0.0, 0.0, 0.0, 0.0, 0.0, 0.0, 0.0, 1.741627752179668E9, 0.0, 2025-03-10 12:29:12.179
66.0, -29530.07424236229, -10334.798435544782, -36473.64365740343, -31951.438719205707, -17384.270415815165, -25287.020240666898, -24710.90402733136, -16749.100893628703, -28746.55619222596, -32023.59015030744, -35705.794180130266, -10746.919899811734, -35321.54534119908, -25819.550552314588, -36007.74389597701, -32161.254544407675, -0.064, 0.986, 0.252, 192.0, 0.0, 0.0, 0.0, 0.0, 0.0, 0.0, 0.0, 0.0, 0.0, 1.741627752179725E9, 0.0, 2025-03-10 12:29:12.179
68.0, -29510.22589328598, -10319.822766759726, -36467.4075207004, -31947.862440092857, -17375.01679361067, -25286.14852263314, -24739.67072244534, -16789.691661559544, -28746.869116648333, -32021.556141562003, -35691.75728461234, -10737.532167140505, -35280.038151745575, -25808.86641846495, -35947.14831675867, -32163.22149791974, -0.064, 0.986, 0.252, 192.0, 0.0, 0.0, 0.0, 0.0, 0.0, 0.0, 0.0, 0.0, 0.0, 1.741627752228183E9, 0.0, 2025-03-10 12:29:12.228
70.0, -29524.687471948564, -10323.130824939111, -36464.993532299224, -31941.715710367647, -17379.598901224006, -25287.109647644716, -24717.631902412406, -16736.40510277809, -28744.857459647355, -32010.62613852336, -35695.221805002904, -10728.725579825114, -35311.59881491647, -25806.944168441794, -35999.87608192874, -32161.187489174306, -0.064, 0.986, 0.252, 192.0, 0.0, 0.0, 0.0, 0.0, 0.0, 0.0, 0.0, 0.0, 0.0, 1.741627752228256E9, 0.0, 2025-03-10 12:29:12.228
72.0, -29501.50871294841, -10314.324237623721, -36465.015884043685, -31948.55534417097, -17375.48618024423, -25272.983345148965, -24719.241228013187, -16741.657762725088, -28735.603837442857, -32013.822437980467, -35678.25683096133, -10725.149300712264, -35275.05371273204, -25801.847970705985, -35946.29895046937, -32154.996055960186, -0.064, 0.99, 0.256, 192.0, 127.0, 0.0, 15.0, 120.0, 4.0, 0.0, 0.0, 0.0, 0.0, 1.741627752228341E9, 0.0, 2025-03-10 12:29:12.228
74.0, -29529.336634795265, -10326.058903462757, -36468.83803234554, -31946.476631936628, -17380.135343090933, -25292.049383169342, -24713.921512832825, -16778.784010265354, -28742.756395668555, -32016.9069787153, -35696.74172362587, -10738.135664240797, -35313.61047191745, -25810.29693011009, -35990.398942279695, -32161.634524063415, -0.064, 0.99, 0.256, 192.0, 0.0, 0.0, 0.0, 0.0, 0.0, 0.0, 0.0, 0.0, 0.0, 1.741627752228407E9, 0.0, 2025-03-10 12:29:12.228
76.0, -29490.89163433214, -10303.304827607255, -36448.363834424475, -31931.389204429295, -17364.399714994397, -25250.18456580455, -24705.94194006228, -16680.21281721745, -28732.295779263473, -32008.32390884446, -35672.46772914741, -10720.947172754666, -35278.49588137816, -25800.618624760944, -35949.83052609331, -32147.642332034393, -0.064, 0.99, 0.256, 192.0, 0.0, 0.0, 0.0, 0.0, 0.0, 0.0, 0.0, 0.0, 0.0, 1.741627752228482E9, 0.0, 2025-03-10 12:29:12.228
78.0, -29522.27348354739, -10317.006446958358, -36465.06058753259, -31937.155954498765, -17385.87974141595, -25281.90169118663, -24755.89808891989, -16751.805454707795, -28731.848744374365, -32000.724315729658, -35669.89727853504, -10713.951076740155, -35304.11098052395, -25792.884921179408, -35966.907258857165, -32144.82601223302, -0.064, 0.99, 0.256, 192.0, 0.0, 0.0, 0.0, 0.0, 0.0, 0.0, 0.0, 0.0, 0.0, 1.741627752228524E9, 0.0, 2025-03-10 12:29:12.228
80.0, -29488.567052908787, -10305.85292647516, -36464.30062822111, -31945.001416802577, -17374.368593021463, -25266.993077634943, -24726.28202751661, -16736.047474866806, -28732.58635194139, -32010.112048400886, -35660.911877264014, -10719.293143664974, -35293.65036411886, -25804.57488352953, -35965.364988489746, -32156.426567605326, -0.064, 0.99, 0.256, 192.0, 0.0, 0.0, 0.0, 0.0, 0.0, 0.0, 0.0, 0.0, 0.0, 1.741627752228596E9, 0.0, 2025-03-10 12:29:12.228
82.0, -29527.257922560922, -10325.343647640188, -36479.14218653944, -31950.85757384987, -17389.053689128603, -25300.543046062357, -24763.0953506345, -16808.735347835463, -28726.909008849743, -32008.212150122185, -35663.638790087556, -10722.042408232977, -35307.64255614788, -25803.97138642924, -35965.20852627856, -32162.819166519545, -0.064, 0.974, 0.256, 192.0, 127.0, 0.0, 15.0, 56.0, 4.0, 0.0, 0.0, 0.0, 0.0, 1.741627752277039E9, 0.0, 2025-03-10 12:29:12.277
84.0, -29488.097666275225, -10313.363112612142, -36463.38420669844, -31943.436794690704, -17363.349183004997, -25262.32156304378, -24699.9293208038, -16696.48488718091, -28738.39780549977, -32015.58822579244, -35670.836051802165, -10727.965620513633, -35299.350058954966, -25807.614720775455, -35983.492253243, -32168.02712297763, -0.064, 0.974, 0.256, 192.0, 0.0, 0.0, 0.0, 0.0, 0.0, 0.0, 0.0, 0.0, 0.0, 1.74162775227709E9, 0.0, 2025-03-10 12:29:12.277
86.0, -29513.869227632193, -10318.168737670034, -36471.02850330216, -31931.769184085035, -17370.05470634159, -25261.42749326557, -24695.45897191274, -16700.6423116496, -28733.480421719603, -32013.308347857997, -35659.8166417857, -10718.220259931119, -35304.7815328576, -25799.43398230481, -35938.8334678213, -32148.13407041241, -0.064, 0.974, 0.256, 192.0, 0.0, 0.0, 0.0, 0.0, 0.0, 0.0, 0.0, 0.0, 0.0, 1.741627752277151E9, 0.0, 2025-03-10 12:29:12.277
88.0, -29475.804206824807, -10305.160022397045, -36468.77097711217, -31938.27354172153, -17367.059572584578, -25270.077618369774, -24734.8874491319, -16751.470178540967, -28723.131564036797, -32007.34043208843, -35646.04796720123, -10714.554573840449, -35303.37337295692, -25792.68375547931, -35963.263924510946, -32143.149631398875, -0.064, 0.974, 0.256, 192.0, 0.0, 0.0, 0.0, 0.0, 0.0, 0.0, 0.0, 0.0, 0.0, 1.741627752277193E9, 0.0, 2025-03-10 12:29:12.277
90.0, -29521.13354458017, -10322.415569116542, -36482.897279607925, -31941.827469089923, -17373.76509592117, -25286.170874377596, -24714.97204482222, -16731.666532953564, -28725.63495941579, -32016.43759208174, -35651.05475795922, -10726.669219335225, -35306.50261718066, -25799.232816604712, -35946.38835744719, -32165.568431087548, -0.064, 0.974, 0.256, 192.0, 0.0, 0.0, 0.0, 0.0, 0.0, 0.0, 0.0, 0.0, 0.0, 1.741627752277233E9, 0.0, 2025-03-10 12:29:12.277
92.0, -29485.70602961851, -10311.686731777994, -36468.88273583445, -31934.205524230663, -17356.48719745722, -25265.741379945444, -24681.93616651728, -16707.280779752826, -28735.425023487216, -32016.37053684837, -35664.44345288795, -10729.9325740257, -35310.79415211608, -25795.790647958594, -35968.27071526894, -32132.912532438342, -0.058, 0.974, 0.262, 192.0, 127.0, 24.0, 15.0, 56.0, 4.0, 24.0, 0.0, 0.0, 0.0, 1.741627752277271E9, 0.0, 2025-03-10 12:29:12.277
94.0, -29519.993605612948, -10324.494281350886, -36480.4609394623, -31936.999492287578, -17382.81755242557, -25286.729667988977, -24727.265504272644, -16767.071696170773, -28735.715596165133, -32014.96237694769, -35659.68253131897, -10721.371855899317, -35303.820407846026, -25794.58365375801, -35925.33301417029, -32150.74922451368, -0.058, 0.974, 0.262, 192.0, 0.0, 0.0, 0.0, 0.0, 0.0, 0.0, 0.0, 0.0, 0.0, 1.741627752277319E9, 0.0, 2025-03-10 12:29:12.277
96.0, -29489.505826175908, -10307.775176498315, -36471.27437249117, -31935.278407964517, -17367.864235384972, -25263.841481666743, -24719.26357975764, -16725.430396250536, -28736.54261070998, -32011.564911790483, -35670.79134831326, -10723.964658256133, -35326.32861451252, -25804.57488352953, -35995.003401637485, -32158.326465884027, -0.058, 0.974, 0.262, 192.0, 0.0, 0.0, 0.0, 0.0, 0.0, 0.0, 0.0, 0.0, 0.0, 1.741627752277362E9, 0.0, 2025-03-10 12:29:12.277
98.0, -29529.71661445101, -10333.434979133008, -36492.08384657906, -31951.818698861447, -17391.311215318587, -25280.87351094169, -24724.18096353781, -16741.903631914098, -28735.715596165133, -32016.325833359464, -35668.39971165654, -10729.59729785887, -35310.50357943816, -25797.109400881458, -35931.14446772867, -32151.911515225354, -0.058, 0.974, 0.262, 192.0, 0.0, 0.0, 0.0, 0.0, 0.0, 0.0, 0.0, 0.0, 0.0, 1.741627752326314E9, 0.0, 2025-03-10 12:29:12.326
100.0, -29508.527160707377, -10319.263973148343, -36481.869099362986, -31945.51550692505, -17380.694136702317, -25269.250603824927, -24724.27037051563, -16731.666532953564, -28754.267544063037, -32022.38315610685, -35701.2791277503, -10748.484521923605, -35349.462670023764, -25804.15020038488, -36009.688497744624, -32162.37213163044, -0.058, 0.974, 0.262, 192.0, 0.0, 0.0, 0.0, 0.0, 0.0, 0.0, 0.0, 0.0, 0.0, 1.741627752326379E9, 0.0, 2025-03-10 12:29:12.326
102.0, -29526.56501848281, -10328.651705819573, -36490.04983783363, -31945.984893558612, -17392.67467173036, -25273.139807360152, -24732.02642584162, -16732.672361454053, -28747.897296893276, -32017.80104849351, -35687.17517699899, -10739.387361930296, -35317.589082430495, -25801.177418372325, -35942.76737484543, -32160.762806029656, -0.054, 0.982, 0.258, 192.0, 127.0, 40.0, 15.0, 88.0, 4.0, 8.0, 0.0, 0.0, 0.0, 1.741627752326421E9, 0.0, 2025-03-10 12:29:12.326
104.0, -29503.83329437176, -10312.983132956402, -36476.63879116044, -31936.530105654016, -17376.492008744717, -25271.61988873719, -24704.377317950406, -16737.567393489768, -28747.316151537438, -32011.877836212858, -35697.30051723725, -10736.36987642883, -35350.84847817999, -25806.49713355269, -36011.65545125669, -32155.912477482856, -0.054, 0.982, 0.258, 192.0, 0.0, 0.0, 0.0, 0.0, 0.0, 0.0, 0.0, 0.0, 0.0, 1.741627752326466E9, 0.0, 2025-03-10 12:29:12.326
106.0, -29515.478553232977, -10317.207612658454, -36482.85257611902, -31943.481498179615, -17386.550293749606, -25275.307926572317, -24717.27427450112, -16720.088329325717, -28734.620360686826, -32007.832170466445, -35676.53574663827, -10727.65269609126, -35313.744582384184, -25790.24741533368, -35937.5817701318, -32154.07963443752, -0.054, 0.982, 0.258, 192.0, 0.0, 0.0, 0.0, 0.0, 0.0, 0.0, 0.0, 0.0, 0.0, 1.741627752326511E9, 0.0, 2025-03-10 12:29:12.326
108.0, -29519.010128856913, -10321.052112704769, -36485.557137198106, -31952.377492472828, -17389.29955831761, -25295.648014026647, -24722.392823981387, -16763.741286246932, -28745.282142792006, -32010.693193756724, -35703.98368882939, -10744.148283499275, -35357.44224279431, -25807.167685886347, -36020.70790776109, -32169.189413689306, -0.054, 0.982, 0.258, 192.0, 0.0, 0.0, 0.0, 0.0, 0.0, 0.0, 0.0, 0.0, 0.0, 1.741627752326552E9, 0.0, 2025-03-10 12:29:12.326
110.0, -29514.02568984338, -10316.693522535983, -36473.73306438125, -31943.526201668526, -17372.759267420683, -25288.406048823126, -24687.300585186553, -16730.727759686444, -28743.583410213403, -32014.269472869575, -35692.15961601253, -10735.431103161705, -35320.18188478731, -25799.657499749363, -35945.47193592453, -32172.251602679684, -0.054, 0.982, 0.258, 192.0, 0.0, 0.0, 0.0, 0.0, 0.0, 0.0, 0.0, 0.0, 0.0, 1.741627752326594E9, 0.0, 2025-03-10 12:29:12.326
112.0, -29516.484381733466, -10309.116281165634, -36472.92840158086, -31935.077242264422, -17376.15673257789, -25273.966821904996, -24702.678585371803, -16764.389486836135, -28742.979913113108, -32004.0547256535, -35702.59788067316, -10729.59729785887, -35345.30524555507, -25798.070525893036, -36003.0947331303, -32153.006750703666, -0.056, 0.984, 0.25, 192.0, 127.0, 32.0, 15.0, 96.0, 3.5, 104.0, 0.0, 0.0, 0.0, 1.74162775237521E9, 0.0, 2025-03-10 12:29:12.375
114.0, -29515.567960210796, -10324.203708672967, -36487.2111662878, -31949.13648952681, -17388.472543772765, -25281.409952808615, -24721.588161180993, -16719.753053158885, -28738.867192133333, -32009.217978622673, -35687.68926712147, -10730.22314670362, -35314.52689344012, -25786.067639120538, -35948.62353189272, -32158.572335073037, -0.056, 0.984, 0.25, 192.0, 0.0, 0.0, 0.0, 0.0, 0.0, 0.0, 0.0, 0.0, 0.0, 1.741627752375293E9, 0.0, 2025-03-10 12:29:12.375
116.0, -29526.22974231598, -10323.935487739504, -36480.662105162395, -31936.261884720552, -17378.973052379257, -25262.18745257705, -24699.057602770044, -16726.45857649548, -28746.511488737047, -32011.29669085702, -35712.11972381112, -10745.355277699862, -35353.933018914824, -25796.505903781166, -36014.36001233578, -32155.621904804935, -0.056, 0.984, 0.25, 192.0, 0.0, 0.0, 0.0, 0.0, 0.0, 0.0, 0.0, 0.0, 0.0, 1.741627752375349E9, 0.0, 2025-03-10 12:29:12.375
118.0, -29514.159800310113, -10321.812072016248, -36484.28308776415, -31948.55534417097, -17381.58820648053, -25264.04264736684, -24714.055623299555, -16719.954218858984, -28744.902163136267, -32011.8554844684, -35699.53569168278, -10737.666277607237, -35315.39861147387, -25790.225063589223, -35956.066662796344, -32160.092253696, -0.056, 0.984, 0.25, 192.0, 0.0, 0.0, 0.0, 0.0, 0.0, 0.0, 0.0, 0.0, 0.0, 1.74162775237539E9, 0.0, 2025-03-10 12:29:12.375
120.0, -29537.964408155014, -10329.545775597784, -36484.59601218653, -31944.50967842456, -17384.91861640437, -25267.976554390974, -24715.575541922517, -16735.51103299988, -28753.842860918387, -32011.654318768302, -35716.433610490996, -10741.51077765355, -35354.80473694858, -25790.20271184477, -36002.96062266357, -32157.298285639084, -0.056, 0.984, 0.25, 192.0, 0.0, 0.0, 0.0, 0.0, 0.0, 0.0, 0.0, 0.0, 0.0, 1.741627752375429E9, 0.0, 2025-03-10 12:29:12.375
122.0, -29514.45037298803, -10317.811109758748, -36485.80300638712, -31958.635980920313, -17377.63194771194, -25269.898804414133, -24714.390899466383, -16751.224309351957, -28751.138299839295, -32017.66693802678, -35705.101276052155, -10741.466074164638, -35325.635710434406, -25799.121057882436, -35969.03067458042, -32166.6413148214, -0.06, 0.986, 0.246, 192.0, 127.0, 16.0, 15.0, 104.0, 3.5, 88.0, 0.0, 0.0, 0.0, 1.741627752375475E9, 0.0, 2025-03-10 12:29:12.375
124.0, -29551.174289128103, -10339.13467396911, -36496.64360244794, -31957.071358808444, -17392.317043819075, -25268.691810213546, -24727.690187417295, -16747.200995350006, -28759.69901796568, -32018.87393222737, -35723.92144488352, -10754.944176071189, -35366.740568487716, -25804.329014340525, -36010.381401822735, -32174.553832358582, -0.06, 0.986, 0.246, 192.0, 0.0, 0.0, 0.0, 0.0, 0.0, 0.0, 0.0, 0.0, 0.0, 1.74162775237552E9, 0.0, 2025-03-10 12:29:12.375
126.0, -29514.338614265755, -10325.164833684545, -36485.758302898204, -31951.46107095016, -17375.1509040774, -25268.53534800236, -24710.099364530965, -16733.40996902108, -28762.18006160022, -32017.644586282324, -35719.898130881564, -10748.529225412516, -35339.270274552146, -25799.165761371347, -35984.386323021216, -32161.902744996878, -0.06, 0.986, 0.246, 192.0, 0.0, 0.0, 0.0, 0.0, 0.0, 0.0, 0.0, 0.0, 0.0, 1.741627752375562E9, 0.0, 2025-03-10 12:29:12.375
128.0, -29546.07809139229, -10331.959763998957, -36492.41912274589, -31945.04612029149, -17384.44922977081, -25274.637374238657, -24704.64553888387, -16746.93277441654, -28759.184927843206, -32010.134400145344, -35720.52397972631, -10742.673068365226, -35358.51512652816, -25802.004432917172, -35994.91399465966, -32162.30507639707, -0.06, 0.986, 0.246, 192.0, 0.0, 0.0, 0.0, 0.0, 0.0, 0.0, 0.0, 0.0, 0.0, 1.741627752429466E9, 0.0, 2025-03-10 12:29:12.429
130.0, -29503.54272169384, -10313.720740523428, -36480.863270862494, -31947.482460437117, -17372.558101720584, -25265.115531100695, -24705.070222028524, -16719.842460136708, -28755.005151630063, -32012.079001912953, -35707.71643015342, -10738.381533429807, -35339.76201293016, -25798.226988104223, -35987.672029456146, -32163.780291531122, -0.06, 0.986, 0.246, 192.0, 0.0, 0.0, 0.0, 0.0, 0.0, 0.0, 0.0, 0.0, 0.0, 1.741627752429513E9, 0.0, 2025-03-10 12:29:12.429
132.0, -29538.99258839996, -10330.417493631541, -36490.00513434471, -31951.66223665026, -17388.29372981712, -25280.649993497133, -24704.958463306244, -16760.768504234376, -28752.36764578434, -32016.61640603738, -35705.54831094126, -10741.801350331469, -35348.00980663417, -25803.30083409558, -35985.146282332695, -32163.17679443083, -0.066, 0.986, 0.248, 192.0, 126.5, 120.0, 15.0, 104.0, 3.5, 96.0, 0.0, 0.0, 0.0, 1.741627752429553E9, 0.0, 2025-03-10 12:29:12.429
134.0, -29505.308509505812, -10322.773197027827, -36489.13341631096, -31961.76522514406, -17383.421049525863, -25294.508075059424, -24727.109042061456, -16747.491568027923, -28750.780671928012, -32018.113972915886, -35701.7261626394, -10747.501045167572, -35343.04771936509, -25810.92277895484, -36007.11804713226, -32176.096102726, -0.066, 0.986, 0.248, 192.0, 0.0, 0.0, 0.0, 0.0, 0.0, 0.0, 0.0, 0.0, 0.0, 1.741627752429595E9, 0.0, 2025-03-10 12:29:12.429
136.0, -29540.110175622725, -10327.198842429978, -36497.82824490407, -31947.840088348403, -17394.44045954233, -25284.38273482117, -24731.624094441428, -16730.77246317535, -28756.569773741936, -32021.042051439534, -35710.28688076579, -10751.524359169527, -35355.676454982335, -25810.67690976583, -35984.92276488814, -32167.13305319942, -0.066, 0.986, 0.248, 192.0, 0.0, 0.0, 0.0, 0.0, 0.0, 0.0, 0.0, 0.0, 0.0, 1.741627752429651E9, 0.0, 2025-03-10 12:29:12.429
138.0, -29500.413477470098, -10309.004522443358, -36484.573660442074, -31940.75458535607, -17378.39190702342, -25277.81132195131, -24704.287910972587, -16724.424567750048, -28746.042102103485, -32007.89922569981, -35702.68728765098, -10735.296992694974, -35355.22942009323, -25791.476761278722, -36013.62240476876, -32163.824995020033, -0.066, 0.986, 0.248, 192.0, 0.0, 0.0, 0.0, 0.0, 0.0, 0.0, 0.0, 0.0, 0.0, 1.741627752429693E9, 0.0, 2025-03-10 12:29:12.429
140.0, -29538.031463388383, -10328.741112797394, -36494.83311114706, -31946.253114492076, -17389.97011065127, -25282.751057475933, -24705.36079470644, -16756.4546175545, -28742.7340439241, -32013.062478668988, -35692.62900264609, -10734.045295005477, -35352.30134156959, -25806.318319597045, -35964.76149138946, -32160.204012418275, -0.066, 0.986, 0.248, 192.0, 0.0, 0.0, 0.0, 0.0, 0.0, 0.0, 0.0, 0.0, 0.0, 1.741627752429735E9, 0.0, 2025-03-10 12:29:12.429
142.0, -29511.432887486564, -10325.56716508474, -36490.89920412293, -31955.886716352314, -17376.939043633825, -25282.23696735346, -24695.235454468188, -16743.93764065953, -28747.562020726447, -32019.633891538848, -35703.268433006815, -10747.925728312222, -35364.17011787536, -25813.739098756207, -36024.66416652968, -32173.41389339136, -0.062, 0.988, 0.246, 192.0, 127.0, 8.0, 15.0, 112.0, 3.5, 88.0, 0.0, 0.0, 0.0, 1.741627752487879E9, 0.0, 2025-03-10 12:29:12.487
144.0, -29543.41823380211, -10333.122054710633, -36496.956526870315, -31942.050986534476, -17385.589168738028, -25241.892068611633, -24724.85151587147, -16706.610227419165, -28749.6854364497, -32021.779659006555, -35703.96133708493, -10746.696382367181, -35353.53068751463, -25806.38537483041, -35963.53214544441, -32154.54902107108, -0.062, 0.988, 0.246, 192.0, 0.0, 0.0, 0.0, 0.0, 0.0, 0.0, 0.0, 0.0, 0.0, 1.741627752487962E9, 0.0, 2025-03-10 12:29:12.487
146.0, -29527.392033027656, -10327.869394763637, -36497.33650652606, -31951.997512817088, -17385.030375126647, -25278.43717079606, -24722.303417003564, -16751.961916918983, -28749.797195171977, -32013.509513558092, -35712.700869166954, -10740.50494915306, -35371.92617320135, -25802.16089512836, -36029.6039020543, -32151.866811736443, -0.062, 0.988, 0.246, 192.0, 0.0, 0.0, 0.0, 0.0, 0.0, 0.0, 0.0, 0.0, 0.0, 1.741627752488006E9, 0.0, 2025-03-10 12:29:12.488
148.0, -29552.828318217795, -10339.447598391485, -36502.92444263988, -31954.836184362914, -17391.266511829675, -25293.591653536758, -24711.84280059848, -16724.759843916876, -28759.587259243403, -32034.967188235187, -35718.60172970316, -10754.720658626635, -35356.19054510481, -25813.962616200763, -35968.3377705023, -32168.384750888916, -0.062, 0.988, 0.246, 192.0, 0.0, 0.0, 0.0, 0.0, 0.0, 0.0, 0.0, 0.0, 0.0, 1.741627752488049E9, 0.0, 2025-03-10 12:29:12.488
150.0, -29526.073280104793, -10325.768330784838, -36484.84188137554, -31945.157879013765, -17371.30640403109, -25274.212691094006, -24693.290852700575, -16715.372111245648, -28749.618381216336, -32019.343318860927, -35719.65226169256, -10749.982088802111, -35375.34599010301, -25806.81005797506, -36037.89639924722, -32153.185564659307, -0.062, 0.988, 0.246, 192.0, 0.0, 0.0, 0.0, 0.0, 0.0, 0.0, 0.0, 0.0, 0.0, 1.741627752488095E9, 0.0, 2025-03-10 12:29:12.488
152.0, -29548.98381817148, -10339.33583966921, -36500.28693679416, -31961.0946728104, -17395.222770598266, -25297.72672626099, -24739.22368755623, -16777.80053350932, -28746.623247459323, -32025.154772419308, -35708.18581678699, -10747.322231211929, -35344.58998973251, -25810.5427992991, -35961.028750065416, -32169.658800322868, -0.064, 0.984, 0.252, 192.0, 127.0, 0.0, 15.0, 96.0, 3.5, 112.0, 0.0, 0.0, 0.0, 1.741627752488137E9, 0.0, 2025-03-10 12:29:12.488
154.0, -29529.001358628437, -10319.353380126166, -36482.42789297437, -31938.921742310733, -17381.38704078043, -25271.61988873719, -24711.485172687197, -16713.427509478035, -28744.343369524882, -32013.800086236013, -35718.9817093589, -10741.89075730929, -35381.403312850394, -25813.895560967394, -36041.763251037984, -32168.429454377827, -0.064, 0.984, 0.252, 192.0, 0.0, 0.0, 0.0, 0.0, 0.0, 0.0, 0.0, 0.0, 0.0, 1.741627752488178E9, 0.0, 2025-03-10 12:29:12.488
156.0, -29543.395882057655, -10332.071522721235, -36497.04593384814, -31952.66806515075, -17389.567779251072, -25293.256377369926, -24712.781573865603, -16735.64514346661, -28742.711692179644, -32014.403583336305, -35704.49777895186, -10735.229937461609, -35345.126431599434, -25799.188113115804, -35959.17355527563, -32171.35753290147, -0.064, 0.984, 0.252, 192.0, 0.0, 0.0, 0.0, 0.0, 0.0, 0.0, 0.0, 0.0, 0.0, 1.741627752488216E9, 0.0, 2025-03-10 12:29:12.488
158.0, -29544.736986724973, -10335.513691367352, -36496.84476814804, -31957.741911142104, -17392.898189174914, -25292.407011080624, -24733.90397237587, -16752.40895180809, -28753.842860918387, -32017.532827560048, -35723.25089254986, -10745.757609100057, -35381.87269948396, -25807.704127753273, -36027.726355520055, -32167.6918468108, -0.064, 0.984, 0.252, 192.0, 0.0, 0.0, 0.0, 0.0, 0.0, 0.0, 0.0, 0.0, 0.0, 1.741627752534237E9, 0.0, 2025-03-10 12:29:12.534
160.0, -29535.148088353646, -10329.165795942044, -36490.69803842283, -31950.36583547185, -17375.709697688784, -25270.94933640353, -24702.74564060517, -16734.84048066622, -28751.31711379494, -32027.546409076025, -35709.079886565196, -10748.059838778954, -35351.22845783573, -25816.242494135204, -35970.818814136845, -32172.385713146417, -0.064, 0.984, 0.252, 192.0, 0.0, 0.0, 0.0, 0.0, 0.0, 0.0, 0.0, 0.0, 0.0, 1.74162775253433E9, 0.0, 2025-03-10 12:29:12.534
162.0, -29554.303533351846, -10337.480644879419, -36497.13534082596, -31952.153975028275, -17381.811723925082, -25273.162159104606, -24701.672756871314, -16740.07078886876, -28749.81954691643, -32021.265568884086, -35722.155657071555, -10747.299879467473, -35386.9018419864, -25815.86251447946, -36024.41829734067, -32158.88525949541, -0.064, 0.98, 0.256, 192.0, 127.0, 0.0, 15.0, 80.0, 4.0, 0.0, 0.0, 0.0, 0.0, 1.74162775253437E9, 0.0, 2025-03-10 12:29:12.534
164.0, -29542.70297797954, -10325.813034273748, -36503.729105440274, -31953.964466329155, -17380.940005891323, -25266.367228790194, -24715.955521578257, -16706.766689630353, -28753.015846373542, -32023.18781890724, -35712.11972381112, -10742.069571264932, -35358.4480712948, -25811.414517332854, -35974.46214848306, -32165.36726538745, -0.064, 0.98, 0.256, 192.0, 0.0, 0.0, 0.0, 0.0, 0.0, 0.0, 0.0, 0.0, 0.0, 1.741627752534418E9, 0.0, 2025-03-10 12:29:12.534
166.0, -29565.367646857223, -10339.201729202478, -36510.21111133231, -31953.9421145847, -17392.764078708184, -25286.43909531106, -24739.827184656526, -16747.491568027923, -28758.961410398653, -32014.358879847394, -35731.96807288743, -10742.40484743176, -35400.715220059785, -25809.559322543064, -36037.98580622504, -32169.32352415604, -0.064, 0.98, 0.256, 192.0, 0.0, 0.0, 0.0, 0.0, 0.0, 0.0, 0.0, 0.0, 0.0, 1.741627752586066E9, 0.0, 2025-03-10 12:29:12.586
168.0, -29544.64757974715, -10337.301830923776, -36503.14796008444, -31961.251135021586, -17372.021659853657, -25289.255415112428, -24694.341384689975, -16737.96972488996, -28766.717465724643, -32028.23931315414, -35728.995290874875, -10750.183254502208, -35368.394597577404, -25812.35329059998, -35984.05104685439, -32177.437207393315, -0.064, 0.98, 0.256, 192.0, 0.0, 0.0, 0.0, 0.0, 0.0, 0.0, 0.0, 0.0, 0.0, 1.74162775258614E9, 0.0, 2025-03-10 12:29:12.586
170.0, -29560.651428777153, -10339.402894902576, -36497.35885827051, -31950.477594194126, -17378.347203534508, -25279.644164996644, -24712.55805642105, -16730.59364921971, -28761.464805777647, -32022.360804362394, -35733.91267465505, -10750.205606246664, -35395.99900197971, -25813.4932295672, -36019.65737577169, -32169.524689856138, -0.064, 0.98, 0.256, 192.0, 0.0, 0.0, 0.0, 0.0, 0.0, 0.0, 0.0, 0.0, 0.0, 1.741627752586184E9, 0.0, 2025-03-10 12:29:12.586
172.0, -29533.829335430783, -10331.512729109852, -36500.55515772762, -31964.17921354523, -17384.38217453744, -25297.90554021663, -24728.919533362336, -16766.93758570404, -28753.26171556255, -32020.550313061514, -35713.99727034537, -10741.734295098102, -35358.71629222826, -25808.464087064756, -35990.108369601774, -32169.45763462277, -0.06, 0.978, 0.252, 192.0, 127.0, 16.0, 15.0, 72.0, 3.5, 112.0, 0.0, 0.0, 0.0, 1.741627752586226E9, 0.0, 2025-03-10 12:29:12.586
174.0, -29562.148995655658, -10333.52438611083, -36503.617346718, -31951.014036061057, -17395.222770598266, -25291.736458746967, -24730.931190363313, -16763.584824035745, -28757.329733053415, -32019.119801416375, -35726.82717166271, -10743.969469543634, -35391.416894366375, -25819.237627892213, -36016.17050363666, -32182.399294662395, -0.06, 0.978, 0.252, 192.0, 0.0, 0.0, 0.0, 0.0, 0.0, 0.0, 0.0, 0.0, 0.0, 1.741627752586268E9, 0.0, 2025-03-10 12:29:12.586
176.0, -29524.665120204107, -10317.609944058651, -36495.07898033607, -31953.47272795114, -17375.01679361067, -25293.166970392107, -24700.733983604194, -16731.375960275647, -28749.0372358605, -32012.14605714632, -35717.35003201366, -10733.352390927363, -35374.47427206925, -25795.455371791766, -36000.21135809557, -32168.384750888916, -0.06, 0.978, 0.252, 192.0, 0.0, 0.0, 0.0, 0.0, 0.0, 0.0, 0.0, 0.0, 0.0, 1.741627752586306E9, 0.0, 2025-03-10 12:29:12.586
178.0, -29562.216050889023, -10337.324182668232, -36508.11004735351, -31958.054835564475, -17396.58622701004, -25288.67426975659, -24734.79804215408, -16750.33023957375, -28755.921573152733, -32018.00221419361, -35725.66488095104, -10745.17646374422, -35388.93585073183, -25819.170572658848, -35992.72352370305, -32178.219518449252, -0.06, 0.978, 0.252, 192.0, 0.0, 0.0, 0.0, 0.0, 0.0, 0.0, 0.0, 0.0, 0.0, 1.741627752586344E9, 0.0, 2025-03-10 12:29:12.586
180.0, -29509.868265374695, -10309.317446865733, -36483.098445308024, -31950.388187216307, -17362.18689229332, -25277.453694040025, -24697.962367291733, -16723.21757354946, -28746.131509081308, -32013.375403091362, -35712.52205521132, -10737.398056673772, -35362.98547541922, -25807.86058996446, -35991.8965091582, -32162.528593841627, -0.06, 0.978, 0.252, 192.0, 0.0, 0.0, 0.0, 0.0, 0.0, 0.0, 0.0, 0.0, 0.0, 1.741627752586398E9, 0.0, 2025-03-10 12:29:12.586
182.0, -29550.056701905338, -10323.466101105942, -36497.53767222616, -31947.840088348403, -17388.24902632821, -25270.792874192342, -24722.571637937028, -16743.915288915076, -28747.763186426546, -32015.76703974808, -35714.55606395675, -10736.414579917739, -35379.57046980506, -25812.01801443315, -35973.43396823811, -32173.07861722453, -0.062, 0.972, 0.252, 192.0, 127.0, 8.0, 15.0, 48.0, 3.5, 112.0, 0.0, 0.0, 0.0, 1.741627752648216E9, 0.0, 2025-03-10 12:29:12.648
184.0, -29517.490210233955, -10316.067673691234, -36493.46965473529, -31954.50090819608, -17376.313194789076, -25279.174778363085, -24705.539608662082, -16732.471195753955, -28753.328770795917, -32011.453153068207, -35721.61921520463, -10731.072512992921, -35375.16717614736, -25807.748831242185, -35999.38434355072, -32168.87648926693, -0.062, 0.972, 0.252, 192.0, 0.0, 0.0, 0.0, 0.0, 0.0, 0.0, 0.0, 0.0, 0.0, 1.74162775264826E9, 0.0, 2025-03-10 12:29:12.648
186.0, -29546.79334721486, -10329.635182575606, -36495.79423615864, -31950.768166872047, -17377.654299456393, -25287.266109855904, -24696.50950390214, -16759.36034433369, -28752.635866717803, -32012.570740290972, -35720.65809019304, -10734.64879210577, -35371.52384180115, -25806.83240971952, -35964.49327045599, -32172.60923059097, -0.062, 0.972, 0.252, 192.0, 0.0, 0.0, 0.0, 0.0, 0.0, 0.0, 0.0, 0.0, 0.0, 1.741627752648309E9, 0.0, 2025-03-10 12:29:12.648
188.0, -29520.574750968786, -10325.790682529294, -36493.60376520202, -31964.156861800777, -17376.939043633825, -25278.43717079606, -24713.094498287977, -16733.83465216573, -28759.006113887564, -32019.544484561025, -35726.894226896075, -10745.869367822334, -35379.883394227436, -25814.87903772343, -36008.5485587774, -32181.505224884182, -0.062, 0.972, 0.252, 192.0, 0.0, 0.0, 0.0, 0.0, 0.0, 0.0, 0.0, 0.0, 0.0, 1.741627752648352E9, 0.0, 2025-03-10 12:29:12.648
190.0, -29552.671856006607, -10345.28140369432, -36506.61248047501, -31961.22878327713, -17391.49002927423, -25282.035801653365, -24723.66687341534, -16751.31371632978, -28764.974029657133, -32031.882647500355, -35728.54825598577, -10756.08411503841, -35373.2002226353, -25819.505848825676, -35958.994741319984, -32170.88814626791, -0.062, 0.972, 0.252, 192.0, 0.0, 0.0, 0.0, 0.0, 0.0, 0.0, 0.0, 0.0, 0.0, 1.741627752648394E9, 0.0, 2025-03-10 12:29:12.648
192.0, -29519.881846890672, -10319.219269659432, -36496.86711989249, -31955.976123330132, -17374.457999999286, -25285.321508088295, -24710.814620353536, -16732.135919587126, -28761.55421275547, -32018.695118271724, -35733.465639765935, -10749.333888212906, -35390.29930714361, -25811.302758610578, -36021.06553567237, -32171.80456779058, -0.058, 0.98, 0.246, 192.0, 127.0, 24.0, 15.0, 80.0, 3.5, 88.0, 0.0, 0.0, 0.0, 1.741627752648442E9, 0.0, 2025-03-10 12:29:12.648
194.0, -29542.47946053499, -10327.020028474335, -36508.53473049816, -31957.071358808444, -17394.149886864412, -25287.020240666898, -24745.303362048075, -16773.531350318357, -28753.082901606907, -32016.594054292927, -35719.36168901464, -10741.376667186818, -35368.43930106632, -25797.288214837103, -35956.98308431901, -32184.209785963274, -0.058, 0.98, 0.246, 192.0, 0.0, 0.0, 0.0, 0.0, 0.0, 0.0, 0.0, 0.0, 0.0, 1.741627752648484E9, 0.0, 2025-03-10 12:29:12.648
196.0, -29518.16076256761, -10322.482624349908, -36496.37538151448, -31956.84784136389, -17376.983747122737, -25274.27974632737, -24701.248073726663, -16726.056245095282, -28753.999323129574, -32019.611539794394, -35731.49868625387, -10751.725524869624, -35392.13215018894, -25812.755622000175, -36026.29584387491, -32170.262297423164, -0.058, 0.98, 0.246, 192.0, 0.0, 0.0, 0.0, 0.0, 0.0, 0.0, 0.0, 0.0, 0.0, 1.741627752707509E9, 0.0, 2025-03-10 12:29:12.707
198.0, -29540.98189365648, -10345.057886249768, -36512.13336135547, -31966.392036246307, -17388.025508883657, -25285.321508088295, -24724.22566702672, -16758.399219322113, -28759.408445287758, -32036.375348135873, -35723.87674139461, -10763.393135475295, -35367.85815571048, -25819.841124992505, -35956.11136628525, -32178.241870193706, -0.058, 0.98, 0.246, 192.0, 0.0, 0.0, 0.0, 0.0, 0.0, 0.0, 0.0, 0.0, 0.0, 1.741627752707554E9, 0.0, 2025-03-10 12:29:12.707
200.0, -29518.496038734444, -10327.981153485913, -36502.87973915097, -31960.379416987827, -17380.91765414687, -25272.29044107085, -24706.724251118216, -16737.58974523422, -28761.665971477745, -32033.58138007896, -35738.517134012836, -10764.644833164792, -35406.41491489588, -25821.4951540822, -36024.7535735075, -32181.348762672995, -0.058, 0.98, 0.246, 192.0, 0.0, 0.0, 0.0, 0.0, 0.0, 0.0, 0.0, 0.0, 0.0, 1.741627752707601E9, 0.0, 2025-03-10 12:29:12.707
202.0, -29529.023710372894, -10319.241621403888, -36504.779637429674, -31955.14910878529, -17389.813648440082, -25289.121304645694, -24723.443355970783, -16733.186451576526, -28746.35502652586, -32019.879760727858, -35712.365593000126, -10740.639059619793, -35363.38780681942, -25805.088973652004, -35949.562305159845, -32176.677248081836, -0.06, 0.978, 0.25, 192.0, 127.0, 16.0, 15.0, 72.0, 3.5, 104.0, 0.0, 0.0, 0.0, 1.741627752707645E9, 0.0, 2025-03-10 12:29:12.707
204.0, -29522.89933239214, -10302.298999106766, -36492.41912274589, -31946.9907220591, -17379.934177390835, -25288.85308371223, -24711.529876176104, -16754.867643698173, -28748.65725620476, -32014.068307169477, -35726.134267584595, -10742.091923009388, -35401.2069584378, -25808.754659742674, -36017.310442603884, -32179.918251027855, -0.06, 0.978, 0.25, 192.0, 0.0, 0.0, 0.0, 0.0, 0.0, 0.0, 0.0, 0.0, 0.0, 1.741627752707689E9, 0.0, 2025-03-10 12:29:12.707
206.0, -29518.831314901272, -10315.598287057674, -36486.74177965424, -31939.12290801083, -17364.28795627212, -25256.86773739669, -24678.762218804626, -16734.70637019949, -28741.728215423613, -32016.705813015204, -35710.48804646588, -10740.12496949732, -35362.94077193031, -25798.115229381947, -35935.39129917518, -32171.469291623747, -0.06, 0.978, 0.25, 192.0, 0.0, 0.0, 0.0, 0.0, 0.0, 0.0, 0.0, 0.0, 0.0, 1.741627752707729E9, 0.0, 2025-03-10 12:29:12.707
208.0, -29517.579617211773, -10314.301885879266, -36483.6125354305, -31937.334768454406, -17368.668898185362, -25265.71902820099, -24703.393841194375, -16739.489643512923, -28741.45999449015, -32011.22963562365, -35719.60755820365, -10740.192024730686, -35386.85713849749, -25802.026784661626, -35988.67785795663, -32159.64521880689, -0.06, 0.978, 0.25, 192.0, 0.0, 0.0, 0.0, 0.0, 0.0, 0.0, 0.0, 0.0, 0.0, 1.741627752773667E9, 0.0, 2025-03-10 12:29:12.773
210.0, -29508.236588029456, -10306.612885786639, -36489.066361077596, -31937.357120198863, -17373.2510057987, -25260.131092087162, -24716.134335533898, -16717.361416502168, -28737.16845955473, -32014.202417636207, -35700.966203327924, -10731.02780950401, -35350.647312479894, -25789.19688334428, -35935.100726497265, -32169.524689856138, -0.06, 0.978, 0.25, 192.0, 0.0, 0.0, 0.0, 0.0, 0.0, 0.0, 0.0, 0.0, 0.0, 1.741627752773719E9, 0.0, 2025-03-10 12:29:12.773
212.0, -29528.26375106141, -10314.033664945802, -36497.20239605932, -31943.70501562417, -17380.49297100222, -25268.08831311325, -24708.110059274444, -16743.49060577042, -28740.320055522927, -32001.32781282995, -35711.76209589984, -10726.803329801956, -35390.29930714361, -25785.03945887559, -35993.93051790363, -32154.817242004545, -0.062, 0.978, 0.254, 192.0, 127.0, 8.0, 15.0, 72.0, 3.5, 120.0, 0.0, 0.0, 0.0, 1.741627752773763E9, 0.0, 2025-03-10 12:29:12.773
214.0, -29528.956655139526, -10323.935487739504, -36514.54734975664, -31963.285143767018, -17393.948721164314, -25277.230176595473, -24737.457899744262, -16754.17473962006, -28750.758320183555, -32016.43759208174, -35716.634776191095, -10737.487463651594, -35369.51218480017, -25808.66525276485, -35957.7877471194, -32184.030972007633, -0.062, 0.978, 0.254, 192.0, 0.0, 0.0, 0.0, 0.0, 0.0, 0.0, 0.0, 0.0, 0.0, 1.741627752773811E9, 0.0, 2025-03-10 12:29:12.773
216.0, -29550.3249228388, -10335.04430473379, -36511.149884599436, -31958.61362917586, -17386.34912804951, -25293.166970392107, -24705.249035984165, -16742.7529982034, -28766.69511398019, -32030.452135855216, -35743.99331140439, -10757.402867961273, -35421.16706623639, -25823.30564538308, -36013.35418383529, -32187.517844142658, -0.062, 0.978, 0.254, 192.0, 0.0, 0.0, 0.0, 0.0, 0.0, 0.0, 0.0, 0.0, 0.0, 1.741627752773853E9, 0.0, 2025-03-10 12:29:12.773
218.0, -29517.825486400783, -10324.024894717324, -36500.75632342772, -31956.80313787498, -17368.02069759616, -25267.73068520197, -24685.132465974388, -16737.16506208957, -28754.938096396698, -32028.10520268741, -35718.04293609178, -10750.496178924583, -35368.86398421097, -25811.01218593266, -35958.97238957553, -32176.163157959363, -0.062, 0.978, 0.254, 192.0, 0.0, 0.0, 0.0, 0.0, 0.0, 0.0, 0.0, 0.0, 0.0, 1.741627752773891E9, 0.0, 2025-03-10 12:29:12.773
220.0, -29550.07905364979, -10338.33001116872, -36511.216939832804, -31950.477594194126, -17383.48810475923, -25264.37792353367, -24718.101289045968, -16730.303076541793, -28766.426893046726, -32031.61442656689, -35734.56087524425, -10755.950004571678, -35406.48197012925, -25813.426174333832, -35984.028695109926, -32169.12235845594, -0.062, 0.978, 0.254, 192.0, 0.0, 0.0, 0.0, 0.0, 0.0, 0.0, 0.0, 0.0, 0.0, 1.74162775277393E9, 0.0, 2025-03-10 12:29:12.773
222.0, -29518.339576523256, -10314.771272512828, -36505.56194848561, -31956.55726868597, -17368.892415629914, -25265.316696800794, -24698.632919625394, -16730.37013177516, -28755.16161384125, -32016.9069787153, -35719.004061103355, -10735.475806650617, -35377.96114420428, -25797.44467704829, -35963.28627625541, -32171.31282941256, -0.062, 0.976, 0.258, 192.0, 127.0, 8.0, 15.0, 64.0, 4.0, 8.0, 0.0, 0.0, 0.0, 1.741627752773974E9, 0.0, 2025-03-10 12:29:12.773
224.0, -29549.341446082766, -10326.304772651765, -36505.87487290798, -31950.56700117195, -17379.218921568267, -25269.854100925222, -24715.37437622242, -16744.36232380418, -28764.6387534903, -32019.276263627562, -35731.67750020952, -10744.79648408848, -35407.17487420736, -25808.888770209407, -35973.92570661613, -32180.40998940587, -0.062, 0.976, 0.258, 192.0, 0.0, 0.0, 0.0, 0.0, 0.0, 0.0, 0.0, 0.0, 0.0, 1.741627752838643E9, 0.0, 2025-03-10 12:29:12.838
226.0, -29513.89157937665, -10318.28049639231, -36501.40452401692, -31961.51935595505, -17370.099409830502, -25284.896824943644, -24705.494905173175, -16744.652896482097, -28751.31711379494, -32013.9565484472, -35713.81845638972, -10740.728466597613, -35376.441225581315, -25803.792572473598, -35972.3387327598, -32183.6956958408, -0.062, 0.976, 0.258, 192.0, 0.0, 0.0, 0.0, 0.0, 0.0, 0.0, 0.0, 0.0, 0.0, 1.74162775283869E9, 0.0, 2025-03-10 12:29:12.838
228.0, -29547.665065248617, -10335.267822178343, -36503.818512418096, -31949.449413949184, -17380.58237798004, -25254.90078388462, -24701.113963259933, -16725.720968928454, -28766.717465724643, -32031.94970273372, -35728.39179377458, -10763.236673264108, -35399.7540950482, -25814.20848538977, -35965.40969197866, -32188.83659706552, -0.062, 0.976, 0.258, 192.0, 0.0, 0.0, 0.0, 0.0, 0.0, 0.0, 0.0, 0.0, 0.0, 1.741627752838727E9, 0.0, 2025-03-10 12:29:12.838
230.0, -29504.03446007186, -10311.887897478093, -36488.08288432156, -31946.007245303066, -17372.401639509397, -25255.347818773727, -24720.716443147237, -16755.918175687573, -28752.233535317606, -32018.024565938067, -35710.823322632714, -10743.477731165616, -35381.09038842802, -25790.67209847833, -35966.32611350132, -32165.680189809824, -0.062, 0.976, 0.258, 192.0, 0.0, 0.0, 0.0, 0.0, 0.0, 0.0, 0.0, 0.0, 0.0, 1.741627752838778E9, 0.0, 2025-03-10 12:29:12.838
232.0, -29542.054777390338, -10328.249374419376, -36497.85059664853, -31946.409576703263, -17383.01871812567, -25278.39246730715, -24711.172248264822, -16744.094102870717, -28757.59795398688, -32021.24321713963, -35715.91952036852, -10739.610879374848, -35396.66955431337, -25809.15699114287, -35957.050139552375, -32185.595594119502, -0.06, 0.98, 0.262, 192.0, 127.0, 16.0, 15.0, 80.0, 4.0, 24.0, 0.0, 0.0, 0.0, 1.74162775283882E9, 0.0, 2025-03-10 12:29:12.838
