%OpenBCI Raw EXG Data
%Number of channels = 16
%Sample Rate = 125 Hz
%Board = OpenBCI_GUI$BoardCytonSerialDaisy
Sample Index, EXG Channel 0, EXG Channel 1, EXG Channel 2, EXG Channel 3, EXG Channel 4, EXG Channel 5, EXG Channel 6, EXG Channel 7, EXG Channel 8, EXG Channel 9, EXG Channel 10, EXG Channel 11, EXG Channel 12, EXG Channel 13, EXG Channel 14, EXG Channel 15, Accel Channel 0, Accel Channel 1, Accel Channel 2, Not Used, Digital Channel 0 (D11), Digital Channel 1 (D12), Digital Channel 2 (D13), Digital Channel 3 (D17), Not Used, Digital Channel 4 (D18), Analog Channel 0, Analog Channel 1, Analog Channel 2, Timestamp, Marker Channel, Timestamp (Formatted)
72.0, -3890.298770701739, 9412.118424429706, -187500.02235174447, 187500.0, -47936.065248973995, -51982.62506516279, 5414.955963487144, -14089.891504036368, -38246.20404794264, -24656.097549926944, -15873.203083658587, -187500.02235174447, -11808.091319571891, -32195.65387912439, -187500.02235174447, -187500.02235174447, 0.0, 0.0, 0.0, 192.0, 0.0, 0.0, 0.0, 0.0, 0.0, 0.0, 0.0, 0.0, 0.0, 1.74286957823604E9, 0.0, 2025-03-24 21:26:18.236
74.0, -3873.110279215608, 9436.81710205282, -187500.02235174447, 187500.0, -47918.876757487866, -51976.85831509332, 5361.758811683513, -14096.999358773157, -38251.03202474499, -24653.75061675914, -15744.144111173644, -187500.02235174447, -11815.534450475508, -32193.843387823512, -187500.02235174447, -187500.02235174447, 0.0, 0.0, 0.0, 192.0, 0.0, 0.0, 0.0, 0.0, 0.0, 0.0, 0.0, 0.0, 0.0, 1.742869578236098E9, 0.0, 2025-03-24 21:26:18.236
76.0, -3883.7944130652445, 9388.649092751633, -187500.02235174447, 187500.0, -47938.188664697256, -51996.52785021399, 5410.239745407074, -14048.026686671577, -38253.40130965725, -24648.810881234513, -15882.344947140808, -187500.02235174447, -11824.743369191096, -32199.677193126347, -187500.02235174447, -187500.02235174447, 0.0, 0.0, 0.0, 192.0, 0.0, 0.0, 0.0, 0.0, 0.0, 0.0, 0.0, 0.0, 0.0, 1.742869578236131E9, 0.0, 2025-03-24 21:26:18.236
78.0, -3899.328875461683, 9387.375043317681, -187500.02235174447, 187500.0, -47937.56281585251, -51981.440422706655, 5384.378777072284, -14044.271593603087, -38272.020312788525, -24682.69612582876, -15712.851668936215, -187500.02235174447, -11831.381837294322, -32204.125190272953, -187500.02235174447, -187500.02235174447, 0.0, 0.0, 0.0, 192.0, 0.0, 0.0, 0.0, 0.0, 0.0, 0.0, 0.0, 0.0, 0.0, 1.742869578236149E9, 0.0, 2025-03-24 21:26:18.236
80.0, -3880.039319996753, 9403.177726647584, -187500.02235174447, 187500.0, -47928.86798725939, -51976.18776275966, 5411.111463440831, -14000.685691915238, -38267.30409470846, -24671.989640234668, -15884.513066352973, -187500.02235174447, -11823.759892435062, -32206.785047863134, -187500.02235174447, -187500.02235174447, -0.01, 0.508, -0.011, 192.0, 127.5, 48.0, 15.5, 96.0, 127.5, 40.0, 0.0, 0.0, 0.0, 1.742869578236169E9, 0.0, 2025-03-24 21:26:18.236
82.0, -3876.5077443728146, 9407.268095882904, -187500.02235174447, 187500.0, -47930.00792622661, -51973.17027725819, 5396.269905122507, -14020.891668902836, -38263.504298151056, -24659.24914589514, -15711.935247413547, -187500.02235174447, -11831.158319849768, -32199.051344281597, -187500.02235174447, -187500.02235174447, -0.01, 0.508, -0.011, 192.0, 0.0, 0.0, 0.0, 0.0, 0.0, 0.0, 0.0, 0.0, 0.0, 1.742869578236202E9, 0.0, 2025-03-24 21:26:18.236
84.0, -3902.5698784077026, 9399.690854512555, -187500.02235174447, 187500.0, -47938.56864435299, -51984.68142565268, 5413.480748353094, -13965.615804864861, -38270.6345046323, -24678.762218804626, -15906.663645108181, -187500.02235174447, -11831.784168694518, -32200.727725115747, -187500.02235174447, -187500.02235174447, -0.01, 0.508, -0.011, 192.0, 0.0, 0.0, 0.0, 0.0, 0.0, 0.0, 0.0, 0.0, 0.0, 1.742869578236221E9, 0.0, 2025-03-24 21:26:18.236
86.0, -3877.8935525290435, 9426.825872281299, -187500.02235174447, 187500.0, -47933.315984406, -51971.38213770177, 5397.8345272343795, -14013.403834510307, -38270.47804242111, -24678.69516357126, -15722.217049862988, -187500.02235174447, -11840.3448868209, -32205.198074006807, -187500.02235174447, -187500.02235174447, -0.01, 0.508, -0.011, 192.0, 0.0, 0.0, 0.0, 0.0, 0.0, 0.0, 0.0, 0.0, 0.0, 1.74286957823624E9, 0.0, 2025-03-24 21:26:18.236
88.0, -3883.392081665049, 9390.191363119051, -187500.02235174447, 187500.0, -47938.61334784191, -51990.403472233236, 5389.765547486013, -13965.369935675853, -38251.36730091182, -24660.07616043999, -15912.229229477553, -187500.02235174447, -11840.322535076444, -32191.429399422337, -187500.02235174447, -187500.02235174447, -0.01, 0.508, -0.011, 192.0, 0.0, 0.0, 0.0, 0.0, 0.0, 0.0, 0.0, 0.0, 0.0, 1.74286957823626E9, 0.0, 2025-03-24 21:26:18.236
0.0, -2229.117122783318, 4410.222698476637, -93750.01117587223, 93749.98882412778, -23886.705802286364, -25854.59808762051, 2952.7101460349736, -9036.810283280645, -19134.903745043724, -12339.235823063353, -7875.637158827443, -93750.01117587223, -5912.528146806735, -16108.231676606141, -93750.01117587223, -93750.01117587223, -0.014000000000000002, 0.761, -0.0335, 192.0, 127.5, 56.0, 15.5, 88.0, 127.0, 32.0, 0.0, 0.0, 0.0, 1.742869578406458E9, 0.0, 2025-03-24 21:26:18.406
2.0, -4429.065219052461, 8836.717466916736, -187500.02235174447, 187500.0, -47762.16867711171, -51698.444986158014, 5967.602845144612, -18100.39795641875, -38141.24025598053, -25539.974932667606, -11369.483038125401, -181995.32413426926, -11555.963642116028, -33449.16205992247, -187500.02235174447, -187500.02235174447, -0.014000000000000002, 0.761, -0.0335, 192.0, 0.0, 0.0, 0.0, 0.0, 0.0, 0.0, 0.0, 0.0, 0.0, 1.742869578406514E9, 0.0, 2025-03-24 21:26:18.406
4.0, -4432.060352809472, 8840.897243129879, -187500.02235174447, 187500.0, -47755.709022964125, -51698.40028266911, 5901.195812367894, -18114.59131414787, -38125.52697962844, -25517.80200216794, -11308.954514140429, -181978.64973290561, -11535.780016872886, -33435.840420227105, -187500.02235174447, -187500.02235174447, -0.014000000000000002, 0.761, -0.0335, 192.0, 0.0, 0.0, 0.0, 0.0, 0.0, 0.0, 0.0, 0.0, 0.0, 1.742869578406558E9, 0.0, 2025-03-24 21:26:18.406
6.0, -4432.038001065016, 8841.545443719084, -187500.02235174447, 187500.0, -47766.50491553604, -51707.81036708479, 5961.746688097321, -18114.792479847965, -38126.15282847319, -25521.825316169896, -11389.845477324187, -181936.7402120519, -11544.698362910553, -33447.55273432168, -187500.02235174447, -187500.02235174447, -0.014000000000000002, 0.761, -0.0335, 192.0, 0.0, 0.0, 0.0, 0.0, 0.0, 0.0, 0.0, 0.0, 0.0, 1.742869578406578E9, 0.0, 2025-03-24 21:26:18.406
8.0, -4398.018646004039, 8880.504534304682, -187500.02235174447, 187500.0, -47748.35529903833, -51700.52369839236, 5905.666161258956, -18157.841939668888, -38107.8467497643, -25497.28310075797, -11287.94387435244, -181895.70240923198, -11542.731409398486, -33435.75101324928, -187500.02235174447, -187500.02235174447, -0.022, 1.012, -0.066, 192.0, 127.5, 40.0, 15.5, 80.0, 126.5, 120.0, 0.0, 0.0, 0.0, 1.742869578406602E9, 0.0, 2025-03-24 21:26:18.406
10.0, -4418.1575677582705, 8836.762170405647, -187500.02235174447, 187500.0, -47744.73431643657, -51703.31766644927, 5946.145170467516, -18166.804989195465, -38099.911880482665, -25502.491057216055, -11415.795852636797, -181882.6266387256, -11521.296086465847, -33437.36033885006, -187500.02235174447, -187500.02235174447, -0.022, 1.012, -0.066, 192.0, 0.0, 0.0, 0.0, 0.0, 0.0, 0.0, 0.0, 0.0, 0.0, 1.742869578406623E9, 0.0, 2025-03-24 21:26:18.406
12.0, -4425.332477728424, 8836.404542494362, -187500.02235174447, 187500.0, -47762.88393293428, -51703.29531470482, 5911.544670050701, -18193.582379052925, -38112.25004342199, -25503.519237461, -11272.163542766993, -181815.4596466374, -11544.452493721545, -33444.915228475955, -187500.02235174447, -187500.02235174447, -0.022, 1.012, -0.066, 192.0, 0.0, 0.0, 0.0, 0.0, 0.0, 0.0, 0.0, 0.0, 0.0, 1.742869578406641E9, 0.0, 2025-03-24 21:26:18.406
14.0, -4422.069123037949, 8826.681533656303, -187500.02235174447, 187500.0, -47764.35914806833, -51708.34680895172, 5946.882778034542, -18148.07422734192, -38127.15865697368, -25509.151877063738, -11405.223477509437, -181790.87272773657, -11554.577833959798, -33454.72764429184, -187500.02235174447, -187500.02235174447, -0.022, 1.012, -0.066, 192.0, 0.0, 0.0, 0.0, 0.0, 0.0, 0.0, 0.0, 0.0, 0.0, 1.742869578406674E9, 0.0, 2025-03-24 21:26:18.406
16.0, -4406.042922263494, 8831.643620925382, -187500.02235174447, 187500.0, -47757.54186600946, -51689.928971520545, 5915.3221148636485, -18167.54259676249, -38120.76605805946, -25498.065411813906, -11239.909975517987, -181701.75632259325, -11549.727505412997, -33445.9434087209, -187500.02235174447, -187500.02235174447, -0.022, 1.012, -0.066, 192.0, 0.0, 0.0, 0.0, 0.0, 0.0, 0.0, 0.0, 0.0, 0.0, 1.742869578466748E9, 0.0, 2025-03-24 21:26:18.466
18.0, -4374.05757594795, 8837.298612272574, -187500.02235174447, 187500.0, -47755.284339819475, -51690.46541338747, 5894.1326611200175, -18136.71954115862, -38109.18785443161, -25518.874885901798, -11406.430471710024, -181716.35201172257, -11546.888833867173, -33436.600379538584, -187500.02235174447, -187500.02235174447, -0.024, 1.014, -0.076, 192.0, 127.5, 32.0, 15.5, 88.0, 126.5, 80.0, 0.0, 0.0, 0.0, 1.742869578466777E9, 0.0, 2025-03-24 21:26:18.466
20.0, -4429.556957430477, 8852.520150246639, -187500.02235174447, 187500.0, -47769.343587081865, -51700.25547745889, 5881.995663880785, -18151.985782621596, -38113.70290681159, -25515.678586444687, -11254.997403025318, -181643.46297305383, -11557.930595628095, -33443.50706857527, -187500.02235174447, -187500.02235174447, -0.024, 1.014, -0.076, 192.0, 0.0, 0.0, 0.0, 0.0, 0.0, 0.0, 0.0, 0.0, 0.0, 1.742869578466798E9, 0.0, 2025-03-24 21:26:18.466
22.0, -4421.532681171022, 8822.546460932072, -187500.02235174447, 187500.0, -47769.45534580414, -51719.09799803472, 5913.131643907028, -18046.798473214923, -38126.51045638448, -25518.584313223877, -11394.584047148712, -181631.99652814824, -11551.470941480511, -33450.52551633424, -187500.02235174447, -187500.02235174447, -0.024, 1.014, -0.076, 192.0, 0.0, 0.0, 0.0, 0.0, 0.0, 0.0, 0.0, 0.0, 0.0, 1.742869578466817E9, 0.0, 2025-03-24 21:26:18.466
24.0, -4409.283925209514, 8813.426949194307, -187500.02235174447, 187500.0, -47767.935427181175, -51714.98527705494, 5922.944059722908, -18070.603081059824, -38124.67761333914, -25510.80590615343, -11223.548498576702, -181513.91226219086, -11559.070534595316, -33470.70914157738, -187500.02235174447, -187500.02235174447, -0.024, 1.014, -0.076, 192.0, 0.0, 0.0, 0.0, 0.0, 0.0, 0.0, 0.0, 0.0, 0.0, 1.742869578466836E9, 0.0, 2025-03-24 21:26:18.466
26.0, -4425.712457384165, 8817.897298085369, -187500.02235174447, 187500.0, -47768.985959170575, -51723.30012599232, 5907.946039193397, -17999.211609269572, -38134.28886345492, -25517.71259519012, -11386.179791233515, -181543.3495096385, -11562.937386386084, -33452.49246984631, -187500.02235174447, -187500.02235174447, -0.024, 1.014, -0.076, 192.0, 0.0, 0.0, 0.0, 0.0, 0.0, 0.0, 0.0, 0.0, 0.0, 1.742869578466875E9, 0.0, 2025-03-24 21:26:18.466
28.0, -4398.040997748494, 8840.651373940871, -187500.02235174447, 187500.0, -47742.007403613025, -51706.8045385843, 5935.215167428872, -18022.636237458737, -38122.82241854935, -25518.24903705705, -11233.338562648125, -181432.30604318454, -11566.021927120915, -33448.96089422237, -187500.02235174447, -187500.02235174447, -0.034, 1.014, -0.076, 192.0, 127.0, 120.0, 15.5, 88.0, 126.5, 80.0, 0.0, 0.0, 0.0, 1.742869578466893E9, 0.0, 2025-03-24 21:26:18.466
30.0, -4432.172111531748, 8838.84088263999, -187500.02235174447, 187500.0, -47754.27851131899, -51718.67331489007, 5891.964541907852, -17957.615012838247, -38123.31415692737, -25509.777725908487, -11365.43737237899, -181450.16508700434, -11559.249348550959, -33436.15334464948, -187500.02235174447, -187500.02235174447, -0.034, 1.014, -0.076, 192.0, 0.0, 0.0, 0.0, 0.0, 0.0, 0.0, 0.0, 0.0, 0.0, 1.742869578526144E9, 0.0, 2025-03-24 21:26:18.526
32.0, -4400.097358238382, 8826.703885400759, -187500.02235174447, 187500.0, -47753.809124685424, -51705.172861239065, 5924.21810915686, -17983.699498617592, -38134.66884311067, -25519.634845213277, -11237.853615028098, -181338.92045485027, -11557.863540394728, -33456.78400478172, -187500.02235174447, -187500.02235174447, -0.034, 1.014, -0.076, 192.0, 0.0, 0.0, 0.0, 0.0, 0.0, 0.0, 0.0, 0.0, 0.0, 1.742869578526203E9, 0.0, 2025-03-24 21:26:18.526
34.0, -4419.252803236581, 8834.12466455992, -187500.02235174447, 187500.0, -47765.700252735645, -51714.270021232376, 5887.270675572237, -17919.25941935294, -38122.53184587143, -25498.423039725192, -11328.467587049912, -181333.82425711447, -11572.034546379393, -33438.29911211719, -187500.02235174447, -187500.02235174447, -0.034, 1.014, -0.076, 192.0, 0.0, 0.0, 0.0, 0.0, 0.0, 0.0, 0.0, 0.0, 0.0, 1.742869578526223E9, 0.0, 2025-03-24 21:26:18.526
36.0, -4417.39760844679, 8818.165519018832, -187500.02235174447, 187500.0, -47767.8236684589, -51720.193233513026, 5940.4454756314135, -17967.338021676307, -38135.8534855668, -25508.973063108097, -11241.251080185304, -181227.04997385145, -11577.041337137383, -33457.54396409321, -187500.02235174447, -187500.02235174447, -0.034, 1.014, -0.076, 192.0, 0.0, 0.0, 0.0, 0.0, 0.0, 0.0, 0.0, 0.0, 0.0, 1.742869578526264E9, 0.0, 2025-03-24 21:26:18.526
38.0, -4419.20809974767, 8821.652391153859, -187500.02235174447, 187500.0, -47769.99178767107, -51720.5061579354, 5896.12196637654, -17937.677256784114, -38135.98759603353, -25535.035197142985, -11308.932162395975, -181228.2793197965, -11579.76824996093, -33445.965760465355, -187500.02235174447, -187500.02235174447, -0.034, 1.008, -0.084, 192.0, 127.0, 120.0, 15.5, 64.0, 126.5, 48.0, 0.0, 0.0, 0.0, 1.742869578526283E9, 0.0, 2025-03-24 21:26:18.526
40.0, -4392.028378490017, 8847.51335948865, -187500.02235174447, 187500.0, -47745.44957225914, -51714.15826251009, 5980.857429606608, -17958.55378610537, -38131.919578542664, -25533.381168053293, -11244.134455220039, -181125.3942400687, -11576.303729570358, -33453.05126345769, -187500.02235174447, -187500.02235174447, -0.034, 1.008, -0.084, 192.0, 0.0, 0.0, 0.0, 0.0, 0.0, 0.0, 0.0, 0.0, 0.0, 1.742869578526304E9, 0.0, 2025-03-24 21:26:18.526
42.0, -4399.672675093731, 8840.539615218595, -187500.02235174447, 187500.0, -47744.15317108073, -51704.77052983887, 5903.900373446986, -17957.011515737955, -38121.83894179332, -25508.86130438582, -11267.380269453559, -181119.38162081025, -11583.121011629226, -33420.32830957512, -187500.02235174447, -187500.02235174447, -0.034, 1.008, -0.084, 192.0, 0.0, 0.0, 0.0, 0.0, 0.0, 0.0, 0.0, 0.0, 0.0, 1.742869578526323E9, 0.0, 2025-03-24 21:26:18.526
44.0, -4417.487015424611, 8824.803987122057, -187500.02235174447, 187500.0, -47752.35626129583, -51718.11452127869, 5965.255911976804, -17979.89970206019, -38124.722316828054, -25519.411327768725, -11263.200493240416, -181055.2768177124, -11590.452383810567, -33428.46434455685, -187500.02235174447, -187500.02235174447, -0.034, 1.008, -0.084, 192.0, 0.0, 0.0, 0.0, 0.0, 0.0, 0.0, 0.0, 0.0, 0.0, 1.742869578526342E9, 0.0, 2025-03-24 21:26:18.526
46.0, -4415.095378767894, 8823.46288245474, -187500.02235174447, 187500.0, -47762.88393293428, -51725.60235567121, 5898.2453820997935, -17943.667524298136, -38147.14111651672, -25553.363627596336, -11233.405617881492, -181022.03977370737, -11611.015988709449, -33448.96089422237, -187500.02235174447, -187500.02235174447, -0.034, 1.008, -0.084, 192.0, 0.0, 0.0, 0.0, 0.0, 0.0, 0.0, 0.0, 0.0, 0.0, 1.742869578585896E9, 0.0, 2025-03-24 21:26:18.585
48.0, -4395.627009347321, 8810.588277648483, -187500.02235174447, 187500.0, -47751.97628164009, -51721.26611724689, 5935.662202317978, -17961.772437306936, -38145.97882580505, -25552.96129619614, -11263.98280429635, -180953.75519439642, -11604.623389795232, -33447.91036223297, -187500.02235174447, -187500.02235174447, -0.032, 1.016, -0.084, 192.0, 127.5, 0.0, 15.5, 96.0, 126.5, 48.0, 0.0, 0.0, 0.0, 1.742869578585928E9, 0.0, 2025-03-24 21:26:18.585
50.0, -4411.20617523267, 8829.877833113413, -187500.02235174447, 187500.0, -47745.717793192605, -51706.983352539944, 5869.769259663733, -17944.382780120704, -38142.916636814676, -25559.689171277187, -11213.199640893894, -180933.72803136444, -11593.402814078667, -33430.27483585773, -187500.02235174447, -187500.02235174447, -0.032, 1.016, -0.084, 192.0, 0.0, 0.0, 0.0, 0.0, 0.0, 0.0, 0.0, 0.0, 0.0, 1.742869578585949E9, 0.0, 2025-03-24 21:26:18.585
52.0, -4424.885442839318, 8793.936228029279, -187500.02235174447, 187500.0, -47776.51849705202, -51731.36910574068, 5955.287033949738, -17891.16327657262, -38145.53179091594, -25577.034124974507, -11284.23348477286, -180887.23640289743, -11606.366825862746, -33430.11837364655, -187500.02235174447, -187500.02235174447, -0.032, 1.016, -0.084, 192.0, 0.0, 0.0, 0.0, 0.0, 0.0, 0.0, 0.0, 0.0, 0.0, 1.742869578585972E9, 0.0, 2025-03-24 21:26:18.585
54.0, -4396.051692491972, 8832.113007558943, -187500.02235174447, 187500.0, -47752.847999673846, -51703.38472168264, 5905.26382985876, -17870.95729958502, -38150.98561656304, -25583.15850295526, -11165.903349626464, -180807.9771170589, -11611.15009917618, -33445.85400174308, -187500.02235174447, -187500.02235174447, -0.032, 1.016, -0.084, 192.0, 0.0, 0.0, 0.0, 0.0, 0.0, 0.0, 0.0, 0.0, 0.0, 1.742869578585996E9, 0.0, 2025-03-24 21:26:18.585
56.0, -4401.773739072531, 8826.659181911848, -187500.02235174447, 187500.0, -47755.150229352745, -51708.74914035191, 5926.4756353468465, -17865.77169487139, -38129.684404097134, -25583.44907563318, -11310.876764163586, -180816.60489041865, -11590.742956488486, -33418.18254210741, -187500.02235174447, -187500.02235174447, -0.032, 1.016, -0.084, 192.0, 0.0, 0.0, 0.0, 0.0, 0.0, 0.0, 0.0, 0.0, 0.0, 1.742869578586017E9, 0.0, 2025-03-24 21:26:18.586
58.0, -4387.58038134341, 8831.263641269641, -187500.02235174447, 187500.0, -47746.477752504084, -51700.50134664791, 5875.558361477657, -17871.516093196406, -38136.56874138937, -25586.175988456725, -11195.966445918852, -180778.7186835669, -11597.135555402703, -33418.1378386185, -187500.02235174447, -187500.02235174447, -0.034, 1.014, -0.082, 192.0, 127.0, 120.0, 15.5, 88.0, 126.5, 56.0, 0.0, 0.0, 0.0, 1.742869578586046E9, 0.0, 2025-03-24 21:26:18.586
60.0, -4411.697913610687, 8822.32294348752, -187500.02235174447, 187500.0, -47759.53117126598, -51720.72967537995, 5930.8789290045415, -17805.176115653052, -38133.30538669889, -25588.54527336899, -11328.713456238922, -180765.79937527174, -11601.404738593666, -33417.75785896276, -187500.02235174447, -187500.02235174447, -0.034, 1.014, -0.082, 192.0, 0.0, 0.0, 0.0, 0.0, 0.0, 0.0, 0.0, 0.0, 0.0, 1.742869578646192E9, 0.0, 2025-03-24 21:26:18.646
62.0, -4410.692085110198, 8847.826283911025, -187500.02235174447, 187500.0, -47753.49620026305, -51709.7549688524, 5911.008228183774, -17814.362682624185, -38140.12266875776, -25594.602596116376, -11157.789666389188, -180663.0484060107, -11621.5436603479, -33428.55375153467, -187500.02235174447, -187500.02235174447, -0.034, 1.014, -0.082, 192.0, 0.0, 0.0, 0.0, 0.0, 0.0, 0.0, 0.0, 0.0, 0.0, 1.742869578646217E9, 0.0, 2025-03-24 21:26:18.646
64.0, -4409.440387420701, 8810.051835781554, -187500.02235174447, 187500.0, -47782.95579945514, -51732.66550691909, 5941.585414598634, -17769.346269291196, -38137.21694197857, -25585.594843100887, -11307.456947261924, -180656.00760650728, -11608.847869497284, -33429.24665561279, -187500.02235174447, -187500.02235174447, -0.034, 1.014, -0.082, 192.0, 0.0, 0.0, 0.0, 0.0, 0.0, 0.0, 0.0, 0.0, 0.0, 1.742869578646236E9, 0.0, 2025-03-24 21:26:18.646
66.0, -4416.2800212240245, 8831.956545347755, -187500.02235174447, 187500.0, -47768.6730347482, -51715.63347764414, 5935.2822226622375, -17807.411290098582, -38140.56970364686, -25591.11572398135, -11130.162910242429, -180556.00590181423, -11598.141383903192, -33431.146553891485, -187500.02235174447, -187500.02235174447, -0.034, 1.014, -0.082, 192.0, 0.0, 0.0, 0.0, 0.0, 0.0, 0.0, 0.0, 0.0, 0.0, 1.742869578646255E9, 0.0, 2025-03-24 21:26:18.646
68.0, -4377.879724249808, 8841.32192627453, -187500.02235174447, 187500.0, -47761.45342128914, -51710.3584659527, 5941.227786687349, -17773.593100737704, -38129.23736920802, -25578.554043597465, -11275.158676524004, -180549.70270987783, -11605.696273529085, -33414.740373461296, -187500.02235174447, -187500.02235174447, -0.034, 1.018, -0.08, 192.0, 127.0, 120.0, 15.5, 104.0, 126.5, 64.0, 0.0, 0.0, 0.0, 1.742869578646281E9, 0.0, 2025-03-24 21:26:18.646
70.0, -4393.3247796684245, 8864.768906208146, -187500.02235174447, 187500.0, -47761.431069544684, -51722.47311144747, 5944.89347277802, -17825.53855485184, -38124.364688916765, -25572.11674119434, -11124.642029361967, -180469.41524379436, -11604.891610728695, -33422.51878053174, -187500.02235174447, -187500.02235174447, -0.034, 1.018, -0.08, 192.0, 0.0, 0.0, 0.0, 0.0, 0.0, 0.0, 0.0, 0.0, 0.0, 1.742869578646301E9, 0.0, 2025-03-24 21:26:18.646
72.0, -4406.579364130422, 8828.536728446094, -187500.02235174447, 187500.0, -47770.371767326804, -51725.84822486022, 5934.8128360286755, -17781.416211297063, -38129.30442444139, -25562.952525967663, -11268.922539820975, -180466.62127573745, -11602.231753138514, -33432.77823123673, -187500.02235174447, -187500.02235174447, -0.034, 1.018, -0.08, 192.0, 0.0, 0.0, 0.0, 0.0, 0.0, 0.0, 0.0, 0.0, 0.0, 1.742869578646324E9, 0.0, 2025-03-24 21:26:18.646
74.0, -4394.196497702182, 8818.41138820784, -187500.02235174447, 187500.0, -47778.53015405299, -51733.112541808194, 5973.347243469625, -17805.980778453442, -38131.94193028712, -25605.77846834403, -11125.826671818098, -180370.55347806853, -11610.43484335361, -33429.537228290705, -187500.02235174447, -187500.02235174447, -0.034, 1.018, -0.08, 192.0, 0.0, 0.0, 0.0, 0.0, 0.0, 0.0, 0.0, 0.0, 0.0, 1.742869578646343E9, 0.0, 2025-03-24 21:26:18.646
76.0, -4379.019663217028, 8846.999269366177, -187500.02235174447, 187500.0, -47744.75666818103, -51700.99308502592, 5934.1646354394725, -17770.955594891977, -38118.26266268047, -25575.558909840456, -11254.617423369578, -180373.7721292701, -11603.304636872368, -33405.79967567917, -187500.02235174447, -187500.02235174447, -0.034, 1.018, -0.08, 192.0, 0.0, 0.0, 0.0, 0.0, 0.0, 0.0, 0.0, 0.0, 0.0, 1.742869578706504E9, 0.0, 2025-03-24 21:26:18.706
78.0, -4383.378253385813, 8851.916653146345, -187500.02235174447, 187500.0, -47759.35235731034, -51710.693742119525, 5953.208321715394, -17825.71736880748, -38115.62515683474, -25577.279994163513, -11152.447599464369, -180317.19986405372, -11594.408642579156, -33403.16216983344, -187500.02235174447, -187500.02235174447, -0.03, 1.014, -0.084, 192.0, 127.5, 8.0, 15.5, 88.0, 126.5, 48.0, 0.0, 0.0, 0.0, 1.742869578706539E9, 0.0, 2025-03-24 21:26:18.706
80.0, -4380.807802773453, 8841.299574530074, -187500.02235174447, 187500.0, -47753.42914502969, -51710.22435548596, 5894.490289031302, -17781.57267350825, -38114.06053472287, -25563.7348370236, -11269.771906110276, -180349.25226560264, -11600.890648471195, -33399.45178025386, -187500.02235174447, -187500.02235174447, -0.03, 1.014, -0.084, 192.0, 0.0, 0.0, 0.0, 0.0, 0.0, 0.0, 0.0, 0.0, 0.0, 1.74286957870656E9, 0.0, 2025-03-24 21:26:18.706
82.0, -4386.999235987572, 8837.365667505941, -187500.02235174447, 187500.0, -47759.50881952153, -51702.580058882246, 5938.433818630436, -17809.42294709956, -38123.49297088301, -25567.467578347634, -11175.134620086506, -180273.72572108815, -11601.091814171294, -33400.07762909861, -187500.02235174447, -187500.02235174447, -0.03, 1.014, -0.084, 192.0, 0.0, 0.0, 0.0, 0.0, 0.0, 0.0, 0.0, 0.0, 0.0, 1.74286957870658E9, 0.0, 2025-03-24 21:26:18.706
84.0, -4389.413224388745, 8827.106216800954, -187500.02235174447, 187500.0, -47754.1220491078, -51703.51883214937, 5881.950960391875, -17755.108208073165, -38122.08481098233, -25564.405389357256, -11252.8069320687, -180297.86560509988, -11608.669055541643, -33391.80748365015, -187500.02235174447, -187500.02235174447, -0.03, 1.014, -0.084, 192.0, 0.0, 0.0, 0.0, 0.0, 0.0, 0.0, 0.0, 0.0, 0.0, 1.742869578706598E9, 0.0, 2025-03-24 21:26:18.706
86.0, -4402.06431175045, 8845.077019343022, -187500.02235174447, 187500.0, -47745.226054814586, -51700.99308502592, 5934.879891262042, -17782.667908986557, -38131.76311633147, -25563.06428468994, -11180.610797478057, -180212.8842726808, -11611.530078831922, -33399.51883548723, -187500.02235174447, -187500.02235174447, -0.03, 1.014, -0.084, 192.0, 0.0, 0.0, 0.0, 0.0, 0.0, 0.0, 0.0, 0.0, 0.0, 1.742869578706617E9, 0.0, 2025-03-24 21:26:18.706
88.0, -4382.417128374234, 8869.038089399111, -187500.02235174447, 187500.0, -47734.676031431685, -51690.219544198466, 5897.843050699598, -17715.74678608737, -38125.21405520607, -25547.954505438152, -11219.391074108014, -180219.9921274176, -11618.392064379701, -33405.03971636769, -187500.02235174447, -187500.02235174447, -0.036000000000000004, 1.014, -0.08600000000000001, 192.0, 127.0, 112.0, 15.5, 88.0, 126.5, 40.0, 0.0, 0.0, 0.0, 1.742869578706641E9, 0.0, 2025-03-24 21:26:18.706
90.0, -4384.8758202643185, 8818.701960885759, -187500.02235174447, 187500.0, -47745.918958892704, -51707.13981475113, 5937.852673274598, -17762.216062809952, -38120.11785747026, -25531.324807563404, -11187.763355703755, -180146.63370211527, -11600.667131026643, -33394.82496915162, -187500.02235174447, -187500.02235174447, -0.036000000000000004, 1.014, -0.08600000000000001, 192.0, 0.0, 0.0, 0.0, 0.0, 0.0, 0.0, 0.0, 0.0, 0.0, 1.742869578766674E9, 0.0, 2025-03-24 21:26:18.766
92.0, -4389.837907533397, 8843.914728631345, -187500.02235174447, 187500.0, -47748.04237461596, -51696.83566055723, 5899.586486767112, -17706.02377724931, -38138.44628792361, -25548.379188582803, -11200.88382969902, -180158.4801266766, -11622.3930266372, -33400.77053317673, -187500.02235174447, -187500.02235174447, -0.036000000000000004, 1.014, -0.08600000000000001, 192.0, 0.0, 0.0, 0.0, 0.0, 0.0, 0.0, 0.0, 0.0, 0.0, 1.7428695787667E9, 0.0, 2025-03-24 21:26:18.766
94.0, -4422.337343971413, 8790.136431471878, -187500.02235174447, 187500.0, -47779.334816853385, -51744.19900705803, 5968.072231778173, -17707.096660983167, -38145.08475602684, -25561.924345722717, -11201.129698888028, -180073.11881460177, -11626.438692383612, -33425.87154220004, -187500.02235174447, -187500.02235174447, -0.036000000000000004, 1.014, -0.08600000000000001, 192.0, 0.0, 0.0, 0.0, 0.0, 0.0, 0.0, 0.0, 0.0, 0.0, 1.742869578766731E9, 0.0, 2025-03-24 21:26:18.766
96.0, -4398.711550082154, 8842.08188558601, -187500.02235174447, 187500.0, -47738.654641944726, -51701.529526892846, 5917.020847442252, -17678.79935250275, -38145.95647406059, -25556.135243908793, -11153.252262264761, -180035.1879042611, -11631.221965697046, -33400.323498287624, -187500.02235174447, -187500.02235174447, -0.036000000000000004, 1.014, -0.08600000000000001, 192.0, 0.0, 0.0, 0.0, 0.0, 0.0, 0.0, 0.0, 0.0, 0.0, 1.74286957876675E9, 0.0, 2025-03-24 21:26:18.766
98.0, -4382.3500731408685, 8839.712600673747, -187500.02235174447, 187500.0, -47740.50983673452, -51705.5528408948, 5963.870103820575, -17694.914960255024, -38123.940005772114, -25518.6737202017, -11221.648600298, -180006.17533995814, -11605.986846207004, -33389.214681293335, -187500.02235174447, -187500.02235174447, -0.036000000000000004, 1.014, -0.094, 192.0, 127.0, 112.0, 15.5, 88.0, 126.5, 8.0, 0.0, 0.0, 0.0, 1.742869578766769E9, 0.0, 2025-03-24 21:26:18.766
100.0, -4406.959343786161, 8846.529882732617, -187500.02235174447, 187500.0, -47751.8198194289, -51707.676256618055, 5911.857594473076, -17687.98591947388, -38134.6017878773, -25528.642598228766, -11140.06473303613, -179977.9897902, -11634.440616898612, -33399.049448853664, -187500.02235174447, -187500.02235174447, -0.036000000000000004, 1.014, -0.094, 192.0, 0.0, 0.0, 0.0, 0.0, 0.0, 0.0, 0.0, 0.0, 0.0, 1.742869578766801E9, 0.0, 2025-03-24 21:26:18.766
102.0, -4380.897209751273, 8831.576565692016, -187500.02235174447, 187500.0, -47741.33685127936, -51696.343922179214, 5972.296711480226, -17666.84116921916, -38136.36757568927, -25542.277162346505, -11214.98778045032, -179923.3174232623, -11628.807977295874, -33389.03586733769, -187500.02235174447, -187500.02235174447, -0.036000000000000004, 1.014, -0.094, 192.0, 0.0, 0.0, 0.0, 0.0, 0.0, 0.0, 0.0, 0.0, 0.0, 1.74286957876682E9, 0.0, 2025-03-24 21:26:18.766
104.0, -4373.275264892014, 8846.015792610144, -187500.02235174447, 187500.0, -47741.62742395728, -51683.31285516177, 5907.230783370827, -17708.482469139395, -38130.01968026396, -25525.24513307156, -11115.097834479551, -179893.6566583701, -11615.06165445586, -33372.294410740666, -187500.02235174447, -187500.02235174447, -0.036000000000000004, 1.014, -0.094, 192.0, 0.0, 0.0, 0.0, 0.0, 0.0, 0.0, 0.0, 0.0, 0.0, 1.742869578766839E9, 0.0, 2025-03-24 21:26:18.766
106.0, -4382.573590585422, 8835.421065738328, -187500.02235174447, 187500.0, -47755.26198807502, -51719.74619862392, 5926.453283602391, -17710.583533118195, -38124.20822670558, -25518.629016712788, -11257.210225726394, -179904.58666140874, -11606.210363651559, -33376.38477997599, -187500.02235174447, -187500.02235174447, -0.036000000000000004, 1.014, -0.094, 192.0, 0.0, 0.0, 0.0, 0.0, 0.0, 0.0, 0.0, 0.0, 0.0, 1.742869578825586E9, 0.0, 2025-03-24 21:26:18.825
108.0, -4395.269381436036, 8837.65624018386, -187500.02235174447, 187500.0, -47733.29022327545, -51705.66459961708, 5891.361044807559, -17735.32691423022, -38139.74268910202, -25523.077013859394, -11126.027837518197, -179862.18540217704, -11636.139349477215, -33392.85801563955, -187500.02235174447, -187500.02235174447, -0.03, 1.018, -0.094, 192.0, 127.5, 8.0, 15.5, 104.0, 126.5, 8.0, 0.0, 0.0, 0.0, 1.74286957882561E9, 0.0, 2025-03-24 21:26:18.825
110.0, -4409.149814742782, 8823.84286211048, -187500.02235174447, 187500.0, -47764.940293424166, -51734.252480775416, 5918.853690487586, -17690.913997997523, -38149.71156712909, -25544.668799003222, -11280.724260893378, -179878.99391400744, -11628.942087762605, -33391.025172594214, -187500.02235174447, -187500.02235174447, -0.03, 1.018, -0.094, 192.0, 0.0, 0.0, 0.0, 0.0, 0.0, 0.0, 0.0, 0.0, 0.0, 1.742869578825631E9, 0.0, 2025-03-24 21:26:18.825
112.0, -4392.229544190114, 8822.859385354446, -187500.02235174447, 187500.0, -47757.58656949837, -51710.58198339725, 5898.088919888606, -17710.516477884827, -38150.82915435185, -25543.90883969174, -11103.787851785166, -179788.87168036363, -11641.526119890943, -33409.86769317004, -187500.02235174447, -187500.02235174447, -0.03, 1.018, -0.094, 192.0, 0.0, 0.0, 0.0, 0.0, 0.0, 0.0, 0.0, 0.0, 0.0, 1.742869578825657E9, 0.0, 2025-03-24 21:26:18.825
114.0, -4380.673692306721, 8823.284068499097, -187500.02235174447, 187500.0, -47748.04237461596, -51709.643210130125, 5910.181213638927, -17659.82272146019, -38143.944817059615, -25524.61928422681, -11255.757362336799, -179805.45667474947, -11633.479491887032, -33387.69476267037, -187500.02235174447, -187500.02235174447, -0.03, 1.018, -0.094, 192.0, 0.0, 0.0, 0.0, 0.0, 0.0, 0.0, 0.0, 0.0, 0.0, 1.742869578825675E9, 0.0, 2025-03-24 21:26:18.825
116.0, -4379.5337533394995, 8833.521167459628, -187500.02235174447, 187500.0, -47757.318348564906, -51695.60631461219, 5914.651562529989, -17688.969396229913, -38139.049785023904, -25528.19556333966, -11089.683901033868, -179728.38785986757, -11637.726323333542, -33386.197195791865, -187500.02235174447, -187500.02235174447, -0.03, 1.018, -0.094, 192.0, 0.0, 0.0, 0.0, 0.0, 0.0, 0.0, 0.0, 0.0, 0.0, 1.742869578825697E9, 0.0, 2025-03-24 21:26:18.825
118.0, -4400.052654749472, 8821.60768766495, -187500.02235174447, 187500.0, -47757.16188635372, -51720.64026840214, 5919.2560218877825, -17625.803366399214, -38131.00315701999, -25517.80200216794, -11232.198623680904, -179742.69297631897, -11638.285116944924, -33375.848338109055, -187500.02235174447, -187500.02235174447, -0.028, 1.012, -0.098, 192.0, 127.5, 16.0, 15.5, 80.0, 126.0, 120.0, 0.0, 0.0, 0.0, 1.742869578825717E9, 0.0, 2025-03-24 21:26:18.825
120.0, -4385.300503408969, 8826.12274004492, -187500.02235174447, 187500.0, -47754.70319446364, -51724.21654751498, 5957.477504906357, -17638.476805505372, -38156.819421865875, -25531.48126977459, -11058.592624496536, -179632.52122789875, -11658.82637009935, -33416.0367746397, -187500.02235174447, -187500.02235174447, -0.028, 1.012, -0.098, 192.0, 0.0, 0.0, 0.0, 0.0, 0.0, 0.0, 0.0, 0.0, 0.0, 1.742869578885847E9, 0.0, 2025-03-24 21:26:18.885
122.0, -4408.658076364765, 8807.436681680285, -187500.02235174447, 187500.0, -47759.128839865785, -51716.773416611366, 5917.356123609081, -17603.54102892173, -38156.57355267686, -25510.649443942242, -11206.516469301758, -179648.94976007342, -11654.870111330762, -33392.6792016839, -187500.02235174447, -187500.02235174447, -0.028, 1.012, -0.098, 192.0, 0.0, 0.0, 0.0, 0.0, 0.0, 0.0, 0.0, 0.0, 0.0, 1.742869578885885E9, 0.0, 2025-03-24 21:26:18.885
124.0, -4386.909829009751, 8829.095522057476, -187500.02235174447, 187500.0, -47755.23963633057, -51701.14954723711, 5955.264682205282, -17640.622572973083, -38158.495802700025, -25518.405499268236, -11078.776249739678, -179571.16568936894, -11658.11111427678, -33385.012553335735, -187500.02235174447, -187500.02235174447, -0.028, 1.012, -0.098, 192.0, 0.0, 0.0, 0.0, 0.0, 0.0, 0.0, 0.0, 0.0, 0.0, 1.742869578885903E9, 0.0, 2025-03-24 21:26:18.885
126.0, -4377.812669016441, 8854.397696780885, -187500.02235174447, 187500.0, -47739.146380322745, -51690.219544198466, 5910.918821205953, -17604.546857422218, -38136.00994777798, -25483.55912966241, -11199.945056431898, -179595.77496001424, -11646.711724604575, -33368.293448483164, -187500.02235174447, -187500.02235174447, -0.028, 1.012, -0.098, 192.0, 0.0, 0.0, 0.0, 0.0, 0.0, 0.0, 0.0, 0.0, 0.0, 1.742869578885922E9, 0.0, 2025-03-24 21:26:18.885
128.0, -4377.902075994262, 8829.207280779754, -187500.02235174447, 187500.0, -47759.59822649935, -51707.676256618055, 5954.258853704793, -17647.216337587397, -38131.360784931276, -25485.280213985472, -11102.849078518044, -179530.10553480455, -11626.751616805985, -33369.701608383846, -187500.02235174447, -187500.02235174447, -0.032, 1.008, -0.096, 192.0, 127.5, 0.0, 15.5, 64.0, 126.5, 0.0, 0.0, 0.0, 0.0, 1.742869578885942E9, 0.0, 2025-03-24 21:26:18.885
130.0, -4410.535622899011, 8844.294708287085, -187500.02235174447, 187500.0, -47769.32123533741, -51721.020248057874, 5930.901280748997, -17568.33703140462, -38144.77183160446, -25489.817618109897, -11178.26386431025, -179532.2289505278, -11658.558149165887, -33376.09420729807, -187500.02235174447, -187500.02235174447, -0.032, 1.008, -0.096, 192.0, 0.0, 0.0, 0.0, 0.0, 0.0, 0.0, 0.0, 0.0, 0.0, 1.742869578885962E9, 0.0, 2025-03-24 21:26:18.885
132.0, -4363.194628142671, 8823.753455132659, -187500.02235174447, 187500.0, -47753.809124685424, -51712.88421307614, 5968.631025389555, -17614.06870056018, -38150.672692140666, -25492.90215884473, -11094.489526091758, -179439.33510057154, -11652.657288629687, -33381.34686724506, -187500.02235174447, -187500.02235174447, -0.032, 1.008, -0.096, 192.0, 0.0, 0.0, 0.0, 0.0, 0.0, 0.0, 0.0, 0.0, 0.0, 1.742869578885985E9, 0.0, 2025-03-24 21:26:18.885
134.0, -4400.097358238382, 8838.393847750885, -187500.02235174447, 187500.0, -47753.339738051865, -51705.53048915035, 5882.889733658998, -17596.030842784745, -38124.11881972776, -25454.345399659327, -11179.336748044105, -179485.98319124978, -11647.605794382787, -33366.10297752655, -187500.02235174447, -187500.02235174447, -0.032, 1.008, -0.096, 192.0, 0.0, 0.0, 0.0, 0.0, 0.0, 0.0, 0.0, 0.0, 0.0, 1.742869578886004E9, 0.0, 2025-03-24 21:26:18.886
136.0, -4416.97292530214, 8828.022638323622, -187500.02235174447, 187500.0, -47758.41358404322, -51713.57711715426, 5941.071324476162, -17598.53423816374, -38145.01770079347, -25482.553301161923, -11136.913137067932, -179414.77053341517, -11616.782738778918, -33379.491672455275, -187500.02235174447, -187500.02235174447, -0.032, 1.008, -0.096, 192.0, 0.0, 0.0, 0.0, 0.0, 0.0, 0.0, 0.0, 0.0, 0.0, 1.742869578946123E9, 0.0, 2025-03-24 21:26:18.946
138.0, -4405.171204229737, 8858.286900316109, -187500.02235174447, 187500.0, -47735.078362831875, -51696.45568090149, 5875.871285900032, -17538.81037697916, -38140.14502050221, -25492.253958255526, -11146.21146276134, -179408.95907985678, -11604.958665962062, -33361.63262863548, -187500.02235174447, -187500.02235174447, -0.03, 1.018, -0.096, 192.0, 127.5, 8.0, 15.5, 104.0, 126.5, 0.0, 0.0, 0.0, 0.0, 1.742869578946149E9, 0.0, 2025-03-24 21:26:18.946
140.0, -4400.097358238382, 8854.487103758705, -187500.02235174447, 187500.0, -47769.7235667376, -51712.99597179842, 5931.236556915826, -17528.685036740906, -38117.659165580175, -25469.56693763339, -11142.389314459482, -179342.99908196917, -11572.794505690874, -33365.924163570904, -187500.02235174447, -187500.02235174447, -0.03, 1.018, -0.096, 192.0, 0.0, 0.0, 0.0, 0.0, 0.0, 0.0, 0.0, 0.0, 0.0, 1.742869578946169E9, 0.0, 2025-03-24 21:26:18.946
142.0, -4410.379160687824, 8825.183966777799, -187500.02235174447, 187500.0, -47767.22017135861, -51716.19227125553, 5880.855724913565, -17468.536492411673, -38119.73787781452, -25483.290908728948, -11111.946238511353, -179324.2683201156, -11567.00540387695, -33366.43825369338, -187500.02235174447, -187500.02235174447, -0.03, 1.018, -0.096, 192.0, 0.0, 0.0, 0.0, 0.0, 0.0, 0.0, 0.0, 0.0, 0.0, 1.742869578946201E9, 0.0, 2025-03-24 21:26:18.946
144.0, -4405.484128652111, 8837.097446572478, -187500.02235174447, 187500.0, -47757.11718286481, -51698.601448369205, 5944.468789633369, -17455.840701561057, -38115.37928764574, -25494.735001890065, -11137.024895790208, -179255.69316812675, -11557.818836905819, -33366.57236416011, -187500.02235174447, -187500.02235174447, -0.03, 1.018, -0.096, 192.0, 0.0, 0.0, 0.0, 0.0, 0.0, 0.0, 0.0, 0.0, 0.0, 1.74286957894622E9, 0.0, 2025-03-24 21:26:18.946
146.0, -4432.373277231846, 8830.0342953246, -187500.02235174447, 187500.0, -47749.85286591684, -51705.08345426124, 5893.953847164375, -17434.20421292832, -38090.07711292233, -25472.316202201393, -11095.7188720368, -179259.5600199175, -11540.026848319394, -33357.58696288907, -187500.02235174447, -187500.02235174447, -0.03, 1.018, -0.096, 192.0, 0.0, 0.0, 0.0, 0.0, 0.0, 0.0, 0.0, 0.0, 0.0, 1.742869578946239E9, 0.0, 2025-03-24 21:26:18.946
148.0, -4428.3723149743455, 8833.789388393092, -187500.02235174447, 187500.0, -47749.53994149446, -51709.73261710795, 5973.637816147544, -17386.5055902607, -38104.71750554055, -25486.24133899705, -11146.412628461436, -179188.05678940497, -11549.57104320181, -33369.23222175029, -187500.02235174447, -187500.02235174447, -0.028, 1.014, -0.094, 192.0, 127.5, 16.0, 15.5, 88.0, 126.5, 8.0, 0.0, 0.0, 0.0, 1.742869578946258E9, 0.0, 2025-03-24 21:26:18.946
150.0, -4434.831969121929, 8871.85440920048, -187500.02235174447, 187500.0, -47742.29797629094, -51693.28173318884, 5908.482481060324, -17410.35490159451, -38072.62040050273, -25468.18112947716, -11046.500330746214, -179141.1851812822, -11525.721731867998, -33354.50242215424, -187500.02235174447, -187500.02235174447, -0.028, 1.014, -0.094, 192.0, 0.0, 0.0, 0.0, 0.0, 0.0, 0.0, 0.0, 0.0, 0.0, 1.742869579006467E9, 0.0, 2025-03-24 21:26:19.006
152.0, -4447.080725083438, 8811.41529219333, -187500.02235174447, 187500.0, -47762.3251393229, -51710.55963165279, 5950.503760636301, -17406.420994570373, -38086.970220443036, -25461.69912358512, -11161.54475945768, -179119.4816374161, -11547.134703056181, -33361.677332124396, -187500.02235174447, -187500.02235174447, -0.028, 1.014, -0.094, 192.0, 0.0, 0.0, 0.0, 0.0, 0.0, 0.0, 0.0, 0.0, 0.0, 1.742869579006488E9, 0.0, 2025-03-24 21:26:19.006
154.0, -4441.537492458522, 8820.199527764265, -187500.02235174447, 187500.0, -47747.50593274903, -51704.748178094414, 5905.2861816032155, -17447.011762501214, -38096.492063581, -25468.47170215508, -11021.75694963419, -179053.72280522858, -11551.13566531368, -33370.03688455068, -187500.02235174447, -187500.02235174447, -0.028, 1.014, -0.094, 192.0, 0.0, 0.0, 0.0, 0.0, 0.0, 0.0, 0.0, 0.0, 0.0, 1.742869579006518E9, 0.0, 2025-03-24 21:26:19.006
156.0, -4443.660908181776, 8805.939114801778, -187500.02235174447, 187500.0, -47755.35139505284, -51716.43814044454, 5947.955661768397, -17420.83786974405, -38087.2384413765, -25456.692332827133, -11154.034573320696, -179034.36619453027, -11542.887871609673, -33367.30997172713, -187500.02235174447, -187500.02235174447, -0.028, 1.014, -0.094, 192.0, 0.0, 0.0, 0.0, 0.0, 0.0, 0.0, 0.0, 0.0, 0.0, 1.742869579006537E9, 0.0, 2025-03-24 21:26:19.006
158.0, -4456.177885076748, 8819.908955086346, -187500.02235174447, 187500.0, -47753.11622060731, -51716.57225091127, 5931.951812738396, -17442.139082209957, -38103.35404912878, -25497.685432158167, -10985.748289316689, -178933.8280479703, -11546.866482122718, -33388.05239058166, -187500.02235174447, -187500.02235174447, -0.03, 1.012, -0.092, 192.0, 127.5, 8.0, 15.5, 80.0, 126.5, 16.0, 0.0, 0.0, 0.0, 1.742869579006563E9, 0.0, 2025-03-24 21:26:19.006
160.0, -4425.220719006147, 8829.989591835689, -187500.02235174447, 187500.0, -47740.040450100954, -51701.30600944829, 5921.468844588858, -17443.569593855096, -38076.30843833786, -25458.547527616924, -11153.431076220402, -178942.05348992988, -11535.556499428332, -33354.72593959879, -187500.02235174447, -187500.02235174447, -0.03, 1.012, -0.092, 192.0, 0.0, 0.0, 0.0, 0.0, 0.0, 0.0, 0.0, 0.0, 0.0, 1.742869579006583E9, 0.0, 2025-03-24 21:26:19.006
162.0, -4427.455893451678, 8800.731158343693, -187500.02235174447, 187500.0, -47751.797467684446, -51707.29627696232, 5923.905184734486, -17465.98839354377, -38086.120854153734, -25462.839062552343, -10994.264303954162, -178863.08477676928, -11557.57296771681, -33363.73369261428, -187500.02235174447, -187500.02235174447, -0.03, 1.012, -0.092, 192.0, 0.0, 0.0, 0.0, 0.0, 0.0, 0.0, 0.0, 0.0, 0.0, 1.742869579006602E9, 0.0, 2025-03-24 21:26:19.006
164.0, -4454.9038356427955, 8802.385187433385, -187500.02235174447, 187500.0, -47758.726508465596, -51722.160187025096, 5934.231690672838, -17395.53569502064, -38094.41335134666, -25469.924565544676, -11141.15996851444, -178856.7145295995, -11559.964604373528, -33368.94164907237, -187500.02235174447, -187500.02235174447, -0.03, 1.012, -0.092, 192.0, 0.0, 0.0, 0.0, 0.0, 0.0, 0.0, 0.0, 0.0, 0.0, 1.742869579006626E9, 0.0, 2025-03-24 21:26:19.006
166.0, -4429.892233597307, 8806.386149690885, -187500.02235174447, 187500.0, -47743.5720257249, -51706.625724628655, 5940.087847720129, -17413.68531151835, -38097.83316824832, -25465.968306776085, -10981.568513103546, -178755.05879581676, -11554.778999659897, -33380.98923933378, -187500.02235174447, -187500.02235174447, -0.03, 1.012, -0.092, 192.0, 0.0, 0.0, 0.0, 0.0, 0.0, 0.0, 0.0, 0.0, 0.0, 1.742869579066774E9, 0.0, 2025-03-24 21:26:19.066
168.0, -4401.930201283718, 8828.69319065728, -187500.02235174447, 187500.0, -47734.13958956475, -51700.054311758795, 5917.5572893091785, -17342.42795019483, -38083.70686575257, -25435.301713383404, -11136.197881245362, -178777.07526410525, -11541.837339620273, -33369.99218106177, -187500.02235174447, -187500.02235174447, -0.03, 1.008, -0.088, 192.0, 127.5, 8.0, 15.5, 64.0, 126.5, 32.0, 0.0, 0.0, 0.0, 1.742869579066805E9, 0.0, 2025-03-24 21:26:19.066
170.0, -4423.097303282893, 8837.365667505941, -187500.02235174447, 187500.0, -47751.238674073065, -51703.6529426161, 5944.98287975584, -17354.922575345347, -38076.59901101578, -25436.911038984184, -10997.326492944538, -178692.25039389735, -11551.023906591405, -33343.483012137774, -187500.02235174447, -187500.02235174447, -0.03, 1.008, -0.088, 192.0, 0.0, 0.0, 0.0, 0.0, 0.0, 0.0, 0.0, 0.0, 0.0, 1.742869579066826E9, 0.0, 2025-03-24 21:26:19.066
172.0, -4440.889291869318, 8815.729178873204, -187500.02235174447, 187500.0, -47750.478714761586, -51715.56642241078, 5914.74096950781, -17283.95578669975, -38088.66895302164, -25447.058730966895, -11115.276648435194, -178691.13280667458, -11559.182293317592, -33347.97571277329, -187500.02235174447, -187500.02235174447, -0.03, 1.008, -0.088, 192.0, 0.0, 0.0, 0.0, 0.0, 0.0, 0.0, 0.0, 0.0, 0.0, 1.742869579066845E9, 0.0, 2025-03-24 21:26:19.066
174.0, -4456.043774610016, 8824.334600488497, -187500.02235174447, 187500.0, -47750.09873510584, -51706.625724628655, 5940.691344820421, -17344.551365918083, -38096.02267694744, -25458.90515552821, -11019.857051355488, -178625.64219542054, -11545.726543155497, -33365.164204259425, -187500.02235174447, -187500.02235174447, -0.03, 1.008, -0.088, 192.0, 0.0, 0.0, 0.0, 0.0, 0.0, 0.0, 0.0, 0.0, 0.0, 1.742869579066864E9, 0.0, 2025-03-24 21:26:19.066
176.0, -4442.029230836539, 8805.156803745844, -187500.02235174447, 187500.0, -47744.44374375865, -51695.96394252348, 5902.73808273531, -17296.942150228282, -38101.67766829463, -25439.36973087427, -11132.845119577065, -178657.8287074362, -11576.482543525999, -33360.805614090634, -187500.02235174447, -187500.02235174447, -0.03, 1.008, -0.088, 192.0, 0.0, 0.0, 0.0, 0.0, 0.0, 0.0, 0.0, 0.0, 0.0, 1.742869579066897E9, 0.0, 2025-03-24 21:26:19.066
178.0, -4407.629896119821, 8814.052798039056, -187500.02235174447, 187500.0, -47721.60026092533, -51689.37017790916, 5950.816685058676, -17331.587354134008, -38108.15967418667, -25463.710780586098, -11027.076664814553, -178567.37119762556, -11569.218226578025, -33366.01357054873, -187500.02235174447, -187500.02235174447, -0.028, 1.014, -0.08600000000000001, 192.0, 127.5, 16.0, 15.5, 88.0, 126.5, 40.0, 0.0, 0.0, 0.0, 1.742869579066916E9, 0.0, 2025-03-24 21:26:19.066
180.0, -4455.529684487544, 8791.83516405048, -187500.02235174447, 187500.0, -47747.70709844913, -51704.52466064986, 5872.093841087084, -17298.439717106787, -38112.60767133327, -25451.79730079142, -11103.34081689606, -178591.44402640391, -11568.52532249991, -33348.15452672893, -187500.02235174447, -187500.02235174447, -0.028, 1.014, -0.08600000000000001, 192.0, 0.0, 0.0, 0.0, 0.0, 0.0, 0.0, 0.0, 0.0, 0.0, 1.742869579125489E9, 0.0, 2025-03-24 21:26:19.125
182.0, -4452.623957708354, 8782.425079634795, -187500.02235174447, 187500.0, -47756.71485146462, -51726.38466672715, 5946.279280934248, -17283.106420410448, -38140.07796526885, -25488.454161698122, -11021.13110078944, -178484.80385360765, -11578.248331337969, -33374.37312297501, -187500.02235174447, -187500.02235174447, -0.028, 1.014, -0.08600000000000001, 192.0, 0.0, 0.0, 0.0, 0.0, 0.0, 0.0, 0.0, 0.0, 0.0, 1.742869579125514E9, 0.0, 2025-03-24 21:26:19.125
184.0, -4435.2343005221255, 8788.191829704265, -187500.02235174447, 187500.0, -47761.96751141161, -51717.466320689484, 5869.992777108286, -17259.122998609902, -38125.012889505975, -25502.155781049227, -11037.045542841619, -178463.45793765283, -11602.209401394059, -33370.21569850632, -187500.02235174447, -187500.02235174447, -0.028, 1.014, -0.08600000000000001, 192.0, 0.0, 0.0, 0.0, 0.0, 0.0, 0.0, 0.0, 0.0, 0.0, 1.742869579125533E9, 0.0, 2025-03-24 21:26:19.125
186.0, -4416.011800290561, 8794.338559429474, -187500.02235174447, 187500.0, -47756.49133402006, -51705.441082172525, 5934.902243006497, -17288.04615593507, -38120.14020921472, -25502.915740360706, -11029.267135771172, -178403.35409681252, -11607.372654363235, -33379.491672455275, -187500.02235174447, -187500.02235174447, -0.028, 1.014, -0.08600000000000001, 192.0, 0.0, 0.0, 0.0, 0.0, 0.0, 0.0, 0.0, 0.0, 0.0, 1.742869579125579E9, 0.0, 2025-03-24 21:26:19.125
188.0, -4401.147890227782, 8813.494004427672, -187500.02235174447, 187500.0, -47743.23674955806, -51694.3546169227, 5894.222068097838, -17267.66136499183, -38100.76124677197, -25475.624260380777, -11021.108749044985, -178402.1694543564, -11609.697235786585, -33349.80855581863, -187500.02235174447, -187500.02235174447, -0.022, 1.014, -0.09, 192.0, 127.5, 40.0, 15.5, 88.0, 126.5, 24.0, 0.0, 0.0, 0.0, 1.742869579125599E9, 0.0, 2025-03-24 21:26:19.125
190.0, -4431.59096617591, 8801.021731021612, -187500.02235174447, 187500.0, -47760.73816546657, -51701.35071293721, 5960.204417729905, -17297.120964183923, -38119.98374700353, -25508.078993329884, -11031.055275327597, -178322.32902316202, -11626.081064472326, -33386.53247195869, -187500.02235174447, -187500.02235174447, -0.022, 1.014, -0.09, 192.0, 0.0, 0.0, 0.0, 0.0, 0.0, 0.0, 0.0, 0.0, 0.0, 1.742869579125619E9, 0.0, 2025-03-24 21:26:19.125
192.0, -4410.803843832475, 8796.149050730355, -187500.02235174447, 187500.0, -47727.70228716163, -51684.00575923989, 5906.023789170241, -17308.3862433894, -38115.17812194564, -25517.533781234477, -10999.941647045809, -178318.57393009352, -11616.067482956349, -33364.873631581504, -187500.02235174447, -187500.02235174447, -0.022, 1.014, -0.09, 192.0, 0.0, 0.0, 0.0, 0.0, 0.0, 0.0, 0.0, 0.0, 0.0, 1.742869579125638E9, 0.0, 2025-03-24 21:26:19.125
194.0, -4449.137085573326, 8777.261826665619, -187500.02235174447, 187500.0, -47745.18135132568, -51705.82106182827, 5958.192760728927, -17324.255981952665, -38138.17806699015, -25541.6289617573, -11060.827798942066, -178271.65761848184, -11615.39693062269, -33380.27398351121, -187500.02235174447, -187500.02235174447, -0.022, 1.014, -0.09, 192.0, 0.0, 0.0, 0.0, 0.0, 0.0, 0.0, 0.0, 0.0, 0.0, 1.742869579125658E9, 0.0, 2025-03-24 21:26:19.125
196.0, -4428.037038807516, 8788.102422726444, -187500.02235174447, 187500.0, -47720.259156258006, -51696.209811712484, 5891.830431441121, -17339.879851326925, -38146.35880546079, -25570.797988271475, -10979.13217295792, -178242.9132751123, -11640.944974535105, -33395.67433544092, -187500.02235174447, -187500.02235174447, -0.022, 1.014, -0.09, 192.0, 0.0, 0.0, 0.0, 0.0, 0.0, 0.0, 0.0, 0.0, 0.0, 1.742869579185897E9, 0.0, 2025-03-24 21:26:19.185
198.0, -4447.438352994723, 8803.994513034168, -187500.02235174447, 187500.0, -47749.45053451664, -51710.42552118606, 5934.701077306399, -17321.61847610694, -38145.97882580505, -25574.620136573332, -11082.978377697274, -178211.30790845252, -11641.637878613219, -33391.49455922777, -187500.02235174447, -187500.02235174447, -0.03, 1.012, -0.09, 192.0, 127.5, 8.0, 15.5, 80.0, 126.5, 24.0, 0.0, 0.0, 0.0, 1.742869579185948E9, 0.0, 2025-03-24 21:26:19.185
200.0, -4445.3372890159235, 8773.30556789703, -187500.02235174447, 187500.0, -47740.10750533432, -51700.38958792563, 5909.667123516456, -17306.419289877333, -38157.91465734418, -25575.82713077392, -10960.714335526745, -178151.8522682014, -11667.632957414742, -33406.85020766857, -187500.02235174447, -187500.02235174447, -0.03, 1.012, -0.09, 192.0, 0.0, 0.0, 0.0, 0.0, 0.0, 0.0, 0.0, 0.0, 0.0, 1.742869579185982E9, 0.0, 2025-03-24 21:26:19.185
202.0, -4466.9961293931165, 8779.184076688776, -187500.02235174447, 187500.0, -47735.68185993217, -51685.07864297374, 5963.333661953648, -17255.390257285864, -38161.44623296812, -25570.842691760387, -11071.154304880418, -178113.56372994944, -11647.158759493681, -33403.65390821146, -187500.02235174447, -187500.02235174447, -0.03, 1.012, -0.09, 192.0, 0.0, 0.0, 0.0, 0.0, 0.0, 0.0, 0.0, 0.0, 0.0, 1.742869579186002E9, 0.0, 2025-03-24 21:26:19.186
204.0, -4444.733791915631, 8781.128678456387, -187500.02235174447, 187500.0, -47730.67506917418, -51676.763794036364, 5948.246234446316, -17252.350420039944, -38162.340302746336, -25579.895148264786, -10929.39954154486, -178045.4356128497, -11656.68060263164, -33395.987259863294, -187500.02235174447, -187500.02235174447, -0.03, 1.012, -0.09, 192.0, 0.0, 0.0, 0.0, 0.0, 0.0, 0.0, 0.0, 0.0, 0.0, 1.742869579186023E9, 0.0, 2025-03-24 21:26:19.186
206.0, -4437.380067989835, 8782.939169757268, -187500.02235174447, 187500.0, -47739.23578730057, -51695.80748031229, 5986.534772698256, -17187.843285541927, -38152.46083169709, -25565.075941690917, -11073.456534559315, -178037.0313569345, -11664.59312016882, -33390.7793034052, -187500.02235174447, -187500.02235174447, -0.03, 1.012, -0.09, 192.0, 0.0, 0.0, 0.0, 0.0, 0.0, 0.0, 0.0, 0.0, 0.0, 1.742869579186051E9, 0.0, 2025-03-24 21:26:19.186
208.0, -4424.68427713922, 8772.120925440899, -187500.02235174447, 187500.0, -47752.24450257355, -51703.13885249363, 5997.576534459178, -17171.302994645, -38166.43067198165, -25584.07492447793, -10895.290779506062, -177930.45823937157, -11681.558094210399, -33416.059126384156, -187500.02235174447, -187500.02235174447, -0.03, 1.01, -0.094, 192.0, 127.5, 8.0, 15.5, 72.0, 126.5, 8.0, 0.0, 0.0, 0.0, 1.74286957918607E9, 0.0, 2025-03-24 21:26:19.186
210.0, -4481.07772839996, 8784.079108724489, -187500.02235174447, 187500.0, -47742.38738326876, -51694.37696866715, 5987.8758773655745, -17132.20979359267, -38167.34709350432, -25584.05257273347, -11035.369162007471, -177907.92768096062, -11685.469649490076, -33415.09800137258, -187500.02235174447, -187500.02235174447, -0.03, 1.01, -0.094, 192.0, 0.0, 0.0, 0.0, 0.0, 0.0, 0.0, 0.0, 0.0, 0.0, 1.742869579246189E9, 0.0, 2025-03-24 21:26:19.246
212.0, -4425.868919595351, 8798.78655657608, -187500.02235174447, 187500.0, -47720.77324638048, -51674.17099167955, 5954.571778127168, -17210.038567786047, -38150.98561656304, -25579.58222384241, -10900.811660386522, -177844.225209263, -11665.73305913604, -33401.10580934356, -187500.02235174447, -187500.02235174447, -0.03, 1.01, -0.094, 192.0, 0.0, 0.0, 0.0, 0.0, 0.0, 0.0, 0.0, 0.0, 0.0, 1.742869579246215E9, 0.0, 2025-03-24 21:26:19.246
214.0, -4457.854265910896, 8782.201562190243, -187500.02235174447, 187500.0, -47743.03558385796, -51686.03976798532, 5946.5475018677125, -17171.906491745292, -38148.32575897286, -25579.96220349815, -11066.19221761134, -177870.95789563155, -11653.707820619085, -33405.17382683442, -187500.02235174447, -187500.02235174447, -0.03, 1.01, -0.094, 192.0, 0.0, 0.0, 0.0, 0.0, 0.0, 0.0, 0.0, 0.0, 0.0, 1.742869579246234E9, 0.0, 2025-03-24 21:26:19.246
216.0, -4441.06810582496, 8780.54753310055, -187500.02235174447, 187500.0, -47739.92869137868, -51671.8464102562, 5964.272435220771, -17226.869431360894, -38163.77081439147, -25596.16721822825, -10897.794174885055, -177753.83475468575, -11685.804925656907, -33420.41771655294, -187500.02235174447, -187500.02235174447, -0.03, 1.01, -0.094, 192.0, 0.0, 0.0, 0.0, 0.0, 0.0, 0.0, 0.0, 0.0, 0.0, 1.742869579246253E9, 0.0, 2025-03-24 21:26:19.246
218.0, -4435.904852855784, 8789.823507049503, -187500.02235174447, 187500.0, -47740.398078012244, -51682.575247594745, 5939.976088997852, -17193.431221655756, -38156.14886953221, -25588.29940417998, -11049.048429614119, -177779.472205576, -11684.240303545035, -33407.78898093569, -187500.02235174447, -187500.02235174447, -0.038, 1.014, -0.096, 192.0, 127.0, 104.0, 15.5, 88.0, 126.5, 0.0, 0.0, 0.0, 0.0, 1.742869579246283E9, 0.0, 2025-03-24 21:26:19.246
220.0, -4446.320765771958, 8775.428983620284, -187500.02235174447, 187500.0, -47748.55646473843, -51678.57428533725, 5980.723319139876, -17242.448597246243, -38168.17410804917, -25585.371325656335, -10919.251849562152, -177677.21297469296, -11684.910855878694, -33425.782135222216, -187500.02235174447, -187500.02235174447, -0.038, 1.014, -0.096, 192.0, 0.0, 0.0, 0.0, 0.0, 0.0, 0.0, 0.0, 0.0, 0.0, 1.742869579246304E9, 0.0, 2025-03-24 21:26:19.246
222.0, -4447.125428572349, 8789.26471343812, -187500.02235174447, 187500.0, -47721.7120196476, -51672.00287246739, 5928.733161536832, -17217.906381834317, -38152.28201774145, -25591.093372236894, -11046.343868535027, -177703.76684710584, -11669.219931271069, -33405.46439951234, -187500.02235174447, -187500.02235174447, -0.038, 1.014, -0.096, 192.0, 0.0, 0.0, 0.0, 0.0, 0.0, 0.0, 0.0, 0.0, 0.0, 1.742869579246327E9, 0.0, 2025-03-24 21:26:19.246
224.0, -4456.356699032391, 8797.132527486388, -187500.02235174447, 187500.0, -47740.08515358987, -51679.8483347712, 5980.119822039584, -17251.881033406382, -38167.928238860164, -25601.084602008417, -10942.251794606662, -177616.3268227967, -11678.16062905319, -33421.20002760888, -187500.02235174447, -187500.02235174447, -0.038, 1.014, -0.096, 192.0, 0.0, 0.0, 0.0, 0.0, 0.0, 0.0, 0.0, 0.0, 0.0, 1.742869579246345E9, 0.0, 2025-03-24 21:26:19.246
226.0, -4446.767800661064, 8772.769126030104, -187500.02235174447, 187500.0, -47728.48459821756, -51681.34590164971, 5942.703001821399, -17177.65089007031, -38172.040959839935, -25592.92621528223, -11015.476109442248, -177614.44927626246, -11681.803963399407, -33413.98041414981, -187500.02235174447, -187500.02235174447, -0.038, 1.014, -0.096, 192.0, 0.0, 0.0, 0.0, 0.0, 0.0, 0.0, 0.0, 0.0, 0.0, 1.742869579306396E9, 0.0, 2025-03-24 21:26:19.306
228.0, -4442.1633413032705, 8781.396899389852, -187500.02235174447, 187500.0, -47733.17846455317, -51680.0495004713, 5981.215057517893, -17216.341759722443, -38170.36457900579, -25596.949529284186, -10946.185701630797, -177525.46698158587, -11689.3588530253, -33419.65775724146, -187500.02235174447, -187500.02235174447, -0.032, 1.012, -0.098, 192.0, 127.5, 0.0, 15.5, 80.0, 126.0, 120.0, 0.0, 0.0, 0.0, 1.742869579306434E9, 0.0, 2025-03-24 21:26:19.306
230.0, -4437.603585434387, 8780.793402289559, -187500.02235174447, 187500.0, -47740.08515358987, -51681.189439438516, 5911.254097372783, -17180.221340682667, -38158.31698874438, -25577.659973819256, -11018.314780988072, -177563.5543541377, -11680.507562220999, -33404.61503322304, -187500.02235174447, -187500.02235174447, -0.032, 1.012, -0.098, 192.0, 0.0, 0.0, 0.0, 0.0, 0.0, 0.0, 0.0, 0.0, 0.0, 1.742869579306454E9, 0.0, 2025-03-24 21:26:19.306
232.0, -4450.992280363117, 8768.678756794781, -187500.02235174447, 187500.0, -47746.16482808171, -51685.19040169602, 5993.195592545938, -17164.999802708604, -38168.621142938275, -25608.661843378766, -10963.798876261579, -177468.5370884582, -11677.758297652996, -33420.90945493096, -187500.02235174447, -187500.02235174447, -0.032, 1.012, -0.098, 192.0, 0.0, 0.0, 0.0, 0.0, 0.0, 0.0, 0.0, 0.0, 0.0, 1.742869579306473E9, 0.0, 2025-03-24 21:26:19.306
234.0, -4419.789245103508, 8787.990664004166, -187500.02235174447, 187500.0, -47732.999650597536, -51665.27499738634, 5917.5572893091785, -17146.134930388325, -38155.23244800955, -25587.78531405751, -10969.587978075502, -177464.2902570117, -11689.560018725399, -33401.39638202148, -187500.02235174447, -187500.02235174447, -0.032, 1.012, -0.098, 192.0, 0.0, 0.0, 0.0, 0.0, 0.0, 0.0, 0.0, 0.0, 0.0, 1.742869579306491E9, 0.0, 2025-03-24 21:26:19.306
236.0, -4457.474286255156, 8769.662233550815, -187500.02235174447, 187500.0, -47748.243540316056, -51690.08543373173, 5981.259761006804, -17151.409942079776, -38166.27420977047, -25589.931081525217, -10996.879458055433, -177426.31464318212, -11687.481306491054, -33413.42162053843, -187500.02235174447, -187500.02235174447, -0.032, 1.012, -0.098, 192.0, 0.0, 0.0, 0.0, 0.0, 0.0, 0.0, 0.0, 0.0, 0.0, 1.74286957930651E9, 0.0, 2025-03-24 21:26:19.306
238.0, -4430.920413842251, 8787.40951864833, -187500.02235174447, 187500.0, -47731.18915929666, -51683.916352262066, 5923.391094612014, -17122.844412665894, -38172.08566332885, -25585.25956693406, -10951.416009833338, -177397.90557597944, -11691.012882114994, -33440.444879584895, -187500.02235174447, -187500.02235174447, -0.032, 1.008, -0.10200000000000001, 192.0, 127.5, 0.0, 15.5, 64.0, 126.0, 104.0, 0.0, 0.0, 0.0, 1.742869579306529E9, 0.0, 2025-03-24 21:26:19.306
240.0, -4453.294510042013, 8752.943128698245, -187500.02235174447, 187500.0, -47747.84120891586, -51685.77154705186, 5987.428842476469, -17113.322569527933, -38175.43842499715, -25601.621043875344, -11004.054368025585, -177349.22347655578, -11693.024539115971, -33421.289434586695, -187500.02235174447, -187500.02235174447, -0.032, 1.008, -0.10200000000000001, 192.0, 0.0, 0.0, 0.0, 0.0, 0.0, 0.0, 0.0, 0.0, 0.0, 1.742869579365257E9, 0.0, 2025-03-24 21:26:19.365
242.0, -4460.0670886119715, 8742.460160548706, -187500.02235174447, 187500.0, -47754.45732527463, -51693.482898888935, 5953.633004860045, -17072.910615552737, -38182.99331462304, -25620.418860962258, -10923.409274030839, -177308.31978420255, -11696.533762995454, -33427.32440558963, -187500.02235174447, -187500.02235174447, -0.032, 1.008, -0.10200000000000001, 192.0, 0.0, 0.0, 0.0, 0.0, 0.0, 0.0, 0.0, 0.0, 0.0, 1.742869579365283E9, 0.0, 2025-03-24 21:26:19.365
244.0, -4426.15949227327, 8766.957672471723, -187500.02235174447, 187500.0, -47740.889816390256, -51688.92314302005, 5990.289865766748, -17073.62587137531, -38177.76300642049, -25614.942683570705, -11002.17682149134, -177254.83205972103, -11695.013844372494, -33439.684920273416, -187500.02235174447, -187500.02235174447, -0.032, 1.008, -0.10200000000000001, 192.0, 0.0, 0.0, 0.0, 0.0, 0.0, 0.0, 0.0, 0.0, 0.0, 1.74286957936531E9, 0.0, 2025-03-24 21:26:19.365
246.0, -4423.656096894276, 8796.93136178629, -187500.02235174447, 187500.0, -47730.71977266309, -51667.979558465435, 5926.497987091302, -17100.76088914405, -38150.62798865175, -25570.373305126825, -10912.948657625755, -177234.4919722667, -11676.506599963499, -33420.61888225304, -187500.02235174447, -187500.02235174447, -0.032, 1.008, -0.10200000000000001, 192.0, 0.0, 0.0, 0.0, 0.0, 0.0, 0.0, 0.0, 0.0, 0.0, 1.742869579365329E9, 0.0, 2025-03-24 21:26:19.365
248.0, -4435.770742389052, 8790.06937623851, -187500.02235174447, 187500.0, -47746.611862970814, -51685.83860228522, 5982.623217418578, -17060.10306597985, -38141.82140133636, -25580.16336919825, -11026.450815969803, -177220.5221319821, -11667.543550436922, -33414.67331822793, -187500.02235174447, -187500.02235174447, -0.032, 1.01, -0.1, 192.0, 127.5, 0.0, 15.5, 72.0, 126.0, 112.0, 0.0, 0.0, 0.0, 1.742869579365348E9, 0.0, 2025-03-24 21:26:19.365
250.0, -4427.5453004295, 8792.282198939587, -187500.02235174447, 187500.0, -47736.68768843266, -51674.30510214628, 5942.434780887936, -17083.997080802572, -38152.7067008861, -25594.78141007202, -10874.682471118269, -177141.0616804435, -11676.461896474588, -33420.171847363934, -187500.02235174447, -187500.02235174447, -0.032, 1.01, -0.1, 192.0, 0.0, 0.0, 0.0, 0.0, 0.0, 0.0, 0.0, 0.0, 0.0, 1.742869579365376E9, 0.0, 2025-03-24 21:26:19.365
252.0, -4444.398515748801, 8763.716669525704, -187500.02235174447, 187500.0, -47753.63031072978, -51682.32937840574, 5965.367670699081, -17055.14097871077, -38167.81648013789, -25596.34603218389, -11032.686952672835, -177151.47759335968, -11681.535742465943, -33417.64610024048, -187500.02235174447, -187500.02235174447, -0.032, 1.01, -0.1, 192.0, 0.0, 0.0, 0.0, 0.0, 0.0, 0.0, 0.0, 0.0, 0.0, 1.742869579365395E9, 0.0, 2025-03-24 21:26:19.365
254.0, -4452.512198986077, 8758.933396212267, -187500.02235174447, 187500.0, -47754.949063652646, -51685.14569820711, 5970.508571923801, -17048.860138518827, -38180.84754715533, -25594.91552053875, -10868.334575692961, -177070.81014762048, -11702.658140976208, -33419.85892294156, -187500.02235174447, -187500.02235174447, -0.032, 1.01, -0.1, 192.0, 0.0, 0.0, 0.0, 0.0, 0.0, 0.0, 0.0, 0.0, 0.0, 1.742869579365415E9, 0.0, 2025-03-24 21:26:19.365
0.0, -4438.54235870151, 8772.903236496835, -187500.02235174447, 187500.0, -47730.94329010764, -51697.57326812426, 5966.820534088675, -17016.494812547542, -38175.684294186154, -25586.175988456725, -11009.888173328422, -177056.95206605818, -11683.860323889296, -33424.731603232816, -187500.02235174447, -187500.02235174447, -0.032, 1.01, -0.1, 192.0, 0.0, 0.0, 0.0, 0.0, 0.0, 0.0, 0.0, 0.0, 0.0, 1.742869579425584E9, 0.0, 2025-03-24 21:26:19.425
2.0, -4440.151684302293, 8781.329844156486, -187500.02235174447, 187500.0, -47739.19108381165, -51702.53535539334, 5956.449324661413, -17054.001039743547, -38174.45494824111, -25605.957282299674, -10871.128543749875, -177004.6266322883, -11671.723326650063, -33437.941484205905, -187500.02235174447, -187500.02235174447, -0.034, 1.006, -0.1, 192.0, 127.0, 120.0, 15.5, 56.0, 126.0, 112.0, 0.0, 0.0, 0.0, 1.742869579425607E9, 0.0, 2025-03-24 21:26:19.425
4.0, -4448.332422772935, 8751.9149484533, -187500.02235174447, 187500.0, -47753.25033107404, -51709.79967234131, 5953.208321715394, -16999.954521650616, -38179.685256443656, -25621.111765040372, -11029.691818915822, -177028.5429988555, -11686.028443101459, -33444.98228370932, -187500.02235174447, -187500.02235174447, -0.034, 1.006, -0.1, 192.0, 0.0, 0.0, 0.0, 0.0, 0.0, 0.0, 0.0, 0.0, 0.0, 1.742869579425628E9, 0.0, 2025-03-24 21:26:19.425
6.0, -4439.59289069091, 8781.061623223022, -187500.02235174447, 187500.0, -47745.918958892704, -51690.57717210975, 5967.982824800351, -17041.349952381846, -38166.96711384859, -25609.958244557172, -10866.76995358109, -176943.3157972474, -11689.917646636683, -33456.448728614894, -187500.02235174447, -187500.02235174447, -0.034, 1.006, -0.1, 192.0, 0.0, 0.0, 0.0, 0.0, 0.0, 0.0, 0.0, 0.0, 0.0, 1.742869579425654E9, 0.0, 2025-03-24 21:26:19.425
8.0, -4474.372205063368, 8763.761373014615, -187500.02235174447, 187500.0, -47748.98114788308, -51696.29921869031, 5971.827324846665, -16975.300547516414, -38169.06817782738, -25587.78531405751, -11013.397397207904, -176978.34098080886, -11675.433716229643, -33423.323443332134, -187500.02235174447, -187500.02235174447, -0.034, 1.006, -0.1, 192.0, 0.0, 0.0, 0.0, 0.0, 0.0, 0.0, 0.0, 0.0, 0.0, 1.742869579425677E9, 0.0, 2025-03-24 21:26:19.425
10.0, -4438.922338357251, 8765.21423640421, -187500.02235174447, 187500.0, -47733.37963025327, -51681.256494671885, 6014.8767846675855, -17002.346158307333, -38183.68621870115, -25620.30710223998, -10844.105284703408, -176862.80481371938, -11679.054698831404, -33441.38365285202, -187500.02235174447, -187500.02235174447, -0.034, 1.006, -0.1, 192.0, 0.0, 0.0, 0.0, 0.0, 0.0, 0.0, 0.0, 0.0, 0.0, 1.742869579425695E9, 0.0, 2025-03-24 21:26:19.425
12.0, -4466.012652637083, 8747.31048909551, -187500.02235174447, 187500.0, -47749.38347928327, -51685.883305774136, 5985.104261053117, -16935.78266331943, -38181.339285533344, -25617.55783767198, -10970.437344364804, -176878.96512496058, -11694.723271694575, -33418.026079896226, -187500.02235174447, -187500.02235174447, -0.034, 1.01, -0.106, 192.0, 127.0, 120.0, 15.5, 72.0, 126.0, 88.0, 0.0, 0.0, 0.0, 1.742869579425718E9, 0.0, 2025-03-24 21:26:19.425
14.0, -4435.681335411231, 8780.838105778468, -187500.02235174447, 187500.0, -47731.18915929666, -51676.629683569634, 6001.175165316483, -16985.31412903239, -38182.27805880047, -25620.35180572889, -10850.743752806635, -176774.71658882103, -11694.879733905762, -33424.2398648548, -187500.02235174447, -187500.02235174447, -0.034, 1.01, -0.106, 192.0, 0.0, 0.0, 0.0, 0.0, 0.0, 0.0, 0.0, 0.0, 0.0, 1.742869579485834E9, 0.0, 2025-03-24 21:26:19.485
16.0, -4442.029230836539, 8757.1676084003, -187500.02235174447, 187500.0, -47745.38251702578, -51684.251628428894, 5948.760324568788, -16916.53781134341, -38171.83979413984, -25596.72601183963, -10952.712411011746, -176794.4308274306, -11691.236399559546, -33424.999824166276, -187500.02235174447, -187500.02235174447, -0.034, 1.01, -0.106, 192.0, 0.0, 0.0, 0.0, 0.0, 0.0, 0.0, 0.0, 0.0, 0.0, 1.742869579485863E9, 0.0, 2025-03-24 21:26:19.485
18.0, -4431.143931286804, 8758.30754736752, -187500.02235174447, 187500.0, -47745.65073795924, -51676.2497039139, 5982.846734863131, -16961.84479735432, -38167.570610948875, -25602.91744505375, -10861.42788665627, -176686.24838426692, -11684.575579711865, -33428.62080676804, -187500.02235174447, -187500.02235174447, -0.034, 1.01, -0.106, 192.0, 0.0, 0.0, 0.0, 0.0, 0.0, 0.0, 0.0, 0.0, 0.0, 1.742869579485881E9, 0.0, 2025-03-24 21:26:19.485
20.0, -4415.363599701357, 8782.626245334894, -187500.02235174447, 187500.0, -47738.63229020027, -51664.962072963965, 5927.481463847335, -16929.390064405212, -38158.18287827765, -25598.24593046259, -10931.187681101284, -176699.43591349554, -11678.250036031013, -33407.90073965797, -187500.02235174447, -187500.02235174447, -0.034, 1.01, -0.106, 192.0, 0.0, 0.0, 0.0, 0.0, 0.0, 0.0, 0.0, 0.0, 0.0, 1.742869579485905E9, 0.0, 2025-03-24 21:26:19.485
22.0, -4430.719248142153, 8768.924625983791, -187500.02235174447, 187500.0, -47755.79842994195, -51678.17195393705, 6009.33355204267, -16952.12178851626, -38174.65611394121, -25608.617139889855, -10893.100308549441, -176619.17079915653, -11689.537666980943, -33424.642196254994, -187500.02235174447, -187500.02235174447, -0.034, 1.006, -0.10400000000000001, 192.0, 127.0, 120.0, 15.5, 56.0, 126.0, 96.0, 0.0, 0.0, 0.0, 1.742869579485923E9, 0.0, 2025-03-24 21:26:19.485
24.0, -4464.783306692041, 8747.131675139866, -187500.02235174447, 187500.0, -47742.61090071331, -51681.01062548288, 5968.787487600743, -16905.563104815854, -38183.14977683422, -25611.008776546572, -10919.855346662443, -176612.3982205866, -11698.634826974252, -33426.51974278924, -187500.02235174447, -187500.02235174447, -0.034, 1.006, -0.10400000000000001, 192.0, 0.0, 0.0, 0.0, 0.0, 0.0, 0.0, 0.0, 0.0, 0.0, 1.742869579485944E9, 0.0, 2025-03-24 21:26:19.485
26.0, -4453.562730975477, 8752.429038575774, -187500.02235174447, 187500.0, -47737.7158686776, -51693.88523028913, 6036.356811089136, -16910.614599062756, -38188.29067805895, -25627.929047099242, -10906.399596500349, -176522.7677253208, -11674.539646451432, -33432.95704519237, -187500.02235174447, -187500.02235174447, -0.034, 1.006, -0.10400000000000001, 192.0, 0.0, 0.0, 0.0, 0.0, 0.0, 0.0, 0.0, 0.0, 0.0, 1.742869579485972E9, 0.0, 2025-03-24 21:26:19.485
28.0, -4448.399478006301, 8773.26086440812, -187500.02235174447, 187500.0, -47747.237711815564, -51680.98827373842, 5955.734068838843, -16887.56995052933, -38177.450081998126, -25607.92423581174, -10892.116831793408, -176501.80178902173, -11686.78840241294, -33432.28649285871, -187500.02235174447, -187500.02235174447, -0.034, 1.006, -0.10400000000000001, 192.0, 0.0, 0.0, 0.0, 0.0, 0.0, 0.0, 0.0, 0.0, 0.0, 1.742869579485991E9, 0.0, 2025-03-24 21:26:19.485
30.0, -4449.78528616253, 8775.272521409097, -187500.02235174447, 187500.0, -47749.78581068347, -51679.11072720418, 5998.068272837195, -16883.189008616093, -38167.74942490452, -25605.174971243738, -10926.06913162102, -176436.8476196346, -11658.35698346579, -33415.343870561584, -187500.02235174447, -187500.02235174447, -0.034, 1.006, -0.10400000000000001, 192.0, 0.0, 0.0, 0.0, 0.0, 0.0, 0.0, 0.0, 0.0, 0.0, 1.742869579546141E9, 0.0, 2025-03-24 21:26:19.546
32.0, -4418.068160780449, 8800.708806599238, -187500.02235174447, 187500.0, -47745.89660714824, -51661.98929095141, 5907.811928726665, -16878.182217858102, -38141.39671819171, -25590.467523392144, -10874.570712395993, -176412.3948112005, -11635.49114888801, -33402.29045179969, -187500.02235174447, -187500.02235174447, -0.03, 1.016, -0.106, 192.0, 127.5, 8.0, 15.5, 96.0, 126.0, 88.0, 0.0, 0.0, 0.0, 1.742869579546165E9, 0.0, 2025-03-24 21:26:19.546
34.0, -4469.0524898830045, 8762.912006725313, -187500.02235174447, 187500.0, -47761.520476522506, -51677.16612543656, 5964.1606764984945, -16838.99960982795, -38144.52596241546, -25605.957282299674, -10946.163349886341, -176366.46197634484, -11612.759424776963, -33410.5829489926, -187500.02235174447, -187500.02235174447, -0.03, 1.016, -0.106, 192.0, 0.0, 0.0, 0.0, 0.0, 0.0, 0.0, 0.0, 0.0, 0.0, 1.742869579546185E9, 0.0, 2025-03-24 21:26:19.546
36.0, -4465.476210770155, 8774.221989419699, -187500.02235174447, 187500.0, -47749.36112753882, -51665.02912819733, 5923.167577167461, -16811.350501936737, -38136.16640998917, -25601.598692130887, -10852.353078407417, -176323.367813035, -11602.432918838611, -33405.9337861459, -187500.02235174447, -187500.02235174447, -0.03, 1.016, -0.106, 192.0, 0.0, 0.0, 0.0, 0.0, 0.0, 0.0, 0.0, 0.0, 0.0, 1.742869579546218E9, 0.0, 2025-03-24 21:26:19.546
38.0, -4469.3430625609235, 8778.960559244224, -187500.02235174447, 187500.0, -47742.65560420223, -51661.72107001795, 5987.384138987558, -16752.096027385716, -38131.852523309295, -25583.40437214427, -10951.483065066705, -176282.9111555709, -11592.285226855902, -33415.85796068406, -187500.02235174447, -187500.02235174447, -0.03, 1.016, -0.106, 192.0, 0.0, 0.0, 0.0, 0.0, 0.0, 0.0, 0.0, 0.0, 0.0, 1.742869579546237E9, 0.0, 2025-03-24 21:26:19.546
40.0, -4459.016556622571, 8789.465879138217, -187500.02235174447, 187500.0, -47733.44668548664, -51654.92613970353, 5946.234577445338, -16759.829730967253, -38112.25004342199, -25575.96124124065, -10834.739903776635, -176237.0006724597, -11583.791563962885, -33402.066934355134, -187500.02235174447, -187500.02235174447, -0.03, 1.016, -0.106, 192.0, 0.0, 0.0, 0.0, 0.0, 0.0, 0.0, 0.0, 0.0, 0.0, 1.742869579546256E9, 0.0, 2025-03-24 21:26:19.546
42.0, -4488.69967325922, 8742.549567526528, -187500.02235174447, 187500.0, -47755.75372645304, -51685.235105184925, 6008.1265578420835, -16686.717174853944, -38121.32485167085, -25598.916482796252, -10962.12249542743, -176215.52064603815, -11576.43784003709, -33413.33221356061, -187500.02235174447, -187500.02235174447, -0.03, 1.01, -0.10200000000000001, 192.0, 127.5, 8.0, 15.5, 72.0, 126.0, 104.0, 0.0, 0.0, 0.0, 1.742869579546275E9, 0.0, 2025-03-24 21:26:19.546
44.0, -4484.922228446273, 8761.615605546905, -187500.02235174447, 187500.0, -47752.8703514183, -51681.72588130544, 5995.810746647209, -16690.31580571125, -38127.96331977407, -25599.184703729716, -10788.941179387712, -176106.77940926308, -11591.52526754442, -33420.95415841987, -187500.02235174447, -187500.02235174447, -0.03, 1.01, -0.10200000000000001, 192.0, 0.0, 0.0, 0.0, 0.0, 0.0, 0.0, 0.0, 0.0, 0.0, 1.742869579605586E9, 0.0, 2025-03-24 21:26:19.605
46.0, -4479.043719654527, 8756.608814788917, -187500.02235174447, 187500.0, -47741.13568557927, -51671.71229978947, 6003.186822317461, -16674.334308425703, -38115.558101601375, -25584.477255878122, -10928.281954322096, -176074.36937980287, -11585.602055263766, -33422.205856109365, -187500.02235174447, -187500.02235174447, -0.03, 1.01, -0.10200000000000001, 192.0, 0.0, 0.0, 0.0, 0.0, 0.0, 0.0, 0.0, 0.0, 0.0, 1.742869579605611E9, 0.0, 2025-03-24 21:26:19.605
48.0, -4500.590801309443, 8750.551492041528, -187500.02235174447, 187500.0, -47749.65170021674, -51671.60054106719, 5989.105223310617, -16736.136881844628, -38109.81370327636, -25597.038936262004, -10782.772097918047, -175998.77578005503, -11585.937331430594, -33428.37493757903, -187500.02235174447, -187500.02235174447, -0.03, 1.01, -0.10200000000000001, 192.0, 0.0, 0.0, 0.0, 0.0, 0.0, 0.0, 0.0, 0.0, 0.0, 1.742869579605638E9, 0.0, 2025-03-24 21:26:19.605
50.0, -4479.624865010365, 8760.788591002058, -187500.02235174447, 187500.0, -47736.285357032466, -51659.59765429469, 5972.631987647055, -16748.720913972964, -38108.47259860904, -25594.06615424945, -10935.434512547794, -175994.70776256415, -11579.72354647202, -33406.827855924115, -187500.02235174447, -187500.02235174447, -0.03, 1.01, -0.10200000000000001, 192.0, 0.0, 0.0, 0.0, 0.0, 0.0, 0.0, 0.0, 0.0, 0.0, 1.742869579605657E9, 0.0, 2025-03-24 21:26:19.605
52.0, -4474.729832974653, 8754.038364176557, -187500.02235174447, 187500.0, -47738.364069266805, -51658.63652928311, 5964.071269520673, -16839.245479016958, -38103.39875261769, -25573.189624928193, -10795.713757957668, -175920.49997097254, -11576.549598759366, -33416.752030462274, -187500.02235174447, -187500.02235174447, -0.032, 1.008, -0.096, 192.0, 127.5, 0.0, 15.5, 64.0, 126.5, 0.0, 0.0, 0.0, 0.0, 1.742869579605679E9, 0.0, 2025-03-24 21:26:19.605
54.0, -4489.616094781887, 8729.58555574245, -187500.02235174447, 187500.0, -47752.04333687345, -51677.3002359033, 5952.403658915003, -16814.792670582854, -38106.57270033034, -25576.87766276332, -10965.74347802919, -175949.62429399783, -11578.315386571336, -33419.478943285816, -187500.02235174447, -187500.02235174447, -0.032, 1.008, -0.096, 192.0, 0.0, 0.0, 0.0, 0.0, 0.0, 0.0, 0.0, 0.0, 0.0, 1.742869579605699E9, 0.0, 2025-03-24 21:26:19.605
56.0, -4461.430545023745, 8738.146273868833, -187500.02235174447, 187500.0, -47747.41652577121, -51677.03201496983, 5982.3549964851145, -16857.90918563714, -38118.642642336206, -25628.532544199534, -10803.670978983759, -175833.5069815525, -11571.341642301279, -33439.64021678451, -187500.02235174447, -187500.02235174447, -0.032, 1.008, -0.096, 192.0, 0.0, 0.0, 0.0, 0.0, 0.0, 0.0, 0.0, 0.0, 0.0, 1.742869579605718E9, 0.0, 2025-03-24 21:26:19.605
58.0, -4468.739565460631, 8740.716724481194, -187500.02235174447, 187500.0, -47752.51272350702, -51676.40616612508, 5952.493065892824, -16798.118269219194, -38109.5454823429, -25585.192511700694, -10941.06715215053, -175847.2086009036, -11561.506874740944, -33424.66454799945, -187500.02235174447, -187500.02235174447, -0.032, 1.008, -0.096, 192.0, 0.0, 0.0, 0.0, 0.0, 0.0, 0.0, 0.0, 0.0, 0.0, 1.742869579605744E9, 0.0, 2025-03-24 21:26:19.605
60.0, -4490.219591882181, 8722.276535305564, -187500.02235174447, 187500.0, -47744.44374375865, -51677.23318066993, 5998.224735048382, -16803.013301254905, -38125.81755230636, -25597.57537812893, -10809.974170920155, -175740.81429729634, -11576.169619103626, -33425.983300922315, -187500.02235174447, -187500.02235174447, -0.032, 1.008, -0.096, 192.0, 0.0, 0.0, 0.0, 0.0, 0.0, 0.0, 0.0, 0.0, 0.0, 1.74286957966532E9, 0.0, 2025-03-24 21:26:19.665
62.0, -4486.486850558144, 8729.004410386611, -187500.02235174447, 187500.0, -47751.238674073065, -51676.2497039139, 5950.168484469472, -16708.577180931232, -38135.87583731125, -25580.20807268716, -10911.115814580418, -175733.32646290382, -11563.138552086182, -33424.999824166276, -187500.02235174447, -187500.02235174447, -0.028, 1.01, -0.096, 192.0, 127.5, 16.0, 15.5, 72.0, 126.5, 0.0, 0.0, 0.0, 0.0, 1.742869579665351E9, 0.0, 2025-03-24 21:26:19.665
64.0, -4483.558772034499, 8746.952861184223, -187500.02235174447, 187500.0, -47753.98793864107, -51666.88432298712, 5994.782566402265, -16714.83566937872, -38111.80300853289, -25579.939851753697, -10823.452272826706, -175645.0147205609, -11528.269830735902, -33412.72871646032, -187500.02235174447, -187500.02235174447, -0.028, 1.01, -0.096, 192.0, 0.0, 0.0, 0.0, 0.0, 0.0, 0.0, 0.0, 0.0, 0.0, 1.742869579665372E9, 0.0, 2025-03-24 21:26:19.665
66.0, -4484.36343483489, 8735.195843600732, -187500.02235174447, 187500.0, -47762.16867711171, -51673.27692190134, 5954.392964171525, -16628.4238253145, -38105.432761363125, -25569.501587093066, -10893.793212627555, -175638.19743850201, -11486.583827326755, -33405.844379168084, -187500.02235174447, -187500.02235174447, -0.028, 1.01, -0.096, 192.0, 0.0, 0.0, 0.0, 0.0, 0.0, 0.0, 0.0, 0.0, 0.0, 1.742869579665391E9, 0.0, 2025-03-24 21:26:19.665
68.0, -4505.418778111789, 8735.888747678846, -187500.02235174447, 187500.0, -47780.251238376055, -51684.58690459572, 6022.051694637739, -16629.787281726276, -38110.70777305458, -25567.311116136447, -10834.024647954066, -175541.97317862193, -11423.037817840317, -33398.84828315357, -187500.02235174447, -187500.02235174447, -0.028, 1.01, -0.096, 192.0, 0.0, 0.0, 0.0, 0.0, 0.0, 0.0, 0.0, 0.0, 0.0, 1.74286957966541E9, 0.0, 2025-03-24 21:26:19.665
70.0, -4495.606362295909, 8744.293003594043, -187500.02235174447, 187500.0, -47761.94515966716, -51676.33911089171, 5959.17623748496, -16594.85150514263, -38106.81856951935, -25556.381113097803, -10877.230569986174, -175540.2297425544, -11402.317750730248, -33388.2312045373, -187500.02235174447, -187500.02235174447, -0.028, 1.01, -0.096, 192.0, 0.0, 0.0, 0.0, 0.0, 0.0, 0.0, 0.0, 0.0, 0.0, 1.742869579665442E9, 0.0, 2025-03-24 21:26:19.665
72.0, -4470.751222461608, 8749.63507051886, -187500.02235174447, 187500.0, -47757.184238098176, -51670.23708465542, 6009.199441575938, -16638.750331252853, -38102.52703458393, -25559.35389511036, -10871.396764683339, -175477.35428540164, -11316.352941555137, -33377.23414626529, -187500.02235174447, -187500.02235174447, -0.034, 1.008, -0.098, 192.0, 127.0, 120.0, 15.5, 64.0, 126.0, 120.0, 0.0, 0.0, 0.0, 1.742869579665462E9, 0.0, 2025-03-24 21:26:19.665
74.0, -4481.278894100058, 8738.97328841368, -187500.02235174447, 187500.0, -47778.73131975309, -51686.08447147423, 5963.601882887111, -16594.583284209166, -38102.5940898173, -25542.701845491156, -10871.732040850167, -175478.18129994647, -11273.75051662332, -33367.93582057188, -187500.02235174447, -187500.02235174447, -0.034, 1.008, -0.098, 192.0, 0.0, 0.0, 0.0, 0.0, 0.0, 0.0, 0.0, 0.0, 0.0, 1.742869579725628E9, 0.0, 2025-03-24 21:26:19.725
76.0, -4475.959178919695, 8763.560207314516, -187500.02235174447, 187500.0, -47752.95975839612, -51666.32552937574, 6020.174148103493, -16611.883534417575, -38114.88754926772, -25547.283953104492, -10854.00710749711, -175368.52364164873, -11272.074135789173, -33369.88042233949, -187500.02235174447, -187500.02235174447, -0.034, 1.008, -0.098, 192.0, 0.0, 0.0, 0.0, 0.0, 0.0, 0.0, 0.0, 0.0, 0.0, 1.742869579725682E9, 0.0, 2025-03-24 21:26:19.725
78.0, -4474.193391107726, 8745.54470128354, -187500.02235174447, 187500.0, -47757.63127298728, -51661.51990431785, 5932.622365072056, -16632.33538059418, -38085.360894842255, -25514.292778288458, -10823.876955971356, -175370.26707771624, -11194.871210440542, -33343.52771562668, -187500.02235174447, -187500.02235174447, -0.034, 1.008, -0.098, 192.0, 0.0, 0.0, 0.0, 0.0, 0.0, 0.0, 0.0, 0.0, 0.0, 1.742869579725703E9, 0.0, 2025-03-24 21:26:19.725
80.0, -4452.020460608061, 8725.808110929504, -187500.02235174447, 187500.0, -47764.29209283496, -51674.819192268755, 6005.734921185365, -16619.5725345102, -38118.50853186948, -25562.192566656184, -10865.205331469218, -175302.3848298055, -11228.287068401227, -33331.815401532105, -187500.02235174447, -187500.02235174447, -0.034, 1.008, -0.098, 192.0, 0.0, 0.0, 0.0, 0.0, 0.0, 0.0, 0.0, 0.0, 0.0, 1.742869579725745E9, 0.0, 2025-03-24 21:26:19.725
82.0, -4447.460704739178, 8744.382410571863, -187500.02235174447, 187500.0, -47756.49133402006, -51664.31387237476, 5958.148057240017, -16621.85241244464, -38099.17427291564, -25558.30336312096, -10772.780868146523, -175252.98747455925, -11183.82944867962, -33315.27511063518, -187500.02235174447, -187500.02235174447, -0.028, 1.014, -0.094, 192.0, 127.5, 16.0, 15.5, 88.0, 126.5, 8.0, 0.0, 0.0, 0.0, 1.742869579725763E9, 0.0, 2025-03-24 21:26:19.725
84.0, -4460.335309545435, 8746.997564673135, -187500.02235174447, 187500.0, -47759.73233696608, -51676.56262833627, 6026.052656895239, -16603.09929884664, -38095.91091822516, -25557.006961942552, -10864.758296580112, -175208.86513100448, -11167.892654882986, -33298.08661914904, -187500.02235174447, -187500.02235174447, -0.028, 1.014, -0.094, 192.0, 0.0, 0.0, 0.0, 0.0, 0.0, 0.0, 0.0, 0.0, 0.0, 1.742869579725784E9, 0.0, 2025-03-24 21:26:19.725
86.0, -4477.836725453941, 8758.441657834252, -187500.02235174447, 187500.0, -47755.59726424185, -51666.10201193119, 5983.874915108075, -16627.7756247253, -38097.29672638139, -25567.713447536644, -10758.31928948394, -175160.093624603, -11158.370811745026, -33292.54338652413, -187500.02235174447, -187500.02235174447, -0.028, 1.014, -0.094, 192.0, 0.0, 0.0, 0.0, 0.0, 0.0, 0.0, 0.0, 0.0, 0.0, 1.742869579725803E9, 0.0, 2025-03-24 21:26:19.725
88.0, -4472.4052515513, 8738.548605269028, -187500.02235174447, 187500.0, -47770.19295337117, -51687.11265171917, 6041.095380913661, -16586.067269571697, -38094.61451704676, -25581.77269479903, -10893.949674838743, -175144.06742382856, -11120.037570004175, -33272.76209268118, -187500.02235174447, -187500.02235174447, -0.028, 1.014, -0.094, 192.0, 0.0, 0.0, 0.0, 0.0, 0.0, 0.0, 0.0, 0.0, 0.0, 1.742869579725822E9, 0.0, 2025-03-24 21:26:19.725
90.0, -4409.127462998326, 8781.396899389852, -187500.02235174447, 187500.0, -47732.999650597536, -51655.01554668135, 5982.287941251748, -16640.560822553733, -38073.04508364738, -25564.15952016825, -10759.191007517697, -175084.7235422997, -11075.37878458247, -33249.51627844766, -187500.02235174447, -187500.02235174447, -0.028, 1.014, -0.094, 192.0, 0.0, 0.0, 0.0, 0.0, 0.0, 0.0, 0.0, 0.0, 0.0, 1.742869579785922E9, 0.0, 2025-03-24 21:26:19.785
92.0, -4445.6278616938425, 8746.25995710611, -187500.02235174447, 187500.0, -47747.34947053784, -51677.7472707924, 6000.4375577494575, -16600.260627300817, -38078.25304010547, -25563.511319579044, -10924.325695553505, -175105.5777198765, -11096.836459259566, -33219.319071688544, -187500.02235174447, -187500.02235174447, -0.034, 1.01, -0.092, 192.0, 127.0, 120.0, 15.5, 72.0, 126.5, 16.0, 0.0, 0.0, 0.0, 1.742869579785943E9, 0.0, 2025-03-24 21:26:19.785
94.0, -4448.779457662041, 8754.910082210312, -187500.02235174447, 187500.0, -47753.5185520075, -51673.008700967875, 5985.841868620142, -16607.569647737702, -38103.77873227343, -25587.271223935037, -10750.540882413494, -175009.84519837442, -11137.96366905733, -33224.929359546826, -187500.02235174447, -187500.02235174447, -0.034, 1.01, -0.092, 192.0, 0.0, 0.0, 0.0, 0.0, 0.0, 0.0, 0.0, 0.0, 0.0, 1.742869579785969E9, 0.0, 2025-03-24 21:26:19.785
96.0, -4453.719193186664, 8765.236588148664, -187500.02235174447, 187500.0, -47766.817839958414, -51677.38964288111, 5977.683481893955, -16561.390943693037, -38081.85167096277, -25564.450092846168, -10908.545363968058, -175024.9549776262, -11102.156174439928, -33202.24233892469, -187500.02235174447, -187500.02235174447, -0.034, 1.01, -0.092, 192.0, 0.0, 0.0, 0.0, 0.0, 0.0, 0.0, 0.0, 0.0, 0.0, 1.742869579785988E9, 0.0, 2025-03-24 21:26:19.785
98.0, -4420.593907903899, 8767.02472770509, -187500.02235174447, 187500.0, -47757.20658984263, -51671.689948045016, 5981.818554618187, -16567.716487373888, -38097.40848510367, -25571.96027898315, -10743.589489887892, -174940.6441975408, -11107.364130898015, -33205.30452791507, -187500.02235174447, -187500.02235174447, -0.034, 1.01, -0.092, 192.0, 0.0, 0.0, 0.0, 0.0, 0.0, 0.0, 0.0, 0.0, 0.0, 1.742869579786007E9, 0.0, 2025-03-24 21:26:19.786
100.0, -4449.5617687179765, 8749.769180985591, -187500.02235174447, 187500.0, -47769.7235667376, -51688.65492208659, 5991.116880311594, -16480.07529736463, -38078.87888895022, -25551.284915361994, -10889.30051199204, -174955.48575585912, -11118.405892658937, -33169.698198997765, -187500.02235174447, -187500.02235174447, -0.034, 1.01, -0.092, 192.0, 0.0, 0.0, 0.0, 0.0, 0.0, 0.0, 0.0, 0.0, 0.0, 1.742869579786034E9, 0.0, 2025-03-24 21:26:19.786
102.0, -4446.432524494234, 8769.505771339629, -187500.02235174447, 187500.0, -47753.473848518595, -51676.026186469346, 5996.056615836217, -16516.03925419322, -38087.26079312096, -25578.129360452815, -10729.910222281245, -174862.68131288068, -11114.404930401437, -33175.01791417813, -187500.02235174447, -187500.02235174447, -0.028, 1.016, -0.094, 192.0, 127.5, 16.0, 15.5, 96.0, 126.5, 8.0, 0.0, 0.0, 0.0, 1.742869579786052E9, 0.0, 2025-03-24 21:26:19.786
104.0, -4430.853358608885, 8771.02568996259, -187500.02235174447, 187500.0, -47741.090982090354, -51689.05725348679, 5971.424993446469, -16459.914023865942, -38074.36383657024, -25564.405389357256, -10883.846686344945, -174900.74633368806, -11124.843195062065, -33153.202611589746, -187500.02235174447, -187500.02235174447, -0.028, 1.016, -0.094, 192.0, 0.0, 0.0, 0.0, 0.0, 0.0, 0.0, 0.0, 0.0, 0.0, 1.742869579846213E9, 0.0, 2025-03-24 21:26:19.846
106.0, -4418.202271247181, 8781.866286023413, -187500.02235174447, 187500.0, -47746.410697270716, -51679.20013418199, 5996.637761192055, -16511.814774491166, -38069.9381911681, -25560.069150932926, -10747.232824234108, -174809.0147744435, -11131.928698054398, -33159.50580352614, -187500.02235174447, -187500.02235174447, -0.028, 1.016, -0.094, 192.0, 0.0, 0.0, 0.0, 0.0, 0.0, 0.0, 0.0, 0.0, 0.0, 1.742869579846235E9, 0.0, 2025-03-24 21:26:19.846
108.0, -4443.057411081482, 8771.517428340607, -187500.02235174447, 187500.0, -47763.398023056754, -51691.672407588056, 5968.496914922824, -16460.003430843764, -38076.710769738056, -25544.110005391838, -10870.636805371858, -174831.3665188988, -11159.622509434523, -33135.74589917015, -187500.02235174447, -187500.02235174447, -0.028, 1.016, -0.094, 192.0, 0.0, 0.0, 0.0, 0.0, 0.0, 0.0, 0.0, 0.0, 0.0, 1.742869579846253E9, 0.0, 2025-03-24 21:26:19.846
110.0, -4447.9747948616505, 8786.98483550368, -187500.02235174447, 187500.0, -47764.49325853506, -51688.587866853224, 6018.47541552489, -16509.60195179009, -38084.22095587504, -25557.96808695413, -10748.596280645881, -174721.66415711216, -11171.02189910673, -33150.542753999565, -187500.02235174447, -187500.02235174447, -0.028, 1.016, -0.094, 192.0, 0.0, 0.0, 0.0, 0.0, 0.0, 0.0, 0.0, 0.0, 0.0, 1.742869579846273E9, 0.0, 2025-03-24 21:26:19.846
112.0, -4436.977736589639, 8785.800193047548, -187500.02235174447, 187500.0, -47761.31931082241, -51685.592733096215, 5961.187894485938, -16493.329881826627, -38082.63398201871, -25545.786386225987, -10843.837063769945, -174735.5445904189, -11175.156971830962, -33130.64970143434, -187500.02235174447, -187500.02235174447, -0.032, 1.004, -0.088, 192.0, 127.5, 0.0, 15.5, 48.0, 126.5, 32.0, 0.0, 0.0, 0.0, 1.7428695798463E9, 0.0, 2025-03-24 21:26:19.846
114.0, -4419.319858469947, 8764.789553259558, -187500.02235174447, 187500.0, -47742.990880369056, -51674.260398657374, 6014.765025945309, -16547.912841786485, -38090.77001700044, -25549.854403716854, -10766.902359354777, -174637.84511540475, -11174.665233452944, -33141.713814939714, -187500.02235174447, -187500.02235174447, -0.032, 1.004, -0.088, 192.0, 0.0, 0.0, 0.0, 0.0, 0.0, 0.0, 0.0, 0.0, 0.0, 1.74286957984632E9, 0.0, 2025-03-24 21:26:19.846
116.0, -4431.546262686999, 8770.332785884475, -187500.02235174447, 187500.0, -47746.20953157062, -51674.953302735485, 5943.150036710505, -16540.447359138412, -38068.44062428959, -25524.351063293347, -10835.119883432375, -174663.25904885042, -11177.414498020948, -33114.35527972642, -187500.02235174447, -187500.02235174447, -0.032, 1.004, -0.088, 192.0, 0.0, 0.0, 0.0, 0.0, 0.0, 0.0, 0.0, 0.0, 0.0, 1.742869579846342E9, 0.0, 2025-03-24 21:26:19.846
118.0, -4434.809617377475, 8766.197713160243, -187500.02235174447, 187500.0, -47753.9208834077, -51666.88432298712, 6022.006991148829, -16546.191757463428, -38089.138339655205, -25538.20914485564, -10786.393080519805, -174573.74031230694, -11212.372626349048, -33145.75948068613, -187500.02235174447, -187500.02235174447, -0.032, 1.004, -0.088, 192.0, 0.0, 0.0, 0.0, 0.0, 0.0, 0.0, 0.0, 0.0, 0.0, 1.742869579846361E9, 0.0, 2025-03-24 21:26:19.846
120.0, -4428.30525974098, 8762.174399158288, -187500.02235174447, 187500.0, -47749.204665327634, -51677.7472707924, 5961.992557286329, -16499.49896329629, -38095.218014147045, -25524.976912138096, -10781.252179295085, -174545.3088933598, -11228.778806779243, -33145.223038819204, -187500.02235174447, -187500.02235174447, -0.032, 1.004, -0.088, 192.0, 0.0, 0.0, 0.0, 0.0, 0.0, 0.0, 0.0, 0.0, 0.0, 1.742869579905577E9, 0.0, 2025-03-24 21:26:19.905
122.0, -4431.166283031259, 8758.419306089796, -187500.02235174447, 187500.0, -47744.801371669935, -51670.57236082225, 6010.339380543159, -16514.228762892337, -38096.15678741417, -25529.58137149589, -10789.164696832264, -174479.5277094278, -11220.195736908405, -33150.2745330661, -187500.02235174447, -187500.02235174447, -0.03, 1.002, -0.092, 192.0, 127.5, 8.0, 15.5, 40.0, 126.5, 16.0, 0.0, 0.0, 0.0, 1.742869579905642E9, 0.0, 2025-03-24 21:26:19.905
124.0, -4420.728018370631, 8772.053870207534, -187500.02235174447, 187500.0, -47732.418505241694, -51663.643320041105, 5945.005231500296, -16488.07722187963, -38096.559118814366, -25519.29956904645, -10773.876103624834, -174473.2245174914, -11228.55528933469, -33129.93444561177, -187500.02235174447, -187500.02235174447, -0.03, 1.002, -0.092, 192.0, 0.0, 0.0, 0.0, 0.0, 0.0, 0.0, 0.0, 0.0, 0.0, 1.742869579905664E9, 0.0, 2025-03-24 21:26:19.905
126.0, -4416.3917799463015, 8772.813829519013, -187500.02235174447, 187500.0, -47732.26204303051, -51667.39841310959, 6019.90592717003, -16461.702163422367, -38091.59703154529, -25507.162571807217, -10808.588362763925, -174407.15276088152, -11223.526146832246, -33137.84696314895, -187500.02235174447, -187500.02235174447, -0.03, 1.002, -0.092, 192.0, 0.0, 0.0, 0.0, 0.0, 0.0, 0.0, 0.0, 0.0, 0.0, 1.742869579905683E9, 0.0, 2025-03-24 21:26:19.905
128.0, -4408.389855431301, 8775.339576642464, -187500.02235174447, 187500.0, -47741.82858965738, -51672.53931433432, 5958.684499106944, -16440.512709678736, -38080.15293838417, -25479.647574382732, -10738.426236918716, -174373.5580889652, -11264.005156040806, -33131.67788167929, -187500.02235174447, -187500.02235174447, -0.03, 1.002, -0.092, 192.0, 0.0, 0.0, 0.0, 0.0, 0.0, 0.0, 0.0, 0.0, 0.0, 1.742869579905703E9, 0.0, 2025-03-24 21:26:19.905
130.0, -4412.748445600087, 8768.611701561416, -187500.02235174447, 187500.0, -47730.63036568527, -51666.638453798114, 5989.976941344374, -16443.463139946834, -38083.282182607916, -25473.791417335444, -10821.217098381174, -174331.6932716004, -11275.113973035095, -33141.89262889536, -187500.02235174447, -187500.02235174447, -0.03, 1.002, -0.092, 192.0, 0.0, 0.0, 0.0, 0.0, 0.0, 0.0, 0.0, 0.0, 0.0, 1.742869579905722E9, 0.0, 2025-03-24 21:26:19.905
132.0, -4408.479262409122, 8758.419306089796, -187500.02235174447, 187500.0, -47742.18621756866, -51671.13115443363, 5939.014963986274, -16438.657514888946, -38086.43377857611, -25450.4561961241, -10734.335867683396, -174312.9848614913, -11287.18391504096, -33136.79643115955, -187500.02235174447, -187500.02235174447, -0.026000000000000002, 1.008, -0.096, 192.0, 127.5, 24.0, 15.5, 64.0, 126.5, 0.0, 0.0, 0.0, 0.0, 1.742869579905741E9, 0.0, 2025-03-24 21:26:19.905
134.0, -4397.213983203648, 8753.658384520815, -187500.02235174447, 187500.0, -47733.78196165347, -51668.85127649919, 5967.066403277684, -16427.414587427927, -38101.43179910562, -25481.547472661434, -10836.796264266522, -174273.64579125, -11316.442348532957, -33155.59424824646, -187500.02235174447, -187500.02235174447, -0.026000000000000002, 1.008, -0.096, 192.0, 0.0, 0.0, 0.0, 0.0, 0.0, 0.0, 0.0, 0.0, 0.0, 1.74286957996554E9, 0.0, 2025-03-24 21:26:19.965
136.0, -4404.567707129444, 8762.487323580663, -187500.02235174447, 187500.0, -47729.75864765151, -51660.73759326191, 5948.648565846511, -16425.559392638133, -38101.364743872255, -25478.977022049075, -10708.474899348605, -174218.81696210112, -11338.704686010444, -33150.60980923293, -187500.02235174447, -187500.02235174447, -0.026000000000000002, 1.008, -0.096, 192.0, 0.0, 0.0, 0.0, 0.0, 0.0, 0.0, 0.0, 0.0, 0.0, 1.742869579965569E9, 0.0, 2025-03-24 21:26:19.965
138.0, -4401.796090816986, 8764.744849770648, -187500.02235174447, 187500.0, -47736.08419133237, -51659.82117173925, 5977.616426660589, -16404.5711045946, -38097.3414298703, -25472.67383011268, -10842.495959102627, -174200.1756072254, -11370.645328837078, -33152.42030053381, -187500.02235174447, -187500.02235174447, -0.026000000000000002, 1.008, -0.096, 192.0, 0.0, 0.0, 0.0, 0.0, 0.0, 0.0, 0.0, 0.0, 0.0, 1.742869579965603E9, 0.0, 2025-03-24 21:26:19.965
140.0, -4381.321892895924, 8773.59614057495, -187500.02235174447, 187500.0, -47706.44577818463, -51634.67545922702, 5939.819626786665, -16465.233739046304, -38092.4911013235, -25454.479510126057, -10687.464259560616, -174129.92407440234, -11374.847456794674, -33138.49516373815, -187500.02235174447, -187500.02235174447, -0.026000000000000002, 1.008, -0.096, 192.0, 0.0, 0.0, 0.0, 0.0, 0.0, 0.0, 0.0, 0.0, 0.0, 1.742869579965622E9, 0.0, 2025-03-24 21:26:19.965
142.0, -4384.048805719472, 8769.773992273093, -187500.02235174447, 187500.0, -47705.0599700284, -51649.60642452317, 5941.361897154081, -16461.322183766628, -38079.81766221734, -25453.69719907012, -10857.493979632138, -174154.24277236973, -11400.887239085108, -33119.33971873995, -187500.02235174447, -187500.02235174447, -0.028, 1.008, -0.098, 192.0, 127.5, 16.0, 15.5, 64.0, 126.0, 120.0, 0.0, 0.0, 0.0, 1.742869579965641E9, 0.0, 2025-03-24 21:26:19.965
144.0, -4381.2324859181035, 8781.039271478567, -187500.02235174447, 187500.0, -47712.570156165384, -51654.9931949369, 5939.864330275575, -16502.337634842115, -38090.032409433414, -25458.636934594746, -10709.056044704443, -174091.12144602794, -11417.583992193222, -33133.71189042472, -187500.02235174447, -187500.02235174447, -0.028, 1.008, -0.098, 192.0, 0.0, 0.0, 0.0, 0.0, 0.0, 0.0, 0.0, 0.0, 0.0, 1.74286957996567E9, 0.0, 2025-03-24 21:26:19.965
146.0, -4392.788337801497, 8767.181189916277, -187500.02235174447, 187500.0, -47722.91901384819, -51663.486857829914, 5928.040257458718, -16454.795474385675, -38100.26950839395, -25454.32304791487, -10853.738886563646, -174099.7939228766, -11465.12615264966, -33135.857657892426, -187500.02235174447, -187500.02235174447, -0.028, 1.008, -0.098, 192.0, 0.0, 0.0, 0.0, 0.0, 0.0, 0.0, 0.0, 0.0, 0.0, 1.742869579965689E9, 0.0, 2025-03-24 21:26:19.965
148.0, -4410.602678132377, 8760.609777046417, -187500.02235174447, 187500.0, -47732.55261570843, -51678.70839580398, 5925.134530679528, -16484.97032940034, -38130.33260468634, -25472.249146968028, -10692.49340206306, -174015.43843930226, -11495.345711153235, -33166.9265826853, -187500.02235174447, -187500.02235174447, -0.028, 1.008, -0.098, 192.0, 0.0, 0.0, 0.0, 0.0, 0.0, 0.0, 0.0, 0.0, 0.0, 1.742869579965708E9, 0.0, 2025-03-24 21:26:19.965
150.0, -4407.853413564374, 8737.945108168735, -187500.02235174447, 187500.0, -47736.71004017712, -51682.19526793901, 5891.07047212964, -16437.227003243806, -38124.74466857251, -25467.599984121323, -10859.706802333212, -174053.45875662073, -11509.673179349087, -33172.11218739893, -187500.02235174447, -187500.02235174447, -0.028, 1.008, -0.098, 192.0, 0.0, 0.0, 0.0, 0.0, 0.0, 0.0, 0.0, 0.0, 0.0, 1.742869580025651E9, 0.0, 2025-03-24 21:26:20.025
152.0, -4408.769835087041, 8750.372678085885, -187500.02235174447, 187500.0, -47735.994784354545, -51672.718128289955, 5941.8536355320975, -16449.565166183136, -38137.39575593421, -25489.012955309507, -10706.127966180798, -173958.19562175224, -11515.03759801836, -33175.17437638931, -187500.02235174447, -187500.02235174447, -0.034, 1.008, -0.098, 192.0, 127.0, 120.0, 15.5, 64.0, 126.0, 120.0, 0.0, 0.0, 0.0, 1.742869580025672E9, 0.0, 2025-03-24 21:26:20.025
154.0, -4402.891326295296, 8769.416364361807, -187500.02235174447, 187500.0, -47725.95885109411, -51667.66663404306, 5933.091751705618, -16377.838418226054, -38115.6475085792, -25470.304545200415, -10825.642743783324, -173978.08867431746, -11519.865574820707, -33149.000483632146, -187500.02235174447, -187500.02235174447, -0.034, 1.008, -0.098, 192.0, 0.0, 0.0, 0.0, 0.0, 0.0, 0.0, 0.0, 0.0, 0.0, 1.742869580025701E9, 0.0, 2025-03-24 21:26:20.025
156.0, -4396.63283784781, 8760.408611346318, -187500.02235174447, 187500.0, -47733.93842386466, -51674.30510214628, 5973.190781258439, -16419.546773379658, -38127.806857562886, -25485.727248874577, -10691.174649140197, -173881.01504814805, -11529.14154876966, -33171.75455948765, -187500.02235174447, -187500.02235174447, -0.034, 1.008, -0.098, 192.0, 0.0, 0.0, 0.0, 0.0, 0.0, 0.0, 0.0, 0.0, 0.0, 1.74286958002572E9, 0.0, 2025-03-24 21:26:20.025
158.0, -4384.495840608578, 8765.370698615396, -187500.02235174447, 187500.0, -47720.57208068038, -51675.802669024786, 5932.823530772153, -16365.746124475734, -38116.07219172385, -25460.916812529187, -10803.268647583564, -173922.32107190148, -11543.826644876795, -33159.75167271515, -187500.02235174447, -187500.02235174447, -0.034, 1.008, -0.098, 192.0, 0.0, 0.0, 0.0, 0.0, 0.0, 0.0, 0.0, 0.0, 0.0, 1.742869580025747E9, 0.0, 2025-03-24 21:26:20.025
160.0, -4421.73384687112, 8733.363000555397, -187500.02235174447, 187500.0, -47737.49235123305, -51683.22344818395, 5992.860316379109, -16377.123162403484, -38136.0993547558, -25500.81467638191, -10695.01914918651, -173822.0287945305, -11557.930595628095, -33180.807015992046, -187500.02235174447, -187500.02235174447, -0.034, 1.008, -0.098, 192.0, 0.0, 0.0, 0.0, 0.0, 0.0, 0.0, 0.0, 0.0, 0.0, 1.742869580025766E9, 0.0, 2025-03-24 21:26:20.025
162.0, -4411.92143105524, 8748.986869929657, -187500.02235174447, 187500.0, -47716.07938004487, -51669.47712534394, 5913.4445683294025, -16351.798635935622, -38143.49778217051, -25505.799115395443, -10760.375649973828, -173832.26589349104, -11574.627348736209, -33161.36099831593, -187500.02235174447, -187500.02235174447, -0.034, 1.012, -0.10200000000000001, 192.0, 127.0, 120.0, 15.5, 80.0, 126.0, 104.0, 0.0, 0.0, 0.0, 1.742869580025785E9, 0.0, 2025-03-24 21:26:20.025
164.0, -4416.011800290561, 8742.616622759893, -187500.02235174447, 187500.0, -47721.9131853477, -51673.634549812625, 5980.6562639065105, -16369.076534399574, -38143.11780251477, -25516.885580645274, -10703.110480679332, -173751.12906111826, -11577.24250283748, -33177.40955083484, -187500.02235174447, -187500.02235174447, -0.034, 1.012, -0.10200000000000001, 192.0, 0.0, 0.0, 0.0, 0.0, 0.0, 0.0, 0.0, 0.0, 0.0, 1.742869580086027E9, 0.0, 2025-03-24 21:26:20.086
166.0, -4395.336436669402, 8753.300756609531, -187500.02235174447, 187500.0, -47716.07938004487, -51649.025279167334, 5911.499966561791, -16357.207758093806, -38144.19068624863, -25509.44244974166, -10734.626440361315, -173756.1582036207, -11567.832418421796, -33172.492167054676, -187500.02235174447, -187500.02235174447, -0.034, 1.012, -0.10200000000000001, 192.0, 0.0, 0.0, 0.0, 0.0, 0.0, 0.0, 0.0, 0.0, 0.0, 1.742869580086062E9, 0.0, 2025-03-24 21:26:20.086
168.0, -4393.637704090798, 8759.82746599048, -187500.02235174447, 187500.0, -47719.856824857816, -51659.865875228155, 5992.726205912377, -16380.72179326079, -38127.91861628516, -25507.699013674144, -10721.21539368813, -173697.1495982587, -11573.018023135428, -33162.41153030533, -187500.02235174447, -187500.02235174447, -0.034, 1.012, -0.10200000000000001, 192.0, 0.0, 0.0, 0.0, 0.0, 0.0, 0.0, 0.0, 0.0, 0.0, 1.742869580086081E9, 0.0, 2025-03-24 21:26:20.086
170.0, -4407.272268208536, 8777.552399343538, -187500.02235174447, 187500.0, -47725.0647813159, -51661.251683384384, 5948.156827468494, -16362.214548851794, -38134.89236055522, -25521.221819069604, -10699.288332377475, -173680.49754863948, -11585.847924452773, -33174.61558277793, -187500.02235174447, -187500.02235174447, -0.034, 1.012, -0.10200000000000001, 192.0, 0.0, 0.0, 0.0, 0.0, 0.0, 0.0, 0.0, 0.0, 0.0, 1.7428695800861E9, 0.0, 2025-03-24 21:26:20.086
172.0, -4434.250823766091, 8732.692448221738, -187500.02235174447, 187500.0, -47723.79073188195, -51671.399375367095, 6020.531776014778, -16384.365127607005, -38140.033261779936, -25529.8272406849, -10724.74696931207, -173614.44814377406, -11593.24635186748, -33189.4347893518, -187500.02235174447, -187500.02235174447, -0.03, 1.006, -0.098, 192.0, 127.5, 8.0, 15.5, 56.0, 126.0, 120.0, 0.0, 0.0, 0.0, 1.742869580086119E9, 0.0, 2025-03-24 21:26:20.086
174.0, -4402.980733273117, 8762.241454391653, -187500.02235174447, 187500.0, -47706.266964228984, -51661.966939206955, 5957.186932228438, -16404.52640110569, -38127.18100871814, -25520.372452780302, -10692.314588107418, -173613.88935016267, -11599.728357759519, -33172.13453914339, -187500.02235174447, -187500.02235174447, -0.03, 1.006, -0.098, 192.0, 0.0, 0.0, 0.0, 0.0, 0.0, 0.0, 0.0, 0.0, 0.0, 1.742869580086143E9, 0.0, 2025-03-24 21:26:20.086
176.0, -4428.64053590781, 8758.68752702326, -187500.02235174447, 187500.0, -47723.05312431492, -51676.920256247555, 6025.292697583759, -16391.271816643693, -38145.50943917149, -25546.211069370638, -10754.385382459806, -173574.14794852113, -11604.712796773052, -33197.928452244814, -187500.02235174447, -187500.02235174447, -0.03, 1.006, -0.098, 192.0, 0.0, 0.0, 0.0, 0.0, 0.0, 0.0, 0.0, 0.0, 0.0, 1.742869580086178E9, 0.0, 2025-03-24 21:26:20.086
178.0, -4405.4170734187455, 8741.297869837032, -187500.02235174447, 187500.0, -47711.13964452024, -51662.95041596299, 5947.84390304612, -16403.431165627382, -38137.06047976738, -25538.00797915554, -10660.664517958703, -173538.98865449295, -11615.598096322787, -33183.399818348866, -187500.02235174447, -187500.02235174447, -0.03, 1.006, -0.098, 192.0, 0.0, 0.0, 0.0, 0.0, 0.0, 0.0, 0.0, 0.0, 0.0, 1.742869580086197E9, 0.0, 2025-03-24 21:26:20.086
180.0, -4421.532681171022, 8728.959706897702, -187500.02235174447, 187500.0, -47720.013287069, -51675.71326204697, 5997.800051903731, -16348.80350217861, -38149.59980840681, -25528.687301717677, -10756.642908649792, -173505.97512793247, -11620.001389980484, -33193.34634463148, -187500.02235174447, -187500.02235174447, -0.03, 1.006, -0.098, 192.0, 0.0, 0.0, 0.0, 0.0, 0.0, 0.0, 0.0, 0.0, 0.0, 1.742869580146317E9, 0.0, 2025-03-24 21:26:20.146
182.0, -4433.177940032237, 8772.702070796737, -187500.02235174447, 187500.0, -47714.470054444086, -51654.30029085878, 5932.063571460673, -16342.857938153498, -38141.68729086963, -25559.91268872174, -10625.751093119514, -173439.85866783367, -11622.594192337297, -33196.43088536631, -187500.02235174447, -187500.02235174447, -0.026000000000000002, 1.014, -0.098, 192.0, 127.5, 24.0, 15.5, 88.0, 126.0, 120.0, 0.0, 0.0, 0.0, 1.742869580146347E9, 0.0, 2025-03-24 21:26:20.146
184.0, -4428.282907996525, 8730.25610807611, -187500.02235174447, 187500.0, -47715.520586433486, -51665.56557006426, 5957.4104496729915, -16291.113649739464, -38134.46767741057, -25557.05166543146, -10768.534036700015, -173445.35719696965, -11600.264799626446, -33191.3346876305, -187500.02235174447, -187500.02235174447, -0.026000000000000002, 1.014, -0.098, 192.0, 0.0, 0.0, 0.0, 0.0, 0.0, 0.0, 0.0, 0.0, 0.0, 1.742869580146368E9, 0.0, 2025-03-24 21:26:20.146
186.0, -4430.026344064038, 8719.102587592912, -187500.02235174447, 187500.0, -47714.89473758874, -51665.65497704208, 5946.279280934248, -16273.723992553234, -38130.46671515307, -25543.707673991645, -10620.833709339346, -173384.20282413994, -11629.88086102973, -33206.9362052603, -187500.02235174447, -187500.02235174447, -0.026000000000000002, 1.014, -0.098, 192.0, 0.0, 0.0, 0.0, 0.0, 0.0, 0.0, 0.0, 0.0, 0.0, 1.742869580146409E9, 0.0, 2025-03-24 21:26:20.146
188.0, -4419.722189870142, 8745.96938442819, -187500.02235174447, 187500.0, -47715.69940038912, -51674.28275040183, 5990.379272744569, -16201.907837618333, -38120.2966714259, -25573.54725283948, -10759.749801129079, -173365.89674543103, -11632.697180831097, -33217.39682166539, -187500.02235174447, -187500.02235174447, -0.026000000000000002, 1.014, -0.098, 192.0, 0.0, 0.0, 0.0, 0.0, 0.0, 0.0, 0.0, 0.0, 0.0, 1.742869580146429E9, 0.0, 2025-03-24 21:26:20.146
190.0, -4440.419905235756, 8722.388294027842, -187500.02235174447, 187500.0, -47694.71111234559, -51657.02720368233, 5982.891438352041, -16223.16434659533, -38107.28795615291, -25565.277107391015, -10604.047549253411, -173287.3527154151, -11652.389067696222, -33213.798190808084, -187500.02235174447, -187500.02235174447, -0.026000000000000002, 1.014, -0.098, 192.0, 0.0, 0.0, 0.0, 0.0, 0.0, 0.0, 0.0, 0.0, 0.0, 1.742869580146452E9, 0.0, 2025-03-24 21:26:20.146
192.0, -4466.258521826091, 8698.069596060466, -187500.02235174447, 187500.0, -47728.17167379519, -51676.003834724885, 5988.99346458834, -16169.117828502398, -38105.52216834095, -25569.166310926237, -10761.694402896692, -173294.41586666298, -11677.288911019436, -33214.915778030845, -187500.02235174447, -187500.02235174447, -0.022, 1.012, -0.10400000000000001, 192.0, 127.5, 40.0, 15.5, 80.0, 126.0, 96.0, 0.0, 0.0, 0.0, 1.742869580146471E9, 0.0, 2025-03-24 21:26:20.146
194.0, -4455.574387976455, 8711.078311333456, -187500.02235174447, 187500.0, -47722.38257198127, -51667.08548868722, 5986.132441298061, -16215.609456969436, -38117.390944646715, -25588.902901280275, -10596.090328227321, -173185.38405721, -11705.899143922228, -33241.559057421575, -187500.02235174447, -187500.02235174447, -0.022, 1.012, -0.10400000000000001, 192.0, 0.0, 0.0, 0.0, 0.0, 0.0, 0.0, 0.0, 0.0, 0.0, 1.742869580205017E9, 0.0, 2025-03-24 21:26:20.205
196.0, -4438.520006957056, 8730.30081156502, -187500.02235174447, 187500.0, -47722.1143510478, -51662.41397409606, 5954.996461271819, -16213.64250345737, -38097.85551999277, -25562.6843050342, -10746.405809689262, -173179.7290658628, -11713.297571336934, -33232.97598755074, -187500.02235174447, -187500.02235174447, -0.022, 1.012, -0.10400000000000001, 192.0, 0.0, 0.0, 0.0, 0.0, 0.0, 0.0, 0.0, 0.0, 0.0, 1.742869580205046E9, 0.0, 2025-03-24 21:26:20.205
198.0, -4434.384934232823, 8717.225041058666, -187500.02235174447, 187500.0, -47723.1648830372, -51662.57043630725, 5969.6592056345, -16304.234123734728, -38089.92065071114, -25563.846595745876, -10614.642276125227, -173098.1675503454, -11723.445263319643, -33245.31415049006, -187500.02235174447, -187500.02235174447, -0.022, 1.012, -0.10400000000000001, 192.0, 0.0, 0.0, 0.0, 0.0, 0.0, 0.0, 0.0, 0.0, 0.0, 1.742869580205083E9, 0.0, 2025-03-24 21:26:20.205
200.0, -4455.0826495984375, 8711.458290989196, -187500.02235174447, 187500.0, -47722.78490338146, -51670.058270699774, 5950.906092036497, -16286.151562470384, -38098.861348493265, -25583.560834355456, -10737.912146796245, -173084.77885541666, -11746.4228566197, -33261.0497785866, -187500.02235174447, -187500.02235174447, -0.022, 1.012, -0.10400000000000001, 192.0, 0.0, 0.0, 0.0, 0.0, 0.0, 0.0, 0.0, 0.0, 0.0, 1.742869580205102E9, 0.0, 2025-03-24 21:26:20.205
202.0, -4435.144893544304, 8700.86356411738, -187500.02235174447, 187500.0, -47714.76062712201, -51663.30804387427, 5992.23446753436, -16363.7121157303, -38104.78456077392, -25594.40143041628, -10611.58008713485, -172983.12312163392, -11763.588996361375, -33280.54049975163, -187500.02235174447, -187500.02235174447, -0.03, 1.008, -0.10200000000000001, 192.0, 127.5, 8.0, 15.5, 64.0, 126.0, 104.0, 0.0, 0.0, 0.0, 1.742869580205126E9, 0.0, 2025-03-24 21:26:20.205
204.0, -4439.503483713089, 8708.172584554266, -187500.02235174447, 187500.0, -47717.956926579114, -51655.686099015016, 5954.996461271819, -16330.586830447535, -38102.01294446146, -25587.7406105686, -10731.36308567084, -172996.10948516245, -11757.08463872488, -33255.84182212852, -187500.02235174447, -187500.02235174447, -0.03, 1.008, -0.10200000000000001, 192.0, 0.0, 0.0, 0.0, 0.0, 0.0, 0.0, 0.0, 0.0, 0.0, 1.742869580205147E9, 0.0, 2025-03-24 21:26:20.205
206.0, -4472.271141084569, 8699.656569916793, -187500.02235174447, 187500.0, -47729.289261017955, -51663.017471196355, 5996.526002469779, -16363.421543052382, -38112.25004342199, -25598.469447907144, -10636.725799647069, -172896.13013221385, -11780.464563425132, -33274.99726712672, -187500.02235174447, -187500.02235174447, -0.03, 1.008, -0.10200000000000001, 192.0, 0.0, 0.0, 0.0, 0.0, 0.0, 0.0, 0.0, 0.0, 0.0, 1.742869580205166E9, 0.0, 2025-03-24 21:26:20.205
208.0, -4459.195370578214, 8710.810090399991, -187500.02235174447, 187500.0, -47718.47101670159, -51658.21184613846, 5922.497024833801, -16299.94258879931, -38120.20726444808, -25620.03888130652, -10729.731408325602, -172896.0183734916, -11792.802726364462, -33284.65322073141, -187500.02235174447, -187500.02235174447, -0.03, 1.008, -0.10200000000000001, 192.0, 0.0, 0.0, 0.0, 0.0, 0.0, 0.0, 0.0, 0.0, 0.0, 1.742869580205194E9, 0.0, 2025-03-24 21:26:20.205
210.0, -4457.876617655351, 8670.28637770252, -187500.02235174447, 187500.0, -47734.36310700931, -51674.327453890735, 5971.335586468647, -16285.123382225442, -38123.537674371924, -25635.908619869784, -10677.674195489191, -172805.24793925858, -11787.483011184098, -33294.01860165818, -187500.02235174447, -187500.02235174447, -0.03, 1.008, -0.10200000000000001, 192.0, 0.0, 0.0, 0.0, 0.0, 0.0, 0.0, 0.0, 0.0, 0.0, 1.74286958026528E9, 0.0, 2025-03-24 21:26:20.265
212.0, -4447.170132061259, 8690.827630856948, -187500.02235174447, 187500.0, -47721.10852254731, -51654.479104814425, 5880.319283046638, -16224.907782662844, -38133.26068320998, -25632.958189601683, -10722.64590533327, -172778.67171510123, -11808.918334116737, -33308.882511720956, -187500.02235174447, -187500.02235174447, -0.03, 1.006, -0.094, 192.0, 127.5, 8.0, 15.5, 56.0, 126.5, 8.0, 0.0, 0.0, 0.0, 1.742869580265311E9, 0.0, 2025-03-24 21:26:20.265
214.0, -4442.610376192377, 8686.714909877172, -187500.02235174447, 187500.0, -47715.520586433486, -51656.20018913748, 5909.957696194375, -16243.236213116195, -38122.21892144906, -25622.4975731966, -10724.54580361197, -172721.04891789544, -11777.648243623764, -33331.14484919845, -187500.02235174447, -187500.02235174447, -0.03, 1.006, -0.094, 192.0, 0.0, 0.0, 0.0, 0.0, 0.0, 0.0, 0.0, 0.0, 0.0, 1.742869580265332E9, 0.0, 2025-03-24 21:26:20.265
216.0, -4479.177830121259, 8670.308729446975, -187500.02235174447, 187500.0, -47741.582720468374, -51681.256494671885, 5870.3057015306595, -16169.900139558333, -38117.3462411578, -25631.237105278626, -10747.188120745197, -172728.44734531015, -11778.765830846529, -33296.700810992814, -187500.02235174447, -187500.02235174447, -0.03, 1.006, -0.094, 192.0, 0.0, 0.0, 0.0, 0.0, 0.0, 0.0, 0.0, 0.0, 0.0, 1.742869580265351E9, 0.0, 2025-03-24 21:26:20.265
218.0, -4482.12826038936, 8671.538075392018, -187500.02235174447, 187500.0, -47744.935482136665, -51683.782241795336, 5961.098487508117, -16132.751540273614, -38151.54441017442, -25660.540242259533, -10717.63911457528, -172592.81695995535, -11807.197249793679, -33346.92518078389, -187500.02235174447, -187500.02235174447, -0.03, 1.006, -0.094, 192.0, 0.0, 0.0, 0.0, 0.0, 0.0, 0.0, 0.0, 0.0, 0.0, 1.742869580265388E9, 0.0, 2025-03-24 21:26:20.265
220.0, -4474.841591696929, 8682.33396796393, -187500.02235174447, 187500.0, -47728.73046740657, -51668.78422126582, 5883.895562159487, -16131.544546073026, -38138.781564090445, -25627.660826165775, -10689.766489239513, -172566.64306719817, -11798.413014222744, -33325.15458168442, -187500.02235174447, -187500.02235174447, -0.03, 1.006, -0.094, 192.0, 0.0, 0.0, 0.0, 0.0, 0.0, 0.0, 0.0, 0.0, 0.0, 1.742869580265407E9, 0.0, 2025-03-24 21:26:20.265
222.0, -4483.290551101035, 8685.083232531933, -187500.02235174447, 187500.0, -47729.848054629336, -51675.601503324695, 5939.149074453006, -16135.120825185875, -38149.21982875107, -25649.16320433178, -10743.276565465518, -172507.03096473587, -11779.481086669099, -33340.64434059195, -187500.02235174447, -187500.02235174447, -0.036000000000000004, 1.014, -0.082, 192.0, 127.0, 112.0, 15.5, 88.0, 126.5, 56.0, 0.0, 0.0, 0.0, 1.742869580265432E9, 0.0, 2025-03-24 21:26:20.265
224.0, -4437.201254034192, 8684.613845898371, -187500.02235174447, 187500.0, -47697.549783891416, -51651.6404332686, 5858.794553136177, -16156.824369051978, -38133.5512558879, -25621.983483074127, -10673.382660553772, -172474.8668044647, -11772.149714487758, -33328.93202649737, -187500.02235174447, -187500.02235174447, -0.036000000000000004, 1.014, -0.082, 192.0, 0.0, 0.0, 0.0, 0.0, 0.0, 0.0, 0.0, 0.0, 0.0, 1.74286958032575E9, 0.0, 2025-03-24 21:26:20.325
226.0, -4453.249806553103, 8672.56625563696, -187500.02235174447, 187500.0, -47721.84613011433, -51664.15741016358, 5895.205544853872, -16155.684430084757, -38133.48420065454, -25637.69675942621, -10750.27266148003, -172430.81151614327, -11768.104048741347, -33331.83775327656, -187500.02235174447, -187500.02235174447, -0.036000000000000004, 1.014, -0.082, 192.0, 0.0, 0.0, 0.0, 0.0, 0.0, 0.0, 0.0, 0.0, 0.0, 1.742869580325781E9, 0.0, 2025-03-24 21:26:20.325
228.0, -4462.838704924429, 8676.433107427729, -187500.02235174447, 187500.0, -47726.763513894504, -51659.17297115004, 5835.884015069487, -16192.87773285839, -38127.248063951505, -25644.44698625171, -10645.085352073354, -172388.85729180067, -11782.655034381753, -33331.524828854184, -187500.02235174447, -187500.02235174447, -0.036000000000000004, 1.014, -0.082, 192.0, 0.0, 0.0, 0.0, 0.0, 0.0, 0.0, 0.0, 0.0, 0.0, 1.742869580325832E9, 0.0, 2025-03-24 21:26:20.325
230.0, -4480.876562699862, 8645.632403568317, -187500.02235174447, 187500.0, -47755.46315377512, -51679.93774174902, 5913.578678796134, -16161.62999410987, -38138.781564090445, -25649.498480498612, -10746.517568411538, -172347.0371779248, -11794.52381068752, -33345.98640751677, -187500.02235174447, -187500.02235174447, -0.036000000000000004, 1.014, -0.082, 192.0, 0.0, 0.0, 0.0, 0.0, 0.0, 0.0, 0.0, 0.0, 0.0, 1.742869580325851E9, 0.0, 2025-03-24 21:26:20.325
232.0, -4449.919396629261, 8683.093927275411, -187500.02235174447, 187500.0, -47739.05697334492, -51654.43440132552, 5915.366818352559, -16187.334500233472, -38146.202343249606, -25651.30897179949, -10589.38480489073, -172253.51747912378, -11794.792031620984, -33347.46162265082, -187500.02235174447, -187500.02235174447, -0.022, 1.016, -0.094, 192.0, 127.5, 40.0, 15.5, 96.0, 126.5, 8.0, 0.0, 0.0, 0.0, 1.742869580325871E9, 0.0, 2025-03-24 21:26:20.325
234.0, -4475.847420197418, 8661.368031664853, -187500.02235174447, 187500.0, -47730.83153138537, -51660.71524151746, 5952.738935081832, -16188.273273500596, -38128.11978198526, -25647.442120008724, -10736.682800851202, -172245.8508307756, -11771.076830753904, -33331.61423583201, -187500.02235174447, -187500.02235174447, -0.022, 1.016, -0.094, 192.0, 0.0, 0.0, 0.0, 0.0, 0.0, 0.0, 0.0, 0.0, 0.0, 1.742869580325891E9, 0.0, 2025-03-24 21:26:20.325
236.0, -4469.231303838647, 8690.447651201208, -187500.02235174447, 187500.0, -47718.29220274594, -51653.585035036216, 5944.22292044436, -16222.851422172955, -38145.33062521584, -25663.468320783177, -10582.768688531958, -172177.5886032091, -11775.658938367242, -33350.344997685555, -187500.02235174447, -187500.02235174447, -0.022, 1.016, -0.094, 192.0, 0.0, 0.0, 0.0, 0.0, 0.0, 0.0, 0.0, 0.0, 0.0, 1.74286958032591E9, 0.0, 2025-03-24 21:26:20.325
238.0, -4468.896027671817, 8690.022968056557, -187500.02235174447, 187500.0, -47734.184293053666, -51658.61417753866, 5951.84486530362, -16186.418078710805, -38127.516284884965, -25629.2478000221, -10734.805254316958, -172181.16488232196, -11748.814493276417, -33342.74540457075, -187500.02235174447, -187500.02235174447, -0.022, 1.016, -0.094, 192.0, 0.0, 0.0, 0.0, 0.0, 0.0, 0.0, 0.0, 0.0, 0.0, 1.74286958032593E9, 0.0, 2025-03-24 21:26:20.325
240.0, -4481.167135377781, 8681.484601674629, -187500.02235174447, 187500.0, -47730.27273777399, -51670.12532593314, 5944.289975677726, -16208.412195254827, -38146.202343249606, -25647.37506477536, -10575.28085413943, -172100.16216041593, -11763.812513805928, -33356.73759659977, -187500.02235174447, -187500.02235174447, -0.022, 1.016, -0.094, 192.0, 0.0, 0.0, 0.0, 0.0, 0.0, 0.0, 0.0, 0.0, 0.0, 1.742869580386845E9, 0.0, 2025-03-24 21:26:20.386
242.0, -4492.074786671971, 8657.56823510745, -187500.02235174447, 187500.0, -47748.98114788308, -51679.714224304465, 5936.913900007475, -16136.461929853194, -38153.26549449748, -25654.438216023234, -10733.9335362832, -172116.5683408461, -11759.610385848331, -33353.40718667593, -187500.02235174447, -187500.02235174447, -0.04, 1.016, -0.098, 192.0, 127.0, 96.0, 15.5, 96.0, 126.0, 120.0, 0.0, 0.0, 0.0, 1.74286958038689E9, 0.0, 2025-03-24 21:26:20.386
244.0, -4499.003827453116, 8671.605130625383, -187500.02235174447, 187500.0, -47732.91024361971, -51676.853201014186, 5970.486220179346, -16126.38129310385, -38172.666808684684, -25677.54991979002, -10562.540359799905, -172008.74352559372, -11759.968013759615, -33375.714227642326, -187500.02235174447, -187500.02235174447, -0.04, 1.016, -0.098, 192.0, 0.0, 0.0, 0.0, 0.0, 0.0, 0.0, 0.0, 0.0, 0.0, 1.742869580386944E9, 0.0, 2025-03-24 21:26:20.386
246.0, -4488.096176158926, 8684.971473809657, -187500.02235174447, 187500.0, -47742.94617688015, -51686.95618950799, 5973.32489172517, -16025.485518632595, -38158.8087271224, -25645.653980452298, -10695.287370119973, -172014.17499949635, -11743.13715018477, -33353.98833203177, -187500.02235174447, -187500.02235174447, -0.04, 1.016, -0.098, 192.0, 0.0, 0.0, 0.0, 0.0, 0.0, 0.0, 0.0, 0.0, 0.0, 1.742869580386972E9, 0.0, 2025-03-24 21:26:20.386
248.0, -4476.69678648672, 8702.249372273609, -187500.02235174447, 187500.0, -47750.389307783764, -51672.740480034416, 6023.638668494066, -16018.556477851449, -38162.98850333554, -25649.766701432076, -10539.026324632923, -171896.35895447244, -11743.785350773973, -33378.41878872142, -187500.02235174447, -187500.02235174447, -0.04, 1.016, -0.098, 192.0, 0.0, 0.0, 0.0, 0.0, 0.0, 0.0, 0.0, 0.0, 0.0, 1.742869580387E9, 0.0, 2025-03-24 21:26:20.387
250.0, -4502.55775482151, 8666.911264289769, -187500.02235174447, 187500.0, -47744.041412358456, -51671.533485833825, 5995.877801880575, -15946.606212449815, -38147.431689194644, -25651.912468899784, -10667.861779673312, -171913.9721291032, -11747.004001975538, -33343.66182609342, -187500.02235174447, -187500.02235174447, -0.04, 1.016, -0.098, 192.0, 0.0, 0.0, 0.0, 0.0, 0.0, 0.0, 0.0, 0.0, 0.0, 1.742869580387043E9, 0.0, 2025-03-24 21:26:20.387
252.0, -4472.226437595658, 8673.505028904085, -187500.02235174447, 187500.0, -47725.0647813159, -51668.35953812117, 6034.3675058326135, -15988.493381559061, -38158.18287827765, -25659.869689925872, -10553.487903295507, -171814.86449418837, -11725.121644153793, -33357.29639021115, -187500.02235174447, -187500.02235174447, -0.039, 1.0150000000000001, -0.097, 192.0, 127.0, 104.0, 15.5, 88.0, 126.5, 0.0, 0.0, 0.0, 0.0, 1.742869580387072E9, 0.0, 2025-03-24 21:26:20.387
