%OpenBCI Raw EXG Data
%Number of channels = 16
%Sample Rate = 125 Hz
%Board = OpenBCI_GUI$BoardCytonSerialDaisy
Sample Index, EXG Channel 0, EXG Channel 1, EXG Channel 2, EXG Channel 3, EXG Channel 4, EXG Channel 5, EXG Channel 6, EXG Channel 7, EXG Channel 8, EXG Channel 9, EXG Channel 10, EXG Channel 11, EXG Channel 12, EXG Channel 13, EXG Channel 14, EXG Channel 15, Accel Channel 0, Accel Channel 1, Accel Channel 2, Not Used, Digital Channel 0 (D11), Digital Channel 1 (D12), Digital Channel 2 (D13), Digital Channel 3 (D17), Not Used, Digital Channel 4 (D18), Analog Channel 0, Analog Channel 1, Analog Channel 2, Timestamp, Marker Channel, Timestamp (Formatted)
118.0, -21191.867732032268, 2573.8257257730634, 26551.838404159356, -13023.601534795946, -49087.91769598934, 38952.161544819064, -23260.9910680045, 65271.87708281006, -5592.5405731845585, -20172.42701917017, -9705.239201216604, 9018.660666782936, 4900.172936936968, 4569.702395165253, 13541.133825914125, -187500.02235174447, 0.0, 0.0, 0.0, 192.0, 0.0, 0.0, 0.0, 0.0, 0.0, 0.0, 0.0, 0.0, 0.0, 1.744742951308927E9, 0.0, 2025-04-15 13:49:11.308
120.0, -21235.744206398038, 2515.934707633818, 26570.122131123797, -13009.586991022468, -49357.77030679826, 38902.33950642819, -23205.26816907742, 65126.16606070591, -5599.693131410258, -20136.351303619304, -9710.313047207957, 9029.993001221777, 4902.855146271604, 4557.721860137208, 13527.208689118468, -187500.02235174447, -0.14400000000000002, 0.9480000000000001, 0.278, 192.0, 125.5, 64.0, 14.5, 80.0, 4.0, 88.0, 0.0, 0.0, 0.0, 1.7447429513096323E9, 0.0, 2025-04-15 13:49:11.309
0.0, -10545.284813080409, 6708.1831941823, 13200.381481692968, -6588.042567735025, -24825.836697320545, 19438.08280683551, -11635.804073310384, 31801.927900544157, -2806.999123930827, -10062.88946424597, -4852.049631124692, 4516.974629995183, 2449.7064888127434, 2275.608751250357, 6782.815668918571, -93750.01117587223, -0.128, 0.9500000000000001, 0.24, 192.0, 126.0, 0.0, 14.5, 88.0, 3.5, 64.0, 0.0, 0.0, 0.0, 1.74474295142993E9, 0.0, 2025-04-15 13:49:11.429
2.0, -21099.912655343134, 13462.232167986891, 26390.54821616986, -13189.764403076697, -49520.51335817735, 38904.84290180718, -23287.142609017206, 63676.70013626816, -5530.827406743456, -20288.477276382124, -9715.409244943768, 8944.050543791122, 4877.44121282592, 4497.506260574611, 13578.01420426538, -187500.02235174447, -0.128, 0.9500000000000001, 0.24, 192.0, 0.0, 0.0, 0.0, 0.0, 0.0, 0.0, 0.0, 0.0, 0.0, 1.7447429514369566E9, 0.0, 2025-04-15 13:49:11.436
4.0, -21073.98463177498, 13410.823155739685, 26401.835847119793, -13174.386402891447, -49700.15432836465, 38879.8760032506, -23282.202873492584, 63559.91227148918, -5505.882859931334, -20270.6852877957, -9726.83098636043, 8944.430523446861, 4864.745421975305, 4486.5092023026, 13534.718875255452, -187500.02235174447, -0.128, 0.9500000000000001, 0.24, 192.0, 0.0, 0.0, 0.0, 0.0, 0.0, 0.0, 0.0, 0.0, 0.0, 1.744742951443994E9, 0.0, 2025-04-15 13:49:11.443
6.0, -21088.446210437563, 13467.775400611807, 26408.65312917866, -13174.721679058275, -49578.42672806105, 38919.34918395867, -23272.725733843534, 63629.44854848964, -5501.345455806906, -20267.109008682848, -9699.96418952515, 8962.982471344767, 4893.288599644733, 4508.2574496576135, 13578.01420426538, -187500.02235174447, -0.128, 0.9500000000000001, 0.24, 192.0, 0.0, 0.0, 0.0, 0.0, 0.0, 0.0, 0.0, 0.0, 0.0, 1.7447429514520404E9, 0.0, 2025-04-15 13:49:11.452
8.0, -21088.870893582214, 13412.119556918093, 26386.636660890184, -13177.828571537564, -49736.7888375269, 38878.8254712612, -23290.070687540854, 63536.10766364428, -5515.315296091473, -20263.622136547823, -9725.802806115486, 8944.38581995795, 4864.365442319566, 4497.036873941049, 13554.63427956513, -187500.02235174447, -0.116, 0.9500000000000001, 0.216, 192.0, 126.0, 48.0, 14.5, 88.0, 3.0, 96.0, 0.0, 0.0, 0.0, 1.744742951460084E9, 0.0, 2025-04-15 13:49:11.460
10.0, -21094.056498295846, 13473.743316381373, 26395.242082505476, -13176.375708147969, -49617.00583899091, 38925.09358228369, -23259.381742403715, 63606.9626935676, -5504.1394238638195, -20261.38696210229, -9710.625971630332, 8957.48394220876, 4885.711358274384, 4515.544118350043, 13576.561340875787, -187500.02235174447, -0.116, 0.9500000000000001, 0.216, 192.0, 0.0, 0.0, 0.0, 0.0, 0.0, 0.0, 0.0, 0.0, 0.0, 1.7447429514691262E9, 0.0, 2025-04-15 13:49:11.469
12.0, -21089.98848080498, 13414.824117997185, 26369.559928126328, -13179.28143492716, -49767.72365185305, 38876.880869493594, -23293.915187587165, 63519.18739309161, -5519.964458938177, -20257.52011031152, -9729.78141662853, 8948.00680255971, 4863.918407430459, 4501.417815854289, 13565.87720702615, -187500.02235174447, -0.116, 0.9500000000000001, 0.216, 192.0, 0.0, 0.0, 0.0, 0.0, 0.0, 0.0, 0.0, 0.0, 0.0, 1.7447429514791694E9, 0.0, 2025-04-15 13:49:11.479
14.0, -21086.45690518104, 13472.581025669699, 26383.909748066635, -13180.354318661013, -49664.68210991408, 38909.00032627587, -23266.958983774064, 63592.38935618274, -5508.095682632409, -20263.599784803366, -9718.762006612063, 8950.9125293389, 4880.548105305208, 4506.134033934359, 13571.152218717601, -187500.02235174447, -0.116, 0.9500000000000001, 0.216, 192.0, 0.0, 0.0, 0.0, 0.0, 0.0, 0.0, 0.0, 0.0, 0.0, 1.7447429514854107E9, 0.0, 2025-04-15 13:49:11.485
16.0, -21072.330602685288, 13443.389647411066, 26364.486082134972, -13184.824667552075, -49795.64098067772, 38872.36581711362, -23297.044431810908, 63527.591649006805, -5507.492185532115, -20251.462787564134, -9713.554050153978, 8955.62874741897, 4861.996157407303, 4507.855118257417, 13568.000622749403, -187500.02235174447, -0.116, 0.9500000000000001, 0.216, 192.0, 0.0, 0.0, 0.0, 0.0, 0.0, 0.0, 0.0, 0.0, 0.0, 1.7447429514932413E9, 0.0, 2025-04-15 13:49:11.493
18.0, -21095.442306452074, 13466.769572111318, 26385.116742267222, -13183.729432073766, -49725.50120657697, 38903.74766632887, -23267.428370407626, 63585.34855667932, -5503.379464552339, -20269.791218017486, -9712.570573397943, 8953.214759017797, 4876.323625603155, 4504.189432166748, 13556.936509244028, -187500.02235174447, -0.108, 0.9560000000000001, 0.21, 192.0, 126.0, 80.0, 14.5, 112.0, 3.0, 72.0, 0.0, 0.0, 0.0, 1.7447429515002856E9, 0.0, 2025-04-15 13:49:11.500
20.0, -21101.633739666195, 13413.840641241151, 26353.667837818604, -13196.693443857843, -49861.60097856534, 38860.63115127458, -23300.03956556792, 63506.983340619016, -5509.928525677744, -20285.795067047486, -9720.460739190667, 8938.663773377391, 4871.316834845166, 4498.579144308465, 13570.325204172756, -187500.02235174447, -0.108, 0.9560000000000001, 0.21, 192.0, 0.0, 0.0, 0.0, 0.0, 0.0, 0.0, 0.0, 0.0, 0.0, 1.744742951508314E9, 0.0, 2025-04-15 13:49:11.508
22.0, -21125.058367855356, 13437.287621174768, 26363.368494912207, -13213.52430743269, -49803.82171914837, 38885.486291108886, -23282.851074081787, 63549.76457950647, -5501.054883128987, -20340.445082240713, -9734.564689941966, 8920.33534292404, 4880.458698327387, 4472.740527718131, 13540.552680558287, -187500.02235174447, -0.108, 0.9560000000000001, 0.21, 192.0, 0.0, 0.0, 0.0, 0.0, 0.0, 0.0, 0.0, 0.0, 0.0, 1.7447429515164423E9, 0.0, 2025-04-15 13:49:11.516
24.0, -21123.65020795467, 13420.970847722394, 26337.708692277516, -13221.079197058583, -49854.381365106274, 38863.91685770951, -23317.585684965336, 63520.93082915912, -5512.856604201389, -20359.13114060535, -9736.576346942944, 8899.19059266932, 4874.87076221356, 4471.310016072991, 13563.3514599027, -187500.02235174447, -0.108, 0.9560000000000001, 0.21, 192.0, 0.0, 0.0, 0.0, 0.0, 0.0, 0.0, 0.0, 0.0, 0.0, 1.744742951525445E9, 0.0, 2025-04-15 13:49:11.525
26.0, -21132.099167358778, 13433.376065895089, 26355.388922141665, -13223.649647670944, -49821.14432110123, 38879.36191312813, -23282.784018848422, 63538.991038679014, -5489.007292867576, -20360.472245272667, -9743.348925512902, 8899.972903725256, 4875.317797102666, 4449.651175695798, 13523.654761750075, -187500.02235174447, -0.108, 0.9560000000000001, 0.21, 192.0, 0.0, 0.0, 0.0, 0.0, 0.0, 0.0, 0.0, 0.0, 0.0, 1.7447429515315068E9, 0.0, 2025-04-15 13:49:11.531
28.0, -21116.65411194016, 13433.621935084098, 26344.3695121252, -13221.727397647786, -49855.27543488448, 38858.12775589559, -23310.410774995184, 63507.408023763666, -5493.701159203191, -20387.316690363492, -9730.83194861793, 8893.200325155298, 4879.475221571353, 4456.02142286556, 13567.285366926833, -187500.02235174447, -0.108, 0.9560000000000001, 0.2, 192.0, 126.0, 80.0, 14.5, 112.0, 3.0, 32.0, 0.0, 0.0, 0.0, 1.744742951540491E9, 0.0, 2025-04-15 13:49:11.540
30.0, -21122.242048053988, 13440.640382843065, 26360.373361155198, -13228.432920984378, -49854.7166412731, 38869.661256034524, -23285.153303760686, 63506.201029563075, -5482.592342208904, -20379.158303637305, -9738.766817899565, 8891.836868743523, 4881.419823338964, 4443.616204692866, 13528.10275889668, -187500.02235174447, -0.108, 0.9560000000000001, 0.2, 192.0, 0.0, 0.0, 0.0, 0.0, 0.0, 0.0, 0.0, 0.0, 0.0, 1.744742951548542E9, 0.0, 2025-04-15 13:49:11.548
32.0, -21116.788222406893, 13460.466380174921, 26340.949695223535, -13229.416397740413, -49831.09084738384, 38864.430947831985, -23319.351472777307, 63516.10285235678, -5497.076272615943, -20404.46047836071, -9731.860128862874, 8886.830077985534, 4880.72691926085, 4443.59385294841, 13573.342689674222, -187500.02235174447, -0.108, 0.9560000000000001, 0.2, 192.0, 0.0, 0.0, 0.0, 0.0, 0.0, 0.0, 0.0, 0.0, 0.0, 1.7447429515565772E9, 0.0, 2025-04-15 13:49:11.556
34.0, -21104.159486789642, 13451.99506902636, 26365.31309667982, -13211.289132987158, -49902.0799877739, 38871.78467175778, -23278.693649613102, 63472.31578496883, -5488.806127167479, -20370.307012833004, -9749.227434304648, 8897.916543235367, 4865.7288987313395, 4435.97190808915, 13514.870526179138, -187500.02235174447, -0.108, 0.9560000000000001, 0.2, 192.0, 0.0, 0.0, 0.0, 0.0, 0.0, 0.0, 0.0, 0.0, 0.0, 1.7447429515646217E9, 0.0, 2025-04-15 13:49:11.564
36.0, -21097.40925996414, 13488.562522955242, 26358.205241943033, -13210.797394609142, -49847.92171095869, 38886.91680275402, -23290.003632307486, 63515.164079089656, -5477.898475873289, -20379.158303637305, -9720.058407790471, 8903.727996793747, 4890.673445543462, 4467.823143937962, 13581.724593844963, -187500.02235174447, -0.108, 0.9560000000000001, 0.2, 192.0, 0.0, 0.0, 0.0, 0.0, 0.0, 0.0, 0.0, 0.0, 0.0, 1.7447429515726469E9, 0.0, 2025-04-15 13:49:11.572
38.0, -21102.863085611236, 13453.067952760215, 26363.83788154577, -13211.177374264882, -49949.823313930436, 38871.94113396897, -23271.9434227876, 63462.592776130776, -5473.137554304309, -20365.21081509719, -9738.87857662184, 8897.402453112896, 4877.217695381367, 4444.107943070882, 13524.571183272743, -187500.02235174447, -0.098, 0.962, 0.194, 192.0, 126.0, 120.0, 15.0, 8.0, 3.0, 8.0, 0.0, 0.0, 0.0, 1.7447429515797074E9, 0.0, 2025-04-15 13:49:11.579
40.0, -21111.267341526433, 13492.563485212742, 26353.77959654088, -13218.396987723945, -49867.43478386817, 38885.88862250908, -23305.60514993729, 63525.93761991712, -5488.962589378666, -20382.019326927584, -9719.723131623643, 8904.286790405129, 4884.146736162512, 4461.676414212753, 13582.149276989614, -187500.02235174447, -0.098, 0.962, 0.194, 192.0, 0.0, 0.0, 0.0, 0.0, 0.0, 0.0, 0.0, 0.0, 0.0, 1.7447429515877347E9, 0.0, 2025-04-15 13:49:11.587
42.0, -21102.684271655595, 13444.95426952294, 26365.60366935774, -13207.42228119639, -49998.192488931716, 38862.64280827556, -23292.104696286286, 63455.88725279418, -5475.998577594588, -20374.03975415704, -9741.538434212021, 8893.312083877574, 4870.4898203003195, 4435.16724528876, 13522.492471038398, -187500.02235174447, -0.098, 0.962, 0.194, 192.0, 0.0, 0.0, 0.0, 0.0, 0.0, 0.0, 0.0, 0.0, 0.0, 1.7447429515967722E9, 0.0, 2025-04-15 13:49:11.596
44.0, -21107.825172880315, 13501.235962061402, 26362.20620420053, -13216.698255145342, -49883.326874175895, 38881.55238408475, -23301.60418767979, 63529.692712985605, -5475.305673516474, -20370.84345469993, -9711.609448386365, 8911.014665486176, 4897.043692713224, 4464.492734014122, 13576.248416453413, -187500.02235174447, -0.098, 0.962, 0.194, 192.0, 0.0, 0.0, 0.0, 0.0, 0.0, 0.0, 0.0, 0.0, 0.0, 1.744742951604828E9, 0.0, 2025-04-15 13:49:11.604
46.0, -21101.633739666195, 13446.161263723525, 26362.385018156176, -13214.463080699812, -50027.98736429064, 38847.95771216843, -23299.480771956536, 63439.48107236398, -5487.107394588876, -20369.56940526598, -9743.59479470191, 8891.836868743523, 4874.468430813365, 4432.820312120952, 13513.372959300634, -187500.02235174447, -0.098, 0.962, 0.194, 192.0, 0.0, 0.0, 0.0, 0.0, 0.0, 0.0, 0.0, 0.0, 0.0, 1.7447429516118875E9, 0.0, 2025-04-15 13:49:11.611
48.0, -21107.02051007992, 13508.34381679819, 26369.179948470588, -13215.267743500202, -49883.21511545362, 38888.70494231045, -23305.694556915114, 63530.92205893065, -5472.8916851153, -20373.41390531229, -9715.811576343964, 8900.911676992378, 4898.384797380543, 4458.524818244555, 13566.078372726248, -187500.02235174447, -0.1, 0.963, 0.193, 192.0, 126.0, 104.0, 15.0, 16.0, 3.0, 0.0, 0.0, 0.0, 0.0, 1.7447429516198883E9, 0.0, 2025-04-15 13:49:11.619
50.0, -21096.001100063455, 13455.303127205745, 26370.386942671175, -13209.880973086474, -50028.76967534658, 38851.086956392166, -23307.773269149457, 63442.94559275456, -5480.1336503188195, -20358.438236527236, -9735.347000997901, 8896.106051934488, 4873.037919168225, 4439.123504057348, 13522.067787893748, -187500.02235174447, -0.1, 0.963, 0.193, 192.0, 0.0, 0.0, 0.0, 0.0, 0.0, 0.0, 0.0, 0.0, 0.0, 1.7447429516289227E9, 0.0, 2025-04-15 13:49:11.628
52.0, -21107.154620546655, 13515.608133746164, 26373.538538639372, -13228.343514006558, -49868.708833302124, 38882.58056432969, -23312.668301185167, 63549.541062061915, -5488.470851000649, -20368.74239072113, -9718.247916489592, 8905.739653794724, 4892.036901955235, 4449.829989651441, 13563.083238969237, -187500.02235174447, -0.1, 0.963, 0.193, 192.0, 0.0, 0.0, 0.0, 0.0, 0.0, 0.0, 0.0, 0.0, 0.0, 1.7447429516359675E9, 0.0, 2025-04-15 13:49:11.635
54.0, -21091.64250989467, 13454.923147550006, 26369.26935544841, -13211.646760898444, -50061.246760040136, 38837.60885448562, -23320.491411744526, 63433.89313625016, -5475.216266538652, -20353.051466113506, -9735.704628909187, 8895.90488623439, 4878.447041326409, 4426.651230651287, 13520.011427403859, -187500.02235174447, -0.1, 0.963, 0.193, 192.0, 0.0, 0.0, 0.0, 0.0, 0.0, 0.0, 0.0, 0.0, 0.0, 1.7447429516440322E9, 0.0, 2025-04-15 13:49:11.644
56.0, -21103.31012050034, 13516.636313991108, 26382.36747769922, -13212.362016721014, -49940.860264403855, 38889.1296254551, -23283.36516420426, 63530.38561706372, -5477.742013662102, -20367.535396520543, -9718.314971722957, 8897.938894979823, 4896.641361313029, 4451.64048095232, 13555.193073176513, -187500.02235174447, -0.1, 0.963, 0.193, 192.0, 0.0, 0.0, 0.0, 0.0, 0.0, 0.0, 0.0, 0.0, 0.0, 1.7447429516520584E9, 0.0, 2025-04-15 13:49:11.652
58.0, -21103.37717573371, 13462.813313342729, 26366.587146113772, -13208.338702719058, -50091.667484243815, 38855.69141574996, -23301.492428957514, 63461.542244141376, -5471.505876959071, -20341.07093108546, -9726.629820660331, 8900.688159547826, 4884.951398962903, 4445.180826804737, 13545.291250382812, -187500.02235174447, -0.1, 0.9644999999999999, 0.1925, 192.0, 126.0, 112.0, 15.0, 24.0, 3.0, 0.0, 0.0, 0.0, 0.0, 1.7447429516610882E9, 0.0, 2025-04-15 13:49:11.661
60.0, -21117.168202062632, 13517.57508725823, 26376.488968907473, -13213.077272543584, -49958.272273334536, 38901.89247153908, -23281.68878337011, 63566.5060361035, -5497.053920871487, -20365.322573819467, -9730.630782917831, 8894.943761222812, 4879.184648893434, 4444.979661104639, 13552.376753375143, -187500.02235174447, -0.1, 0.9644999999999999, 0.1925, 192.0, 0.0, 0.0, 0.0, 0.0, 0.0, 0.0, 0.0, 0.0, 0.0, 1.7447429516681454E9, 0.0, 2025-04-15 13:49:11.668
62.0, -21106.372309490718, 13465.249653488358, 26364.46373039052, -13212.250257998736, -50106.9784291957, 38861.65933151953, -23297.08913529982, 63483.24578800748, -5490.460156257172, -20357.745332449118, -9738.051562076995, 8890.831040243034, 4874.4237273244535, 4439.749352902098, 13548.711067284474, -187500.02235174447, -0.1, 0.9644999999999999, 0.1925, 192.0, 0.0, 0.0, 0.0, 0.0, 0.0, 0.0, 0.0, 0.0, 0.0, 1.7447429516761656E9, 0.0, 2025-04-15 13:49:11.676
64.0, -21112.072004326823, 13519.25146809238, 26391.79991385936, -13206.684673629365, -50009.14484371482, 38905.044067507275, -23267.204852963074, 63548.222309139055, -5491.443633013205, -20358.304126060502, -9735.704628909187, 8890.495764076206, 4883.789108251227, 4449.5617687179765, 13553.15906443108, -187500.02235174447, -0.1, 0.9644999999999999, 0.1925, 192.0, 0.0, 0.0, 0.0, 0.0, 0.0, 0.0, 0.0, 0.0, 0.0, 1.7447429516842227E9, 0.0, 2025-04-15 13:49:11.684
66.0, -21111.93789386009, 13481.09704030717, 26361.200375700042, -13209.411586452912, -50120.41182761334, 38869.7730147568, -23302.498257458003, 63474.260386736445, -5493.634103969825, -20349.20696606719, -9734.341172497412, 8898.587095569026, 4877.217695381367, 4447.907739628285, 13561.608023835186, -187500.02235174447, -0.1, 0.9644999999999999, 0.1925, 192.0, 0.0, 0.0, 0.0, 0.0, 0.0, 0.0, 0.0, 0.0, 0.0, 1.7447429516922696E9, 0.0, 2025-04-15 13:49:11.692
68.0, -21111.066175826334, 13524.526479783832, 26383.79798934436, -13203.689539872354, -50050.00383257912, 38904.82055006272, -23281.55467290338, 63509.01734936445, -5510.777891967045, -20366.060181386492, -9741.11375106737, 8892.462717588272, 4869.171067377457, 4452.445143752711, 13535.3447241002, -187500.02235174447, -0.10400000000000001, 0.9622499999999999, 0.19225, 192.0, 126.0, 80.0, 15.0, 0.0, 3.0, 0.0, 0.0, 0.0, 0.0, 1.7447429517002969E9, 0.0, 2025-04-15 13:49:11.700
70.0, -21112.60844619375, 13504.275799307323, 26357.825262287293, -13203.935409061361, -50113.90746997684, 38873.393997358566, -23305.046356325907, 63457.92126153962, -5489.677845201236, -20333.11371005937, -9727.792111372008, 8909.338284652029, 4869.036956910724, 4462.88340841334, 13558.724648800451, -187500.02235174447, -0.10400000000000001, 0.9622499999999999, 0.19225, 192.0, 0.0, 0.0, 0.0, 0.0, 0.0, 0.0, 0.0, 0.0, 0.0, 1.7447429517093322E9, 0.0, 2025-04-15 13:49:11.709
72.0, -21117.771699162924, 13529.421511819544, 26380.154654998143, -13201.320254960092, -50067.393489765345, 38898.91968952653, -23271.45168440958, 63469.70063086756, -5516.768159481068, -20335.058311826982, -9744.734733669131, 8902.029264215143, 4864.365442319566, 4452.534550730533, 13530.62850602013, -187500.02235174447, -0.10400000000000001, 0.9622499999999999, 0.19225, 192.0, 0.0, 0.0, 0.0, 0.0, 0.0, 0.0, 0.0, 0.0, 0.0, 1.7447429517164297E9, 0.0, 2025-04-15 13:49:11.716
74.0, -21110.485030470496, 13522.112491382659, 26366.140111224668, -13202.460193927313, -50100.51877504811, 38880.166575928524, -23307.125068560254, 63427.38877861366, -5485.341606776907, -20353.632611469344, -9725.892213093306, 8904.040921216121, 4881.978616950348, 4467.2867020710355, 13572.06864024027, -187500.02235174447, -0.10400000000000001, 0.9622499999999999, 0.19225, 192.0, 0.0, 0.0, 0.0, 0.0, 0.0, 0.0, 0.0, 0.0, 0.0, 1.7447429517244895E9, 0.0, 2025-04-15 13:49:11.724
76.0, -21119.157507319156, 13528.236869363413, 26389.31887022482, -13196.827554324575, -50089.49936503165, 38894.73991331338, -23265.93080352912, 63416.32466510829, -5482.681749186725, -20329.045692568507, -9730.45196896219, 8920.782377813146, 4876.100108158602, 4470.483001528144, 13535.3447241002, -187500.02235174447, -0.10400000000000001, 0.9622499999999999, 0.19225, 192.0, 0.0, 0.0, 0.0, 0.0, 0.0, 0.0, 0.0, 0.0, 0.0, 1.74474295173245E9, 0.0, 2025-04-15 13:49:11.732
78.0, -21123.69491144358, 13534.763578744361, 26365.51426237992, -13202.057862527117, -50059.65978618381, 38878.490195094375, -23305.046356325907, 63426.785281513374, -5502.641856985314, -20345.049541598506, -9720.01370430156, 8904.309142149585, 4883.409128595487, 4468.1137166158815, 13578.863570554682, -187500.02235174447, -0.10400000000000001, 0.960125, 0.190125, 192.0, 126.0, 96.0, 14.5, 120.0, 2.5, 112.0, 0.0, 0.0, 0.0, 1.7447429517394807E9, 0.0, 2025-04-15 13:49:11.739
80.0, -21116.207077051055, 13530.360285086666, 26382.389829443673, -13185.629330352465, -50098.30595234704, 38881.9770672294, -23275.251480966985, 63394.37525205318, -5481.541810219504, -20318.272151741046, -9733.335343996923, 8907.103110206499, 4885.085509429635, 4460.514123501078, 13530.717912997952, -187500.02235174447, -0.10400000000000001, 0.960125, 0.190125, 192.0, 0.0, 0.0, 0.0, 0.0, 0.0, 0.0, 0.0, 0.0, 0.0, 1.7447429517485385E9, 0.0, 2025-04-15 13:49:11.748
82.0, -21131.27215281393, 13547.057038194782, 26365.78248331338, -13196.46992641329, -50046.9639953332, 38884.03342771929, -23301.738298146523, 63425.533583823875, -5493.231772569629, -20329.6491896688, -9718.40437870078, 8911.416996886373, 4886.650131541506, 4475.288626586035, 13587.558399147798, -187500.02235174447, -0.10400000000000001, 0.960125, 0.190125, 192.0, 0.0, 0.0, 0.0, 0.0, 0.0, 0.0, 0.0, 0.0, 0.0, 1.7447429517565713E9, 0.0, 2025-04-15 13:49:11.756
84.0, -21122.42086200963, 13516.233982590913, 26382.881567821692, -13188.155077475916, -50112.8792897319, 38869.1248141676, -23265.640230851204, 63381.18772282454, -5497.635066227325, -20337.204079294694, -9745.517044725066, 8897.402453112896, 4869.752212733294, 4452.176922819248, 13535.635296778119, -187500.02235174447, -0.10400000000000001, 0.960125, 0.190125, 192.0, 0.0, 0.0, 0.0, 0.0, 0.0, 0.0, 0.0, 0.0, 0.0, 1.744742951763622E9, 0.0, 2025-04-15 13:49:11.763
86.0, -21123.605504465762, 13553.181416175536, 26372.197433972055, -13194.815897323597, -50049.154466289816, 38872.678741535994, -23288.95310031809, 63421.622028544196, -5498.842060427912, -20323.5471634325, -9719.499614179089, 8908.600677085004, 4899.6588468144955, 4483.447013312222, 13591.179381749556, -187500.02235174447, -0.10400000000000001, 0.960125, 0.190125, 192.0, 0.0, 0.0, 0.0, 0.0, 0.0, 0.0, 0.0, 0.0, 0.0, 1.74474295177167E9, 0.0, 2025-04-15 13:49:11.771
88.0, -21133.686141215105, 13517.753901213873, 26378.612384630727, -13195.41939442389, -50136.41567664334, 38857.01016867282, -23280.70530661408, 63375.957414622004, -5490.28134230153, -20323.345997732402, -9740.823178389452, 8888.70762451978, 4879.29640761571, 4455.97671937665, 13534.204785132979, -187500.02235174447, -0.101, 0.9590625, 0.1910625, 192.0, 126.0, 120.0, 14.5, 120.0, 3.0, 0.0, 0.0, 0.0, 0.0, 1.7447429517807178E9, 0.0, 2025-04-15 13:49:11.780
90.0, -21129.819289424337, 13567.665346582575, 26372.488006649975, -13200.984978793262, -50019.47134965317, 38875.45035784845, -23302.56531269137, 63456.69191559457, -5499.557316250482, -20330.36444549137, -9719.276096734537, 8900.375235125452, 4880.101070416102, 4475.914475430784, 13585.814963080284, -187500.02235174447, -0.101, 0.9590625, 0.1910625, 192.0, 0.0, 0.0, 0.0, 0.0, 0.0, 0.0, 0.0, 0.0, 0.0, 1.7447429517877405E9, 0.0, 2025-04-15 13:49:11.787
92.0, -21108.763946147435, 13531.142596142603, 26381.98749804348, -13186.948083275329, -50154.67705186332, 38845.72253772289, -23289.198969507095, 63373.07403958727, -5483.955798620677, -20311.45486968218, -9735.324649253447, 8901.001083970199, 4868.6122737660735, 4454.613262964876, 13521.82191870474, -187500.02235174447, -0.101, 0.9590625, 0.1910625, 192.0, 0.0, 0.0, 0.0, 0.0, 0.0, 0.0, 0.0, 0.0, 0.0, 1.744742951795777E9, 0.0, 2025-04-15 13:49:11.795
94.0, -21107.69106241358, 13600.92474233207, 26376.444265418562, -13190.792583321641, -50049.020355823086, 38870.60002930165, -23297.51381844447, 63441.00099098695, -5475.37272874984, -20289.751325816076, -9702.378177926324, 8927.353790683006, 4897.222506668867, 4489.504336059611, 13575.77902981985, -187500.02235174447, -0.101, 0.9590625, 0.1910625, 192.0, 0.0, 0.0, 0.0, 0.0, 0.0, 0.0, 0.0, 0.0, 0.0, 1.7447429518038378E9, 0.0, 2025-04-15 13:49:11.803
96.0, -21124.32076028833, 13523.721816983441, 26382.009849787933, -13190.971397277284, -50220.68175323984, 38839.061717875215, -23282.716963615057, 63336.5512891473, -5485.363958521361, -20302.335357944412, -9727.903870094284, 8904.95734273879, 4887.767718764272, 4464.671547969764, 13529.53327054182, -187500.02235174447, -0.101, 0.9590625, 0.1910625, 192.0, 0.0, 0.0, 0.0, 0.0, 0.0, 0.0, 0.0, 0.0, 0.0, 1.744742951812894E9, 0.0, 2025-04-15 13:49:11.812
98.0, -21127.964094634546, 13579.556474632798, 26372.532710138883, -13209.344531219547, -50096.16018487933, 38868.275447878295, -23290.85299859679, 63422.091415177754, -5487.241505055607, -20332.621971681354, -9714.448119932189, 8900.24112465872, 4894.9649804788805, 4471.913513173284, 13576.986024020438, -187500.02235174447, -0.1005, 0.9605312500000001, 0.19053124999999999, 192.0, 126.0, 112.0, 15.0, 8.0, 2.5, 120.0, 0.0, 0.0, 0.0, 1.744742951819902E9, 0.0, 2025-04-15 13:49:11.819
100.0, -21107.445193224572, 13531.097892653692, 26365.17898621309, -13199.50976365921, -50268.15685846291, 38836.468915518395, -23290.696536385603, 63321.016826750856, -5477.585551450915, -20328.911582101773, -9735.481111464633, 8890.696929776303, 4866.287692342722, 4451.1487425743035, 13525.554660028776, -187500.02235174447, -0.1005, 0.9605312500000001, 0.19053124999999999, 192.0, 0.0, 0.0, 0.0, 0.0, 0.0, 0.0, 0.0, 0.0, 0.0, 1.744742951827964E9, 0.0, 2025-04-15 13:49:11.827
102.0, -21097.342204730776, 13608.077300557768, 26388.22363474651, -13195.620560123989, -50145.132856980905, 38882.11117769613, -23278.22426297954, 63409.32856909378, -5462.36401347685, -20311.96895980465, -9703.473413404634, 8914.166261454375, 4900.463509614887, 4484.341083090435, 13571.68866058453, -187500.02235174447, -0.1005, 0.9605312500000001, 0.19053124999999999, 192.0, 0.0, 0.0, 0.0, 0.0, 0.0, 0.0, 0.0, 0.0, 0.0, 1.7447429518360112E9, 0.0, 2025-04-15 13:49:11.836
104.0, -21092.581283161795, 13538.518671812853, 26381.428704432095, -13190.054975754616, -50332.03814411618, 38843.08503187717, -23287.88021658423, 63295.982872960914, -5462.833400110412, -20308.012701036063, -9717.040922289005, 8908.533621851639, 4890.472279843364, 4465.78913519253, 13545.179491660536, -187500.02235174447, -0.1005, 0.9605312500000001, 0.19053124999999999, 192.0, 0.0, 0.0, 0.0, 0.0, 0.0, 0.0, 0.0, 0.0, 0.0, 1.744742951844009E9, 0.0, 2025-04-15 13:49:11.844
106.0, -21096.80576286385, 13603.606951666708, 26397.74547788447, -13187.842153053542, -50228.77308473267, 38887.74381729887, -23252.631515578214, 63376.02446985537, -5461.782868121013, -20302.268302711047, -9698.399567413278, 8915.216793443775, 4911.393512653532, 4488.789080237041, 13571.800419306806, -187500.02235174447, -0.1005, 0.9605312500000001, 0.19053124999999999, 192.0, 0.0, 0.0, 0.0, 0.0, 0.0, 0.0, 0.0, 0.0, 0.0, 1.744742951852088E9, 0.0, 2025-04-15 13:49:11.852
108.0, -21097.476315197506, 13549.515730084864, 26376.42191367411, -13194.145344989938, -50392.87959252353, 38842.146258610046, -23285.063896782864, 63284.65053852207, -5472.109374059364, -20307.006872535574, -9714.06814027645, 8899.235296158231, 4890.002893209803, 4477.009710909094, 13555.908328999083, -187500.02235174447, -0.09525, 0.961265625, 0.188265625, 192.0, 126.5, 24.0, 15.0, 8.0, 2.5, 104.0, 0.0, 0.0, 0.0, 1.744742951860096E9, 0.0, 2025-04-15 13:49:11.860
110.0, -21101.097297799268, 13603.919876089083, 26400.137114541187, -13194.771193834686, -50299.29283848916, 38892.01300048983, -23244.450777107573, 63370.21301629699, -5468.555446690971, -20311.566628404456, -9711.29652396399, 8904.465604360772, 4903.972733494369, 4483.894048201329, 13561.92094825756, -187500.02235174447, -0.09525, 0.961265625, 0.188265625, 192.0, 0.0, 0.0, 0.0, 0.0, 0.0, 0.0, 0.0, 0.0, 0.0, 1.7447429518681571E9, 0.0, 2025-04-15 13:49:11.868
112.0, -21091.776620361405, 13554.835445265227, 26378.165349741623, -13194.100641501027, -50437.8065988787, 38850.662273247515, -23281.599376392292, 63299.827373007225, -5466.409679223261, -20299.943721287695, -9714.58223039892, 8898.318874635563, 4889.578210065152, 4474.685129485742, 13568.648823338608, -187500.02235174447, -0.09525, 0.961265625, 0.188265625, 192.0, 0.0, 0.0, 0.0, 0.0, 0.0, 0.0, 0.0, 0.0, 0.0, 1.7447429518752053E9, 0.0, 2025-04-15 13:49:11.875
114.0, -21090.16729476062, 13602.77993712186, 26403.73574539849, -13186.836324553053, -50376.56281907116, 38891.40950338954, -23250.977486488522, 63359.90886210309, -5463.727469888624, -20294.892227040797, -9708.860183818362, 8913.562764354083, 4893.8473932561155, 4479.781327221552, 13559.574015089753, -187500.02235174447, -0.09525, 0.961265625, 0.188265625, 192.0, 0.0, 0.0, 0.0, 0.0, 0.0, 0.0, 0.0, 0.0, 0.0, 1.744742951884242E9, 0.0, 2025-04-15 13:49:11.884
116.0, -21093.229483750998, 13572.82859955175, 26373.73970433947, -13193.541847889644, -50490.10968090411, 38853.098613393144, -23292.104696286286, 63306.15291668808, -5456.731373874113, -20291.718279328143, -9699.092471491394, 8914.993275999223, 4893.087433944635, 4490.286647115547, 13575.287291441833, -187500.02235174447, -0.09525, 0.961265625, 0.188265625, 192.0, 0.0, 0.0, 0.0, 0.0, 0.0, 0.0, 0.0, 0.0, 0.0, 1.744742951892255E9, 0.0, 2025-04-15 13:49:11.892
118.0, -21089.630852893693, 13601.483535943455, 26395.73382088349, -13187.305711186615, -50471.58008475067, 38876.9255729825, -23262.868614538744, 63331.34333268921, -5468.734260646613, -20290.466581638644, -9711.564744897454, 8910.9029067639, 4884.526715818252, 4485.346911590924, 13544.665401538063, -187500.02235174447, -0.09525, 0.961265625, 0.188265625, 192.0, 0.0, 0.0, 0.0, 0.0, 0.0, 0.0, 0.0, 0.0, 0.0, 1.7447429518993163E9, 0.0, 2025-04-15 13:49:11.899
120.0, -21090.79314360537, 13587.938378803537, 26371.415122916118, -13194.145344989938, -50535.59548087067, 38849.52233428029, -23309.315539516872, 63305.32590214323, -5459.659452397758, -20296.099221241384, -9697.34903542388, 8913.428653887351, 4885.130212918546, 4487.671493014275, 13576.315471686778, -187500.02235174447, -0.08600000000000001, 0.964, 0.19, 192.0, 126.5, 40.0, 15.0, 16.0, 2.5, 120.0, 0.0, 0.0, 0.0, 1.7447429519073372E9, 0.0, 2025-04-15 13:49:11.907
122.0, -21092.22365525051, 13604.769242378385, 26397.879588351203, -13183.192990206837, -50531.81803605772, 38866.35319785514, -23281.778190347934, 63315.406538892574, -5459.190065764197, -20281.883511767806, -9705.194497727693, 8916.28967717763, 4879.318759360166, 4473.4557835407, 13537.468139823455, -187500.02235174447, -0.08600000000000001, 0.964, 0.19, 192.0, 0.0, 0.0, 0.0, 0.0, 0.0, 0.0, 0.0, 0.0, 0.0, 1.744742951916443E9, 0.0, 2025-04-15 13:49:11.916
124.0, -21091.530751172395, 13604.50102144492, 26377.60655613024, -13187.529228631167, -50564.07160330673, 38843.040328388255, -23313.204743052094, 63300.40851836307, -5468.9801298356215, -20286.10799146986, -9685.614369584844, 8930.661848862392, 4880.838677983127, 4490.308998860001, 13581.12109674467, -187500.02235174447, -0.08600000000000001, 0.964, 0.19, 192.0, 0.0, 0.0, 0.0, 0.0, 0.0, 0.0, 0.0, 0.0, 0.0, 1.7447429519234467E9, 0.0, 2025-04-15 13:49:11.923
126.0, -21084.1770272466, 13608.54668719133, 26401.50057095296, -13174.207588935804, -50586.468051250944, 38857.18898262847, -23280.32532695834, 63293.613588048654, -5459.0559552974655, -20287.29263392599, -9706.468547161645, 8920.000066757211, 4873.261436612777, 4472.964045162684, 13531.947258942993, -187500.02235174447, -0.08600000000000001, 0.964, 0.19, 192.0, 0.0, 0.0, 0.0, 0.0, 0.0, 0.0, 0.0, 0.0, 0.0, 1.7447429519314723E9, 0.0, 2025-04-15 13:49:11.931
128.0, -21073.55994863033, 13627.970353122993, 26396.762001128438, -13168.999632477717, -50592.95005714298, 38858.12775589559, -23294.116353287263, 63292.27248338133, -5444.594376634882, -20267.600747060867, -9679.646453815276, 8943.62586064647, 4898.362445636088, 4511.498452603633, 13585.747907846917, -187500.02235174447, -0.08600000000000001, 0.964, 0.19, 192.0, 0.0, 0.0, 0.0, 0.0, 0.0, 0.0, 0.0, 0.0, 0.0, 1.744742951939521E9, 0.0, 2025-04-15 13:49:11.939
130.0, -21082.321832456808, 13610.156012792113, 26400.94177734158, -13182.455382639811, -50626.27650812585, 38861.10053790815, -23277.08432401232, 63281.81186697625, -5458.251292497074, -20263.845653992375, -9706.4908989061, 8932.472340163273, 4881.889209972526, 4490.487812815644, 13538.67513402404, -187500.02235174447, -0.092, 0.972, 0.192, 192.0, 126.5, 16.0, 15.0, 48.0, 3.0, 0.0, 0.0, 0.0, 0.0, 1.7447429519485593E9, 0.0, 2025-04-15 13:49:11.948
132.0, -21082.724163857005, 13633.781806681372, 26380.668745120616, -13196.5146299022, -50537.85300706065, 38867.20256414444, -23293.982242820533, 63342.98859155043, -5476.646778183792, -20300.793087576996, -9697.885477290807, 8918.793072556624, 4882.358596606087, 4501.663685043298, 13590.285311971345, -187500.02235174447, -0.092, 0.972, 0.192, 192.0, 0.0, 0.0, 0.0, 0.0, 0.0, 0.0, 0.0, 0.0, 0.0, 1.7447429519555984E9, 0.0, 2025-04-15 13:49:11.955
134.0, -21060.864157779713, 13606.490326701443, 26413.212885047542, -13169.536074344645, -50634.25608089639, 38868.0742821782, -23255.738408057503, 63278.39205007459, -5463.571007677438, -20261.342258613382, -9715.386893199313, 8927.331438938552, 4875.429555824942, 4479.446051054722, 13532.997790932393, -187500.02235174447, -0.092, 0.972, 0.192, 192.0, 0.0, 0.0, 0.0, 0.0, 0.0, 0.0, 0.0, 0.0, 0.0, 1.7447429519636805E9, 0.0, 2025-04-15 13:49:11.963
136.0, -21072.040030007367, 13641.828434685283, 26396.963166828536, -13186.635158852954, -50551.241701989384, 38886.40271263155, -23282.851074081787, 63343.1003502727, -5469.695385658191, -20272.741648285588, -9688.20717194166, 8943.089418779542, 4900.977599737358, 4509.933830491761, 13606.713844145996, -187500.02235174447, -0.092, 0.972, 0.192, 192.0, 0.0, 0.0, 0.0, 0.0, 0.0, 0.0, 0.0, 0.0, 0.0, 1.7447429519726937E9, 0.0, 2025-04-15 13:49:11.972
138.0, -21043.653314549127, 13593.034576539349, 26407.84846637827, -13175.928673258863, -50711.5707649673, 38865.72734901039, -23257.683009825112, 63255.23564281889, -5469.9189031027445, -20257.006020189052, -9716.571535655445, 8938.797883844123, 4874.401375579998, 4484.810469723996, 13543.212538148468, -187500.02235174447, -0.092, 0.972, 0.192, 192.0, 0.0, 0.0, 0.0, 0.0, 0.0, 0.0, 0.0, 0.0, 0.0, 1.7447429519797533E9, 0.0, 2025-04-15 13:49:11.979
140.0, -21055.991477488456, 13642.878966674682, 26393.45394294905, -13196.76049909121, -50629.15988316058, 38893.51056736834, -23271.786960576414, 63337.24419322541, -5470.924731603233, -20266.863139493842, -9692.185782454704, 8946.397476958928, 4900.865841015082, 4514.270068916091, 13602.757585377407, -187500.02235174447, -0.096, 0.976, 0.194, 192.0, 126.5, 0.0, 15.0, 64.0, 3.0, 8.0, 0.0, 0.0, 0.0, 1.7447429519877713E9, 0.0, 2025-04-15 13:49:11.987
142.0, -21048.07895995128, 13583.959768290493, 26385.094390522765, -13198.70510085882, -50803.50348991198, 38861.25700011933, -23278.51483565746, 63256.01795387483, -5467.41550772375, -20264.67266853722, -9723.813500858963, 8930.550090140116, 4871.4285935674425, 4490.666626771286, 13540.463273580466, -187500.02235174447, -0.096, 0.976, 0.194, 192.0, 0.0, 0.0, 0.0, 0.0, 0.0, 0.0, 0.0, 0.0, 0.0, 1.744742951995838E9, 0.0, 2025-04-15 13:49:11.995
144.0, -21046.58139307277, 13641.694324218552, 26393.543349926873, -13196.671092113387, -50726.18880584107, 38889.01786673282, -23275.22912922253, 63336.171309491554, -5473.025795582032, -20254.4802730656, -9697.81842205744, 8952.499503195228, 4891.098128688112, 4519.27685967408, 13590.531181160353, -187500.02235174447, -0.096, 0.976, 0.194, 192.0, 0.0, 0.0, 0.0, 0.0, 0.0, 0.0, 0.0, 0.0, 0.0, 1.7447429520048962E9, 0.0, 2025-04-15 13:49:12.004
146.0, -21041.48519533696, 13590.039442782336, 26386.88253007919, -13196.805202580119, -50900.510060848006, 38855.17732562749, -23277.196082734597, 63256.93437539749, -5465.537961189504, -20237.939982168675, -9711.92237280874, 8946.464532192294, 4878.312930859677, 4498.55679256401, 13549.806302762783, -187500.02235174447, -0.096, 0.976, 0.194, 192.0, 0.0, 0.0, 0.0, 0.0, 0.0, 0.0, 0.0, 0.0, 0.0, 1.7447429520118787E9, 0.0, 2025-04-15 13:49:12.011
148.0, -21043.16157617111, 13653.786617968872, 26389.31887022482, -13196.291112457648, -50799.63663812121, 38890.6271923336, -23276.816103078858, 63347.54834741931, -5476.713833417158, -20250.076979407906, -9701.305294192469, 8954.309994496107, 4886.605428052596, 4516.460539872711, 13585.792611335828, -187500.02235174447, -0.096, 0.976, 0.194, 192.0, 0.0, 0.0, 0.0, 0.0, 0.0, 0.0, 0.0, 0.0, 0.0, 1.7447429520199726E9, 0.0, 2025-04-15 13:49:12.019
150.0, -21052.705771053526, 13593.012224794893, 26369.60463161524, -13201.119089259993, -50970.359262270846, 38858.284218106775, -23291.680013141635, 63264.08693362319, -5482.391176508806, -20244.936078183186, -9723.478224692133, 8946.330421725563, 4881.039843683225, 4500.255525142614, 13551.415628363566, -187500.02235174447, -0.092, 0.964, 0.198, 192.0, 126.5, 16.0, 15.0, 16.0, 3.0, 24.0, 0.0, 0.0, 0.0, 1.7447429520279648E9, 0.0, 2025-04-15 13:49:12.027
152.0, -21042.40161685963, 13668.806990242838, 26376.26545146292, -13197.90043805843, -50868.30119708791, 38905.334640185196, -23285.309765971873, 63354.29857424481, -5469.114240302353, -20236.53182226799, -9709.798957085486, 8960.188503287853, 4891.3887013660315, 4521.959069008716, 13578.662404854585, -187500.02235174447, -0.092, 0.964, 0.198, 192.0, 0.0, 0.0, 0.0, 0.0, 0.0, 0.0, 0.0, 0.0, 0.0, 1.7447429520351176E9, 0.0, 2025-04-15 13:49:12.035
154.0, -21039.63000054717, 13615.095748316735, 26368.46469264802, -13190.054975754616, -51022.55058557398, 38874.444529347966, -23285.980318305534, 63278.59321577469, -5477.27262702854, -20240.331618825392, -9723.075893291938, 8946.48688393675, 4881.486878572331, 4510.89495550334, 13555.908328999083, -187500.02235174447, -0.092, 0.964, 0.198, 192.0, 0.0, 0.0, 0.0, 0.0, 0.0, 0.0, 0.0, 0.0, 0.0, 1.7447429520440352E9, 0.0, 2025-04-15 13:49:12.044
156.0, -21044.860308749714, 13681.748650282461, 26392.626928404206, -13177.18037094836, -50923.577061125885, 38929.31806198574, -23243.914335240643, 63358.79127488033, -5476.333853761417, -20215.699996435644, -9697.594904612888, 8971.811410404613, 4899.435329369942, 4545.741325109163, 13586.038480524836, -187500.02235174447, -0.092, 0.964, 0.198, 192.0, 0.0, 0.0, 0.0, 0.0, 0.0, 0.0, 0.0, 0.0, 0.0, 1.7447429520521111E9, 0.0, 2025-04-15 13:49:12.052
158.0, -21016.317131080286, 13637.268678816401, 26379.014716030924, -13168.060859210595, -51089.605818939905, 38883.80991027474, -23270.40115242018, 63256.1297125971, -5466.789658879002, -20209.06152833242, -9702.087605248405, 8965.10588706802, 4888.974712964859, 4532.933775536272, 13582.216332222979, -187500.02235174447, -0.092, 0.964, 0.198, 192.0, 0.0, 0.0, 0.0, 0.0, 0.0, 0.0, 0.0, 0.0, 0.0, 1.744742952059128E9, 0.0, 2025-04-15 13:49:12.059
160.0, -21030.35402659822, 13688.789449785883, 26384.781466100394, -13180.331966916558, -51009.67598076773, 38921.964338059945, -23256.051332479878, 63328.504661143386, -5448.662394125748, -20219.410386015225, -9685.033224229006, 8973.44308774985, 4903.3021811607105, 4538.454656416733, 13583.289215956835, -187500.02235174447, -0.09, 0.9520000000000001, 0.198, 192.0, 126.5, 24.0, 14.5, 96.0, 3.0, 24.0, 0.0, 0.0, 0.0, 1.7447429520671754E9, 0.0, 2025-04-15 13:49:12.067
162.0, -21018.93228518156, 13649.808007455827, 26355.970067497503, -13179.147324460428, -51143.33941261046, 38877.68553229398, -23289.601300907292, 63257.269651564326, -5462.408716965761, -20207.675720176187, -9694.420956900234, 8970.157381314919, 4886.113689674579, 4535.638336615364, 13581.031689766847, -187500.02235174447, -0.09, 0.9520000000000001, 0.198, 192.0, 0.0, 0.0, 0.0, 0.0, 0.0, 0.0, 0.0, 0.0, 0.0, 1.7447429520761988E9, 0.0, 2025-04-15 13:49:12.076
164.0, -21030.063453920302, 13684.94494973957, 26366.18481471358, -13180.868408783486, -51079.45812695719, 38915.34822170118, -23264.27677443943, 63321.933248273526, -5460.777039620524, -20203.27242651849, -9696.767890068042, 8980.05920410862, 4893.579172322652, 4540.3098512065235, 13565.027840736848, -187500.02235174447, -0.09, 0.9520000000000001, 0.198, 192.0, 0.0, 0.0, 0.0, 0.0, 0.0, 0.0, 0.0, 0.0, 0.0, 1.7447429520842676E9, 0.0, 2025-04-15 13:49:12.084
166.0, -21033.572677799784, 13655.775923225394, 26344.436567358563, -13190.390251921446, -51162.6289680754, 38876.90322123805, -23299.011385322978, 63285.14227690009, -5469.047185068987, -20215.56588596891, -9698.77954706902, 8967.274006280186, 4880.212829138378, 4542.992060541161, 13583.3562711902, -187500.02235174447, -0.09, 0.9520000000000001, 0.198, 192.0, 0.0, 0.0, 0.0, 0.0, 0.0, 0.0, 0.0, 0.0, 0.0, 1.744742952091288E9, 0.0, 2025-04-15 13:49:12.091
168.0, -21035.383169100664, 13681.636891560185, 26369.69403859306, -13184.444687896335, -51118.64073498735, 38896.997439503364, -23267.27190819644, 63334.00319027939, -5478.837249140412, -20217.06345284742, -9710.514212908056, 8958.959157342812, 4873.44025056842, 4518.494548618144, 13553.427285364543, -187500.02235174447, -0.09, 0.9520000000000001, 0.198, 192.0, 0.0, 0.0, 0.0, 0.0, 0.0, 0.0, 0.0, 0.0, 0.0, 1.7447429520993252E9, 0.0, 2025-04-15 13:49:12.099
170.0, -21018.64171250364, 13668.047030931359, 26366.274221691398, -13179.504952371712, -51176.37529091541, 38876.85851774913, -23284.818027593858, 63302.129602686124, -5469.427164724728, -20216.795231913955, -9689.324759164425, 8968.860980136513, 4881.084547172135, 4534.744266837152, 13585.54674214682, -187500.02235174447, -0.084, 0.9560000000000001, 0.194, 192.0, 126.5, 48.0, 14.5, 112.0, 3.0, 8.0, 0.0, 0.0, 0.0, 1.744742952108359E9, 0.0, 2025-04-15 13:49:12.108
172.0, -21034.600858044727, 13674.439629845576, 26390.257643491943, -13176.912150014896, -51177.89520953837, 38897.19860520346, -23251.715094055548, 63315.51829761485, -5452.0151557940435, -20203.495943963044, -9696.097337734382, 8974.87359939499, 4889.980541465347, 4523.389580653856, 13560.915119757072, -187500.02235174447, -0.084, 0.9560000000000001, 0.194, 192.0, 0.0, 0.0, 0.0, 0.0, 0.0, 0.0, 0.0, 0.0, 0.0, 1.7447429521154833E9, 0.0, 2025-04-15 13:49:12.115
174.0, -21040.166442414098, 13681.078097948803, 26364.329619923785, -13180.80135355012, -51173.26839843612, 38881.619439318114, -23284.885082827223, 63327.498832642894, -5493.56704873646, -20227.90404890824, -9695.002102256072, 8959.897930609934, 4879.028186682247, 4530.072752245993, 13609.306646502811, -187500.02235174447, -0.084, 0.9560000000000001, 0.194, 192.0, 0.0, 0.0, 0.0, 0.0, 0.0, 0.0, 0.0, 0.0, 0.0, 1.7447429521234431E9, 0.0, 2025-04-15 13:49:12.123
176.0, -21029.97404694248, 13678.909978736638, 26374.231442717486, -13164.059896953095, -51213.5909454335, 38889.50960511084, -23259.247631936985, 63302.30841664177, -5485.833345154923, -20207.496906220545, -9713.241125731603, 8972.526666227182, 4861.794991707206, 4524.618926598898, 13553.024953964348, -187500.02235174447, -0.084, 0.9560000000000001, 0.194, 192.0, 0.0, 0.0, 0.0, 0.0, 0.0, 0.0, 0.0, 0.0, 0.0, 1.7447429521314824E9, 0.0, 2025-04-15 13:49:12.131
178.0, -21014.216067101486, 13700.971150514026, 26365.17898621309, -13158.94134747283, -51196.11188126945, 38895.544576113774, -23273.955079788575, 63302.084899197216, -5478.099641573387, -20196.253978759527, -9687.15663995226, 8985.49067801126, 4886.896000730515, 4549.921101322306, 13608.345521491234, -187500.02235174447, -0.084, 0.9560000000000001, 0.194, 192.0, 0.0, 0.0, 0.0, 0.0, 0.0, 0.0, 0.0, 0.0, 0.0, 1.7447429521405473E9, 0.0, 2025-04-15 13:49:12.140
180.0, -21017.725290980972, 13682.41920261612, 26371.772750827404, -13155.856806737997, -51257.28860584362, 38897.1315499701, -23256.744236557992, 63259.23660507639, -5471.081193814421, -20190.53193217897, -9702.15466048177, 8981.065032609109, 4877.620026781563, 4531.860891802417, 13557.338840644223, -187500.02235174447, -0.084, 0.962, 0.195, 192.0, 126.5, 48.0, 15.0, 32.0, 3.0, 16.0, 0.0, 0.0, 0.0, 1.7447429521475732E9, 0.0, 2025-04-15 13:49:12.147
182.0, -21033.103291166222, 13722.272362979933, 26351.58912558426, -13171.525379601168, -51143.20530214373, 38911.99546003288, -23285.019193293952, 63333.24323096791, -5483.8887433873115, -20210.067356832908, -9687.380157396812, 8972.794887160646, 4884.72788151835, 4552.357441467934, 13614.827527383271, -187500.02235174447, -0.084, 0.962, 0.195, 192.0, 0.0, 0.0, 0.0, 0.0, 0.0, 0.0, 0.0, 0.0, 0.0, 1.7447429521556044E9, 0.0, 2025-04-15 13:49:12.155
184.0, -21032.388035343654, 13687.09071720728, 26362.250907689442, -13164.79750452012, -51214.127387300425, 38896.88568078109, -23277.441951923603, 63284.7846489888, -5484.961627121166, -20193.124734535784, -9715.766872855052, 8970.313843526106, 4869.3722330775545, 4530.653897601831, 13549.672192296051, -187500.02235174447, -0.084, 0.962, 0.195, 192.0, 0.0, 0.0, 0.0, 0.0, 0.0, 0.0, 0.0, 0.0, 0.0, 1.744742952165671E9, 0.0, 2025-04-15 13:49:12.165
186.0, -21017.39001481414, 13742.701857412083, 26376.1760444851, -13161.80237076311, -51131.22476711569, 38916.62227113513, -23271.630498365226, 63333.802024579294, -5476.937350861711, -20197.10334504883, -9683.96034049515, 8983.009634376722, 4896.060215957191, 4558.258302004136, 13609.999550580926, -187500.02235174447, -0.084, 0.962, 0.195, 192.0, 0.0, 0.0, 0.0, 0.0, 0.0, 0.0, 0.0, 0.0, 0.0, 1.744742952171704E9, 0.0, 2025-04-15 13:49:12.171
188.0, -21030.77870974287, 13687.671862563118, 26371.593936871763, -13175.79456279213, -51248.10203887249, 38887.38618938759, -23270.691725098102, 63256.46498876393, -5476.982054350621, -20181.635937885756, -9703.048730259983, 8977.354643029528, 4876.256570369789, 4538.342897694457, 13562.92677675805, -187500.02235174447, -0.084, 0.962, 0.195, 192.0, 0.0, 0.0, 0.0, 0.0, 0.0, 0.0, 0.0, 0.0, 0.0, 1.7447429521797495E9, 0.0, 2025-04-15 13:49:12.179
190.0, -21040.21114590301, 13731.078950295325, 26360.082788477277, -13192.692481600343, -51142.400639343345, 38903.61355586214, -23274.13389374422, 63323.810794807774, -5501.904249418289, -20210.268522533002, -9701.640570359299, 8958.757991642713, 4880.101070416102, 4546.814208843018, 13601.058852798802, -187500.02235174447, -0.082, 0.964, 0.1945, 192.0, 126.5, 64.0, 15.0, 24.0, 3.0, 8.0, 0.0, 0.0, 0.0, 1.7447429521877756E9, 0.0, 2025-04-15 13:49:12.187
192.0, -21053.376323387187, 13663.531978551386, 26353.287858162865, -13197.855734569519, -51254.96402442027, 38870.55532581274, -23277.66546936816, 63244.41739850252, -5494.975208637144, -20207.09457482035, -9730.4966724511, 8940.362505955996, 4865.863009198071, 4510.358513636412, 13548.755770773385, -187500.02235174447, -0.082, 0.964, 0.1945, 192.0, 0.0, 0.0, 0.0, 0.0, 0.0, 0.0, 0.0, 0.0, 0.0, 1.7447429521958187E9, 0.0, 2025-04-15 13:49:12.195
194.0, -21056.527919355383, 13725.446310692587, 26362.116797222712, -13195.32998744607, -51106.23551681465, 38908.86621580913, -23268.7918268194, 63327.029446009336, -5497.568010993959, -20212.548400467444, -9715.83392808842, 8947.693878137336, 4878.894076215515, 4537.292365705057, 13593.54866666182, -187500.02235174447, -0.082, 0.964, 0.1945, 192.0, 0.0, 0.0, 0.0, 0.0, 0.0, 0.0, 0.0, 0.0, 0.0, 1.7447429522028725E9, 0.0, 2025-04-15 13:49:12.202
196.0, -21055.03035247688, 13666.840036730771, 26350.94092499506, -13200.113260759505, -51218.12834955792, 38867.69430252246, -23278.55953914637, 63232.61567743012, -5517.058732158987, -20215.454127246634, -9741.203158045193, 8932.137063996443, 4855.827075937638, 4512.3701706373895, 13554.768390031863, -187500.02235174447, -0.082, 0.964, 0.1945, 192.0, 0.0, 0.0, 0.0, 0.0, 0.0, 0.0, 0.0, 0.0, 0.0, 1.7447429522119052E9, 0.0, 2025-04-15 13:49:12.211
198.0, -21058.36076240072, 13734.230546263523, 26367.50356763644, -13194.413565923402, -51054.71474584517, 38920.0867915257, -23250.329285899315, 63326.761225075876, -5499.80318543949, -20213.91185687922, -9716.236259488614, 8952.186578772853, 4881.196305894412, 4543.975537297194, 13590.754698604906, -187500.02235174447, -0.082, 0.964, 0.1945, 192.0, 0.0, 0.0, 0.0, 0.0, 0.0, 0.0, 0.0, 0.0, 0.0, 1.74474295221996E9, 0.0, 2025-04-15 13:49:12.219
200.0, -21044.63679130516, 13671.668013533117, 26362.20620420053, -13182.455382639811, -51176.59880835996, 38875.49506133736, -23271.02700126493, 63229.79935762875, -5507.492185532115, -20203.406536985225, -9732.709495152176, 8939.9601745558, 4862.554951018686, 4525.937679521761, 13571.308680928789, -187500.02235174447, -0.083, 0.964, 0.19425, 192.0, 126.5, 48.0, 15.0, 16.0, 3.0, 8.0, 0.0, 0.0, 0.0, 1.74474295222698E9, 0.0, 2025-04-15 13:49:12.226
202.0, -21049.040084962857, 13728.799072360884, 26392.04578304837, -13173.380574390958, -51051.093763243414, 38917.58339614671, -23246.954172486567, 63310.466803367955, -5491.264819057563, -20199.450278216635, -9704.434538416212, 8957.573349186581, 4894.763814778783, 4539.885168061873, 13597.080242285758, -187500.02235174447, -0.083, 0.964, 0.19425, 192.0, 0.0, 0.0, 0.0, 0.0, 0.0, 0.0, 0.0, 0.0, 0.0, 1.7447429522350562E9, 0.0, 2025-04-15 13:49:12.235
204.0, -21048.615401818206, 13677.144190924668, 26369.492872892963, -13173.671147068877, -51145.485180078176, 38874.13160492559, -23273.597451877293, 63257.269651564326, -5511.157871622786, -20210.983778355574, -9715.766872855052, 8947.112732781497, 4867.382927821031, 4523.546042865043, 13590.97821604946, -187500.02235174447, -0.083, 0.964, 0.19425, 192.0, 0.0, 0.0, 0.0, 0.0, 0.0, 0.0, 0.0, 0.0, 0.0, 1.7447429522440674E9, 0.0, 2025-04-15 13:49:12.244
206.0, -21050.180023930076, 13736.733941642517, 26400.137114541187, -13156.974393960762, -51028.85377751038, 38925.94294857299, -23240.896849739176, 63349.4035422091, -5487.599132966892, -20203.09361256285, -9696.991407512594, 8966.558750457616, 4883.185611150934, 4548.065906532515, 13601.796460365827, -187500.02235174447, -0.083, 0.964, 0.19425, 192.0, 0.0, 0.0, 0.0, 0.0, 0.0, 0.0, 0.0, 0.0, 0.0, 1.7447429522511137E9, 0.0, 2025-04-15 13:49:12.251
208.0, -21057.399637389142, 13684.475563106009, 26377.114817752223, -13159.433085850846, -51133.12466539439, 38888.213203932435, -23268.74712333049, 63289.411460091054, -5496.293961560007, -20192.253016502025, -9701.260590703558, 8968.793924903146, 4870.556875533685, 4546.545987909554, 13607.205582524013, -187500.02235174447, -0.083, 0.964, 0.19425, 192.0, 0.0, 0.0, 0.0, 0.0, 0.0, 0.0, 0.0, 0.0, 0.0, 1.7447429522591624E9, 0.0, 2025-04-15 13:49:12.259
210.0, -21075.862178309224, 13713.041092519892, 26401.411163975143, -13153.487521825735, -51049.9985277651, 38929.11689628565, -23233.006683946453, 63358.32188824676, -5497.143327849309, -20201.6183974288, -9702.981675026616, 8965.48586672376, 4876.413032580976, 4543.841426830462, 13601.237666754445, -187500.02235174447, -0.0835, 0.963, 0.193125, 192.0, 126.5, 48.0, 15.0, 8.0, 3.0, 0.0, 0.0, 0.0, 0.0, 1.7447429522672029E9, 0.0, 2025-04-15 13:49:12.267
212.0, -21117.458774740553, 13641.917841663104, 26359.613401843715, -13178.007385493207, -51136.812703229516, 38886.78269228729, -23271.60814662077, 63300.40851836307, -5510.733188478135, -20225.065377362418, -9707.787300084508, 8947.805636859614, 4870.355709833588, 4542.097990762948, 13610.245419769934, -187500.02235174447, -0.0835, 0.963, 0.193125, 192.0, 0.0, 0.0, 0.0, 0.0, 0.0, 0.0, 0.0, 0.0, 0.0, 1.744742952276219E9, 0.0, 2025-04-15 13:49:12.276
214.0, -21173.941632979113, 13618.73908266295, 26366.31892518031, -13185.338757674546, -51077.49117344513, 38912.17427398852, -23248.384684131706, 63338.428835681545, -5550.139313952842, -20250.702828252655, -9741.203158045193, 8926.10209299351, 4857.7493259607945, 4522.8754905313845, 13571.398087906611, -187500.02235174447, -0.0835, 0.963, 0.193125, 192.0, 0.0, 0.0, 0.0, 0.0, 0.0, 0.0, 0.0, 0.0, 0.0, 1.7447429522832465E9, 0.0, 2025-04-15 13:49:12.283
216.0, -21241.399197745228, 13513.887049423105, 26341.530840579373, -13203.555429405622, -51132.72233399419, 38881.3288666402, -23280.75001010299, 63289.14323915759, -5561.29283443604, -20274.19451167518, -9749.920338382763, 8904.175031682853, 4859.224541094844, 4535.32541219299, 13592.989873050437, -187500.02235174447, -0.0835, 0.963, 0.193125, 192.0, 0.0, 0.0, 0.0, 0.0, 0.0, 0.0, 0.0, 0.0, 0.0, 1.7447429522923102E9, 0.0, 2025-04-15 13:49:12.292
218.0, -21304.386413620283, 13450.966888781417, 26349.711579050017, -13199.174487492382, -51108.78361568256, 38904.68643959599, -23257.615954591747, 63291.579579303216, -5593.389939473861, -20304.145849245295, -9788.901780712817, 8870.490952788705, 4846.886378155516, 4508.4362636132555, 13559.775180789851, -187500.02235174447, -0.0835, 0.963, 0.193125, 192.0, 0.0, 0.0, 0.0, 0.0, 0.0, 0.0, 0.0, 0.0, 0.0, 1.7447429523003933E9, 0.0, 2025-04-15 13:49:12.300
220.0, -21346.474748429628, 13375.21682682238, 26331.22668638548, -13204.158926505916, -51142.0206596876, 38888.347314399165, -23270.17763497563, 63253.067523606725, -5619.809701420034, -20333.292524015014, -9796.434318594256, 8849.502664745172, 4853.8154189366605, 4520.014467241105, 13595.515620173886, -187500.02235174447, -0.07975, 0.9635, 0.1935625, 192.0, 126.5, 80.0, 15.0, 16.0, 3.0, 8.0, 0.0, 0.0, 0.0, 1.744742952307459E9, 0.0, 2025-04-15 13:49:12.307
222.0, -21406.064499147476, 13328.30051521069, 26333.238343386456, -13212.362016721014, -51122.68640073376, 38907.86038730865, -23241.992085217487, 63262.94699465597, -5635.880605683399, -20345.429521254246, -9818.361379904913, 8830.593088935982, 4848.316889800655, 4507.385731623856, 13560.78100929034, -187500.02235174447, -0.07975, 0.9635, 0.1935625, 192.0, 0.0, 0.0, 0.0, 0.0, 0.0, 0.0, 0.0, 0.0, 0.0, 1.7447429523154929E9, 0.0, 2025-04-15 13:49:12.315
224.0, -21398.733126966137, 13318.711616839364, 26322.10717464771, -13219.693388902353, -51100.647580700825, 38894.136416213085, -23268.300088441385, 63260.48830276589, -5666.256626398162, -20369.144722121328, -9818.5178421161, 8813.069321283021, 4844.785314176716, 4510.984362481161, 13603.338730733245, -187500.02235174447, -0.07975, 0.9635, 0.1935625, 192.0, 0.0, 0.0, 0.0, 0.0, 0.0, 0.0, 0.0, 0.0, 0.0, 1.7447429523235097E9, 0.0, 2025-04-15 13:49:12.323
226.0, -21383.243368058607, 13303.937113754406, 26345.330637136776, -13206.729377118276, -51136.5668340405, 38902.56302387274, -23240.472166594525, 63231.58749718517, -5639.233367351695, -20353.07381785796, -9826.855042797928, 8809.60480089245, 4842.080753097624, 4493.259429128102, 13551.885014997128, -187500.02235174447, -0.07975, 0.9635, 0.1935625, 192.0, 0.0, 0.0, 0.0, 0.0, 0.0, 0.0, 0.0, 0.0, 0.0, 1.7447429523325772E9, 0.0, 2025-04-15 13:49:12.332
228.0, -21378.460094745173, 13333.441416435411, 26344.525974336386, -13203.018987538695, -51068.72928961865, 38911.45901816595, -23249.546974843382, 63272.08885813819, -5649.269300612128, -20351.039809112528, -9796.635484294353, 8828.737894146192, 4854.620081737052, 4532.464388902711, 13614.156975049613, -187500.02235174447, -0.07975, 0.9635, 0.1935625, 192.0, 0.0, 0.0, 0.0, 0.0, 0.0, 0.0, 0.0, 0.0, 0.0, 1.7447429523385446E9, 0.0, 2025-04-15 13:49:12.338
230.0, -21353.828472355424, 13319.4939278953, 26356.70767506453, -13188.333891431557, -51142.71356376572, 38902.250099450364, -23228.156355399653, 63231.20751752944, -5637.065248139531, -20344.960134620684, -9820.104815972427, 8827.285030756597, 4838.638584451507, 4493.147670405826, 13564.983137247937, -187500.02235174447, -0.075875, 0.96175, 0.19578125000000002, 192.0, 126.5, 96.0, 15.0, 0.0, 3.0, 24.0, 0.0, 0.0, 0.0, 1.7447429523475904E9, 0.0, 2025-04-15 13:49:12.347
232.0, -21325.709977830647, 13383.55402750421, 26360.105140221734, -13182.768307062186, -51057.799286580004, 38918.90214906957, -23242.908506740154, 63298.48626833991, -5635.187701605285, -20339.30514327349, -9787.717138256687, 8846.46282749925, 4853.39073579201, 4528.172853967292, 13626.830414155773, -187500.02235174447, -0.075875, 0.96175, 0.19578125000000002, 192.0, 0.0, 0.0, 0.0, 0.0, 0.0, 0.0, 0.0, 0.0, 0.0, 1.744742952355616E9, 0.0, 2025-04-15 13:49:12.355
234.0, -21292.8752652258, 13364.555044717199, 26382.076905021302, -13174.766382547186, -51169.46860187872, 38894.5834511022, -23233.096090924275, 63235.18612804248, -5597.145032542352, -20303.78822133401, -9791.226362136169, 8856.364650292951, 4849.479180512331, 4520.126225963381, 13580.852875811206, -187500.02235174447, -0.075875, 0.96175, 0.19578125000000002, 192.0, 0.0, 0.0, 0.0, 0.0, 0.0, 0.0, 0.0, 0.0, 0.0, 1.7447429523636975E9, 0.0, 2025-04-15 13:49:12.363
236.0, -21281.230006364585, 13445.37895266759, 26382.523939910407, -13175.816914536586, -51056.36877493486, 38925.36180321715, -23248.094111453785, 63322.62615235164, -5595.580410430481, -20305.978692290628, -9757.4528762642, 8875.631854013427, 4868.925198188448, 4533.760790081119, 13639.012114883913, -187500.02235174447, -0.075875, 0.96175, 0.19578125000000002, 192.0, 0.0, 0.0, 0.0, 0.0, 0.0, 0.0, 0.0, 0.0, 0.0, 1.744742952370722E9, 0.0, 2025-04-15 13:49:12.370
238.0, -21262.946279400145, 13419.048597699237, 26381.227538731997, -13160.863597495985, -51163.65714832034, 38909.96145128745, -23237.186460159595, 63264.042230134284, -5596.608590675425, -20286.622081592333, -9779.089364896938, 8872.323795834041, 4837.4986454842865, 4518.60630734042, 13585.747907846917, -187500.02235174447, -0.075875, 0.96175, 0.19578125000000002, 192.0, 0.0, 0.0, 0.0, 0.0, 0.0, 0.0, 0.0, 0.0, 0.0, 1.7447429523807364E9, 0.0, 2025-04-15 13:49:12.380
240.0, -21240.23690703355, 13506.846249919683, 26376.958355541035, -13162.31646088558, -51025.81394026446, 38946.5959604497, -23229.050425177866, 63362.21109178199, -5600.877773866388, -20290.6900990832, -9753.83189366244, 8891.747461765703, 4848.629814223029, 4549.362307710923, 13636.195795082545, -187500.02235174447, -0.075875, 0.96175, 0.19578125000000002, 192.0, 0.0, 0.0, 0.0, 0.0, 0.0, 0.0, 0.0, 0.0, 0.0, 1.744742952388792E9, 0.0, 2025-04-15 13:49:12.388
242.0, -21207.066918261877, 13476.76080188284, 26382.658050377137, -13148.726600256754, -51177.068194993524, 38910.8331693212, -23233.677236280113, 63262.05292487776, -5569.71944209569, -20256.33546785539, -9752.513140739578, 8901.559877581582, 4850.574415990641, 4536.912386049317, 13596.275579485367, -187500.02235174447, -0.07200000000000001, 0.964, 0.202, 192.0, 126.5, 96.0, 15.0, 16.0, 3.0, 40.0, 0.0, 0.0, 0.0, 1.744742952394814E9, 0.0, 2025-04-15 13:49:12.394
244.0, -21203.512990893483, 13563.150294202602, 26382.03220153239, -13155.677992782354, -51034.106437457376, 38957.16833557705, -23232.69375952408, 63365.765019150385, -5563.595064114937, -20230.85447917634, -9720.25957349057, 8924.828043559557, 4868.880494699538, 4566.774316641608, 13638.386266039166, -187500.02235174447, -0.07200000000000001, 0.964, 0.202, 192.0, 0.0, 0.0, 0.0, 0.0, 0.0, 0.0, 0.0, 0.0, 0.0, 1.7447429524028592E9, 0.0, 2025-04-15 13:49:12.402
246.0, -21185.676298818147, 13510.82486043273, 26373.292669450366, -13155.521530571168, -51194.16727950183, 38908.66505010904, -23244.450777107573, 63257.89550040907, -5553.9167587657885, -20233.782557699986, -9737.448064976701, 8917.429616144851, 4850.261491568267, 4548.4682379327105, 13592.431079439055, -187500.02235174447, -0.07200000000000001, 0.964, 0.202, 192.0, 0.0, 0.0, 0.0, 0.0, 0.0, 0.0, 0.0, 0.0, 0.0, 1.7447429524119065E9, 0.0, 2025-04-15 13:49:12.411
248.0, -21180.401287126697, 13590.866457327184, 26390.61527140323, -13154.873329981963, -51060.63795812583, 38952.295655285794, -23228.201058888564, 63359.35006849171, -5561.67281409178, -20238.498775780055, -9719.566669412456, 8924.67158134837, 4868.209942365878, 4557.721860137208, 13621.68951293105, -187500.02235174447, -0.07200000000000001, 0.964, 0.202, 192.0, 0.0, 0.0, 0.0, 0.0, 0.0, 0.0, 0.0, 0.0, 0.0, 1.7447429524189596E9, 0.0, 2025-04-15 13:49:12.418
250.0, -21161.51406306196, 13544.955974215982, 26387.575434157305, -13150.291222368625, -51221.8387391375, 38904.95466052946, -23236.426500848116, 63259.057791120744, -5539.030496958554, -20233.402578044246, -9719.63372464582, 8923.9563255258, 4863.091392885613, 4540.220444228702, 13599.605989409209, -187500.02235174447, -0.07200000000000001, 0.964, 0.202, 192.0, 0.0, 0.0, 0.0, 0.0, 0.0, 0.0, 0.0, 0.0, 0.0, 1.744742952426981E9, 0.0, 2025-04-15 13:49:12.426
252.0, -21158.407170582675, 13624.483480987965, 26403.31106225384, -13146.312611855581, -51107.710731948704, 38951.98273086342, -23213.985349414987, 63354.455036456, -5542.0032789711095, -20211.207295800126, -9705.529773894523, 8941.703610623314, 4873.909637201981, 4563.153334039847, 13626.428082755576, -187500.02235174447, -0.076, 0.966, 0.202, 192.0, 126.5, 80.0, 15.0, 24.0, 3.0, 40.0, 0.0, 0.0, 0.0, 1.7447429524350307E9, 0.0, 2025-04-15 13:49:12.435
254.0, -21146.9407256771, 13575.287291441833, 26382.680402121594, -13144.770341488165, -51247.14091386091, 38908.061553008745, -23244.048445707376, 63266.478570279905, -5543.724363294168, -20209.977949855085, -9720.527794424033, 8933.187595985843, 4857.43640153842, 4551.597482156454, 13615.006341338914, -187500.02235174447, -0.076, 0.966, 0.202, 192.0, 0.0, 0.0, 0.0, 0.0, 0.0, 0.0, 0.0, 0.0, 0.0, 1.7447429524430504E9, 0.0, 2025-04-15 13:49:12.443
0.0, -21151.701647246082, 13635.70405670453, 26407.870818122723, -13143.250422865203, -51133.728162494685, 38958.42003326655, -23206.83279118929, 63365.742667405924, -5539.4775318476595, -20218.24809530355, -9711.788262342008, 8942.95530831281, 4868.008776665781, 4563.130982295392, 13623.879983887671, -187500.02235174447, -0.076, 0.966, 0.202, 192.0, 0.0, 0.0, 0.0, 0.0, 0.0, 0.0, 0.0, 0.0, 0.0, 1.7447429524510984E9, 0.0, 2025-04-15 13:49:12.451
2.0, -21124.52192598843, 13601.774108621374, 26400.003004074457, -13130.375818058947, -51271.19139089482, 38909.60382337616, -23229.720977511523, 63276.84977970717, -5537.778799269056, -20212.72721442309, -9708.457852418167, 8938.350848955019, 4863.001985907792, 4557.610101414932, 13631.189004324557, -187500.02235174447, -0.076, 0.966, 0.202, 192.0, 0.0, 0.0, 0.0, 0.0, 0.0, 0.0, 0.0, 0.0, 0.0, 1.7447429524591348E9, 0.0, 2025-04-15 13:49:12.459
4.0, -21132.836774925803, 13655.217129614011, 26413.816382147837, -13127.403036046391, -51210.0370180651, 38947.825306394734, -23207.391584800673, 63329.86811755516, -5522.2219851281625, -20202.33365325137, -9699.405395913767, 8946.57629091457, 4874.356672091088, 4575.200924301258, 13618.917896618594, -187500.02235174447, -0.076, 0.966, 0.202, 192.0, 0.0, 0.0, 0.0, 0.0, 0.0, 0.0, 0.0, 0.0, 0.0, 1.7447429524681923E9, 0.0, 2025-04-15 13:49:12.468
6.0, -21132.52385050343, 13636.4193125271, 26397.231387762, -13132.856861693486, -51267.81627748207, 38921.00321304837, -23232.872573479723, 63294.597064804686, -5538.806979514001, -20207.921589365196, -9700.902962792274, 8946.620994403482, 4866.891189443015, 4566.28257826359, 13636.307553804822, -187500.02235174447, -0.076, 0.968, 0.20600000000000002, 192.0, 126.5, 80.0, 15.0, 32.0, 3.0, 56.0, 0.0, 0.0, 0.0, 1.7447429524742184E9, 0.0, 2025-04-15 13:49:12.474
8.0, -21119.492783485985, 13677.479467091498, 26433.08358586831, -13121.92685865484, -51223.7386374162, 38954.91080938707, -23200.7754684419, 63335.45605366899, -5517.416360070272, -20200.5678654394, -9704.278076205024, 8952.521854939683, 4871.070965656158, 4561.56636018352, 13618.001475095925, -187500.02235174447, -0.076, 0.968, 0.20600000000000002, 192.0, 0.0, 0.0, 0.0, 0.0, 0.0, 0.0, 0.0, 0.0, 0.0, 1.7447429524832518E9, 0.0, 2025-04-15 13:49:12.483
10.0, -21113.07783282731, 13670.885702477182, 26409.547198956872, -13131.381646559435, -51260.90958844538, 38929.295710241284, -23226.099994909764, 63312.05377722428, -5518.958630437688, -20193.28119674697, -9681.971035238628, 8953.728849140269, 4877.374157592554, 4580.967674370727, 13655.731219736484, -187500.02235174447, -0.076, 0.968, 0.20600000000000002, 192.0, 0.0, 0.0, 0.0, 0.0, 0.0, 0.0, 0.0, 0.0, 0.0, 1.7447429524912944E9, 0.0, 2025-04-15 13:49:12.491
12.0, -21109.546257203372, 13689.907037008648, 26410.57537920182, -13140.83643446403, -51241.97766089173, 38940.24806502439, -23214.79001221538, 63332.3491611897, -5510.912002433777, -20188.341461222346, -9696.5890761124, 8952.700668895324, 4868.2993493437, 4560.0911450494705, 13610.983027336959, -187500.02235174447, -0.076, 0.968, 0.20600000000000002, 192.0, 0.0, 0.0, 0.0, 0.0, 0.0, 0.0, 0.0, 0.0, 0.0, 1.7447429524993453E9, 0.0, 2025-04-15 13:49:12.499
14.0, -21102.9301408446, 13694.891476022181, 26387.106047523743, -13150.045353179617, -51249.28668132862, 38921.36084095965, -23239.667503794135, 63323.34140817421, -5510.956705922688, -20201.79721138444, -9682.194552683182, 8952.857131106512, 4866.578265020641, 4567.3778137419, 13644.84592018675, -187500.02235174447, -0.076, 0.968, 0.20600000000000002, 192.0, 0.0, 0.0, 0.0, 0.0, 0.0, 0.0, 0.0, 0.0, 0.0, 1.744742952507465E9, 0.0, 2025-04-15 13:49:12.507
16.0, -21087.46273368153, 13702.245199947978, 26409.547198956872, -13135.472015794758, -51276.04171944162, 38931.977919575926, -23209.64911099066, 63309.10334695618, -5504.094720374909, -20185.94982456563, -9692.766927810542, 8950.309032238607, 4861.794991707206, 4550.792819356063, 13596.141469018636, -187500.02235174447, -0.074, 0.966, 0.194, 192.0, 126.5, 88.0, 15.0, 24.0, 3.0, 8.0, 0.0, 0.0, 0.0, 1.7447429525154586E9, 0.0, 2025-04-15 13:49:12.515
18.0, -21102.594864677772, 13717.869069322238, 26372.957393283534, -13158.94134747283, -51220.9893728482, 38925.31709972824, -23245.92599224162, 63345.559042162786, -5508.430958799238, -20206.51342946451, -9672.203322911659, 8952.790075873147, 4869.6628057554735, 4565.835543374485, 13643.41540854161, -187500.02235174447, -0.074, 0.966, 0.194, 192.0, 0.0, 0.0, 0.0, 0.0, 0.0, 0.0, 0.0, 0.0, 0.0, 1.7447429525234869E9, 0.0, 2025-04-15 13:49:12.523
20.0, -21106.014681579432, 13700.926447025115, 26379.372343942206, -13152.012306691684, -51267.83862922653, 38915.90701531256, -23222.903695452656, 63323.54257387431, -5510.576726266948, -20195.829295614876, -9702.534640137512, 8941.457741434306, 4842.125456586535, 4536.353592437934, 13581.389317678133, -187500.02235174447, -0.074, 0.966, 0.194, 192.0, 0.0, 0.0, 0.0, 0.0, 0.0, 0.0, 0.0, 0.0, 0.0, 1.7447429525305262E9, 0.0, 2025-04-15 13:49:12.530
22.0, -21103.42187922262, 13729.648438650185, 26361.736817566973, -13161.489446340735, -51195.84366033598, 38918.812742091744, -23251.022189977433, 63373.83399889875, -5529.0839706759425, -20209.4191562437, -9693.951570266672, 8935.28865996464, 4853.457791025376, 4553.005642057138, 13627.143338578146, -187500.02235174447, -0.074, 0.966, 0.194, 192.0, 0.0, 0.0, 0.0, 0.0, 0.0, 0.0, 0.0, 0.0, 0.0, 1.7447429525385704E9, 0.0, 2025-04-15 13:49:12.538
24.0, -21085.585187147284, 13704.815650560338, 26380.579338142794, -13144.703286254799, -51278.56746656507, 38911.12374199912, -23225.60825653175, 63320.748605817396, -5513.214232112674, -20184.206388498114, -9713.665808876254, 8935.690991364836, 4842.684250197917, 4535.995964526649, 13564.11141921418, -187500.02235174447, -0.074, 0.966, 0.194, 192.0, 0.0, 0.0, 0.0, 0.0, 0.0, 0.0, 0.0, 0.0, 0.0, 1.744742952547603E9, 0.0, 2025-04-15 13:49:12.547
26.0, -21080.466637667017, 13750.323802271343, 26381.36164919873, -13148.860710723486, -51170.09445072347, 38929.67568989703, -23239.064006693843, 63380.89715014663, -5514.532985035537, -20188.073240288883, -9685.279093418014, 8957.68510790886, 4865.460677797875, 4567.154296297347, 13622.471823986987, -187500.02235174447, -0.07, 0.97, 0.196, 192.0, 126.5, 104.0, 15.0, 40.0, 3.0, 16.0, 0.0, 0.0, 0.0, 1.7447429525546336E9, 0.0, 2025-04-15 13:49:12.554
28.0, -21072.487064896475, 13705.173278471624, 26369.35876242623, -13162.405867863401, -51249.510198773176, 38903.099465739666, -23239.30987588285, 63321.083881984225, -5504.385293052828, -20188.922606578184, -9712.481166420122, 8937.903814065912, 4853.636604981018, 4534.788970326063, 13567.263015182378, -187500.02235174447, -0.07, 0.97, 0.196, 192.0, 0.0, 0.0, 0.0, 0.0, 0.0, 0.0, 0.0, 0.0, 0.0, 1.7447429525626905E9, 0.0, 2025-04-15 13:49:12.562
30.0, -21076.912710298624, 13758.348078530798, 26385.675535878603, -13143.876271709953, -51127.38026706938, 38947.22180929444, -23224.82594547581, 63396.47631603198, -5520.791473483023, -20204.926455608183, -9696.834945301407, 8947.403305459417, 4861.951453918392, 4555.263168247124, 13618.64967568513, -187500.02235174447, -0.07, 0.97, 0.196, 192.0, 0.0, 0.0, 0.0, 0.0, 0.0, 0.0, 0.0, 0.0, 0.0, 1.7447429525717196E9, 0.0, 2025-04-15 13:49:12.571
32.0, -21043.83212850477, 13705.508554638453, 26397.499608695463, -13124.854937178487, -51281.584952066536, 38923.0372217938, -23208.151544112152, 63291.73604151441, -5523.4513310732045, -20162.435789398645, -9709.4413291742, 8959.20502653182, 4851.043802624203, 4551.396316456356, 13590.97821604946, -187500.02235174447, -0.07, 0.97, 0.196, 192.0, 0.0, 0.0, 0.0, 0.0, 0.0, 0.0, 0.0, 0.0, 0.0, 1.7447429525787585E9, 0.0, 2025-04-15 13:49:12.578
34.0, -21050.73881754146, 13769.05456412489, 26402.685213409095, -13122.955038899785, -51154.58234007149, 38967.897172915604, -23198.808514929835, 63386.35097579372, -5519.785644982534, -20160.871167286776, -9677.67950030321, 8978.025195363189, 4880.391643094021, 4588.9695988857275, 13650.456208045032, -187500.02235174447, -0.07, 0.97, 0.196, 192.0, 0.0, 0.0, 0.0, 0.0, 0.0, 0.0, 0.0, 0.0, 0.0, 1.7447429525868187E9, 0.0, 2025-04-15 13:49:12.586
36.0, -21056.863195522215, 13702.491069136986, 26394.41506796063, -13115.511907996168, -51284.69184454583, 38941.27624526933, -23203.703546965546, 63313.55134410279, -5529.531005565048, -20140.016989709973, -9698.198401713182, 8972.951349371833, 4850.596767735096, 4578.665444691831, 13620.057835585814, -187500.02235174447, -0.07200000000000001, 0.968, 0.202, 192.0, 126.5, 96.0, 15.0, 32.0, 3.0, 40.0, 0.0, 0.0, 0.0, 1.7447429525948625E9, 0.0, 2025-04-15 13:49:12.594
38.0, -21070.11777998421, 13745.115845813258, 26405.099201810266, -13110.706282938276, -51167.32283441101, 38982.314048089276, -23201.624834731203, 63410.40145282763, -5547.568863340481, -20132.439748339624, -9683.781526539507, 8991.659759480925, 4861.437363795921, 4607.6333055059085, 13660.447437816554, -187500.02235174447, -0.07200000000000001, 0.968, 0.202, 192.0, 0.0, 0.0, 0.0, 0.0, 0.0, 0.0, 0.0, 0.0, 0.0, 1.744742952603897E9, 0.0, 2025-04-15 13:49:12.603
40.0, -21090.770791860916, 13664.828379729794, 26394.37036447172, -13108.649922448389, -51311.40217916992, 38945.23250403792, -23218.25453260595, 63328.147033232104, -5559.661157090803, -20118.894591199707, -9698.131346479815, 8987.368224545506, 4843.041878109202, 4590.534220997599, 13629.870251401693, -187500.02235174447, -0.07200000000000001, 0.968, 0.202, 192.0, 0.0, 0.0, 0.0, 0.0, 0.0, 0.0, 0.0, 0.0, 0.0, 1.7447429526109204E9, 0.0, 2025-04-15 13:49:12.610
42.0, -21141.84452794129, 13685.503743350953, 26406.84263787778, -13106.481803236224, -51189.51811665513, 38992.52879530535, -23191.9241776376, 63426.874688491196, -5592.160593528819, -20113.619579508257, -9693.415128399745, 8999.125242128997, 4855.044764881703, 4616.48459631021, 13658.79340872686, -187500.02235174447, -0.07200000000000001, 0.968, 0.202, 192.0, 0.0, 0.0, 0.0, 0.0, 0.0, 0.0, 0.0, 0.0, 0.0, 1.7447429526189697E9, 0.0, 2025-04-15 13:49:12.618
44.0, -21172.265252144964, 13585.792611335828, 26386.65901263464, -13100.82681188903, -51323.9638595538, 38949.81461165126, -23218.65686400615, 63334.53963214632, -5638.451056295759, -20104.83534393732, -9727.546242183, 8983.791945432657, 4824.6463924224845, 4605.86751769394, 13633.93826889256, -187500.02235174447, -0.07200000000000001, 0.968, 0.202, 192.0, 0.0, 0.0, 0.0, 0.0, 0.0, 0.0, 0.0, 0.0, 0.0, 1.7447429526269927E9, 0.0, 2025-04-15 13:49:12.626
46.0, -21206.91045605069, 13612.435890726554, 26404.518056454428, -13091.886114106908, -51212.51806169964, 39003.61526055518, -23178.91546236461, 63408.90388594913, -5647.101181399963, -20102.443707280603, -9726.20513751568, 8987.882314667979, 4839.219729807345, 4628.420427849344, 13642.70015271904, -187500.02235174447, -0.069, 0.967, 0.201, 192.0, 126.5, 120.0, 15.0, 24.0, 3.0, 32.0, 0.0, 0.0, 0.0, 1.744742952635044E9, 0.0, 2025-04-15 13:49:12.635
48.0, -21218.48865967854, 13547.369962617155, 26372.577413627794, -13106.50415498068, -51294.39250163943, 38966.645475226105, -23203.792953943368, 63336.68539961403, -5691.022359254642, -20105.50589627098, -9749.473303493656, 8971.431430748873, 4819.930174342415, 4623.43598883581, 13647.148149865647, -187500.02235174447, -0.069, 0.967, 0.201, 192.0, 0.0, 0.0, 0.0, 0.0, 0.0, 0.0, 0.0, 0.0, 0.0, 1.74474295264308E9, 0.0, 2025-04-15 13:49:12.643
50.0, -21232.30203775192, 13583.646843868119, 26394.54917842736, -13102.30202702308, -51192.55795390105, 39017.38393513965, -23162.643392401147, 63388.94377815053, -5687.110803974963, -20081.522474470436, -9747.327536025947, 8987.703500712336, 4829.586127947107, 4638.366954131956, 13646.812873698816, -187500.02235174447, -0.069, 0.967, 0.201, 192.0, 0.0, 0.0, 0.0, 0.0, 0.0, 0.0, 0.0, 0.0, 0.0, 1.7447429526511395E9, 0.0, 2025-04-15 13:49:12.651
52.0, -21236.68297966516, 13552.264994652867, 26362.519128622906, -13115.221335318249, -51232.52287298714, 38979.56478352127, -23200.462544019527, 63337.937097303526, -5712.480033931736, -20086.618672206245, -9754.144818084815, 8977.712270940814, 4821.025409820725, 4636.891738997905, 13667.801161742349, -187500.02235174447, -0.069, 0.967, 0.201, 192.0, 0.0, 0.0, 0.0, 0.0, 0.0, 0.0, 0.0, 0.0, 0.0, 1.7447429526591706E9, 0.0, 2025-04-15 13:49:12.659
54.0, -21233.9113633527, 13597.437870197044, 26378.187701486077, -13104.06781483505, -51127.93906068076, 39019.12737120716, -23172.14288379465, 63390.64251072914, -5722.046580558608, -20074.191102289093, -9761.252672821603, 8981.936750642866, 4817.605592919063, 4632.48844534021, 13641.426103285088, -187500.02235174447, -0.069, 0.967, 0.201, 192.0, 0.0, 0.0, 0.0, 0.0, 0.0, 0.0, 0.0, 0.0, 0.0, 1.7447429526661975E9, 0.0, 2025-04-15 13:49:12.666
56.0, -21224.233058003552, 13597.706091130507, 26354.852480274738, -13118.283524308627, -51112.49400526214, 38989.779530737345, -23211.951340669555, 63387.20034208302, -5737.5810429550465, -20068.737276641998, -9749.495655238112, 8987.882314667979, 4807.793177103184, 4643.194930934302, 13670.215150143524, -187500.02235174447, -0.0685, 0.9644999999999999, 0.2025, 192.0, 126.5, 112.0, 15.0, 8.0, 3.0, 48.0, 0.0, 0.0, 0.0, 1.744742952675254E9, 0.0, 2025-04-15 13:49:12.675
58.0, -21186.302147662896, 13640.062646873313, 26390.59291965877, -13093.763660641154, -51057.173437735255, 39011.19250192553, -23177.73081990848, 63405.93110393657, -5725.980487582742, -20051.481729922503, -9755.575329729954, 8993.559657759626, 4796.9972845312695, 4632.913128484861, 13634.497062503942, -187500.02235174447, -0.0685, 0.9644999999999999, 0.2025, 192.0, 0.0, 0.0, 0.0, 0.0, 0.0, 0.0, 0.0, 0.0, 0.0, 1.744742952683335E9, 0.0, 2025-04-15 13:49:12.683
60.0, -21150.785225723415, 13658.502836048941, 26377.83007357479, -13089.673291405832, -51069.01986229657, 38992.66290577208, -23197.534465495883, 63380.13719083514, -5710.915411819865, -20014.221371915504, -9721.913602580262, 9032.272879156219, 4821.628906921018, 4678.153059262402, 13681.525132837909, -187500.02235174447, -0.0685, 0.9644999999999999, 0.2025, 192.0, 0.0, 0.0, 0.0, 0.0, 0.0, 0.0, 0.0, 0.0, 0.0, 1.7447429526903267E9, 0.0, 2025-04-15 13:49:12.690
62.0, -21132.52385050343, 13684.967301484026, 26400.427687219108, -13084.800611114575, -51032.497111856595, 39004.732847777945, -23190.8736456482, 63403.27124634639, -5693.3245889335385, -20002.553761309835, -9731.904832351784, 9034.709219301847, 4812.196470760879, 4652.359146160978, 13636.575774738285, -187500.02235174447, -0.0685, 0.9644999999999999, 0.2025, 192.0, 0.0, 0.0, 0.0, 0.0, 0.0, 0.0, 0.0, 0.0, 0.0, 1.7447429526993632E9, 0.0, 2025-04-15 13:49:12.699
64.0, -21115.581228206305, 13716.639723377195, 26384.08856202228, -13096.44586997579, -50970.67218669322, 38991.00887668239, -23222.54606754137, 63438.251726418945, -5690.307103432072, -20016.992988227965, -9710.11188150786, 9037.145559447476, 4820.377209231521, 4662.864466054973, 13680.787525270884, -187500.02235174447, -0.0685, 0.9644999999999999, 0.2025, 192.0, 0.0, 0.0, 0.0, 0.0, 0.0, 0.0, 0.0, 0.0, 0.0, 1.744742952706476E9, 0.0, 2025-04-15 13:49:12.706
66.0, -21084.8252278358, 13725.200441503579, 26414.88926588169, -13081.313738979548, -50995.88495443881, 38997.960269207986, -23180.30127052084, 63418.09045292026, -5673.185667179307, -19982.258377344417, -9719.544317668, 9049.751943320269, 4813.671685894929, 4651.3980211494, 13625.578716466274, -187500.02235174447, -0.07125000000000001, 0.9622499999999999, 0.20225, 192.0, 126.5, 88.0, 15.0, 0.0, 3.0, 40.0, 0.0, 0.0, 0.0, 1.7447429527154653E9, 0.0, 2025-04-15 13:49:12.715
68.0, -21078.142056243665, 13762.349040788298, 26405.725050655015, -13086.655805904365, -50910.07660747488, 39002.94470822152, -23199.68023296359, 63471.242901234975, -5668.402393865871, -19997.591674040756, -9692.63281734381, 9061.397202181482, 4828.423837235432, 4674.3756144494555, 13688.90120850816, -187500.02235174447, -0.07125000000000001, 0.9622499999999999, 0.20225, 192.0, 0.0, 0.0, 0.0, 0.0, 0.0, 0.0, 0.0, 0.0, 0.0, 1.744742952722503E9, 0.0, 2025-04-15 13:49:12.722
70.0, -21073.13526548568, 13754.615337206762, 26406.41795473313, -13094.993006586195, -50916.84918604484, 38996.90973721859, -23180.7706571544, 63464.58208138729, -5659.819323995033, -19988.9191971921, -9714.738692610108, 9052.009469510254, 4811.592973660586, 4643.977241990237, 13641.60491724073, -187500.02235174447, -0.07125000000000001, 0.9622499999999999, 0.20225, 192.0, 0.0, 0.0, 0.0, 0.0, 0.0, 0.0, 0.0, 0.0, 0.0, 1.7447429527305453E9, 0.0, 2025-04-15 13:49:12.730
72.0, -21062.2723176804, 13802.1574976632, 26394.9291580831, -13101.206791544771, -50791.56765837284, 39013.85235951571, -23185.419820001105, 63533.67132349865, -5669.519981088636, -20004.654825288635, -9696.3879104123, 9057.262129457251, 4827.529767457219, 4666.731317845741, 13694.37738589971, -187500.02235174447, -0.07125000000000001, 0.9622499999999999, 0.20225, 192.0, 0.0, 0.0, 0.0, 0.0, 0.0, 0.0, 0.0, 0.0, 0.0, 1.744742952739597E9, 0.0, 2025-04-15 13:49:12.739
74.0, -21038.378302857676, 13768.406363535687, 26405.970919844025, -13086.611102415456, -50891.18938341014, 38997.826158741256, -23158.798892354836, 63442.431502632084, -5652.912634958343, -19980.358479065715, -9712.324704208935, 9057.686812601902, 4822.47827321032, 4648.246425181202, 13639.280335817379, -187500.02235174447, -0.07125000000000001, 0.9622499999999999, 0.20225, 192.0, 0.0, 0.0, 0.0, 0.0, 0.0, 0.0, 0.0, 0.0, 0.0, 1.7447429527466083E9, 0.0, 2025-04-15 13:49:12.746
76.0, -21030.44343357604, 13842.100065004834, 26396.22555926151, -13094.92595135283, -50730.5250442654, 39027.28575793335, -23168.87952910418, 63536.35353283329, -5653.896111714377, -19991.176723382083, -9682.77569803902, 9073.869475587544, 4845.724087443839, 4684.903286087905, 13699.652397591162, -187500.02235174447, -0.073625, 0.961125, 0.202125, 192.0, 126.5, 80.0, 15.0, 0.0, 3.0, 40.0, 0.0, 0.0, 0.0, 1.7447429527546675E9, 0.0, 2025-04-15 13:49:12.754
78.0, -21007.085860620246, 13799.11766041728, 26414.531637970405, -13073.468276675734, -50831.55492920338, 38996.976792451955, -23160.475273188982, 63455.95430802755, -5635.344163816472, -19971.171912094585, -9694.398605155779, 9071.768411608746, 4825.898090111982, 4649.364012403967, 13642.476635274486, -187500.02235174447, -0.073625, 0.961125, 0.202125, 192.0, 0.0, 0.0, 0.0, 0.0, 0.0, 0.0, 0.0, 0.0, 0.0, 1.7447429527626858E9, 0.0, 2025-04-15 13:49:12.762
80.0, -21008.002282142912, 13872.409030486231, 26424.209943319554, -13067.58976788399, -50674.1092412602, 39037.05347026032, -23164.051552301833, 63557.11830343227, -5626.1128933564305, -19975.821074941286, -9655.841845970375, 9093.159031052475, 4847.199302577889, 4679.650626140908, 13702.267551692434, -187500.02235174447, -0.073625, 0.961125, 0.202125, 192.0, 0.0, 0.0, 0.0, 0.0, 0.0, 0.0, 0.0, 0.0, 0.0, 1.7447429527707303E9, 0.0, 2025-04-15 13:49:12.770
82.0, -21000.715613450484, 13824.844518285337, 26413.548161214374, -13062.135942236895, -50786.44910889258, 38994.92043196207, -23176.747343152445, 63479.781267616905, -5619.2509078086505, -19968.869682415687, -9676.450154358168, 9079.815039612657, 4822.81354937715, 4661.5233613876535, 13653.965431924515, -187500.02235174447, -0.073625, 0.961125, 0.202125, 192.0, 0.0, 0.0, 0.0, 0.0, 0.0, 0.0, 0.0, 0.0, 0.0, 1.744742952778772E9, 0.0, 2025-04-15 13:49:12.778
84.0, -21007.711709464995, 13892.994987129568, 26414.017547847936, -13075.167009254339, -50630.83626399473, 39025.38585965465, -23182.82701764429, 63587.40491716921, -5621.2402130651735, -19984.650014001134, -9658.43464832719, 9089.51569670626, 4845.00883162127, 4680.142364518924, 13694.265627177434, -187500.02235174447, -0.073625, 0.961125, 0.202125, 192.0, 0.0, 0.0, 0.0, 0.0, 0.0, 0.0, 0.0, 0.0, 0.0, 1.744742952786842E9, 0.0, 2025-04-15 13:49:12.786
86.0, -21007.19761934252, 13840.31192544841, 26399.89124535218, -13087.058137304562, -50743.73492523848, 38975.742635219416, -23193.8240759163, 63507.09509934129, -5626.157596845341, -19969.294365560338, -9686.486087618601, 9073.444792442893, 4821.964183087848, 4652.11327697197, 13653.22782435749, -187500.02235174447, -0.0748125, 0.9615625, 0.2050625, 192.0, 126.5, 80.0, 15.0, 8.0, 3.0, 64.0, 0.0, 0.0, 0.0, 1.7447429527948518E9, 0.0, 2025-04-15 13:49:12.794
88.0, -21000.894427406125, 13911.591638516384, 26423.51703924144, -13095.238875775203, -50591.363083286655, 39015.68520256105, -23177.39554374165, 63603.96755981059, -5618.49094849717, -19976.08929587475, -9668.470581587622, 9077.490458189304, 4842.885415898016, 4669.659396369386, 13686.442516618075, -187500.02235174447, -0.0748125, 0.9615625, 0.2050625, 192.0, 0.0, 0.0, 0.0, 0.0, 0.0, 0.0, 0.0, 0.0, 0.0, 1.744742952801904E9, 0.0, 2025-04-15 13:49:12.801
90.0, -21000.693261706027, 13858.752114624038, 26403.042841320377, -13106.347692769492, -50682.178221008566, 38964.544411247305, -23207.078660378298, 63528.12809087373, -5615.652276951347, -19966.321583547782, -9680.875799760319, 9066.582806895114, 4834.3917530049985, 4656.382460162933, 13659.285147104878, -187500.02235174447, -0.0748125, 0.9615625, 0.2050625, 192.0, 0.0, 0.0, 0.0, 0.0, 0.0, 0.0, 0.0, 0.0, 0.0, 1.7447429528109155E9, 0.0, 2025-04-15 13:49:12.810
92.0, -20993.294834291322, 13922.923972955225, 26415.60452170426, -13096.267056020148, -50534.76846632582, 39011.5054263479, -23178.200206542042, 63615.41165297171, -5612.724198427702, -19974.547025507334, -9670.303424632959, 9068.12507726253, 4845.589976977108, 4660.383422420433, 13666.79533324186, -187500.02235174447, -0.0748125, 0.9615625, 0.2050625, 192.0, 0.0, 0.0, 0.0, 0.0, 0.0, 0.0, 0.0, 0.0, 0.0, 1.74474295281899E9, 0.0, 2025-04-15 13:49:12.818
94.0, -20974.832293371237, 13869.88328336278, 26398.438381962584, -13089.405070472369, -50645.92369150206, 38975.07208288575, -23196.126305595197, 63530.00563740798, -5607.4491867362485, -19982.77246746689, -9673.969110723629, 9062.067754515143, 4836.939851872904, 4653.320271172556, 13655.351240080743, -187500.02235174447, -0.0748125, 0.9615625, 0.2050625, 192.0, 0.0, 0.0, 0.0, 0.0, 0.0, 0.0, 0.0, 0.0, 0.0, 1.7447429528260431E9, 0.0, 2025-04-15 13:49:12.826
96.0, -20976.463970716475, 13926.030865434512, 26425.036957864402, -13084.554741925567, -50536.28838494878, 39020.17790319656, -23163.29159299035, 63605.24160924454, -5593.367587729405, -19960.443074756036, -9660.20043613916, 9087.258170516274, 4850.641471224007, 4675.359091205489, 13654.61363251372, -187500.02235174447, -0.07440625000000001, 0.96378125, 0.20353125, 192.0, 126.5, 88.0, 15.0, 24.0, 3.0, 40.0, 0.0, 0.0, 0.0, 1.7447429528340604E9, 0.0, 2025-04-15 13:49:12.834
98.0, -20971.926566592047, 13885.663614948227, 26406.686175666593, -13080.419669201336, -50633.33965937372, 38980.66001899958, -23185.97861361249, 63543.50609105898, -5596.362721486416, -19959.817225911287, -9664.5813780524, 9076.529333177727, 4839.465598996353, 4670.4417074253215, 13662.660260517629, -187500.02235174447, -0.07440625000000001, 0.96378125, 0.20353125, 192.0, 0.0, 0.0, 0.0, 0.0, 0.0, 0.0, 0.0, 0.0, 0.0, 1.7447429528430765E9, 0.0, 2025-04-15 13:49:12.843
100.0, -20966.092761289212, 13926.94728695718, 26431.76483294545, -13066.15925623885, -50570.128926054116, 39012.377144381666, -23167.739590136956, 63602.22412374308, -5587.980817315676, -19964.935775391554, -9665.34133736388, 9077.468106444849, 4840.247910052289, 4668.832381824539, 13654.07719064679, -187500.02235174447, -0.07440625000000001, 0.96378125, 0.20353125, 192.0, 0.0, 0.0, 0.0, 0.0, 0.0, 0.0, 0.0, 0.0, 0.0, 1.744742952851154E9, 0.0, 2025-04-15 13:49:12.851
102.0, -20960.70599087548, 13905.668426235728, 26408.161390800644, -13067.857988817454, -50651.288110171336, 38980.280039343845, -23194.718145694515, 63556.02306795396, -5583.53282016907, -19958.744342177433, -9652.936119191185, 9087.727557149836, 4841.05257285268, 4679.06948078507, 13672.651490289152, -187500.02235174447, -0.07440625000000001, 0.96378125, 0.20353125, 192.0, 0.0, 0.0, 0.0, 0.0, 0.0, 0.0, 0.0, 0.0, 0.0, 1.7447429528581417E9, 0.0, 2025-04-15 13:49:12.858
104.0, -20961.57770890924, 13940.313630141454, 26427.56270498785, -13066.271014961127, -50597.42040603404, 39010.09726644722, -23163.068075545798, 63605.196905755634, -5571.9993200301315, -19958.386714266147, -9656.981784937596, 9084.441850714904, 4841.253738552778, 4674.800297594106, 13648.019867899404, -187500.02235174447, -0.07440625000000001, 0.96378125, 0.20353125, 192.0, 0.0, 0.0, 0.0, 0.0, 0.0, 0.0, 0.0, 0.0, 0.0, 1.7447429528662148E9, 0.0, 2025-04-15 13:49:12.866
106.0, -20965.735133377926, 13922.052254921467, 26405.210960532542, -13085.292349492593, -50626.2988598703, 38979.38596956563, -23199.344956796762, 63584.923873534666, -5587.310264982017, -19973.80941794031, -9649.784523222987, 9077.646920400492, 4839.644412951996, 4666.843076568017, 13683.179161927601, -187500.02235174447, -0.07440625000000001, 0.96378125, 0.20353125, 192.0, 0.0, 0.0, 0.0, 0.0, 0.0, 0.0, 0.0, 0.0, 0.0, 1.7447429528752391E9, 0.0, 2025-04-15 13:49:12.875
108.0, -20959.454293185987, 13935.172728916732, 26430.42372827813, -13079.324433723026, -50613.938345186514, 38992.305277860796, -23180.368325754207, 63585.281501445956, -5573.943921797743, -19968.646164971135, -9660.803933239453, 9081.491420446804, 4832.245985537289, 4644.401925134888, 13639.146225350647, -187500.02235174447, -0.068, 0.964, 0.196, 192.0, 126.5, 112.0, 15.0, 16.0, 3.0, 16.0, 0.0, 0.0, 0.0, 1.74474295288231E9, 0.0, 2025-04-15 13:49:12.882
110.0, -20955.542737906308, 13943.37581913183, 26416.252722293466, -13086.87932334892, -50617.805196977286, 38972.07694912874, -23212.06309939183, 63568.361230893286, -5580.694148623246, -19970.724877205477, -9642.520206275012, 9089.649807172991, 4841.924290886437, 4666.105469000991, 13686.308406151344, -187500.02235174447, -0.068, 0.964, 0.196, 192.0, 0.0, 0.0, 0.0, 0.0, 0.0, 0.0, 0.0, 0.0, 0.0, 1.744742952890326E9, 0.0, 2025-04-15 13:49:12.890
112.0, -20944.366865678654, 13947.823816278436, 26444.99706566299, -13071.188398741293, -50638.145284431615, 38991.52296680486, -23177.596709441746, 63540.175681135144, -5563.885636792856, -19964.33227829126, -9660.580415794899, 9081.402013468984, 4839.711468185362, 4651.44272463831, 13643.1695393526, -187500.02235174447, -0.068, 0.964, 0.196, 192.0, 0.0, 0.0, 0.0, 0.0, 0.0, 0.0, 0.0, 0.0, 0.0, 1.744742952898379E9, 0.0, 2025-04-15 13:49:12.898
114.0, -20941.86347029966, 13972.85777006838, 26425.729861942516, -13075.792858099087, -50602.53895551431, 38991.947649949514, -23201.15544809764, 63549.58576555083, -5564.645596104336, -19960.688943945046, -9632.506624759035, 9095.908295620477, 4856.475276526842, 4679.561219163086, 13696.277284178412, -187500.02235174447, -0.068, 0.964, 0.196, 192.0, 0.0, 0.0, 0.0, 0.0, 0.0, 0.0, 0.0, 0.0, 0.0, 1.744742952906472E9, 0.0, 2025-04-15 13:49:12.906
116.0, -20940.231792954422, 13967.068668254456, 26440.906696427668, -13061.77831432561, -50625.22597613645, 39004.106998933195, -23166.599651169738, 63530.05034089689, -5568.735965339657, -19959.03491485535, -9655.57362503691, 9083.972464081344, 4836.783389661717, 4651.710945571774, 13644.980030653482, -187500.02235174447, -0.068, 0.964, 0.196, 192.0, 0.0, 0.0, 0.0, 0.0, 0.0, 0.0, 0.0, 0.0, 0.0, 1.7447429529144738E9, 0.0, 2025-04-15 13:49:12.914
118.0, -20945.216231967956, 13998.875200614359, 26417.616178705237, -13069.891997562885, -50549.207693243945, 39006.49863558992, -23196.752154439946, 63571.781047794946, -5565.584369371459, -19961.650068956624, -9631.724313703098, 9098.948132866399, 4852.653128224984, 4681.237599997235, 13697.640740590185, -187500.02235174447, -0.062, 0.964, 0.198, 192.0, 127.0, 8.0, 15.0, 16.0, 3.0, 24.0, 0.0, 0.0, 0.0, 1.744742952922488E9, 0.0, 2025-04-15 13:49:12.922
120.0, -20930.151156205076, 13969.326194444442, 26436.36929230324, -13055.609232855944, -50628.08699942673, 38995.635687784634, -23176.233253029975, 63514.493526756, -5564.913817037799, -19951.882356629652, -9656.020659926016, 9094.947170608899, 4835.598747205585, 4653.856713039483, 13640.554385251331, -187500.02235174447, -0.062, 0.964, 0.198, 192.0, 0.0, 0.0, 0.0, 0.0, 0.0, 0.0, 0.0, 0.0, 0.0, 1.7447429529315434E9, 0.0, 2025-04-15 13:49:12.931
122.0, -20937.013141752857, 14011.325122275965, 26426.713338698548, -13070.271977218626, -50519.770445796305, 39012.3100891483, -23197.86974166271, 63582.82280955587, -5555.816657044489, -19952.552908963313, -9622.33658103187, 9108.984066126832, 4853.591901492107, 4698.649608927919, 13699.562990613342, -187500.02235174447, -0.062, 0.964, 0.198, 192.0, 0.0, 0.0, 0.0, 0.0, 0.0, 0.0, 0.0, 0.0, 0.0, 1.744742952937585E9, 0.0, 2025-04-15 13:49:12.937
124.0, -20944.076293000733, 13972.567197390461, 26422.488858996494, -13069.512017907145, -50604.64001949311, 38992.86407147218, -23187.140904324166, 63526.98815190651, -5562.455125147716, -19948.261374027894, -9650.164502878726, 9097.875249132545, 4828.423837235432, 4655.421335151355, 13640.956716651526, -187500.02235174447, -0.062, 0.964, 0.198, 192.0, 0.0, 0.0, 0.0, 0.0, 0.0, 0.0, 0.0, 0.0, 0.0, 1.7447429529466028E9, 0.0, 2025-04-15 13:49:12.946
126.0, -20946.33381919072, 14028.267744573086, 26421.86301015175, -13075.68109937681, -50464.963968391894, 39016.35575489471, -23196.416878273118, 63624.06177807591, -5579.308340467017, -19976.402220297125, -9641.24615684106, 9094.611894442069, 4842.527787986731, 4672.766288848673, 13692.678653321107, -187500.02235174447, -0.062, 0.964, 0.198, 192.0, 0.0, 0.0, 0.0, 0.0, 0.0, 0.0, 0.0, 0.0, 0.0, 1.7447429529546611E9, 0.0, 2025-04-15 13:49:12.954
128.0, -20939.784758065314, 13967.00161302109, 26425.57339973133, -13065.332241694003, -50591.27367630883, 38977.62018175366, -23194.561683483327, 63533.96189617657, -5565.494962393637, -19954.117531075186, -9658.81462798293, 9088.46516471686, 4829.228500035822, 4648.246425181202, 13636.575774738285, -187500.02235174447, -0.062, 0.964, 0.20400000000000001, 192.0, 127.0, 8.0, 15.0, 16.0, 3.0, 48.0, 0.0, 0.0, 0.0, 1.7447429529626896E9, 0.0, 2025-04-15 13:49:12.962
130.0, -20943.38338892262, 14021.383407280853, 26432.010702134456, -13068.796762084576, -50469.724889960875, 39009.00203096891, -23175.83092162978, 63609.62255115778, -5565.405555415816, -19966.05336261432, -9634.026543381995, 9097.428214243439, 4853.167218347457, 4681.394062208422, 13681.681595049096, -187500.02235174447, -0.062, 0.964, 0.20400000000000001, 192.0, 0.0, 0.0, 0.0, 0.0, 0.0, 0.0, 0.0, 0.0, 0.0, 1.7447429529697547E9, 0.0, 2025-04-15 13:49:12.969
132.0, -20949.261897714365, 13965.973432776145, 26425.975731131522, -13072.238930730693, -50580.254266292366, 38968.0983386157, -23186.53740722387, 63525.6917507281, -5567.059584505509, -19954.89984213112, -9659.641642527777, 9082.407841969472, 4832.111875070557, 4647.709983314274, 13645.337658564766, -187500.02235174447, -0.062, 0.964, 0.20400000000000001, 192.0, 0.0, 0.0, 0.0, 0.0, 0.0, 0.0, 0.0, 0.0, 0.0, 1.7447429529787662E9, 0.0, 2025-04-15 13:49:12.978
134.0, -20949.328952947733, 14021.91984914778, 26440.61612374975, -13071.054288274561, -50435.45966571089, 39003.65996404409, -23183.430514744585, 63601.44181268714, -5567.640729861347, -19974.23410108496, -9643.39192430877, 9094.030749086232, 4850.261491568267, 4659.265835197668, 13679.178199670101, -187500.02235174447, -0.062, 0.964, 0.20400000000000001, 192.0, 0.0, 0.0, 0.0, 0.0, 0.0, 0.0, 0.0, 0.0, 0.0, 1.744742952986826E9, 0.0, 2025-04-15 13:49:12.986
136.0, -20948.94897329199, 13967.582758376928, 26430.89311491169, -13070.227273729715, -50565.77033588533, 38966.42195778155, -23192.661785204626, 63496.74624165848, -5559.415287901794, -19971.931871406065, -9655.752438992553, 9087.593446683102, 4838.750343173783, 4646.570044347053, 13653.205472613034, -187500.02235174447, -0.062, 0.964, 0.20400000000000001, 192.0, 0.0, 0.0, 0.0, 0.0, 0.0, 0.0, 0.0, 0.0, 0.0, 1.744742952993847E9, 0.0, 2025-04-15 13:49:12.993
138.0, -20952.614659382663, 14031.68756147475, 26433.038882379402, -13084.577093670023, -50413.55495614469, 39004.82225475577, -23188.59376771376, 63588.09782124732, -5563.125677481375, -19983.934758178566, -9648.778694722498, 9081.17849602443, 4846.752267688784, 4652.314442672067, 13667.868216975716, -187500.02235174447, -0.062, 0.9580000000000001, 0.198, 192.0, 127.0, 8.0, 14.5, 120.0, 3.0, 24.0, 0.0, 0.0, 0.0, 1.7447429530019221E9, 0.0, 2025-04-15 13:49:13.001
140.0, -20950.2453744704, 13974.668261369261, 26433.888248668703, -13067.321546950525, -50536.489550648876, 38970.489975272416, -23185.822151401302, 63491.51593345594, -5569.361814184405, -19964.153464335617, -9654.38898258078, 9086.855839116079, 4834.570566960641, 4648.179369947836, 13653.540748779864, -187500.02235174447, -0.062, 0.9580000000000001, 0.198, 192.0, 0.0, 0.0, 0.0, 0.0, 0.0, 0.0, 0.0, 0.0, 0.0, 1.7447429530109434E9, 0.0, 2025-04-15 13:49:13.010
142.0, -20953.173452994044, 14036.1132068769, 26450.517946543452, -13069.333203951503, -50395.897078024995, 39017.875673517665, -23167.605479670226, 63583.672175845175, -5566.634901360858, -19955.79391190933, -9635.926441660697, 9103.70905443538, 4848.830979923127, 4669.5029341581985, 13680.251083403957, -187500.02235174447, -0.062, 0.9580000000000001, 0.198, 192.0, 0.0, 0.0, 0.0, 0.0, 0.0, 0.0, 0.0, 0.0, 0.0, 1.7447429530179908E9, 0.0, 2025-04-15 13:49:13.017
144.0, -20967.746790378904, 13985.285339985532, 26425.50634449796, -13073.624738886921, -50480.364320321605, 38976.010856152876, -23205.558741755336, 63519.81324193636, -5590.77478537259, -19963.035877112852, -9648.443418555667, 9082.363138480561, 4825.741627900795, 4659.3999456644, 13669.321080365311, -187500.02235174447, -0.062, 0.9580000000000001, 0.198, 192.0, 0.0, 0.0, 0.0, 0.0, 0.0, 0.0, 0.0, 0.0, 0.0, 1.7447429530260124E9, 0.0, 2025-04-15 13:49:13.026
146.0, -20941.95287727748, 14044.450407558728, 26456.307048357376, -13050.982421753695, -50395.51709836926, 39022.0107462419, -23178.557834453328, 63573.07744897336, -5588.919590582799, -19939.18656577904, -9643.883662686785, 9102.971446868354, 4829.76494190275, 4666.3960416789105, 13660.156865138635, -187500.02235174447, -0.062, 0.9580000000000001, 0.198, 192.0, 0.0, 0.0, 0.0, 0.0, 0.0, 0.0, 0.0, 0.0, 0.0, 1.74474295303505E9, 0.0, 2025-04-15 13:49:13.035
148.0, -20948.501938402886, 14009.782851908549, 26434.648207980183, -13062.91825329283, -50469.12139286058, 38983.16341437858, -23206.609273744736, 63512.57127673284, -5586.77382311509, -19921.372225448158, -9637.692229472665, 9110.146356838508, 4829.116741313546, 4683.942161076327, 13671.220978644013, -187500.02235174447, -0.064, 0.96, 0.202, 192.0, 127.0, 0.0, 15.0, 0.0, 3.0, 40.0, 0.0, 0.0, 0.0, 1.7447429530431025E9, 0.0, 2025-04-15 13:49:13.043
150.0, -20957.37558095164, 14045.679753503771, 26452.641362266706, -13061.465389903235, -50366.750403255275, 39015.86401651669, -23180.63654668767, 63578.9559577651, -5589.836012105467, -19936.929039589053, -9648.644584255766, 9109.47580450485, 4827.686229668407, 4668.519457402165, 13654.032487157881, -187500.02235174447, -0.064, 0.96, 0.202, 192.0, 0.0, 0.0, 0.0, 0.0, 0.0, 0.0, 0.0, 0.0, 0.0, 1.7447429530501347E9, 0.0, 2025-04-15 13:49:13.050
152.0, -20937.86250804216, 14023.417416026285, 26434.648207980183, -13053.329354921503, -50424.99904930581, 38980.92823993305, -23204.64232023267, 63523.21070709357, -5589.232515005174, -19935.207955265996, -9640.061514384928, 9105.005455613787, 4829.966107602848, 4676.409623194888, 13670.41631584362, -187500.02235174447, -0.064, 0.96, 0.202, 192.0, 0.0, 0.0, 0.0, 0.0, 0.0, 0.0, 0.0, 0.0, 0.0, 1.744742953058173E9, 0.0, 2025-04-15 13:49:13.058
154.0, -20952.212327982466, 14040.672962745783, 26435.341112058297, -13058.20203521276, -50365.67751952142, 39005.358696622694, -23176.92615710809, 63559.64405055572, -5580.4482794342375, -19925.79787085031, -9647.884624944285, 9103.731406179835, 4833.363572760055, 4677.728376117751, 13647.863405688217, -187500.02235174447, -0.064, 0.96, 0.202, 192.0, 0.0, 0.0, 0.0, 0.0, 0.0, 0.0, 0.0, 0.0, 0.0, 1.744742953067232E9, 0.0, 2025-04-15 13:49:13.067
156.0, -20940.231792954422, 14032.335762063953, 26423.449984008075, -13053.575224110511, -50379.35678712807, 38989.24308887042, -23195.03107011689, 63535.95120143309, -5598.240268020662, -19944.863908870688, -9645.29182258747, 9095.975350853843, 4829.6308314360185, 4679.203591251801, 13682.285092149388, -187500.02235174447, -0.064, 0.96, 0.202, 192.0, 0.0, 0.0, 0.0, 0.0, 0.0, 0.0, 0.0, 0.0, 0.0, 1.7447429530732908E9, 0.0, 2025-04-15 13:49:13.073
158.0, -20936.52140337484, 14047.154968637822, 26453.937763445112, -13047.29438391857, -50350.29951933617, 39013.1594554376, -23165.97380232499, 63551.12803591824, -5565.383203671361, -19921.551039403803, -9644.420104553712, 9110.503984749792, 4843.377154276032, 4669.6817481138405, 13650.679725489585, -187500.02235174447, -0.07, 0.964, 0.20400000000000001, 192.0, 126.5, 104.0, 15.0, 16.0, 3.0, 48.0, 0.0, 0.0, 0.0, 1.7447429530822957E9, 0.0, 2025-04-15 13:49:13.082
160.0, -20934.040359740302, 14054.016954185601, 26435.36346380275, -13054.670459588822, -50324.01386785673, 38992.84171972772, -23198.853218418746, 63552.849120241306, -5574.39095668685, -19928.793004607323, -9626.851633411841, 9116.449548774905, 4849.05449736768, 4680.92467557486, 13699.697101080073, -187500.02235174447, -0.07, 0.964, 0.20400000000000001, 192.0, 0.0, 0.0, 0.0, 0.0, 0.0, 0.0, 0.0, 0.0, 0.0, 1.7447429530903323E9, 0.0, 2025-04-15 13:49:13.090
162.0, -20935.62733359663, 14035.196785354232, 26450.786167476916, -13051.183587453794, -50358.61436827354, 38995.09924591771, -23168.63365991517, 63518.33802680231, -5564.444430404238, -19913.28089395534, -9643.995421409061, 9113.633228973536, 4841.410200763965, 4665.21139922278, 13651.394981312154, -187500.02235174447, -0.07, 0.964, 0.20400000000000001, 192.0, 0.0, 0.0, 0.0, 0.0, 0.0, 0.0, 0.0, 0.0, 0.0, 1.7447429530983672E9, 0.0, 2025-04-15 13:49:13.098
164.0, -20941.483490643917, 14053.681678018771, 26432.882420168215, -13071.25545397466, -50303.31615249111, 38992.03705692734, -23198.964977141022, 63543.81901548136, -5581.163535256807, -19934.09036804323, -9626.985743878573, 9115.980162141343, 4849.1215526010465, 4686.937294833338, 13705.463851149541, -187500.02235174447, -0.07, 0.964, 0.20400000000000001, 192.0, 0.0, 0.0, 0.0, 0.0, 0.0, 0.0, 0.0, 0.0, 0.0, 1.7447429531054928E9, 0.0, 2025-04-15 13:49:13.105
166.0, -20945.775025579336, 14030.435863785251, 26444.70649298507, -13075.211712743248, -50360.11193515205, 38982.26934460036, -23183.385811255674, 63502.11066032776, -5575.1062125094195, -19931.69873138651, -9653.561968035934, 9101.965618367865, 4828.960279102359, 4652.605015349986, 13645.94115566506, -187500.02235174447, -0.07, 0.964, 0.20400000000000001, 192.0, 0.0, 0.0, 0.0, 0.0, 0.0, 0.0, 0.0, 0.0, 0.0, 1.7447429531154804E9, 0.0, 2025-04-15 13:49:13.115
168.0, -20941.505842388375, 14062.197692656244, 26439.364426060252, -13072.976538297718, -50309.39582698296, 38988.61724002567, -23202.094221364765, 63530.16209961916, -5571.686395607758, -19949.021333339373, -9633.37834279279, 9100.959789867376, 4849.5909392346075, 4664.272625955657, 13694.80206904436, -187500.02235174447, -0.07, 0.9610000000000001, 0.202, 192.0, 126.5, 104.0, 14.5, 120.0, 3.0, 32.0, 0.0, 0.0, 0.0, 1.7447429531225185E9, 0.0, 2025-04-15 13:49:13.122
170.0, -20943.0928162447, 14031.128767863365, 26443.18657436211, -13062.605328870455, -50411.073912510146, 38973.842736940715, -23189.286671791873, 63466.95136629956, -5566.858418805411, -19928.122452273663, -9650.835055212387, 9095.550667709193, 4840.449075752387, 4652.180332205336, 13636.754588693928, -187500.02235174447, -0.07, 0.9610000000000001, 0.202, 192.0, 0.0, 0.0, 0.0, 0.0, 0.0, 0.0, 0.0, 0.0, 0.0, 1.7447429531295688E9, 0.0, 2025-04-15 13:49:13.129
172.0, -20948.01020002487, 14082.493076621662, 26432.90477191267, -13067.835637072998, -50295.80596635413, 38991.97000169397, -23211.705471480545, 63540.62271602425, -5576.9167038103, -19939.477138456958, -9626.784578178474, 9112.336827795129, 4849.792104934705, 4679.047129040615, 13685.190818928579, -187500.02235174447, -0.07, 0.9610000000000001, 0.202, 192.0, 0.0, 0.0, 0.0, 0.0, 0.0, 0.0, 0.0, 0.0, 0.0, 1.7447429531385908E9, 0.0, 2025-04-15 13:49:13.138
174.0, -20944.590383123206, 14031.35228530792, 26430.490783511494, -13064.34876493797, -50421.422770192956, 38958.77766117784, -23207.838619689777, 63453.60737485974, -5581.163535256807, -19938.09133030073, -9657.384116337791, 9102.837336401622, 4822.522976699231, 4648.6040530924865, 13621.309533275311, -187500.02235174447, -0.07, 0.9610000000000001, 0.202, 192.0, 0.0, 0.0, 0.0, 0.0, 0.0, 0.0, 0.0, 0.0, 0.0, 1.7447429531466205E9, 0.0, 2025-04-15 13:49:13.146
176.0, -20942.712836588962, 14091.746698826159, 26442.13604237271, -13057.173854967816, -50284.741852848754, 39001.91652797658, -23199.143791096663, 63547.37294284975, -5557.023651245076, -19947.32260076077, -9625.28701129997, 9114.437891773927, 4855.514151515264, 4675.202628994301, 13676.674804291106, -187500.02235174447, -0.07, 0.9610000000000001, 0.202, 192.0, 0.0, 0.0, 0.0, 0.0, 0.0, 0.0, 0.0, 0.0, 0.0, 1.744742953153684E9, 0.0, 2025-04-15 13:49:13.153
178.0, -20941.796415066292, 14042.77402672458, 26431.049577122878, -13058.447904401768, -50397.931086770426, 38969.03711188282, -23209.202076101552, 63470.214720990036, -5567.685433350258, -19939.99122857943, -9647.795217966464, 9104.267848046762, 4833.944718115892, 4660.092849742514, 13630.496100246442, -187500.02235174447, -0.067, 0.9595, 0.202, 192.0, 127.0, 0.0, 14.5, 120.0, 3.0, 40.0, 0.0, 0.0, 0.0, 1.7447429531618652E9, 0.0, 2025-04-15 13:49:13.161
180.0, -20934.95678126297, 14106.521201911117, 26439.90086792718, -13049.283689175092, -50275.10825098852, 39007.10213269021, -23190.91834913711, 63555.53132957594, -5562.924511781277, -19943.813376881288, -9626.114025844816, 9117.053045875198, 4853.502494514286, 4675.113222016481, 13666.504760563943, -187500.02235174447, -0.067, 0.9595, 0.202, 192.0, 0.0, 0.0, 0.0, 0.0, 0.0, 0.0, 0.0, 0.0, 0.0, 1.7447429531707602E9, 0.0, 2025-04-15 13:49:13.170
182.0, -20930.598191094185, 14042.170529624287, 26437.08454812581, -13047.115569962927, -50434.02915406575, 38961.77279493485, -23197.914445151622, 63456.73661908348, -5556.174284955774, -19934.09036804323, -9642.296688830458, 9110.056949860687, 4842.058401353169, 4654.348451417501, 13631.41252176911, -187500.02235174447, -0.067, 0.9595, 0.202, 192.0, 0.0, 0.0, 0.0, 0.0, 0.0, 0.0, 0.0, 0.0, 0.0, 1.7447429531787803E9, 0.0, 2025-04-15 13:49:13.178
184.0, -20941.595249366197, 14098.854553562947, 26445.444100552097, -13052.167064209827, -50309.23936477177, 39001.69301053203, -23193.287634049375, 63544.377809092744, -5556.598968100425, -19947.926097861066, -9624.080017099383, 9117.880060420044, 4856.855256182583, 4674.017986538171, 13661.833245972783, -187500.02235174447, -0.067, 0.9595, 0.202, 192.0, 0.0, 0.0, 0.0, 0.0, 0.0, 0.0, 0.0, 0.0, 0.0, 1.744742953185841E9, 0.0, 2025-04-15 13:49:13.185
186.0, -20937.30371443078, 14035.196785354232, 26434.447042280084, -13043.718104805721, -50455.28566304275, 38959.76113793387, -23199.613177730225, 63446.36540965622, -5565.763183327101, -19942.204051280507, -9642.00611615254, 9102.233839301329, 4835.486988483309, 4656.717736329762, 13635.726408448983, -187500.02235174447, -0.067, 0.9595, 0.202, 192.0, 0.0, 0.0, 0.0, 0.0, 0.0, 0.0, 0.0, 0.0, 0.0, 1.744742953193857E9, 0.0, 2025-04-15 13:49:13.193
188.0, -20951.877051815638, 14088.617454602416, 26449.55682153187, -13044.746285050665, -50315.31903926362, 39004.732847777945, -23187.83380840228, 63548.289364372424, -5562.38806991435, -19949.937754862043, -9630.584374735878, 9111.375702783549, 4850.060325868169, 4670.642873125419, 13659.03927791587, -187500.02235174447, -0.0625, 0.96075, 0.203, 192.0, 127.0, 24.0, 15.0, 8.0, 3.0, 48.0, 0.0, 0.0, 0.0, 1.744742953202988E9, 0.0, 2025-04-15 13:49:13.202
190.0, -20948.09960700269, 14030.234698085154, 26426.579228231818, -13041.460578615735, -50433.22449126536, 38959.20234432249, -23206.430459789095, 63474.550959414366, -5574.681529364769, -19964.488740502446, -9650.410372067736, 9093.159031052475, 4825.562813945153, 4649.855750781983, 13644.51064401992, -187500.02235174447, -0.0625, 0.96075, 0.203, 192.0, 0.0, 0.0, 0.0, 0.0, 0.0, 0.0, 0.0, 0.0, 0.0, 1.7447429532099411E9, 0.0, 2025-04-15 13:49:13.209
192.0, -20945.73032209043, 14081.867227776913, 26449.512118042963, -13033.413950611824, -50327.07605684711, 39002.34121112123, -23169.214805271007, 63547.52940506094, -5571.507581652115, -19958.118493332684, -9648.085790644383, 9097.539972965715, 4833.81060764916, 4661.009271265182, 13656.826455214794, -187500.02235174447, -0.0625, 0.96075, 0.203, 192.0, 0.0, 0.0, 0.0, 0.0, 0.0, 0.0, 0.0, 0.0, 0.0, 1.7447429532180197E9, 0.0, 2025-04-15 13:49:13.218
194.0, -20927.938333504004, 14053.011125685112, 26445.0417691519, -13033.145729678361, -50426.54131967322, 38972.032245639835, -23182.20116879954, 63481.07766879531, -5568.914779295299, -19942.00288558041, -9639.592127751366, 9110.951019638898, 4835.017601849747, 4675.4932016722205, 13668.94110070957, -187500.02235174447, -0.0625, 0.96075, 0.203, 192.0, 0.0, 0.0, 0.0, 0.0, 0.0, 0.0, 0.0, 0.0, 0.0, 1.7447429532260497E9, 0.0, 2025-04-15 13:49:13.226
196.0, -20927.156022448067, 14093.870114549412, 26472.824987509848, -13038.599555325456, -50328.86419640353, 39013.6064903267, -23161.123473778185, 63548.55758530588, -5561.538703625048, -19943.567507692278, -9630.204395080138, 9115.175499340952, 4841.946642630893, 4664.742012589218, 13667.063554175325, -187500.02235174447, -0.0625, 0.96075, 0.203, 192.0, 0.0, 0.0, 0.0, 0.0, 0.0, 0.0, 0.0, 0.0, 0.0, 1.7447429532341173E9, 0.0, 2025-04-15 13:49:13.234
198.0, -20901.09388841318, 14062.845893245447, 26453.937763445112, -13042.131130949394, -50415.54426140121, 38977.46371954247, -23196.126305595197, 63492.8346863788, -5562.477476892171, -19961.47125500098, -9628.796235179452, 9102.636170701524, 4842.594843220097, 4663.445611410811, 13682.732127038495, -187500.02235174447, -0.06225, 0.964375, 0.20350000000000001, 192.0, 127.0, 8.0, 15.0, 32.0, 3.0, 48.0, 0.0, 0.0, 0.0, 1.7447429532421129E9, 0.0, 2025-04-15 13:49:13.242
200.0, -20868.683858952983, 14108.599914145461, 26488.515912117473, -13017.544212048557, -50401.015627505265, 39021.85428403071, -23146.572488137783, 63508.65972145316, -5527.675810775258, -19914.621998622657, -9614.75933966152, 9137.706057751902, 4858.978671905837, 4680.321178474567, 13655.79827496985, -187500.02235174447, -0.06225, 0.964375, 0.20350000000000001, 192.0, 0.0, 0.0, 0.0, 0.0, 0.0, 0.0, 0.0, 0.0, 0.0, 1.7447429532501705E9, 0.0, 2025-04-15 13:49:13.250
202.0, -20888.062821395735, 14081.129620209887, 26456.530565801928, -13030.262354643626, -50466.729756203866, 38999.18961515303, -23179.697773420547, 63477.85901759375, -5529.2627846315845, -19905.435431651527, -9592.765223117498, 9150.401848602516, 4868.276997599244, 4705.422187497877, 13699.875915035715, -187500.02235174447, -0.06225, 0.964375, 0.20350000000000001, 192.0, 0.0, 0.0, 0.0, 0.0, 0.0, 0.0, 0.0, 0.0, 0.0, 1.7447429532581975E9, 0.0, 2025-04-15 13:49:13.258
204.0, -20899.84219072368, 14073.373564883896, 26459.27983036993, -13034.419779112313, -50471.49067777285, 39015.931071750056, -23160.05059004433, 63495.38278524671, -5544.797247028023, -19930.71525463048, -9618.581487963378, 9128.430083802949, 4852.362555547065, 4685.506783188198, 13658.36872558221, -187500.02235174447, -0.06225, 0.964375, 0.20350000000000001, 192.0, 0.0, 0.0, 0.0, 0.0, 0.0, 0.0, 0.0, 0.0, 0.0, 1.7447429532652338E9, 0.0, 2025-04-15 13:49:13.265
206.0, -20918.930580488515, 14068.277367148086, 26428.8367544218, -13051.384753153892, -50464.002843380316, 39003.07881868826, -23199.791991685866, 63521.10964311477, -5553.1567994543075, -19953.916365375087, -9618.38032226328, 9115.84605167461, 4852.943700902903, 4685.439727954832, 13693.103336465758, -187500.02235174447, -0.06225, 0.964375, 0.20350000000000001, 192.0, 0.0, 0.0, 0.0, 0.0, 0.0, 0.0, 0.0, 0.0, 0.0, 1.7447429532742603E9, 0.0, 2025-04-15 13:49:13.274
208.0, -20915.644874053585, 14061.862416489414, 26459.03396118092, -13040.924136748808, -50480.83370695516, 39012.73477229295, -23161.48110168947, 63521.71314021506, -5546.585386584447, -19948.931926361554, -9635.56881374941, 9107.7994236707, 4848.272186311744, 4665.010233522682, 13643.3707050527, -187500.02235174447, -0.062125, 0.9691875, 0.20575000000000002, 192.0, 127.0, 8.0, 15.0, 56.0, 3.0, 64.0, 0.0, 0.0, 0.0, 1.7447429532823272E9, 0.0, 2025-04-15 13:49:13.282
210.0, -20906.570065804728, 14075.653442818339, 26449.42271106514, -13048.859006030441, -50451.57527346317, 39003.57055706627, -23195.232235816984, 63539.1475008902, -5554.632014588358, -19960.53248173386, -9611.384226248769, 9121.389284299526, 4857.838732938616, 4686.959646577793, 13697.640740590185, -187500.02235174447, -0.062125, 0.9691875, 0.20575000000000002, 192.0, 0.0, 0.0, 0.0, 0.0, 0.0, 0.0, 0.0, 0.0, 0.0, 1.7447429532893558E9, 0.0, 2025-04-15 13:49:13.289
212.0, -20899.439859323487, 14064.589329312961, 26466.387685106718, -13043.338125149981, -50494.51297456181, 39007.325650134764, -23164.92327033559, 63510.62667496523, -5539.119903936375, -19934.023312809863, -9625.354066533335, 9126.820758202168, 4848.003965378281, 4671.224018481257, 13643.013077141415, -187500.02235174447, -0.062125, 0.9691875, 0.20575000000000002, 192.0, 0.0, 0.0, 0.0, 0.0, 0.0, 0.0, 0.0, 0.0, 0.0, 1.7447429532973857E9, 0.0, 2025-04-15 13:49:13.297
214.0, -20902.546751802773, 14094.07128024951, 26447.880440697725, -13055.00573575565, -50407.00589501928, 39019.32853690726, -23184.950433367543, 63567.66832681517, -5550.38518314185, -19942.271106513872, -9610.981894848574, 9125.680819234947, 4867.718203987862, 4692.301713502612, 13711.677636108117, -187500.02235174447, -0.062125, 0.9691875, 0.20575000000000002, 192.0, 0.0, 0.0, 0.0, 0.0, 0.0, 0.0, 0.0, 0.0, 0.0, 1.7447429533064911E9, 0.0, 2025-04-15 13:49:13.306
216.0, -20894.65658601005, 14056.386239097863, 26461.71617051556, -13044.299250161559, -50493.484794316864, 39006.67744954556, -23157.904822576624, 63504.90462838467, -5534.649555045314, -19938.225440767463, -9636.552290505444, 9113.834394673633, 4857.05642188268, 4682.0646145420815, 13655.015963913915, -187500.02235174447, -0.062125, 0.9691875, 0.20575000000000002, 192.0, 0.0, 0.0, 0.0, 0.0, 0.0, 0.0, 0.0, 0.0, 0.0, 1.744742953314482E9, 0.0, 2025-04-15 13:49:13.314
218.0, -20898.814010478738, 14102.162611742331, 26456.687028013115, -13043.852215272453, -50388.699816310385, 39029.409173656604, -23168.00781107042, 63567.06482971488, -5539.455180103205, -19945.623868182167, -9609.819604136897, 9123.892679678522, 4885.286675129732, 4694.3357222480445, 13719.94778155658, -187500.02235174447, -0.060062500000000005, 0.9665937499999999, 0.208875, 192.0, 127.0, 24.0, 15.0, 16.0, 3.0, 80.0, 0.0, 0.0, 0.0, 1.7447429533215122E9, 0.0, 2025-04-15 13:49:13.321
220.0, -20900.42333607952, 14062.041230445056, 26459.838623981315, -13036.09615994646, -50479.69376798794, 39017.38393513965, -23160.341162722252, 63502.021253349936, -5536.661212046291, -19936.057321555298, -9631.254927069536, 9121.925726166455, 4865.237160353322, 4672.453364426299, 13665.2754146189, -187500.02235174447, -0.060062500000000005, 0.9665937499999999, 0.208875, 192.0, 0.0, 0.0, 0.0, 0.0, 0.0, 0.0, 0.0, 0.0, 0.0, 1.7447429533295777E9, 0.0, 2025-04-15 13:49:13.329
222.0, -20903.016138436335, 14100.955617541746, 26459.972734448045, -13036.699657046755, -50360.78248748571, 39047.11175526521, -23167.851348859233, 63580.18530371015, -5544.841950516934, -19944.193356537027, -9608.389092491758, 9131.313458837683, 4882.470355328364, 4703.142309563435, 13718.517269911441, -187500.02235174447, -0.060062500000000005, 0.9665937499999999, 0.208875, 192.0, 0.0, 0.0, 0.0, 0.0, 0.0, 0.0, 0.0, 0.0, 0.0, 1.744742953338601E9, 0.0, 2025-04-15 13:49:13.338
224.0, -20908.246446638877, 14036.068503387989, 26457.871670469245, -13039.314811148026, -50495.742320506855, 39020.58023459676, -23158.48596793246, 63496.29920676938, -5530.179206154252, -19935.90085934411, -9627.611592723322, 9122.395112800015, 4865.01364290877, 4678.376576706955, 13664.493103562965, -187500.02235174447, -0.060062500000000005, 0.9665937499999999, 0.208875, 192.0, 0.0, 0.0, 0.0, 0.0, 0.0, 0.0, 0.0, 0.0, 0.0, 1.7447429533466356E9, 0.0, 2025-04-15 13:49:13.346
226.0, -20915.51076358685, 14095.50179189465, 26446.9416674306, -13054.245776444171, -50352.89232169298, 39049.45868843302, -23166.085561047264, 63597.03851902945, -5538.963441725188, -19963.684077702055, -9614.558173961423, 9114.750816196301, 4872.5461807902075, 4688.121937289469, 13708.235467462, -187500.02235174447, -0.060062500000000005, 0.9665937499999999, 0.208875, 192.0, 0.0, 0.0, 0.0, 0.0, 0.0, 0.0, 0.0, 0.0, 0.0, 1.7447429533536928E9, 0.0, 2025-04-15 13:49:13.353
228.0, -20913.387347863598, 14031.084064374456, 26430.51313525595, -13069.10968650695, -50508.90749799103, 39006.61039431219, -23181.888244377165, 63496.410965491654, -5534.470741089671, -19949.781292650856, -9636.261717827525, 9107.151223081497, 4852.496666013797, 4666.798373079107, 13648.757475466427, -187500.02235174447, -0.06003125, 0.962296875, 0.2104375, 192.0, 127.0, 16.0, 14.5, 120.0, 3.0, 80.0, 0.0, 0.0, 0.0, 1.7447429533617177E9, 0.0, 2025-04-15 13:49:13.361
230.0, -20929.324141660232, 14084.460030133729, 26424.32170204183, -13097.742271154199, -50356.08862115009, 39038.88631330566, -23179.988346098467, 63603.587580154854, -5551.3910116423385, -19974.23410108496, -9633.937136404174, 9092.533182207726, 4863.001985907792, 4670.017024280671, 13679.781696770395, -187500.02235174447, -0.06003125, 0.962296875, 0.2104375, 192.0, 0.0, 0.0, 0.0, 0.0, 0.0, 0.0, 0.0, 0.0, 0.0, 1.7447429533708403E9, 0.0, 2025-04-15 13:49:13.370
232.0, -20917.81299326575, 14024.15502359331, 26418.80082116137, -13095.350634497481, -50493.4177390835, 38983.87867020115, -23199.12143935221, 63509.28557029791, -5548.708802307702, -19971.28367081686, -9657.33941284888, 9083.324263492139, 4847.869854911549, 4641.183273933324, 13639.436798028566, -187500.02235174447, -0.06003125, 0.962296875, 0.2104375, 192.0, 0.0, 0.0, 0.0, 0.0, 0.0, 0.0, 0.0, 0.0, 0.0, 1.7447429533778028E9, 0.0, 2025-04-15 13:49:13.377
234.0, -20908.872295483627, 14091.322015681508, 26445.242934851998, -13085.672329148332, -50358.52496129572, 39011.77364728137, -23192.7735439269, 63589.93066429266, -5537.555281824503, -19978.726801720477, -9629.824415424397, 9099.685740433424, 4869.931026688937, 4656.49421888521, 13665.36482159672, -187500.02235174447, -0.06003125, 0.962296875, 0.2104375, 192.0, 0.0, 0.0, 0.0, 0.0, 0.0, 0.0, 0.0, 0.0, 0.0, 1.7447429533858566E9, 0.0, 2025-04-15 13:49:13.385
236.0, -20897.629368022608, 14041.902308690824, 26436.749271958983, -13080.240855245693, -50508.61692531311, 38956.27426579884, -23212.845410447768, 63476.24969199297, -5514.108301890887, -19958.05143809932, -9618.916764130207, 9108.715845193368, 4863.538427774719, 4654.661375839874, 13646.522301020897, -187500.02235174447, -0.06003125, 0.962296875, 0.2104375, 192.0, 0.0, 0.0, 0.0, 0.0, 0.0, 0.0, 0.0, 0.0, 0.0, 1.7447429533938987E9, 0.0, 2025-04-15 13:49:13.393
238.0, -20902.14442040258, 14096.328806439496, 26450.540298287906, -13075.546988910079, -50394.93595301342, 39002.34121112123, -23185.375116512194, 63545.31658235986, -5515.13648213583, -19957.693810188033, -9604.052854067428, 9122.506871522293, 4875.921294202959, 4660.182256720335, 13660.603900027741, -187500.02235174447, -0.06003125, 0.962296875, 0.2104375, 192.0, 0.0, 0.0, 0.0, 0.0, 0.0, 0.0, 0.0, 0.0, 0.0, 1.7447429534019213E9, 0.0, 2025-04-15 13:49:13.401
240.0, -20915.555467075763, 14044.226890114176, 26411.17887630211, -13090.790878628599, -50492.38955883856, 38961.61633272366, -23222.25549486345, 63474.05922103635, -5539.455180103205, -19979.933795921064, -9623.610630465822, 9095.03657758672, 4852.049631124692, 4640.088038455015, 13655.887681947672, -187500.02235174447, -0.06, 0.9560000000000001, 0.216, 192.0, 127.0, 16.0, 14.5, 112.0, 3.0, 96.0, 0.0, 0.0, 0.0, 1.7447429534099796E9, 0.0, 2025-04-15 13:49:13.409
242.0, -20910.928655973516, 14096.462916906228, 26436.726920214525, -13080.240855245693, -50383.87183950804, 39007.28094664585, -23178.53548270887, 63538.499300300995, -5527.251127630607, -19974.547025507334, -9622.291877542959, 9109.9004876495, 4859.872741684048, 4645.54186410211, 13647.79635045485, -187500.02235174447, -0.06, 0.9560000000000001, 0.216, 192.0, 0.0, 0.0, 0.0, 0.0, 0.0, 0.0, 0.0, 0.0, 0.0, 1.7447429534180083E9, 0.0, 2025-04-15 13:49:13.418
244.0, -20900.624501779617, 14053.659326274315, 26413.99519610348, -13082.610140157956, -50484.23117211237, 38971.00406539489, -23196.618043973216, 63466.705497110546, -5530.559185809992, -19975.217577840995, -9621.464862998113, 9108.246458559806, 4855.648261981995, 4650.1910269488135, 13662.682612262084, -187500.02235174447, -0.06, 0.9560000000000001, 0.216, 192.0, 0.0, 0.0, 0.0, 0.0, 0.0, 0.0, 0.0, 0.0, 0.0, 1.7447429534250698E9, 0.0, 2025-04-15 13:49:13.425
246.0, -20912.42622285202, 14082.046041732556, 26431.07192886733, -13084.197114014283, -50404.97188627385, 39006.208062911996, -23158.709485377014, 63519.343855302795, -5531.632069543847, -19977.475104030982, -9629.466787513113, 9107.642961459513, 4860.498590528798, 4648.447590881299, 13652.46786504601, -187500.02235174447, -0.06, 0.9560000000000001, 0.216, 192.0, 0.0, 0.0, 0.0, 0.0, 0.0, 0.0, 0.0, 0.0, 0.0, 1.7447429534330723E9, 0.0, 2025-04-15 13:49:13.433
248.0, -20919.690539799994, 14046.819692470992, 26406.306196010853, -13091.59554142899, -50479.40319531002, 38967.38308279313, -23205.69285222207, 63473.16515125813, -5541.802113271012, -19985.52173203489, -9633.110121859327, 9100.579810211637, 4856.72114571585, 4656.717736329762, 13676.451286846554, -187500.02235174447, -0.06, 0.9560000000000001, 0.216, 192.0, 0.0, 0.0, 0.0, 0.0, 0.0, 0.0, 0.0, 0.0, 0.0, 1.744742953442129E9, 0.0, 2025-04-15 13:49:13.442
250.0, -20917.656531054563, 14060.700125777737, 26434.51409751345, -13081.157276768361, -50457.27496829927, 38993.75814125039, -23175.473293718493, 63497.2379800365, -5534.493092834126, -19990.841447215254, -9643.414276053223, 9088.643978672502, 4851.602596235585, 4632.890776740405, 13649.2715655889, -187500.02235174447, -0.062, 0.9540000000000001, 0.21, 192.0, 127.0, 8.0, 14.5, 104.0, 3.0, 72.0, 0.0, 0.0, 0.0, 1.7447429534501781E9, 0.0, 2025-04-15 13:49:13.450
252.0, -20918.19297292149, 14043.556337780517, 26414.866914137237, -13086.029957059618, -50523.972573753905, 38969.10416711619, -23202.742421953968, 63461.34107844128, -5527.117017163875, -19979.844388943242, -9623.789444421463, 9101.317417778662, 4868.634625510529, 4656.583625863031, 13688.90120850816, -187500.02235174447, -0.062, 0.9540000000000001, 0.21, 192.0, 0.0, 0.0, 0.0, 0.0, 0.0, 0.0, 0.0, 0.0, 0.0, 1.7447429534572084E9, 0.0, 2025-04-15 13:49:13.457
254.0, -20935.87320278564, 14039.86829994539, 26412.162353058142, -13094.68008216382, -50514.20486142694, 38982.358751578184, -23188.39260201366, 63483.22343626302, -5541.802113271012, -19990.461467559515, -9648.555177277944, 9087.504039705282, 4848.518055500753, 4634.254233152179, 13637.581603238774, -187500.02235174447, -0.062, 0.9540000000000001, 0.21, 192.0, 0.0, 0.0, 0.0, 0.0, 0.0, 0.0, 0.0, 0.0, 0.0, 1.7447429534652364E9, 0.0, 2025-04-15 13:49:13.465
